timestamp,Fp1,Fp2,F3,Fz,F4,Cz,Pz,Oz
1399562.0921694364,-110890.95,-99994.71,-63065.918,-21145.06,-39657.31,-66354.125,-46985.477,-18796.062
1399562.0961694308,-110888.96,-99994.39,-63075.93,-21158.326,-39674.562,-66355.19,-46978.355,-18786.012
1399562.1001694254,-110891.766,-99989.99,-63082.156,-21166.83,-39700.97,-66358.56,-46979.656,-18781.088
1399562.10416942,-110901.695,-99995.164,-63080.0,-21160.36,-39697.105,-66357.914,-46984.906,-18788.86
1399562.1081694146,-110907.02,-99998.945,-63066.33,-21152.344,-39672.69,-66354.25,-46984.945,-18793.295
1399562.1121694092,-110904.664,-99994.34,-63064.25,-21151.855,-39653.035,-66352.016,-46979.94,-18789.51
1399562.1161694038,-110906.664,-99993.78,-63075.277,-21162.395,-39672.934,-66353.48,-46972.82,-18772.137
1399562.1201693984,-110909.305,-99995.164,-63084.19,-21173.543,-39704.305,-66358.93,-46980.633,-18784.22
1399562.1241693927,-110912.4,-100001.18,-63084.27,-21167.48,-39698.406,-66362.836,-46983.156,-18784.22
1399562.1281693873,-110908.086,-99995.69,-63071.984,-21152.059,-39666.63,-66355.35,-46984.945,-18785.28
1399562.132169382,-110908.086,-99994.1,-63074.465,-21154.012,-39659.508,-66351.69,-46985.11,-18789.47
1399562.1361693766,-110907.19,-99993.33,-63084.758,-21166.26,-39684.695,-66355.96,-46986.53,-18791.139
1399562.1401693712,-110911.99,-100003.016,-63092.773,-21173.543,-39709.96,-66360.35,-46985.11,-18781.414
1399562.1441693658,-110917.24,-100006.266,-63089.723,-21168.133,-39698.73,-66363.12,-46990.6,-18782.105
1399562.1481693604,-110913.5,-99994.39,-63073.977,-21152.71,-39664.266,-66356.33,-46985.555,-18770.834
1399562.1521693547,-110910.89,-99985.48,-63072.96,-21149.74,-39651.652,-66353.03,-46981.855,-18762.166
1399562.1561693493,-110905.27,-99984.17,-63078.535,-21163.574,-39675.17,-66357.305,-46985.555,-18778.402
1399562.160169344,-110911.055,-99993.37,-63086.02,-21176.637,-39706.91,-66363.32,-46989.42,-18790.771
1399562.1641693385,-110924.16,-100008.34,-63093.26,-21176.229,-39706.258,-66367.35,-46995.85,-18797.078
1399562.1681693331,-110925.3,-100003.75,-63087.812,-21166.139,-39666.504,-66366.74,-47003.867,-18811.727
1399562.1721693277,-110923.51,-99995.445,-63084.598,-21164.227,-39655.926,-66367.15,-47005.293,-18813.03
1399562.1761693223,-110919.97,-99996.34,-63089.844,-21176.19,-39685.547,-66370.28,-47001.18,-18803.06
1399562.1801693167,-110921.516,-99997.73,-63094.24,-21182.21,-39710.125,-66369.875,-46996.543,-18792.684
1399562.1841693113,-110926.68,-99995.77,-63088.34,-21173.38,-39702.23,-66369.39,-47002.93,-18809.246
1399562.188169306,-110926.35,-99992.19,-63082.316,-21163.006,-39676.066,-66366.87,-47001.75,-18808.594
1399562.1921693005,-110922.49,-99989.51,-63080.73,-21160.93,-39670.25,-66368.57,-47006.715,-18817.424
1399562.196169295,-110923.625,-99987.59,-63088.543,-21172.607,-39690.88,-66371.13,-47007.285,-18820.883
1399562.2001692897,-110929.65,-99991.26,-63096.19,-21178.67,-39720.785,-66370.37,-47000.285,-18801.555
1399562.2041692843,-110934.29,-99994.1,-63094.65,-21170.94,-39707.805,-66366.375,-46998.78,-18788.006
1399562.2081692787,-110929.53,-99984.3,-63084.883,-21156.576,-39667.074,-66359.74,-46998.375,-18794.475
1399562.2121692733,-110925.78,-99976.65,-63082.24,-21156.494,-39654.38,-66355.15,-46993.246,-18793.377
1399562.216169268,-110928.1,-99977.26,-63090.496,-21172.73,-39680.22,-66359.01,-46992.27,-18786.256
1399562.2201692625,-110928.15,-99980.836,-63096.03,-21179.037,-39709.637,-66363.164,-46991.66,-18782.105
1399562.224169257,-110934.82,-99985.03,-63094.363,-21175.008,-39706.707,-66365.64,-46993.41,-18792.604
1399562.2281692517,-110933.27,-99986.62,-63082.93,-21164.592,-39712.28,-66363.164,-46993.086,-18788.697
1399562.2321692463,-110926.805,-99977.87,-63077.68,-21159.791,-39673.504,-66361.29,-46992.188,-18789.795
1399562.2361692407,-110930.664,-99975.06,-63087.973,-21173.504,-39691.734,-66363.65,-46989.22,-18782.227
1399562.2401692353,-110938.36,-99982.016,-63098.188,-21184.408,-39712.81,-66368.734,-46991.863,-18785.848
1399562.2441692299,-110938.68,-99980.35,-63095.055,-21175.904,-39702.11,-66371.055,-47002.645,-18803.752
1399562.2481692245,-110942.75,-99979.49,-63091.188,-21165.203,-39673.992,-66366.414,-47004.273,-18808.797
1399562.252169219,-110941.41,-99972.78,-63090.293,-21167.277,-39671.227,-66362.96,-47000.125,-18801.066
1399562.2561692137,-110944.3,-99975.67,-63093.957,-21181.316,-39703.004,-66364.016,-46993.855,-18786.541
1399562.2601692083,-110946.91,-99979.695,-63098.188,-21186.646,-39728.883,-66366.46,-46993.734,-18785.564
1399562.2641692027,-110947.31,-99981.98,-63097.453,-21177.734,-39701.62,-66365.12,-46998.58,-18800.13
1399562.2681691973,-110944.18,-99974.0,-63090.254,-21166.424,-39669.273,-66360.96,-47000.367,-18812.094
1399562.2721691919,-110940.8,-99964.805,-63091.23,-21163.371,-39652.63,-66355.76,-46996.707,-18808.838
1399562.2761691865,-110939.5,-99959.39,-63102.95,-21175.781,-39676.84,-66354.53,-46987.59,-18793.986
1399562.280169181,-110946.945,-99968.266,-63109.62,-21184.45,-39702.516,-66356.94,-46981.242,-18772.908
1399562.2841691757,-110951.09,-99972.3,-63107.06,-21176.514,-39696.453,-66358.93,-46986.29,-18775.105
1399562.2881691703,-110952.68,-99969.32,-63096.76,-21166.545,-39685.67,-66356.28,-46986.574,-18777.426
1399562.2921691646,-110950.73,-99968.55,-63086.633,-21164.389,-39694.05,-66353.88,-46987.754,-18783.732
1399562.2961691592,-110953.21,-99973.11,-63093.67,-21175.904,-39714.6,-66354.66,-46986.043,-18779.664
1399562.3001691538,-110957.6,-99978.11,-63097.902,-21181.723,-39709.473,-66357.26,-46986.41,-18774.455
1399562.3041691484,-110959.84,-99978.766,-63092.938,-21171.51,-39694.582,-66353.92,-46985.312,-18772.42
1399562.308169143,-110954.305,-99972.086,-63083.17,-21159.791,-39666.707,-66348.02,-46987.184,-18777.71
1399562.3121691376,-110948.29,-99962.41,-63083.133,-21161.865,-39663.21,-66342.41,-46982.465,-18769.328
1399562.316169132,-110950.24,-99964.6,-63093.914,-21176.31,-39695.598,-66346.805,-46984.215,-18782.064
1399562.3201691266,-110958.7,-99976.81,-63101.24,-21184.57,-39722.574,-66350.79,-46985.19,-18786.256
1399562.3241691212,-110962.53,-99981.734,-63095.83,-21178.02,-39742.96,-66347.78,-46983.81,-18774.578
1399562.3281691158,-110959.44,-99974.49,-63085.086,-21166.668,-39705.28,-66345.26,-46984.54,-18777.1
1399562.3321691104,-110961.14,-99970.55,-63083.984,-21164.998,-39678.184,-66344.28,-46986.9,-18792.074
1399562.336169105,-110960.78,-99971.11,-63095.543,-21179.443,-39699.137,-66345.38,-46984.824,-18791.992
1399562.3401690996,-110965.17,-99975.266,-63103.723,-21186.932,-39720.01,-66346.36,-46985.19,-18781.697
1399562.344169094,-110967.29,-99976.484,-63101.77,-21179.81,-39703.656,-66344.81,-46988.77,-18791.951
1399562.3481690886,-110965.82,-99972.91,-63092.57,-21166.057,-39675.375,-66339.766,-46991.496,-18803.02
1399562.3521690832,-110966.88,-99969.77,-63093.426,-21167.766,-39667.81,-66337.24,-46990.766,-18803.102
1399562.3561690778,-110974.086,-99970.55,-63105.55,-21181.111,-39699.75,-66339.234,-46984.945,-18792.074
1399562.3601690724,-110977.055,-99975.266,-63109.703,-21187.176,-39718.387,-66340.01,-46980.43,-18780.193
1399562.364169067,-110981.81,-99989.51,-63107.098,-21181.111,-39706.098,-66334.15,-46978.312,-18779.582
1399562.3681690616,-110986.49,-99988.04,-63097.7,-21171.469,-39678.875,-66328.086,-46976.2,-18777.832
1399562.372169056,-110972.58,-99967.62,-63096.355,-21169.598,-39676.15,-66327.6,-46975.18,-18777.182
1399562.3761690506,-110966.31,-99958.13,-63103.723,-21179.158,-39705.04,-66330.65,-46972.94,-18777.914
1399562.3801690452,-110969.2,-99960.25,-63111.574,-21184.652,-39717.855,-66329.35,-46969.44,-18777.955
1399562.3841690398,-110970.75,-99955.9,-63108.605,-21175.945,-39713.785,-66329.71,-46973.96,-18783.0
1399562.3881690344,-110972.58,-99950.85,-63101.973,-21166.463,-39677.41,-66323.53,-46974.164,-18774.658
1399562.392169029,-110966.39,-99945.93,-63097.617,-21166.26,-39666.75,-66318.85,-46968.26,-18755.574
1399562.3961690236,-110970.055,-99952.234,-63108.36,-21179.322,-39689.09,-66323.164,-46974.367,-18778.158
1399562.400169018,-110979.78,-99964.73,-63117.23,-21186.482,-39717.57,-66325.36,-46976.645,-18784.344
1399562.4041690126,-110984.17,-99965.984,-63116.21,-21180.664,-39712.688,-66326.42,-46985.11,-18795.574
1399562.4081690072,-110989.34,-99965.945,-63112.67,-21176.107,-39677.004,-66322.15,-46985.84,-18795.207
1399562.4121690018,-110987.8,-99957.73,-63112.67,-21174.764,-39656.74,-66319.375,-46985.84,-18791.951
1399562.4161689964,-110985.48,-99950.52,-63122.316,-21184.326,-39688.805,-66322.15,-46989.504,-18800.008
1399562.420168991,-110989.625,-99958.01,-63126.14,-21189.412,-39716.31,-66327.92,-46996.22,-18815.959
1399562.4241689856,-110992.68,-99967.086,-63119.55,-21183.35,-39705.406,-66326.17,-46996.016,-18811.402
1399562.42816898,-110991.91,-99964.84,-63112.47,-21171.916,-39674.645,-66321.66,-46996.34,-18805.176
1399562.4321689745,-110993.01,-99959.76,-63112.51,-21174.357,-39668.133,-66317.1,-46992.35,-18799.275
1399562.4361689691,-110997.195,-99961.39,-63123.945,-21187.012,-39700.035,-66316.49,-46984.945,-18789.389
1399562.4401689637,-111006.836,-99974.61,-63134.035,-21193.97,-39724.734,-66320.03,-46987.508,-18803.834
1399562.4441689583,-111008.75,-99978.48,-63131.96,-21183.432,-39711.67,-66317.586,-46988.363,-18800.213
1399562.448168953,-111005.58,-99968.43,-63121.34,-21170.898,-39682.332,-66312.336,-46985.76,-18793.783
1399562.4521689476,-111007.77,-99966.48,-63118.695,-21172.322,-39677.41,-66312.13,-46985.637,-18793.904
1399562.456168942,-111010.22,-99966.07,-63125.246,-21182.332,-39699.18,-66314.05,-46986.168,-18794.842
1399562.4601689365,-111015.79,-99970.75,-63131.39,-21190.838,-39724.527,-66316.9,-46986.816,-18793.58
1399562.4641689311,-111017.78,-99972.984,-63130.58,-21183.064,-39708.902,-66316.53,-46988.895,-18797.363
1399562.4681689257,-111012.17,-99963.75,-63123.945,-21172.322,-39673.625,-66313.36,-46992.23,-18806.234
1399562.4721689203,-111008.55,-99955.125,-63121.3,-21176.637,-39666.707,-66307.78,-46988.16,-18800.863
1399562.476168915,-111014.695,-99957.85,-63132.406,-21190.023,-39697.715,-66309.125,-46981.445,-18791.912
1399562.4801689095,-111016.28,-99964.766,-63137.82,-21192.303,-39717.9,-66311.73,-46980.062,-18783.895
1399562.484168904,-111015.38,-99966.84,-63132.773,-21185.182,-39702.434,-66310.586,-46984.297,-18789.307
1399562.4881688985,-111017.78,-99968.18,-63127.65,-21174.928,-39686.08,-66305.09,-46980.348,-18786.865
1399562.492168893,-111016.484,-99962.484,-63122.152,-21175.334,-39684.695,-66301.92,-46975.87,-18782.023
1399562.4961688877,-111008.016,-99957.32,-63128.055,-21184.246,-39703.574,-66301.96,-46970.83,-18775.555
1399562.5001688823,-111012.25,-99961.02,-63133.586,-21191.121,-39720.62,-66300.414,-46968.465,-18774.008
1399562.504168877,-111015.586,-99959.07,-63128.5,-21183.879,-39712.16,-66296.63,-46966.797,-18773.438
1399562.5081688713,-111012.82,-99945.88,-63120.363,-21169.271,-39678.996,-66292.16,-46966.637,-18773.438
1399562.512168866,-111006.35,-99935.914,-63117.516,-21168.133,-39669.23,-66288.125,-46961.305,-18762.695
1399562.5161688605,-111009.2,-99941.9,-63127.727,-21184.979,-39703.492,-66291.38,-46960.938,-18757.203
1399562.520168855,-111012.13,-99945.6,-63133.71,-21193.197,-39723.062,-66295.45,-46963.91,-18765.951
1399562.5241688497,-111016.805,-99949.22,-63129.844,-21185.791,-39720.746,-66296.06,-46965.008,-18760.498
1399562.5281688443,-111015.875,-99943.28,-63119.02,-21173.178,-39691.977,-66292.85,-46970.418,-18781.576
1399562.532168839,-111017.42,-99944.336,-63116.906,-21172.934,-39680.582,-66290.85,-46968.875,-18786.703
1399562.5361688333,-111014.98,-99944.74,-63125.977,-21182.414,-39710.164,-66293.91,-46967.734,-18780.64
1399562.5401688279,-111021.61,-99946.984,-63133.426,-21190.512,-39722.453,-66297.445,-46972.7,-18781.697
1399562.5441688225,-111023.85,-99947.47,-63128.95,-21183.717,-39706.016,-66297.24,-46977.215,-18785.889
1399562.548168817,-111016.73,-99941.125,-63120.73,-21171.102,-39691.773,-66293.13,-46977.664,-18787.68
1399562.5521688117,-111016.195,-99939.3,-63119.754,-21176.922,-39694.867,-66292.89,-46975.18,-18784.75
1399562.5561688063,-111018.234,-99942.47,-63128.418,-21187.703,-39718.508,-66296.875,-46973.51,-18782.186
1399562.5601688009,-111020.555,-99947.43,-63136.883,-21189.209,-39734.54,-66299.93,-46974.0,-18778.729
1399562.5641687952,-111019.45,-99947.06,-63132.57,-21184.082,-39720.094,-66299.93,-46978.64,-18785.809
1399562.5681687898,-111015.1,-99939.21,-63118.492,-21172.81,-39694.254,-66299.12,-46984.5,-18796.916
1399562.5721687844,-111016.69,-99933.02,-63117.473,-21174.275,-39688.273,-66297.77,-46980.51,-18782.023
1399562.576168779,-111017.91,-99935.02,-63124.23,-21189.412,-39715.457,-66301.44,-46975.79,-18769.49
1399562.5801687737,-111019.125,-99944.38,-63126.953,-21193.482,-39738.895,-66302.25,-46976.074,-18783.855
1399562.5841687683,-111017.664,-99945.234,-63124.434,-21184.041,-39725.3,-66300.414,-46978.56,-18790.283
1399562.5881687629,-111008.47,-99934.57,-63111.33,-21171.55,-39693.44,-66297.77,-46979.13,-18788.412
1399562.5921687572,-111006.836,-99927.086,-63110.19,-21174.684,-39691.45,-66295.734,-46975.547,-18779.623
1399562.5961687518,-111011.31,-99927.164,-63120.605,-21186.97,-39715.617,-66295.17,-46968.344,-18766.113
1399562.6001687464,-111012.05,-99930.055,-63124.96,-21188.924,-39734.742,-66297.04,-46971.477,-18771.281
1399562.604168741,-111014.61,-99930.055,-63120.605,-21183.229,-39722.496,-66296.15,-46974.246,-18767.578
1399562.6081687356,-111016.766,-99927.21,-63114.22,-21176.596,-39702.92,-66291.55,-46974.61,-18776.205
1399562.6121687302,-111011.92,-99916.06,-63111.613,-21176.596,-39697.633,-66290.445,-46977.785,-18792.44
1399562.6161687248,-111012.05,-99918.79,-63116.496,-21188.518,-39716.84,-66292.805,-46978.72,-18787.68
1399562.6201687192,-111021.734,-99931.89,-63126.875,-21196.86,-39742.555,-66297.69,-46981.242,-18793.254
1399562.6241687138,-111027.71,-99938.48,-63124.676,-21191.57,-39732.3,-66297.65,-46982.91,-18788.533
1399562.6281687084,-111019.86,-99924.08,-63113.527,-21177.816,-39699.953,-66292.28,-46980.39,-18783.123
1399562.632168703,-111018.4,-99914.72,-63112.875,-21179.973,-39688.926,-66291.51,-46979.086,-18780.07
1399562.6361686976,-111020.39,-99911.09,-63123.82,-21193.97,-39711.55,-66295.25,-46980.023,-18784.791
1399562.6401686922,-111027.39,-99914.266,-63131.555,-21200.398,-39740.152,-66300.58,-46983.44,-18790.895
1399562.6441686868,-111034.8,-99924.445,-63130.168,-21198.73,-39740.766,-66300.664,-46982.91,-18795.613
1399562.6481686812,-111031.78,-99917.97,-63116.54,-21186.402,-39708.293,-66294.92,-46979.656,-18789.227
1399562.6521686758,-111025.15,-99906.87,-63113.28,-21186.035,-39691.367,-66291.266,-46974.734,-18783.611
1399562.6561686704,-111021.65,-99904.055,-63122.52,-21196.533,-39708.945,-66292.766,-46972.74,-18786.541
1399562.660168665,-111022.305,-99911.87,-63125.53,-21197.998,-39720.133,-66295.45,-46975.223,-18788.045
1399562.6641686596,-111026.695,-99914.39,-63121.504,-21191.041,-39710.613,-66296.266,-46978.395,-18784.547
1399562.6681686542,-111026.125,-99906.375,-63114.91,-21183.105,-39688.273,-66296.02,-46981.73,-18783.855
1399562.6721686488,-111024.21,-99901.77,-63115.723,-21187.826,-39682.863,-66297.61,-46980.062,-18781.861
1399562.6761686432,-111027.06,-99901.01,-63127.973,-21203.736,-39717.49,-66301.07,-46977.582,-18779.664
1399562.6801686378,-111031.375,-99910.41,-63130.656,-21206.91,-39742.72,-66302.164,-46977.01,-18782.064
1399562.6841686324,-111032.02,-99910.12,-63127.08,-21194.5,-39728.027,-66301.31,-46978.883,-18780.193
1399562.688168627,-111030.6,-99901.82,-63119.02,-21183.758,-39698.527,-66297.89,-46982.06,-18787.477
1399562.6921686216,-111032.07,-99898.97,-63117.758,-21189.453,-39698.61,-66297.04,-46983.113,-18798.463
1399562.6961686162,-111036.83,-99905.03,-63126.426,-21202.84,-39720.543,-66295.82,-46973.27,-18777.71
1399562.7001686108,-111038.5,-99904.95,-63133.098,-21207.52,-39731.49,-66297.57,-46975.996,-18774.373
1399562.7041686052,-111039.11,-99902.914,-63129.723,-21198.812,-39729.207,-66297.77,-46981.16,-18778.564
1399562.7081685998,-111045.01,-99905.84,-63124.35,-21189.006,-39704.793,-66296.43,-46984.62,-18783.162
1399562.7121685944,-111055.14,-99910.12,-63123.82,-21189.047,-39686.65,-66292.97,-46984.742,-18791.383
1399562.716168589,-111042.36,-99897.51,-63130.414,-21200.643,-39701.457,-66297.445,-46985.312,-18801.922
1399562.7201685836,-111028.89,-99887.74,-63132.406,-21206.137,-39722.37,-66299.73,-46983.277,-18794.11
1399562.7241685782,-111033.62,-99892.625,-63132.246,-21201.66,-39717.203,-66298.18,-46980.836,-18782.635
1399562.7281685725,-111032.48,-99890.71,-63121.83,-21194.133,-39697.715,-66294.64,-46979.86,-18783.65
1399562.7321685671,-111037.36,-99892.3,-63121.992,-21195.557,-39684.45,-66297.04,-46982.3,-18789.795
1399562.7361685617,-111042.195,-99899.7,-63130.86,-21206.666,-39709.434,-66301.76,-46985.027,-18783.57
1399562.7401685563,-111033.62,-99894.45,-63135.418,-21210.613,-39733.848,-66304.41,-46985.434,-18769.37
1399562.744168551,-111039.68,-99901.164,-63130.94,-21203.98,-39734.254,-66303.305,-46987.266,-18785.035
1399562.7481685455,-111044.48,-99907.48,-63118.574,-21192.75,-39707.926,-66297.164,-46987.508,-18788.738
1399562.7521685401,-111040.98,-99902.266,-63114.668,-21192.994,-39694.54,-66295.86,-46986.37,-18790.65
1399562.7561685345,-111043.17,-99901.33,-63123.66,-21208.008,-39719.117,-66299.28,-46985.312,-18790.936
1399562.760168529,-111048.14,-99906.87,-63135.01,-21215.861,-39748.984,-66301.64,-46981.61,-18779.176
1399562.7641685237,-111047.57,-99903.61,-63132.043,-21206.666,-39734.254,-66303.14,-46985.92,-18781.25
1399562.7681685183,-111052.125,-99908.45,-63128.137,-21198.934,-39717.082,-66303.02,-46992.066,-18795.33
1399562.772168513,-111047.33,-99900.76,-63128.5,-21199.504,-39712.16,-66303.266,-46992.15,-18806.193
1399562.7761685075,-111048.34,-99899.375,-63133.02,-21212.77,-39730.55,-66308.63,-46991.863,-18811.28
1399562.7801685021,-111053.914,-99906.3,-63136.395,-21220.256,-39751.465,-66313.516,-46989.707,-18800.213
1399562.7841684965,-111055.305,-99908.33,-63129.883,-21211.102,-39731.934,-66312.79,-46988.527,-18785.564
1399562.788168491,-111054.65,-99902.1,-63121.582,-21198.08,-39705.445,-66309.05,-46991.336,-18807.658
1399562.7921684857,-111051.15,-99896.734,-63123.984,-21200.236,-39700.97,-66306.48,-46988.203,-18796.469
1399562.7961684803,-111054.0,-99901.37,-63135.01,-21215.576,-39731.12,-66309.25,-46981.285,-18781.414
1399562.800168475,-111062.914,-99912.16,-63143.883,-21225.098,-39751.668,-66312.7,-46982.06,-18776.734
1399562.8041684695,-111063.68,-99906.01,-63144.004,-21217.611,-39735.395,-66315.68,-46991.78,-18797.322
1399562.808168464,-111065.76,-99901.37,-63135.05,-21205.12,-39704.875,-66311.89,-46992.637,-18801.514
1399562.8121684585,-111065.76,-99901.53,-63134.24,-21206.666,-39700.727,-66307.984,-46986.453,-18797.16
1399562.816168453,-111068.28,-99908.53,-63139.406,-21218.791,-39727.133,-66309.49,-46976.605,-18781.697
1399562.8201684477,-111070.73,-99912.44,-63142.945,-21228.027,-39752.566,-66309.66,-46969.89,-18776.205
1399562.8241684423,-111069.54,-99914.11,-63138.184,-21222.82,-39740.277,-66309.29,-46970.5,-18773.967
1399562.828168437,-111068.52,-99908.86,-63130.496,-21207.846,-39709.84,-66305.14,-46973.43,-18779.256
1399562.8321684315,-111067.43,-99908.33,-63130.74,-21209.473,-39705.65,-66302.734,-46971.926,-18780.232
1399562.836168426,-111070.48,-99911.26,-63136.438,-21221.191,-39729.656,-66307.45,-46972.58,-18782.756
1399562.8401684205,-111077.84,-99915.164,-63143.598,-21226.889,-39749.797,-66310.305,-46974.57,-18786.703
1399562.844168415,-111085.33,-99920.66,-63141.36,-21220.338,-39745.117,-66307.414,-46972.13,-18777.791
1399562.8481684097,-111081.51,-99913.54,-63126.67,-21209.066,-39719.484,-66301.44,-46970.664,-18767.781
1399562.8521684043,-111076.016,-99910.24,-63128.543,-21210.896,-39721.07,-66296.96,-46965.21,-18766.033
1399562.8561683989,-111077.31,-99909.914,-63137.617,-21224.324,-39730.47,-66298.586,-46961.55,-18759.36
1399562.8601683935,-111086.02,-99916.14,-63143.066,-21231.771,-39749.105,-66300.82,-46962.812,-18761.271
1399562.864168388,-111085.66,-99918.87,-63137.004,-21222.576,-39743.082,-66300.336,-46965.21,-18763.998
1399562.8681683824,-111083.01,-99915.695,-63128.258,-21211.873,-39708.824,-66296.02,-46966.434,-18764.283
1399562.872168377,-111080.695,-99908.0,-63126.223,-21213.014,-39701.01,-66292.56,-46965.863,-18761.312
1399562.8761683716,-111084.64,-99904.83,-63137.74,-21225.057,-39725.3,-66295.01,-46970.625,-18777.223
1399562.8801683662,-111086.1,-99909.305,-63145.184,-21231.854,-39747.76,-66297.69,-46972.293,-18784.262
1399562.8841683608,-111089.234,-99918.26,-63142.906,-21225.262,-39742.88,-66299.32,-46977.824,-18785.768
1399562.8881683555,-111092.66,-99921.35,-63134.645,-21212.646,-39688.355,-66295.125,-46976.2,-18784.139
1399562.89216835,-111087.2,-99909.8,-63126.953,-21209.596,-39688.52,-66291.14,-46973.43,-18778.85
1399562.8961683444,-111087.734,-99910.73,-63133.18,-21222.168,-39731.285,-66291.75,-46969.973,-18773.967
1399562.900168339,-111093.39,-99916.06,-63140.547,-21229.168,-39748.21,-66293.26,-46970.746,-18779.053
1399562.9041683336,-111094.41,-99912.64,-63135.664,-21222.615,-39741.05,-66291.1,-46969.44,-18773.357
1399562.9081683282,-111091.27,-99903.61,-63125.53,-21209.31,-39712.32,-66286.625,-46972.535,-18783.732
1399562.9121683228,-111083.13,-99896.81,-63125.367,-21210.084,-39714.4,-66284.06,-46973.594,-18792.969
1399562.9161683174,-111085.94,-99899.26,-63133.79,-21223.836,-39752.93,-66286.79,-46971.438,-18783.773
1399562.9201683118,-111095.87,-99909.55,-63139.49,-21227.947,-39784.586,-66290.33,-46971.6,-18782.227
1399562.9241683064,-111100.02,-99914.266,-63136.273,-21218.588,-39755.777,-66291.83,-46976.973,-18791.424
1399562.928168301,-111104.086,-99913.984,-63127.65,-21207.967,-39719.2,-66287.15,-46977.297,-18794.027
1399562.9321682956,-111103.805,-99904.38,-63125.246,-21211.71,-39707.074,-66284.63,-46974.043,-18788.941
1399562.9361682902,-111081.47,-99882.04,-63133.465,-21223.023,-39734.133,-66287.44,-46971.52,-18778.361
1399562.9401682848,-111078.58,-99887.49,-63137.777,-21226.686,-39752.848,-66284.43,-46965.21,-18763.713
1399562.9441682794,-111082.32,-99890.34,-63132.773,-21219.402,-39743.043,-66281.05,-46969.24,-18770.996
1399562.9481682738,-111073.125,-99877.445,-63122.52,-21208.74,-39714.438,-66278.16,-46975.953,-18784.139
1399562.9521682684,-111062.83,-99867.516,-63120.605,-21210.205,-39711.793,-66278.32,-46978.07,-18787.518
1399562.956168263,-111065.23,-99870.08,-63127.2,-21222.982,-39739.992,-66279.87,-46975.79,-18783.082
1399562.9601682576,-111059.086,-99859.945,-63134.277,-21227.377,-39754.56,-66284.14,-46978.598,-18782.39
1399562.9641682522,-111060.63,-99864.51,-63130.168,-21219.93,-39748.902,-66281.086,-46977.38,-18781.006
1399562.9681682468,-111059.21,-99855.8,-63121.582,-21207.56,-39721.152,-66278.12,-46979.004,-18788.533
1399562.9721682414,-111050.375,-99841.84,-63119.348,-21206.707,-39705.363,-66280.805,-46988.28,-18800.334
1399562.9761682358,-111050.78,-99846.27,-63128.055,-21215.7,-39723.594,-66282.43,-46985.434,-18796.957
1399562.9801682304,-111049.97,-99843.23,-63133.668,-21220.988,-39749.023,-66283.49,-46980.39,-18780.559
1399562.984168225,-111048.22,-99841.27,-63125.938,-21210.164,-39734.863,-66281.21,-46983.48,-18795.248
1399562.9881682196,-111047.37,-99833.83,-63117.027,-21198.854,-39713.22,-66276.57,-46984.133,-18799.275
1399562.9921682142,-111054.484,-99836.8,-63117.84,-21204.225,-39711.67,-66276.29,-46982.22,-18792.766
1399562.9961682088,-111058.64,-99842.695,-63129.56,-21217.123,-39737.02,-66280.48,-46984.297,-18798.87
1399563.0001682034,-111062.664,-99850.63,-63139.69,-21223.959,-39753.824,-66283.53,-46984.254,-18796.957
1399563.0041681977,-111066.37,-99853.48,-63133.26,-21214.314,-39743.938,-66280.88,-46986.94,-18803.264
1399563.0081681923,-111064.5,-99846.07,-63122.723,-21202.596,-39709.72,-66277.02,-46988.77,-18807.617
1399563.012168187,-111060.23,-99848.11,-63126.305,-21204.713,-39700.523,-66275.39,-46986.25,-18798.666
1399563.0161681816,-111064.945,-99861.58,-63136.19,-21219.238,-39731.812,-66278.81,-46985.273,-18799.805
1399563.0201681762,-111073.29,-99858.16,-63146.16,-21228.598,-39756.31,-66284.67,-46986.41,-18800.537
1399563.0241681708,-111078.54,-99859.87,-63146.934,-21223.389,-39738.61,-66285.97,-46991.457,-18805.176
1399563.0281681654,-111077.84,-99854.695,-63135.867,-21209.676,-39719.2,-66283.04,-46996.137,-18809.45
1399563.0321681597,-111075.4,-99846.766,-63131.188,-21209.393,-39727.05,-66282.23,-46995.973,-18819.662
1399563.0361681543,-111080.77,-99858.56,-63135.703,-21223.064,-39761.395,-66283.81,-46993.33,-18814.78
1399563.040168149,-111090.54,-99862.76,-63139.934,-21230.104,-39771.566,-66283.0,-46990.6,-18808.879
1399563.0441681435,-111089.234,-99860.6,-63136.72,-21222.82,-39752.848,-66284.22,-46996.258,-18812.297
1399563.0481681381,-111079.516,-99861.86,-63128.867,-21211.834,-39729.74,-66280.84,-47000.203,-18818.074
1399563.0521681327,-111078.33,-99850.75,-63130.414,-21214.844,-39717.45,-66277.1,-46995.89,-18813.885
1399563.0561681273,-111081.1,-99846.56,-63142.254,-21224.244,-39730.266,-66278.445,-46994.1,-18815.838
1399563.0601681217,-111084.27,-99847.25,-63149.17,-21228.475,-39759.684,-66281.5,-46996.137,-18811.932
1399563.0641681163,-111088.38,-99853.07,-63146.566,-21222.615,-39756.31,-66279.38,-46996.22,-18813.64
1399563.068168111,-111088.87,-99846.805,-63138.39,-21212.281,-39729.777,-66275.31,-46991.742,-18805.258
1399563.0721681055,-111086.63,-99840.58,-63133.71,-21213.99,-39723.88,-66272.38,-46984.66,-18793.01
1399563.0761681001,-111089.195,-99846.36,-63143.027,-21226.93,-39748.7,-66275.27,-46980.266,-18789.348
1399563.0801680947,-111095.055,-99856.24,-63146.934,-21230.916,-39774.863,-66281.74,-46985.312,-18792.074
1399563.0841680893,-111096.68,-99854.9,-63143.027,-21221.883,-39786.906,-66282.02,-46990.316,-18803.426
1399563.0881680837,-111088.016,-99850.586,-63136.598,-21214.396,-39761.844,-66278.08,-46991.008,-18803.426
1399563.0921680783,-111086.59,-99844.32,-63138.023,-21218.182,-39747.195,-66274.5,-46984.418,-18786.662
1399563.096168073,-111085.01,-99846.27,-63141.848,-21230.062,-39768.555,-66277.75,-46990.113,-18799.805
1399563.1001680675,-111093.59,-99848.39,-63145.02,-21237.469,-39780.152,-66280.56,-46992.35,-18807.537
1399563.104168062,-111104.086,-99851.2,-63146.566,-21231.121,-39764.16,-66279.18,-46992.88,-18803.264
1399563.1081680567,-111109.87,-99850.47,-63142.418,-21221.844,-39722.74,-66276.53,-46992.027,-18802.205
1399563.112168051,-111104.375,-99847.13,-63134.89,-21221.6,-39722.78,-66275.555,-46990.6,-18795.857
1399563.1161680457,-111103.88,-99852.46,-63143.555,-21232.178,-39761.92,-66280.68,-46988.28,-18791.098
1399563.1201680403,-111109.58,-99854.695,-63146.406,-21237.508,-39774.09,-66283.81,-46991.21,-18796.63
1399563.1241680349,-111107.06,-99847.78,-63141.24,-21228.883,-39764.977,-66284.71,-46997.355,-18796.266
1399563.1281680295,-111103.97,-99836.34,-63134.973,-21218.426,-39737.71,-66278.77,-46995.65,-18789.836
1399563.132168024,-111104.086,-99835.29,-63132.61,-21223.389,-39732.586,-66274.25,-46991.66,-18792.725
1399563.1361680187,-111106.04,-99840.336,-63138.062,-21234.09,-39763.55,-66277.06,-46989.625,-18792.684
1399563.140168013,-111113.125,-99848.8,-63143.8,-21235.271,-39796.918,-66280.27,-46990.6,-18789.836
1399563.1441680077,-111118.414,-99850.95,-63141.074,-21225.383,-39793.457,-66282.11,-46995.73,-18794.027
1399563.1481680023,-111116.58,-99843.63,-63132.812,-21217.488,-39750.45,-66278.98,-46996.91,-18798.666
1399563.1521679969,-111106.695,-99834.76,-63128.83,-21218.914,-39732.26,-66278.2,-46998.375,-18805.34
1399563.1561679915,-111107.266,-99837.41,-63140.547,-21231.568,-39753.703,-66279.18,-46992.555,-18791.463
1399563.160167986,-111111.9,-99851.16,-63152.344,-21237.184,-39773.152,-66283.81,-46995.85,-18797.16
1399563.1641679807,-111114.83,-99853.92,-63144.98,-21231.04,-39764.04,-66285.69,-47003.99,-18820.639
1399563.168167975,-111118.01,-99851.89,-63140.26,-21222.494,-39746.5,-66281.21,-47000.773,-18807.984
1399563.1721679696,-111121.26,-99841.8,-63138.55,-21224.812,-39738.242,-66279.42,-46995.527,-18800.822
1399563.1761679642,-111120.85,-99840.21,-63140.383,-21235.516,-39751.06,-66281.21,-46994.71,-18795.004
1399563.1801679588,-111125.82,-99844.93,-63146.73,-21239.38,-39770.914,-66286.17,-47001.387,-18799.236
1399563.1841679534,-111130.5,-99842.125,-63144.98,-21230.633,-39761.76,-66285.484,-47002.645,-18798.543
1399563.188167948,-111120.53,-99837.734,-63138.51,-21220.785,-39734.58,-66279.3,-46999.797,-18798.137
1399563.1921679426,-111115.766,-99830.37,-63139.082,-21226.156,-39727.945,-66278.36,-46998.78,-18799.154
1399563.196167937,-111118.21,-99828.125,-63151.9,-21241.902,-39761.516,-66282.59,-46999.594,-18805.46
1399563.2001679316,-111126.14,-99838.26,-63160.363,-21247.926,-39793.05,-66284.34,-46997.64,-18800.252
1399563.2041679262,-111126.266,-99845.46,-63149.496,-21235.555,-39768.84,-66281.13,-46996.707,-18788.209
1399563.2081679208,-111126.47,-99842.29,-63138.754,-21223.227,-39729.492,-66278.12,-46999.594,-18802.734
1399563.2121679154,-111122.805,-99835.086,-63135.46,-21225.79,-39732.707,-66276.9,-47001.14,-18809.979
1399563.21616791,-111122.73,-99836.8,-63144.53,-21240.926,-39753.95,-66281.7,-47000.69,-18804.363
1399563.2201679046,-111126.39,-99845.83,-63151.492,-21249.553,-39777.914,-66285.08,-46999.15,-18803.182
1399563.224167899,-111125.164,-99841.07,-63145.1,-21240.479,-39765.504,-66284.99,-46996.91,-18781.414
1399563.2281678936,-111126.266,-99834.15,-63139.855,-21229.29,-39736.86,-66281.66,-46997.4,-18787.8
1399563.2321678882,-111122.97,-99826.055,-63138.55,-21231.73,-39733.97,-66280.68,-46996.38,-18803.387
1399563.2361678828,-111124.84,-99829.555,-63148.848,-21243.816,-39749.918,-66283.45,-46992.637,-18789.918
1399563.2401678774,-111128.3,-99838.914,-63156.78,-21246.258,-39768.19,-66283.2,-46991.824,-18786.297
1399563.244167872,-111126.8,-99833.7,-63149.05,-21235.107,-39756.918,-66283.125,-46999.15,-18801.025
1399563.2481678666,-111125.414,-99820.93,-63137.25,-21225.383,-39728.477,-66280.73,-47000.855,-18804.281
1399563.252167861,-111129.64,-99817.305,-63136.477,-21231.04,-39728.965,-66278.65,-46996.016,-18792.48
1399563.2561678556,-111125.33,-99824.586,-63146.934,-21246.297,-39762.777,-66283.94,-46995.566,-18794.068
1399563.2601678502,-111129.36,-99836.06,-63153.65,-21253.988,-39782.918,-66288.125,-46994.832,-18799.072
1399563.2641678448,-111131.96,-99840.984,-63146.445,-21246.908,-39774.945,-66287.27,-46994.67,-18792.48
1399563.2681678394,-111126.59,-99831.34,-63136.56,-21231.365,-39746.38,-66281.78,-46995.73,-18797.566
1399563.272167834,-111126.47,-99826.625,-63136.07,-21231.242,-39736.656,-66277.51,-46990.848,-18793.824
1399563.2761678286,-111135.13,-99837.445,-63151.043,-21248.861,-39762.86,-66282.06,-46986.816,-18778.973
1399563.280167823,-111139.49,-99839.766,-63157.51,-21252.93,-39775.84,-66287.4,-46990.03,-18781.414
1399563.2841678176,-111146.33,-99847.66,-63154.016,-21248.25,-39764.934,-66290.49,-46995.973,-18790.812
1399563.2881678122,-111145.8,-99848.43,-63145.062,-21239.014,-39738.04,-66287.84,-47002.035,-18797.69
1399563.2921678068,-111142.54,-99836.71,-63143.477,-21240.193,-39729.695,-66285.484,-47006.473,-18819.621
1399563.2961678014,-111149.414,-99840.87,-63153.81,-21255.941,-39759.195,-66291.875,-47008.223,-18821.533
1399563.300167796,-111154.14,-99844.32,-63158.45,-21261.312,-39782.84,-66296.76,-47011.965,-18822.104
1399563.3041677906,-111156.17,-99845.13,-63157.35,-21253.865,-39768.312,-66296.555,-47012.98,-18816.365
1399563.308167785,-111155.69,-99845.5,-63153.242,-21244.06,-39738.65,-66293.945,-47012.37,-18812.744
1399563.3121677795,-111157.59,-99841.02,-63155.195,-21248.943,-39737.184,-66294.6,-47013.957,-18809.205
1399563.3161677741,-111163.29,-99845.46,-63164.836,-21262.41,-39771.402,-66296.67,-47006.473,-18789.307
1399563.3201677687,-111163.45,-99847.66,-63166.75,-21265.992,-39787.68,-66297.69,-47005.293,-18798.178
1399563.3241677633,-111160.73,-99839.73,-63158.45,-21257.406,-39766.156,-66295.45,-47009.688,-18815.389
1399563.328167758,-111154.664,-99827.64,-63147.504,-21242.92,-39737.71,-66287.4,-47006.105,-18810.1
1399563.3321677523,-111152.305,-99822.76,-63147.543,-21245.281,-39733.035,-66283.86,-46999.188,-18795.33
1399563.336167747,-111148.28,-99821.01,-63151.695,-21254.842,-39756.105,-66286.664,-47000.816,-18805.502
1399563.3401677415,-111152.19,-99827.11,-63156.21,-21259.156,-39776.207,-66290.445,-47000.613,-18794.434
1399563.3441677361,-111155.805,-99833.21,-63152.1,-21251.1,-39760.785,-66290.98,-47001.59,-18790.121
1399563.3481677307,-111156.54,-99829.06,-63145.47,-21242.92,-39742.88,-66289.92,-47003.543,-18807.82
1399563.3521677253,-111152.875,-99824.016,-63147.668,-21244.508,-39741.54,-66288.01,-46998.82,-18801.107
1399563.35616772,-111151.82,-99822.76,-63155.4,-21257.283,-39761.844,-66291.18,-46993.29,-18783.123
1399563.3601677143,-111159.875,-99825.04,-63162.438,-21262.41,-39784.793,-66295.086,-46995.81,-18784.344
1399563.364167709,-111157.516,-99820.64,-63158.125,-21253.133,-39766.4,-66297.69,-47004.07,-18798.299
1399563.3681677035,-111147.914,-99815.43,-63146.812,-21242.596,-39735.027,-66293.375,-47004.926,-18807.332
1399563.372167698,-111144.375,-99812.26,-63143.35,-21246.379,-39735.23,-66290.77,-47001.75,-18805.828
1399563.3761676927,-111145.875,-99814.5,-63152.223,-21262.574,-39764.04,-66295.33,-47001.02,-18797.04
1399563.3801676873,-111153.28,-99823.86,-63159.305,-21268.758,-39786.867,-66298.87,-47001.18,-18800.984
1399563.384167682,-111155.97,-99829.63,-63153.973,-21259.318,-39774.82,-66296.836,-46997.07,-18790.162
1399563.3881676763,-111159.914,-99829.39,-63145.387,-21247.438,-39747.965,-66290.445,-46994.508,-18782.186
1399563.392167671,-111165.66,-99831.875,-63144.41,-21253.133,-39742.35,-66287.64,-46993.98,-18786.5
1399563.3961676655,-111169.68,-99839.84,-63153.77,-21267.457,-39768.19,-66292.56,-46995.934,-18785.482
1399563.40016766,-111175.945,-99843.305,-63165.164,-21271.729,-39783.61,-66298.1,-47005.008,-18801.84
1399563.4041676547,-111178.555,-99840.984,-63163.008,-21261.922,-39766.277,-66295.53,-47006.918,-18805.176
1399563.4081676493,-111176.27,-99831.83,-63151.004,-21251.547,-39741.17,-66292.24,-47008.586,-18802.45
1399563.412167644,-111173.305,-99827.27,-63150.598,-21255.047,-39731.85,-66288.17,-47006.062,-18804.973
1399563.4161676383,-111173.55,-99833.21,-63159.953,-21269.775,-39768.516,-66290.57,-47001.953,-18804.729
1399563.4201676329,-111182.91,-99848.11,-63168.703,-21277.547,-39801.555,-66295.01,-47004.07,-18804.281
1399563.4241676275,-111186.69,-99847.984,-63160.93,-21269.043,-39784.914,-66293.3,-47008.63,-18805.623
1399563.428167622,-111184.125,-99838.99,-63150.88,-21257.895,-39758.465,-66289.15,-47009.156,-18811.2
1399563.4321676167,-111183.96,-99831.875,-63150.92,-21260.662,-39750.855,-66286.7,-47003.582,-18800.09
1399563.4361676113,-111188.805,-99834.15,-63162.883,-21276.611,-39781.7,-66288.29,-46998.457,-18787.395
1399563.4401676059,-111192.47,-99840.74,-63165.04,-21280.803,-39799.48,-66291.875,-47003.906,-18804.037
1399563.4441676002,-111190.19,-99843.18,-63155.113,-21271.77,-39779.703,-66287.516,-47007.45,-18808.717
1399563.4481675948,-111188.195,-99836.63,-63146.65,-21260.254,-39746.867,-66280.766,-47006.105,-18804.89
1399563.4521675895,-111187.22,-99825.81,-63147.42,-21259.686,-39741.863,-66278.445,-47004.234,-18811.605
1399563.456167584,-111187.09,-99832.36,-63153.484,-21274.781,-39776.652,-66279.91,-46998.66,-18796.63
1399563.4601675787,-111193.52,-99839.07,-63159.02,-21281.129,-39805.258,-66284.06,-47000.9,-18794.842
1399563.4641675733,-111198.695,-99838.42,-63157.473,-21270.793,-39784.305,-66285.04,-47007.895,-18819.621
1399563.4681675679,-111197.836,-99835.94,-63152.55,-21261.15,-39749.96,-66281.17,-47009.562,-18820.924
1399563.4721675622,-111195.27,-99840.05,-63149.78,-21263.754,-39748.375,-66279.09,-47003.46,-18809.367
1399563.4761675568,-111196.375,-99840.74,-63160.035,-21276.205,-39772.992,-66282.516,-47003.543,-18810.71
1399563.4801675514,-111200.24,-99842.49,-63166.79,-21276.938,-39792.727,-66284.016,-47001.71,-18811.605
1399563.484167546,-111198.41,-99836.8,-63159.06,-21265.91,-39772.055,-66282.43,-47005.7,-18811.32
1399563.4881675406,-111196.7,-99830.9,-63148.52,-21254.559,-39753.215,-66276.734,-47005.168,-18806.52
1399563.4921675352,-111197.59,-99824.51,-63148.684,-21260.457,-39767.336,-66275.516,-47002.605,-18810.873
1399563.4961675298,-111204.92,-99829.19,-63159.547,-21273.396,-39790.69,-66277.43,-47000.613,-18810.262
1399563.5001675242,-111213.625,-99841.8,-63166.06,-21277.832,-39796.266,-66279.13,-46998.984,-18799.928
1399563.5041675188,-111208.375,-99846.48,-63159.02,-21268.475,-39776.285,-66278.81,-47004.52,-18805.746
1399563.5081675134,-111203.82,-99838.14,-63150.027,-21258.953,-39744.508,-66274.91,-47005.984,-18807.781
1399563.512167508,-111194.625,-99824.586,-63150.027,-21262.574,-39741.414,-66272.09,-47002.44,-18797.771
1399563.5161675026,-111196.62,-99825.16,-63156.82,-21274.658,-39773.234,-66276.41,-47002.117,-18799.236
1399563.5201674972,-111196.78,-99828.17,-63160.035,-21277.02,-39792.277,-66278.0,-47005.78,-18804.77
1399563.5241674916,-111197.19,-99824.14,-63154.707,-21266.195,-39773.195,-66273.84,-47008.18,-18811.238
1399563.5281674862,-111198.9,-99818.766,-63146.242,-21256.877,-39742.105,-66271.69,-47007.164,-18810.547
1399563.5321674808,-111195.36,-99808.44,-63143.637,-21258.871,-39742.8,-66271.61,-47009.727,-18812.703
1399563.5361674754,-111197.68,-99809.53,-63151.125,-21271.607,-39770.793,-66269.695,-47003.094,-18804.281
1399563.54016747,-111201.5,-99818.41,-63155.07,-21274.902,-39791.91,-66269.25,-47000.977,-18810.262
1399563.5441674646,-111203.49,-99818.766,-63150.434,-21265.137,-39780.76,-66266.03,-47001.875,-18812.744
1399563.5481674592,-111203.695,-99815.23,-63143.68,-21254.559,-39749.066,-66258.99,-46997.152,-18794.475
1399563.5521674536,-111212.734,-99823.65,-63145.836,-21262.41,-39756.227,-66257.41,-46993.164,-18787.395
1399563.5561674482,-111215.414,-99825.24,-63156.375,-21274.252,-39779.746,-66260.17,-46996.625,-18802.328
1399563.5601674428,-111207.52,-99815.31,-63160.035,-21274.861,-39792.97,-66264.53,-47003.867,-18811.035
1399563.5641674374,-111208.336,-99813.32,-63155.887,-21266.602,-39780.965,-66265.51,-47010.785,-18816.977
1399563.568167432,-111207.16,-99807.375,-63148.805,-21256.55,-39751.465,-66261.31,-47010.457,-18809.652
1399563.5721674266,-111199.79,-99795.17,-63147.83,-21254.07,-39741.457,-66261.6,-47010.457,-18815.35
1399563.5761674212,-111200.81,-99789.266,-63157.227,-21266.766,-39761.434,-66265.46,-47008.586,-18818.523
1399563.5801674156,-111196.45,-99788.13,-63163.008,-21273.275,-39781.535,-66265.71,-47006.715,-18806.193
1399563.5841674102,-111190.27,-99781.87,-63156.78,-21266.154,-39763.67,-66265.71,-47008.71,-18809.773
1399563.5881674048,-111191.49,-99782.48,-63152.223,-21256.023,-39741.336,-66261.84,-47011.11,-18813.518
1399563.5921673994,-111197.31,-99788.49,-63154.176,-21259.156,-39736.816,-66258.99,-47010.133,-18807.332
1399563.596167394,-111203.17,-99790.53,-63162.926,-21271.363,-39764.242,-66261.07,-47008.098,-18816.0
1399563.6001673886,-111202.48,-99788.29,-63165.938,-21275.229,-39789.266,-66261.44,-47005.94,-18819.418
1399563.6041673832,-111201.22,-99783.61,-63158.855,-21263.387,-39769.168,-66261.555,-47009.074,-18824.504
1399563.6081673775,-111203.9,-99785.65,-63154.543,-21257.04,-39744.832,-66260.055,-47009.766,-18817.586
1399563.6121673721,-111208.01,-99788.7,-63155.76,-21263.51,-39746.83,-66258.18,-47008.832,-18809.285
1399563.6161673667,-111211.39,-99791.914,-63168.867,-21279.217,-39773.48,-66262.17,-47009.645,-18812.947
1399563.6201673613,-111217.82,-99804.24,-63174.727,-21282.105,-39796.51,-66264.28,-47009.117,-18813.924
1399563.624167356,-111225.23,-99809.25,-63169.8,-21269.775,-39779.094,-66261.64,-47011.11,-18820.477
1399563.6281673505,-111224.57,-99802.45,-63161.664,-21259.848,-39749.594,-66259.12,-47014.61,-18830.77
1399563.6321673451,-111222.17,-99799.234,-63159.06,-21263.592,-39749.594,-66256.8,-47014.773,-18835.531
1399563.6361673395,-111221.88,-99800.13,-63168.5,-21275.39,-39779.91,-66257.77,-47013.227,-18835.734
1399563.6401673341,-111228.44,-99804.0,-63172.73,-21283.406,-39797.0,-66260.83,-47012.168,-18835.084
1399563.6441673287,-111234.336,-99809.66,-63168.906,-21272.87,-39780.887,-66258.95,-47009.97,-18824.748
1399563.6481673233,-111223.39,-99801.805,-63159.547,-21260.662,-39752.77,-66254.195,-47001.387,-18811.688
1399563.652167318,-111216.07,-99791.34,-63157.92,-21262.818,-39751.18,-66252.2,-46998.58,-18811.443
1399563.6561673125,-111220.79,-99794.234,-63168.703,-21276.367,-39779.137,-66255.45,-46998.047,-18808.473
1399563.6601673071,-111224.41,-99797.85,-63173.707,-21278.973,-39799.44,-66261.44,-47003.258,-18812.744
1399563.6641673015,-111225.71,-99802.94,-63166.016,-21271.322,-39791.3,-66262.9,-47009.24,-18818.074
1399563.668167296,-111224.61,-99798.83,-63162.52,-21265.422,-39765.3,-66259.12,-47011.152,-18819.133
1399563.6721672907,-111228.97,-99796.23,-63168.824,-21268.963,-39762.41,-66260.09,-47011.355,-18826.336
1399563.6761672853,-111231.734,-99800.5,-63175.945,-21280.193,-39791.016,-66263.836,-47010.785,-18822.104
1399563.68016728,-111234.17,-99810.63,-63181.074,-21285.441,-39802.004,-66266.32,-47009.32,-18811.361
1399563.6841672745,-111234.336,-99812.016,-63175.133,-21275.025,-39786.867,-66263.19,-47008.06,-18799.684
1399563.688167269,-111228.84,-99798.47,-63163.7,-21265.096,-39758.87,-66259.28,-47011.68,-18813.68
1399563.6921672635,-111223.836,-99789.516,-63164.51,-21270.508,-39759.89,-66256.47,-47010.094,-18814.373
1399563.696167258,-111226.56,-99795.086,-63176.637,-21284.344,-39790.934,-66261.44,-47007.12,-18808.92
1399563.7001672527,-111234.7,-99807.09,-63184.164,-21292.807,-39811.24,-66263.35,-46997.723,-18784.059
1399563.7041672473,-111234.5,-99808.19,-63178.918,-21284.424,-39804.566,-66261.31,-46997.52,-18780.314
1399563.708167242,-111233.195,-99807.336,-63172.16,-21276.652,-39790.61,-66261.03,-47007.61,-18808.432
1399563.7121672365,-111234.7,-99803.76,-63172.242,-21278.768,-39781.74,-66259.69,-47009.523,-18817.262
1399563.716167231,-111236.05,-99798.34,-63180.137,-21289.307,-39804.28,-66260.375,-47004.03,-18810.426
1399563.7201672255,-111234.58,-99803.14,-63184.082,-21292.195,-39811.727,-66260.945,-47000.773,-18797.648
1399563.72416722,-111234.87,-99800.54,-63177.86,-21283.203,-39795.37,-66259.805,-47003.418,-18801.31
1399563.7281672147,-111230.06,-99787.97,-63165.855,-21271.688,-39768.555,-66257.734,-47006.105,-18807.252
1399563.7321672093,-111228.195,-99781.54,-63168.418,-21275.473,-39762.656,-66259.32,-47005.574,-18808.229
1399563.7361672039,-111235.72,-99792.52,-63184.246,-21291.668,-39791.547,-66269.66,-47007.895,-18807.82
1399563.7401671985,-111241.625,-99800.17,-63191.0,-21296.59,-39779.95,-66276.94,-47011.72,-18814.861
1399563.7441671928,-111238.04,-99801.4,-63181.926,-21285.727,-39781.984,-66275.516,-47011.477,-18810.67
1399563.7481671874,-111231.77,-99789.92,-63169.11,-21271.363,-39758.344,-66269.01,-47011.395,-18814.82
1399563.752167182,-111228.97,-99777.23,-63167.2,-21272.217,-39749.715,-66266.69,-47011.152,-18819.256
1399563.7561671766,-111229.29,-99777.34,-63178.836,-21287.883,-39782.39,-66271.28,-47013.387,-18822.51
1399563.7601671712,-111237.02,-99795.125,-63186.242,-21293.945,-39806.6,-66275.43,-47016.684,-18828.41
1399563.7641671658,-111243.37,-99803.14,-63179.77,-21286.012,-39788.453,-66273.84,-47016.44,-18823.65
1399563.7681671605,-111238.164,-99797.41,-63169.11,-21275.92,-39761.312,-66266.32,-47012.086,-18814.129
1399563.7721671548,-111241.945,-99796.43,-63171.754,-21282.105,-39767.945,-66265.38,-47006.594,-18798.543
1399563.7761671494,-111243.164,-99797.08,-63182.742,-21294.598,-39793.375,-66271.734,-47009.277,-18803.06
1399563.780167144,-111237.96,-99798.586,-63186.73,-21297.363,-39805.95,-66276.77,-47015.34,-18807.088
1399563.7841671386,-111239.016,-99793.945,-63183.676,-21289.348,-39790.324,-66277.67,-47018.15,-18812.338
1399563.7881671332,-111240.73,-99791.586,-63179.77,-21282.186,-39767.496,-66276.0,-47020.305,-18816.895
1399563.7921671278,-111245.0,-99790.734,-63182.54,-21287.273,-39767.457,-66277.1,-47020.02,-18814.168
1399563.7961671224,-111247.32,-99789.31,-63188.723,-21298.787,-39784.223,-66282.11,-47022.383,-18813.844
1399563.8001671168,-111244.8,-99793.74,-63190.105,-21301.148,-39801.516,-66286.3,-47026.207,-18832.479
1399563.8041671114,-111246.79,-99795.125,-63183.066,-21292.807,-39765.707,-66283.33,-47024.414,-18828.328
1399563.808167106,-111242.11,-99789.92,-63171.797,-21282.635,-39751.547,-66277.875,-47021.566,-18828.41
1399563.8121671006,-111240.52,-99786.91,-63173.668,-21288.086,-39766.36,-66276.62,-47019.492,-18825.521
1399563.8161670952,-111245.89,-99790.734,-63186.484,-21300.09,-39795.574,-66279.99,-47016.074,-18813.924
1399563.8201670898,-111251.06,-99793.336,-63193.44,-21302.37,-39823.65,-66284.79,-47016.035,-18809.693
1399563.8241670844,-111248.7,-99787.97,-63188.07,-21291.18,-39791.707,-66284.22,-47020.47,-18818.238
1399563.8281670788,-111245.89,-99779.42,-63180.016,-21281.941,-39757.324,-66280.16,-47016.6,-18808.064
1399563.8321670734,-111238.77,-99774.87,-63178.754,-21285.523,-39781.78,-66278.36,-47011.434,-18801.84
1399563.836167068,-111239.914,-99777.63,-63189.25,-21298.463,-39834.84,-66281.29,-47007.12,-18790.936
1399563.8401670626,-111246.83,-99780.07,-63198.49,-21305.828,-39826.54,-66285.52,-47010.582,-18801.758
1399563.8441670572,-111239.26,-99773.73,-63194.215,-21300.496,-39804.973,-66288.74,-47020.348,-18813.762
1399563.8481670518,-111230.63,-99766.24,-63184.98,-21295.451,-39777.02,-66288.58,-47023.848,-18821.453
1399563.8521670464,-111227.055,-99759.52,-63186.363,-21300.008,-39771.527,-66285.89,-47017.418,-18814.494
1399563.8561670408,-111223.02,-99751.02,-63194.95,-21309.49,-39792.074,-66285.445,-47011.8,-18808.879
1399563.8601670354,-111217.086,-99744.96,-63197.227,-21306.805,-39827.72,-66286.664,-47015.098,-18817.75
1399563.86416703,-111211.305,-99734.055,-63189.13,-21295.736,-39815.918,-66287.92,-47021.934,-18821.818
1399563.8681670246,-111200.81,-99720.46,-63174.93,-21285.768,-39765.707,-66286.54,-47022.87,-18817.303
1399563.8721670192,-111182.336,-99701.87,-63171.594,-21287.273,-39739.258,-66287.31,-47026.082,-18816.895
1399563.8761670138,-111172.65,-99693.36,-63179.77,-21298.055,-39764.773,-66289.47,-47029.055,-18832.764
1399563.8801670084,-111166.38,-99691.98,-63185.47,-21302.857,-39800.17,-66292.805,-47031.94,-18832.113
1399563.8841670027,-111163.58,-99687.586,-63178.387,-21292.684,-39784.668,-66290.37,-47028.484,-18821.209
1399563.8881669973,-111159.1,-99672.125,-63173.18,-21283.041,-39760.99,-66287.97,-47032.594,-18829.102
1399563.892166992,-111151.734,-99659.875,-63171.797,-21285.768,-39763.227,-66284.55,-47027.996,-18815.35
1399563.8961669866,-111153.52,-99660.73,-63178.875,-21296.59,-39795.9,-66286.945,-47024.617,-18814.617
1399563.9001669812,-111154.664,-99663.91,-63181.234,-21299.48,-39814.008,-66295.414,-47031.94,-18826.986
1399563.9041669758,-111154.75,-99666.47,-63175.906,-21293.457,-39799.03,-66298.625,-47034.465,-18827.922
1399563.9081669704,-111154.09,-99658.734,-63165.652,-21287.395,-39774.78,-66298.1,-47034.59,-18832.44
1399563.9121669647,-111150.48,-99651.01,-63166.18,-21287.842,-39753.5,-66298.38,-47033.734,-18835.328
1399563.9161669593,-111150.805,-99657.23,-63176.516,-21302.043,-39781.293,-66300.414,-47028.973,-18828.248
1399563.920166954,-111163.58,-99677.58,-63182.945,-21306.967,-39837.81,-66300.055,-47025.473,-18823.527
1399563.9241669485,-111166.14,-99677.66,-63178.266,-21297.322,-39815.51,-66298.586,-47031.21,-18839.234
1399563.9281669431,-111161.5,-99672.2,-63169.23,-21288.209,-39771.73,-66295.414,-47036.133,-18844.035
1399563.9321669377,-111172.24,-99677.78,-63173.18,-21294.23,-39779.625,-66292.24,-47032.023,-18837.037
1399563.936166932,-111178.35,-99689.375,-63181.234,-21307.373,-39804.04,-66296.02,-47031.293,-18827.8
1399563.9401669267,-111190.555,-99702.48,-63182.78,-21312.094,-39820.355,-66298.38,-47032.51,-18834.148
1399563.9441669213,-111194.26,-99699.95,-63177.656,-21299.357,-39804.973,-66291.95,-47026.777,-18822.754
1399563.948166916,-111194.3,-99698.65,-63169.8,-21289.43,-39763.55,-66284.266,-47018.68,-18804.037
1399563.9521669105,-111194.055,-99701.17,-63167.035,-21289.592,-39753.46,-66283.0,-47017.58,-18803.143
1399563.9561669051,-111202.15,-99712.37,-63173.79,-21301.596,-39808.066,-66284.95,-47016.727,-18794.557
1399563.9601668997,-111208.375,-99720.22,-63177.246,-21305.096,-39823.285,-66286.945,-47017.62,-18798.504
1399563.964166894,-111208.7,-99724.695,-63171.957,-21295.37,-39799.44,-66284.305,-47018.35,-18810.467
1399563.9681668887,-111207.97,-99725.266,-63164.55,-21285.604,-39769.41,-66278.0,-47015.668,-18807.088
1399563.9721668833,-111213.305,-99721.03,-63167.402,-21292.766,-39771.527,-66276.94,-47012.777,-18807.537
1399563.976166878,-111225.14,-99730.67,-63181.113,-21308.146,-39798.18,-66279.13,-47011.56,-18803.793
1399563.9801668725,-111232.1,-99740.234,-63184.652,-21314.209,-39806.48,-66282.02,-47014.04,-18810.303
1399563.984166867,-111233.56,-99744.71,-63178.55,-21305.867,-39777.387,-66279.91,-47013.918,-18810.467
1399563.9881668617,-111233.484,-99738.69,-63169.598,-21293.621,-39759.562,-66275.68,-47013.105,-18805.664
1399563.992166856,-111229.82,-99731.85,-63164.918,-21292.36,-39767.133,-66273.36,-47008.383,-18796.875
1399563.9961668507,-111237.23,-99742.59,-63175.375,-21308.676,-39798.098,-66276.125,-47005.047,-18793.377
1399564.0001668453,-111247.44,-99753.18,-63181.848,-21314.656,-39819.297,-66278.32,-47006.758,-18799.236
1399564.0041668399,-111247.03,-99752.36,-63176.598,-21303.467,-39803.71,-66277.43,-47010.824,-18812.215
1399564.0081668345,-111245.0,-99745.81,-63167.2,-21292.277,-39782.473,-66270.71,-47007.285,-18805.258
1399564.012166829,-111247.27,-99740.805,-63166.016,-21295.94,-39781.375,-66265.46,-46998.293,-18791.586
1399564.0161668237,-111249.11,-99740.64,-63175.742,-21308.473,-39812.34,-66265.875,-46993.246,-18788.615
1399564.020166818,-111253.26,-99748.414,-63181.277,-21313.924,-39829.875,-66268.76,-46996.34,-18787.273
1399564.0241668127,-111257.81,-99758.22,-63177.816,-21309.45,-39816.734,-66267.91,-46998.17,-18781.902
1399564.0281668073,-111259.04,-99759.81,-63171.062,-21300.252,-39796.305,-66265.664,-47000.164,-18788.29
1399564.0321668019,-111260.91,-99753.75,-63172.773,-21301.473,-39803.508,-66265.914,-47000.203,-18793.986
1399564.0361667965,-111262.62,-99755.25,-63183.72,-21314.617,-39818.44,-66267.46,-47000.285,-18792.36
1399564.040166791,-111263.516,-99763.02,-63186.32,-21316.895,-39828.98,-66269.086,-46999.35,-18789.674
1399564.0441667857,-111264.81,-99766.6,-63178.957,-21307.861,-39809.246,-66266.12,-47000.977,-18791.3
1399564.04816678,-111264.04,-99759.81,-63170.9,-21300.09,-39786.746,-66260.46,-46999.105,-18788.006
1399564.0521667746,-111260.99,-99754.88,-63168.254,-21303.346,-39784.793,-66258.625,-46994.67,-18779.338
1399564.0561667692,-111263.59,-99758.55,-63175.54,-21316.488,-39821.414,-66261.64,-46995.934,-18777.832
1399564.0601667638,-111270.19,-99770.35,-63181.6,-21322.104,-39841.797,-66267.09,-47000.9,-18787.068
1399564.0641667584,-111276.29,-99773.97,-63180.625,-21314.129,-39821.25,-66268.59,-47006.594,-18794.434
1399564.068166753,-111278.734,-99774.664,-63177.492,-21306.723,-39791.63,-66266.52,-47013.227,-18804.037
1399564.0721667476,-111278.0,-99767.83,-63178.348,-21308.797,-39790.773,-66263.39,-47014.49,-18802.654
1399564.076166742,-111284.34,-99767.3,-63188.113,-21320.354,-39821.453,-66260.055,-47006.797,-18784.018
1399564.0801667366,-111285.89,-99774.13,-63190.918,-21323.406,-39839.355,-66259.85,-47003.543,-18776.652
1399564.0841667312,-111287.11,-99780.6,-63185.06,-21316.895,-39826.703,-66259.805,-47006.473,-18798.787
1399564.0881667258,-111292.32,-99778.24,-63180.016,-21309.57,-39801.883,-66257.98,-47006.39,-18801.717
1399564.0921667204,-111292.445,-99778.24,-63179.73,-21312.215,-39803.14,-66255.086,-47005.656,-18804.24
1399564.096166715,-111290.125,-99776.086,-63186.117,-21322.998,-39824.832,-66255.66,-47002.645,-18798.096
1399564.1001667096,-111291.55,-99777.305,-63189.617,-21325.521,-39839.844,-66258.38,-47003.746,-18794.842
1399564.104166704,-111288.74,-99776.984,-63181.234,-21312.5,-39822.348,-66253.54,-47003.5,-18789.754
1399564.1081666986,-111286.46,-99765.47,-63172.242,-21299.602,-39791.547,-66248.05,-47004.355,-18794.76
1399564.1121666932,-111284.38,-99756.19,-63175.58,-21304.281,-39791.383,-66247.32,-47004.805,-18794.76
1399564.1161666878,-111289.63,-99764.37,-63187.867,-21321.9,-39824.504,-66251.305,-47004.03,-18780.355
1399564.1201666824,-111296.63,-99772.95,-63192.02,-21325.36,-39840.13,-66254.36,-47006.105,-18781.494
1399564.124166677,-111293.09,-99768.31,-63182.496,-21311.482,-39814.293,-66250.94,-47007.082,-18790.73
1399564.1281666716,-111287.6,-99758.75,-63174.156,-21301.84,-39777.996,-66245.41,-47007.406,-18801.434
1399564.132166666,-111291.016,-99755.7,-63177.695,-21309.57,-39789.39,-66245.61,-47007.977,-18801.473
1399564.1361666606,-111297.77,-99762.336,-63189.375,-21322.877,-39818.44,-66252.08,-47009.97,-18798.299
1399564.1401666552,-111304.164,-99771.28,-63194.824,-21328.572,-39837.16,-66256.19,-47009.848,-18801.27
1399564.1441666498,-111304.57,-99771.484,-63188.113,-21317.059,-39822.836,-66252.52,-47009.24,-18799.236
1399564.1481666444,-111301.516,-99766.28,-63181.03,-21302.938,-39793.418,-66247.97,-47006.55,-18795.248
1399564.152166639,-111300.7,-99763.8,-63184.695,-21308.39,-39788.535,-66249.02,-47005.168,-18798.951
1399564.1561666334,-111309.21,-99769.66,-63193.89,-21325.684,-39821.98,-66256.875,-47005.574,-18789.633
1399564.160166628,-111311.0,-99773.08,-63194.5,-21328.084,-39839.56,-66257.85,-47003.5,-18785.686
1399564.1641666226,-111308.88,-99769.78,-63187.137,-21318.441,-39820.07,-66255.414,-47008.016,-18791.342
1399564.1681666172,-111307.01,-99762.414,-63180.42,-21309.773,-39802.695,-66249.88,-47011.72,-18798.463
1399564.1721666118,-111309.66,-99761.805,-63184.41,-21312.908,-39813.477,-66246.09,-47010.254,-18797.69
1399564.1761666064,-111316.61,-99771.08,-63201.867,-21329.549,-39847.37,-66251.18,-47013.023,-18801.434
1399564.180166601,-111322.47,-99780.93,-63210.695,-21334.514,-39851.727,-66255.54,-47017.863,-18809.082
1399564.1841665953,-111323.98,-99782.19,-63206.34,-21324.504,-39829.508,-66255.375,-47023.64,-18810.223
1399564.18816659,-111318.04,-99779.055,-63192.305,-21315.309,-39804.85,-66250.49,-47024.414,-18824.91
1399564.1921665845,-111317.23,-99769.66,-63188.234,-21316.285,-39805.34,-66246.38,-47015.34,-18806.6
1399564.1961665791,-111312.99,-99761.195,-63188.438,-21324.586,-39831.992,-66243.98,-47006.55,-18794.393
1399564.2001665737,-111311.65,-99762.78,-63190.15,-21324.219,-39844.85,-66245.04,-47005.496,-18794.678
1399564.2041665684,-111313.44,-99764.29,-63184.9,-21317.059,-39828.574,-66244.14,-47006.023,-18794.068
1399564.208166563,-111319.664,-99769.125,-63183.84,-21313.232,-39811.688,-66244.14,-47009.156,-18798.096
1399564.2121665573,-111322.11,-99763.836,-63192.914,-21317.709,-39807.902,-66244.39,-47010.582,-18800.09
1399564.216166552,-111325.445,-99763.1,-63205.85,-21330.322,-39836.184,-66247.234,-47010.945,-18795.613
1399564.2201665465,-111329.02,-99771.69,-63205.85,-21332.602,-39847.168,-66250.33,-47016.277,-18809.285
1399564.2241665411,-111328.49,-99774.375,-63196.496,-21320.312,-39827.23,-66251.305,-47023.074,-18818.768
1399564.2281665357,-111323.734,-99766.89,-63184.734,-21308.432,-39795.29,-66245.28,-47019.086,-18816.326
1399564.2321665303,-111325.08,-99767.09,-63187.01,-21317.098,-39801.188,-66245.484,-47016.727,-18810.506
1399564.236166525,-111335.45,-99780.234,-63204.145,-21336.793,-39849.082,-66253.945,-47018.598,-18810.588
1399564.2401665193,-111339.16,-99790.695,-63206.75,-21337.078,-39862.43,-66256.63,-47020.957,-18811.727
1399564.244166514,-111339.484,-99787.44,-63197.96,-21324.666,-39835.652,-66254.44,-47020.062,-18805.014
1399564.2481665085,-111334.88,-99771.98,-63193.117,-21315.594,-39805.38,-66249.27,-47017.78,-18796.55
1399564.252166503,-111329.875,-99759.445,-63194.336,-21321.004,-39802.652,-66246.22,-47016.645,-18809.205
1399564.2561664977,-111332.93,-99760.625,-63203.9,-21331.463,-39834.23,-66249.15,-47014.61,-18804.158
1399564.2601664923,-111341.516,-99772.22,-63207.44,-21335.205,-39852.457,-66249.88,-47010.133,-18796.346
1399564.264166487,-111346.16,-99777.1,-63201.5,-21327.84,-39837.605,-66250.49,-47010.906,-18793.621
1399564.2681664813,-111337.41,-99765.83,-63191.082,-21320.312,-39810.75,-66249.96,-47016.48,-18800.537
1399564.272166476,-111333.984,-99765.38,-63190.31,-21327.719,-39810.67,-66250.86,-47018.8,-18805.787
1399564.2761664705,-111338.51,-99777.266,-63199.504,-21341.27,-39843.18,-66254.72,-47022.543,-18815.838
1399564.280166465,-111341.31,-99781.87,-63204.633,-21342.652,-39857.625,-66255.695,-47025.8,-18816.895
1399564.2841664597,-111345.09,-99778.24,-63197.918,-21331.543,-39836.062,-66249.516,-47020.793,-18804.402
1399564.2881664543,-111348.35,-99774.46,-63194.95,-21324.748,-39822.754,-66244.95,-47016.156,-18791.463
1399564.292166449,-111355.88,-99777.23,-63202.15,-21334.922,-39828.53,-66247.84,-47018.15,-18796.754
1399564.2961664433,-111363.04,-99788.086,-63215.09,-21350.22,-39852.664,-66255.695,-47019.9,-18804.363
1399564.3001664379,-111363.81,-99791.75,-63219.16,-21350.994,-39857.75,-66259.89,-47024.58,-18817.303
1399564.3041664325,-111362.555,-99790.29,-63213.34,-21341.309,-39841.188,-66258.99,-47027.996,-18822.918
1399564.308166427,-111360.44,-99783.77,-63207.24,-21334.922,-39822.43,-66254.97,-47028.445,-18814.861
1399564.3121664217,-111356.24,-99778.94,-63207.887,-21339.438,-39819.133,-66254.31,-47026.613,-18806.111
1399564.3161664163,-111353.44,-99775.07,-63212.445,-21347.535,-39845.664,-66253.83,-47020.836,-18802.531
1399564.3201664109,-111359.83,-99776.695,-63217.043,-21350.22,-39865.074,-66252.69,-47018.395,-18811.727
1399564.3241664052,-111366.055,-99787.11,-63213.176,-21342.164,-39849.57,-66253.586,-47023.64,-18816.936
1399564.3281663998,-111365.93,-99783.33,-63205.08,-21336.02,-39826.99,-66250.9,-47027.547,-18816.162
1399564.3321663945,-111364.71,-99777.23,-63209.598,-21342.123,-39837.32,-66252.28,-47027.832,-18812.094
1399564.336166389,-111364.18,-99780.03,-63215.496,-21350.18,-39856.49,-66254.72,-47026.855,-18812.988
1399564.3401663837,-111364.51,-99783.41,-63218.344,-21348.309,-39862.02,-66254.72,-47024.375,-18808.838
1399564.3441663783,-111368.58,-99786.055,-63214.805,-21340.008,-39843.63,-66255.375,-47029.22,-18811.932
1399564.3481663726,-111365.12,-99775.88,-63206.42,-21330.77,-39811.117,-66254.03,-47031.617,-18815.309
1399564.3521663672,-111362.47,-99766.97,-63209.15,-21335.166,-39811.65,-66255.05,-47033.367,-18821.045
1399564.3561663618,-111364.38,-99769.82,-63219.85,-21347.941,-39841.39,-66260.055,-47033.125,-18820.232
1399564.3601663564,-111366.54,-99783.29,-63220.91,-21350.018,-39856.12,-66263.71,-47034.06,-18819.256
1399564.364166351,-111365.234,-99783.61,-63211.59,-21338.867,-39835.086,-66258.79,-47028.81,-18808.025
1399564.3681663456,-111359.54,-99774.17,-63196.008,-21326.986,-39807.414,-66252.08,-47024.293,-18801.31
1399564.3721663402,-111351.484,-99767.58,-63191.406,-21328.857,-39805.137,-66250.04,-47023.152,-18807.049
1399564.3761663346,-111357.71,-99773.12,-63199.63,-21343.629,-39828.125,-66251.47,-47018.27,-18804.281
1399564.3801663292,-111359.91,-99780.195,-63205.566,-21350.018,-39852.742,-66253.42,-47017.824,-18799.316
1399564.3841663238,-111358.36,-99780.36,-63200.645,-21338.664,-39834.96,-66251.914,-47019.004,-18797.486
1399564.3881663184,-111356.65,-99771.61,-63196.047,-21327.516,-39805.91,-66247.11,-47015.668,-18788.209
1399564.392166313,-111353.72,-99762.45,-63200.156,-21333.172,-39811.24,-66242.96,-47011.355,-18770.184
1399564.3961663076,-111356.29,-99760.625,-63206.83,-21345.012,-39837.934,-66245.41,-47018.15,-18795.125
1399564.4001663022,-111361.82,-99765.586,-63208.254,-21347.332,-39841.92,-66245.89,-47014.934,-18797.893
1399564.4041662966,-111365.195,-99773.97,-63203.492,-21338.95,-39830.484,-66242.96,-47011.07,-18788.941
1399564.4081662912,-111366.945,-99767.78,-63198.61,-21331.543,-39814.74,-66241.664,-47015.465,-18802.45
1399564.4121662858,-111369.836,-99764.04,-63204.633,-21339.031,-39821.207,-66243.66,-47020.305,-18803.875
1399564.4161662804,-111375.45,-99770.59,-63217.33,-21351.115,-39850.547,-66251.914,-47023.195,-18807.008
1399564.420166275,-111378.3,-99780.195,-63221.19,-21352.215,-39858.562,-66254.16,-47027.508,-18809.285
1399564.4241662696,-111376.8,-99781.984,-63215.902,-21343.588,-39836.266,-66253.91,-47028.934,-18810.506
1399564.4281662642,-111373.25,-99776.695,-63206.465,-21337.037,-39807.863,-66252.24,-47033.043,-18824.83
1399564.4321662586,-111375.98,-99770.06,-63207.887,-21340.293,-39813.316,-66250.57,-47030.76,-18825.154
1399564.4361662532,-111381.11,-99770.06,-63215.82,-21354.412,-39838.83,-66252.12,-47027.1,-18815.389
1399564.4401662478,-111380.58,-99775.59,-63217.53,-21356.486,-39848.88,-66254.36,-47027.63,-18816.691
1399564.4441662424,-111381.72,-99780.12,-63213.95,-21346.314,-39836.71,-66252.61,-47026.492,-18809.896
1399564.448166237,-111380.86,-99771.69,-63208.78,-21336.793,-39814.617,-66253.016,-47031.7,-18812.947
1399564.4521662316,-111377.98,-99768.72,-63213.137,-21342.246,-39811.973,-66254.03,-47035.605,-18815.838
1399564.4561662262,-111383.51,-99771.04,-63222.453,-21353.76,-39847.047,-66256.555,-47031.78,-18806.844
1399564.4601662206,-111388.63,-99770.555,-63223.676,-21352.703,-39843.508,-66260.625,-47034.668,-18820.516
1399564.4641662152,-111389.98,-99770.1,-63217.734,-21342.53,-39823.69,-66258.016,-47032.715,-18808.758
1399564.4681662098,-111384.2,-99762.62,-63206.26,-21335.37,-39801.23,-66256.266,-47034.18,-18820.924
1399564.4721662044,-111378.7,-99754.195,-63202.56,-21340.008,-39804.65,-66256.516,-47033.652,-18822.145
1399564.476166199,-111379.44,-99755.66,-63212.61,-21354.941,-39838.504,-66259.6,-47027.914,-18804.281
1399564.4801661936,-111379.27,-99757.086,-63214.152,-21356.568,-39856.934,-66261.44,-47028.363,-18813.314
1399564.4841661882,-111378.26,-99757.164,-63208.78,-21345.5,-39837.117,-66257.125,-47023.48,-18807.617
1399564.4881661825,-111378.42,-99756.43,-63202.07,-21338.543,-39814.535,-66252.28,-47019.98,-18797.566
1399564.4921661771,-111377.65,-99756.02,-63205.12,-21345.664,-39817.953,-66253.38,-47021.527,-18801.514
1399564.4961661717,-111382.25,-99766.4,-63214.4,-21360.352,-39848.96,-66257.0,-47028.363,-18819.459
1399564.5001661663,-111391.93,-99779.95,-63221.64,-21365.113,-39872.4,-66259.6,-47030.64,-18819.744
1399564.504166161,-111395.23,-99777.14,-63215.13,-21352.865,-39874.918,-66260.42,-47032.797,-18817.424
1399564.5081661555,-111388.11,-99769.734,-63204.715,-21341.758,-39836.67,-66255.695,-47028.73,-18805.379
1399564.5121661501,-111381.88,-99767.91,-63205.324,-21346.6,-39829.1,-66253.13,-47022.258,-18800.822
1399564.5161661445,-111378.664,-99768.195,-63212.77,-21357.707,-39846.64,-66250.57,-47018.312,-18800.457
1399564.5201661391,-111384.36,-99773.44,-63221.07,-21363.566,-39856.65,-66253.664,-47020.67,-18798.299
1399564.5241661337,-111384.65,-99772.75,-63216.72,-21353.842,-39839.234,-66255.17,-47028.242,-18801.514
1399564.5281661283,-111384.766,-99767.83,-63207.887,-21341.838,-39818.156,-66249.63,-47029.01,-18808.188
1399564.532166123,-111385.7,-99763.06,-63205.61,-21347.78,-39824.91,-66245.08,-47022.543,-18802.043
1399564.5361661175,-111386.36,-99766.6,-63210.53,-21359.54,-39857.83,-66244.23,-47018.19,-18802.043
1399564.5401661121,-111389.125,-99771.484,-63212.566,-21359.375,-39861.816,-66246.34,-47019.086,-18798.422
1399564.5441661065,-111393.234,-99774.62,-63206.383,-21349.121,-39840.78,-66244.39,-47019.086,-18794.922
1399564.548166101,-111390.67,-99770.266,-63199.914,-21341.432,-39814.617,-66240.36,-47022.504,-18802.816
1399564.5521660957,-111386.68,-99759.89,-63203.168,-21344.402,-39819.094,-66240.56,-47026.125,-18806.396
1399564.5561660903,-111389.65,-99766.56,-63215.09,-21358.195,-39853.76,-66243.05,-47022.098,-18800.457
1399564.560166085,-111395.92,-99773.6,-63217.004,-21359.904,-39868.938,-66242.516,-47021.65,-18798.584
1399564.5641660795,-111401.45,-99779.83,-63210.246,-21352.906,-39852.62,-66240.195,-47021.363,-18794.719
1399564.5681660739,-111400.84,-99773.89,-63205.527,-21344.564,-39818.93,-66233.4,-47014.85,-18788.982
1399564.5721660685,-111398.69,-99763.35,-63206.137,-21347.656,-39822.184,-66228.88,-47010.254,-18795.207
1399564.576166063,-111398.766,-99767.7,-63215.375,-21359.945,-39856.324,-66231.734,-47012.207,-18808.432
1399564.5801660577,-111400.805,-99771.0,-63216.555,-21361.533,-39896.688,-66231.53,-47010.05,-18793.783
1399564.5841660523,-111406.25,-99772.38,-63210.33,-21349.326,-39876.465,-66229.414,-47011.64,-18785.768
1399564.588166047,-111401.05,-99762.74,-63198.812,-21338.584,-39825.113,-66225.42,-47013.594,-18800.375
1399564.5921660415,-111396.2,-99752.36,-63201.05,-21344.361,-39817.06,-66223.19,-47012.492,-18810.588
1399564.5961660359,-111400.234,-99757.86,-63212.363,-21357.992,-39844.93,-66223.43,-47008.26,-18796.021
1399564.6001660305,-111402.96,-99761.84,-63215.496,-21363.281,-39859.254,-66227.055,-47010.99,-18800.334
1399564.604166025,-111403.89,-99757.04,-63209.598,-21354.168,-39839.195,-66225.75,-47011.516,-18796.55
1399564.6081660197,-111406.62,-99759.69,-63208.906,-21346.03,-39815.105,-66222.375,-47012.492,-18788.697
1399564.6121660143,-111414.63,-99766.805,-63214.97,-21353.76,-39819.906,-66221.48,-47011.72,-18794.842
1399564.6161660089,-111409.51,-99760.87,-63222.332,-21367.676,-39850.3,-66227.79,-47015.26,-18797.893
1399564.6201660035,-111402.71,-99754.56,-63223.31,-21366.375,-39855.594,-66230.92,-47017.58,-18799.846
1399564.6241659978,-111405.6,-99760.13,-63215.78,-21355.674,-39824.586,-66226.93,-47016.562,-18795.857
1399564.6281659924,-111399.17,-99750.57,-63205.566,-21344.158,-39794.477,-66219.08,-47014.49,-18793.54
1399564.632165987,-111393.195,-99739.95,-63207.074,-21349.773,-39835.492,-66218.14,-47015.016,-18797.12
1399564.6361659816,-111395.15,-99747.97,-63217.855,-21360.84,-39858.97,-66220.46,-47016.97,-18796.998
1399564.6401659762,-111402.67,-99754.52,-63221.52,-21362.63,-39863.406,-66221.6,-47019.574,-18803.875
1399564.6441659709,-111410.98,-99755.29,-63218.184,-21355.877,-39843.1,-66219.81,-47024.742,-18808.473
1399564.6481659655,-111409.914,-99749.96,-63210.492,-21347.941,-39815.473,-66213.87,-47024.414,-18809.082
1399564.6521659598,-111413.17,-99753.22,-63218.14,-21358.236,-39812.582,-66215.25,-47028.688,-18816.447
1399564.6561659544,-111418.016,-99759.36,-63232.18,-21367.473,-39843.508,-66221.88,-47034.1,-18825.725
1399564.660165949,-111422.125,-99765.016,-63235.23,-21365.44,-39838.055,-66224.445,-47033.734,-18822.713
1399564.6641659436,-111420.21,-99765.75,-63227.5,-21355.104,-39810.832,-66219.85,-47033.33,-18819.012
1399564.6681659382,-111416.71,-99755.086,-63218.26,-21346.396,-39806.07,-66212.65,-47030.316,-18821.533
1399564.6721659328,-111414.68,-99748.21,-63218.223,-21353.8,-39818.766,-66210.49,-47031.332,-18837.932
1399564.6761659274,-111422.41,-99758.79,-63225.75,-21368.37,-39851.605,-66212.445,-47029.297,-18839.682
1399564.6801659218,-111438.68,-99780.52,-63235.395,-21370.484,-39869.1,-66213.625,-47024.496,-18822.389
1399564.6841659164,-111442.914,-99783.25,-63232.91,-21361.37,-39846.11,-66212.98,-47030.152,-18827.148
1399564.688165911,-111438.07,-99769.82,-63224.45,-21348.756,-39828.695,-66209.44,-47035.605,-18841.105
1399564.6921659056,-111436.32,-99762.25,-63229.414,-21356.08,-39856.445,-66208.54,-47031.82,-18833.863
1399564.6961659002,-111437.14,-99759.445,-63238.406,-21367.96,-39866.7,-66208.82,-47027.67,-18825.033
1399564.7001658948,-111439.82,-99762.62,-63238.85,-21369.834,-39868.777,-66206.55,-47023.723,-18823.527
1399564.7041658894,-111437.42,-99765.67,-63235.76,-21359.13,-39851.562,-66203.734,-47019.207,-18813.273
1399564.7081658838,-111436.0,-99755.58,-63227.906,-21353.15,-39827.555,-66200.65,-47022.137,-18815.674
1399564.7121658784,-111433.59,-99755.45,-63225.793,-21361.125,-39833.54,-66200.73,-47020.793,-18816.121
1399564.716165873,-111439.87,-99764.24,-63235.68,-21370.484,-39859.375,-66205.0,-47019.453,-18814.373
1399564.7201658676,-111443.98,-99772.14,-63237.55,-21367.596,-39864.992,-66206.664,-47019.246,-18811.482
1399564.7241658622,-111438.89,-99765.586,-63232.26,-21357.3,-39842.367,-66204.59,-47018.598,-18807.576
1399564.7281658568,-111430.664,-99757.734,-63226.156,-21349.041,-39818.727,-66200.805,-47016.93,-18807.781
1399564.7321658514,-111430.46,-99757.77,-63227.785,-21357.504,-39830.12,-66198.57,-47015.75,-18806.111
1399564.7361658458,-111434.62,-99764.57,-63236.816,-21371.299,-39869.1,-66201.42,-47016.316,-18803.305
1399564.7401658404,-111438.48,-99771.0,-63239.625,-21370.158,-39891.44,-66205.98,-47021.04,-18810.14
1399564.744165835,-111438.07,-99769.01,-63232.87,-21359.904,-39857.75,-66202.555,-47022.543,-18809.49
1399564.7481658296,-111438.6,-99762.414,-63227.99,-21354.736,-39831.91,-66201.83,-47023.64,-18812.703
1399564.7521658242,-111430.016,-99756.8,-63226.074,-21356.283,-39824.91,-66201.13,-47020.754,-18808.514
1399564.7561658188,-111431.6,-99764.164,-63234.62,-21366.863,-39850.426,-66202.4,-47017.945,-18806.52
1399564.7601658131,-111441.164,-99771.57,-63238.363,-21369.346,-39864.42,-66202.44,-47013.47,-18792.033
1399564.7641658077,-111431.73,-99765.914,-63233.523,-21358.154,-39845.34,-66200.234,-47017.215,-18798.625
1399564.7681658024,-111426.44,-99754.73,-63228.355,-21353.436,-39818.117,-66196.45,-47016.277,-18795.98
1399564.772165797,-111426.35,-99753.91,-63232.098,-21361.37,-39826.945,-66198.164,-47016.97,-18797.771
1399564.7761657916,-111436.2,-99761.03,-63242.516,-21375.367,-39844.32,-66204.836,-47024.902,-18814.535
1399564.7801657862,-111442.02,-99770.96,-63245.812,-21376.709,-39853.07,-66206.09,-47024.824,-18818.645
1399564.7841657808,-111441.37,-99773.32,-63238.04,-21366.863,-39843.223,-66202.27,-47021.934,-18812.5
1399564.7881657751,-111436.94,-99762.66,-63230.39,-21356.162,-39827.35,-66196.945,-47019.207,-18812.744
1399564.7921657697,-111432.87,-99751.02,-63229.13,-21359.62,-39829.348,-66195.234,-47015.547,-18813.152
1399564.7961657643,-111433.516,-99749.19,-63236.98,-21371.42,-39852.05,-66197.76,-47015.383,-18819.5
1399564.800165759,-111438.16,-99758.99,-63242.35,-21373.373,-39864.992,-66199.67,-47018.27,-18817.668
1399564.8041657535,-111439.87,-99759.69,-63240.93,-21365.398,-39848.473,-66197.92,-47016.4,-18803.264
1399564.8081657481,-111438.766,-99754.73,-63233.48,-21357.871,-39829.305,-66195.31,-47014.977,-18788.453
1399564.8121657427,-111440.27,-99754.52,-63235.11,-21362.51,-39829.793,-66196.375,-47014.85,-18788.412
1399564.816165737,-111443.69,-99758.1,-63242.434,-21375.732,-39848.39,-66200.195,-47018.477,-18803.467
1399564.8201657317,-111446.82,-99763.63,-63243.98,-21374.879,-39862.1,-66204.06,-47020.47,-18809.082
1399564.8241657263,-111448.086,-99764.77,-63240.36,-21363.607,-39826.05,-66203.01,-47021.363,-18800.008
1399564.828165721,-111445.4,-99760.46,-63231.49,-21355.592,-39799.93,-66199.83,-47021.566,-18795.207
1399564.8321657155,-111440.27,-99760.7,-63234.17,-21364.014,-39824.91,-66198.9,-47021.445,-18796.428
1399564.8361657101,-111442.43,-99765.055,-63244.305,-21375.285,-39862.59,-66200.805,-47022.258,-18806.56
1399564.8401657047,-111448.125,-99770.15,-63249.15,-21378.256,-39878.62,-66205.28,-47027.266,-18814.453
1399564.844165699,-111447.555,-99767.5,-63243.29,-21370.037,-39858.277,-66205.0,-47032.715,-18817.424
1399564.8481656937,-111445.516,-99763.96,-63232.06,-21361.613,-39834.23,-66201.42,-47032.31,-18818.645
1399564.8521656883,-111444.7,-99760.586,-63233.32,-21369.59,-39840.25,-66203.164,-47029.22,-18823.121
1399564.856165683,-111448.53,-99761.516,-63243.207,-21380.9,-39860.395,-66206.87,-47025.676,-18810.426
1399564.8601656775,-111451.375,-99764.0,-63246.95,-21382.121,-39873.617,-66209.8,-47027.957,-18812.135
1399564.864165672,-111454.76,-99767.625,-63243.45,-21374.717,-39859.863,-66207.93,-47029.01,-18811.688
1399564.8681656667,-111447.88,-99761.84,-63234.094,-21366.74,-39833.824,-66206.305,-47031.047,-18817.342
1399564.872165661,-111443.2,-99757.49,-63234.62,-21373.047,-39840.66,-66208.336,-47031.25,-18820.232
1399564.8761656557,-111444.38,-99758.06,-63241.742,-21379.639,-39865.195,-66208.46,-47025.473,-18811.28
1399564.8801656503,-111448.66,-99764.33,-63244.348,-21380.86,-39879.76,-66208.984,-47025.027,-18801.922
1399564.8841656449,-111445.31,-99767.26,-63239.22,-21369.223,-39863.61,-66207.52,-47029.91,-18809.123
1399564.8881656395,-111445.516,-99760.625,-63236.574,-21363.648,-39834.72,-66204.305,-47029.785,-18811.158
1399564.892165634,-111450.445,-99758.34,-63244.996,-21374.676,-39837.484,-66206.09,-47030.56,-18813.924
1399564.8961656287,-111456.67,-99762.21,-63254.68,-21387.086,-39869.344,-66212.41,-47034.508,-18823.201
1399564.900165623,-111460.375,-99769.125,-63258.508,-21387.533,-39877.566,-66213.75,-47033.938,-18817.303
1399564.9041656177,-111454.35,-99763.15,-63249.96,-21377.197,-39853.76,-66212.32,-47034.953,-18812.744
1399564.9081656123,-111450.04,-99749.43,-63241.09,-21368.49,-39826.336,-66207.234,-47033.652,-18818.28
1399564.9121656069,-111446.91,-99744.71,-63241.457,-21376.018,-39831.87,-66207.52,-47031.496,-18814.412
1399564.9161656015,-111449.586,-99749.11,-63249.066,-21391.562,-39856.812,-66210.164,-47026.613,-18805.705
1399564.920165596,-111457.6,-99759.445,-63256.27,-21393.922,-39878.785,-66212.445,-47026.043,-18799.44
1399564.9241655907,-111463.34,-99767.375,-63253.258,-21384.238,-39864.87,-66213.5,-47028.242,-18802.41
1399564.928165585,-111460.82,-99762.414,-63245.812,-21371.99,-39829.754,-66210.62,-47028.973,-18808.188
1399564.9321655796,-111458.625,-99757.2,-63248.78,-21378.135,-39826.62,-66210.49,-47027.67,-18808.064
1399564.9361655742,-111459.19,-99760.46,-63255.984,-21391.766,-39855.387,-66212.89,-47024.21,-18802.531
1399564.9401655688,-111462.0,-99766.08,-63255.332,-21391.113,-39873.09,-66213.14,-47026.9,-18809.041
1399564.9441655634,-111460.25,-99763.15,-63248.863,-21381.47,-39858.523,-66213.83,-47030.805,-18806.6
1399564.948165558,-111454.15,-99749.48,-63241.54,-21372.152,-39829.957,-66211.266,-47030.52,-18798.951
1399564.9521655524,-111450.445,-99744.43,-63244.71,-21378.5,-39833.945,-66212.0,-47030.684,-18800.416
1399564.956165547,-111452.31,-99758.71,-63255.58,-21392.578,-39861.816,-66214.84,-47027.71,-18794.842
1399564.9601655416,-111455.49,-99775.84,-63261.19,-21396.484,-39882.855,-66218.47,-47033.285,-18805.623
1399564.9641655362,-111454.555,-99766.195,-63253.867,-21382.65,-39858.6,-66214.234,-47034.87,-18813.273
1399564.9681655308,-111453.82,-99755.66,-63248.742,-21376.791,-39829.793,-66212.81,-47034.383,-18809.246
1399564.9721655254,-111459.805,-99759.81,-63253.785,-21387.492,-39839.64,-66215.13,-47033.0,-18809.164
1399564.97616552,-111464.4,-99765.586,-63263.023,-21398.357,-39872.684,-66219.445,-47033.69,-18810.1
1399564.9801655144,-111466.44,-99768.516,-63265.547,-21400.635,-39875.734,-66220.87,-47033.895,-18805.705
1399564.984165509,-111467.33,-99769.58,-63259.117,-21393.963,-39861.246,-66219.61,-47037.477,-18812.947
1399564.9881655036,-111463.51,-99766.32,-63249.594,-21386.475,-39833.293,-66218.23,-47040.367,-18817.383
1399564.9921654982,-111460.78,-99763.31,-63251.832,-21392.09,-39836.387,-66219.445,-47039.266,-18814.656
1399564.9961654928,-111463.87,-99762.21,-63260.99,-21403.89,-39857.547,-66221.36,-47037.598,-18813.803
1399565.0001654874,-111465.54,-99762.17,-63264.04,-21404.258,-39864.543,-66222.29,-47034.75,-18805.379
1399565.004165482,-111464.12,-99763.43,-63256.023,-21393.516,-39847.453,-66219.81,-47032.594,-18799.684
1399565.0081654764,-111461.63,-99756.39,-63247.97,-21387.412,-39831.098,-66218.06,-47035.28,-18809.611
1399565.012165471,-111456.79,-99748.414,-63253.094,-21392.742,-39840.21,-66220.7,-47036.133,-18807.332
1399565.0161654656,-111460.695,-99754.4,-63260.54,-21402.67,-39869.14,-66224.65,-47033.246,-18801.352
1399565.0201654602,-111464.52,-99765.875,-63262.617,-21406.82,-39881.062,-66229.74,-47040.12,-18815.145
1399565.0241654548,-111462.2,-99764.37,-63252.85,-21396.81,-39865.113,-66230.1,-47047.61,-18827.393
1399565.0281654494,-111462.37,-99751.836,-63245.2,-21387.451,-39836.875,-66225.18,-47045.125,-18824.178
1399565.032165444,-111461.875,-99747.32,-63250.246,-21397.055,-39838.22,-66223.96,-47042.24,-18819.783
1399565.0361654384,-111460.86,-99746.95,-63260.703,-21413.412,-39866.742,-66229.29,-47042.81,-18820.15
1399565.040165433,-111466.76,-99751.43,-63265.832,-21411.906,-39883.465,-66230.555,-47041.3,-18815.47
1399565.0441654276,-111470.625,-99759.32,-63261.11,-21400.107,-39864.34,-66226.69,-47038.086,-18806.723
1399565.0481654222,-111465.5,-99749.19,-63251.184,-21389.568,-39833.09,-66223.67,-47037.312,-18810.1
1399565.0521654168,-111463.18,-99741.17,-63249.023,-21391.887,-39838.094,-66223.31,-47037.312,-18812.012
1399565.0561654114,-111465.13,-99745.69,-63257.895,-21408.0,-39867.39,-66228.6,-47035.89,-18810.67
1399565.060165406,-111465.3,-99750.62,-63261.23,-21412.72,-39881.676,-66231.2,-47037.926,-18809.611
1399565.0641654003,-111463.55,-99750.49,-63253.83,-21398.602,-39854.453,-66226.73,-47040.285,-18810.223
1399565.068165395,-111459.96,-99742.805,-63248.047,-21392.254,-39829.59,-66223.02,-47039.188,-18808.838
1399565.0721653895,-111458.17,-99738.61,-63253.867,-21401.002,-39843.223,-66222.58,-47040.0,-18808.35
1399565.0761653841,-111461.43,-99742.64,-63264.527,-21412.03,-39857.953,-66225.95,-47041.992,-18815.633
1399565.0801653787,-111463.305,-99744.63,-63266.36,-21412.639,-39872.273,-66229.29,-47044.15,-18823.486
1399565.0841653734,-111465.46,-99740.97,-63260.742,-21397.705,-39848.27,-66228.805,-47047.773,-18824.504
1399565.088165368,-111465.82,-99744.43,-63252.44,-21392.822,-39828.98,-66224.86,-47047.203,-18819.459
1399565.0921653623,-111465.82,-99740.16,-63253.5,-21399.414,-39842.0,-66225.914,-47046.633,-18819.621
1399565.096165357,-111467.98,-99744.43,-63263.39,-21411.662,-39870.934,-66228.68,-47044.027,-18816.365
1399565.1001653515,-111473.43,-99754.766,-63268.8,-21413.047,-39881.062,-66231.24,-47044.312,-18821.533
1399565.1041653461,-111474.37,-99758.95,-63262.168,-21405.6,-39859.78,-66228.72,-47044.76,-18818.074
1399565.1081653407,-111469.37,-99750.2,-63252.117,-21398.357,-39840.21,-66226.08,-47048.137,-18832.887
1399565.1121653353,-111467.37,-99742.03,-63254.273,-21406.902,-39857.953,-66225.14,-47044.92,-18829.021
1399565.11616533,-111474.125,-99743.21,-63263.39,-21418.213,-39891.113,-66226.85,-47042.81,-18821.98
1399565.1201653243,-111482.18,-99751.67,-63265.79,-21419.354,-39884.93,-66226.69,-47039.51,-18816.53
1399565.124165319,-111481.49,-99757.66,-63259.645,-21407.512,-39863.688,-66224.164,-47039.227,-18817.709
1399565.1281653135,-111478.516,-99755.414,-63250.977,-21399.13,-39848.594,-66219.08,-47037.883,-18815.186
1399565.132165308,-111475.75,-99749.8,-63251.426,-21404.176,-39851.523,-66216.72,-47033.33,-18809.041
1399565.1361653027,-111475.875,-99755.21,-63256.797,-21418.174,-39876.06,-66220.91,-47032.105,-18805.096
1399565.1401652973,-111479.25,-99758.266,-63259.93,-21416.057,-39885.297,-66223.59,-47036.38,-18808.105
1399565.144165292,-111480.266,-99755.25,-63253.38,-21404.379,-39868.33,-66220.74,-47040.45,-18818.035
1399565.1481652863,-111476.32,-99747.36,-63244.062,-21396.078,-39845.133,-66215.3,-47042.848,-18822.713
1399565.152165281,-111476.2,-99742.805,-63246.746,-21402.14,-39855.797,-66213.83,-47043.336,-18823.61
1399565.1561652755,-111478.72,-99746.75,-63258.098,-21414.633,-39880.13,-66215.945,-47042.44,-18823.527
1399565.16016527,-111482.18,-99751.02,-63261.926,-21418.05,-39888.023,-66218.71,-47040.855,-18820.191
1399565.1641652647,-111479.29,-99742.72,-63249.15,-21403.932,-39858.277,-66215.09,-47037.234,-18809.45
1399565.1681652593,-111470.5,-99736.086,-63241.008,-21393.88,-39832.684,-66209.8,-47036.5,-18811.932
1399565.1721652537,-111472.82,-99744.43,-63243.45,-21403.32,-39847.7,-66208.46,-47030.64,-18799.56
1399565.1761652483,-111475.51,-99753.18,-63254.152,-21414.145,-39873.902,-66210.9,-47025.312,-18793.457
1399565.1801652429,-111480.516,-99755.01,-63262.332,-21415.244,-39883.26,-66210.21,-47026.33,-18800.822
1399565.1841652375,-111485.44,-99754.36,-63259.117,-21404.502,-39870.445,-66206.914,-47029.176,-18801.352
1399565.188165232,-111489.42,-99752.484,-63250.977,-21398.357,-39836.875,-66204.47,-47034.59,-18799.725
1399565.1921652267,-111488.94,-99749.15,-63253.99,-21407.064,-39833.254,-66207.234,-47039.797,-18814.453
1399565.1961652213,-111486.66,-99750.86,-63262.13,-21415.691,-39860.8,-66208.945,-47041.992,-18817.098
1399565.2001652156,-111490.56,-99756.96,-63264.406,-21415.0,-39883.465,-66211.23,-47044.027,-18819.662
1399565.2041652102,-111488.125,-99751.71,-63255.902,-21405.314,-39867.676,-66210.57,-47049.316,-18830.893
1399565.2081652049,-111482.836,-99743.414,-63250.082,-21397.787,-39843.1,-66205.53,-47047.285,-18822.389
1399565.2121651995,-111480.555,-99736.82,-63250.285,-21400.229,-39849.938,-66204.8,-47046.31,-18827.271
1399565.216165194,-111484.625,-99740.69,-63257.895,-21412.924,-39869.59,-66207.03,-47043.62,-18826.824
1399565.2201651887,-111489.875,-99746.95,-63260.094,-21412.477,-39880.086,-66205.65,-47038.414,-18815.594
1399565.2241651833,-111486.66,-99751.34,-63248.535,-21401.611,-39855.918,-66202.84,-47040.57,-18823.975
1399565.2281651776,-111485.44,-99752.85,-63240.805,-21395.143,-39833.05,-66202.07,-47046.55,-18836.549
1399565.2321651722,-111484.055,-99752.08,-63245.812,-21403.646,-39844.32,-66203.29,-47046.266,-18830.934
1399565.2361651668,-111487.72,-99755.86,-63255.7,-21417.725,-39879.598,-66206.305,-47044.355,-18822.795
1399565.2401651614,-111492.27,-99757.41,-63260.38,-21420.166,-39894.86,-66207.6,-47047.08,-18823.201
1399565.244165156,-111493.9,-99757.77,-63256.27,-21408.977,-39870.363,-66205.65,-47052.695,-18835.693
1399565.2481651506,-111493.82,-99749.19,-63252.65,-21398.031,-39839.76,-66200.85,-47053.914,-18845.582
1399565.2521651452,-111495.61,-99748.01,-63257.812,-21407.512,-39847.574,-66201.26,-47052.086,-18837.932
1399565.2561651396,-111499.516,-99753.055,-63264.61,-21417.521,-39867.92,-66201.26,-47044.19,-18822.307
1399565.2601651342,-111497.69,-99746.99,-63267.09,-21417.318,-39879.19,-66199.18,-47039.88,-18820.395
1399565.2641651288,-111499.48,-99752.98,-63263.51,-21410.564,-39866.984,-66196.66,-47039.676,-18811.117
1399565.2681651234,-111498.87,-99755.375,-63256.473,-21404.094,-39847.25,-66194.17,-47043.418,-18822.062
1399565.272165118,-111496.87,-99757.164,-63260.336,-21411.133,-39854.492,-66195.72,-47045.086,-18834.717
1399565.2761651126,-111497.69,-99756.72,-63268.598,-21419.8,-39878.336,-66199.99,-47045.86,-18829.834
1399565.2801651072,-111500.45,-99754.36,-63270.957,-21417.521,-39887.74,-66203.21,-47051.68,-18843.14
1399565.2841651016,-111500.05,-99752.52,-63261.76,-21405.193,-39869.71,-66201.3,-47055.625,-18846.15
1399565.2881650962,-111491.7,-99741.336,-63250.53,-21394.125,-39840.13,-66196.984,-47055.016,-18844.97
1399565.2921650908,-111485.31,-99728.16,-63250.285,-21400.229,-39842.49,-66193.69,-47050.945,-18846.803
1399565.2961650854,-111488.695,-99735.4,-63258.383,-21412.436,-39868.45,-66192.836,-47042.848,-18828.572
1399565.30016508,-111495.41,-99750.125,-63262.453,-21415.324,-39885.582,-66196.125,-47042.605,-18824.219
1399565.3041650746,-111495.0,-99752.08,-63254.64,-21405.193,-39866.336,-66195.84,-47047.12,-18825.969
1399565.3081650692,-111493.414,-99748.58,-63249.84,-21397.95,-39843.547,-66193.61,-47049.52,-18830.81
1399565.3121650636,-111499.8,-99757.98,-63257.49,-21405.355,-39849.652,-66192.18,-47046.59,-18827.88
1399565.3161650582,-111505.3,-99771.94,-63269.613,-21417.848,-39877.28,-66195.92,-47045.047,-18826.742
1399565.3201650528,-111496.83,-99765.586,-63269.37,-21417.074,-39885.945,-66200.28,-47051.758,-18833.943
1399565.3241650474,-111497.03,-99761.516,-63264.812,-21409.1,-39868.125,-66200.234,-47054.12,-18834.596
1399565.328165042,-111496.14,-99758.47,-63257.69,-21400.799,-39849.406,-66196.74,-47054.484,-18840.576
1399565.3321650366,-111496.664,-99753.87,-63257.895,-21406.21,-39850.668,-66193.69,-47048.79,-18830.566
1399565.3361650312,-111503.42,-99761.15,-63268.11,-21418.498,-39876.75,-66192.71,-47042.523,-18821.9
1399565.3401650256,-111500.086,-99766.52,-63270.43,-21418.742,-39890.79,-66196.375,-47046.918,-18831.666
1399565.3441650202,-111502.12,-99769.33,-63261.883,-21406.82,-39870.28,-66194.945,-47048.992,-18832.643
1399565.3481650148,-111501.8,-99766.93,-63251.793,-21399.09,-39845.664,-66190.88,-47049.03,-18837.77
1399565.3521650094,-111502.28,-99763.35,-63254.965,-21409.75,-39853.68,-66191.33,-47048.992,-18831.38
1399565.356165004,-111508.79,-99766.52,-63269.492,-21422.812,-39887.125,-66197.266,-47052.168,-18840.332
1399565.3601649986,-111512.74,-99771.125,-63274.984,-21423.096,-39899.66,-66201.3,-47056.316,-18849.324
1399565.364164993,-111514.9,-99774.375,-63268.637,-21411.418,-39867.594,-66197.8,-47055.625,-18844.441
1399565.3681649875,-111508.836,-99761.72,-63260.582,-21402.426,-39841.594,-66194.87,-47055.016,-18842.855
1399565.3721649821,-111506.8,-99756.19,-63263.836,-21409.791,-39854.004,-66194.79,-47051.598,-18835.857
1399565.3761649767,-111511.6,-99765.79,-63271.61,-21420.451,-39883.953,-66196.945,-47046.348,-18822.795
1399565.3801649713,-111519.17,-99772.625,-63275.434,-21423.504,-39895.59,-66199.22,-47050.54,-18833.049
1399565.384164966,-111519.86,-99771.57,-63268.35,-21412.436,-39871.91,-66197.555,-47050.824,-18829.387
1399565.3881649605,-111516.766,-99766.65,-63259.402,-21402.752,-39853.8,-66197.59,-47052.043,-18838.46
1399565.392164955,-111516.93,-99769.734,-63263.633,-21413.615,-39864.137,-66198.445,-47055.95,-18855.469
1399565.3961649495,-111523.805,-99775.234,-63275.23,-21430.096,-39895.062,-66202.15,-47053.71,-18845.623
1399565.4001649441,-111528.0,-99779.5,-63278.688,-21430.828,-39928.14,-66203.125,-47048.707,-18828.572
1399565.4041649387,-111523.08,-99777.71,-63270.305,-21422.324,-39933.15,-66201.87,-47048.75,-18823.934
1399565.4081649333,-111521.28,-99777.63,-63264.285,-21414.023,-39876.953,-66197.76,-47047.363,-18826.62
1399565.412164928,-111522.055,-99775.03,-63267.418,-21421.307,-39873.008,-66196.375,-47041.87,-18823.283
1399565.4161649225,-111528.41,-99777.47,-63283.0,-21436.605,-39900.473,-66203.734,-47045.125,-18824.707
1399565.420164917,-111532.27,-99782.48,-63289.227,-21439.861,-39911.867,-66210.33,-47049.4,-18835.002
1399565.4241649115,-111531.74,-99780.84,-63286.297,-21430.543,-39888.387,-66210.77,-47055.625,-18846.477
1399565.428164906,-111525.516,-99774.17,-63277.184,-21420.98,-39863.85,-66206.87,-47055.95,-18839.64
1399565.4321649007,-111520.266,-99769.53,-63275.8,-21423.584,-39871.91,-66200.445,-47042.074,-18815.268
1399565.4361648953,-111525.35,-99778.32,-63278.2,-21435.588,-39903.523,-66202.15,-47038.656,-18802.857
1399565.44016489,-111532.35,-99789.76,-63279.543,-21438.273,-39910.688,-66205.98,-47044.637,-18816.041
1399565.4441648845,-111538.21,-99790.33,-63281.332,-21431.357,-39904.055,-66204.305,-47046.875,-18820.965
1399565.4481648789,-111536.87,-99777.59,-63278.08,-21422.975,-39891.93,-66201.055,-47049.805,-18828.084
1399565.4521648735,-111533.164,-99773.6,-63279.785,-21431.56,-39885.582,-66199.586,-47046.957,-18822.633
1399565.456164868,-111534.23,-99779.34,-63289.797,-21443.768,-39897.867,-66202.96,-47048.098,-18823.895
1399565.4601648627,-111538.13,-99782.68,-63293.01,-21442.75,-39898.723,-66207.16,-47052.9,-18831.87
1399565.4641648573,-111538.05,-99777.914,-63284.344,-21431.846,-39874.918,-66206.914,-47056.723,-18834.88
1399565.468164852,-111535.2,-99771.0,-63278.445,-21425.416,-39854.574,-66202.92,-47054.812,-18829.998
1399565.4721648465,-111533.29,-99773.32,-63275.92,-21433.27,-39871.83,-66203.49,-47050.418,-18821.777
1399565.4761648409,-111534.8,-99783.33,-63285.973,-21447.104,-39905.355,-66209.07,-47051.15,-18828.613
1399565.4801648355,-111540.9,-99789.88,-63290.57,-21446.533,-39916.344,-66212.0,-47056.03,-18838.746
1399565.48416483,-111542.81,-99785.484,-63282.92,-21432.943,-39911.46,-66211.06,-47061.445,-18852.783
1399565.4881648247,-111541.016,-99780.805,-63277.344,-21425.62,-39880.535,-66206.46,-47056.355,-18836.346
1399565.4921648193,-111539.96,-99779.3,-63279.582,-21431.764,-39890.137,-66206.016,-47055.137,-18830.852
1399565.4961648139,-111541.79,-99777.59,-63286.418,-21442.791,-39908.895,-66208.7,-47055.746,-18833.943
1399565.5001648085,-111540.94,-99779.22,-63284.996,-21446.209,-39913.94,-66211.51,-47057.21,-18837.81
1399565.5041648028,-111538.25,-99772.46,-63275.92,-21434.652,-39888.43,-66209.27,-47057.617,-18830.73
1399565.5081647974,-111535.28,-99767.83,-63268.11,-21426.719,-39864.746,-66207.28,-47056.844,-18831.543
1399565.512164792,-111538.25,-99771.89,-63272.79,-21434.531,-39873.902,-66213.14,-47059.164,-18831.014
1399565.5161647866,-111542.69,-99779.3,-63284.75,-21445.68,-39901.9,-66217.57,-47058.92,-18836.955
1399565.5201647813,-111540.695,-99780.805,-63286.83,-21445.477,-39911.176,-66215.09,-47057.254,-18836.629
1399565.5241647759,-111540.2,-99780.97,-63282.555,-21434.693,-39894.574,-66211.63,-47058.39,-18842.244
1399565.5281647705,-111542.24,-99776.695,-63278.04,-21427.287,-39867.39,-66207.56,-47057.78,-18842.082
1399565.5321647648,-111541.43,-99776.086,-63277.59,-21437.012,-39873.332,-66208.91,-47056.03,-18844.28
1399565.5361647594,-111545.984,-99785.32,-63285.566,-21450.318,-39900.39,-66213.55,-47055.83,-18838.094
1399565.540164754,-111549.445,-99789.836,-63288.82,-21447.062,-39910.484,-66211.8,-47050.984,-18823.242
1399565.5441647486,-111547.61,-99787.56,-63283.69,-21436.117,-39886.844,-66210.414,-47055.098,-18831.87
1399565.5481647432,-111543.625,-99780.84,-63276.246,-21427.49,-39858.887,-66208.17,-47055.543,-18832.154
1399565.5521647378,-111541.51,-99780.766,-63280.316,-21436.932,-39865.766,-66206.26,-47051.35,-18822.674
1399565.5561647324,-111543.22,-99786.5,-63289.43,-21447.43,-39897.746,-66210.66,-47056.562,-18836.996
1399565.5601647268,-111546.72,-99794.35,-63295.25,-21450.44,-39910.688,-66213.38,-47059.652,-18840.861
1399565.5641647214,-111551.84,-99796.67,-63293.133,-21443.93,-39880.94,-66212.89,-47059.57,-18835.205
1399565.568164716,-111549.65,-99789.8,-63285.688,-21436.361,-39845.34,-66210.49,-47062.297,-18837.566
1399565.5721647106,-111549.36,-99784.914,-63289.062,-21444.174,-39883.992,-66211.39,-47060.996,-18832.967
1399565.5761647052,-111553.51,-99789.31,-63292.727,-21456.87,-39910.074,-66216.516,-47061.16,-18834.799
1399565.5801646998,-111552.86,-99794.4,-63292.156,-21455.283,-39906.902,-66219.52,-47062.258,-18838.46
1399565.5841646942,-111550.83,-99794.48,-63287.395,-21445.068,-39886.027,-66218.71,-47065.594,-18842.652
1399565.5881646888,-111547.53,-99784.836,-63282.676,-21439.941,-39863.12,-66212.89,-47063.438,-18849.406
1399565.5921646834,-111549.484,-99783.41,-63293.01,-21453.41,-39876.793,-66212.445,-47058.72,-18842.938
1399565.596164678,-111553.836,-99789.96,-63303.508,-21464.234,-39899.254,-66215.45,-47059.773,-18841.188
1399565.6001646726,-111558.92,-99797.04,-63307.375,-21462.443,-39910.562,-66215.58,-47063.03,-18846.395
1399565.6041646672,-111561.41,-99794.56,-63305.055,-21450.969,-39894.45,-66215.91,-47068.074,-18844.686
1399565.6081646618,-111559.33,-99787.16,-63295.453,-21440.309,-39862.633,-66211.34,-47067.098,-18845.135
1399565.6121646562,-111548.99,-99778.94,-63292.48,-21448.812,-39869.305,-66209.39,-47061.32,-18835.49
1399565.6161646508,-111548.55,-99782.23,-63299.4,-21461.346,-39908.49,-66213.46,-47055.664,-18822.998
1399565.6201646454,-111550.42,-99790.445,-63300.09,-21460.938,-39919.312,-66216.39,-47056.766,-18830.566
1399565.62416464,-111549.56,-99786.75,-63294.395,-21452.148,-39898.844,-66215.984,-47060.914,-18840.332
1399565.6281646346,-111548.71,-99783.29,-63288.984,-21445.762,-39871.5,-66213.34,-47058.066,-18835.408
1399565.6321646292,-111548.875,-99778.12,-63292.766,-21451.498,-39872.926,-66212.24,-47052.938,-18830.201
1399565.6361646238,-111555.14,-99779.914,-63302.453,-21466.39,-39899.58,-66214.195,-47047.895,-18814.982
1399565.6401646181,-111563.93,-99784.586,-63306.438,-21468.344,-39905.887,-66215.375,-47047.0,-18810.67
1399565.6441646127,-111563.44,-99783.05,-63303.793,-21460.287,-39889.73,-66215.78,-47051.637,-18823.568
1399565.6481646074,-111559.94,-99781.58,-63300.824,-21455.16,-39871.785,-66212.04,-47050.863,-18820.72
1399565.652164602,-111562.87,-99784.63,-63305.79,-21464.52,-39886.477,-66210.9,-47049.24,-18822.348
1399565.6561645966,-111566.734,-99793.54,-63313.316,-21475.262,-39917.605,-66215.45,-47050.78,-18823.283
1399565.6601645912,-111567.06,-99797.2,-63311.402,-21471.152,-39916.832,-66216.92,-47051.027,-18827.271
1399565.6641645858,-111565.8,-99790.445,-63304.2,-21459.637,-39883.504,-66214.44,-47056.64,-18843.832
1399565.6681645801,-111568.24,-99783.49,-63300.457,-21455.16,-39860.883,-66212.484,-47058.23,-18846.273
1399565.6721645747,-111571.21,-99782.48,-63304.895,-21467.285,-39870.035,-66212.93,-47057.82,-18843.426
1399565.6761645693,-111575.89,-99791.836,-63318.566,-21482.504,-39902.59,-66216.72,-47051.555,-18826.13
1399565.680164564,-111582.08,-99796.35,-63320.965,-21485.068,-39921.023,-66218.1,-47048.707,-18826.336
1399565.6841645585,-111580.445,-99795.17,-63308.188,-21470.459,-39897.055,-66214.64,-47048.625,-18827.516
1399565.6881645531,-111572.92,-99785.52,-63295.37,-21462.932,-39869.71,-66212.81,-47051.23,-18829.59
1399565.6921645477,-111569.42,-99785.52,-63294.92,-21470.379,-39887.047,-66211.19,-47046.55,-18822.674
1399565.696164542,-111568.98,-99790.94,-63304.363,-21477.703,-39910.77,-66212.24,-47045.656,-18823.65
1399565.7001645367,-111572.72,-99799.69,-63307.05,-21477.662,-39915.61,-66214.4,-47052.695,-18828.207
1399565.7041645313,-111575.766,-99795.33,-63298.547,-21465.7,-39896.73,-66210.45,-47056.48,-18836.873
1399565.708164526,-111575.24,-99785.93,-63293.01,-21459.066,-39865.4,-66207.32,-47059.207,-18844.605
1399565.7121645205,-111570.766,-99773.805,-63299.074,-21468.262,-39871.99,-66209.84,-47058.066,-18845.135
1399565.7161645151,-111565.15,-99769.21,-63304.242,-21475.383,-39894.086,-66210.82,-47053.875,-18836.752
1399565.7201645097,-111571.82,-99783.0,-63300.336,-21473.064,-39905.76,-66208.13,-47047.16,-18827.88
1399565.724164504,-111563.4,-99780.766,-63287.438,-21459.066,-39883.586,-66205.94,-47050.418,-18828.451
1399565.7281644987,-111552.05,-99760.99,-63277.55,-21451.986,-39859.293,-66202.07,-47050.62,-18828.898
1399565.7321644933,-111551.6,-99754.88,-63281.047,-21460.938,-39876.06,-66199.71,-47045.98,-18836.752
1399565.736164488,-111556.4,-99758.914,-63290.0,-21471.191,-39891.36,-66200.69,-47040.812,-18826.13
1399565.7401644825,-111564.91,-99767.055,-63296.957,-21473.959,-39897.22,-66202.92,-47042.684,-18816.406
1399565.744164477,-111570.4,-99770.875,-63295.332,-21465.943,-39874.715,-66201.13,-47047.406,-18828.328
1399565.7481644717,-111563.97,-99763.15,-63288.94,-21457.602,-39856.12,-66196.414,-47052.29,-18843.873
1399565.752164466,-111562.664,-99760.586,-63293.133,-21463.95,-39866.58,-66196.58,-47051.11,-18851.889
1399565.7561644607,-111567.1,-99763.67,-63298.707,-21475.424,-39893.066,-66196.78,-47044.11,-18843.018
1399565.7601644553,-111566.98,-99766.28,-63295.41,-21475.506,-39901.207,-66196.54,-47039.754,-18828.777
1399565.7641644499,-111567.23,-99773.52,-63290.734,-21465.088,-39885.297,-66195.92,-47040.082,-18824.627
1399565.7681644445,-111563.68,-99769.086,-63286.543,-21458.252,-39851.44,-66196.695,-47044.434,-18832.275
1399565.772164439,-111564.09,-99768.96,-63293.215,-21467.367,-39864.383,-66198.125,-47045.125,-18831.625
1399565.7761644335,-111572.19,-99774.62,-63298.87,-21477.336,-39892.742,-66200.4,-47043.05,-18826.13
1399565.780164428,-111569.91,-99764.695,-63297.773,-21472.412,-39895.914,-66202.68,-47047.08,-18831.828
1399565.7841644227,-111567.34,-99762.695,-63291.18,-21462.363,-39870.242,-66200.805,-47051.637,-18850.79
1399565.7881644173,-111566.25,-99758.06,-63285.523,-21456.992,-39852.945,-66195.766,-47052.125,-18853.598
1399565.7921644119,-111564.45,-99756.35,-63290.57,-21464.479,-39865.926,-66193.28,-47044.027,-18841.756
1399565.7961644065,-111569.055,-99765.18,-63296.957,-21474.406,-39892.54,-66193.85,-47039.188,-18828.695
1399565.800164401,-111572.72,-99773.84,-63293.62,-21475.506,-39893.555,-66192.95,-47042.36,-18825.604
1399565.8041643954,-111572.35,-99774.13,-63290.082,-21466.229,-39864.91,-66189.62,-47045.25,-18835.531
1399565.80816439,-111569.7,-99768.516,-63286.906,-21460.572,-39843.1,-66186.484,-47046.836,-18830.037
1399565.8121643846,-111571.945,-99767.336,-63293.215,-21467.164,-39861.246,-66187.7,-47047.773,-18843.873
1399565.8161643792,-111580.77,-99781.09,-63307.863,-21479.736,-39891.848,-66192.305,-47047.773,-18847.006
1399565.8201643738,-111587.2,-99788.17,-63312.91,-21477.377,-39905.844,-66194.79,-47050.375,-18840.291
1399565.8241643684,-111585.414,-99785.32,-63300.133,-21463.42,-39882.773,-66189.945,-47055.176,-18848.47
1399565.828164363,-111579.516,-99778.52,-63289.594,-21456.096,-39861.29,-66185.586,-47053.348,-18848.227
1399565.8321643574,-111574.836,-99773.32,-63288.656,-21461.264,-39867.516,-66184.49,-47047.445,-18838.867
1399565.836164352,-111570.84,-99772.38,-63298.098,-21472.453,-39897.38,-66187.3,-47047.69,-18848.227
1399565.8401643466,-111574.14,-99776.49,-63303.71,-21474.773,-39894.043,-66187.055,-47045.574,-18848.227
1399565.8441643412,-111579.72,-99778.85,-63300.54,-21465.781,-39865.684,-66182.7,-47043.01,-18835.572
1399565.8481643358,-111577.195,-99771.484,-63294.965,-21460.41,-39850.016,-66178.914,-47044.965,-18835.816
1399565.8521643304,-111576.375,-99765.1,-63295.535,-21465.984,-39859.336,-66178.23,-47043.418,-18829.428
1399565.856164325,-111584.48,-99765.016,-63303.305,-21475.303,-39887.535,-66182.62,-47044.19,-18833.496
1399565.8601643194,-111581.42,-99771.484,-63304.934,-21473.227,-39898.438,-66187.99,-47050.254,-18843.426
1399565.864164314,-111577.31,-99770.39,-63295.82,-21458.945,-39869.1,-66186.98,-47051.19,-18850.506
1399565.8681643086,-111573.77,-99761.97,-63290.773,-21453.94,-39843.508,-66183.96,-47049.848,-18847.412
1399565.8721643032,-111572.516,-99759.41,-63292.848,-21462.443,-39862.47,-66183.23,-47045.453,-18839.6
1399565.8761642978,-111579.96,-99769.01,-63303.793,-21476.074,-39885.906,-66188.64,-47045.453,-18837.85
1399565.8801642924,-111589.93,-99776.29,-63310.508,-21478.924,-39899.66,-66192.79,-47051.395,-18844.28
1399565.884164287,-111593.59,-99778.12,-63305.746,-21466.514,-39877.89,-66190.59,-47052.492,-18844.482
1399565.8881642814,-111587.2,-99770.35,-63295.574,-21457.48,-39847.168,-66187.42,-47054.445,-18848.553
1399565.892164276,-111585.78,-99769.58,-63300.215,-21464.111,-39852.742,-66186.81,-47054.08,-18854.98
1399565.8961642706,-111595.016,-99781.54,-63310.957,-21477.621,-39883.707,-66192.06,-47053.426,-18852.133
1399565.9001642652,-111597.78,-99784.71,-63314.94,-21479.941,-39896.812,-66194.3,-47054.324,-18847.86
1399565.9041642598,-111592.695,-99774.375,-63303.67,-21466.797,-39875.69,-66188.44,-47051.68,-18854.29
1399565.9081642544,-111589.03,-99766.28,-63293.742,-21457.275,-39854.37,-66183.27,-47049.848,-18852.05
1399565.912164249,-111586.43,-99759.81,-63298.098,-21466.229,-39866.17,-66186.04,-47054.12,-18858.766
1399565.9161642434,-111587.65,-99765.67,-63313.152,-21478.598,-39895.1,-66191.49,-47057.54,-18855.633
1399565.920164238,-111590.375,-99770.76,-63317.508,-21474.447,-39898.766,-66192.305,-47057.05,-18851.36
1399565.9241642326,-111589.6,-99765.34,-63310.63,-21461.549,-39872.52,-66190.92,-47057.17,-18846.436
1399565.9281642272,-111588.016,-99761.44,-63301.395,-21455.04,-39848.88,-66188.805,-47058.027,-18844.727
1399565.9321642218,-111585.86,-99761.4,-63304.406,-21464.682,-39862.836,-66188.03,-47053.957,-18839.193
1399565.9361642164,-111585.78,-99762.25,-63310.223,-21476.807,-39899.66,-66191.086,-47053.59,-18834.229
1399565.940164211,-111588.34,-99770.1,-63312.137,-21478.11,-39916.098,-66193.69,-47056.562,-18840.252
1399565.9441642053,-111592.125,-99783.77,-63310.426,-21471.191,-39887.453,-66192.06,-47059.207,-18843.1
1399565.9481642,-111588.71,-99777.266,-63301.965,-21465.049,-39861.33,-66189.01,-47060.67,-18845.662
1399565.9521641945,-111586.02,-99771.53,-63304.406,-21471.191,-39868.004,-66187.3,-47056.195,-18845.826
1399565.9561641891,-111589.44,-99772.664,-63316.285,-21478.436,-39892.254,-66190.47,-47055.83,-18841.594
1399565.9601641838,-111592.37,-99777.67,-63318.32,-21479.941,-39903.973,-66195.92,-47064.902,-18853.23
1399565.9641641784,-111595.586,-99777.875,-63313.76,-21472.576,-39889.49,-66195.88,-47072.43,-18866.658
1399565.968164173,-111595.18,-99770.59,-63307.945,-21466.146,-39867.594,-66196.54,-47074.06,-18860.31
1399565.9721641673,-111596.88,-99773.16,-63314.863,-21478.068,-39876.75,-66199.18,-47073.61,-18861.572
1399565.976164162,-111601.41,-99788.05,-63324.016,-21488.69,-39905.64,-66201.21,-47073.57,-18862.549
1399565.9801641565,-111598.27,-99787.805,-63322.43,-21483.807,-39904.258,-66202.88,-47075.766,-18861.775
1399565.9841641511,-111596.88,-99784.38,-63314.78,-21472.006,-39881.836,-66199.625,-47075.156,-18856.934
1399565.9881641457,-111593.59,-99771.2,-63304.527,-21466.064,-39856.85,-66193.484,-47073.934,-18859.904
1399565.9921641403,-111589.234,-99764.77,-63305.625,-21473.064,-39864.055,-66192.47,-47069.46,-18852.824
1399565.9961641347,-111591.07,-99771.125,-63315.918,-21483.604,-39892.945,-66196.17,-47071.168,-18854.818
1399566.0001641293,-111596.03,-99776.05,-63319.582,-21483.277,-39901.816,-66197.8,-47074.098,-18856.324
1399566.004164124,-111600.914,-99780.52,-63316.69,-21472.617,-39885.5,-66196.945,-47076.457,-18857.3
1399566.0081641185,-111601.0,-99774.82,-63307.78,-21464.316,-39855.227,-66193.69,-47078.695,-18856.771
1399566.012164113,-111596.36,-99768.6,-63310.832,-21470.623,-39861.33,-66195.03,-47080.445,-18869.955
1399566.0161641077,-111599.45,-99775.68,-63322.105,-21485.148,-39892.742,-66198.695,-47077.477,-18860.31
1399566.0201641023,-111605.516,-99780.32,-63326.05,-21487.102,-39904.543,-66201.09,-47081.586,-18865.52
1399566.0241640967,-111603.27,-99776.77,-63317.953,-21477.133,-39882.12,-66199.914,-47085.29,-18870.037
1399566.0281640913,-111598.72,-99767.7,-63310.914,-21470.42,-39865.887,-66195.92,-47082.4,-18863.81
1399566.032164086,-111600.02,-99764.695,-63320.395,-21483.398,-39882.57,-66196.25,-47077.395,-18859.457
1399566.0361640805,-111602.016,-99771.77,-63333.293,-21496.258,-39905.19,-66198.81,-47072.754,-18854.127
1399566.040164075,-111606.61,-99773.484,-63338.3,-21495.484,-39903.688,-66200.484,-47073.445,-18845.826
1399566.0441640697,-111605.63,-99766.85,-63330.203,-21483.969,-39876.1,-66199.1,-47083.254,-18866.74
1399566.0481640643,-111598.07,-99760.3,-63317.547,-21474.53,-39856.406,-66195.766,-47083.863,-18869.793
1399566.0521640587,-111598.15,-99756.11,-63319.664,-21482.383,-39871.094,-66195.84,-47078.574,-18859.945
1399566.0561640533,-111596.32,-99752.98,-63326.457,-21494.59,-39894.695,-66197.8,-47076.17,-18857.707
1399566.0601640479,-111588.664,-99749.31,-63324.832,-21493.287,-39897.46,-66201.74,-47080.04,-18869.793
1399566.0641640425,-111587.77,-99749.92,-63320.19,-21483.115,-39882.242,-66199.55,-47084.35,-18881.307
1399566.068164037,-111586.47,-99749.31,-63317.914,-21477.744,-39871.297,-66197.19,-47084.473,-18879.518
1399566.0721640317,-111585.66,-99746.79,-63322.715,-21486.045,-39877.156,-66197.836,-47080.77,-18872.03
1399566.0761640263,-111584.96,-99746.95,-63329.43,-21494.996,-39889.977,-66201.26,-47078.004,-18862.752
1399566.0801640206,-111582.08,-99749.516,-63324.06,-21490.887,-39899.457,-66199.67,-47075.887,-18868.084
1399566.0841640153,-111573.57,-99743.086,-63313.805,-21477.744,-39884.81,-66197.43,-47077.273,-18863.81
1399566.0881640099,-111564.17,-99734.54,-63307.742,-21471.6,-39861.613,-66196.86,-47079.305,-18867.39
1399566.0921640045,-111566.2,-99731.41,-63312.95,-21479.98,-39869.67,-66197.1,-47071.7,-18863.24
1399566.096163999,-111564.78,-99732.016,-63320.965,-21496.055,-39895.996,-66204.19,-47074.668,-18868.693
1399566.1001639937,-111558.11,-99728.766,-63323.0,-21493.693,-39902.223,-66207.32,-47077.312,-18867.635
1399566.1041639883,-111558.27,-99724.086,-63315.066,-21483.643,-39883.87,-66205.53,-47079.43,-18873.7
1399566.1081639826,-111557.74,-99716.84,-63308.96,-21477.336,-39847.086,-66204.96,-47082.48,-18872.03
1399566.1121639772,-111561.65,-99712.41,-63315.31,-21484.254,-39845.215,-66203.734,-47081.992,-18874.35
1399566.1161639718,-111564.05,-99712.81,-63326.703,-21496.258,-39891.562,-66206.46,-47079.145,-18869.1
1399566.1201639664,-111558.72,-99714.195,-63324.426,-21494.914,-39906.13,-66207.84,-47078.25,-18863.16
1399566.124163961,-111559.53,-99715.664,-63316.57,-21482.422,-39875.977,-66204.43,-47081.3,-18868.49
1399566.1281639556,-111553.305,-99706.38,-63311.08,-21477.947,-39856.242,-66202.27,-47083.21,-18880.291
1399566.1321639502,-111549.93,-99705.28,-63316.285,-21491.172,-39868.53,-66205.41,-47083.496,-18882.0
1399566.1361639446,-111555.625,-99714.44,-63327.395,-21502.686,-39895.02,-66209.64,-47081.258,-18880.656
1399566.1401639392,-111562.34,-99723.35,-63329.633,-21503.215,-39905.03,-66210.125,-47079.43,-18873.943
1399566.1441639338,-111563.234,-99723.15,-63321.74,-21490.56,-39880.332,-66207.28,-47083.7,-18881.268
1399566.1481639284,-111564.78,-99725.06,-63318.24,-21487.916,-39868.246,-66204.266,-47080.12,-18865.723
1399566.152163923,-111570.31,-99734.87,-63322.836,-21500.285,-39882.49,-66205.734,-47078.086,-18871.705
1399566.1561639176,-111583.5,-99745.12,-63334.27,-21511.76,-39914.227,-66212.0,-47078.74,-18870.076
1399566.1601639122,-111592.37,-99760.46,-63337.242,-21511.068,-39918.254,-66214.03,-47081.83,-18873.291
1399566.1641639066,-111585.695,-99759.56,-63329.266,-21499.188,-39874.758,-66211.1,-47081.18,-18875.244
1399566.1681639012,-111582.445,-99745.61,-63324.016,-21497.111,-39851.727,-66207.32,-47083.58,-18883.504
1399566.1721638958,-111582.69,-99739.1,-63328.535,-21505.25,-39843.344,-66207.234,-47082.887,-18878.053
1399566.1761638904,-111584.64,-99752.65,-63338.016,-21513.469,-39885.62,-66209.555,-47083.375,-18884.318
1399566.180163885,-111585.45,-99764.37,-63338.625,-21511.11,-39901.773,-66210.86,-47085.652,-18884.441
1399566.1841638796,-111592.086,-99762.78,-63332.48,-21501.1,-39886.395,-66209.516,-47087.402,-18884.033
1399566.188163874,-111594.32,-99758.47,-63328.613,-21498.088,-39870.73,-66208.78,-47088.867,-18889.242
1399566.1921638686,-111601.81,-99766.484,-63338.055,-21512.33,-39895.67,-66208.13,-47081.055,-18868.572
1399566.1961638632,-111609.46,-99772.42,-63344.65,-21520.957,-39942.914,-66211.02,-47082.03,-18877.117
1399566.2001638578,-111612.76,-99778.08,-63343.59,-21519.531,-39978.19,-66213.586,-47085.652,-18884.318
1399566.2041638524,-111608.52,-99773.4,-63331.543,-21507.406,-39912.965,-66209.92,-47085.043,-18877.361
1399566.208163847,-111601.65,-99760.38,-63322.918,-21501.018,-39881.96,-66206.79,-47084.676,-18880.574
1399566.2121638416,-111597.945,-99758.266,-63326.094,-21512.127,-39893.96,-66206.42,-47078.37,-18868.572
1399566.216163836,-111607.18,-99768.555,-63335.98,-21525.31,-39922.527,-66209.15,-47075.562,-18860.352
1399566.2201638306,-111614.75,-99778.61,-63341.434,-21525.635,-39938.723,-66211.63,-47079.145,-18872.314
1399566.2241638252,-111615.44,-99779.7,-63336.47,-21511.557,-39921.1,-66210.82,-47082.44,-18875.53
1399566.2281638198,-111609.625,-99772.625,-63328.98,-21502.158,-39905.07,-66205.33,-47078.29,-18866.049
1399566.2321638144,-111606.695,-99767.336,-63333.54,-21511.719,-39904.625,-66207.16,-47081.098,-18872.234
1399566.236163809,-111609.7,-99766.6,-63340.945,-21522.258,-39917.766,-66211.51,-47084.23,-18879.598
1399566.2401638036,-111613.0,-99769.86,-63342.773,-21523.193,-39922.977,-66212.08,-47083.17,-18871.176
1399566.244163798,-111614.75,-99774.984,-63338.055,-21514.324,-39909.098,-66212.164,-47085.652,-18872.111
1399566.2481637925,-111612.8,-99776.086,-63331.992,-21506.918,-39884.93,-66208.58,-47087.242,-18883.016
1399566.2521637871,-111615.16,-99773.4,-63336.47,-21515.748,-39891.316,-66208.26,-47081.543,-18877.93
1399566.2561637817,-111622.805,-99779.55,-63342.164,-21526.855,-39915.934,-66212.28,-47083.906,-18876.547
1399566.2601637763,-111623.62,-99786.26,-63340.58,-21524.09,-39918.457,-66213.46,-47087.445,-18880.453
1399566.264163771,-111618.086,-99784.266,-63333.375,-21515.586,-39896.402,-66211.51,-47086.67,-18883.342
1399566.2681637655,-111615.766,-99777.914,-63332.277,-21513.225,-39880.74,-66208.46,-47084.11,-18887.166
1399566.27216376,-111621.55,-99781.17,-63341.72,-21522.014,-39887.94,-66207.97,-47081.18,-18884.197
1399566.2761637545,-111625.82,-99782.76,-63349.164,-21530.844,-39914.754,-66209.39,-47078.74,-18872.926
1399566.2801637491,-111629.44,-99789.96,-63350.832,-21531.17,-39924.805,-66210.29,-47078.168,-18870.158
1399566.2841637437,-111628.5,-99788.336,-63343.547,-21522.502,-39912.027,-66210.0,-47082.562,-18875.611
1399566.2881637383,-111624.02,-99778.484,-63332.195,-21514.975,-39885.62,-66206.55,-47081.18,-18874.432
1399566.292163733,-111624.31,-99770.06,-63333.17,-21524.496,-39892.008,-66204.59,-47075.562,-18857.422
1399566.2961637275,-111630.74,-99777.914,-63342.57,-21536.174,-39919.312,-66207.12,-47072.594,-18857.992
1399566.300163722,-111634.81,-99784.836,-63348.188,-21539.268,-39930.91,-66212.93,-47078.816,-18866.943
1399566.3041637165,-111635.18,-99785.0,-63341.96,-21529.379,-39916.016,-66212.28,-47085.207,-18878.5
1399566.308163711,-111637.62,-99784.305,-63338.867,-21521.363,-39883.63,-66208.7,-47086.67,-18883.18
1399566.3121637057,-111638.875,-99782.39,-63343.67,-21529.908,-39885.5,-66206.055,-47081.383,-18873.617
1399566.3161637003,-111641.69,-99783.29,-63348.39,-21540.244,-39917.848,-66204.51,-47078.004,-18865.52
1399566.320163695,-111642.336,-99782.15,-63343.67,-21537.72,-39923.91,-66203.01,-47077.72,-18869.182
1399566.3241636895,-111638.72,-99777.71,-63335.33,-21528.2,-39909.06,-66198.41,-47076.863,-18868.367
1399566.3281636839,-111641.24,-99775.27,-63330.363,-21524.293,-39890.79,-66195.805,-47078.816,-18872.723
1399566.3321636785,-111645.59,-99775.35,-63336.996,-21534.059,-39898.074,-66195.516,-47077.72,-18877.28
1399566.336163673,-111649.664,-99785.41,-63350.14,-21541.627,-39912.598,-66200.65,-47078.086,-18873.78
1399566.3401636677,-111654.55,-99791.71,-63351.484,-21539.104,-39914.836,-66200.445,-47079.348,-18873.373
1399566.3441636623,-111649.336,-99787.73,-63343.344,-21530.234,-39895.793,-66198.04,-47084.516,-18890.34
1399566.348163657,-111639.65,-99774.82,-63333.008,-21522.502,-39879.03,-66192.47,-47087.85,-18898.56
1399566.3521636515,-111641.97,-99772.18,-63339.684,-21529.297,-39892.66,-66189.13,-47077.68,-18879.559
1399566.3561636459,-111644.25,-99781.74,-63350.547,-21538.047,-39922.73,-66192.305,-47078.168,-18878.744
1399566.3601636405,-111651.45,-99789.72,-63348.797,-21536.988,-39928.426,-66193.93,-47081.137,-18882.895
1399566.364163635,-111656.62,-99794.97,-63347.414,-21528.281,-39901.164,-66193.12,-47083.58,-18884.766
1399566.3681636297,-111655.64,-99791.305,-63340.13,-21521.201,-39856.324,-66190.8,-47084.72,-18888.225
1399566.3721636243,-111655.03,-99790.94,-63341.105,-21529.908,-39877.77,-66189.66,-47081.543,-18880.006
1399566.3761636189,-111658.125,-99797.33,-63349.69,-21540.488,-39915.367,-66190.96,-47077.23,-18873.129
1399566.3801636132,-111661.46,-99799.65,-63350.508,-21538.127,-39923.87,-66191.66,-47076.254,-18869.955
1399566.3841636078,-111662.195,-99795.29,-63343.59,-21527.223,-39906.168,-66189.62,-47081.016,-18881.674
1399566.3881636024,-111658.9,-99793.7,-63342.246,-21524.74,-39887.37,-66184.98,-47079.754,-18884.969
1399566.392163597,-111662.56,-99799.56,-63348.88,-21532.756,-39884.074,-66185.55,-47079.1,-18887.695
1399566.3961635916,-111665.37,-99804.85,-63357.016,-21542.848,-39923.586,-66186.81,-47076.375,-18882.61
1399566.4001635863,-111668.586,-99810.1,-63360.23,-21541.3,-39945.027,-66187.18,-47076.215,-18879.518
1399566.4041635809,-111671.15,-99806.84,-63353.64,-21532.39,-39908.082,-66186.16,-47078.535,-18880.291
1399566.4081635752,-111669.48,-99796.8,-63346.19,-21525.84,-39879.438,-66182.91,-47080.04,-18881.145
1399566.4121635698,-111669.6,-99793.13,-63346.234,-21529.135,-39888.43,-66181.32,-47074.668,-18860.352
1399566.4161635644,-111670.54,-99803.02,-63354.94,-21541.016,-39916.953,-66184.695,-47075.156,-18855.469
1399566.420163559,-111670.86,-99807.05,-63354.617,-21541.22,-39928.957,-66187.09,-47080.85,-18881.104
1399566.4241635536,-111666.18,-99803.51,-63346.113,-21531.332,-39914.145,-66185.836,-47085.45,-18892.375
1399566.4281635482,-111665.04,-99799.234,-63342.938,-21529.094,-39900.72,-66183.555,-47081.586,-18878.865
1399566.4321635428,-111668.016,-99800.984,-63352.094,-21537.11,-39908.406,-66183.555,-47077.76,-18876.1
1399566.4361635372,-111670.49,-99808.11,-63360.19,-21547.324,-39925.293,-66186.484,-47082.36,-18890.545
1399566.4401635318,-111673.71,-99809.086,-63356.57,-21541.504,-39921.227,-66184.98,-47083.336,-18891.033
1399566.4441635264,-111672.08,-99801.4,-63346.76,-21526.45,-39891.848,-66181.52,-47086.793,-18887.615
1399566.448163521,-111667.73,-99789.15,-63339.805,-21518.637,-39871.785,-66178.19,-47087.77,-18891.48
1399566.4521635156,-111666.47,-99792.04,-63346.56,-21527.182,-39884.32,-66180.055,-47087.242,-18893.963
1399566.4561635102,-111669.195,-99798.51,-63356.164,-21541.016,-39921.836,-66183.02,-47089.03,-18902.467
1399566.4601635048,-111672.65,-99801.555,-63359.62,-21543.213,-39935.344,-66182.87,-47089.4,-18903.564
1399566.4641634992,-111672.41,-99799.36,-63354.13,-21530.844,-39915.773,-66181.4,-47090.375,-18900.838
1399566.4681634938,-111666.18,-99798.75,-63344.81,-21520.752,-39895.836,-66177.25,-47087.16,-18894.613
1399566.4721634884,-111667.32,-99797.94,-63347.047,-21530.111,-39895.062,-66176.96,-47082.723,-18885.213
1399566.476163483,-111668.664,-99796.555,-63352.582,-21536.418,-39915.164,-66178.39,-47079.348,-18883.83
1399566.4801634776,-111669.6,-99802.695,-63351.645,-21537.68,-39932.66,-66178.14,-47079.43,-18883.139
1399566.4841634722,-111673.99,-99804.65,-63345.83,-21529.908,-39913.492,-66176.15,-47078.086,-18868.979
1399566.4881634668,-111668.17,-99795.01,-63340.945,-21522.87,-39887.82,-66173.18,-47079.227,-18872.438
1399566.4921634612,-111664.02,-99785.89,-63342.164,-21529.582,-39910.28,-66169.88,-47073.285,-18879.639
1399566.4961634558,-111665.98,-99797.04,-63351.484,-21542.562,-39940.39,-66170.94,-47070.68,-18878.459
1399566.5001634504,-111668.22,-99810.63,-63353.11,-21543.254,-39945.027,-66172.445,-47073.812,-18880.412
1399566.504163445,-111670.29,-99808.39,-63349.938,-21534.303,-39920.94,-66171.35,-47078.33,-18879.232
1399566.5081634396,-111674.56,-99805.586,-63346.64,-21529.908,-39889.203,-66170.086,-47080.934,-18877.197
1399566.5121634342,-111672.0,-99803.23,-63348.633,-21533.691,-39887.656,-66173.18,-47081.79,-18881.227
1399566.5161634288,-111673.625,-99808.72,-63356.082,-21542.848,-39918.99,-66179.2,-47084.188,-18888.592
1399566.5201634231,-111678.76,-99810.19,-63359.133,-21540.121,-39929.973,-66180.46,-47085.246,-18883.668
1399566.5241634178,-111672.53,-99802.53,-63348.797,-21528.361,-39902.02,-66175.17,-47088.22,-18888.592
1399566.5281634124,-111670.086,-99794.88,-63343.832,-21524.293,-39884.89,-66173.055,-47087.89,-18893.025
1399566.532163407,-111667.36,-99790.49,-63346.316,-21532.35,-39902.63,-66172.53,-47081.746,-18887.818
1399566.5361634016,-111669.92,-99795.62,-63355.47,-21543.906,-39929.65,-66172.61,-47080.16,-18884.4
1399566.5401633962,-111677.53,-99806.484,-63359.133,-21545.898,-39941.203,-66176.84,-47085.004,-18884.115
1399566.5441633908,-111679.94,-99802.25,-63356.49,-21534.059,-39923.668,-66176.48,-47088.094,-18892.781
1399566.5481633851,-111678.35,-99796.96,-63352.5,-21528.076,-39900.555,-66173.18,-47089.195,-18892.781
1399566.5521633797,-111676.96,-99794.68,-63356.812,-21534.791,-39905.844,-66172.57,-47086.223,-18891.033
1399566.5561633743,-111680.18,-99797.41,-63360.11,-21543.54,-39927.207,-66173.016,-47084.8,-18891.766
1399566.560163369,-111684.734,-99806.6,-63365.195,-21545.736,-39941.57,-66174.6,-47086.348,-18891.766
1399566.5641633635,-111688.6,-99811.89,-63359.906,-21536.297,-39923.746,-66172.69,-47088.22,-18894.246
1399566.5681633581,-111685.75,-99808.92,-63353.027,-21532.227,-39906.94,-66171.8,-47095.582,-18907.756
1399566.5721633527,-111687.79,-99808.19,-63356.527,-21542.441,-39923.504,-66172.445,-47090.293,-18894.084
1399566.576163347,-111685.34,-99807.984,-63362.305,-21551.148,-39947.43,-66176.11,-47087.363,-18881.795
1399566.5801633417,-111683.84,-99811.28,-63362.387,-21547.201,-39949.992,-66176.92,-47090.902,-18892.01
1399566.5841633363,-111686.73,-99809.05,-63356.57,-21535.605,-39917.97,-66173.46,-47093.547,-18894.207
1399566.588163331,-111686.57,-99804.12,-63353.152,-21532.268,-39908.69,-66170.82,-47088.258,-18884.156
1399566.5921633255,-111682.055,-99798.18,-63353.19,-21537.232,-39921.1,-66170.78,-47087.242,-18888.387
1399566.5961633201,-111685.43,-99803.1,-63360.273,-21548.951,-39934.082,-66173.46,-47089.316,-18895.184
1399566.6001633145,-111689.05,-99809.734,-63360.434,-21548.545,-39934.695,-66176.19,-47092.207,-18892.822
1399566.604163309,-111687.38,-99808.31,-63351.402,-21536.256,-39912.883,-66170.29,-47090.254,-18889.648
1399566.6081633037,-111680.87,-99802.375,-63342.816,-21529.217,-39905.844,-66166.266,-47088.746,-18894.328
1399566.6121632983,-111678.1,-99802.05,-63350.996,-21540.324,-39912.07,-66165.85,-47087.77,-18892.09
1399566.616163293,-111681.805,-99808.92,-63361.574,-21553.508,-39947.67,-66168.58,-47086.47,-18882.488
1399566.6201632875,-111686.37,-99817.586,-63365.03,-21552.816,-39950.645,-66170.49,-47088.094,-18883.3
1399566.624163282,-111683.64,-99815.88,-63358.32,-21542.033,-39928.914,-66168.78,-47093.14,-18897.137
1399566.6281632765,-111678.875,-99801.72,-63351.28,-21532.512,-39905.844,-66165.81,-47094.85,-18902.832
1399566.632163271,-111676.44,-99799.08,-63353.027,-21542.441,-39915.082,-66165.94,-47095.094,-18905.965
1399566.6361632657,-111680.914,-99805.71,-63361.574,-21553.916,-39948.934,-66170.05,-47096.316,-18900.555
1399566.6401632603,-111691.695,-99819.5,-63361.695,-21551.678,-39964.273,-66169.234,-47091.88,-18885.174
1399566.6441632549,-111691.05,-99817.75,-63351.562,-21540.365,-39930.992,-66165.0,-47090.7,-18885.254
1399566.6481632495,-111679.65,-99803.43,-63345.094,-21533.367,-39898.844,-66161.54,-47094.24,-18903.973
1399566.652163244,-111674.97,-99799.234,-63354.168,-21543.457,-39918.215,-66161.13,-47090.293,-18900.27
1399566.6561632385,-111683.96,-99810.23,-63367.555,-21554.81,-39945.844,-66162.92,-47086.836,-18883.709
1399566.660163233,-111689.91,-99812.83,-63369.305,-21555.543,-39954.348,-66163.945,-47091.72,-18890.34
1399566.6641632277,-111689.5,-99808.64,-63360.965,-21544.842,-39936.566,-66163.62,-47097.617,-18909.994
1399566.6681632223,-111688.12,-99805.22,-63353.027,-21539.47,-39916.668,-66162.31,-47097.414,-18908.162
1399566.6721632169,-111688.4,-99807.21,-63359.66,-21551.719,-39930.867,-66160.56,-47091.023,-18894.572
1399566.6761632115,-111688.68,-99810.875,-63366.17,-21561.729,-39959.637,-66163.58,-47090.414,-18891.846
1399566.680163206,-111690.35,-99813.88,-63361.9,-21557.049,-39954.875,-66162.4,-47093.67,-18894.695
1399566.6841632004,-111685.47,-99807.336,-63355.105,-21544.76,-39924.113,-66158.94,-47097.168,-18900.838
1399566.688163195,-111682.91,-99799.12,-63351.688,-21541.057,-39901.57,-66155.766,-47093.953,-18899.414
1399566.6921631896,-111687.3,-99801.03,-63359.945,-21553.63,-39925.17,-66156.984,-47089.926,-18897.543
1399566.6961631842,-111694.09,-99802.78,-63371.055,-21565.43,-39954.793,-66160.93,-47086.47,-18888.63
1399566.7001631788,-111698.24,-99805.055,-63374.88,-21562.988,-39952.84,-66162.72,-47092.41,-18894.246
1399566.7041631734,-111693.24,-99810.8,-63365.316,-21551.31,-39930.664,-66160.81,-47094.77,-18899.984
1399566.708163168,-111690.48,-99810.55,-63357.383,-21547.12,-39916.3,-66153.77,-47087.445,-18888.713
1399566.7121631624,-111693.484,-99808.234,-63359.66,-21560.832,-39931.926,-66149.82,-47077.883,-18873.738
1399566.716163157,-111691.41,-99812.34,-63367.758,-21567.709,-39954.875,-66149.54,-47077.312,-18885.254
1399566.7201631516,-111691.734,-99815.07,-63367.96,-21562.379,-39956.098,-66148.32,-47079.305,-18887.207
1399566.7241631462,-111694.91,-99818.41,-63363.895,-21553.428,-39936.566,-66147.14,-47080.85,-18887.41
