timestamp,Fp1,Fp2,F3,Fz,F4,Cz,Pz,Oz
1314651.195271308,-77067.34,-110489.67,-42217.57,-57413.37,-131178.47,-41978.07,-42090.25,-47374.023
1314651.1992713038,-77036.7,-110457.234,-42187.95,-57386.76,-131155.64,-41953.94,-42061.16,-47339.355
1314651.2032712998,-77033.81,-110448.66,-42182.984,-57377.688,-131149.1,-41945.76,-42051.72,-47327.07
1314651.2072712956,-77066.125,-110475.79,-42209.027,-57399.824,-131167.64,-41965.09,-42075.24,-47352.215
1314651.2112712914,-77097.45,-110503.7,-42232.137,-57420.94,-131184.4,-41983.805,-42096.965,-47372.48
1314651.2152712874,-77086.875,-110495.57,-42218.793,-57413.414,-131179.77,-41977.785,-42088.95,-47362.754
1314651.2192712831,-77058.516,-110468.914,-42188.64,-57389.082,-131159.39,-41955.445,-42060.59,-47334.8
1314651.2232712791,-77053.96,-110460.375,-42181.113,-57380.168,-131150.11,-41945.883,-42050.824,-47322.836
1314651.227271275,-77087.08,-110488.98,-42209.35,-57402.1,-131170.3,-41963.785,-42074.953,-47345.625
1314651.231271271,-77110.92,-110508.14,-42231.0,-57422.73,-131192.62,-41985.35,-42100.098,-47370.242
1314651.2352712667,-77096.68,-110494.14,-42214.844,-57413.25,-131184.86,-41976.688,-42089.76,-47353.477
1314651.2392712627,-77067.875,-110463.09,-42182.902,-57386.76,-131164.19,-41954.387,-42061.32,-47321.21
1314651.2432712584,-77061.12,-110456.79,-42172.812,-57377.035,-131157.8,-41948.57,-42057.617,-47321.414
1314651.2472712542,-77093.95,-110486.82,-42201.05,-57399.133,-131173.5,-41969.117,-42084.23,-47346.355
1314651.2512712502,-77124.836,-110511.72,-42226.848,-57422.527,-131190.6,-41987.55,-42105.957,-47366.17
1314651.255271246,-77112.1,-110498.945,-42214.195,-57414.918,-131182.45,-41979.82,-42095.418,-47356.977
1314651.259271242,-77081.055,-110468.55,-42184.285,-57387.207,-131157.92,-41956.586,-42067.75,-47330.73
1314651.2632712377,-77081.914,-110466.68,-42180.42,-57381.473,-131154.62,-41948.367,-42055.707,-47308.31
1314651.2672712337,-77115.93,-110496.95,-42208.375,-57405.56,-131175.7,-41967.0,-42076.5,-47332.684
1314651.2712712295,-77132.65,-110511.805,-42225.223,-57424.48,-131195.84,-41983.195,-42093.387,-47367.27
1314651.2752712255,-77124.02,-110501.95,-42212.605,-57416.18,-131188.0,-41975.26,-42078.777,-47346.64
1314651.2792712213,-77093.47,-110474.29,-42183.797,-57390.3,-131165.08,-41951.66,-42052.652,-47318.523
1314651.283271217,-77090.13,-110467.57,-42178.387,-57381.715,-131153.81,-41944.824,-42046.754,-47306.355
1314651.287271213,-77124.555,-110495.24,-42205.08,-57403.04,-131172.08,-41961.71,-42067.3,-47323.285
1314651.2912712088,-77149.09,-110520.836,-42227.867,-57426.477,-131193.33,-41981.65,-42095.906,-47378.094
1314651.2952712048,-77136.516,-110508.99,-42216.473,-57417.402,-131185.31,-41973.39,-42089.152,-47386.11
1314651.2992712006,-77107.22,-110477.18,-42186.32,-57390.22,-131161.27,-41951.824,-42062.46,-47351.727
1314651.3032711965,-77103.805,-110469.77,-42178.754,-57382.773,-131157.27,-41947.184,-42056.844,-47337.28
1314651.3072711923,-77134.73,-110492.39,-42202.8,-57403.402,-131178.47,-41966.39,-42077.19,-47351.89
1314651.3112711883,-77158.53,-110513.63,-42222.617,-57422.934,-131198.69,-41982.91,-42099.61,-47385.703
1314651.315271184,-77153.12,-110510.22,-42213.22,-57416.465,-131195.11,-41975.586,-42089.844,-47369.55
1314651.3192711798,-77126.914,-110483.93,-42184.773,-57391.32,-131175.66,-41950.44,-42060.914,-47334.96
1314651.3232711758,-77121.46,-110478.766,-42177.53,-57383.832,-131170.33,-41941.69,-42052.652,-47342.41
1314651.3272711716,-77147.79,-110501.75,-42199.504,-57404.055,-131190.56,-41960.574,-42072.43,-47366.133
1314651.3312711676,-77171.875,-110523.52,-42219.645,-57424.6,-131216.8,-41979.047,-42087.484,-47378.46
1314651.3352711634,-77159.63,-110514.53,-42210.492,-57418.742,-131217.2,-41973.758,-42074.504,-47363.73
1314651.3392711594,-77136.6,-110491.984,-42183.594,-57394.492,-131200.03,-41952.434,-42045.33,-47331.504
1314651.3432711551,-77138.63,-110489.586,-42184.33,-57388.797,-131191.48,-41943.645,-42031.414,-47319.215
1314651.3472711511,-77165.77,-110511.97,-42209.434,-57409.668,-131220.06,-41960.816,-42043.66,-47336.426
1314651.351271147,-77196.01,-110533.25,-42232.42,-57428.145,-131233.94,-41978.72,-42058.27,-47354.617
1314651.3552711427,-77185.266,-110517.336,-42220.582,-57416.426,-131222.17,-41970.01,-42039.754,-47337.527
1314651.3592711387,-77156.13,-110488.85,-42191.812,-57392.05,-131197.06,-41947.55,-42008.06,-47305.34
1314651.3632711344,-77155.36,-110484.22,-42186.363,-57386.76,-131191.25,-41942.02,-42003.418,-47305.95
1314651.3672711304,-77187.38,-110512.336,-42213.094,-57409.953,-131212.0,-41962.934,-42030.19,-47337.484
1314651.3712711262,-77214.805,-110536.95,-42236.777,-57430.707,-131229.42,-41979.82,-42052.41,-47364.055
1314651.3752711222,-77204.63,-110525.92,-42223.96,-57421.55,-131221.36,-41970.01,-42040.977,-47357.06
1314651.379271118,-77171.71,-110498.25,-42198.12,-57397.95,-131200.73,-41945.64,-42008.18,-47321.13
1314651.383271114,-77166.79,-110492.92,-42189.82,-57392.742,-131204.03,-41940.43,-41999.555,-47311.363
1314651.3872711097,-77195.72,-110513.59,-42215.21,-57411.258,-131215.38,-41961.062,-42028.81,-47350.223
1314651.3912711055,-77222.82,-110534.63,-42237.508,-57429.895,-131229.3,-41980.266,-42052.207,-47383.71
1314651.3952711015,-77211.47,-110522.1,-42222.13,-57420.492,-131230.06,-41969.89,-42038.332,-47369.387
1314651.3992710973,-77185.18,-110489.055,-42196.82,-57395.793,-131202.39,-41946.535,-42011.68,-47336.062
1314651.4032710933,-77179.484,-110480.31,-42190.145,-57388.348,-131196.94,-41940.227,-42003.62,-47322.348
1314651.407271089,-77207.08,-110504.16,-42213.785,-57407.51,-131213.06,-41958.05,-42023.887,-47329.918
1314651.411271085,-77231.0,-110521.9,-42234.703,-57425.906,-131225.88,-41976.81,-42044.92,-47344.117
1314651.4152710808,-77211.71,-110506.06,-42222.82,-57415.203,-131218.06,-41969.77,-42035.402,-47338.055
1314651.4192710768,-77180.79,-110476.69,-42193.156,-57388.797,-131196.38,-41945.152,-42008.504,-47311.363
1314651.4232710726,-77173.055,-110463.83,-42185.1,-57381.473,-131182.9,-41939.453,-42009.523,-47338.016
1314651.4272710683,-77192.836,-110478.36,-42209.11,-57401.367,-131200.23,-41959.676,-42038.37,-47390.992
1314651.4312710643,-77218.06,-110498.91,-42229.332,-57421.227,-131217.61,-41975.016,-42055.625,-47393.84
1314651.43527106,-77194.055,-110482.55,-42215.375,-57411.176,-131207.61,-41967.082,-42048.18,-47375.773
1314651.439271056,-77164.39,-110451.99,-42183.72,-57386.598,-131182.78,-41946.492,-42028.85,-47349.53
1314651.4432710519,-77159.51,-110440.96,-42176.72,-57379.19,-131175.38,-41941.734,-42027.223,-47352.297
1314651.4472710479,-77171.39,-110450.69,-42198.773,-57397.992,-131192.52,-41963.582,-42056.52,-47382.49
1314651.4512710436,-77187.664,-110469.93,-42219.727,-57418.99,-131216.64,-41983.24,-42080.363,-47411.094
1314651.4552710396,-77170.414,-110452.44,-42203.453,-57407.715,-131207.84,-41973.145,-42068.523,-47399.7
1314651.4592710354,-77133.14,-110414.39,-42171.55,-57379.19,-131182.3,-41951.133,-42045.25,-47371.38
1314651.4632710312,-77122.805,-110400.48,-42168.863,-57372.438,-131172.48,-41944.824,-42042.48,-47367.637
1314651.4672710272,-77147.46,-110419.15,-42192.914,-57391.6,-131187.22,-41965.375,-42069.742,-47399.58
1314651.471271023,-77146.94,-110422.0,-42204.387,-57405.56,-131200.77,-41987.793,-42097.574,-47428.957
1314651.475271019,-77110.15,-110390.14,-42184.164,-57392.824,-131187.78,-41979.332,-42088.22,-47413.37
1314651.4792710147,-77069.055,-110352.95,-42151.938,-57365.887,-131163.3,-41954.1,-42058.27,-47370.445
1314651.4832710107,-77056.64,-110335.164,-42145.145,-57357.18,-131156.5,-41950.887,-42056.56,-47362.918
1314651.4872710065,-77081.14,-110351.12,-42169.56,-57376.223,-131175.62,-41972.74,-42086.344,-47406.58
1314651.4912710025,-77087.445,-110356.41,-42184.652,-57391.36,-131188.31,-41993.367,-42114.383,-47458.742
1314651.4952709982,-77064.25,-110333.54,-42166.79,-57380.25,-131176.84,-41987.145,-42103.64,-47437.34
1314651.499270994,-77031.74,-110302.695,-42135.582,-57353.19,-131158.45,-41962.73,-42073.445,-47386.355
1314651.50327099,-77027.06,-110295.74,-42130.86,-57345.625,-131155.23,-41955.934,-42071.25,-47385.824
1314651.5072709857,-77045.984,-110305.016,-42156.74,-57365.887,-131165.2,-41976.605,-42102.54,-47428.67
1314651.5112709817,-77059.57,-110317.8,-42175.62,-57382.895,-131178.47,-41996.707,-42127.81,-47457.44
1314651.5152709775,-77057.5,-110314.3,-42164.715,-57373.7,-131174.69,-41987.875,-42115.723,-47439.94
1314651.5192709735,-77029.91,-110281.21,-42135.742,-57348.758,-131154.55,-41965.535,-42087.117,-47390.992
1314651.5232709693,-77012.945,-110259.41,-42131.797,-57341.39,-131143.19,-41961.63,-42085.207,-47385.664
1314651.5272709653,-77046.35,-110287.97,-42161.62,-57365.48,-131163.17,-41982.75,-42115.316,-47430.91
1314651.531270961,-77075.766,-110314.09,-42182.09,-57386.56,-131182.42,-42000.164,-42137.125,-47458.336
1314651.5352709568,-77064.984,-110302.58,-42167.36,-57377.08,-131176.92,-41991.336,-42126.508,-47443.81
1314651.5392709528,-77023.44,-110268.31,-42137.004,-57349.082,-131156.45,-41968.344,-42102.62,-47415.45
1314651.5432709486,-77019.62,-110264.77,-42133.016,-57341.555,-131152.88,-41964.438,-42102.05,-47411.094
1314651.5472709446,-77054.28,-110290.61,-42161.746,-57363.203,-131171.72,-41986.94,-42129.477,-47436.08
1314651.5512709403,-77074.055,-110304.81,-42181.64,-57380.82,-131187.02,-42006.594,-42152.75,-47473.31
1314651.5552709363,-77055.26,-110285.41,-42165.445,-57368.41,-131170.86,-41995.523,-42139.242,-47453.86
1314651.559270932,-77028.16,-110255.3,-42134.645,-57342.41,-131140.7,-41969.523,-42109.54,-47418.05
1314651.563270928,-77025.11,-110250.49,-42130.332,-57336.387,-131138.8,-41965.21,-42108.645,-47409.344
1314651.5672709239,-77056.234,-110276.86,-42155.68,-57359.5,-131167.97,-41987.754,-42138.59,-47437.785
1314651.5712709196,-77078.53,-110296.31,-42176.15,-57378.258,-131187.06,-42005.21,-42160.605,-47473.188
1314651.5752709156,-77066.29,-110283.41,-42159.832,-57368.652,-131177.2,-41993.98,-42143.23,-47448.773
1314651.5792709114,-77034.95,-110247.03,-42129.926,-57341.637,-131148.56,-41968.875,-42110.68,-47399.742
1314651.5832709074,-77027.1,-110229.91,-42126.1,-57334.84,-131136.64,-41966.473,-42107.707,-47400.676
1314651.5872709032,-77054.08,-110252.16,-42152.996,-57358.24,-131158.4,-41988.688,-42134.93,-47436.24
1314651.5912708992,-77083.3,-110280.6,-42174.97,-57377.81,-131179.69,-42002.2,-42152.71,-47450.848
1314651.595270895,-77081.055,-110275.68,-42162.965,-57368.45,-131173.34,-41989.098,-42134.277,-47426.637
1314651.599270891,-77054.41,-110249.27,-42136.07,-57343.67,-131149.5,-41966.434,-42108.44,-47397.098
1314651.6032708867,-77046.8,-110237.96,-42131.55,-57335.695,-131144.05,-41963.867,-42111.043,-47397.016
1314651.6072708827,-77081.87,-110270.51,-42159.668,-57360.07,-131169.44,-41985.637,-42139.85,-47444.258
1314651.6112708785,-77108.32,-110296.8,-42178.426,-57380.656,-131188.28,-42002.24,-42157.023,-47467.0
1314651.6152708742,-77089.73,-110278.89,-42159.426,-57368.246,-131180.27,-41992.758,-42143.23,-47442.305
1314651.6192708702,-77063.56,-110248.05,-42134.93,-57342.773,-131156.9,-41971.19,-42120.81,-47421.387
1314651.623270866,-77073.53,-110249.44,-42136.68,-57340.66,-131149.78,-41967.203,-42122.316,-47422.16
1314651.627270862,-77103.31,-110269.734,-42161.418,-57362.51,-131167.4,-41987.55,-42146.242,-47444.094
1314651.6312708578,-77126.18,-110291.305,-42180.664,-57382.855,-131187.9,-42007.324,-42168.457,-47476.605
1314651.6352708538,-77113.81,-110278.08,-42167.36,-57371.176,-131178.39,-41996.91,-42155.19,-47457.97
1314651.6392708495,-77084.8,-110245.734,-42139.69,-57343.547,-131157.77,-41973.105,-42127.93,-47422.773
1314651.6432708455,-77083.62,-110242.76,-42137.82,-57340.457,-131156.98,-41971.316,-42128.785,-47428.266
1314651.6472708413,-77114.51,-110267.58,-42164.88,-57364.87,-131178.27,-41992.555,-42154.094,-47456.055
1314651.651270837,-77135.83,-110288.05,-42181.316,-57383.344,-131192.47,-42007.773,-42171.754,-47475.953
1314651.655270833,-77124.11,-110276.78,-42166.79,-57371.504,-131179.89,-41995.32,-42155.07,-47455.28
1314651.6592708288,-77103.48,-110255.21,-42141.93,-57346.113,-131157.92,-41970.5,-42122.64,-47413.496
1314651.6632708248,-77101.484,-110246.95,-42136.23,-57339.113,-131154.75,-41966.434,-42117.72,-47406.25
1314651.6672708206,-77121.664,-110258.71,-42159.06,-57359.05,-131169.89,-41989.664,-42145.062,-47438.723
1314651.6712708166,-77135.87,-110274.58,-42174.195,-57375.855,-131182.14,-42007.12,-42163.656,-47456.137
1314651.6752708124,-77121.55,-110263.836,-42159.71,-57364.42,-131171.92,-41994.1,-42145.957,-47429.973
1314651.6792708084,-77098.06,-110239.914,-42132.45,-57340.984,-131154.8,-41967.938,-42116.58,-47401.734
1314651.6832708041,-77102.17,-110241.78,-42133.426,-57339.684,-131157.88,-41963.016,-42116.54,-47412.598
1314651.6872708,-77134.766,-110262.13,-42164.43,-57362.754,-131176.52,-41982.75,-42142.09,-47436.934
1314651.691270796,-77159.18,-110276.94,-42185.06,-57380.09,-131189.53,-42001.18,-42163.902,-47455.49
1314651.6952707916,-77138.47,-110264.81,-42168.01,-57365.44,-131176.23,-41991.414,-42156.863,-47454.266
1314651.6992707876,-77109.54,-110236.74,-42139.69,-57341.555,-131155.11,-41968.1,-42131.105,-47429.12
1314651.7032707834,-77116.74,-110236.49,-42141.805,-57339.844,-131149.34,-41964.76,-42130.168,-47441.652
1314651.7072707794,-77153.73,-110269.21,-42171.348,-57364.465,-131173.22,-41983.6,-42151.367,-47458.945
1314651.7112707752,-77168.055,-110280.03,-42187.867,-57381.633,-131183.84,-41997.926,-42163.94,-47462.363
1314651.7152707712,-77148.89,-110261.56,-42169.312,-57368.41,-131175.1,-41987.55,-42149.293,-47455.0
1314651.719270767,-77119.875,-110234.375,-42142.215,-57341.434,-131155.08,-41964.97,-42126.14,-47427.004
1314651.7232707627,-77131.8,-110242.31,-42144.043,-57338.098,-131153.4,-41961.832,-42125.0,-47423.79
1314651.7272707587,-77157.92,-110264.734,-42169.19,-57360.68,-131172.05,-41985.35,-42154.34,-47455.49
1314651.7312707545,-77173.664,-110283.98,-42187.746,-57380.332,-131187.22,-42003.664,-42174.03,-47469.24
1314651.7352707505,-77164.72,-110274.74,-42174.805,-57371.055,-131176.97,-41991.414,-42157.43,-47445.312
1314651.7392707462,-77145.47,-110251.71,-42148.48,-57345.91,-131154.47,-41965.496,-42126.465,-47412.68
1314651.7432707422,-77135.91,-110243.164,-42141.195,-57339.52,-131145.06,-41963.34,-42127.848,-47424.848
1314651.747270738,-77158.04,-110258.47,-42165.895,-57361.33,-131158.33,-41986.29,-42152.184,-47454.227
1314651.751270734,-77185.305,-110277.914,-42187.785,-57379.03,-131172.94,-42001.18,-42164.39,-47460.574
1314651.7552707298,-77170.414,-110263.23,-42170.94,-57366.418,-131163.73,-41987.957,-42142.945,-47432.945
1314651.7592707255,-77140.55,-110234.87,-42142.496,-57341.39,-131137.05,-41963.38,-42113.324,-47396.08
1314651.7632707215,-77131.67,-110228.27,-42138.062,-57336.305,-131127.97,-41962.16,-42114.91,-47402.508
1314651.7672707173,-77166.79,-110260.87,-42163.656,-57358.48,-131160.73,-41980.594,-42134.402,-47420.656
1314651.7712707133,-77192.43,-110287.56,-42182.008,-57377.035,-131183.97,-41996.297,-42149.496,-47428.266
1314651.775270709,-77171.47,-110271.57,-42163.98,-57365.234,-131172.33,-41985.637,-42138.31,-47416.75
1314651.779270705,-77144.45,-110238.734,-42136.11,-57340.54,-131147.42,-41962.363,-42114.22,-47401.246
1314651.7832707008,-77154.83,-110238.0,-42138.266,-57340.375,-131142.55,-41960.734,-42116.54,-47408.53
1314651.7872706968,-77191.04,-110272.38,-42167.93,-57364.137,-131162.36,-41981.57,-42145.914,-47444.664
1314651.7912706926,-77210.33,-110290.9,-42186.77,-57381.594,-131177.53,-41997.316,-42163.902,-47469.117
1314651.7952706884,-77196.336,-110272.18,-42171.59,-57367.84,-131160.16,-41983.562,-42145.1,-47438.477
1314651.7992706844,-77170.17,-110242.72,-42145.67,-57341.84,-131132.4,-41959.516,-42117.35,-47402.67
1314651.8032706801,-77166.47,-110235.35,-42143.23,-57337.77,-131125.38,-41956.504,-42121.46,-47414.227
1314651.8072706761,-77200.195,-110264.53,-42171.957,-57362.1,-131146.56,-41978.516,-42149.414,-47444.01
1314651.811270672,-77225.016,-110290.04,-42191.285,-57382.367,-131167.56,-41995.484,-42166.832,-47461.59
1314651.815270668,-77206.87,-110276.33,-42172.49,-57371.34,-131158.33,-41983.195,-42147.137,-47443.32
1314651.8192706637,-77181.27,-110251.305,-42141.805,-57345.055,-131132.08,-41957.03,-42111.125,-47397.34
1314651.8232706597,-77189.82,-110254.52,-42142.457,-57343.06,-131127.89,-41953.777,-42107.3,-47394.98
1314651.8272706554,-77210.77,-110270.875,-42169.273,-57366.008,-131145.47,-41976.48,-42136.72,-47432.902
1314651.8312706512,-77227.664,-110291.836,-42188.07,-57383.26,-131163.02,-41991.254,-42154.703,-47458.742
1314651.8352706472,-77222.17,-110286.75,-42173.016,-57373.17,-131156.66,-41975.465,-42135.297,-47442.02
1314651.839270643,-77199.18,-110264.445,-42145.59,-57348.918,-131139.28,-41950.562,-42107.34,-47406.496
1314651.843270639,-77201.91,-110264.164,-42143.434,-57345.5,-131137.98,-41949.707,-42112.67,-47409.547
1314651.8472706347,-77226.93,-110284.14,-42170.086,-57366.7,-131156.98,-41976.117,-42145.793,-47444.703
1314651.8512706307,-77247.4,-110303.914,-42190.27,-57385.867,-131177.53,-41993.695,-42167.24,-47463.625
1314651.8552706265,-77238.85,-110296.06,-42176.473,-57374.96,-131171.55,-41982.06,-42155.19,-47448.773
1314651.8592706225,-77211.71,-110269.125,-42148.926,-57349.773,-131152.42,-41960.53,-42131.39,-47421.55
1314651.8632706183,-77213.34,-110267.58,-42151.367,-57348.51,-131149.78,-41959.434,-42135.99,-47429.12
1314651.867270614,-77243.414,-110296.39,-42177.33,-57373.332,-131173.5,-41979.492,-42162.56,-47466.84
1314651.87127061,-77262.21,-110314.78,-42193.156,-57387.74,-131189.5,-41993.207,-42178.387,-47476.36
1314651.8752706058,-77239.016,-110290.61,-42174.316,-57369.59,-131169.31,-41981.082,-42163.574,-47464.152
1314651.8792706018,-77205.57,-110258.914,-42142.54,-57342.695,-131144.81,-41958.7,-42137.98,-47431.805
1314651.8832705976,-77215.01,-110266.445,-42144.613,-57341.516,-131144.66,-41958.457,-42134.36,-47416.26
1314651.8872705936,-77255.86,-110303.914,-42175.293,-57367.72,-131172.73,-41981.445,-42157.84,-47450.24
1314651.8912705893,-77270.266,-110318.04,-42190.066,-57383.63,-131185.31,-41999.31,-42175.58,-47472.332
1314651.8952705853,-77247.27,-110296.39,-42172.934,-57368.652,-131167.61,-41988.973,-42155.355,-47447.918
1314651.899270581,-77225.1,-110271.85,-42146.527,-57345.46,-131148.97,-41963.582,-42121.22,-47408.043
1314651.9032705768,-77233.97,-110276.086,-42151.855,-57344.523,-131150.31,-41960.086,-42116.293,-47405.805
1314651.9072705728,-77265.625,-110298.75,-42181.277,-57368.53,-131172.58,-41979.168,-42141.44,-47436.89
1314651.9112705686,-77281.58,-110314.01,-42196.535,-57385.336,-131188.2,-41993.695,-42160.44,-47454.633
1314651.9152705646,-77262.86,-110300.22,-42176.395,-57370.812,-131176.84,-41980.47,-42146.85,-47446.535
1314651.9192705604,-77237.63,-110273.97,-42149.902,-57346.355,-131154.62,-41958.17,-42124.188,-47438.355
1314651.9232705564,-77244.914,-110274.74,-42154.91,-57345.543,-131151.58,-41958.62,-42125.0,-47439.332
1314651.9272705521,-77281.375,-110303.02,-42184.734,-57369.59,-131169.89,-41980.31,-42150.15,-47459.027
1314651.9312705481,-77293.83,-110316.734,-42200.36,-57385.46,-131185.47,-41996.746,-42167.4,-47475.344
1314651.935270544,-77272.42,-110298.34,-42180.867,-57372.03,-131169.92,-41985.35,-42154.867,-47461.426
1314651.9392705397,-77254.195,-110277.34,-42156.902,-57349.61,-131150.19,-41963.543,-42130.047,-47434.164
1314651.9432705357,-77262.86,-110280.93,-42158.367,-57349.49,-131153.36,-41963.297,-42129.68,-47437.785
1314651.9472705314,-77286.336,-110299.24,-42180.707,-57370.65,-131173.8,-41984.293,-42158.61,-47464.4
1314651.9512705274,-77309.41,-110320.11,-42196.332,-57387.086,-131189.33,-41998.414,-42178.1,-47487.793
1314651.9552705232,-77291.71,-110305.18,-42178.223,-57373.535,-131174.28,-41985.84,-42163.414,-47470.46
1314651.9592705192,-77267.664,-110281.05,-42153.035,-57350.02,-131152.62,-41966.188,-42139.977,-47438.926
1314651.963270515,-77272.914,-110279.26,-42156.78,-57349.164,-131150.06,-41967.855,-42143.11,-47439.047
1314651.967270511,-77295.45,-110298.75,-42182.78,-57368.207,-131169.6,-41991.984,-42169.477,-47470.215
1314651.9712705067,-77316.41,-110318.484,-42198.57,-57384.605,-131184.25,-42006.797,-42184.9,-47499.84
1314651.9752705025,-77300.3,-110306.234,-42180.094,-57370.77,-131171.75,-41992.72,-42165.082,-47475.914
1314651.9792704985,-77276.2,-110285.52,-42153.484,-57348.188,-131152.72,-41971.07,-42138.227,-47444.215
1314651.9832704943,-77283.2,-110283.49,-42155.844,-57347.293,-131155.84,-41968.914,-42134.402,-47433.188
1314651.9872704903,-77307.984,-110303.76,-42181.844,-57369.266,-131171.06,-41990.152,-42156.94,-47457.195
1314651.991270486,-77321.9,-110318.24,-42198.324,-57383.508,-131179.08,-42006.145,-42171.184,-47483.48
1314651.995270482,-77307.62,-110302.58,-42178.996,-57367.312,-131168.88,-41990.64,-42149.984,-47455.12
1314651.9992704778,-77284.016,-110277.19,-42153.08,-57343.47,-131147.27,-41966.51,-42122.152,-47410.688
1314652.0032704738,-77293.336,-110281.414,-42158.0,-57346.477,-131147.75,-41966.105,-42125.53,-47422.242
1314652.0072704696,-77324.1,-110308.31,-42185.914,-57372.07,-131171.6,-41986.94,-42155.805,-47469.566
1314652.0112704653,-77339.36,-110323.125,-42200.32,-57387.37,-131186.97,-42002.727,-42171.47,-47484.215
1314652.0152704613,-77311.16,-110301.6,-42175.984,-57371.79,-131176.19,-41989.383,-42158.285,-47474.652
1314652.019270457,-77290.85,-110286.55,-42149.254,-57349.0,-131162.81,-41965.58,-42129.8,-47432.617
1314652.023270453,-77303.96,-110294.48,-42154.543,-57349.12,-131162.61,-41965.375,-42132.242,-47432.09
1314652.0272704489,-77338.586,-110317.95,-42186.973,-57372.926,-131180.67,-41989.34,-42161.99,-47474.12
1314652.0312704449,-77351.85,-110324.18,-42200.766,-57385.742,-131192.14,-42003.62,-42179.04,-47484.09
1314652.0352704406,-77327.07,-110302.29,-42178.305,-57369.63,-131177.94,-41990.113,-42159.06,-47453.656
1314652.0392704366,-77300.74,-110278.65,-42149.82,-57346.844,-131155.81,-41968.75,-42132.242,-47428.875
1314652.0432704324,-77309.0,-110287.234,-42154.01,-57348.145,-131157.97,-41969.363,-42134.48,-47438.64
1314652.0472704284,-77347.29,-110320.93,-42186.08,-57373.742,-131181.0,-41989.46,-42160.402,-47469.32
1314652.0512704242,-77362.266,-110325.81,-42203.004,-57388.023,-131192.19,-42003.95,-42174.316,-47487.227
1314652.05527042,-77328.94,-110295.29,-42178.59,-57371.094,-131177.5,-41990.52,-42152.184,-47458.375
1314652.059270416,-77305.914,-110273.195,-42150.31,-57346.4,-131158.58,-41964.273,-42119.793,-47422.04
1314652.0632704117,-77316.9,-110285.2,-42155.6,-57347.13,-131155.36,-41962.65,-42120.605,-47423.26
1314652.0672704077,-77349.41,-110312.26,-42185.914,-57372.723,-131175.62,-41986.125,-42150.27,-47476.24
1314652.0712704035,-77366.414,-110320.195,-42202.92,-57386.395,-131191.86,-42001.996,-42163.25,-47495.527
1314652.0752703995,-77348.15,-110302.17,-42182.902,-57371.094,-131184.2,-41989.42,-42140.992,-47456.137
1314652.0792703952,-77316.734,-110275.72,-42154.95,-57347.656,-131169.48,-41966.715,-42111.816,-47412.926
1314652.0832703912,-77329.15,-110283.05,-42163.492,-57349.53,-131177.2,-41965.457,-42114.137,-47440.473
1314652.087270387,-77369.14,-110314.58,-42196.535,-57373.535,-131198.4,-41986.53,-42135.254,-47471.805
1314652.0912703827,-77377.2,-110321.49,-42207.926,-57386.598,-131210.81,-42001.383,-42144.53,-47475.02
1314652.0952703787,-77354.29,-110299.52,-42184.49,-57370.117,-131200.33,-41988.566,-42125.49,-47464.97
1314652.0992703745,-77339.07,-110279.016,-42163.086,-57348.066,-131177.1,-41964.97,-42095.62,-47423.055
1314652.1032703705,-77337.484,-110274.58,-42164.188,-57347.656,-131166.67,-41966.715,-42099.938,-47425.496
1314652.1072703663,-77351.04,-110287.11,-42181.684,-57367.8,-131180.39,-41990.848,-42133.016,-47484.09
1314652.1112703623,-77376.75,-110307.984,-42198.855,-57384.523,-131195.56,-42003.418,-42148.97,-47512.168
1314652.115270358,-77369.875,-110302.01,-42182.293,-57371.625,-131192.75,-41987.184,-42128.297,-47482.26
1314652.119270354,-77351.73,-110277.23,-42161.664,-57350.26,-131171.72,-41963.95,-42098.633,-47439.656
1314652.1232703498,-77349.33,-110269.53,-42165.69,-57349.773,-131161.83,-41965.78,-42101.562,-47454.062
1314652.1272703456,-77377.766,-110294.48,-42193.277,-57372.887,-131180.22,-41990.234,-42132.57,-47502.523
1314652.1312703416,-77392.83,-110308.516,-42204.305,-57386.598,-131192.8,-42004.07,-42146.363,-47506.145
1314652.1352703373,-77376.55,-110297.125,-42183.066,-57370.566,-131184.73,-41987.062,-42123.496,-47476.035
1314652.1392703333,-77353.27,-110274.74,-42157.555,-57346.477,-131163.1,-41963.055,-42093.75,-47442.383
1314652.143270329,-77362.555,-110272.83,-42165.61,-57347.656,-131162.03,-41963.746,-42095.703,-47442.586
1314652.147270325,-77394.695,-110299.69,-42194.95,-57371.176,-131183.97,-41986.33,-42123.82,-47463.137
1314652.1512703209,-77405.36,-110313.68,-42205.77,-57383.914,-131197.03,-42001.223,-42139.566,-47485.312
1314652.1552703169,-77388.19,-110300.17,-42186.24,-57368.816,-131184.81,-41986.86,-42124.43,-47483.36
1314652.1592703126,-77366.91,-110278.445,-42162.723,-57346.355,-131164.64,-41965.457,-42097.21,-47448.61
1314652.1632703084,-77369.71,-110282.68,-42165.73,-57347.78,-131175.42,-41963.867,-42091.15,-47432.375
1314652.1672703044,-77408.53,-110315.72,-42199.79,-57373.414,-131195.77,-41984.336,-42119.344,-47482.75
1314652.1712703002,-77431.12,-110330.08,-42217.855,-57388.105,-131206.02,-41996.83,-42136.11,-47506.51
1314652.1752702962,-77403.89,-110302.01,-42195.883,-57370.688,-131190.44,-41981.57,-42117.434,-47473.633
1314652.179270292,-77372.48,-110275.35,-42166.992,-57346.438,-131173.19,-41958.375,-42093.387,-47450.035
1314652.183270288,-77387.66,-110291.55,-42176.96,-57352.703,-131181.28,-41961.14,-42101.117,-47463.83
1314652.1872702837,-77431.56,-110329.875,-42210.855,-57380.21,-131209.11,-41984.99,-42131.43,-47491.902
1314652.1912702797,-77446.58,-110339.97,-42225.71,-57391.44,-131213.39,-41998.78,-42148.926,-47504.07
1314652.1952702755,-77423.46,-110315.84,-42204.145,-57374.555,-131191.12,-41985.477,-42133.06,-47480.348
1314652.1992702712,-77396.28,-110289.68,-42177.9,-57349.53,-131165.4,-41964.805,-42112.918,-47453.535
1314652.2032702672,-77396.2,-110287.97,-42178.184,-57348.39,-131166.19,-41969.363,-42122.07,-47465.457
1314652.207270263,-77419.07,-110307.78,-42202.516,-57372.113,-131191.17,-41991.66,-42147.91,-47489.055
1314652.211270259,-77437.79,-110321.58,-42216.473,-57386.965,-131204.23,-42002.89,-42156.535,-47494.67
1314652.2152702548,-77423.71,-110306.73,-42198.324,-57371.22,-131189.66,-41985.8,-42133.26,-47467.53
1314652.2192702508,-77398.03,-110285.28,-42173.707,-57348.473,-131174.28,-41964.273,-42110.434,-47444.418
1314652.2232702465,-77403.52,-110281.336,-42178.754,-57348.35,-131172.53,-41965.82,-42118.45,-47455.12
1314652.2272702425,-77438.11,-110302.49,-42209.23,-57370.363,-131187.58,-41987.67,-42147.258,-47485.637
1314652.2312702383,-77456.71,-110324.1,-42223.39,-57385.215,-131195.97,-41999.715,-42159.953,-47498.74
1314652.235270234,-77428.34,-110303.305,-42198.977,-57368.53,-131178.55,-41983.277,-42141.4,-47479.82
1314652.23927023,-77405.234,-110280.52,-42173.992,-57346.03,-131160.53,-41961.387,-42120.363,-47462.402
1314652.2432702258,-77416.34,-110286.95,-42180.83,-57348.188,-131165.58,-41964.56,-42128.46,-47464.844
1314652.2472702218,-77448.65,-110315.11,-42208.62,-57372.07,-131183.36,-41987.633,-42158.45,-47500.082
1314652.2512702176,-77463.55,-110330.125,-42223.96,-57385.54,-131195.52,-41999.797,-42169.027,-47510.742
1314652.2552702136,-77439.54,-110310.67,-42202.312,-57366.945,-131184.25,-41983.074,-42149.008,-47484.863
1314652.2592702094,-77412.68,-110279.625,-42175.17,-57343.793,-131164.8,-41963.258,-42131.188,-47464.887
1314652.2632702054,-77422.04,-110289.59,-42182.375,-57346.965,-131167.0,-41965.17,-42139.73,-47475.426
1314652.2672702011,-77458.58,-110321.01,-42214.152,-57372.805,-131192.95,-41985.15,-42164.188,-47498.74
1314652.271270197,-77473.39,-110330.49,-42227.703,-57385.95,-131204.47,-41996.176,-42174.93,-47512.086
1314652.275270193,-77447.15,-110306.97,-42204.348,-57367.395,-131188.97,-41982.87,-42156.414,-47488.812
1314652.2792701887,-77424.12,-110287.64,-42177.33,-57343.305,-131169.48,-41962.363,-42134.684,-47462.566
1314652.2832701846,-77435.47,-110291.914,-42182.902,-57347.414,-131167.77,-41966.188,-42146.445,-47482.465
1314652.2872701804,-77470.87,-110310.96,-42215.414,-57371.992,-131186.81,-41989.91,-42176.96,-47514.65
1314652.2912701764,-77482.18,-110318.85,-42228.273,-57382.45,-131197.06,-42001.71,-42187.785,-47523.684
1314652.2952701722,-77456.46,-110297.37,-42204.227,-57364.586,-131184.53,-41985.637,-42163.332,-47483.36
1314652.2992701682,-77430.586,-110266.28,-42174.97,-57339.234,-131162.81,-41963.992,-42138.957,-47457.36
1314652.303270164,-77434.164,-110268.64,-42179.28,-57342.285,-131165.38,-41967.246,-42147.055,-47462.934
1314652.3072701597,-77473.76,-110307.26,-42211.875,-57371.79,-131194.22,-41989.586,-42176.23,-47501.59
1314652.3112701557,-77499.39,-110330.77,-42226.97,-57387.37,-131206.06,-41998.047,-42186.65,-47513.387
1314652.3152701515,-77469.12,-110298.79,-42204.43,-57366.21,-131184.98,-41980.43,-42161.785,-47471.965
1314652.3192701475,-77437.586,-110267.3,-42177.29,-57339.723,-131166.52,-41957.645,-42136.19,-47442.914
1314652.3232701432,-77448.24,-110275.88,-42184.9,-57344.934,-131177.81,-41963.176,-42143.883,-47455.324
1314652.3272701392,-77486.45,-110310.02,-42214.438,-57370.527,-131207.23,-41986.777,-42171.43,-47486.9
1314652.331270135,-77500.57,-110324.99,-42225.914,-57383.586,-131215.22,-41996.707,-42180.137,-47497.438
1314652.335270131,-77470.54,-110298.34,-42201.66,-57365.805,-131196.05,-41980.836,-42159.426,-47472.414
1314652.3392701268,-77448.695,-110274.83,-42180.094,-57343.344,-131175.83,-41960.53,-42137.695,-47441.406
1314652.3432701225,-77467.61,-110288.66,-42191.61,-57349.406,-131179.36,-41964.56,-42145.426,-47451.17
1314652.3472701185,-77499.19,-110318.08,-42220.746,-57374.676,-131202.52,-41987.145,-42173.137,-47482.992
1314652.3512701143,-77508.625,-110329.43,-42230.266,-57386.926,-131215.95,-41996.785,-42185.1,-47501.875
1314652.3552701103,-77488.24,-110309.01,-42209.23,-57367.188,-131197.55,-41978.477,-42163.414,-47476.484
1314652.359270106,-77471.36,-110287.234,-42189.332,-57344.24,-131175.25,-41958.09,-42142.05,-47458.66
1314652.363270102,-77484.375,-110295.21,-42198.367,-57348.715,-131180.1,-41965.293,-42153.973,-47477.176
1314652.3672700978,-77514.484,-110321.91,-42228.64,-57373.496,-131201.75,-41990.52,-42185.71,-47509.074
1314652.3712700938,-77530.93,-110333.984,-42243.082,-57385.336,-131209.89,-42000.53,-42193.645,-47516.156
1314652.3752700896,-77504.97,-110309.82,-42220.83,-57365.766,-131192.27,-41983.4,-42169.15,-47493.246
1314652.3792700854,-77480.19,-110287.234,-42195.395,-57343.02,-131169.92,-41960.816,-42139.773,-47450.645
1314652.3832700814,-77496.83,-110300.375,-42205.08,-57348.918,-131173.55,-41964.684,-42148.805,-47458.863
1314652.3872700771,-77532.88,-110328.62,-42237.71,-57373.414,-131192.42,-41989.383,-42184.9,-47508.75
1314652.3912700731,-77539.06,-110331.51,-42245.65,-57383.547,-131209.39,-42000.938,-42196.047,-47517.336
1314652.395270069,-77519.734,-110312.99,-42223.39,-57366.945,-131194.22,-41985.516,-42174.195,-47490.48
1314652.399270065,-77499.35,-110291.914,-42196.777,-57343.63,-131173.95,-41963.543,-42148.195,-47463.094
1314652.4032700607,-77509.73,-110298.22,-42204.957,-57348.023,-131178.34,-41968.02,-42153.2,-47465.008
1314652.4072700567,-77538.54,-110321.945,-42235.15,-57372.723,-131201.83,-41990.152,-42179.402,-47489.87
1314652.4112700524,-77549.89,-110332.12,-42247.52,-57384.277,-131211.52,-42000.164,-42187.176,-47491.824
1314652.4152700482,-77530.07,-110312.914,-42227.664,-57366.457,-131196.45,-41982.383,-42167.156,-47469.16
1314652.4192700442,-77512.58,-110299.85,-42205.08,-57346.19,-131180.39,-41963.707,-42150.35,-47457.113
1314652.42327004,-77515.83,-110300.984,-42210.613,-57348.88,-131179.73,-41970.785,-42163.535,-47475.586
1314652.427270036,-77544.03,-110321.62,-42238.895,-57371.83,-131198.48,-41993.57,-42190.836,-47507.285
1314652.4312700317,-77567.75,-110343.875,-42251.59,-57385.133,-131210.5,-42002.645,-42197.633,-47506.594
1314652.4352700277,-77540.445,-110322.02,-42226.117,-57366.293,-131195.03,-41985.637,-42180.543,-47491.293
1314652.4392700235,-77507.9,-110294.88,-42198.65,-57342.652,-131172.86,-41964.97,-42155.52,-47452.56
1314652.4432700195,-77524.78,-110305.42,-42211.71,-57348.39,-131175.38,-41969.77,-42160.77,-47462.73
1314652.4472700153,-77565.88,-110335.53,-42245.242,-57374.96,-131195.77,-41990.195,-42186.523,-47507.734
1314652.451270011,-77573.0,-110340.09,-42254.926,-57385.094,-131200.84,-41999.51,-42195.07,-47522.016
1314652.455270007,-77540.94,-110312.7,-42230.715,-57365.97,-131183.97,-41983.035,-42175.133,-47499.96
1314652.4592700028,-77519.45,-110290.29,-42208.824,-57344.77,-131168.83,-41961.184,-42155.64,-47482.87
1314652.4632699988,-77542.56,-110305.914,-42223.594,-57353.56,-131169.77,-41965.332,-42168.66,-47508.832
1314652.4672699946,-77572.875,-110329.63,-42253.055,-57379.234,-131181.69,-41988.406,-42198.16,-47540.938
1314652.4712699906,-77579.71,-110335.78,-42261.434,-57388.39,-131189.42,-42000.285,-42208.293,-47545.25
1314652.4752699863,-77561.93,-110321.66,-42238.61,-57370.77,-131178.84,-41983.6,-42181.56,-47504.926
1314652.4792699823,-77539.59,-110294.88,-42216.15,-57349.895,-131163.38,-41963.094,-42152.184,-47466.434
1314652.483269978,-77551.64,-110300.87,-42225.344,-57354.94,-131169.89,-41967.734,-42155.76,-47460.086
1314652.487269974,-77586.43,-110327.4,-42255.047,-57378.99,-131192.31,-41990.4,-42180.094,-47482.79
1314652.4912699698,-77592.25,-110336.1,-42260.05,-57389.0,-131203.38,-41999.188,-42188.883,-47493.29
1314652.4952699656,-77563.56,-110314.945,-42231.73,-57366.984,-131188.81,-41981.977,-42167.117,-47473.145
1314652.4992699616,-77543.42,-110291.38,-42208.496,-57343.547,-131174.16,-41961.71,-42145.754,-47442.465
1314652.5032699574,-77557.74,-110300.78,-42219.28,-57352.176,-131180.06,-41968.59,-42159.547,-47461.71
1314652.5072699534,-77593.14,-110326.7,-42252.484,-57380.13,-131203.4,-41993.29,-42193.24,-47500.9
1314652.5112699491,-77602.664,-110334.76,-42263.227,-57389.0,-131212.45,-42002.605,-42205.484,-47506.473
1314652.5152699451,-77569.46,-110309.66,-42234.99,-57366.984,-131191.58,-41985.27,-42187.297,-47486.94
1314652.519269941,-77543.13,-110284.06,-42205.445,-57341.797,-131167.56,-41964.805,-42164.39,-47475.426
1314652.523269937,-77557.45,-110294.36,-42212.2,-57348.145,-131172.05,-41970.055,-42168.54,-47473.88
1314652.5272699327,-77592.41,-110325.484,-42244.547,-57374.066,-131201.62,-41995.035,-42196.535,-47512.29
1314652.5312699284,-77608.4,-110346.03,-42256.96,-57386.312,-131218.62,-42004.883,-42209.637,-47531.09
1314652.5352699244,-77590.66,-110321.336,-42234.17,-57369.63,-131204.52,-41984.945,-42187.258,-47505.535
1314652.5392699202,-77559.37,-110284.59,-42211.062,-57346.64,-131177.58,-41964.113,-42160.44,-47468.547
1314652.5432699162,-77563.234,-110284.67,-42219.24,-57351.44,-131179.28,-41968.59,-42168.785,-47481.57
1314652.547269912,-77602.375,-110319.83,-42250.406,-57378.01,-131205.45,-41991.008,-42196.656,-47522.42
1314652.551269908,-77616.375,-110332.56,-42261.273,-57389.527,-131215.1,-42002.24,-42207.562,-47531.863
1314652.5552699037,-77594.08,-110306.64,-42237.875,-57368.613,-131192.27,-41984.293,-42183.92,-47503.258
1314652.5592698997,-77570.56,-110275.11,-42213.746,-57345.625,-131169.39,-41963.83,-42159.465,-47480.715
1314652.5632698955,-77585.21,-110285.04,-42224.773,-57352.297,-131176.28,-41971.07,-42170.004,-47494.59
1314652.5672698913,-77614.42,-110311.94,-42252.89,-57376.547,-131203.0,-41992.105,-42195.72,-47514.203
1314652.5712698873,-77620.24,-110315.84,-42262.047,-57384.727,-131210.9,-41998.82,-42203.086,-47520.836
1314652.575269883,-77599.77,-110298.83,-42239.746,-57366.418,-131194.38,-41978.64,-42176.8,-47494.71
1314652.579269879,-77589.07,-110291.1,-42218.75,-57348.066,-131180.5,-41960.086,-42152.67,-47474.246
1314652.5832698748,-77603.766,-110297.33,-42230.184,-57353.926,-131177.5,-41966.188,-42159.465,-47470.176
1314652.5872698708,-77632.77,-110317.95,-42258.75,-57375.734,-131192.95,-41989.176,-42185.996,-47497.844
1314652.5912698666,-77635.945,-110323.33,-42266.805,-57384.523,-131202.16,-41999.758,-42198.69,-47507.246
1314652.5952698626,-77611.414,-110303.8,-42241.457,-57366.496,-131191.45,-41984.215,-42177.164,-47471.113
1314652.5992698583,-77596.6,-110286.91,-42218.387,-57346.723,-131175.75,-41964.64,-42157.84,-47457.156
1314652.603269854,-77610.84,-110290.164,-42231.61,-57352.664,-131173.3,-41969.117,-42170.33,-47483.97
1314652.60726985,-77638.8,-110307.17,-42260.17,-57375.9,-131192.31,-41994.426,-42201.703,-47523.195
1314652.6112698459,-77650.11,-110319.3,-42270.793,-57386.72,-131198.58,-42005.74,-42214.723,-47539.227
1314652.6152698419,-77626.63,-110303.43,-42248.414,-57367.72,-131180.22,-41985.965,-42190.96,-47506.188
1314652.6192698376,-77595.5,-110272.875,-42222.047,-57343.305,-131155.52,-41965.7,-42168.99,-47496.625
1314652.6232698336,-77606.08,-110280.89,-42232.465,-57350.87,-131160.94,-41972.617,-42178.59,-47509.727
1314652.6272698294,-77645.02,-110314.414,-42265.383,-57376.67,-131178.67,-41996.746,-42206.055,-47538.008
1314652.6312698254,-77659.305,-110326.375,-42275.23,-57384.93,-131185.22,-42007.406,-42214.234,-47540.61
1314652.6352698212,-77634.28,-110303.02,-42248.74,-57365.848,-131168.5,-41990.4,-42193.2,-47514.934
1314652.639269817,-77607.305,-110274.375,-42223.594,-57345.137,-131149.34,-41970.543,-42171.348,-47489.055
1314652.643269813,-77622.805,-110287.11,-42235.477,-57354.86,-131160.03,-41975.992,-42183.92,-47509.32
1314652.6472698087,-77664.15,-110325.08,-42268.92,-57381.023,-131189.66,-41997.76,-42211.957,-47544.395
1314652.6512698047,-77678.71,-110335.45,-42278.65,-57390.098,-131199.47,-42004.03,-42220.785,-47553.633
1314652.6552698005,-77646.85,-110303.76,-42254.152,-57370.28,-131183.64,-41987.266,-42203.168,-47536.258
1314652.6592697965,-77623.91,-110280.195,-42230.715,-57347.863,-131164.67,-41967.816,-42182.332,-47512.25
1314652.6632697922,-77645.14,-110293.83,-42247.6,-57355.836,-131173.55,-41974.12,-42191.043,-47505.7
1314652.6672697882,-77672.2,-110316.29,-42273.074,-57381.96,-131196.45,-41996.99,-42217.45,-47531.78
1314652.671269784,-77676.68,-110322.35,-42275.637,-57389.65,-131206.1,-42005.168,-42224.855,-47546.633
1314652.6752697797,-77660.32,-110307.26,-42252.36,-57369.47,-131188.52,-41984.906,-42196.86,-47518.15
1314652.6792697757,-77640.46,-110287.56,-42231.363,-57348.715,-131174.03,-41963.297,-42171.715,-47490.684
1314652.6832697715,-77648.766,-110289.02,-42241.375,-57357.06,-131180.62,-41972.535,-42179.242,-47492.758
1314652.6872697675,-77674.36,-110306.08,-42267.66,-57380.617,-131197.67,-41997.03,-42203.125,-47517.05
1314652.6912697633,-77678.39,-110308.516,-42271.65,-57386.8,-131205.08,-42004.477,-42206.098,-47513.67
1314652.6952697593,-77655.93,-110287.68,-42247.844,-57367.598,-131189.7,-41985.516,-42182.047,-47492.555
1314652.699269755,-77641.85,-110265.34,-42229.004,-57347.047,-131167.97,-41965.008,-42158.367,-47470.95
1314652.703269751,-77655.52,-110275.234,-42240.52,-57352.99,-131168.98,-41970.746,-42163.98,-47471.19
1314652.7072697468,-77678.875,-110299.97,-42267.418,-57378.137,-131193.73,-41993.98,-42191.285,-47505.656
1314652.7112697426,-77691.33,-110312.625,-42275.027,-57387.29,-131201.95,-42002.727,-42201.703,-47535.89
1314652.7152697386,-77675.375,-110292.52,-42252.688,-57369.348,-131189.1,-41981.895,-42177.652,-47508.914
1314652.7192697343,-77655.4,-110275.03,-42231.69,-57350.14,-131178.34,-41963.137,-42155.4,-47479.086
1314652.7232697303,-77670.82,-110286.75,-42243.777,-57357.668,-131188.92,-41971.19,-42167.93,-47502.93
1314652.727269726,-77706.87,-110309.53,-42276.773,-57384.688,-131214.89,-41992.637,-42194.215,-47533.125
1314652.731269722,-77725.305,-110320.195,-42289.55,-57393.11,-131219.97,-41998.25,-42196.82,-47532.27
1314652.7352697179,-77704.836,-110302.33,-42266.48,-57374.188,-131199.02,-41979.617,-42171.062,-47495.973
1314652.7392697139,-77674.195,-110275.234,-42238.324,-57349.938,-131177.5,-41959.88,-42149.09,-47474.45
1314652.7432697096,-77689.01,-110288.54,-42248.496,-57356.812,-131187.14,-41969.117,-42162.883,-47496.867
1314652.7472697054,-77731.41,-110324.79,-42280.56,-57384.24,-131213.88,-41992.88,-42188.76,-47510.742
1314652.7512697014,-77740.32,-110332.445,-42285.93,-57392.05,-131220.88,-42002.36,-42196.74,-47515.79
1314652.7552696972,-77704.914,-110297.9,-42256.754,-57366.496,-131199.88,-41984.78,-42177.043,-47503.094
1314652.7592696932,-77683.39,-110274.09,-42235.477,-57344.605,-131179.69,-41966.066,-42154.543,-47466.188
1314652.763269689,-77702.195,-110286.586,-42251.02,-57355.062,-131186.45,-41975.547,-42165.812,-47483.684
1314652.767269685,-77738.2,-110313.27,-42280.965,-57383.508,-131212.25,-41997.4,-42186.117,-47504.64
1314652.7712696807,-77745.2,-110318.89,-42286.703,-57390.87,-131216.6,-42001.832,-42189.617,-47510.664
1314652.7752696767,-77720.016,-110290.9,-42260.254,-57367.72,-131202.03,-41983.035,-42163.13,-47480.105
1314652.7792696725,-77698.29,-110269.375,-42238.85,-57346.76,-131186.25,-41965.21,-42140.953,-47461.1
1314652.7832696682,-77712.57,-110283.66,-42252.2,-57354.535,-131195.36,-41974.61,-42152.996,-47481.16
1314652.7872696642,-77750.29,-110320.93,-42285.402,-57382.977,-131220.78,-41998.375,-42181.03,-47521.77
1314652.79126966,-77761.27,-110331.42,-42293.418,-57392.66,-131229.53,-42002.93,-42181.6,-47530.887
1314652.795269656,-77739.055,-110308.516,-42267.215,-57372.844,-131210.2,-41980.55,-42149.945,-47497.6
1314652.7992696518,-77717.2,-110285.0,-42245.242,-57353.965,-131194.62,-41961.387,-42130.21,-47488.61
1314652.8032696478,-77737.875,-110299.28,-42261.8,-57361.9,-131201.75,-41969.363,-42144.043,-47523.152
1314652.8072696435,-77772.38,-110329.02,-42292.727,-57389.0,-131228.69,-41991.54,-42170.74,-47555.664
1314652.8112696395,-77779.055,-110337.484,-42297.934,-57395.996,-131240.11,-42000.0,-42177.613,-47563.113
1314652.8152696353,-77757.086,-110324.06,-42273.723,-57375.49,-131221.77,-41982.42,-42154.83,-47538.74
1314652.819269631,-77745.81,-110310.23,-42256.145,-57358.277,-131201.67,-41964.684,-42131.55,-47501.18
1314652.823269627,-77752.36,-110305.99,-42266.195,-57363.49,-131203.83,-41972.496,-42143.598,-47527.223
1314652.8272696228,-77774.17,-110324.55,-42289.633,-57385.742,-131217.2,-41995.65,-42173.42,-47570.152
1314652.8312696188,-77781.414,-110335.58,-42295.535,-57390.383,-131222.73,-41998.7,-42172.12,-47557.617
1314652.8352696146,-77756.836,-110315.516,-42268.312,-57367.598,-131214.36,-41974.246,-42138.1,-47512.168
1314652.8392696106,-77736.29,-110296.15,-42249.96,-57348.31,-131192.72,-41956.016,-42117.96,-47485.637
1314652.8432696064,-77757.33,-110308.84,-42269.816,-57359.906,-131197.31,-41965.617,-42129.68,-47492.027
1314652.8472696024,-77787.805,-110331.38,-42298.543,-57384.277,-131214.64,-41987.348,-42153.484,-47516.93
1314652.8512695981,-77786.5,-110329.47,-42298.992,-57390.26,-131217.05,-41991.414,-42151.53,-47515.383
1314652.855269594,-77761.88,-110305.14,-42270.266,-57371.176,-131198.08,-41970.703,-42121.22,-47480.55
1314652.85926959,-77740.32,-110281.78,-42246.707,-57352.094,-131181.0,-41951.58,-42098.188,-47453.613
1314652.8632695857,-77753.42,-110291.22,-42261.23,-57360.8,-131192.27,-41960.207,-42107.91,-47461.1
1314652.8672695816,-77785.52,-110321.62,-42290.0,-57385.418,-131217.86,-41984.01,-42136.844,-47496.22
1314652.8712695774,-77790.9,-110322.63,-42294.637,-57390.22,-131221.77,-41988.812,-42142.17,-47497.316
1314652.8752695734,-77768.64,-110294.88,-42270.266,-57367.395,-131201.95,-41968.06,-42116.863,-47461.875
1314652.8792695692,-77746.016,-110274.945,-42248.21,-57346.805,-131186.12,-41948.527,-42099.04,-47436.77
1314652.8832695652,-77764.04,-110290.734,-42262.125,-57358.277,-131193.94,-41957.48,-42120.73,-47470.582
1314652.887269561,-77797.08,-110321.29,-42293.336,-57384.973,-131217.08,-41983.4,-42159.996,-47521.73
1314652.8912695567,-77806.56,-110332.805,-42299.36,-57391.113,-131225.06,-41991.457,-42169.965,-47528.363
1314652.8952695527,-77785.766,-110316.2,-42274.254,-57369.59,-131207.64,-41973.51,-42147.3,-47492.96
1314652.8992695485,-77767.21,-110293.336,-42256.023,-57349.652,-131188.72,-41956.3,-42130.332,-47458.17
1314652.9032695445,-77782.8,-110299.65,-42270.47,-57358.44,-131196.78,-41965.82,-42148.316,-47486.613
1314652.9072695402,-77808.59,-110322.88,-42297.406,-57381.27,-131217.9,-41990.234,-42180.83,-47546.957
1314652.9112695362,-77810.836,-110321.45,-42299.074,-57385.824,-131220.22,-41993.777,-42180.34,-47544.92
1314652.915269532,-77789.67,-110300.945,-42274.617,-57365.97,-131202.64,-41970.703,-42145.957,-47495.117
1314652.919269528,-77773.27,-110286.09,-42254.883,-57346.844,-131187.17,-41952.027,-42121.258,-47480.348
1314652.9232695238,-77795.33,-110300.945,-42270.59,-57357.098,-131189.22,-41960.207,-42130.984,-47495.445
1314652.9272695198,-77826.01,-110324.79,-42302.086,-57381.473,-131209.48,-41981.082,-42154.582,-47513.387
1314652.9312695155,-77834.59,-110331.875,-42311.605,-57389.49,-131218.72,-41988.324,-42162.844,-47516.44
1314652.9352695113,-77813.97,-110309.9,-42286.215,-57367.598,-131199.75,-41967.816,-42139.324,-47485.965
1314652.9392695073,-77789.8,-110287.234,-42262.41,-57346.355,-131184.45,-41952.8,-42125.652,-47474.246
1314652.943269503,-77798.055,-110292.81,-42273.195,-57353.152,-131188.52,-41965.945,-42141.766,-47487.754
1314652.947269499,-77828.375,-110319.3,-42298.625,-57376.793,-131207.73,-41988.77,-42170.37,-47517.66
1314652.9512694948,-77835.01,-110326.055,-42301.188,-57384.035,-131212.53,-41992.39,-42173.18,-47509.117
1314652.9552694908,-77813.88,-110306.56,-42278.402,-57364.18,-131195.97,-41971.438,-42148.805,-47478.72
1314652.9592694866,-77797.28,-110291.836,-42261.19,-57346.965,-131191.2,-41953.004,-42130.574,-47461.266
1314652.9632694826,-77813.52,-110303.836,-42274.66,-57357.14,-131202.64,-41962.2,-42144.734,-47470.906
1314652.9672694784,-77842.086,-110327.56,-42302.652,-57378.582,-131220.42,-41985.312,-42173.746,-47495.445
1314652.9712694741,-77849.57,-110332.12,-42306.56,-57383.3,-131220.75,-41991.008,-42178.184,-47497.113
1314652.9752694701,-77824.55,-110308.11,-42279.543,-57362.227,-131197.67,-41971.598,-42151.125,-47468.63
1314652.979269466,-77809.62,-110291.34,-42259.117,-57345.215,-131183.92,-41953.37,-42130.496,-47442.914
1314652.983269462,-77827.805,-110307.984,-42274.414,-57356.203,-131194.5,-41962.973,-42144.492,-47461.184
1314652.9872694577,-77855.8,-110337.734,-42303.836,-57380.656,-131215.9,-41986.125,-42173.91,-47490.4
1314652.9912694537,-77863.33,-110346.6,-42309.9,-57386.395,-131221.69,-41991.254,-42181.64,-47506.39
1314652.9952694494,-77844.81,-110324.305,-42285.605,-57363.934,-131203.9,-41969.93,-42156.78,-47472.984
1314652.9992694454,-77820.88,-110296.63,-42265.465,-57343.832,-131188.31,-41953.695,-42141.562,-47459.066
1314653.0032694412,-77836.96,-110301.35,-42281.535,-57356.445,-131197.52,-41965.496,-42162.11,-47487.996
1314653.007269437,-77873.01,-110333.055,-42313.113,-57382.855,-131216.72,-41988.28,-42191.203,-47520.387
1314653.011269433,-77878.09,-110337.77,-42317.06,-57387.617,-131218.22,-41991.824,-42193.645,-47519.695
1314653.0152694287,-77850.1,-110311.04,-42293.094,-57365.52,-131197.88,-41972.453,-42167.605,-47484.375
1314653.0192694247,-77828.82,-110288.17,-42274.21,-57344.28,-131185.88,-41955.04,-42153.363,-47474.652
1314653.0232694205,-77852.7,-110307.945,-42292.562,-57356.61,-131198.0,-41967.41,-42172.28,-47495.81
1314653.0272694165,-77889.9,-110339.36,-42323.445,-57381.43,-131216.39,-41991.13,-42203.004,-47536.867
1314653.0312694123,-77892.83,-110339.97,-42325.32,-57385.05,-131218.31,-41995.484,-42206.258,-47532.555
1314653.0352694083,-77860.96,-110309.62,-42298.055,-57362.145,-131204.14,-41976.89,-42183.84,-47500.45
1314653.039269404,-77850.47,-110296.96,-42283.855,-57346.234,-131197.47,-41961.67,-42168.863,-47488.973
1314653.0432693998,-77875.81,-110316.0,-42300.984,-57356.61,-131208.9,-41970.5,-42180.34,-47496.83
1314653.0472693958,-77902.59,-110338.83,-42325.074,-57380.7,-131226.0,-41993.207,-42202.883,-47518.84
1314653.0512693916,-77896.164,-110335.984,-42321.86,-57383.953,-131223.84,-41997.52,-42202.92,-47517.99
1314653.0552693876,-77864.99,-110309.33,-42291.465,-57360.84,-131200.4,-41977.703,-42176.883,-47490.684
1314653.0592693833,-77851.12,-110290.49,-42273.4,-57343.14,-131181.2,-41960.125,-42155.887,-47461.875
1314653.0632693793,-77872.68,-110306.805,-42288.492,-57354.86,-131195.48,-41967.0,-42165.855,-47465.66
1314653.067269375,-77905.73,-110337.77,-42318.81,-57379.965,-131219.08,-41989.625,-42192.18,-47505.332
1314653.071269371,-77912.11,-110345.83,-42325.44,-57386.477,-131223.47,-41996.34,-42196.617,-47513.105
1314653.0752693668,-77885.74,-110322.19,-42296.754,-57364.258,-131217.3,-41977.176,-42169.23,-47495.08
1314653.0792693626,-77865.64,-110304.98,-42275.27,-57345.746,-131201.42,-41960.367,-42150.72,-47475.953
1314653.0832693586,-77884.08,-110317.06,-42290.773,-57356.61,-131208.66,-41968.914,-42161.133,-47484.99
1314653.0872693544,-77915.125,-110337.69,-42319.46,-57380.535,-131228.28,-41988.242,-42178.305,-47496.42
1314653.0912693504,-77917.36,-110336.59,-42323.69,-57383.996,-131230.88,-41992.27,-42177.777,-47492.434
1314653.0952693461,-77884.484,-110307.09,-42294.07,-57360.516,-131208.5,-41971.03,-42153.2,-47471.03
1314653.0992693421,-77868.94,-110289.555,-42274.496,-57343.59,-131197.67,-41952.965,-42135.785,-47452.92
1314653.103269338,-77896.77,-110312.87,-42296.023,-57359.215,-131213.17,-41965.17,-42154.95,-47475.914
1314653.107269334,-77925.87,-110336.35,-42325.48,-57384.81,-131231.17,-41989.625,-42188.19,-47514.285
1314653.1112693297,-77922.125,-110324.266,-42326.58,-57386.72,-131227.27,-41993.695,-42191.324,-47516.074
1314653.1152693254,-77894.53,-110297.2,-42299.195,-57362.062,-131204.23,-41973.227,-42162.64,-47479.656
1314653.1192693214,-77881.96,-110287.27,-42280.723,-57343.426,-131186.89,-41957.03,-42143.598,-47453.9
1314653.1232693172,-77901.77,-110301.6,-42296.184,-57354.29,-131194.98,-41968.668,-42160.2,-47472.414
1314653.1272693132,-77928.875,-110324.95,-42322.715,-57378.38,-131215.7,-41992.35,-42193.074,-47507.855
1314653.131269309,-77937.18,-110330.695,-42326.58,-57382.855,-131221.56,-41995.973,-42200.36,-47511.8
1314653.135269305,-77913.414,-110308.76,-42299.645,-57358.684,-131207.64,-41973.43,-42173.016,-47474.285
1314653.1392693007,-77889.9,-110285.2,-42278.28,-57338.38,-131192.02,-41957.766,-42158.367,-47458.78
1314653.1432692967,-77913.25,-110301.555,-42297.445,-57351.93,-131196.05,-41967.285,-42175.05,-47483.97
1314653.1472692925,-77953.01,-110334.516,-42328.168,-57376.223,-131217.53,-41988.242,-42202.68,-47521.85
1314653.1512692883,-77957.36,-110341.84,-42329.348,-57379.6,-131226.2,-41992.066,-42203.125,-47516.035
1314653.1552692843,-77931.16,-110319.09,-42303.836,-57359.17,-131211.34,-41970.867,-42175.133,-47482.953
1314653.15926928,-77921.35,-110303.875,-42288.37,-57343.223,-131198.89,-41952.066,-42152.223,-47463.867
1314653.163269276,-77948.57,-110321.945,-42309.734,-57356.812,-131211.11,-41962.605,-42162.76,-47474.082
1314653.1672692718,-77984.625,-110350.586,-42341.676,-57382.367,-131232.34,-41985.965,-42187.582,-47493.29
1314653.1712692678,-77982.055,-110352.42,-42340.375,-57381.676,-131232.34,-41988.28,-42190.715,-47513.797
1314653.1752692636,-77952.96,-110323.24,-42311.89,-57356.812,-131213.27,-41966.188,-42163.492,-47484.99
1314653.1792692596,-77936.445,-110303.59,-42295.9,-57341.676,-131197.06,-41952.35,-42146.04,-47464.723
1314653.1832692553,-77957.234,-110317.875,-42313.07,-57355.188,-131211.11,-41965.496,-42162.723,-47492.555
1314653.187269251,-77993.49,-110346.766,-42340.902,-57379.723,-131233.97,-41988.363,-42185.344,-47512.207
1314653.191269247,-77994.266,-110343.51,-42341.227,-57380.74,-131234.42,-41992.555,-42190.188,-47519.94
1314653.1952692429,-77965.05,-110315.516,-42311.566,-57357.14,-131214.64,-41973.715,-42166.953,-47489.992
1314653.1992692389,-77947.76,-110298.83,-42293.01,-57341.105,-131197.34,-41954.918,-42144.938,-47463.016
1314653.2032692346,-77968.23,-110313.805,-42313.76,-57354.21,-131201.42,-41963.746,-42157.473,-47477.38
1314653.2072692306,-77998.09,-110338.99,-42343.02,-57379.395,-131221.44,-41986.41,-42185.426,-47501.875
1314653.2112692264,-78002.32,-110341.96,-42344.28,-57380.94,-131226.36,-41988.484,-42183.72,-47498.66
1314653.2152692224,-77972.7,-110317.14,-42315.594,-57356.12,-131201.95,-41967.816,-42156.13,-47461.914
1314653.2192692182,-77958.74,-110303.305,-42299.848,-57340.13,-131186.4,-41955.324,-42143.8,-47436.28
1314653.223269214,-77974.125,-110313.32,-42315.348,-57352.906,-131198.98,-41969.77,-42165.04,-47464.684
1314653.22726921,-78002.484,-110336.96,-42340.74,-57374.84,-131219.12,-41991.863,-42194.297,-47500.246
1314653.2312692057,-78008.305,-110340.26,-42342.734,-57378.297,-131221.61,-41995.2,-42197.023,-47492.88
1314653.2352692017,-77981.65,-110313.03,-42314.332,-57354.332,-131198.0,-41972.496,-42171.836,-47459.395
1314653.2392691975,-77962.81,-110292.97,-42294.76,-57337.324,-131180.55,-41956.992,-42159.305,-47446.656
1314653.2432691935,-77988.12,-110311.73,-42317.71,-57353.438,-131191.86,-41969.81,-42176.96,-47471.723
1314653.2472691892,-78024.78,-110348.96,-42346.64,-57379.234,-131228.84,-41990.6,-42199.016,-47504.19
1314653.2512691852,-78031.01,-110353.16,-42345.418,-57381.51,-131233.0,-41991.984,-42195.312,-47503.094
1314653.255269181,-77995.164,-110317.266,-42314.496,-57355.957,-131211.47,-41968.344,-42162.11,-47468.426
1314653.2592691767,-77973.88,-110294.234,-42298.746,-57338.746,-131193.94,-41951.457,-42140.79,-47446.7
1314653.2632691727,-78001.75,-110318.16,-42320.72,-57354.902,-131210.38,-41960.574,-42154.215,-47468.14
1314653.2672691685,-78036.055,-110353.84,-42349.652,-57381.555,-131237.47,-41981.12,-42179.16,-47503.867
1314653.2712691645,-78037.88,-110360.805,-42349.977,-57385.664,-131248.02,-41983.805,-42178.59,-47498.535
1314653.2752691603,-78015.016,-110338.79,-42326.863,-57363.324,-131224.73,-41962.973,-42151.125,-47469.2
1314653.2792691563,-78003.18,-110319.09,-42311.2,-57345.83,-131203.62,-41950.32,-42135.867,-47461.02
1314653.283269152,-78019.94,-110326.3,-42328.695,-57357.465,-131209.89,-41963.055,-42149.863,-47459.15
1314653.287269148,-78044.64,-110347.66,-42353.72,-57381.473,-131228.89,-41985.965,-42177.777,-47499.023
1314653.2912691438,-78038.45,-110337.81,-42351.074,-57380.74,-131224.53,-41988.566,-42179.812,-47517.133
1314653.2952691396,-78008.75,-110309.695,-42321.414,-57356.527,-131203.3,-41965.25,-42149.332,-47475.14
1314653.2992691356,-77999.555,-110305.46,-42308.23,-57341.594,-131189.33,-41950.32,-42133.63,-47460.37
1314653.3032691313,-78026.695,-110334.31,-42329.47,-57357.42,-131197.34,-41964.07,-42152.914,-47477.5
1314653.3072691273,-78061.89,-110364.38,-42357.547,-57384.277,-131222.58,-41985.965,-42181.234,-47507.895
1314653.311269123,-78062.13,-110357.75,-42356.85,-57385.01,-131226.23,-41985.84,-42179.324,-47505.574
1314653.315269119,-78034.99,-110328.375,-42329.59,-57361.168,-131202.56,-41963.992,-42152.547,-47469.035
1314653.3192691149,-78018.72,-110310.02,-42314.58,-57344.89,-131186.61,-41951.5,-42142.54,-47454.715
1314653.3232691109,-78035.73,-110319.54,-42330.08,-57358.074,-131194.98,-41966.188,-42162.723,-47473.594
1314653.3272691066,-78065.88,-110344.32,-42358.156,-57380.656,-131215.7,-41988.812,-42190.715,-47498.617
1314653.3312691026,-78072.19,-110352.13,-42359.336,-57382.773,-131224.28,-41991.414,-42194.582,-47508.75
1314653.3352690984,-78051.35,-110334.03,-42331.95,-57361.168,-131210.81,-41970.133,-42168.824,-47475.14
1314653.3392690942,-78037.64,-110319.016,-42316.246,-57346.4,-131203.25,-41953.695,-42152.14,-47451.17
1314653.3432690902,-78055.016,-110334.15,-42333.742,-57361.125,-131212.97,-41967.043,-42174.03,-47489.3
1314653.347269086,-78084.27,-110366.055,-42362.02,-57386.152,-131232.62,-41991.008,-42203.043,-47528.688
1314653.351269082,-78089.36,-110369.63,-42363.895,-57387.13,-131237.84,-41992.066,-42200.156,-47514.812
1314653.3552690777,-78060.8,-110341.88,-42332.03,-57362.305,-131215.98,-41968.18,-42169.883,-47481.367
1314653.3592690737,-78043.78,-110327.15,-42314.535,-57345.055,-131197.77,-41952.395,-42153.363,-47467.367
1314653.3632690695,-78067.51,-110343.95,-42336.793,-57359.906,-131210.2,-41965.82,-42169.434,-47487.59
1314653.3672690655,-78094.85,-110365.73,-42361.41,-57383.223,-131226.94,-41990.03,-42200.32,-47536.582
1314653.3712690612,-78093.305,-110364.99,-42357.707,-57381.676,-131229.38,-41989.016,-42195.72,-47535.28
1314653.375269057,-78069.42,-110340.54,-42330.527,-57357.586,-131213.1,-41965.984,-42166.3,-47503.5
1314653.379269053,-78053.836,-110321.086,-42314.74,-57343.387,-131198.38,-41952.066,-42151.246,-47490.926
1314653.3832690488,-78074.18,-110338.51,-42333.863,-57358.887,-131211.22,-41966.227,-42172.85,-47519.695
1314653.3872690448,-78106.04,-110368.37,-42358.887,-57383.18,-131237.44,-41989.176,-42198.242,-47542.97
1314653.3912690405,-78110.805,-110372.07,-42357.75,-57384.93,-131239.88,-41989.83,-42194.703,-47531.496
1314653.3952690365,-78083.5,-110344.28,-42330.895,-57360.434,-131219.77,-41967.938,-42166.098,-47497.195
1314653.3992690323,-78065.59,-110323.29,-42316.12,-57343.06,-131203.25,-41953.9,-42145.957,-47469.24
1314653.4032690283,-78085.984,-110342.164,-42335.98,-57357.42,-131218.06,-41966.637,-42158.246,-47482.098
1314653.407269024,-78119.266,-110368.78,-42366.7,-57383.63,-131240.61,-41987.996,-42177.574,-47505.984
1314653.4112690198,-78119.875,-110374.72,-42364.83,-57385.215,-131239.9,-41986.004,-42166.832,-47485.72
1314653.4152690158,-78088.42,-110342.086,-42336.184,-57359.99,-131217.81,-41961.914,-42133.016,-47445.438
1314653.4192690116,-78074.67,-110323.734,-42321.574,-57344.77,-131204.92,-41946.535,-42116.05,-47432.82
1314653.4232690076,-78100.67,-110344.04,-42342.164,-57361.207,-131218.31,-41961.754,-42135.38,-47454.348
1314653.4272690034,-78131.39,-110371.55,-42369.426,-57386.11,-131241.75,-41983.887,-42158.406,-47480.31
1314653.4312689994,-78126.02,-110368.414,-42364.504,-57387.617,-131244.6,-41982.383,-42150.434,-47468.914
1314653.4352689951,-78096.68,-110339.44,-42337.08,-57363.445,-131220.98,-41959.473,-42122.234,-47441.895
1314653.4392689911,-78083.09,-110318.36,-42323.49,-57348.27,-131206.83,-41946.168,-42105.55,-47429.566
1314653.443268987,-78108.89,-110337.484,-42342.285,-57363.324,-131218.22,-41961.02,-42121.176,-47447.957
1314653.4472689827,-78136.805,-110363.81,-42369.957,-57385.824,-131237.72,-41982.3,-42142.17,-47470.215
1314653.4512689786,-78137.375,-110366.625,-42367.96,-57385.54,-131239.67,-41978.92,-42136.15,-47475.426
1314653.4552689744,-78114.914,-110347.86,-42344.81,-57365.887,-131221.11,-41954.918,-42108.195,-47453.98
1314653.4592689704,-78101.12,-110335.05,-42331.707,-57350.953,-131208.66,-41941.61,-42094.402,-47452.11
1314653.4632689662,-78125.25,-110357.71,-42349.938,-57365.97,-131224.53,-41954.996,-42115.848,-47488.566
1314653.4672689622,-78160.08,-110392.3,-42378.824,-57392.215,-131249.36,-41975.098,-42142.824,-47511.92
1314653.471268958,-78160.2,-110392.375,-42377.688,-57392.66,-131252.23,-41973.797,-42139.812,-47500.9
1314653.475268954,-78132.37,-110368.53,-42348.594,-57367.23,-131230.64,-41951.742,-42115.074,-47484.62
1314653.4792689497,-78115.07,-110352.87,-42332.645,-57352.867,-131214.4,-41940.96,-42103.68,-47476.2
1314653.4832689455,-78131.39,-110361.125,-42349.773,-57366.457,-131223.84,-41954.793,-42121.297,-47489.3
1314653.4872689415,-78165.086,-110388.555,-42377.77,-57389.934,-131245.81,-41976.93,-42145.387,-47513.594
1314653.4912689372,-78168.26,-110391.6,-42377.688,-57390.625,-131245.0,-41978.434,-42144.695,-47510.945
1314653.4952689332,-78140.34,-110364.83,-42349.69,-57367.312,-131227.22,-41958.78,-42121.46,-47481.242
1314653.499268929,-78125.9,-110349.57,-42336.223,-57352.582,-131216.06,-41944.664,-42108.48,-47465.254
1314653.503268925,-78150.72,-110373.664,-42357.83,-57369.63,-131229.94,-41958.863,-42126.63,-47483.277
1314653.5072689208,-78179.77,-110404.5,-42383.992,-57393.15,-131251.62,-41978.883,-42148.438,-47498.457
1314653.5112689168,-78176.96,-110406.375,-42379.926,-57393.76,-131256.64,-41976.2,-42144.246,-47486.656
1314653.5152689125,-78149.87,-110379.64,-42353.152,-57368.938,-131233.64,-41952.965,-42120.2,-47477.05
1314653.5192689083,-78141.16,-110365.56,-42338.664,-57355.594,-131215.38,-41939.414,-42108.113,-47472.168
1314653.5232689043,-78166.305,-110385.586,-42359.17,-57371.504,-131228.19,-41953.168,-42122.234,-47477.46
1314653.5272689,-78191.164,-110408.77,-42385.54,-57392.945,-131242.64,-41973.145,-42144.246,-47494.71
1314653.531268896,-78187.5,-110405.195,-42384.32,-57391.887,-131235.97,-41972.086,-42134.848,-47484.418
1314653.5352688918,-78159.75,-110377.16,-42355.918,-57367.312,-131212.25,-41947.51,-42100.14,-47434.043
1314653.5392688878,-78148.484,-110360.6,-42343.875,-57353.76,-131201.67,-41935.996,-42088.83,-47430.664
1314653.5432688836,-78173.1,-110377.61,-42365.36,-57371.016,-131216.47,-41951.01,-42108.848,-47460.98
1314653.5472688796,-78195.4,-110393.35,-42387.656,-57391.44,-131230.06,-41972.535,-42132.938,-47478.883
1314653.5512688754,-78189.21,-110386.44,-42380.74,-57387.453,-131225.02,-41971.316,-42128.258,-47465.293
1314653.5552688711,-78160.766,-110359.26,-42355.105,-57364.87,-131206.75,-41949.707,-42103.516,-47442.26
1314653.5592688671,-78151.164,-110348.07,-42345.34,-57351.2,-131195.16,-41935.914,-42096.805,-47435.14
1314653.563268863,-78181.6,-110376.34,-42367.96,-57368.613,-131211.22,-41949.707,-42121.38,-47462.402
1314653.567268859,-78214.07,-110408.164,-42396.324,-57393.883,-131230.72,-41971.723,-42152.793,-47501.02
1314653.5712688547,-78209.15,-110403.734,-42392.17,-57391.727,-131231.33,-41971.56,-42152.387,-47495.77
1314653.5752688507,-78180.83,-110378.7,-42365.195,-57366.78,-131212.66,-41948.934,-42125.285,-47458.54
1314653.5792688464,-78173.38,-110367.805,-42354.74,-57353.76,-131203.33,-41936.85,-42115.766,-47447.754
1314653.5832688424,-78199.71,-110389.29,-42377.848,-57370.934,-131215.55,-41952.19,-42139.73,-47478.273
1314653.5872688382,-78223.96,-110412.52,-42402.547,-57393.312,-131234.88,-41973.797,-42169.76,-47521.324
1314653.591268834,-78219.08,-110406.664,-42396.28,-57389.895,-131228.52,-41972.13,-42168.457,-47514.812
1314653.59526883,-78193.12,-110379.56,-42367.72,-57365.723,-131206.42,-41948.285,-42141.684,-47471.395
1314653.5992688257,-78179.77,-110361.66,-42354.695,-57352.582,-131194.7,-41935.953,-42128.133,-47451.297
1314653.6032688217,-78201.26,-110379.93,-42375.125,-57370.04,-131213.8,-41952.15,-42148.152,-47481.16
1314653.6072688175,-78231.695,-110404.87,-42402.793,-57393.434,-131236.83,-41972.535,-42172.61,-47509.035
1314653.6112688135,-78231.57,-110403.41,-42399.58,-57391.684,-131237.11,-41969.484,-42166.098,-47488.973
1314653.6152688093,-78204.914,-110378.5,-42371.867,-57368.164,-131217.78,-41946.453,-42135.906,-47449.668
1314653.6192688053,-78195.84,-110370.12,-42360.598,-57356.324,-131209.52,-41934.367,-42122.07,-47436.402
1314653.623268801,-78222.58,-110394.33,-42381.188,-57373.7,-131223.44,-41947.105,-42136.637,-47455.08
1314653.6272687968,-78250.29,-110414.59,-42408.406,-57396.61,-131237.34,-41967.125,-42159.02,-47492.555
1314653.6312687928,-78245.164,-110407.35,-42403.727,-57394.004,-131231.98,-41963.664,-42152.14,-47485.72
1314653.6352687886,-78216.516,-110381.35,-42374.023,-57369.426,-131212.16,-41941.61,-42123.13,-47446.656
1314653.6392687846,-78206.75,-110371.055,-42363.324,-57357.547,-131201.05,-41931.52,-42111.656,-47430.992
1314653.6432687803,-78233.93,-110392.945,-42387.332,-57375.773,-131218.02,-41945.8,-42133.26,-47455.242
1314653.6472687763,-78264.445,-110418.42,-42413.574,-57398.723,-131240.2,-41964.684,-42158.57,-47491.7
1314653.651268772,-78262.25,-110413.375,-42409.426,-57396.61,-131239.9,-41961.55,-42153.363,-47480.633
1314653.655268768,-78233.65,-110380.7,-42380.13,-57369.348,-131215.78,-41938.883,-42125.33,-47442.75
1314653.6592687638,-78220.664,-110369.305,-42366.13,-57353.965,-131203.38,-41929.08,-42114.504,-47419.273
1314653.6632687596,-78240.805,-110388.35,-42387.535,-57370.16,-131216.6,-41948.12,-42141.52,-47453.41
1314653.6672687556,-78271.37,-110415.41,-42414.062,-57395.062,-131234.22,-41970.867,-42172.65,-47496.707
1314653.6712687514,-78264.41,-110412.31,-42409.098,-57392.17,-131233.2,-41968.832,-42171.062,-47490.277
1314653.6752687474,-78237.59,-110387.86,-42381.96,-57367.027,-131213.62,-41945.844,-42142.863,-47448.895
1314653.6792687431,-78228.48,-110375.33,-42371.38,-57353.76,-131200.23,-41934.0,-42129.07,-47432.902
1314653.6832687391,-78253.664,-110393.44,-42392.78,-57369.266,-131219.16,-41949.098,-42150.39,-47456.746
1314653.687268735,-78285.12,-110420.74,-42419.598,-57393.598,-131240.0,-41972.902,-42178.348,-47486.53
1314653.691268731,-78281.01,-110417.195,-42416.06,-57391.81,-131233.03,-41971.68,-42176.555,-47480.062
1314653.6952687267,-78252.81,-110387.54,-42387.94,-57366.78,-131207.16,-41946.902,-42154.094,-47458.008
1314653.6992687224,-78245.0,-110376.63,-42379.926,-57355.145,-131197.72,-41935.305,-42149.82,-47459.676
1314653.7032687184,-78275.92,-110402.47,-42403.24,-57373.496,-131218.67,-41952.8,-42178.59,-47502.688
1314653.7072687142,-78303.59,-110428.23,-42426.676,-57396.895,-131242.19,-41973.51,-42209.84,-47558.066
1314653.7112687102,-78297.484,-110423.47,-42420.29,-57393.027,-131236.61,-41968.223,-42199.26,-47544.883
1314653.715268706,-78272.46,-110397.016,-42392.78,-57368.45,-131217.4,-41947.31,-42168.133,-47504.438
1314653.719268702,-78259.32,-110379.44,-42378.258,-57354.777,-131204.88,-41937.38,-42153.16,-47477.176
1314653.7232686977,-78274.945,-110389.65,-42395.71,-57370.04,-131212.25,-41950.4,-42168.5,-47497.76
1314653.7272686937,-78304.41,-110417.12,-42420.207,-57394.207,-131233.4,-41972.008,-42191.0,-47520.062
1314653.7312686895,-78299.52,-110416.67,-42415.0,-57390.586,-131233.61,-41970.906,-42182.78,-47504.76
1314653.7352686853,-78269.66,-110388.67,-42386.312,-57365.03,-131211.22,-41948.527,-42153.08,-47479.82
1314653.7392686813,-78258.79,-110375.25,-42375.652,-57353.926,-131200.84,-41938.438,-42143.434,-47465.78
1314653.743268677,-78281.086,-110394.78,-42396.812,-57372.355,-131216.44,-41954.836,-42160.32,-47474.246
1314653.747268673,-78311.93,-110421.8,-42423.42,-57395.02,-131239.88,-41975.953,-42180.992,-47491.945
1314653.7512686688,-78308.35,-110417.85,-42418.01,-57392.215,-131235.6,-41972.008,-42170.9,-47468.75
1314653.7552686648,-78277.34,-110384.36,-42388.754,-57368.33,-131210.2,-41948.406,-42137.086,-47432.742
1314653.7592686606,-78264.04,-110366.664,-42375.246,-57354.37,-131197.67,-41936.85,-42126.14,-47428.223
1314653.7632686566,-78284.43,-110385.79,-42393.066,-57369.426,-131207.77,-41951.742,-42146.363,-47449.3
1314653.7672686523,-78311.08,-110406.82,-42417.4,-57390.832,-131222.38,-41971.965,-42168.863,-47464.844
1314653.7712686483,-78306.766,-110401.94,-42412.723,-57385.742,-131220.7,-41968.26,-42166.098,-47461.184
1314653.775268644,-78281.13,-110379.11,-42386.76,-57362.51,-131203.5,-41947.51,-42145.184,-47439.82
1314653.7792686399,-78274.17,-110371.95,-42377.973,-57352.785,-131195.08,-41940.473,-42140.543,-47435.47
1314653.7832686359,-78304.61,-110400.64,-42402.508,-57371.664,-131209.6,-41956.383,-42163.656,-47453.98
1314653.7872686316,-78335.01,-110431.08,-42429.605,-57395.633,-131226.64,-41974.12,-42185.59,-47475.426
1314653.7912686276,-78330.164,-110425.5,-42426.434,-57393.066,-131223.64,-41969.484,-42183.023,-47482.547
1314653.7952686234,-78301.03,-110394.17,-42399.293,-57367.8,-131202.28,-41948.082,-42161.094,-47464.56
1314653.7992686194,-78291.47,-110381.43,-42388.387,-57355.348,-131190.16,-41939.293,-42154.258,-47457.97
1314653.8032686152,-78315.31,-110402.14,-42409.668,-57372.887,-131211.22,-41956.668,-42175.336,-47483.195
1314653.8072686112,-78345.95,-110430.87,-42433.758,-57395.266,-131235.92,-41976.156,-42199.668,-47521.08
1314653.811268607,-78344.2,-110429.125,-42426.15,-57392.906,-131234.42,-41970.62,-42193.81,-47521.812
1314653.8152686027,-78313.36,-110397.51,-42399.008,-57368.816,-131211.84,-41947.266,-42164.39,-47476.277
1314653.8192685987,-78303.55,-110388.836,-42390.465,-57357.42,-131199.88,-41937.625,-42153.363,-47464.684
1314653.8232685945,-78333.055,-110417.484,-42413.82,-57375.773,-131218.27,-41953.98,-42173.83,-47489.79
1314653.8272685905,-78361.375,-110439.62,-42437.99,-57397.383,-131241.02,-41974.246,-42195.11,-47511.152
1314653.8312685862,-78353.72,-110428.06,-42428.957,-57392.66,-131235.8,-41970.5,-42187.906,-47507.203
1314653.8352685822,-78317.63,-110389.98,-42395.59,-57366.008,-131214.11,-41947.957,-42159.26,-47473.836
1314653.839268578,-78309.98,-110381.11,-42384.117,-57355.957,-131205.45,-41938.273,-42147.586,-47453.86
1314653.843268574,-78332.12,-110401.414,-42405.56,-57375.816,-131220.98,-41955.934,-42171.305,-47479.004
1314653.8472685697,-78354.414,-110419.56,-42429.566,-57396.203,-131234.9,-41975.832,-42194.297,-47507.895
1314653.8512685655,-78353.15,-110414.76,-42425.58,-57390.707,-131228.48,-41970.746,-42183.92,-47490.36
1314653.8552685615,-78326.17,-110387.05,-42397.867,-57365.887,-131208.38,-41947.105,-42155.03,-47458.78
1314653.8592685573,-78309.77,-110372.766,-42385.824,-57355.594,-131196.05,-41939.58,-42147.707,-47447.633
1314653.8632685533,-78339.03,-110399.664,-42411.664,-57377.566,-131218.88,-41955.934,-42168.863,-47467.33
1314653.867268549,-78374.15,-110429.37,-42437.34,-57401.574,-131242.84,-41973.227,-42187.664,-47487.1
1314653.871268545,-78365.6,-110422.85,-42427.043,-57394.207,-131235.23,-41966.39,-42178.47,-47481.855
1314653.8752685408,-78330.77,-110393.72,-42399.54,-57369.793,-131211.64,-41944.38,-42155.316,-47465.7
1314653.8792685368,-78325.85,-110385.22,-42394.98,-57361.74,-131201.45,-41936.44,-42148.195,-47458.05
1314653.8832685326,-78354.86,-110407.59,-42419.23,-57379.723,-131216.47,-41954.227,-42167.48,-47472.008
1314653.8872685283,-78382.86,-110435.305,-42440.27,-57401.734,-131241.17,-41974.977,-42189.008,-47496.22
1314653.8912685243,-78378.54,-110428.35,-42433.555,-57398.156,-131241.75,-41968.06,-42181.152,-47492.72
1314653.89526852,-78344.65,-110396.24,-42405.355,-57374.72,-131218.62,-41945.23,-42156.375,-47459.92
1314653.899268516,-78336.67,-110385.7,-42399.863,-57365.723,-131208.17,-41936.523,-42153.08,-47463.055
1314653.9032685119,-78367.39,-110411.87,-42424.97,-57385.906,-131225.47,-41953.207,-42178.63,-47496.91
1314653.9072685079,-78397.79,-110441.82,-42449.18,-57406.902,-131246.27,-41975.14,-42204.918,-47530.723
1314653.9112685036,-78391.08,-110434.86,-42439.656,-57399.336,-131240.77,-41969.727,-42195.516,-47515.586
1314653.9152684996,-78354.54,-110397.79,-42408.203,-57372.113,-131214.64,-41946.37,-42164.43,-47471.68
1314653.9192684954,-78340.09,-110380.336,-42394.45,-57359.17,-131201.25,-41936.523,-42153.445,-47461.062
1314653.9232684912,-78370.08,-110399.664,-42419.11,-57377.688,-131212.4,-41953.777,-42172.895,-47484.785
1314653.9272684872,-78395.67,-110419.4,-42441.53,-57399.09,-131223.27,-41974.855,-42196.13,-47508.223
1314653.931268483,-78379.195,-110408.37,-42428.426,-57392.254,-131214.03,-41970.5,-42189.78,-47498.66
1314653.935268479,-78348.35,-110380.91,-42399.375,-57367.23,-131189.53,-41947.43,-42157.88,-47448.203
1314653.9392684747,-78345.5,-110373.78,-42392.66,-57359.418,-131181.97,-41938.76,-42144.613,-47428.223
1314653.9432684707,-78375.734,-110397.305,-42419.027,-57380.25,-131199.19,-41957.438,-42165.812,-47450.93
1314653.9472684665,-78400.64,-110416.55,-42443.117,-57401.652,-131217.5,-41975.383,-42185.953,-47470.95
1314653.9512684625,-78391.89,-110410.0,-42432.008,-57395.508,-131215.05,-41967.125,-42176.35,-47463.83
1314653.9552684582,-78356.24,-110379.88,-42398.355,-57367.84,-131193.33,-41942.508,-42149.54,-47438.273
1314653.959268454,-78347.62,-110373.336,-42390.42,-57357.832,-131187.3,-41934.125,-42145.223,-47433.96
1314653.96326845,-78375.98,-110401.414,-42413.21,-57378.01,-131203.86,-41952.68,-42170.086,-47461.426
1314653.9672684458,-78403.12,-110419.68,-42437.418,-57400.434,-131219.69,-41975.14,-42195.68,-47481.812
1314653.9712684418,-78397.34,-110407.96,-42433.92,-57395.59,-131212.4,-41970.906,-42189.7,-47461.1
1314653.9752684375,-78370.89,-110382.45,-42407.188,-57372.64,-131196.73,-41949.016,-42162.68,-47434.45
1314653.9792684335,-78362.47,-110378.79,-42397.746,-57363.85,-131194.95,-41943.562,-42156.617,-47441.12
1314653.9832684293,-78389.57,-110404.55,-42420.9,-57382.203,-131215.66,-41962.16,-42179.324,-47479.574
1314653.9872684253,-78422.0,-110432.984,-42446.574,-57405.723,-131233.69,-41979.086,-42195.68,-47504.273
1314653.991268421,-78414.02,-110426.27,-42437.297,-57400.92,-131227.42,-41970.95,-42179.85,-47478.598
1314653.9952684168,-78384.195,-110393.64,-42408.895,-57374.594,-131202.36,-41944.46,-42147.055,-47437.582
1314653.9992684128,-78379.56,-110380.945,-42403.65,-57364.91,-131192.22,-41933.434,-42139.445,-47438.52
1314654.0032684086,-78407.23,-110402.06,-42428.062,-57385.46,-131208.62,-41952.92,-42169.11,-47489.137
1314654.0072684046,-78434.2,-110427.53,-42452.19,-57409.223,-131228.8,-41971.723,-42192.953,-47514.57
1314654.0112684004,-78426.07,-110419.36,-42444.867,-57403.32,-131225.92,-41965.09,-42183.105,-47492.555
1314654.0152683964,-78399.87,-110392.625,-42417.195,-57379.76,-131207.53,-41943.44,-42156.58,-47453.695
1314654.0192683921,-78388.39,-110379.68,-42405.64,-57370.77,-131199.1,-41938.07,-42150.84,-47440.676
1314654.0232683881,-78403.37,-110396.9,-42422.77,-57386.598,-131211.92,-41957.48,-42173.098,-47461.1
1314654.027268384,-78424.64,-110418.46,-42440.836,-57406.047,-131226.16,-41976.074,-42195.23,-47483.48
1314654.0312683797,-78423.95,-110416.836,-42434.164,-57403.402,-131224.86,-41970.297,-42187.46,-47465.496
1314654.0352683757,-78399.13,-110385.38,-42406.78,-57379.68,-131210.1,-41946.98,-42160.402,-47424.4
1314654.0392683714,-78393.84,-110372.766,-42398.074,-57372.277,-131205.58,-41939.453,-42158.734,-47441.45
1314654.0432683674,-78423.55,-110397.95,-42424.234,-57391.48,-131224.2,-41958.008,-42183.105,-47476.36
1314654.0472683632,-78446.695,-110417.81,-42449.504,-57412.19,-131245.53,-41976.688,-42203.695,-47499.96
1314654.0512683592,-78435.59,-110407.68,-42441.285,-57406.375,-131238.61,-41968.668,-42193.973,-47497.234
1314654.055268355,-78407.02,-110379.97,-42415.406,-57382.45,-131213.17,-41944.38,-42162.516,-47455.527
1314654.059268351,-78405.93,-110380.86,-42410.81,-57375.855,-131207.53,-41938.234,-42149.414,-47428.836
1314654.0632683467,-78435.305,-110407.59,-42435.387,-57397.22,-131227.75,-41958.21,-42167.684,-47446.168
1314654.0672683425,-78456.664,-110427.125,-42455.08,-57415.406,-131244.27,-41977.582,-42186.973,-47475.06
1314654.0712683385,-78444.87,-110417.766,-42444.582,-57405.684,-131239.19,-41970.703,-42172.69,-47445.64
1314654.0752683342,-78415.81,-110390.67,-42414.957,-57378.418,-131218.55,-41946.656,-42141.766,-47411.055
1314654.0792683302,-78411.625,-110380.74,-42408.61,-57369.754,-131211.84,-41939.82,-42133.18,-47405.965
1314654.083268326,-78434.53,-110398.36,-42429.527,-57389.0,-131226.2,-41960.33,-42158.895,-47432.414
1314654.087268322,-78455.89,-110420.17,-42449.137,-57408.082,-131245.45,-41978.844,-42180.34,-47458.09
1314654.0912683178,-78443.24,-110410.52,-42438.19,-57401.53,-131241.14,-41969.727,-42169.56,-47440.023
1314654.0952683138,-78417.97,-110385.99,-42412.516,-57377.727,-131219.36,-41945.56,-42141.97,-47412.56
1314654.0992683095,-78420.78,-110383.38,-42411.05,-57372.805,-131219.56,-41940.188,-42139.363,-47421.875
1314654.1032683053,-78446.45,-110406.414,-42435.06,-57391.848,-131239.3,-41959.23,-42167.48,-47463.867
1314654.1072683013,-78476.12,-110432.5,-42459.598,-57413.332,-131260.17,-41977.62,-42189.414,-47493.938
1314654.111268297,-78470.13,-110428.15,-42449.344,-57410.08,-131257.48,-41969.645,-42177.043,-47481.242
1314654.115268293,-78442.14,-110405.52,-42419.15,-57384.277,-131237.95,-41942.383,-42143.96,-47443.973
1314654.1192682888,-78436.73,-110397.51,-42413.414,-57374.676,-131227.58,-41932.863,-42129.8,-47430.016
1314654.1232682848,-78467.164,-110418.945,-42441.53,-57396.484,-131238.81,-41952.8,-42149.742,-47451.742
1314654.1272682806,-78495.85,-110444.016,-42466.27,-57418.05,-131257.69,-41970.867,-42164.797,-47467.734
1314654.1312682766,-78487.59,-110437.99,-42456.543,-57410.32,-131253.98,-41963.785,-42148.64,-47455.406
1314654.1352682724,-78451.26,-110403.28,-42425.7,-57383.87,-131233.4,-41941.164,-42119.02,-47437.42
1314654.1392682681,-78439.5,-110390.06,-42419.273,-57376.465,-131227.47,-41932.984,-42107.625,-47409.832
1314654.1432682641,-78469.89,-110411.3,-42445.395,-57395.918,-131240.73,-41950.44,-42131.39,-47448.445
1314654.14726826,-78498.01,-110437.3,-42466.473,-57416.914,-131261.52,-41969.688,-42156.332,-47505.37
1314654.151268256,-78482.18,-110425.984,-42451.375,-57406.984,-131249.39,-41960.9,-42147.664,-47499.96
1314654.1552682517,-78446.54,-110387.82,-42419.883,-57381.758,-131218.14,-41938.438,-42119.67,-47458.457
1314654.1592682477,-78443.24,-110377.52,-42415.406,-57375.285,-131208.25,-41930.992,-42113.406,-47446.047
1314654.1632682434,-78472.25,-110404.3,-42441.043,-57397.18,-131228.52,-41949.098,-42142.58,-47485.027
1314654.1672682394,-78498.336,-110430.664,-42462.445,-57418.457,-131253.22,-41967.45,-42164.754,-47513.51
1314654.1712682352,-78491.3,-110428.51,-42451.254,-57410.117,-131251.39,-41959.88,-42150.434,-47495.605
1314654.175268231,-78466.15,-110407.07,-42425.984,-57385.215,-131226.56,-41936.08,-42120.242,-47469.24
1314654.179268227,-78467.29,-110404.34,-42424.277,-57380.37,-131221.11,-41929.812,-42115.03,-47462.89
1314654.1832682227,-78498.82,-110431.69,-42451.457,-57402.387,-131238.94,-41949.668,-42141.645,-47488.61
1314654.1872682187,-78524.13,-110451.54,-42473.51,-57422.61,-131254.23,-41967.41,-42160.89,-47509.81
1314654.1912682145,-78514.445,-110441.086,-42463.258,-57413.414,-131245.89,-41956.055,-42141.887,-47487.43
1314654.1952682105,-78491.78,-110418.46,-42436.973,-57389.895,-131230.11,-41929.484,-42104.453,-47437.215
1314654.1992682063,-78489.42,-110410.98,-42431.316,-57384.484,-131229.73,-41922.04,-42097.21,-47437.01
1314654.2032682023,-78517.336,-110433.39,-42455.77,-57405.887,-131244.95,-41942.547,-42124.023,-47466.797
1314654.207268198,-78537.6,-110455.24,-42477.664,-57425.17,-131262.05,-41959.72,-42147.3,-47490.03
1314654.211268194,-78521.81,-110441.77,-42465.617,-57417.605,-131248.25,-41951.133,-42139.242,-47470.99
1314654.2152681898,-78490.03,-110411.7,-42433.555,-57390.586,-131221.28,-41926.758,-42111.656,-47428.266
1314654.2192681856,-78483.93,-110407.43,-42426.84,-57381.633,-131221.72,-41922.242,-42111.086,-47443.93
1314654.2232681816,-78511.766,-110427.82,-42452.23,-57401.734,-131240.89,-41942.71,-42137.695,-47471.316
1314654.2272681773,-78532.31,-110441.734,-42472.13,-57420.41,-131252.2,-41961.63,-42155.477,-47477.094
1314654.2312681733,-78518.48,-110427.984,-42458.78,-57410.117,-131239.75,-41953.207,-42137.74,-47440.676
1314654.235268169,-78485.6,-110392.78,-42429.242,-57383.668,-131216.52,-41928.754,-42106.16,-47409.1
1314654.239268165,-78477.99,-110383.586,-42424.645,-57376.63,-131208.3,-41923.586,-42102.99,-47410.89
1314654.2432681608,-78511.11,-110412.88,-42450.074,-57399.375,-131228.03,-41945.152,-42134.727,-47450.523
1314654.2472681568,-78538.695,-110438.32,-42472.984,-57421.023,-131246.67,-41963.176,-42155.19,-47460.492
1314654.2512681526,-78526.414,-110425.26,-42460.086,-57411.582,-131233.28,-41957.766,-42156.617,-47483.48
1314654.2552681484,-78494.75,-110396.57,-42430.38,-57386.8,-131211.6,-41934.49,-42134.32,-47459.8
1314654.2592681444,-78491.336,-110392.58,-42423.953,-57381.023,-131208.55,-41929.566,-42130.94,-47457.805
1314654.2632681401,-78518.07,-110411.87,-42446.777,-57401.004,-131222.94,-41950.36,-42158.45,-47485.965
1314654.2672681361,-78540.81,-110431.234,-42469.156,-57419.92,-131236.9,-41968.387,-42181.316,-47498.496
1314654.271268132,-78530.36,-110420.695,-42455.61,-57409.875,-131224.78,-41956.543,-42165.977,-47484.01
1314654.275268128,-78503.3,-110391.766,-42428.223,-57385.5,-131204.11,-41932.863,-42135.01,-47450.93
1314654.2792681237,-78504.07,-110385.625,-42426.92,-57381.88,-131201.05,-41927.246,-42130.25,-47444.38
1314654.2832681197,-78541.586,-110415.695,-42454.266,-57404.137,-131222.62,-41945.07,-42152.59,-47468.63
1314654.2872681154,-78573.29,-110445.766,-42478.516,-57426.516,-131250.05,-41962.117,-42171.1,-47486.777
1314654.2912681112,-78562.91,-110439.7,-42465.496,-57417.48,-131248.22,-41950.24,-42153.363,-47462.65
1314654.2952681072,-78535.73,-110413.82,-42439.58,-57393.15,-131226.97,-41923.016,-42125.125,-47441.773
1314654.299268103,-78535.65,-110410.65,-42436.65,-57390.137,-131226.36,-41919.395,-42125.652,-47444.746
1314654.303268099,-78564.01,-110431.52,-42461.67,-57412.805,-131247.48,-41941.69,-42155.52,-47469.363
1314654.3072680947,-78582.12,-110447.02,-42484.336,-57431.316,-131264.61,-41960.004,-42179.402,-47490.805
1314654.3112680907,-78567.06,-110433.92,-42469.24,-57420.492,-131254.84,-41952.35,-42169.8,-47473.066
1314654.3152680865,-78529.13,-110398.73,-42435.996,-57391.277,-131228.97,-41929.28,-42147.95,-47452.395
1314654.3192680825,-78518.76,-110393.03,-42430.016,-57381.676,-131218.11,-41926.92,-42151.53,-47455.12
1314654.3232680783,-78556.64,-110427.375,-42458.17,-57406.58,-131236.98,-41949.465,-42180.79,-47482.465
1314654.327268074,-78581.1,-110448.04,-42478.355,-57426.027,-131252.08,-41966.188,-42203.74,-47511.23
1314654.33126807,-78565.39,-110431.89,-42467.41,-57414.39,-131242.06,-41956.87,-42193.277,-47494.957
1314654.3352680658,-78537.84,-110405.234,-42441.367,-57390.098,-131223.44,-41934.41,-42165.0,-47449.832
1314654.3392680618,-78537.44,-110401.695,-42440.43,-57384.32,-131212.48,-41932.375,-42166.992,-47464.195
1314654.3432680576,-78568.484,-110426.6,-42466.84,-57404.137,-131229.02,-41953.574,-42191.773,-47489.91
1314654.3472680536,-78588.42,-110444.336,-42485.27,-57422.773,-131248.02,-41971.965,-42209.96,-47509.93
1314654.3512680493,-78578.05,-110431.6,-42470.867,-57412.965,-131234.9,-41963.992,-42196.902,-47502.117
1314654.3552680453,-78548.38,-110401.086,-42439.656,-57388.957,-131216.56,-41939.656,-42166.63,-47462.688
1314654.359268041,-78541.1,-110394.375,-42432.535,-57382.043,-131213.02,-41933.676,-42159.63,-47444.785
1314654.3632680369,-78568.08,-110420.29,-42455.895,-57402.223,-131229.9,-41954.996,-42184.49,-47479.98
1314654.3672680329,-78593.586,-110442.34,-42477.094,-57423.383,-131241.55,-41972.21,-42199.87,-47490.195
1314654.3712680286,-78578.78,-110423.266,-42463.504,-57413.617,-131224.4,-41959.8,-42179.445,-47450.44
1314654.3752680246,-78550.336,-110394.58,-42436.402,-57389.773,-131206.75,-41937.95,-42155.113,-47416.79
1314654.3792680204,-78547.734,-110390.586,-42433.434,-57385.05,-131208.86,-41936.484,-42162.965,-47437.01
1314654.3832680164,-78579.266,-110419.27,-42459.88,-57407.473,-131231.48,-41956.95,-42193.24,-47480.51
1314654.3872680122,-78602.586,-110441.57,-42479.41,-57424.93,-131245.28,-41971.07,-42209.312,-47502.93
1314654.3912680082,-78588.79,-110425.5,-42465.13,-57413.617,-131234.02,-41956.79,-42189.58,-47476.89
1314654.395268004,-78560.47,-110391.89,-42438.113,-57387.74,-131210.78,-41933.066,-42163.574,-47441.57
1314654.3992679997,-78562.87,-110391.16,-42438.234,-57385.254,-131211.02,-41931.195,-42165.73,-47439.863
1314654.4032679957,-78588.22,-110417.97,-42463.137,-57407.066,-131235.36,-41952.68,-42194.094,-47481.61
1314654.4072679915,-78612.555,-110441.86,-42483.316,-57427.574,-131252.89,-41970.176,-42213.707,-47515.22
1314654.4112679875,-78604.78,-110433.44,-42470.95,-57417.277,-131243.94,-41958.457,-42196.332,-47494.67
1314654.4152679832,-78575.4,-110403.734,-42443.074,-57391.727,-131224.08,-41934.125,-42168.824,-47460.29
1314654.4192679792,-78574.1,-110402.266,-42438.64,-57387.82,-131224.73,-41931.52,-42174.645,-47468.14
1314654.423267975,-78601.36,-110427.17,-42463.83,-57410.44,-131245.48,-41952.395,-42206.543,-47510.336
1314654.427267971,-78622.64,-110445.97,-42484.05,-57428.836,-131259.53,-41968.465,-42226.035,-47534.383
1314654.4312679667,-78608.69,-110429.37,-42469.973,-57416.426,-131243.73,-41959.15,-42213.137,-47517.375
1314654.4352679625,-78573.29,-110396.0,-42438.316,-57388.062,-131215.83,-41935.344,-42188.19,-47490.887
1314654.4392679585,-78570.44,-110390.914,-42435.71,-57384.117,-131211.22,-41931.52,-42187.867,-47492.312
1314654.4432679543,-78598.68,-110412.16,-42461.305,-57406.09,-131231.45,-41955.69,-42215.09,-47513.957
1314654.4472679503,-78620.04,-110428.96,-42480.918,-57424.44,-131247.31,-41971.805,-42231.082,-47533.043
1314654.451267946,-78607.95,-110422.08,-42464.926,-57413.902,-131240.81,-41960.29,-42211.914,-47516.727
1314654.455267942,-78581.016,-110402.39,-42435.184,-57390.06,-131224.25,-41934.33,-42175.336,-47467.33
1314654.4592679378,-78584.44,-110403.37,-42435.02,-57387.94,-131223.64,-41931.234,-42167.645,-47459.676
1314654.4632679338,-78616.984,-110427.78,-42464.887,-57410.77,-131238.61,-41954.59,-42193.766,-47494.71
1314654.4672679296,-78638.19,-110441.125,-42482.586,-57427.37,-131246.02,-41968.71,-42210.53,-47515.22
1314654.4712679253,-78620.2,-110422.49,-42466.39,-57415.812,-131236.78,-41957.645,-42198.69,-47506.715
1314654.4752679213,-78584.35,-110388.8,-42435.914,-57390.504,-131215.98,-41934.285,-42169.68,-47469.32
1314654.479267917,-78590.66,-110392.625,-42435.344,-57388.184,-131216.39,-41931.03,-42165.203,-47459.516
1314654.483267913,-78628.26,-110427.734,-42463.016,-57413.047,-131244.27,-41951.05,-42189.7,-47476.36
1314654.4872679089,-78645.39,-110441.33,-42478.92,-57430.504,-131260.14,-41965.09,-42206.586,-47483.93
1314654.4912679049,-78625.81,-110420.9,-42461.1,-57418.215,-131246.1,-41954.633,-42191.57,-47459.676
1314654.4952679006,-78592.61,-110390.79,-42431.4,-57393.066,-131221.28,-41934.855,-42168.742,-47436.484
1314654.4992678966,-78592.49,-110389.695,-42427.492,-57390.016,-131219.28,-41933.92,-42170.086,-47439.74
1314654.5032678924,-78617.11,-110411.38,-42451.824,-57409.914,-131236.33,-41955.61,-42199.465,-47481.69
1314654.5072678882,-78641.234,-110432.74,-42472.574,-57427.33,-131251.02,-41969.688,-42212.688,-47494.63
1314654.5112678842,-78631.92,-110422.57,-42457.848,-57416.344,-131242.23,-41957.848,-42196.332,-47470.258
1314654.51526788,-78603.84,-110392.336,-42431.684,-57390.625,-131221.77,-41933.72,-42168.863,-47444.01
1314654.519267876,-78604.66,-110389.0,-42432.332,-57388.227,-131217.9,-41932.21,-42170.492,-47455.363
1314654.5232678717,-78634.56,-110411.664,-42461.266,-57412.68,-131234.45,-41955.28,-42195.883,-47480.633
1314654.5272678677,-78656.984,-110434.82,-42482.383,-57430.258,-131251.55,-41970.38,-42210.207,-47496.016
1314654.5312678635,-78646.53,-110428.8,-42468.305,-57420.574,-131244.55,-41957.48,-42194.664,-47490.805
1314654.5352678595,-78615.805,-110397.34,-42440.676,-57394.613,-131218.14,-41933.434,-42167.645,-47457.766
1314654.5392678552,-78616.62,-110388.43,-42442.71,-57391.523,-131212.16,-41931.4,-42171.184,-47459.555
1314654.543267851,-78646.0,-110416.305,-42471.07,-57413.78,-131236.05,-41953.004,-42203.74,-47493.574
1314654.547267847,-78666.875,-110436.85,-42488.73,-57430.707,-131253.06,-41969.89,-42228.152,-47511.965
1314654.5512678428,-78649.375,-110423.14,-42472.656,-57418.99,-131247.0,-41960.29,-42219.117,-47491.496
1314654.5552678388,-78617.88,-110391.195,-42442.87,-57392.58,-131225.06,-41937.258,-42196.74,-47475.914
1314654.5592678345,-78622.03,-110388.11,-42442.586,-57390.016,-131217.58,-41934.773,-42194.664,-47467.125
1314654.5632678305,-78653.12,-110412.48,-42470.094,-57413.086,-131235.64,-41956.18,-42219.484,-47487.43
1314654.5672678263,-78671.35,-110431.484,-42489.664,-57431.36,-131249.84,-41971.52,-42236.168,-47510.01
1314654.5712678223,-78657.72,-110419.68,-42475.098,-57421.43,-131241.02,-41959.27,-42218.18,-47487.875
1314654.575267818,-78633.55,-110394.53,-42448.773,-57398.926,-131224.66,-41934.9,-42185.59,-47444.703
1314654.5792678138,-78633.38,-110389.77,-42446.574,-57395.633,-131221.92,-41930.38,-42178.508,-47431.152
1314654.5832678098,-78657.39,-110409.914,-42470.297,-57417.035,-131242.72,-41952.883,-42202.637,-47467.613
1314654.5872678056,-78664.43,-110418.5,-42484.05,-57430.87,-131246.83,-41967.0,-42213.95,-47478.926
1314654.5912678016,-78645.02,-110403.164,-42463.95,-57416.75,-131228.92,-41953.41,-42187.137,-47433.96
1314654.5952677974,-78626.38,-110382.86,-42436.523,-57393.84,-131211.92,-41929.77,-42157.633,-47396.363
1314654.5992677934,-78632.164,-110388.72,-42436.89,-57393.273,-131217.86,-41927.207,-42160.727,-47410.117
1314654.6032677891,-78662.56,-110421.1,-42464.844,-57419.07,-131247.11,-41950.24,-42189.09,-47449.91
1314654.6072677851,-78688.27,-110446.7,-42485.35,-57438.4,-131263.34,-41965.21,-42205.973,-47479.37
1314654.611267781,-78673.38,-110431.16,-42471.355,-57426.23,-131249.19,-41953.574,-42190.188,-47457.156
1314654.6152677767,-78639.81,-110397.914,-42442.87,-57399.902,-131222.58,-41931.6,-42164.266,-47424.36
1314654.6192677727,-78642.5,-110397.664,-42445.027,-57399.293,-131221.81,-41930.3,-42164.836,-47427.125
1314654.6232677684,-78675.664,-110424.445,-42474.246,-57421.266,-131243.73,-41951.375,-42192.426,-47456.707
1314654.6272677644,-78693.766,-110441.98,-42490.03,-57437.38,-131253.62,-41966.473,-42209.758,-47492.11
1314654.6312677602,-78676.44,-110428.71,-42472.984,-57426.555,-131241.34,-41952.273,-42187.664,-47466.594
1314654.6352677562,-78651.0,-110407.27,-42446.047,-57402.59,-131221.81,-41929.117,-42159.87,-47429.04
1314654.639267752,-78656.17,-110408.695,-42448.895,-57402.793,-131222.86,-41929.324,-42168.215,-47442.668
1314654.643267748,-78686.69,-110433.234,-42477.457,-57426.92,-131243.25,-41953.574,-42204.348,-47484.99
1314654.6472677437,-78708.09,-110450.12,-42494.67,-57443.688,-131256.19,-41970.543,-42225.63,-47499.88
1314654.6512677397,-78696.414,-110438.805,-42477.785,-57430.383,-131246.7,-41958.05,-42210.164,-47481.203
1314654.6552677355,-78668.87,-110412.36,-42450.44,-57406.047,-131228.44,-41934.246,-42182.82,-47442.26
1314654.6592677312,-78663.21,-110402.34,-42448.812,-57402.996,-131223.84,-41934.082,-42183.066,-47429.89
1314654.6632677272,-78688.44,-110423.47,-42472.74,-57423.707,-131237.47,-41957.36,-42211.062,-47456.707
1314654.667267723,-78702.35,-110439.74,-42486.246,-57436.566,-131242.52,-41973.227,-42229.29,-47479.777
1314654.671267719,-78688.11,-110428.39,-42468.18,-57422.57,-131228.52,-41961.832,-42215.332,-47470.582
1314654.6752677148,-78661.13,-110399.664,-42441.938,-57396.73,-131202.89,-41938.273,-42190.188,-47438.113
1314654.6792677108,-78659.63,-110395.39,-42441.69,-57395.062,-131196.58,-41935.344,-42192.098,-47445.312
1314654.6832677065,-78689.45,-110421.19,-42470.746,-57421.67,-131218.52,-41955.445,-42218.59,-47477.785
1314654.6872677025,-78715.7,-110447.59,-42489.543,-57440.84,-131239.1,-41967.41,-42230.47,-47485.555
1314654.6912676983,-78706.18,-110443.484,-42475.87,-57430.055,-131234.34,-41954.633,-42216.84,-47472.82
1314654.695267694,-78679.89,-110418.74,-42449.992,-57406.293,-131214.36,-41933.96,-42195.19,-47451.418
1314654.69926769,-78686.04,-110420.984,-42451.824,-57406.09,-131217.3,-41934.9,-42195.395,-47441.938
1314654.7032676858,-78718.47,-110451.17,-42480.062,-57428.633,-131243.05,-41956.625,-42222.74,-47485.84
1314654.7072676818,-78734.87,-110466.76,-42494.06,-57443.44,-131258.75,-41970.01,-42231.934,-47502.81
1314654.7112676776,-78713.46,-110445.68,-42473.39,-57429.12,-131243.17,-41954.266,-42203.86,-47475.426
1314654.7152676736,-78683.11,-110414.76,-42443.484,-57404.258,-131220.7,-41929.566,-42171.793,-47445.965
1314654.7192676694,-78691.37,-110423.55,-42445.844,-57405.355,-131222.38,-41926.84,-42163.777,-47435.02
1314654.7232676654,-78728.195,-110457.6,-42476.44,-57432.293,-131247.11,-41948.527,-42182.047,-47445.723
1314654.7272676611,-78745.164,-110470.87,-42492.92,-57447.145,-131256.31,-41963.38,-42193.44,-47457.562
1314654.731267657,-78719.65,-110448.61,-42473.023,-57431.36,-131240.69,-41951.66,-42174.645,-47431.316
1314654.735267653,-78691.0,-110420.86,-42447.266,-57407.51,-131222.83,-41928.63,-42144.938,-47383.79
1314654.7392676487,-78696.66,-110421.39,-42450.727,-57408.0,-131224.12,-41928.14,-42152.996,-47393.965
1314654.7432676447,-78724.33,-110443.69,-42476.2,-57432.254,-131243.25,-41950.645,-42186.28,-47427.777
1314654.7472676404,-78740.12,-110458.375,-42488.65,-57447.473,-131257.98,-41967.855,-42206.098,-47437.42
1314654.7512676364,-78723.72,-110441.77,-42470.867,-57434.53,-131247.48,-41956.543,-42196.004,-47433.758
1314654.7552676322,-78699.1,-110415.2,-42446.047,-57410.727,-131225.14,-41936.973,-42175.17,-47415.61
1314654.7592676282,-78700.6,-110412.766,-42447.754,-57410.89,-131225.8,-41936.484,-42180.094,-47417.89
1314654.763267624,-78731.77,-110438.97,-42475.668,-57435.793,-131252.53,-41957.316,-42209.72,-47448.527
1314654.7672676197,-78748.17,-110456.83,-42490.48,-57449.79,-131270.03,-41971.395,-42224.773,-47472.7
1314654.7712676157,-78729.125,-110441.125,-42470.95,-57435.547,-131258.92,-41955.363,-42204.43,-47456.87
1314654.7752676115,-78709.07,-110422.85,-42446.29,-57413.13,-131241.62,-41930.95,-42175.863,-47416.953
1314654.7792676075,-78713.7,-110424.56,-42447.633,-57412.56,-131243.25,-41931.97,-42182.254,-47431.562
1314654.7832676033,-78742.48,-110448.0,-42474.406,-57435.184,-131261.84,-41958.58,-42216.715,-47486.41
1314654.7872675993,-78761.805,-110460.58,-42491.66,-57449.383,-131269.98,-41973.633,-42231.69,-47491.902
1314654.791267595,-78748.375,-110444.99,-42474.45,-57436.77,-131253.67,-41959.758,-42208.824,-47455.12
1314654.795267591,-78718.75,-110413.74,-42446.535,-57414.39,-131232.1,-41937.01,-42180.258,-47418.824
1314654.7992675868,-78718.266,-110408.57,-42447.51,-57415.49,-131233.33,-41936.89,-42185.305,-47437.664
1314654.8032675826,-78749.836,-110434.49,-42474.61,-57439.375,-131254.16,-41957.766,-42218.63,-47497.6
1314654.8072675786,-78769.21,-110455.734,-42489.504,-57453.98,-131269.5,-41969.035,-42230.67,-47513.67
1314654.8112675743,-78750.45,-110449.586,-42470.094,-57439.863,-131259.73,-41954.793,-42208.902,-47482.26
1314654.8152675703,-78722.375,-110426.805,-42440.836,-57415.527,-131239.34,-41930.137,-42175.496,-47442.668
1314654.819267566,-78733.65,-110429.69,-42444.54,-57416.426,-131242.97,-41928.223,-42168.62,-47432.293
1314654.823267562,-78773.44,-110458.42,-42476.277,-57441.33,-131267.45,-41950.035,-42187.418,-47453.37
1314654.8272675578,-78788.13,-110474.125,-42490.926,-57456.91,-131282.84,-41966.594,-42201.05,-47482.137
1314654.8312675538,-78763.47,-110452.35,-42472.21,-57441.816,-131270.84,-41953.168,-42181.438,-47475.75
1314654.8352675496,-78736.62,-110425.46,-42447.797,-57419.273,-131249.27,-41930.91,-42151.207,-47438.844
1314654.8392675454,-78744.39,-110431.03,-42452.92,-57421.957,-131248.86,-41932.17,-42148.4,-47429.12
1314654.8432675414,-78775.59,-110462.04,-42479.453,-57446.656,-131276.1,-41954.227,-42169.883,-47455.73
1314654.8472675371,-78795.62,-110479.336,-42495.484,-57463.707,-131293.83,-41966.31,-42180.543,-47461.508
1314654.8512675331,-78775.8,-110459.19,-42475.832,-57448.49,-131278.12,-41951.58,-42161.54,-47443.562
1314654.855267529,-78745.69,-110431.4,-42445.72,-57422.445,-131253.06,-41929.566,-42133.344,-47411.906
1314654.859267525,-78746.79,-110430.38,-42446.168,-57423.75,-131252.4,-41932.863,-42133.22,-47401.777
1314654.8632675207,-78769.695,-110448.98,-42470.258,-57447.39,-131273.69,-41956.746,-42162.07,-47442.305
1314654.8672675167,-78787.88,-110462.61,-42484.215,-57461.02,-131280.97,-41967.45,-42171.145,-47452.68
1314654.8712675124,-78774.984,-110449.586,-42467.082,-57446.535,-131268.16,-41953.043,-42150.516,-47428.348
1314654.8752675082,-78741.5,-110418.13,-42438.68,-57420.82,-131252.08,-41931.152,-42126.344,-47400.594
1314654.8792675042,-78743.164,-110415.98,-42442.508,-57422.363,-131258.14,-41934.164,-42133.914,-47416.586
1314654.8832675,-78786.586,-110452.72,-42476.645,-57447.797,-131280.0,-41955.65,-42163.13,-47459.312
1314654.887267496,-78810.266,-110472.86,-42492.105,-57462.2,-131288.22,-41964.805,-42175.21,-47472.414
1314654.8912674917,-78788.49,-110455.734,-42470.664,-57446.656,-131272.14,-41951.01,-42161.05,-47465.047
1314654.8952674877,-78752.61,-110421.15,-42441.324,-57420.82,-131244.06,-41928.184,-42136.395,-47439.58
1314654.8992674835,-78754.516,-110420.05,-42442.71,-57422.527,-131239.19,-41927.86,-42139.16,-47442.18
1314654.9032674795,-78794.07,-110458.21,-42474.203,-57448.406,-131264.61,-41946.656,-42162.64,-47471.883
1314654.9072674753,-78820.36,-110484.7,-42493.855,-57464.52,-131279.17,-41956.22,-42174.562,-47493.613
1314654.911267471,-78798.1,-110461.836,-42473.51,-57448.367,-131263.6,-41943.117,-42158.45,-47480.55
1314654.915267467,-78758.625,-110427.78,-42440.88,-57422.203,-131243.38,-41920.656,-42131.062,-47437.703
1314654.9192674628,-78763.19,-110430.75,-42443.848,-57425.17,-131246.14,-41922.08,-42131.227,-47423.625
1314654.9232674588,-78795.33,-110460.375,-42472.414,-57449.344,-131266.23,-41944.133,-42156.656,-47445.76
1314654.9272674546,-78816.41,-110478.48,-42486.734,-57463.746,-131279.67,-41953.816,-42165.367,-47459.637
1314654.9312674506,-78803.55,-110463.42,-42470.418,-57450.645,-131266.77,-41937.094,-42135.867,-47416.016
1314654.9352674463,-78776.94,-110434.33,-42445.355,-57425.824,-131248.02,-41915.082,-42112.67,-47397.34
1314654.9392674423,-78783.04,-110435.1,-42452.23,-57428.145,-131251.19,-41919.516,-42128.176,-47419.477
1314654.943267438,-78821.45,-110467.94,-42482.34,-57455.895,-131269.7,-41942.914,-42164.145,-47454.754
1314654.9472674339,-78840.17,-110486.01,-42496.707,-57469.484,-131280.16,-41954.918,-42179.324,-47461.508
1314654.9512674299,-78819.055,-110466.19,-42475.098,-57451.336,-131263.72,-41937.215,-42157.758,-47432.13
1314654.9552674256,-78790.65,-110437.55,-42446.535,-57427.004,-131245.4,-41915.445,-42133.06,-47394.86
1314654.9592674216,-78798.875,-110444.83,-42450.645,-57429.484,-131249.8,-41920.207,-42145.1,-47414.31
1314654.9632674174,-78829.71,-110470.664,-42478.355,-57454.1,-131268.44,-41942.996,-42175.906,-47453.453
1314654.9672674134,-78842.98,-110481.04,-42492.637,-57467.41,-131277.31,-41956.137,-42189.58,-47465.617
1314654.9712674092,-78824.055,-110458.83,-42472.902,-57449.707,-131265.75,-41938.723,-42166.18,-47428.67
1314654.9752674052,-78797.41,-110433.234,-42448.49,-57426.35,-131248.7,-41917.277,-42145.348,-47413.574
1314654.979267401,-78810.1,-110445.07,-42457.562,-57431.113,-131253.02,-41920.453,-42156.7,-47431.074
1314654.9832673967,-78848.516,-110477.7,-42488.566,-57457.52,-131277.6,-41941.977,-42185.547,-47461.63
1314654.9872673927,-78857.47,-110488.77,-42502.117,-57470.664,-131290.94,-41956.707,-42203.125,-47481.445
1314654.9912673885,-78831.83,-110463.75,-42479.332,-57451.133,-131272.88,-41942.18,-42186.65,-47463.582
1314654.9952673845,-78808.88,-110438.89,-42452.273,-57425.824,-131248.75,-41918.457,-42164.55,-47445.355
1314654.9992673802,-78823.41,-110451.3,-42459.188,-57430.176,-131253.62,-41919.477,-42172.812,-47450.48
1314655.0032673762,-78863.69,-110488.695,-42490.805,-57456.83,-131277.34,-41942.63,-42209.27,-47493.33
1314655.007267372,-78879.36,-110503.38,-42504.152,-57469.85,-131290.53,-41952.8,-42224.855,-47512.453
1314655.011267368,-78854.695,-110480.47,-42478.68,-57452.965,-131277.02,-41936.605,-42201.703,-47483.195
1314655.0152673637,-78827.516,-110453.86,-42453.53,-57429.242,-131257.58,-41916.79,-42175.984,-47454.47
1314655.0192673595,-78833.58,-110457.32,-42460.086,-57432.617,-131260.3,-41920.816,-42178.836,-47457.48
1314655.0232673555,-78867.48,-110485.07,-42490.316,-57457.848,-131278.86,-41941.61,-42201.66,-47486.207
1314655.0272673513,-78886.68,-110502.0,-42502.484,-57470.785,-131289.23,-41951.05,-42209.72,-47492.555
1314655.0312673473,-78866.54,-110482.38,-42483.766,-57451.99,-131276.05,-41934.285,-42186.32,-47466.434
1314655.035267343,-78837.89,-110455.125,-42457.36,-57427.86,-131254.4,-41911.133,-42157.105,-47427.246
1314655.039267339,-78843.836,-110455.695,-42463.297,-57432.008,-131256.27,-41914.754,-42165.895,-47443.117
1314655.0432673348,-78877.12,-110483.69,-42493.367,-57457.52,-131273.23,-41937.418,-42198.65,-47480.55
1314655.0472673308,-78887.82,-110495.37,-42503.543,-57468.957,-131281.5,-41950.562,-42212.445,-47489.055
1314655.0512673266,-78862.63,-110470.586,-42479.086,-57449.75,-131262.5,-41934.773,-42190.758,-47454.305
1314655.0552673223,-78834.07,-110444.91,-42452.23,-57427.086,-131242.16,-41914.594,-42169.273,-47428.836
1314655.0592673183,-78837.37,-110445.195,-42455.77,-57429.12,-131244.11,-41921.348,-42184.285,-47442.586
1314655.063267314,-78869.67,-110470.83,-42483.6,-57454.43,-131262.66,-41945.027,-42217.246,-47476.44
1314655.06726731,-78890.38,-110486.33,-42497.195,-57466.92,-131276.81,-41955.484,-42229.004,-47488.445
1314655.0712673059,-78870.28,-110467.086,-42475.344,-57449.707,-131267.45,-41937.83,-42211.062,-47467.207
1314655.0752673019,-78840.78,-110437.55,-42448.61,-57427.125,-131245.97,-41914.31,-42189.13,-47436.77
1314655.0792672976,-78852.09,-110446.78,-42455.77,-57431.887,-131249.72,-41916.992,-42199.26,-47448.445
1314655.0832672936,-78883.836,-110468.75,-42486.613,-57455.61,-131267.3,-41940.348,-42230.184,-47488.16
1314655.0872672894,-78900.23,-110480.23,-42500.57,-57469.89,-131274.83,-41953.613,-42244.754,-47498.008
1314655.0912672854,-78874.07,-110462.484,-42477.418,-57452.477,-131262.17,-41937.01,-42224.203,-47472.09
1314655.0952672812,-78847.82,-110441.94,-42451.66,-57429.406,-131243.4,-41915.773,-42199.953,-47439.13
1314655.099267277,-78864.914,-110456.75,-42461.832,-57435.508,-131248.33,-41920.535,-42206.22,-47449.87
1314655.103267273,-78901.66,-110487.23,-42491.457,-57461.426,-131274.7,-41944.215,-42237.145,-47508.18
1314655.1072672687,-78917.89,-110496.18,-42502.605,-57472.656,-131286.67,-41950.93,-42240.97,-47509.523
1314655.1112672647,-78894.086,-110476.65,-42481.203,-57456.26,-131270.64,-41933.758,-42213.664,-47470.46
1314655.1152672605,-78869.836,-110456.22,-42457.723,-57435.47,-131253.1,-41912.56,-42182.496,-47425.984
1314655.1192672565,-78882.0,-110464.73,-42464.48,-57438.316,-131255.33,-41914.836,-42187.543,-47442.63
1314655.1232672522,-78919.92,-110494.67,-42495.16,-57464.887,-131277.72,-41937.5,-42213.055,-47470.746
1314655.1272672482,-78929.98,-110501.43,-42506.55,-57474.203,-131284.6,-41946.695,-42222.414,-47484.824
1314655.131267244,-78905.07,-110479.74,-42484.824,-57456.137,-131268.19,-41929.2,-42200.766,-47456.137
1314655.1352672398,-78879.07,-110456.55,-42462.242,-57433.434,-131254.03,-41911.336,-42179.89,-47425.09
1314655.1392672358,-78889.484,-110462.04,-42469.28,-57437.99,-131258.72,-41916.06,-42187.906,-47432.09
1314655.1432672315,-78920.945,-110487.23,-42497.477,-57463.137,-131274.95,-41938.07,-42213.625,-47453.086
1314655.1472672275,-78930.34,-110495.28,-42505.13,-57472.332,-131280.48,-41948.69,-42222.37,-47462.73
1314655.1512672233,-78906.91,-110474.29,-42480.754,-57455.08,-131266.4,-41933.555,-42202.72,-47434.98
1314655.1552672193,-78879.48,-110444.91,-42453.453,-57430.46,-131246.62,-41912.8,-42182.375,-47401.695
1314655.159267215,-78887.375,-110446.21,-42458.742,-57433.473,-131248.3,-41918.62,-42193.688,-47410.32
1314655.163267211,-78918.5,-110474.29,-42486.004,-57459.637,-131271.4,-41944.336,-42225.426,-47438.4
1314655.1672672068,-78936.65,-110491.5,-42499.105,-57471.438,-131278.86,-41954.918,-42240.03,-47449.14
1314655.1712672026,-78921.266,-110477.7,-42478.8,-57453.453,-131262.66,-41938.52,-42219.156,-47422.324
1314655.1752671986,-78899.945,-110454.47,-42455.934,-57430.95,-131247.0,-41917.81,-42200.523,-47418.785
1314655.1792671944,-78908.164,-110452.92,-42463.83,-57435.914,-131251.6,-41919.965,-42207.97,-47438.113
1314655.1832671904,-78934.98,-110473.43,-42490.48,-57461.223,-131271.81,-41941.285,-42232.91,-47462.242
1314655.1872671861,-78946.62,-110482.875,-42501.383,-57474.652,-131277.72,-41951.742,-42240.926,-47473.023
1314655.1912671821,-78926.03,-110463.38,-42480.754,-57457.562,-131256.88,-41934.043,-42215.66,-47444.215
1314655.195267178,-78904.18,-110440.35,-42456.055,-57435.754,-131235.72,-41912.11,-42191.285,-47419.07
1314655.199267174,-78914.67,-110445.03,-42463.785,-57440.555,-131243.78,-41915.04,-42200.562,-47443.402
1314655.2032671697,-78949.055,-110480.19,-42494.754,-57466.72,-131268.72,-41937.703,-42233.035,-47492.11
1314655.2072671654,-78967.734,-110497.84,-42505.984,-57479.902,-131278.16,-41945.19,-42242.35,-47500.652
1314655.2112671614,-78945.88,-110475.95,-42484.824,-57462.12,-131261.77,-41926.11,-42219.85,-47478.19
1314655.2152671572,-78914.23,-110446.25,-42459.758,-57438.76,-131241.34,-41906.414,-42198.367,-47450.81
1314655.2192671532,-78922.81,-110446.78,-42466.92,-57441.613,-131240.28,-41912.965,-42210.043,-47470.906
1314655.223267149,-78960.49,-110477.016,-42496.5,-57466.516,-131263.55,-41936.2,-42239.664,-47508.383
1314655.227267145,-78970.625,-110489.79,-42504.438,-57477.62,-131278.97,-41947.51,-42251.344,-47519.574
1314655.2312671407,-78947.23,-110468.23,-42483.562,-57459.516,-131262.5,-41929.402,-42224.57,-47482.26
1314655.2352671367,-78923.51,-110440.59,-42458.54,-57436.445,-131240.89,-41906.375,-42196.617,-47451.703
1314655.2392671325,-78927.82,-110440.11,-42465.457,-57440.15,-131243.58,-41910.848,-42204.47,-47469.363
1314655.2432671282,-78955.98,-110469.37,-42493.125,-57465.78,-131264.81,-41936.117,-42230.957,-47489.42
1314655.2472671242,-78968.34,-110483.08,-42502.28,-57475.26,-131270.31,-41945.516,-42237.754,-47484.99
1314655.25126712,-78947.59,-110462.08,-42480.31,-57457.44,-131249.97,-41929.363,-42213.625,-47446.777
1314655.255267116,-78927.37,-110437.38,-42460.125,-57435.426,-131228.08,-41910.562,-42192.832,-47428.145
1314655.2592671118,-78942.71,-110447.47,-42471.438,-57442.18,-131236.86,-41916.383,-42202.555,-47444.336
1314655.2632671078,-78970.99,-110472.375,-42497.234,-57464.562,-131258.19,-41938.56,-42227.664,-47460.29
1314655.2672671035,-78981.94,-110484.336,-42505.37,-57475.06,-131266.69,-41947.266,-42236.33,-47467.33
1314655.2712670995,-78960.414,-110462.164,-42482.26,-57458.54,-131253.42,-41929.28,-42212.73,-47437.01
1314655.2752670953,-78934.41,-110436.2,-42457.48,-57437.42,-131237.14,-41911.258,-42191.895,-47407.227
1314655.279267091,-78945.195,-110443.445,-42466.594,-57444.176,-131244.6,-41919.312,-42204.55,-47425.293
1314655.283267087,-78976.08,-110469.65,-42494.59,-57468.344,-131267.45,-41941.285,-42227.906,-47450.44
1314655.2872670828,-78984.83,-110478.6,-42503.664,-57478.234,-131278.69,-41948.73,-42231.324,-47454.227
1314655.2912670788,-78959.64,-110457.28,-42479.9,-57459.35,-131267.05,-41927.574,-42202.637,-47430.055
1314655.2952670746,-78933.96,-110432.74,-42455.363,-57437.785,-131249.27,-41907.105,-42181.48,-47420.535
1314655.2992670706,-78942.99,-110435.43,-42463.38,-57443.08,-131249.44,-41912.312,-42191.203,-47430.79
1314655.3032670664,-78976.766,-110462.98,-42493.33,-57468.47,-131263.34,-41935.996,-42216.473,-47455.73
1314655.3072670624,-78988.53,-110475.06,-42501.06,-57479.086,-131269.9,-41944.133,-42225.832,-47469.93
1314655.3112670581,-78963.75,-110453.17,-42477.867,-57459.555,-131253.14,-41927.164,-42209.11,-47461.305
1314655.315267054,-78944.38,-110432.26,-42458.05,-57440.066,-131237.55,-41910.156,-42193.562,-47446.13
1314655.31926705,-78960.86,-110443.16,-42471.355,-57447.188,-131244.27,-41918.785,-42211.67,-47462.973
1314655.3232670457,-78993.49,-110473.88,-42499.15,-57471.926,-131267.38,-41944.05,-42249.023,-47504.03
1314655.3272670417,-79003.54,-110484.336,-42505.574,-57481.203,-131273.64,-41952.066,-42259.195,-47514.73
1314655.3312670374,-78978.766,-110457.4,-42480.145,-57461.55,-131252.2,-41932.332,-42235.395,-47477.094
1314655.3352670334,-78954.96,-110434.37,-42455.203,-57439.453,-131231.86,-41912.477,-42212.117,-47447.47
1314655.3392670292,-78960.86,-110441.37,-42462.934,-57442.668,-131236.86,-41919.477,-42222.656,-47468.508
1314655.3432670252,-78993.57,-110467.66,-42492.35,-57468.63,-131261.36,-41942.832,-42245.32,-47481.445
1314655.347267021,-79000.734,-110473.555,-42499.27,-57478.477,-131275.89,-41951.254,-42247.6,-47480.105
1314655.3512670167,-78973.35,-110447.836,-42472.984,-57457.44,-131261.23,-41931.52,-42217.49,-47446.492
1314655.3552670127,-78953.17,-110421.836,-42449.953,-57435.387,-131240.84,-41910.562,-42190.43,-47423.137
1314655.3592670085,-78970.586,-110427.9,-42462.04,-57442.71,-131245.36,-41914.105,-42195.152,-47426.758
1314655.3632670045,-79004.195,-110454.43,-42491.13,-57469.2,-131269.7,-41935.71,-42217.938,-47442.586
1314655.3672670003,-79008.67,-110456.1,-42496.625,-57478.477,-131272.67,-41944.215,-42223.918,-47450.727
1314655.3712669963,-78980.35,-110429.53,-42468.914,-57458.008,-131249.84,-41925.418,-42199.668,-47426.395
1314655.375266992,-78959.84,-110410.36,-42446.535,-57439.13,-131235.64,-41907.227,-42180.094,-47410.81
1314655.379266988,-78978.03,-110424.56,-42460.164,-57446.86,-131245.33,-41916.098,-42194.38,-47431.4
1314655.3832669838,-79016.73,-110459.48,-42490.316,-57472.863,-131268.92,-41938.19,-42218.63,-47452.35
1314655.3872669796,-79024.17,-110467.21,-42497.844,-57481.12,-131274.58,-41945.68,-42226.035,-47472.656
1314655.3912669756,-78991.5,-110438.48,-42471.234,-57458.742,-131252.33,-41926.516,-42201.5,-47448.406
1314655.3952669713,-78967.57,-110415.45,-42447.918,-57437.83,-131237.84,-41906.82,-42178.996,-47418.38
1314655.3992669673,-78985.68,-110429.85,-42458.457,-57448.164,-131250.66,-41915.652,-42194.703,-47439.617
1314655.403266963,-79019.45,-110459.68,-42488.08,-57472.78,-131270.31,-41937.906,-42224.61,-47474.855
1314655.407266959,-79032.836,-110472.375,-42498.496,-57482.87,-131275.03,-41945.027,-42232.3,-47482.26
1314655.4112669548,-79005.13,-110442.43,-42473.836,-57461.793,-131252.48,-41927.33,-42210.613,-47457.6
1314655.4152669508,-78976.12,-110409.305,-42449.098,-57438.4,-131227.9,-41908.203,-42191.164,-47442.305
1314655.4192669466,-78993.414,-110422.57,-42461.184,-57447.266,-131234.14,-41918.703,-42206.746,-47456.465
1314655.4232669424,-79030.6,-110457.4,-42492.105,-57472.78,-131258.72,-41942.465,-42240.234,-47494.67
1314655.4272669384,-79035.93,-110462.85,-42496.83,-57480.918,-131267.62,-41949.625,-42255.21,-47525.676
1314655.4312669341,-79004.11,-110434.9,-42468.71,-57459.555,-131253.9,-41930.79,-42232.547,-47498.617
1314655.4352669301,-78989.51,-110416.75,-42448.242,-57440.43,-131239.6,-41911.297,-42208.58,-47468.914
1314655.439266926,-79007.37,-110432.7,-42461.793,-57449.707,-131246.6,-41921.387,-42224.04,-47480.47
1314655.443266922,-79042.08,-110464.16,-42490.684,-57474.53,-131267.38,-41944.094,-42251.14,-47500.41
1314655.4472669177,-79051.96,-110472.984,-42498.94,-57482.992,-131270.52,-41950.113,-42252.28,-47502.523
1314655.4512669137,-79028.77,-110451.17,-42476.32,-57466.434,-131251.88,-41929.363,-42224.406,-47474.406
1314655.4552669094,-79007.695,-110424.16,-42458.254,-57448.855,-131233.81,-41912.395,-42207.645,-47460.53
1314655.4592669052,-79015.1,-110433.19,-42468.26,-57457.36,-131242.36,-41923.18,-42223.062,-47472.09
1314655.4632669012,-79049.85,-110469.04,-42495.484,-57483.44,-131268.16,-41946.574,-42251.75,-47498.375
1314655.467266897,-79067.34,-110485.11,-42502.93,-57492.72,-131279.17,-41951.66,-42256.676,-47514.324
1314655.471266893,-79049.93,-110474.57,-42479.453,-57473.918,-131261.16,-41930.625,-42228.8,-47483.195
1314655.4752668887,-79025.64,-110452.92,-42457.156,-57452.637,-131241.55,-41912.883,-42204.836,-47460.652
1314655.4792668847,-79037.4,-110455.61,-42469.2,-57460.33,-131246.06,-41919.84,-42210.855,-47465.984
1314655.4832668805,-79068.56,-110477.7,-42498.09,-57483.97,-131268.19,-41941.285,-42232.707,-47491.008
1314655.4872668765,-79073.98,-110480.59,-42503.95,-57491.457,-131272.19,-41946.695,-42235.35,-47499.227
1314655.4912668723,-79049.52,-110459.72,-42480.836,-57473.227,-131255.78,-41926.395,-42206.83,-47470.543
1314655.495266868,-79033.33,-110447.63,-42458.945,-57454.797,-131242.89,-41905.03,-42179.445,-47439.453
1314655.499266864,-79053.305,-110463.18,-42472.617,-57465.09,-131251.72,-41911.05,-42191.0,-47452.15
1314655.5032668598,-79080.81,-110486.125,-42501.18,-57487.633,-131272.83,-41936.28,-42222.535,-47491.336
1314655.5072668558,-79083.945,-110491.625,-42505.574,-57493.53,-131280.16,-41944.094,-42230.31,-47503.906
1314655.5112668516,-79056.89,-110463.95,-42477.906,-57471.64,-131260.75,-41924.277,-42207.723,-47482.383
1314655.5152668476,-79033.66,-110440.31,-42453.53,-57450.848,-131247.52,-41907.145,-42188.07,-47462.28
1314655.5192668433,-79048.95,-110453.21,-42464.64,-57461.223,-131261.77,-41918.418,-42202.555,-47479.74
1314655.5232668393,-79081.34,-110481.65,-42491.824,-57486.004,-131283.4,-41942.3,-42229.98,-47508.586
1314655.527266835,-79085.05,-110492.68,-42495.445,-57492.27,-131287.48,-41947.957,-42231.73,-47516.48
1314655.531266831,-79060.914,-110471.48,-42470.5,-57473.188,-131269.58,-41927.613,-42203.777,-47483.4
1314655.5352668269,-79048.51,-110452.92,-42454.754,-57455.73,-131252.16,-41907.797,-42181.805,-47460.574
1314655.5392668226,-79067.016,-110463.09,-42470.258,-57462.242,-131258.42,-41914.145,-42191.406,-47484.906
1314655.5432668186,-79087.61,-110478.11,-42490.805,-57483.848,-131275.27,-41935.914,-42214.195,-47519.574
1314655.5472668144,-79088.09,-110477.95,-42493.33,-57490.316,-131278.73,-41943.44,-42214.805,-47514.406
1314655.5512668104,-79069.5,-110462.61,-42468.59,-57471.805,-131262.42,-41925.09,-42189.21,-47483.97
1314655.5552668062,-79058.15,-110450.89,-42449.668,-57454.47,-131247.64,-41906.535,-42165.895,-47454.062
1314655.5592668022,-79080.65,-110465.984,-42466.35,-57464.4,-131258.72,-41916.504,-42179.973,-47471.316
1314655.563266798,-79111.29,-110489.55,-42492.72,-57488.895,-131277.88,-41938.76,-42206.91,-47511.68
1314655.567266794,-79109.46,-110486.375,-42493.164,-57492.72,-131275.52,-41943.81,-42208.457,-47506.797
1314655.5712667897,-79079.67,-110459.96,-42467.938,-57471.4,-131255.05,-41920.613,-42181.07,-47471.355
1314655.5752667855,-79066.86,-110445.68,-42451.05,-57453.94,-131242.36,-41899.902,-42159.098,-47450.24
1314655.5792667815,-79089.44,-110460.125,-42466.434,-57467.125,-131255.86,-41908.69,-42168.54,-47459.96
1314655.5832667772,-79125.25,-110491.375,-42496.582,-57493.043,-131278.36,-41931.152,-42192.87,-47494.184
1314655.5872667732,-79127.08,-110495.89,-42499.227,-57499.555,-131280.92,-41935.426,-42193.89,-47501.996
1314655.591266769,-79096.56,-110464.766,-42475.914,-57479.168,-131264.28,-41914.31,-42164.754,-47466.105
1314655.595266765,-79079.19,-110446.984,-42458.742,-57461.957,-131252.61,-41896.402,-42144.41,-47441.773
1314655.5992667607,-79097.45,-110463.09,-42472.168,-57471.965,-131261.92,-41902.305,-42154.137,-47453.086
1314655.6032667567,-79128.26,-110491.91,-42497.844,-57496.094,-131282.23,-41921.47,-42178.14,-47474.53
1314655.6072667525,-79141.28,-110501.8,-42506.39,-57503.582,-131290.98,-41926.23,-42181.684,-47469.566
1314655.6112667483,-79113.24,-110470.99,-42480.715,-57479.332,-131267.55,-41906.375,-42157.555,-47440.227
1314655.6152667443,-79088.09,-110444.38,-42458.05,-57458.17,-131250.5,-41891.48,-42145.71,-47444.094
1314655.61926674,-79099.81,-110451.945,-42468.953,-57467.695,-131256.72,-41905.438,-42168.457,-47481.16
1314655.623266736,-79130.375,-110477.74,-42496.137,-57490.316,-131280.28,-41930.625,-42198.04,-47500.41
1314655.6272667318,-79140.055,-110483.69,-42500.57,-57496.016,-131286.78,-41936.523,-42205.363,-47504.234
1314655.6312667278,-79117.35,-110460.9,-42476.035,-57474.53,-131261.19,-41916.26,-42184.164,-47481.445
1314655.6352667236,-79098.68,-110444.54,-42457.113,-57457.44,-131248.66,-41897.95,-42168.05,-47465.457
1314655.6392667196,-79118.82,-110456.99,-42472.7,-57470.137,-131260.62,-41904.543,-42182.21,-47480.51
1314655.6432667153,-79152.305,-110484.664,-42500.938,-57496.094,-131280.89,-41926.11,-42209.027,-47506.062
1314655.647266711,-79160.16,-110486.45,-42503.297,-57502.65,-131283.73,-41929.363,-42209.92,-47502.484
1314655.651266707,-79126.836,-110451.22,-42475.75,-57480.676,-131259.12,-41912.19,-42184.613,-47467.285
1314655.6552667029,-79097.21,-110423.016,-42450.848,-57459.23,-131231.66,-41895.875,-42165.406,-47447.957
1314655.6592666989,-79121.5,-110443.12,-42471.11,-57473.27,-131239.1,-41906.375,-42177.41,-47471.68
1314655.6632666946,-79160.2,-110477.18,-42502.77,-57500.855,-131270.31,-41929.16,-42204.227,-47501.508
1314655.6672666906,-79163.74,-110486.33,-42504.52,-57508.223,-131276.9,-41932.457,-42208.05,-47503.418
1314655.6712666864,-79138.836,-110467.9,-42477.742,-57486.74,-131259.03,-41910.93,-42180.867,-47466.84
1314655.6752666824,-79124.35,-110450.81,-42460.004,-57467.938,-131246.5,-41894.086,-42162.516,-47449.016
1314655.6792666782,-79143.03,-110466.07,-42472.94,-57477.99,-131257.78,-41903.973,-42178.55,-47463.46
1314655.683266674,-79172.33,-110491.984,-42500.285,-57501.59,-131273.97,-41926.027,-42204.47,-47488.406
1314655.68726667,-79176.27,-110493.33,-42503.418,-57506.918,-131283.98,-41928.266,-42209.027,-47496.094
1314655.6912666657,-79146.69,-110462.89,-42477.05,-57485.84,-131264.81,-41907.188,-42186.65,-47474.69
1314655.6952666617,-79131.92,-110446.25,-42458.78,-57468.223,-131246.22,-41890.504,-42166.832,-47451.375
1314655.6992666575,-79148.27,-110462.734,-42472.94,-57479.004,-131256.06,-41902.75,-42182.254,-47463.137
1314655.7032666535,-79177.734,-110492.27,-42501.26,-57503.137,-131279.7,-41926.15,-42211.184,-47488.895
1314655.7072666492,-79186.08,-110501.1,-42505.25,-57509.605,-131281.78,-41929.117,-42217.246,-47497.4
1314655.7112666452,-79164.31,-110474.94,-42480.184,-57488.203,-131259.53,-41908.773,-42194.54,-47473.188
1314655.715266641,-79147.664,-110450.69,-42465.047,-57472.168,-131241.75,-41892.336,-42175.375,-47444.258
1314655.7192666368,-79163.66,-110464.32,-42480.348,-57483.81,-131248.95,-41902.957,-42197.145,-47479.13
1314655.7232666328,-79189.66,-110486.53,-42504.76,-57508.3,-131270.64,-41927.98,-42231.812,-47526.492
1314655.7272666285,-79196.86,-110490.195,-42508.914,-57512.98,-131278.12,-41930.3,-42230.51,-47514.527
1314655.7312666245,-79173.55,-110465.46,-42482.953,-57491.984,-131253.58,-41909.14,-42203.695,-47476.277
1314655.7352666203,-79149.17,-110443.98,-42461.754,-57472.984,-131236.83,-41892.742,-42188.926,-47463.22
1314655.7392666163,-79168.78,-110459.84,-42478.312,-57483.97,-131246.34,-41904.34,-42204.227,-47476.117
1314655.743266612,-79199.95,-110484.58,-42506.31,-57508.02,-131264.28,-41927.043,-42232.91,-47511.273
1314655.747266608,-79206.016,-110492.15,-42507.938,-57511.844,-131265.83,-41930.094,-42236.004,-47508.426
1314655.7512666038,-79189.25,-110474.125,-42483.4,-57490.723,-131248.78,-41909.305,-42210.53,-47473.51
1314655.7552665996,-79173.75,-110457.03,-42466.51,-57475.305,-131239.7,-41898.152,-42195.477,-47453.656
1314655.7592665956,-79184.734,-110459.07,-42480.715,-57486.25,-131251.06,-41910.973,-42214.4,-47480.715
1314655.7632665914,-79210.25,-110482.14,-42506.227,-57509.24,-131270.03,-41932.82,-42243.367,-47515.098
1314655.7672665874,-79214.6,-110488.125,-42508.668,-57514.49,-131271.25,-41936.523,-42244.547,-47511.72
1314655.7712665831,-79186.24,-110458.87,-42483.195,-57493.33,-131250.25,-41915.527,-42217.9,-47478.8
1314655.7752665791,-79179.12,-110451.13,-42469.484,-57476.973,-131242.77,-41897.46,-42198.445,-47463.258
1314655.779266575,-79200.08,-110466.35,-42488.484,-57489.992,-131258.02,-41907.797,-42210.33,-47472.414
1314655.783266571,-79224.9,-110490.03,-42513.387,-57513.55,-131278.56,-41930.625,-42234.58,-47493.29
1314655.7872665667,-79230.63,-110495.98,-42514.406,-57516.93,-131280.69,-41934.613,-42237.836,-47498.457
1314655.7912665624,-79204.555,-110470.625,-42487.508,-57496.582,-131258.47,-41914.55,-42211.957,-47478.23
1314655.7952665584,-79183.07,-110449.95,-42467.855,-57478.312,-131242.56,-41898.277,-42192.668,-47458.457
1314655.7992665542,-79202.76,-110466.48,-42483.44,-57488.242,-131254.64,-41907.31,-42201.906,-47463.83
1314655.8032665502,-79236.21,-110496.586,-42512.535,-57513.062,-131274.45,-41927.86,-42226.035,-47504.316
1314655.807266546,-79238.89,-110499.31,-42514.527,-57516.36,-131274.45,-41929.688,-42228.07,-47501.75
1314655.811266542,-79209.76,-110472.91,-42489.016,-57495.08,-131253.17,-41908.652,-42203.125,-47461.754
