timestamp,Fp1,Fp2,F3,Fz,F4,Cz,Pz,Oz
881792.0531936655,-13480.307,-94845.664,-28056.885,-16378.093,-37541.344,-35121.5,-50282.15,32380.78
881792.0571936633,-13491.537,-94858.24,-28067.424,-16392.293,-37554.08,-35118.41,-50288.656,32387.533
881792.0611936612,-13494.995,-94861.78,-28067.303,-16394.775,-37559.207,-35119.875,-50292.402,32376.629
881792.065193659,-13481.283,-94848.88,-28063.232,-16387.898,-37554.2,-35123.332,-50292.523,32365.44
881792.0691936569,-13479.248,-94837.98,-28059.531,-16382.365,-37547.28,-35124.188,-50290.324,32376.223
881792.0731936548,-13488.078,-94844.65,-28059.123,-16384.236,-37552.45,-35120.688,-50288.574,32377.443
881792.0771936526,-13495.117,-94855.47,-28065.39,-16392.498,-37568.645,-35118.695,-50294.8,32366.863
881792.0811936505,-13496.054,-94856.29,-28070.762,-16395.143,-37575.727,-35120.035,-50297.285,32362.428
881792.0851936484,-13497.192,-94847.984,-28068.686,-16390.34,-37569.664,-35122.438,-50296.47,32364.543
881792.0891936462,-13488.078,-94833.54,-28061.402,-16381.186,-37559.855,-35122.52,-50294.883,32357.992
881792.0931936441,-13493.693,-94837.734,-28064.738,-16384.969,-37561.402,-35120.32,-50289.55,32376.14
881792.0971936419,-13503.378,-94842.164,-28068.93,-16393.514,-37565.473,-35117.676,-50291.87,32373.576
881792.1011936398,-13502.6455,-94836.266,-28067.383,-16391.44,-37563.926,-35115.52,-50291.79,32360.148
881792.1051936377,-13491.781,-94829.43,-28063.6,-16385.54,-37561.117,-35115.438,-50284.26,32377.482
881792.1091936355,-13480.795,-94817.1,-28057.7,-16379.151,-37554.812,-35117.15,-50279.99,32389.406
881792.1131936334,-13488.2,-94823.49,-28062.176,-16380.982,-37556.07,-35118.164,-50284.87,32373.7
881792.1171936312,-13497.274,-94834.59,-28070.924,-16386.271,-37560.67,-35115.848,-50289.51,32363.73
881792.1211936291,-13500.244,-94836.06,-28072.754,-16389.73,-37558.31,-35119.996,-50293.17,32357.992
881792.125193627,-13494.67,-94832.93,-28069.336,-16388.104,-37551.395,-35125.977,-50286.62,32368.49
881792.1291936248,-13491.293,-94823.2,-28063.64,-16379.477,-37545.41,-35123.74,-50280.684,32380.047
881792.1331936227,-13497.233,-94821.54,-28060.059,-16378.459,-37548.746,-35120.242,-50282.918,32380.535
881792.1371936206,-13514.282,-94833.54,-28066.773,-16388.63,-37554.04,-35119.1,-50292.44,32366.293
881792.1411936184,-13513.998,-94838.3,-28067.994,-16392.904,-37553.184,-35121.83,-50299.44,32355.389
881792.1451936163,-13501.425,-94826.3,-28058.229,-16384.521,-37543.703,-35119.71,-50287.64,32370.973
881792.1491936141,-13497.396,-94819.83,-28052.94,-16376.628,-37534.14,-35118.164,-50276.777,32383.098
881792.153193612,-13509.359,-94828.45,-28055.95,-16379.965,-37535.24,-35118.164,-50280.6,32362.916
881792.1571936099,-13515.625,-94838.75,-28065.553,-16390.137,-37544.637,-35116.824,-50282.758,32361.33
881792.1611936078,-13512.248,-94836.96,-28074.992,-16390.748,-37547.77,-35120.2,-50285.523,32357.79
881792.1651936057,-13503.906,-94826.5,-28073.691,-16383.383,-37537.273,-35120.934,-50281.047,32362.184
881792.1691936036,-13499.023,-94818.08,-28065.064,-16373.983,-37528.16,-35115.48,-50272.664,32376.223
881792.1731936014,-13498.576,-94814.66,-28064.373,-16374.797,-37531.78,-35113.812,-50278.523,32371.746
881792.1771935993,-13513.957,-94826.22,-28074.057,-16385.945,-37543.742,-35116.05,-50291.3,32365.887
881792.1811935971,-13517.131,-94834.07,-28079.672,-16391.805,-37548.3,-35118.57,-50295.37,32354.86
881792.185193595,-13512.207,-94821.82,-28071.738,-16384.969,-37541.06,-35120.688,-50286.418,32355.104
881792.1891935929,-13504.965,-94804.08,-28057.617,-16372.641,-37527.02,-35115.805,-50271.445,32374.594
881792.1931935907,-13506.267,-94810.836,-28060.588,-16376.018,-37528.65,-35114.22,-50266.562,32390.748
881792.1971935886,-13516.562,-94825.195,-28065.268,-16383.708,-37533.246,-35111.207,-50270.184,32385.621
881792.2011935865,-13520.102,-94824.14,-28064.941,-16384.277,-37529.176,-35114.91,-50277.14,32363.893
881792.2051935843,-13508.423,-94814.74,-28057.902,-16375.937,-37525.35,-35118.043,-50274.496,32352.662
881792.2091935822,-13500.732,-94812.055,-28053.996,-16367.921,-37520.793,-35118.492,-50269.613,32359.865
881792.21319358,-13511.394,-94820.92,-28060.264,-16373.698,-37520.387,-35117.27,-50275.92,32362.225
881792.2171935779,-13524.048,-94832.97,-28068.97,-16382.569,-37523.844,-35115.48,-50283.164,32360.393
881792.2211935758,-13521.811,-94836.71,-28075.033,-16385.662,-37524.984,-35118.004,-50285.36,32360.354
881792.2251935736,-13510.417,-94828.734,-28067.871,-16376.913,-37508.426,-35120.445,-50277.547,32365.887
881792.2291935715,-13513.713,-94816.086,-28062.623,-16370.199,-37501.668,-35123.047,-50270.67,32370.566
881792.2331935694,-13524.252,-94817.836,-28064.088,-16374.35,-37505.332,-35118.9,-50274.05,32367.799
881792.2371935672,-13526.449,-94829.63,-28068.035,-16385.254,-37520.508,-35119.06,-50283.977,32348.879
881792.2411935651,-13521.688,-94833.26,-28071.533,-16388.713,-37521.08,-35122.52,-50289.145,32344.158
881792.2451935629,-13514.7705,-94820.68,-28069.906,-16384.645,-37512.82,-35126.59,-50286.5,32339.031
881792.2491935608,-13504.313,-94807.984,-28059.043,-16375.855,-37501.06,-35129.438,-50279.34,32349.0
881792.2531935587,-13507.854,-94818.81,-28057.21,-16374.797,-37503.543,-35125.45,-50280.438,32358.645
881792.2571935565,-13523.764,-94832.85,-28068.523,-16384.074,-37512.535,-35120.117,-50292.24,32344.361
881792.2611935544,-13527.06,-94836.02,-28071.006,-16388.469,-37517.66,-35121.22,-50290.406,32349.611
881792.2651935522,-13510.417,-94820.72,-28064.617,-16382.65,-37504.926,-35125.406,-50285.36,32346.72
881792.2691935501,-13496.216,-94807.375,-28059.775,-16374.187,-37490.97,-35122.03,-50275.676,32353.72
881792.273193548,-13500.326,-94806.73,-28061.361,-16372.885,-37494.266,-35115.316,-50267.09,32379.762
881792.2771935458,-13509.359,-94820.11,-28068.482,-16381.1045,-37505.984,-35117.15,-50273.48,32369.02
881792.2811935437,-13506.348,-94822.76,-28070.762,-16385.662,-37510.582,-35121.99,-50287.844,32334.555
881792.2851935416,-13510.783,-94822.39,-28067.424,-16380.616,-37506.754,-35125.406,-50283.285,32343.508
881792.2891935394,-13522.177,-94830.0,-28065.186,-16376.71,-37504.152,-35122.926,-50272.79,32362.021
881792.2931935373,-13534.668,-94830.28,-28067.303,-16377.401,-37507.57,-35118.043,-50272.46,32363.404
881792.2971935351,-13523.193,-94821.58,-28071.9,-16381.552,-37511.11,-35117.637,-50281.13,32350.791
881792.301193533,-13507.568,-94812.09,-28072.186,-16384.889,-37507.938,-35123.863,-50287.68,32343.426
881792.3051935309,-13500.326,-94803.19,-28070.312,-16380.778,-37495.89,-35127.973,-50282.637,32355.754
881792.3091935287,-13493.774,-94788.375,-28063.111,-16369.589,-37485.23,-35124.637,-50264.73,32384.197
881792.3131935266,-13496.664,-94791.305,-28064.494,-16369.996,-37482.547,-35120.89,-50260.215,32385.133
881792.3171935244,-13511.719,-94815.02,-28073.895,-16381.755,-37487.1,-35117.473,-50270.387,32370.363
881792.3211935223,-13520.549,-94824.586,-28081.219,-16388.998,-37496.38,-35122.965,-50281.21,32360.271
881792.3251935203,-13509.196,-94803.71,-28070.395,-16380.168,-37495.81,-35126.223,-50273.316,32368.287
881792.3291935181,-13480.673,-94783.734,-28056.805,-16367.351,-37487.223,-35126.223,-50265.18,32371.46
881792.333193516,-13497.152,-94787.56,-28059.855,-16369.386,-37486.41,-35125.773,-50260.457,32392.336
881792.3371935139,-13516.154,-94795.53,-28066.123,-16376.222,-37496.99,-35123.94,-50263.957,32395.346
881792.3411935117,-13504.477,-94786.42,-28061.688,-16376.791,-37499.555,-35124.35,-50268.883,32376.14
881792.3451935096,-13495.932,-94774.664,-28053.264,-16368.449,-37496.46,-35124.51,-50262.617,32381.145
881792.3491935075,-13489.543,-94763.35,-28045.127,-16358.725,-37489.707,-35122.965,-50254.477,32391.033
881792.3531935053,-13495.28,-94766.16,-28048.137,-16359.864,-37490.4,-35116.414,-50248.25,32403.525
881792.3571935032,-13501.303,-94779.75,-28059.246,-16368.49,-37500.49,-35111.207,-50249.92,32401.652
881792.361193501,-13502.238,-94790.125,-28064.129,-16373.576,-37507.285,-35112.266,-50253.543,32393.352
881792.3651934989,-13496.257,-94790.125,-28061.729,-16368.856,-37501.465,-35117.516,-50256.594,32395.06
881792.3691934968,-13502.035,-94783.0,-28054.404,-16363.526,-37489.46,-35116.742,-50253.133,32393.148
881792.3731934946,-13510.336,-94791.55,-28055.38,-16367.188,-37488.566,-35112.1,-50255.13,32388.389
881792.3771934925,-13519.9795,-94808.31,-28067.383,-16375.285,-37497.273,-35110.027,-50263.062,32388.021
881792.3811934903,-13525.757,-94815.555,-28068.93,-16380.168,-37507.45,-35114.34,-50271.28,32375.45
881792.3851934882,-13517.294,-94806.97,-28060.588,-16375.8955,-37505.414,-35114.098,-50264.12,32381.105
881792.3891934861,-13514.853,-94800.54,-28057.861,-16369.792,-37498.7,-35112.67,-50250.203,32399.09
881792.3931934839,-13522.827,-94809.82,-28063.559,-16376.425,-37507.855,-35111.453,-50257.45,32382.162
881792.3971934818,-13529.257,-94820.68,-28069.5,-16383.83,-37514.934,-35107.79,-50265.383,32366.984
881792.4011934797,-13527.426,-94820.92,-28075.318,-16385.783,-37519.33,-35109.78,-50267.215,32370.443
881792.4051934775,-13518.921,-94807.21,-28065.35,-16374.919,-37506.797,-35107.91,-50255.984,32386.191
881792.4091934754,-13517.619,-94792.89,-28057.129,-16365.52,-37494.754,-35104.453,-50247.56,32395.06
881792.4131934732,-13524.74,-94797.2,-28058.555,-16370.606,-37497.64,-35106.16,-50258.3,32380.25
881792.4171934711,-13527.914,-94809.45,-28064.941,-16379.191,-37502.117,-35104.74,-50267.78,32370.525
881792.421193469,-13524.252,-94807.01,-28065.023,-16379.843,-37499.023,-35104.777,-50268.68,32369.834
881792.4251934668,-13514.648,-94792.04,-28059.979,-16376.1,-37493.41,-35108.727,-50263.023,32374.188
881792.4291934647,-13504.272,-94780.64,-28047.771,-16365.072,-37480.754,-35105.227,-50250.0,32391.928
881792.4331934626,-13511.597,-94786.5,-28052.043,-16367.758,-37480.67,-35102.094,-50250.53,32391.969
881792.4371934604,-13518.759,-94793.54,-28061.729,-16375.326,-37494.547,-35101.44,-50260.582,32381.674
881792.4411934583,-13523.845,-94797.445,-28065.023,-16378.866,-37497.273,-35105.184,-50268.395,32380.332
881792.4451934561,-13523.52,-94791.1,-28060.344,-16373.373,-37495.77,-35106.363,-50267.133,32372.56
881792.449193454,-13518.84,-94776.94,-28051.434,-16363.933,-37495.402,-35103.598,-50257.367,32381.553
881792.4531934519,-13519.9795,-94779.42,-28054.525,-16364.381,-37493.855,-35100.06,-50256.062,32391.115
881792.4571934497,-13528.931,-94794.88,-28060.629,-16372.111,-37499.066,-35098.348,-50258.63,32393.068
881792.4611934476,-13536.947,-94801.72,-28069.621,-16378.663,-37505.453,-35104.37,-50265.79,32371.258
881792.4651934454,-13533.203,-94794.555,-28068.115,-16376.262,-37507.45,-35109.09,-50263.797,32365.602
881792.4691934433,-13523.031,-94784.75,-28057.7,-16370.199,-37501.305,-35104.332,-50252.523,32385.295
881792.4731934412,-13522.583,-94789.88,-28060.508,-16371.217,-37500.45,-35100.383,-50251.914,32381.227
881792.477193439,-13532.756,-94807.82,-28071.656,-16382.65,-37511.23,-35100.586,-50260.297,32376.506
881792.4811934369,-13534.018,-94812.55,-28074.424,-16385.336,-37524.17,-35103.8,-50263.51,32374.432
881792.4851934348,-13533.285,-94804.37,-28065.023,-16375.204,-37521.812,-35107.137,-50252.363,32390.586
881792.4891934327,-13523.193,-94793.58,-28057.496,-16364.665,-37509.93,-35105.957,-50244.223,32390.463
881792.4931934306,-13524.008,-94797.65,-28059.043,-16365.602,-37510.336,-35104.25,-50251.914,32379.273
881792.4971934285,-13534.099,-94811.57,-28067.139,-16374.187,-37512.086,-35101.36,-50260.01,32370.322
881792.5011934263,-13536.418,-94816.086,-28072.47,-16378.175,-37514.242,-35104.004,-50264.65,32358.48
881792.5051934242,-13523.967,-94803.14,-28066.855,-16371.583,-37506.473,-35107.707,-50258.223,32369.59
881792.509193422,-13512.858,-94784.95,-28057.373,-16363.607,-37497.52,-35104.9,-50246.176,32386.477
881792.5131934199,-13512.614,-94787.07,-28059.408,-16365.4795,-37502.605,-35104.047,-50249.227,32388.877
881792.5171934178,-13521.281,-94797.65,-28069.703,-16375.773,-37507.812,-35103.395,-50259.48,32382.854
881792.5211934156,-13519.043,-94797.24,-28067.953,-16377.035,-37503.336,-35102.582,-50258.223,32387.004
881792.5251934135,-13511.597,-94788.984,-28060.467,-16371.257,-37501.305,-35106.65,-50252.93,32384.727
881792.5291934113,-13503.378,-94783.81,-28054.078,-16361.654,-37499.715,-35108.4,-50243.086,32393.8
881792.5331934092,-13509.277,-94787.64,-28056.805,-16367.717,-37500.613,-35110.027,-50250.33,32378.988
881792.5371934071,-13514.689,-94794.27,-28066.123,-16376.384,-37510.215,-35111.53,-50261.07,32373.496
881792.5411934049,-13508.667,-94795.086,-28066.162,-16377.6455,-37506.754,-35110.68,-50263.715,32370.646
881792.5451934028,-13497.03,-94786.87,-28060.223,-16372.03,-37498.82,-35108.316,-50250.082,32392.295
881792.5491934007,-13494.385,-94776.0,-28050.822,-16360.556,-37495.2,-35102.05,-50239.95,32404.95
881792.5531933985,-13495.402,-94778.0,-28053.752,-16364.015,-37498.78,-35104.13,-50248.863,32386.842
881792.5571933964,-13505.941,-94793.09,-28066.895,-16375.245,-37512.94,-35107.668,-50257.12,32382.57
881792.5611933942,-13507.446,-94793.83,-28066.53,-16377.116,-37515.75,-35109.05,-50259.89,32376.955
881792.5651933921,-13489.624,-94775.44,-28054.973,-16369.142,-37502.402,-35108.727,-50254.395,32388.062
881792.56919339,-13483.887,-94761.72,-28052.043,-16363.933,-37499.88,-35108.4,-50249.188,32397.422
881792.5731933878,-13489.99,-94763.516,-28057.455,-16367.392,-37512.492,-35106.363,-50249.105,32395.754
881792.5771933857,-13497.803,-94778.69,-28062.744,-16372.56,-37521.85,-35103.19,-50254.883,32382.244
881792.5811933836,-13499.309,-94781.17,-28063.396,-16376.506,-37517.457,-35103.72,-50259.766,32375.164
881792.5851933814,-13490.275,-94770.59,-28060.02,-16372.56,-37511.027,-35106.203,-50255.984,32381.838
881792.5891933793,-13485.596,-94758.42,-28053.834,-16364.787,-37507.773,-35105.31,-50253.133,32386.436
881792.5931933771,-13491.496,-94763.43,-28055.664,-16366.944,-37521.484,-35102.54,-50257.527,32388.795
881792.597193375,-13501.872,-94780.97,-28063.232,-16375.204,-37528.32,-35102.215,-50264.12,32380.006
881792.6011933729,-13500.122,-94782.39,-28062.176,-16376.872,-37522.625,-35102.176,-50261.76,32385.865
881792.6051933707,-13482.748,-94764.53,-28054.852,-16369.304,-37511.434,-35105.43,-50255.94,32388.633
881792.6091933686,-13476.522,-94749.11,-28046.836,-16356.935,-37511.355,-35103.516,-50244.266,32396.16
881792.6131933664,-13484.863,-94753.83,-28046.957,-16360.026,-37517.418,-35103.56,-50246.95,32400.555
881792.6171933643,-13490.967,-94766.52,-28051.434,-16369.955,-37525.39,-35101.562,-50257.406,32390.383
881792.6211933622,-13489.624,-94771.12,-28052.775,-16372.315,-37525.92,-35099.773,-50259.277,32387.615
881792.62519336,-13492.839,-94762.54,-28049.48,-16368.653,-37524.293,-35101.89,-50254.844,32386.516
881792.6291933579,-13488.241,-94754.805,-28045.98,-16361.776,-37524.78,-35100.504,-50251.996,32389.445
881792.6331933558,-13489.99,-94765.055,-28048.178,-16362.306,-37521.73,-35095.906,-50251.71,32398.764
881792.6371933536,-13496.46,-94780.6,-28056.682,-16372.233,-37526.246,-35096.477,-50259.24,32389.201
881792.6411933515,-13492.065,-94781.336,-28056.723,-16374.391,-37531.617,-35099.938,-50263.023,32374.635
881792.6451933493,-13490.275,-94767.01,-28052.49,-16365.927,-37522.91,-35104.74,-50260.582,32377.89
881792.6491933472,-13485.8,-94759.89,-28048.79,-16361.9795,-37515.055,-35105.594,-50253.83,32392.375
881792.6531933452,-13486.572,-94772.016,-28051.31,-16367.677,-37516.93,-35103.312,-50249.35,32413.291
881792.657193343,-13492.432,-94785.0,-28061.402,-16377.238,-37533.53,-35105.55,-50266.195,32386.477
881792.6611933409,-13497.519,-94787.195,-28067.059,-16379.884,-37543.5,-35110.35,-50276.246,32368.37
881792.6651933388,-13493.693,-94773.234,-28062.012,-16371.867,-37531.25,-35111.246,-50267.62,32379.68
881792.6691933366,-13481.567,-94756.68,-28054.607,-16364.096,-37511.355,-35106.977,-50260.582,32386.557
881792.6731933345,-13480.591,-94764.61,-28056.438,-16365.927,-37509.24,-35102.906,-50261.598,32385.418
881792.6771933323,-13484.538,-94775.234,-28061.89,-16372.233,-37519.29,-35101.81,-50267.906,32382.53
881792.6811933302,-13480.957,-94779.3,-28061.361,-16373.251,-37519.492,-35099.938,-50266.562,32384.604
881792.6851933281,-13470.337,-94769.695,-28050.172,-16364.665,-37511.395,-35102.457,-50258.18,32392.986
881792.6891933259,-13468.466,-94764.77,-28043.906,-16358.928,-37511.72,-35105.715,-50252.605,32399.822
881792.6931933238,-13471.762,-94767.42,-28047.934,-16362.306,-37520.793,-35105.754,-50255.21,32399.049
881792.6971933217,-13476.604,-94783.57,-28056.113,-16369.914,-37532.715,-35108.277,-50265.87,32391.604
881792.7011933195,-13484.05,-94787.03,-28061.117,-16374.919,-37537.355,-35113.484,-50267.375,32395.998
881792.7051933174,-13471.313,-94770.02,-28055.828,-16368.368,-37531.21,-35112.71,-50257.773,32409.1
881792.7091933152,-13463.623,-94754.805,-28048.707,-16360.23,-37528.2,-35109.99,-50257.285,32399.578
881792.7131933131,-13475.952,-94766.56,-28053.955,-16365.113,-37530.887,-35109.99,-50262.453,32390.139
881792.717193311,-13483.847,-94778.484,-28061.2,-16375.082,-37537.027,-35110.84,-50269.41,32387.004
881792.7211933088,-13484.335,-94779.55,-28061.523,-16376.222,-37537.11,-35114.625,-50273.277,32382.326
881792.7251933067,-13474.569,-94769.21,-28055.299,-16369.914,-37529.83,-35115.52,-50264.73,32388.713
881792.7291933045,-13466.879,-94757.94,-28047.73,-16362.875,-37521.2,-35113.406,-50255.656,32395.143
881792.7331933024,-13474.04,-94763.1,-28047.607,-16364.828,-37522.867,-35109.375,-50255.617,32400.352
881792.7371933003,-13484.823,-94780.97,-28058.838,-16374.757,-37535.89,-35109.457,-50263.43,32388.957
881792.7411932981,-13482.504,-94781.45,-28056.193,-16375.489,-37538.94,-35111.734,-50268.883,32378.053
881792.745193296,-13470.907,-94772.83,-28047.527,-16368.002,-37524.945,-35111.656,-50259.48,32404.299
881792.7491932939,-13457.52,-94758.63,-28041.342,-16358.073,-37514.406,-35109.293,-50250.734,32400.758
881792.7531932917,-13454.59,-94756.63,-28040.08,-16360.312,-37517.945,-35105.43,-50251.875,32394.492
881792.7571932896,-13469.6045,-94768.72,-28049.357,-16370.28,-37532.39,-35107.26,-50261.883,32392.62
881792.7611932874,-13467.733,-94766.69,-28048.545,-16371.705,-37536.176,-35107.83,-50268.23,32378.988
881792.7651932853,-13458.374,-94757.734,-28040.0,-16365.52,-37534.06,-35108.277,-50264.285,32374.514
881792.7691932832,-13446.33,-94755.945,-28035.156,-16360.108,-37529.42,-35107.098,-50253.867,32397.38
881792.773193281,-13456.421,-94765.38,-28039.756,-16366.049,-37533.33,-35105.55,-50260.133,32389.895
881792.7771932789,-13472.331,-94774.62,-28046.672,-16372.722,-37541.098,-35102.38,-50268.555,32378.215
881792.7811932768,-13477.092,-94778.73,-28052.043,-16374.513,-37548.504,-35104.25,-50268.598,32379.273
881792.7851932746,-13465.007,-94766.69,-28047.08,-16368.409,-37547.812,-35106.85,-50264.16,32376.873
881792.7891932725,-13452.881,-94758.38,-28037.436,-16361.369,-37542.645,-35106.773,-50254.76,32390.871
881792.7931932703,-13461.67,-94768.6,-28042.236,-16364.503,-37544.19,-35107.06,-50254.844,32398.887
881792.7971932682,-13467.082,-94784.18,-28050.986,-16370.402,-37544.11,-35105.062,-50264.0,32385.58
881792.8011932661,-13459.677,-94788.25,-28049.846,-16373.17,-37544.395,-35107.992,-50266.4,32385.418
881792.8051932639,-13454.834,-94772.18,-28042.93,-16366.09,-37529.664,-35110.027,-50258.14,32395.549
881792.8091932618,-13451.335,-94755.945,-28035.605,-16358.073,-37520.71,-35108.24,-50249.715,32403.932
881792.8131932596,-13458.984,-94760.79,-28032.594,-16358.073,-37522.95,-35104.25,-50251.832,32397.91
881792.8171932576,-13466.269,-94769.695,-28037.436,-16367.433,-37530.52,-35103.598,-50263.957,32385.295
881792.8211932555,-13458.822,-94768.44,-28038.494,-16372.233,-37532.227,-35103.8,-50262.004,32397.584
881792.8251932533,-13444.987,-94758.1,-28033.0,-16365.846,-37525.516,-35105.348,-50251.832,32413.656
881792.8291932512,-13446.208,-94746.99,-28030.193,-16359.457,-37524.21,-35109.863,-50252.44,32391.115
881792.8331932491,-13460.287,-94752.65,-28031.414,-16360.841,-37526.53,-35106.285,-50257.285,32387.412
881792.8371932469,-13467.773,-94769.62,-28038.006,-16369.914,-37538.453,-35100.098,-50261.598,32384.156
881792.8411932448,-13462.565,-94771.98,-28038.697,-16372.763,-37544.027,-35100.3,-50261.11,32386.477
881792.8451932427,-13452.841,-94764.0,-28032.432,-16365.724,-37536.46,-35105.184,-50254.477,32399.904
881792.8491932405,-13446.289,-94755.25,-28025.799,-16355.266,-37528.445,-35106.934,-50249.188,32408.0
881792.8531932384,-13457.194,-94760.586,-28029.135,-16358.684,-37531.535,-35105.633,-50253.258,32396.81
881792.8571932362,-13466.228,-94771.81,-28034.668,-16368.653,-37539.633,-35102.824,-50259.36,32392.295
881792.8611932341,-13470.419,-94770.67,-28035.97,-16372.641,-37534.02,-35100.547,-50259.44,32398.805
881792.865193232,-13462.362,-94759.766,-28035.768,-16365.357,-37524.78,-35102.176,-50256.51,32392.54
881792.8691932298,-13451.091,-94748.3,-28027.67,-16355.144,-37514.445,-35101.523,-50250.367,32394.816
881792.8731932277,-13453.451,-94752.28,-28025.27,-16358.399,-37518.8,-35099.285,-50255.82,32390.504
881792.8771932255,-13465.251,-94760.42,-28032.146,-16364.828,-37520.914,-35098.062,-50259.688,32383.098
881792.8811932234,-13470.825,-94763.63,-28034.22,-16365.031,-37510.945,-35101.36,-50258.26,32384.768
881792.8851932213,-13473.715,-94756.72,-28034.832,-16359.742,-37494.793,-35105.348,-50250.855,32401.043
881792.8891932191,-13468.466,-94751.95,-28034.018,-16355.266,-37488.566,-35106.363,-50244.387,32415.121
881792.893193217,-13470.419,-94758.63,-28035.482,-16356.242,-37488.08,-35102.133,-50241.742,32412.314
881792.8971932149,-13477.621,-94769.164,-28042.969,-16364.706,-37490.074,-35100.953,-50245.934,32412.68
881792.9011932127,-13477.824,-94770.14,-28044.068,-16368.815,-37492.84,-35104.82,-50255.293,32392.824
881792.9051932106,-13466.472,-94756.47,-28031.982,-16360.026,-37482.137,-35103.11,-50249.105,32398.805
881792.9091932084,-13457.602,-94746.5,-28027.914,-16350.749,-37470.746,-35103.23,-50243.9,32398.52
881792.9131932063,-13467.773,-94756.72,-28032.797,-16347.331,-37462.65,-35100.504,-50243.33,32411.541
881792.9171932042,-13476.44,-94767.46,-28040.121,-16354.818,-37464.07,-35102.05,-50248.902,32410.523
881792.921193202,-13471.884,-94764.08,-28039.145,-16358.684,-37464.03,-35104.332,-50249.88,32405.355
881792.9251931999,-13472.575,-94750.41,-28036.906,-16352.418,-37461.55,-35108.035,-50240.562,32411.785
881792.9291931977,-13465.942,-94739.26,-28030.479,-16343.222,-37464.48,-35108.4,-50234.418,32420.695
881792.9331931956,-13465.292,-94739.914,-28029.46,-16344.239,-37468.387,-35101.156,-50234.863,32420.451
881792.9371931935,-13472.656,-94752.484,-28039.227,-16354.005,-37478.76,-35100.426,-50238.69,32415.08
881792.9411931913,-13475.912,-94755.336,-28043.54,-16358.48,-37479.695,-35105.43,-50246.176,32401.408
881792.9451931892,-13465.78,-94744.34,-28038.697,-16349.732,-37470.83,-35107.34,-50240.316,32404.95
881792.949193187,-13459.147,-94732.79,-28030.273,-16340.536,-37460.33,-35106.16,-50227.62,32424.357
881792.9531931849,-13467.773,-94736.53,-28029.623,-16345.704,-37464.438,-35105.715,-50233.81,32413.088
881792.9571931828,-13474.976,-94749.76,-28040.977,-16354.371,-37471.56,-35105.43,-50241.742,32401.938
881792.9611931806,-13470.012,-94752.65,-28043.701,-16355.348,-37482.75,-35108.48,-50246.95,32390.463
881792.9651931785,-13459.799,-94745.52,-28034.912,-16346.559,-37478.477,-35111.246,-50241.984,32395.63
881792.9691931764,-13449.87,-94733.97,-28025.39,-16337.037,-37470.62,-35107.87,-50226.645,32421.592
881792.9731931742,-13456.665,-94738.37,-28025.879,-16338.705,-37473.758,-35102.703,-50226.402,32417.156
881792.9771931721,-13473.349,-94752.2,-28035.117,-16347.128,-37477.664,-35102.457,-50238.08,32408.205
881792.9811931701,-13464.519,-94746.34,-28036.377,-16347.738,-37477.297,-35105.957,-50242.598,32392.13
881792.9851931679,-13451.457,-94728.44,-28029.176,-16339.479,-37470.176,-35104.29,-50231.445,32404.746
881792.9891931658,-13449.748,-94718.67,-28022.91,-16334.107,-37466.066,-35102.99,-50223.023,32415.936
881792.9931931637,-13455.526,-94727.26,-28023.967,-16335.368,-37471.395,-35098.55,-50222.82,32418.662
881792.9971931615,-13459.555,-94743.414,-28029.705,-16342.245,-37471.152,-35095.62,-50229.656,32412.924
881793.0011931594,-13455.688,-94743.695,-28030.152,-16344.728,-37474.49,-35097.902,-50231.977,32417.197
881793.0051931572,-13454.224,-94736.984,-28022.217,-16340.861,-37473.715,-35099.527,-50228.395,32415.406
881793.0091931551,-13445.354,-94722.13,-28013.348,-16329.916,-37462.85,-35096.844,-50219.89,32427.613
881793.013193153,-13450.317,-94726.81,-28019.857,-16334.392,-37459.676,-35096.52,-50224.773,32425.498
881793.0171931508,-13459.921,-94737.76,-28026.572,-16343.629,-37460.816,-35097.496,-50234.945,32418.947
881793.0211931487,-13454.956,-94733.89,-28025.96,-16345.012,-37468.996,-35099.367,-50236.777,32418.58
881793.0251931465,-13447.714,-94725.75,-28022.87,-16336.793,-37463.094,-35102.133,-50232.87,32412.15
881793.0291931444,-13440.715,-94715.87,-28014.568,-16328.329,-37455.04,-35100.098,-50226.402,32408.855
881793.0331931423,-13450.277,-94720.13,-28022.299,-16334.758,-37461.754,-35099.734,-50223.023,32422.201
881793.0371931401,-13461.874,-94727.54,-28028.037,-16343.995,-37470.664,-35096.76,-50227.297,32417.97
881793.041193138,-13461.386,-94727.83,-28028.605,-16347.901,-37469.93,-35098.918,-50235.72,32396.363
881793.0451931359,-13454.672,-94720.95,-28026.002,-16342.692,-37461.996,-35102.336,-50231.367,32401.328
881793.0491931337,-13450.073,-94707.28,-28015.219,-16332.765,-37458.09,-35098.836,-50219.08,32420.451
881793.0531931316,-13447.0625,-94711.47,-28018.799,-16336.589,-37470.176,-35096.926,-50223.31,32418.662
881793.0571931294,-13449.585,-94726.12,-28027.793,-16345.785,-37476.32,-35097.414,-50233.44,32413.371
881793.0611931273,-13458.415,-94727.945,-28029.746,-16347.738,-37467.938,-35100.223,-50232.992,32419.719
881793.0651931252,-13457.4795,-94715.984,-28024.375,-16340.821,-37457.438,-35102.297,-50230.918,32414.268
881793.069193123,-13459.106,-94706.305,-28022.828,-16334.311,-37451.785,-35099.812,-50226.523,32416.424
881793.0731931209,-13462.973,-94717.695,-28023.643,-16336.427,-37458.742,-35095.664,-50225.465,32410.97
881793.0771931187,-13466.269,-94734.74,-28032.064,-16343.751,-37464.07,-35092.043,-50227.742,32406.82
881793.0811931166,-13463.949,-94735.88,-28033.732,-16345.175,-37464.152,-35095.95,-50227.703,32405.396
881793.0851931145,-13458.74,-94732.016,-28029.95,-16341.432,-37461.875,-35100.953,-50222.82,32421.836
881793.0891931123,-13449.341,-94721.84,-28020.508,-16333.375,-37461.508,-35097.047,-50210.938,32442.588
881793.0931931102,-13454.143,-94726.93,-28021.484,-16336.711,-37464.4,-35092.938,-50215.82,32424.846
881793.097193108,-13462.158,-94740.32,-28029.176,-16347.372,-37470.38,-35092.855,-50227.094,32408.732
881793.1011931059,-13451.782,-94740.93,-28030.438,-16348.959,-37470.83,-35098.39,-50233.035,32409.182
881793.1051931038,-13442.221,-94734.336,-28021.363,-16341.024,-37466.96,-35101.24,-50229.004,32412.111
881793.1091931016,-13437.256,-94726.12,-28017.334,-16336.671,-37465.7,-35101.44,-50225.79,32405.479
881793.1131930995,-13446.045,-94728.6,-28023.764,-16341.798,-37467.41,-35097.293,-50223.836,32413.127
881793.1171930974,-13456.218,-94742.11,-28034.873,-16350.383,-37474.49,-35097.293,-50230.88,32400.637
881793.1211930952,-13454.306,-94748.375,-28037.354,-16349.936,-37470.055,-35099.977,-50232.18,32398.398
881793.1251930931,-13441.528,-94732.83,-28024.943,-16339.03,-37459.96,-35102.094,-50223.31,32410.076
881793.129193091,-13443.319,-94723.68,-28021.037,-16332.357,-37449.625,-35101.035,-50218.63,32419.436
881793.1331930888,-13448.324,-94734.055,-28025.879,-16339.641,-37451.824,-35098.594,-50223.023,32414.268
881793.1371930867,-13451.172,-94746.664,-28033.123,-16348.43,-37462.28,-35096.273,-50230.062,32414.309
881793.1411930845,-13449.992,-94748.82,-28037.68,-16350.668,-37469.645,-35097.13,-50235.68,32399.62
881793.1451930825,-13439.819,-94735.35,-28028.605,-16342.896,-37457.156,-35099.734,-50232.18,32393.19
881793.1491930804,-13435.629,-94722.82,-28019.125,-16336.63,-37448.895,-35099.895,-50221.6,32406.291
881793.1531930782,-13445.15,-94725.586,-28021.729,-16341.716,-37456.83,-35099.203,-50223.43,32409.547
881793.1571930761,-13455.893,-94739.14,-28032.105,-16349.244,-37466.797,-35097.13,-50229.535,32407.188
881793.161193074,-13455.404,-94740.93,-28032.39,-16350.627,-37462.445,-35100.426,-50230.266,32407.96
881793.1651930718,-13441.081,-94725.43,-28022.34,-16340.414,-37455.65,-35100.87,-50221.64,32412.15
881793.1691930697,-13435.303,-94720.83,-28013.184,-16330.16,-37452.35,-35094.81,-50211.67,32423.79
881793.1731930675,-13441.772,-94731.37,-28016.277,-16331.828,-37450.195,-35089.56,-50211.836,32423.666
881793.1771930654,-13451.091,-94741.055,-28029.867,-16342.978,-37457.156,-35091.637,-50224.895,32402.71
881793.1811930633,-13446.493,-94741.5,-28031.455,-16345.744,-37463.625,-35096.64,-50232.992,32394.084
881793.1851930611,-13443.563,-94735.35,-28026.652,-16338.583,-37458.21,-35097.74,-50229.414,32406.129
881793.189193059,-13441.162,-94727.586,-28019.857,-16328.41,-37443.523,-35095.664,-50224.246,32402.549
881793.1931930569,-13442.383,-94731.164,-28018.637,-16327.475,-37447.31,-35089.805,-50221.805,32404.867
881793.1971930547,-13455.119,-94741.17,-28030.885,-16336.101,-37448.69,-35089.152,-50226.2,32408.732
881793.2011930526,-13454.672,-94737.555,-28034.059,-16340.129,-37447.348,-35093.223,-50235.434,32388.674
881793.2051930504,-13446.574,-94725.1,-28026.205,-16334.514,-37443.523,-35093.465,-50228.72,32397.543
881793.2091930483,-13440.715,-94712.32,-28016.318,-16326.335,-37432.21,-35091.227,-50216.105,32413.941
881793.2131930462,-13445.679,-94712.164,-28019.775,-16330.119,-37439.78,-35088.38,-50218.875,32414.186
881793.217193044,-13450.684,-94721.84,-28028.688,-16339.071,-37452.19,-35086.184,-50228.64,32401.043
881793.2211930419,-13446.899,-94722.21,-28028.2,-16337.037,-37447.51,-35091.637,-50233.113,32398.072
881793.2251930397,-13438.3955,-94713.586,-28018.719,-16326.986,-37437.867,-35091.51,-50223.227,32409.588
881793.2291930376,-13435.141,-94708.26,-28013.389,-16320.231,-37435.305,-35088.055,-50216.676,32420.574
881793.2331930355,-13443.359,-94712.484,-28016.236,-16325.766,-37443.523,-35085.98,-50223.43,32412.477
881793.2371930333,-13453.41,-94723.23,-28026.287,-16336.549,-37454.062,-35088.582,-50234.01,32414.145
881793.2411930312,-13451.701,-94725.95,-28028.443,-16337.525,-37443.117,-35090.293,-50236.004,32406.291
881793.245193029,-13441.162,-94717.62,-28021.648,-16330.404,-37434.734,-35090.293,-50226.645,32409.914
881793.2491930269,-13435.954,-94709.68,-28019.248,-16326.254,-37433.31,-35088.46,-50215.254,32423.016
881793.2531930248,-13438.518,-94717.77,-28019.492,-16329.957,-37441.043,-35084.598,-50215.332,32426.637
881793.2571930226,-13454.346,-94738.24,-28025.676,-16340.455,-37452.516,-35084.066,-50230.31,32413.088
881793.2611930205,-13460.531,-94745.37,-28033.773,-16343.059,-37453.656,-35084.027,-50236.168,32405.764
881793.2651930184,-13438.559,-94726.08,-28021.322,-16331.462,-37450.93,-35084.676,-50226.32,32416.057
881793.2691930162,-13429.403,-94710.66,-28014.812,-16323.894,-37450.93,-35083.7,-50215.254,32431.275
881793.2731930141,-13439.697,-94717.41,-28019.94,-16331.95,-37458.254,-35082.36,-50218.184,32429.12
881793.277193012,-13443.278,-94727.74,-28022.422,-16341.269,-37476.48,-35083.254,-50225.668,32418.133
881793.2811930098,-13443.563,-94731.164,-28024.252,-16342.692,-37479.29,-35087.73,-50230.145,32400.066
881793.2851930077,-13436.32,-94720.99,-28020.672,-16336.223,-37469.93,-35089.6,-50226.523,32401.45
881793.2891930055,-13431.845,-94711.67,-28015.545,-16329.672,-37467.53,-35088.867,-50216.84,32413.25
881793.2931930034,-13443.197,-94730.875,-28019.572,-16332.398,-37464.844,-35085.9,-50218.184,32420.207
881793.2971930013,-13451.538,-94746.95,-28026.043,-16339.274,-37467.125,-35084.434,-50223.758,32417.441
881793.3011929991,-13450.684,-94744.305,-28031.861,-16342.814,-37467.613,-35087.81,-50226.523,32409.385
881793.305192997,-13435.791,-94730.67,-28021.69,-16334.88,-37455.77,-35085.695,-50217.57,32418.418
881793.3091929948,-13430.095,-94717.57,-28011.027,-16324.301,-37446.74,-35083.457,-50208.66,32429.934
881793.3131929928,-13433.31,-94714.805,-28011.068,-16325.155,-37449.18,-35081.95,-50210.41,32421.021
881793.3171929907,-13441.447,-94725.18,-28019.654,-16334.311,-37461.47,-35082.52,-50215.945,32421.795
881793.3211929885,-13438.314,-94729.984,-28023.438,-16338.786,-37468.344,-35085.9,-50225.914,32413.576
881793.3251929864,-13429.77,-94722.375,-28018.066,-16334.636,-37460.777,-35087.04,-50222.21,32423.707
881793.3291929843,-13426.066,-94711.02,-28008.871,-16327.76,-37455.16,-35083.254,-50212.812,32442.465
881793.3331929821,-13430.827,-94709.72,-28009.807,-16328.695,-37459.88,-35077.312,-50212.28,32441.244
881793.33719298,-13431.315,-94719.61,-28019.857,-16340.495,-37468.465,-35081.992,-50225.465,32416.018
881793.3411929779,-13434.733,-94719.65,-28021.484,-16344.768,-37473.96,-35088.38,-50231.04,32404.95
881793.3451929757,-13427.653,-94705.69,-28010.621,-16335.49,-37462.934,-35087.242,-50222.21,32415.08
881793.3491929736,-13425.334,-94697.31,-28004.924,-16328.614,-37458.945,-35084.676,-50210.207,32435.06
881793.3531929714,-13437.622,-94710.25,-28017.457,-16335.694,-37469.973,-35084.96,-50215.82,32425.254
881793.3571929693,-13453.776,-94730.96,-28027.1,-16349.203,-37487.957,-35085.98,-50229.25,32405.152
881793.3611929672,-13447.714,-94733.32,-28025.146,-16350.505,-37486.207,-35088.176,-50236.695,32390.91
881793.365192965,-13433.269,-94725.1,-28021.404,-16343.222,-37481.242,-35090.58,-50231.203,32403.402
881793.3691929629,-13429.606,-94717.41,-28014.73,-16336.345,-37474.61,-35090.293,-50224.043,32412.924
881793.3731929607,-13435.629,-94721.766,-28015.38,-16338.705,-37481.977,-35087.04,-50226.36,32413.86
881793.3771929586,-13444.377,-94729.125,-28022.34,-16345.338,-37490.6,-35087.32,-50234.54,32405.396
881793.3811929565,-13443.359,-94735.35,-28023.234,-16347.535,-37489.746,-35088.707,-50235.11,32398.805
881793.3851929543,-13435.791,-94725.586,-28012.818,-16339.152,-37480.266,-35084.88,-50221.316,32420.736
881793.3891929522,-13433.96,-94716.15,-28007.61,-16332.032,-37470.5,-35080.363,-50209.434,32432.62
881793.39319295,-13439.453,-94723.06,-28015.422,-16338.908,-37473.188,-35080.812,-50214.4,32421.266
881793.3971929479,-13444.865,-94732.51,-28025.473,-16346.965,-37490.6,-35084.066,-50227.582,32410.809
881793.4011929458,-13441.61,-94733.52,-28026.084,-16347.331,-37497.438,-35090.82,-50231.773,32406.17
881793.4051929436,-13436.076,-94726.81,-28020.102,-16338.461,-37487.918,-35093.63,-50227.867,32407.676
881793.4091929415,-13429.281,-94716.15,-28011.11,-16328.085,-37476.97,-35090.82,-50222.168,32416.75
881793.4131929394,-13433.065,-94720.75,-28009.604,-16331.381,-37481.773,-35087.934,-50223.797,32416.424
881793.4171929372,-13443.889,-94736.78,-28016.725,-16342.978,-37489.098,-35087.73,-50231.527,32408.488
881793.4211929351,-13435.385,-94741.375,-28019.451,-16345.866,-37494.754,-35089.273,-50234.785,32408.693
881793.425192933,-13426.433,-94723.266,-28015.91,-16336.223,-37483.6,-35089.64,-50226.277,32418.254
881793.4291929308,-13423.828,-94706.875,-28008.098,-16326.132,-37473.836,-35085.086,-50215.332,32430.38
881793.4331929287,-13426.677,-94714.97,-28009.074,-16329.591,-37478.07,-35081.3,-50217.855,32411.906
881793.4371929265,-13435.425,-94731.81,-28013.713,-16338.298,-37492.15,-35077.555,-50223.145,32415.488
881793.4411929244,-13436.279,-94731.08,-28015.707,-16339.641,-37491.742,-35081.625,-50231.0,32412.355
881793.4451929223,-13427.368,-94716.43,-28014.242,-16333.456,-37484.293,-35086.47,-50225.18,32406.414
881793.4491929201,-13426.799,-94703.33,-28007.285,-16326.335,-37475.87,-35085.613,-50212.73,32422.486
881793.453192918,-13437.622,-94714.84,-28012.533,-16332.235,-37485.312,-35085.574,-50220.83,32419.76
881793.4571929158,-13454.224,-94735.35,-28025.96,-16342.855,-37505.574,-35087.85,-50233.97,32407.35
881793.4611929137,-13449.138,-94741.664,-28025.352,-16342.53,-37505.535,-35091.31,-50236.492,32408.205
881793.4651929116,-13435.303,-94725.06,-28014.893,-16331.259,-37490.52,-35090.375,-50222.74,32428.793
881793.4691929094,-13426.27,-94717.98,-28012.656,-16322.917,-37481.65,-35090.008,-50213.258,32437.582
881793.4731929073,-13435.425,-94728.516,-28017.13,-16326.864,-37485.15,-35087.117,-50218.996,32417.033
881793.4771929053,-13453.939,-94736.49,-28028.646,-16339.723,-37502.727,-35088.95,-50233.4,32388.998
881793.4811929031,-13454.224,-94738.28,-28033.123,-16345.216,-37509.562,-35091.27,-50236.777,32387.736
881793.485192901,-13445.109,-94725.06,-28022.91,-16337.077,-37497.195,-35088.95,-50228.07,32400.758
881793.4891928989,-13441.366,-94715.87,-28016.846,-16330.7705,-37487.145,-35090.82,-50225.02,32409.182
881793.4931928967,-13447.958,-94731.37,-28017.742,-16335.897,-37488.484,-35090.7,-50229.574,32407.39
881793.4971928946,-13450.277,-94745.37,-28023.357,-16343.913,-37497.438,-35086.387,-50234.5,32410.197
881793.5011928924,-13453.613,-94745.484,-28026.816,-16345.297,-37494.67,-35087.242,-50237.59,32403.77
881793.5051928903,-13452.067,-94733.24,-28023.234,-16337.932,-37498.09,-35087.77,-50229.29,32413.656
881793.5091928882,-13445.395,-94722.05,-28016.807,-16330.404,-37496.176,-35086.266,-50220.297,32422.854
881793.513192886,-13445.517,-94726.16,-28017.13,-16333.903,-37501.18,-35083.09,-50217.652,32435.955
881793.5171928839,-13452.23,-94737.19,-28020.713,-16343.344,-37513.387,-35081.95,-50225.3,32427.695
881793.5211928817,-13449.26,-94738.61,-28020.875,-16342.367,-37513.51,-35082.805,-50221.477,32428.752
881793.5251928796,-13431.396,-94725.305,-28010.295,-16333.619,-37509.848,-35079.715,-50208.05,32444.094
881793.5291928775,-13429.565,-94714.56,-28004.111,-16329.306,-37499.023,-35077.883,-50201.133,32443.97
881793.5331928753,-13443.726,-94718.875,-28009.686,-16335.084,-37492.84,-35075.074,-50203.613,32444.377
881793.5371928732,-13460.246,-94735.15,-28021.566,-16345.663,-37510.703,-35076.945,-50216.066,32432.252
881793.541192871,-13446.127,-94727.586,-28018.475,-16344.035,-37512.98,-35080.242,-50218.953,32430.178
881793.5451928689,-13429.281,-94704.47,-28009.97,-16332.5205,-37499.96,-35078.207,-50209.312,32439.902
881793.5491928668,-13426.596,-94696.21,-28003.297,-16323.487,-37493.125,-35076.05,-50203.168,32436.809
881793.5531928646,-13436.361,-94706.38,-28008.912,-16329.387,-37499.15,-35073.285,-50205.242,32429.729
881793.5571928625,-13444.133,-94719.2,-28019.654,-16339.804,-37506.39,-35073.49,-50213.79,32432.049
881793.5611928604,-13443.848,-94719.28,-28020.06,-16340.617,-37502.08,-35077.883,-50219.688,32429.852
881793.5651928582,-13430.42,-94712.57,-28011.639,-16336.589,-37502.08,-35078.453,-50213.79,32438.885
881793.5691928561,-13424.927,-94709.96,-28005.656,-16334.88,-37498.496,-35079.633,-50211.71,32434.938
881793.573192854,-13438.559,-94721.27,-28014.771,-16340.658,-37505.82,-35078.98,-50219.2,32431.438
881793.5771928518,-13445.72,-94734.664,-28025.758,-16351.481,-37524.984,-35080.324,-50233.645,32420.207
881793.5811928497,-13437.46,-94740.56,-28022.34,-16350.749,-37526.207,-35084.72,-50233.36,32417.074
881793.5851928475,-13423.584,-94733.65,-28015.91,-16339.601,-37520.426,-35087.566,-50217.773,32444.744
881793.5891928454,-13421.062,-94720.75,-28011.516,-16331.828,-37525.473,-35088.34,-50217.855,32425.498
881793.5931928433,-13434.57,-94729.984,-28014.648,-16338.949,-37534.02,-35085.777,-50225.383,32419.924
881793.5971928411,-13444.011,-94748.66,-28021.484,-16349.325,-37532.51,-35085.938,-50229.86,32422.61
881793.601192839,-13444.133,-94742.8,-28018.84,-16350.139,-37522.543,-35085.33,-50229.207,32417.97
881793.6051928368,-13429.6875,-94723.72,-28009.562,-16341.391,-37513.062,-35085.492,-50224.082,32418.865
881793.6091928347,-13424.561,-94708.74,-28002.727,-16332.561,-37503.297,-35079.43,-50212.527,32441.57
881793.6131928326,-13435.141,-94718.914,-28008.098,-16337.443,-37509.727,-35076.703,-50216.23,32442.709
881793.6171928304,-13448.527,-94736.125,-28018.76,-16346.64,-37522.95,-35078.453,-50226.36,32422.73
881793.6211928283,-13444.133,-94733.56,-28019.084,-16348.023,-37526.816,-35079.1,-50226.277,32417.238
881793.6251928261,-13434.896,-94723.8,-28012.86,-16340.739,-37515.75,-35078.25,-50218.67,32427.37
881793.629192824,-13437.378,-94726.195,-28008.342,-16334.514,-37512.574,-35076.742,-50211.47,32441.814
881793.6331928219,-13437.907,-94728.72,-28012.98,-16335.409,-37518.68,-35072.918,-50212.28,32441.367
881793.6371928197,-13440.512,-94743.21,-28022.99,-16343.954,-37530.723,-35075.562,-50222.656,32428.346
881793.6411928177,-13439.291,-94750.94,-28024.17,-16346.599,-37527.02,-35080.65,-50224.45,32438.07
881793.6451928156,-13431.071,-94738.445,-28017.904,-16340.414,-37518.35,-35083.7,-50220.297,32431.887
881793.6491928134,-13430.827,-94726.85,-28015.87,-16335.206,-37513.715,-35085.492,-50215.863,32424.277
881793.6531928113,-13451.457,-94732.75,-28019.98,-16342.245,-37522.543,-35081.83,-50220.46,32426.393
881793.6571928092,-13456.909,-94744.875,-28031.982,-16353.435,-37537.438,-35083.66,-50230.023,32420.29
881793.661192807,-13450.928,-94746.75,-28032.064,-16354.859,-37537.312,-35085.777,-50231.69,32418.865
881793.6651928049,-13436.157,-94731.164,-28016.846,-16344.035,-37519.086,-35083.496,-50223.594,32421.104
881793.6691928027,-13424.357,-94721.07,-28010.133,-16333.09,-37505.984,-35082.113,-50212.65,32443.28
881793.6731928006,-13427.287,-94722.54,-28012.207,-16332.4795,-37502.688,-35076.336,-50214.56,32440.105
881793.6771927985,-13450.603,-94738.57,-28022.178,-16342.204,-37511.07,-35077.19,-50223.066,32431.398
881793.6811927963,-13447.429,-94744.836,-28024.781,-16348.512,-37513.184,-35085.29,-50232.832,32414.186
881793.6851927942,-13427.328,-94727.945,-28016.236,-16338.746,-37500.977,-35086.59,-50224.69,32424.562
881793.689192792,-13425.253,-94713.71,-28009.115,-16333.09,-37487.348,-35085.043,-50214.684,32445.842
881793.6931927899,-13434.896,-94716.76,-28009.482,-16336.833,-37484.742,-35081.625,-50211.305,32444.012
881793.6971927878,-13437.907,-94723.555,-28015.91,-16343.263,-37482.383,-35082.48,-50221.03,32425.701
881793.7011927856,-13434.53,-94718.06,-28013.55,-16341.716,-37480.31,-35083.496,-50219.727,32423.951
881793.7051927835,-13421.387,-94710.05,-28005.494,-16329.875,-37464.684,-35082.926,-50209.92,32431.193
881793.7091927814,-13420.492,-94703.45,-28007.203,-16323.121,-37454.062,-35080.812,-50205.61,32437.867
881793.7131927792,-13427.897,-94710.78,-28011.15,-16328.695,-37457.645,-35077.066,-50210.9,32434.246
881793.7171927771,-13439.209,-94719.0,-28022.95,-16335.084,-37462.527,-35075.36,-50218.67,32434.855
881793.721192775,-13435.791,-94713.99,-28026.084,-16335.206,-37459.188,-35074.22,-50213.91,32437.42
881793.7251927728,-13427.816,-94703.58,-28016.846,-16326.823,-37447.31,-35074.42,-50204.227,32436.646
881793.7291927707,-13425.049,-94688.52,-28007.365,-16319.459,-37436.688,-35071.574,-50196.004,32448.65
881793.7331927685,-13426.555,-94693.28,-28010.824,-16322.022,-37441.938,-35072.51,-50198.812,32452.354
881793.7371927664,-13427.856,-94705.484,-28015.91,-16329.347,-37454.1,-35072.266,-50208.09,32447.023
881793.7411927643,-13432.902,-94708.7,-28019.084,-16332.683,-37452.965,-35076.54,-50209.312,32444.094
881793.7451927621,-13423.137,-94697.59,-28010.824,-16324.83,-37442.344,-35077.68,-50199.953,32450.807
881793.74919276,-13410.686,-94691.77,-28003.582,-16316.285,-37432.7,-35075.523,-50192.426,32453.574
881793.7531927578,-13417.48,-94696.01,-28007.447,-16318.849,-37432.496,-35072.47,-50193.523,32446.738
881793.7571927557,-13430.42,-94706.586,-28014.854,-16328.41,-37433.555,-35074.79,-50199.992,32438.6
881793.7611927536,-13422.567,-94708.375,-28014.121,-16328.614,-37435.547,-35073.445,-50202.027,32440.959
881793.7651927514,-13405.844,-94700.65,-28011.557,-16323.731,-37428.875,-35074.22,-50199.22,32441.732
881793.7691927493,-13417.603,-94694.46,-28009.441,-16319.174,-37426.11,-35074.18,-50193.562,32447.062
881793.7731927471,-13427.775,-94701.09,-28008.262,-16320.517,-37433.473,-35067.06,-50189.902,32460.125
881793.777192745,-13429.606,-94712.89,-28010.783,-16327.76,-37439.94,-35065.066,-50196.492,32442.994
881793.7811927429,-13422.526,-94709.64,-28010.742,-16325.766,-37439.453,-35064.293,-50193.973,32441.408
881793.7851927407,-13409.262,-94692.016,-28005.453,-16318.36,-37429.85,-35066.246,-50183.797,32451.213
881793.7891927386,-13405.925,-94681.484,-27999.309,-16310.263,-37423.258,-35065.27,-50173.26,32467.734
881793.7931927365,-13423.422,-94691.0,-28003.094,-16313.966,-37436.65,-35062.746,-50176.8,32458.334
881793.7971927343,-13429.606,-94705.94,-28009.318,-16323.894,-37438.273,-35063.723,-50190.066,32439.088
881793.8011927322,-13420.898,-94708.87,-28012.574,-16328.817,-37441.812,-35067.18,-50194.297,32435.549
881793.8051927302,-13417.074,-94698.445,-28004.68,-16323.609,-37436.28,-35071.98,-50191.203,32439.006
881793.809192728,-13407.227,-94687.83,-27997.275,-16314.82,-37426.188,-35071.777,-50186.605,32448.04
881793.8131927259,-13411.215,-94696.945,-28004.395,-16317.018,-37424.562,-35069.867,-50190.188,32448.527
881793.8171927237,-13423.381,-94713.38,-28012.777,-16324.708,-37430.625,-35068.727,-50196.13,32442.344
881793.8211927216,-13423.869,-94713.95,-28011.11,-16328.004,-37428.266,-35067.71,-50190.797,32450.889
881793.8251927195,-13416.22,-94698.85,-28003.215,-16319.54,-37423.79,-35071.82,-50183.96,32457.113
881793.8291927173,-13410.645,-94681.27,-27991.09,-16309.774,-37421.43,-35075.195,-50179.812,32460.695
881793.8331927152,-13416.098,-94686.77,-27997.64,-16314.901,-37427.816,-35074.992,-50185.344,32456.016
881793.837192713,-13424.316,-94702.72,-28006.918,-16323.731,-37432.7,-35071.535,-50190.227,32447.592
881793.8411927109,-13429.932,-94704.06,-28009.766,-16327.23,-37432.82,-35071.29,-50195.723,32436.89
881793.8451927088,-13417.277,-94687.42,-28005.127,-16323.568,-37433.594,-35076.09,-50191.0,32444.988
881793.8491927066,-13411.418,-94679.734,-27994.752,-16316.8955,-37428.875,-35073.527,-50176.11,32474.447
881793.8531927045,-13419.394,-94694.055,-27996.867,-16321.981,-37427.53,-35067.79,-50177.734,32469.484
881793.8571927024,-13429.077,-94709.48,-28006.348,-16330.404,-37434.816,-35067.426,-50190.715,32443.889
881793.8611927002,-13428.711,-94709.234,-28007.895,-16328.939,-37436.28,-35067.71,-50191.285,32440.879
881793.8651926981,-13416.22,-94692.06,-27999.473,-16319.255,-37427.45,-35067.344,-50181.195,32454.672
881793.869192696,-13409.506,-94683.76,-27993.734,-16310.06,-37418.01,-35066.0,-50172.49,32470.42
881793.8731926938,-13414.267,-94692.1,-28001.67,-16315.187,-37424.4,-35064.25,-50182.78,32449.465
881793.8771926917,-13429.565,-94702.4,-28009.686,-16324.748,-37434.285,-35066.895,-50196.414,32424.44
881793.8811926895,-13427.694,-94702.195,-28010.01,-16327.882,-37439.37,-35071.168,-50197.754,32426.066
881793.8851926874,-13415.649,-94690.23,-28002.076,-16319.703,-37425.293,-35069.418,-50185.71,32445.354
881793.8891926853,-13404.216,-94680.71,-27992.84,-16310.792,-37411.54,-35067.668,-50177.37,32455.771
881793.8931926831,-13409.668,-94695.195,-27997.723,-16314.21,-37411.99,-35065.348,-50181.562,32460.287
881793.897192681,-13416.911,-94706.625,-28003.785,-16320.72,-37424.156,-35067.344,-50190.715,32446.941
881793.9011926788,-13410.6045,-94698.37,-27999.717,-16321.208,-37423.3,-35068.848,-50192.14,32440.432
881793.9051926767,-13406.332,-94682.945,-27993.613,-16316.529,-37419.598,-35072.31,-50188.64,32439.088
881793.9091926746,-13409.14,-94679.24,-27989.178,-16311.117,-37415.324,-35071.82,-50181.113,32450.36
881793.9131926724,-13418.295,-94687.75,-27993.734,-16315.39,-37424.195,-35067.996,-50184.816,32448.732
881793.9171926703,-13432.617,-94706.83,-28003.947,-16326.457,-37437.867,-35069.664,-50196.82,32437.664
881793.9211926681,-13432.251,-94712.57,-28006.227,-16328.573,-37442.26,-35071.207,-50199.668,32437.176
881793.925192666,-13416.83,-94695.88,-27998.943,-16318.889,-37434.367,-35070.273,-50192.02,32449.18
881793.9291926639,-13402.751,-94689.91,-27993.084,-16311.32,-37422.16,-35069.297,-50186.484,32456.504
881793.9331926617,-13410.482,-94699.586,-27996.826,-16317.831,-37430.094,-35067.098,-50186.85,32461.223
881793.9371926596,-13427.572,-94704.67,-28005.656,-16325.114,-37436.973,-35066.57,-50193.973,32456.057
881793.9411926575,-13428.427,-94701.625,-28006.633,-16325.44,-37435.71,-35070.355,-50200.156,32425.986
881793.9451926553,-13403.442,-94688.805,-27991.74,-16313.722,-37429.08,-35069.95,-50189.617,32438.438
881793.9491926532,-13397.055,-94684.33,-27986.695,-16305.421,-37421.957,-35068.44,-50185.71,32448.04
881793.953192651,-13410.522,-94692.75,-27994.752,-16315.634,-37427.207,-35067.71,-50192.344,32450.4
881793.9571926489,-13415.446,-94701.016,-27999.756,-16323.894,-37436.117,-35070.926,-50203.086,32440.879
881793.9611926468,-13408.773,-94698.24,-27999.92,-16324.586,-37432.414,-35076.54,-50208.09,32433.92
881793.9651926446,-13401.855,-94689.17,-27997.193,-16319.377,-37430.46,-35079.43,-50200.766,32441.855
881793.9691926426,-13400.229,-94684.62,-27993.613,-16313.966,-37425.78,-35076.09,-50191.855,32457.195
881793.9731926405,-13404.013,-94684.2,-27994.182,-16316.977,-37431.277,-35070.355,-50196.37,32450.277
881793.9771926383,-13416.789,-94690.31,-28000.732,-16327.394,-37449.383,-35070.152,-50206.586,32442.18
881793.9811926362,-13415.161,-94691.45,-28000.977,-16329.0205,-37451.54,-35073.203,-50209.758,32436.281
881793.985192634,-13405.3955,-94680.55,-27993.328,-16318.238,-37434.33,-35071.25,-50194.746,32452.434
881793.9891926319,-13393.148,-94667.16,-27983.562,-16306.193,-37423.992,-35065.797,-50183.15,32466.594
881793.9931926298,-13393.962,-94676.19,-27988.281,-16310.1,-37431.277,-35064.86,-50183.88,32468.67
881793.9971926276,-13403.687,-94687.91,-27998.047,-16317.099,-37433.35,-35064.58,-50196.7,32434.49
881794.0011926255,-13400.229,-94688.56,-27995.037,-16318.441,-37426.15,-35064.78,-50194.703,32442.059
881794.0051926234,-13388.713,-94676.76,-27985.19,-16312.379,-37416.953,-35069.54,-50188.03,32448.568
881794.0091926212,-13390.056,-94668.87,-27980.307,-16305.339,-37415.934,-35069.824,-50177.33,32463.828
881794.0131926191,-13395.346,-94684.695,-27981.895,-16308.879,-37415.652,-35066.61,-50182.457,32454.184
881794.017192617,-13402.832,-94695.234,-27992.92,-16315.878,-37427.45,-35065.96,-50191.57,32447.186
881794.0211926148,-13407.1455,-94687.99,-27997.152,-16318.116,-37437.418,-35069.01,-50190.39,32459.23
881794.0251926127,-13389.853,-94676.07,-27991.66,-16308.717,-37422.69,-35070.027,-50185.71,32453.94
881794.0291926105,-13386.027,-94670.49,-27991.008,-16302.735,-37417.766,-35070.64,-50181.438,32455.771
881794.0331926084,-13399.008,-94674.65,-27993.734,-16309.896,-37427.53,-35066.69,-50191.0,32439.943
881794.0371926063,-13410.563,-94686.24,-27999.229,-16321.859,-37436.117,-35065.758,-50198.61,32436.484
881794.0411926041,-13408.488,-94690.836,-27999.512,-16321.493,-37435.184,-35065.594,-50195.76,32437.664
881794.045192602,-13394.9795,-94679.37,-27991.21,-16313.111,-37426.23,-35065.348,-50183.31,32454.713
881794.0491925998,-13389.893,-94675.01,-27982.26,-16304.566,-37420.74,-35066.203,-50178.348,32460.41
881794.0531925977,-13398.356,-94687.26,-27984.13,-16309.245,-37424.074,-35062.746,-50183.35,32454.469
881794.0571925956,-13403.442,-94695.766,-27991.943,-16318.482,-37436.688,-35064.332,-50192.547,32442.994
881794.0611925934,-13407.431,-94698.37,-27999.676,-16324.016,-37446.004,-35068.523,-50199.06,32436.443
881794.0651925913,-13405.925,-94688.56,-27993.531,-16318.93,-37436.16,-35069.664,-50194.582,32437.908
881794.0691925891,-13399.618,-94679.32,-27985.312,-16309.896,-37423.098,-35068.156,-50188.07,32444.703
881794.073192587,-13404.989,-94684.37,-27988.852,-16311.728,-37429.688,-35064.78,-50191.895,32441.732
881794.0771925849,-13413.005,-94695.64,-27996.46,-16323.039,-37438.52,-35065.758,-50203.33,32427.94
881794.0811925827,-13412.436,-94699.47,-28002.197,-16327.516,-37445.965,-35068.035,-50203.207,32431.764
881794.0851925806,-13403.361,-94690.72,-27994.426,-16320.517,-37445.23,-35066.855,-50195.438,32439.658
881794.0891925785,-13395.874,-94681.16,-27987.59,-16313.762,-37439.78,-35065.918,-50185.996,32450.725
881794.0931925763,-13400.269,-94685.836,-27991.984,-16318.441,-37441.977,-35064.984,-50184.9,32467.57
881794.0971925742,-13414.551,-94697.875,-27999.717,-16328.288,-37453.94,-35063.56,-50194.746,32457.44
881794.101192572,-13416.098,-94696.29,-28001.994,-16332.154,-37457.848,-35071.574,-50204.67,32432.74
881794.1051925699,-13399.496,-94675.46,-27994.67,-16323.08,-37447.47,-35079.633,-50199.91,32432.781
881794.1091925678,-13394.653,-94665.98,-27983.643,-16312.907,-37441.0,-35079.508,-50192.426,32440.92
881794.1131925656,-13406.942,-94679.65,-27992.352,-16317.872,-37448.0,-35074.22,-50198.04,32438.682
881794.1171925635,-13414.307,-94697.39,-28000.938,-16328.004,-37452.883,-35073.934,-50209.11,32420.412
881794.1211925613,-13409.872,-94697.76,-27998.373,-16327.922,-37457.03,-35073.61,-50210.53,32419.475
881794.1251925592,-13399.008,-94683.44,-27993.938,-16318.482,-37452.066,-35073.406,-50204.43,32424.154
881794.1291925571,-13398.845,-94673.625,-27987.957,-16310.141,-37437.094,-35070.598,-50192.63,32437.705
881794.133192555,-13410.034,-94671.8,-27990.154,-16312.907,-37440.96,-35066.164,-50189.453,32451.742
881794.1371925529,-13411.418,-94680.016,-27999.309,-16321.574,-37455.812,-35064.58,-50196.535,32442.385
881794.1411925508,-13406.698,-94681.16,-27999.39,-16323.08,-37458.336,-35064.86,-50200.277,32428.752
881794.1451925486,-13392.578,-94666.875,-27990.072,-16313.722,-37452.76,-35067.832,-50195.355,32435.06
881794.1491925465,-13387.939,-94661.13,-27982.545,-16304.729,-37439.168,-35069.254,-50186.2,32449.912
881794.1531925444,-13392.7,-94670.29,-27986.816,-16308.635,-37437.418,-35067.71,-50191.203,32449.18
881794.1571925422,-13402.548,-94683.76,-27997.314,-16319.459,-37446.004,-35070.355,-50199.344,32447.145
881794.1611925401,-13403.117,-94680.34,-28000.123,-16321.94,-37446.25,-35069.54,-50201.906,32438.273
881794.1651925379,-13399.008,-94674.93,-27993.938,-16316.61,-37445.56,-35068.402,-50192.383,32441.488
881794.1691925358,-13400.432,-94672.61,-27989.055,-16309.245,-37445.68,-35068.2,-50189.984,32441.814
881794.1731925337,-13405.64,-94684.53,-27994.71,-16316.244,-37450.645,-35067.63,-50196.574,32438.193
881794.1771925315,-13405.722,-94694.99,-28000.041,-16322.673,-37457.6,-35066.367,-50201.99,32434.652
881794.1811925294,-13402.751,-94692.67,-27999.676,-16322.714,-37455.61,-35067.79,-50198.812,32440.512
881794.1851925272,-13391.439,-94683.39,-27995.646,-16316.0,-37454.836,-35069.176,-50185.793,32455.283
881794.1891925251,-13388.632,-94676.72,-27987.63,-16308.595,-37448.285,-35067.71,-50178.996,32456.137
881794.193192523,-13396.647,-94682.54,-27987.875,-16311.28,-37447.348,-35062.543,-50185.426,32442.424
881794.1971925208,-13406.942,-94694.5,-27995.24,-16322.0625,-37449.18,-35062.664,-50194.95,32437.664
881794.2011925187,-13406.901,-94690.8,-27995.158,-16323.039,-37448.367,-35063.355,-50197.227,32432.375
881794.2051925166,-13393.311,-94675.17,-27987.63,-16314.616,-37443.2,-35066.082,-50193.688,32426.027
881794.2091925144,-13385.58,-94666.18,-27982.342,-16309.53,-37442.344,-35063.152,-50182.984,32443.605
881794.2131925123,-13390.259,-94673.26,-27984.295,-16312.053,-37440.27,-35054.402,-50182.902,32450.889
881794.2171925101,-13401.164,-94685.1,-27994.914,-16320.395,-37447.266,-35053.67,-50187.746,32443.523
881794.221192508,-13401.9375,-94683.27,-27999.105,-16322.673,-37446.086,-35059.164,-50191.57,32442.75
881794.2251925059,-13387.899,-94671.63,-27988.242,-16312.907,-37441.652,-35060.223,-50183.066,32445.72
881794.2291925037,-13387.248,-94668.625,-27985.19,-16309.286,-37436.688,-35059.816,-50180.586,32442.22
881794.2331925016,-13396.24,-94674.195,-27991.293,-16316.977,-37436.973,-35056.723,-50188.844,32433.229
881794.2371924995,-13394.531,-94682.336,-27998.373,-16325.603,-37448.49,-35054.89,-50193.562,32423.545
881794.2411924973,-13390.869,-94681.89,-27999.717,-16328.451,-37450.074,-35054.89,-50189.375,32433.432
881794.2451924952,-13380.9,-94669.555,-27991.781,-16319.947,-37437.137,-35055.582,-50179.89,32439.617
881794.249192493,-13371.989,-94659.18,-27982.098,-16309.205,-37437.83,-35053.02,-50171.55,32442.465
881794.2531924909,-13389.486,-94675.87,-27984.375,-16314.576,-37449.668,-35050.133,-50174.316,32447.959
881794.2571924888,-13406.332,-94688.805,-27996.46,-16326.945,-37455.527,-35051.555,-50185.71,32443.197
881794.2611924866,-13392.456,-94676.07,-27994.752,-16325.521,-37447.55,-35052.004,-50187.297,32437.95
881794.2651924845,-13377.686,-94658.53,-27983.074,-16314.047,-37438.883,-35053.957,-50178.71,32441.773
881794.2691924823,-13363.892,-94649.78,-27972.535,-16302.165,-37434.855,-35049.93,-50169.355,32450.197
881794.2731924802,-13376.221,-94663.82,-27979.777,-16308.635,-37439.25,-35050.21,-50174.074,32449.586
881794.2771924781,-13387.451,-94678.71,-27989.99,-16319.784,-37445.844,-35052.98,-50182.13,32438.479
881794.2811924759,-13379.232,-94674.85,-27986.533,-16319.093,-37448.324,-35054.605,-50184.855,32438.273
881794.2851924738,-13366.74,-94661.586,-27975.262,-16310.304,-37447.918,-35056.234,-50177.734,32453.98
881794.2891924717,-13368.368,-94653.81,-27971.64,-16306.356,-37447.55,-35059.977,-50176.434,32449.871
881794.2931924695,-13375.285,-94661.016,-27974.121,-16310.06,-37443.605,-35057.047,-50182.13,32447.55
881794.2971924675,-13382.487,-94671.63,-27983.44,-16320.761,-37452.35,-35058.96,-50194.215,32437.094
881794.3011924654,-13380.168,-94666.95,-27984.092,-16321.127,-37456.586,-35057.496,-50194.582,32444.377
881794.3051924632,-13372.885,-94657.19,-27975.709,-16311.809,-37448.04,-35059.043,-50188.68,32445.191
881794.3091924611,-13372.07,-94648.89,-27968.182,-16307.74,-37439.293,-35061.484,-50185.06,32446.86
881794.3131924589,-13375.529,-94654.95,-27974.082,-16312.623,-37447.88,-35059.082,-50187.543,32447.268
881794.3171924568,-13383.179,-94672.734,-27982.951,-16324.708,-37460.086,-35061.117,-50195.19,32436.605
881794.3211924547,-13383.342,-94674.36,-27984.66,-16327.353,-37462.73,-35065.39,-50197.023,32432.17
881794.3251924525,-13370.605,-94658.66,-27980.225,-16318.116,-37455.812,-35066.164,-50186.566,32450.48
881794.3291924504,-13369.589,-94644.58,-27975.506,-16309.286,-37441.0,-35060.1,-50176.555,32462.81
881794.3331924482,-13380.29,-94649.82,-27982.057,-16313.437,-37439.047,-35052.246,-50171.184,32474.082
881794.3371924461,-13386.516,-94663.45,-27988.12,-16322.633,-37452.92,-35051.066,-50178.914,32463.42
881794.341192444,-13376.587,-94667.16,-27984.58,-16323.365,-37460.367,-35054.402,-50183.188,32451.01
881794.3451924418,-13364.828,-94652.06,-27978.883,-16313.64,-37453.656,-35058.84,-50175.215,32460.002
881794.3491924397,-13364.624,-94643.6,-27975.953,-16308.513,-37451.215,-35058.35,-50173.26,32464.113
881794.3531924376,-13381.389,-94656.66,-27978.271,-16314.942,-37452.35,-35054.324,-50175.62,32466.39
881794.3571924354,-13386.271,-94665.98,-27983.887,-16323.202,-37465.25,-35055.91,-50187.625,32449.504
881794.3611924333,-13381.552,-94660.766,-27982.504,-16324.016,-37464.56,-35058.23,-50189.863,32445.68
881794.3651924311,-13374.309,-94655.73,-27974.488,-16316.285,-37456.504,-35059.043,-50176.68,32470.623
881794.369192429,-13362.834,-94646.28,-27963.787,-16305.38,-37450.195,-35054.2,-50166.992,32471.885
881794.3731924269,-13367.27,-94650.92,-27966.96,-16309.245,-37457.766,-35051.883,-50173.504,32455.201
881794.3771924247,-13368.774,-94667.445,-27973.023,-16319.011,-37475.465,-35055.992,-50187.01,32436.443
881794.3811924226,-13365.845,-94667.65,-27976.318,-16319.825,-37477.094,-35056.277,-50188.07,32440.92
881794.3851924205,-13361.288,-94653.93,-27970.623,-16313.3955,-37460.816,-35057.457,-50177.98,32455.404
881794.3891924183,-13359.66,-94641.805,-27963.908,-16306.4375,-37456.098,-35056.97,-50173.383,32449.83
881794.3931924162,-13367.432,-94649.336,-27970.947,-16310.588,-37460.207,-35049.645,-50170.25,32471.926
881794.397192414,-13369.467,-94658.49,-27978.68,-16320.883,-37472.74,-35049.316,-50180.625,32456.016
881794.4011924119,-13367.798,-94661.83,-27977.988,-16322.673,-37468.832,-35050.824,-50176.758,32461.184
881794.4051924098,-13353.231,-94649.336,-27973.35,-16312.907,-37458.293,-35054.77,-50168.17,32476.564
881794.4091924076,-13338.013,-94640.016,-27963.828,-16301.107,-37450.4,-35056.152,-50164.266,32474.773
881794.4131924055,-13355.835,-94647.38,-27970.053,-16303.671,-37450.93,-35054.73,-50170.453,32469.932
881794.4171924033,-13375.366,-94665.98,-27978.965,-16316.0,-37460.695,-35055.867,-50184.9,32453.045
881794.4211924012,-13371.338,-94667.65,-27982.748,-16319.459,-37462.363,-35059.938,-50189.09,32451.621
881794.4251923991,-13353.598,-94652.47,-27971.232,-16309.855,-37457.195,-35058.676,-50180.625,32460.043
881794.4291923969,-13345.703,-94646.61,-27963.787,-16305.299,-37455.324,-35058.473,-50172.49,32472.291
881794.4331923948,-13350.83,-94656.82,-27966.879,-16310.588,-37456.258,-35055.42,-50179.2,32462.484
881794.4371923927,-13360.922,-94669.64,-27975.791,-16319.174,-37468.02,-35055.625,-50187.582,32460.898
881794.4411923905,-13361.491,-94667.6,-27979.209,-16322.47,-37473.55,-35061.727,-50193.44,32453.086
881794.4451923884,-13350.505,-94656.25,-27971.07,-16315.959,-37470.785,-35061.688,-50183.23,32462.566
881794.4491923862,-13348.471,-94647.18,-27965.332,-16310.71,-37467.9,-35054.812,-50170.656,32477.906
881794.4531923841,-13356.405,-94658.695,-27971.885,-16314.576,-37473.105,-35052.652,-50176.72,32466.514
881794.457192382,-13364.543,-94672.77,-27979.086,-16321.615,-37477.664,-35055.38,-50189.78,32443.889
881794.4611923798,-13356.689,-94667.81,-27979.533,-16321.9,-37483.805,-35058.35,-50192.71,32436.77
881794.4651923778,-13346.11,-94664.72,-27970.826,-16315.675,-37485.598,-35061.77,-50181.152,32456.584
881794.4691923757,-13347.128,-94661.13,-27966.188,-16310.629,-37496.95,-35059.816,-50176.84,32466.473
881794.4731923735,-13346.843,-94663.984,-27972.9,-16314.128,-37509.195,-35056.03,-50184.004,32447.756
881794.4771923714,-13348.227,-94674.12,-27978.15,-16321.452,-37513.633,-35057.945,-50195.234,32433.432
881794.4811923692,-13356.364,-94677.01,-27978.11,-16325.074,-37523.074,-35061.77,-50202.516,32434.693
881794.4851923671,-13355.266,-94669.84,-27974.041,-16319.54,-37515.83,-35063.113,-50197.51,32445.598
881794.489192365,-13349.04,-94665.9,-27968.955,-16311.198,-37499.066,-35059.082,-50188.64,32450.318
881794.4931923628,-13362.753,-94670.375,-27973.512,-16313.6,-37496.46,-35057.047,-50189.535,32446.127
881794.4971923607,-13372.314,-94678.914,-27982.666,-16317.18,-37505.453,-35056.844,-50192.426,32442.344
881794.5011923586,-13367.31,-94669.48,-27984.05,-16318.278,-37499.84,-35060.914,-50191.246,32443.32
881794.5051923564,-13362.671,-94654.38,-27978.354,-16311.728,-37488.688,-35063.965,-50181.723,32458.01
881794.5091923543,-13370.81,-94643.72,-27977.662,-16307.333,-37481.406,-35061.65,-50179.363,32455.607
881794.5131923521,-13378.052,-94655.52,-27986.328,-16313.966,-37485.883,-35061.32,-50189.496,32443.97
881794.51719235,-13384.97,-94672.445,-27995.729,-16323.283,-37493.777,-35064.86,-50199.953,32439.129
881794.5211923479,-13375.937,-94663.695,-27993.002,-16321.046,-37485.637,-35065.105,-50199.344,32445.598
881794.5251923457,-13361.247,-94645.59,-27977.662,-16308.1875,-37462.73,-35060.59,-50181.074,32466.146
881794.5291923436,-13361.491,-94642.09,-27971.314,-16301.2295,-37447.227,-35058.23,-50175.133,32463.096
881794.5331923414,-13364.055,-94650.64,-27978.312,-16308.473,-37449.992,-35055.3,-50181.152,32452.557
881794.5371923393,-13372.03,-94663.45,-27985.678,-16315.023,-37451.824,-35055.055,-50188.03,32452.516
881794.5411923372,-13378.174,-94659.67,-27985.922,-16312.582,-37444.703,-35057.13,-50187.867,32458.945
881794.545192335,-13362.631,-94649.01,-27979.004,-16304.647,-37431.723,-35056.805,-50178.957,32464.113
881794.5491923329,-13361.776,-94639.61,-27970.338,-16298.097,-37426.84,-35053.55,-50167.277,32479.006
881794.5531923308,-13367.92,-94642.54,-27973.186,-16302.328,-37429.688,-35052.043,-50169.15,32473.35
881794.5571923286,-13376.913,-94653.484,-27981.201,-16312.623,-37440.105,-35051.637,-50173.87,32474.691
881794.5611923265,-13372.966,-94657.96,-27980.186,-16312.704,-37437.703,-35050.906,-50170.656,32482.016
881794.5651923243,-13357.463,-94650.11,-27972.861,-16301.433,-37418.254,-35049.52,-50165.0,32466.188
881794.5691923222,-13349.243,-94639.695,-27972.453,-16291.871,-37408.69,-35053.305,-50162.723,32464.764
881794.5731923201,-13359.213,-94651.37,-27978.557,-16296.754,-37414.227,-35050.09,-50166.504,32481.324
881794.5771923179,-13363.241,-94656.66,-27982.871,-16301.311,-37419.637,-35045.25,-50174.113,32472.738
881794.5811923158,-13355.754,-94646.89,-27982.139,-16302.328,-37417.645,-35047.445,-50170.777,32476.564
881794.5851923137,-13343.588,-94634.97,-27975.098,-16294.76,-37407.473,-35048.668,-50160.402,32489.787
881794.5891923115,-13338.257,-94627.12,-27970.623,-16290.976,-37403.035,-35052.164,-50160.2,32486.613
881794.5931923094,-13342.978,-94636.48,-27973.512,-16297.812,-37406.293,-35053.63,-50165.285,32487.998
881794.5971923072,-13358.276,-94647.99,-27983.643,-16304.77,-37413.74,-35052.613,-50175.66,32479.006
881794.6011923051,-13342.773,-94641.28,-27981.895,-16300.212,-37406.78,-35048.586,-50176.395,32470.95
881794.605192303,-13326.538,-94614.38,-27971.6,-16289.918,-37393.23,-35048.953,-50162.926,32482.3
881794.6091923008,-13340.414,-94607.55,-27967.938,-16285.075,-37386.434,-35051.27,-50156.09,32490.195
881794.6131922987,-13344.157,-94614.55,-27968.182,-16288.087,-37395.508,-35047.0,-50159.06,32491.375
881794.6171922965,-13342.978,-94628.54,-27975.953,-16298.422,-37397.3,-35045.94,-50167.117,32486.41
881794.6211922944,-13338.786,-94627.12,-27972.047,-16299.4795,-37387.41,-35044.76,-50169.56,32478.15
881794.6251922923,-13328.491,-94611.21,-27965.17,-16290.284,-37382.895,-35045.535,-50162.477,32479.006
881794.6291922902,-13326.132,-94607.83,-27960.166,-16284.709,-37383.06,-35044.76,-50157.227,32483.848
881794.6331922881,-13338.908,-94618.77,-27964.152,-16287.639,-37387.74,-35040.0,-50158.816,32484.295
881794.637192286,-13347.372,-94628.26,-27973.268,-16294.882,-37398.887,-35041.668,-50167.277,32473.35
881794.6411922838,-13348.186,-94630.17,-27976.727,-16294.597,-37401.207,-35044.434,-50166.504,32475.627
881794.6451922817,-13338.786,-94619.305,-27972.861,-16287.477,-37396.324,-35047.77,-50159.59,32482.219
881794.6491922796,-13337.28,-94611.86,-27968.303,-16283.651,-37390.83,-35048.055,-50163.25,32464.723
881794.6531922774,-13345.622,-94628.54,-27973.145,-16289.958,-37400.88,-35043.66,-50165.812,32464.56
881794.6571922753,-13351.196,-94639.94,-27980.021,-16297.812,-37407.39,-35043.01,-50172.895,32460.37
881794.6611922731,-13349.936,-94641.805,-27980.55,-16301.393,-37413.574,-35048.504,-50175.375,32455.12
881794.665192271,-13346.191,-94629.68,-27971.477,-16295.248,-37415.164,-35048.79,-50168.418,32465.09
881794.6691922689,-13342.123,-94620.41,-27964.967,-16287.436,-37418.457,-35047.77,-50159.75,32476.564
881794.6731922667,-13352.133,-94640.38,-27972.168,-16293.661,-37424.4,-35047.0,-50161.824,32480.836
881794.6771922646,-13369.101,-94654.91,-27982.463,-16305.421,-37424.6,-35047.65,-50176.434,32458.863
881794.6811922624,-13357.992,-94652.914,-27981.975,-16306.193,-37420.207,-35050.62,-50178.348,32458.293
881794.6851922603,-13340.698,-94642.58,-27972.373,-16294.963,-37408.45,-35052.004,-50168.38,32468.914
881794.6891922582,-13338.461,-94635.5,-27968.182,-16287.436,-37403.24,-35051.188,-50164.348,32467.693
881794.693192256,-13344.971,-94641.12,-27971.191,-16290.854,-37402.63,-35048.83,-50165.895,32469.523
881794.6971922539,-13350.464,-94657.43,-27975.912,-16299.887,-37410.156,-35047.406,-50171.387,32470.623
881794.7011922518,-13350.464,-94654.18,-27974.691,-16300.09,-37413.168,-35045.816,-50168.094,32472.17
881794.7051922496,-13333.212,-94635.87,-27969.809,-16292.5625,-37414.348,-35044.8,-50157.758,32476.156
881794.7091922475,-13327.597,-94629.73,-27965.17,-16285.157,-37407.31,-35042.36,-50149.336,32477.5
881794.7131922453,-13336.345,-94640.47,-27971.152,-16289.918,-37415.652,-35041.668,-50157.227,32485.148
881794.7171922432,-13340.21,-94645.8,-27978.477,-16299.195,-37425.78,-35046.47,-50172.527,32479.533
881794.7211922411,-13341.35,-94648.32,-27979.533,-16300.375,-37427.125,-35051.72,-50173.098,32463.99
881794.7251922389,-13342.448,-94642.7,-27971.559,-16295.289,-37421.51,-35053.957,-50163.86,32473.635
881794.7291922368,-13325.644,-94625.41,-27961.06,-16286.581,-37406.902,-35053.14,-50156.332,32485.8
881794.7331922346,-13328.613,-94632.24,-27967.408,-16288.859,-37411.54,-35049.36,-50156.7,32485.516
881794.7371922325,-13336.914,-94643.516,-27974.488,-16295.939,-37425.58,-35050.375,-50166.547,32481.121
881794.7411922304,-13332.602,-94645.35,-27972.129,-16295.126,-37430.38,-35048.586,-50169.76,32473.105
881794.7451922282,-13317.383,-94637.414,-27969.932,-16289.592,-37423.746,-35050.54,-50166.465,32470.744
881794.7491922261,-13316.691,-94632.0,-27967.57,-16285.238,-37414.594,-35049.848,-50158.33,32488.445
881794.753192224,-13338.095,-94642.42,-27972.291,-16291.505,-37418.094,-35047.445,-50161.01,32483.889
881794.7571922218,-13344.279,-94661.7,-27980.104,-16303.59,-37434.41,-35048.668,-50170.86,32464.396
881794.7611922197,-13333.578,-94658.49,-27977.174,-16301.84,-37434.816,-35049.97,-50170.86,32461.346
881794.7651922175,-13322.388,-94637.695,-27968.955,-16291.098,-37419.516,-35048.586,-50158.773,32475.627
881794.7691922154,-13317.058,-94621.18,-27961.426,-16283.163,-37410.973,-35042.81,-50149.58,32495.852
881794.7731922133,-13325.969,-94629.97,-27965.008,-16287.599,-37407.797,-35037.516,-50148.805,32513.957
881794.7771922111,-13329.468,-94643.96,-27972.332,-16297.445,-37414.51,-35037.926,-50151.53,32516.521
881794.781192209,-13317.099,-94638.15,-27964.52,-16293.946,-37409.305,-35040.0,-50160.566,32475.912
881794.7851922069,-13314.982,-94629.03,-27958.252,-16286.134,-37405.152,-35041.383,-50161.582,32468.588
881794.7891922047,-13316.528,-94624.96,-27955.975,-16280.925,-37398.438,-35041.18,-50152.832,32486.695
881794.7931922027,-13323.8125,-94630.21,-27954.63,-16284.831,-37402.63,-35032.27,-50151.004,32494.346
881794.7971922006,-13329.0205,-94636.6,-27961.59,-16293.58,-37416.42,-35026.53,-50155.4,32502.238
881794.8011921984,-13327.759,-94634.16,-27964.805,-16297.12,-37419.395,-35029.38,-50159.06,32488.893
881794.8051921963,-13318.93,-94620.2,-27956.299,-16289.145,-37408.082,-35032.633,-50156.008,32480.104
881794.8091921941,-13318.686,-94612.43,-27952.516,-16281.169,-37416.668,-35032.145,-50149.54,32498.537
881794.813192192,-13327.108,-94621.055,-27958.74,-16285.157,-37417.605,-35028.28,-50147.746,32504.924
881794.8171921899,-13331.218,-94635.09,-27968.223,-16295.451,-37421.51,-35030.4,-50156.535,32491.172
881794.8211921877,-13329.55,-94640.26,-27966.635,-16295.533,-37423.098,-35033.938,-50158.613,32484.377
881794.8251921856,-13326.782,-94630.984,-27958.66,-16288.412,-37409.305,-35035.24,-50153.688,32493.693
881794.8291921834,-13327.719,-94624.88,-27958.416,-16284.262,-37402.344,-35035.727,-50150.39,32498.21
881794.8331921813,-13337.362,-94633.14,-27964.193,-16287.395,-37406.94,-35034.508,-50159.71,32482.424
881794.8371921792,-13342.123,-94643.84,-27967.611,-16295.939,-37416.668,-35033.773,-50168.418,32474.611
881794.841192177,-13330.7705,-94639.85,-27965.82,-16296.184,-37418.336,-35035.402,-50169.312,32474.488
881794.8451921749,-13320.354,-94623.05,-27957.031,-16286.378,-37414.55,-35037.11,-50160.77,32482.627
881794.8491921728,-13316.406,-94613.57,-27951.133,-16279.298,-37409.75,-35035.074,-50150.92,32491.172
881794.8531921706,-13319.458,-94626.14,-27958.701,-16283.041,-37417.645,-35032.918,-50153.445,32492.19
881794.8571921685,-13330.282,-94642.17,-27968.914,-16289.918,-37426.188,-35036.99,-50164.715,32479.697
881794.8611921663,-13325.033,-94638.92,-27967.408,-16290.731,-37422.363,-35039.188,-50166.016,32485.475
881794.8651921642,-13311.605,-94630.54,-27956.26,-16284.181,-37421.184,-35042.195,-50160.848,32495.2
881794.8691921621,-13305.99,-94620.94,-27950.848,-16275.88,-37416.26,-35039.227,-50155.113,32497.6
881794.8731921599,-13309.774,-94628.09,-27956.787,-16280.803,-37418.457,-35040.324,-50159.914,32485.11
881794.8771921578,-13315.634,-94642.21,-27962.402,-16291.586,-37421.305,-35037.926,-50166.832,32480.307
881794.8811921556,-13311.523,-94640.22,-27962.566,-16287.761,-37417.848,-35037.11,-50167.195,32474.488
881794.8851921535,-13297.689,-94627.0,-27956.299,-16277.141,-37415.12,-35039.227,-50158.773,32481.447
881794.8891921514,-13301.677,-94618.086,-27951.133,-16271.403,-37412.926,-35037.76,-50152.875,32496.135
881794.8931921492,-13318.115,-94628.75,-27961.102,-16278.361,-37415.855,-35035.645,-50160.484,32486.33
881794.8971921471,-13327.353,-94641.73,-27967.693,-16290.8125,-37428.223,-35035.28,-50171.67,32479.412
881794.901192145,-13318.237,-94637.86,-27965.7,-16292.359,-37432.457,-35035.035,-50173.42,32478.842
881794.9051921428,-13306.234,-94621.625,-27957.236,-16282.634,-37425.17,-35036.094,-50164.754,32482.383
881794.9091921407,-13304.892,-94614.625,-27950.236,-16276.53,-37415.934,-35034.832,-50152.547,32494.223
881794.9131921385,-13315.959,-94626.34,-27955.69,-16281.942,-37413.7,-35032.594,-50150.027,32498.252
881794.9171921364,-13319.052,-94632.41,-27957.44,-16289.145,-37420.98,-35031.168,-50165.69,32482.383
881794.9211921343,-13308.35,-94622.6,-27952.23,-16288.412,-37420.004,-35031.656,-50168.01,32481.406
881794.9251921321,-13304.077,-94611.86,-27955.283,-16285.6455,-37418.66,-35033.45,-50159.59,32484.336
881794.92919213,-13300.171,-94602.625,-27949.383,-16279.013,-37413.777,-35030.56,-50148.48,32496.908
881794.9331921278,-13305.908,-94610.48,-27950.156,-16282.716,-37424.4,-35025.797,-50147.016,32515.992
881794.9371921257,-13317.546,-94624.11,-27962.2,-16292.848,-37435.67,-35027.508,-50158.043,32499.96
881794.9411921236,-13313.029,-94624.84,-27960.734,-16291.952,-37430.055,-35029.215,-50160.566,32477.947
881794.9451921214,-13308.594,-94612.914,-27951.783,-16282.268,-37423.746,-35028.85,-50151.043,32490.805
881794.9491921193,-13311.85,-94605.59,-27942.465,-16275.473,-37414.676,-35023.074,-50140.34,32506.838
881794.9531921172,-13317.343,-94615.4,-27947.754,-16280.152,-37421.957,-35017.742,-50143.066,32511.639
881794.9571921151,-13328.776,-94635.945,-27962.81,-16295.289,-37439.25,-35022.34,-50156.293,32500.652
881794.961192113,-13317.709,-94630.17,-27957.316,-16293.62,-37442.996,-35027.426,-50158.125,32492.717
881794.9651921109,-13299.276,-94612.8,-27945.191,-16282.431,-37429.85,-35028.89,-50145.996,32501.955
881794.9691921087,-13300.09,-94607.875,-27940.879,-16279.379,-37425.58,-35023.277,-50138.633,32519.207
881794.9731921066,-13305.949,-94610.44,-27945.068,-16284.669,-37433.105,-35018.598,-50146.363,32509.645
881794.9771921044,-13312.419,-94620.52,-27955.771,-16296.144,-37449.832,-35018.27,-50156.617,32500.164
881794.9811921023,-13312.5,-94621.83,-27956.543,-16297.201,-37455.527,-35023.277,-50156.13,32498.049
881794.9851921002,-13299.235,-94609.09,-27946.615,-16287.477,-37452.637,-35027.1,-50149.78,32496.34
881794.989192098,-13292.318,-94601.89,-27942.953,-16282.1455,-37454.836,-35027.832,-50149.21,32492.434
881794.9931920959,-13298.096,-94614.95,-27944.459,-16287.191,-37460.492,-35031.78,-50156.047,32487.672
881794.9971920938,-13309.692,-94634.85,-27949.504,-16295.167,-37460.9,-35028.523,-50161.824,32489.38
881795.0011920916,-13304.892,-94630.82,-27949.383,-16295.858,-37455.77,-35029.867,-50163.82,32487.346
881795.0051920895,-13293.498,-94619.02,-27948.283,-16290.772,-37455.566,-35033.082,-50155.926,32499.229
881795.0091920873,-13290.202,-94613.445,-27943.604,-16287.883,-37451.133,-35029.582,-50146.973,32507.977
881795.0131920852,-13302.897,-94624.31,-27946.412,-16294.435,-37455.61,-35026.938,-50150.312,32497.193
881795.0171920831,-13310.019,-94634.195,-27956.219,-16301.2705,-37465.25,-35028.402,-50157.715,32495.973
881795.0211920809,-13303.589,-94630.62,-27955.607,-16298.991,-37465.78,-35031.09,-50156.7,32494.834
881795.0251920788,-13301.84,-94620.32,-27949.545,-16289.226,-37456.137,-35029.297,-50144.695,32510.703
881795.0291920766,-13302.45,-94615.766,-27950.969,-16285.441,-37454.67,-35028.484,-50143.19,32506.756
881795.0331920745,-13306.641,-94623.984,-27955.363,-16287.924,-37452.555,-35026.773,-50149.293,32498.7
881795.0371920724,-13315.063,-94639.85,-27961.59,-16297.567,-37463.258,-35025.31,-50151.938,32500.082
881795.0411920702,-13310.954,-94632.49,-27959.799,-16300.944,-37463.746,-35030.68,-50154.094,32498.658
881795.0451920681,-13305.502,-94627.16,-27955.69,-16297.079,-37455.484,-35036.258,-50151.695,32499.838
881795.049192066,-13305.176,-94621.38,-27954.225,-16291.261,-37447.47,-35033.773,-50148.97,32502.523
881795.0531920638,-13297.7295,-94621.14,-27951.336,-16293.051,-37447.266,-35029.5,-50150.066,32502.402
881795.0571920617,-13303.183,-94631.72,-27952.312,-16301.107,-37457.887,-35028.402,-50159.14,32491.416
881795.0611920595,-13309.123,-94633.75,-27955.934,-16301.881,-37468.875,-35032.023,-50162.312,32495.607
881795.0651920574,-13300.049,-94619.875,-27950.115,-16295.655,-37460.207,-35033.938,-50154.297,32501.303
881795.0691920553,-13293.742,-94611.53,-27944.377,-16290.284,-37455.527,-35031.58,-50144.613,32512.453
881795.0731920531,-13301.433,-94621.79,-27952.148,-16295.533,-37475.465,-35032.023,-50150.027,32499.514
881795.077192051,-13311.809,-94637.695,-27959.637,-16304.566,-37483.4,-35031.863,-50157.023,32495.12
881795.0811920488,-13312.053,-94637.086,-27961.914,-16303.915,-37476.562,-35032.31,-50158.734,32494.508
881795.0851920467,-13307.577,-94631.8,-27957.316,-16297.975,-37470.5,-35035.727,-50154.46,32498.17
881795.0891920446,-13302.287,-94622.84,-27954.266,-16291.871,-37457.48,-35032.51,-50147.258,32505.861
881795.0931920424,-13311.035,-94626.586,-27960.572,-16295.614,-37458.984,-35030.152,-50148.887,32516.928
881795.0971920403,-13317.953,-94640.016,-27966.594,-16304.078,-37466.88,-35032.51,-50167.277,32472.535
881795.1011920382,-13309.489,-94640.34,-27964.805,-16303.183,-37473.31,-35034.344,-50168.99,32465.373
881795.105192036,-13298.422,-94624.39,-27958.252,-16294.557,-37470.258,-35035.36,-50155.844,32484.783
881795.1091920339,-13294.189,-94615.6,-27951.336,-16287.721,-37459.434,-35033.164,-50148.36,32494.143
881795.1131920317,-13303.711,-94624.8,-27957.928,-16294.394,-37464.684,-35030.07,-50154.094,32493.205
881795.1171920296,-13314.453,-94642.21,-27968.506,-16306.112,-37480.836,-35027.305,-50160.28,32500.164
881795.1211920276,-13308.716,-94639.94,-27966.758,-16304.484,-37482.707,-35028.484,-50160.156,32490.969
881795.1251920254,-13300.741,-94630.984,-27961.06,-16295.411,-37477.254,-35032.39,-50153.566,32483.156
881795.1291920233,-13299.887,-94629.07,-27955.363,-16290.04,-37474.164,-35030.152,-50147.22,32499.146
881795.1331920212,-13308.1875,-94639.9,-27954.469,-16292.929,-37480.31,-35026.816,-50146.363,32505.332
881795.137192019,-13313.599,-94646.734,-27961.793,-16300.253,-37487.508,-35025.434,-50156.008,32498.008
881795.1411920169,-13310.954,-94643.6,-27966.432,-16301.799,-37480.633,-35027.547,-50159.14,32489.178
881795.1451920148,-13304.892,-94631.63,-27959.229,-16296.103,-37472.574,-35030.234,-50149.78,32495.281
881795.1491920126,-13300.822,-94621.625,-27955.283,-16289.755,-37463.46,-35029.83,-50146.85,32504.924
881795.1531920105,-13307.007,-94618.49,-27959.88,-16290.772,-37462.77,-35023.684,-50149.375,32502.158
881795.1571920083,-13318.726,-94626.836,-27969.117,-16299.235,-37475.016,-35023.52,-50159.465,32489.787
881795.1611920062,-13314.941,-94624.555,-27968.588,-16300.7,-37473.594,-35028.973,-50160.605,32491.172
881795.1651920041,-13303.955,-94611.49,-27958.537,-16291.261,-37465.293,-35030.273,-50153.484,32501.994
881795.1691920019,-13300.293,-94601.12,-27950.604,-16286.337,-37462.2,-35028.484,-50145.875,32513.633
881795.1731919998,-13307.455,-94606.734,-27953.37,-16287.599,-37467.45,-35024.09,-50147.055,32507.365
881795.1771919976,-13314.738,-94617.92,-27959.27,-16294.719,-37472.13,-35024.617,-50154.176,32499.514
881795.1811919955,-13304.647,-94611.49,-27958.74,-16293.458,-37468.426,-35024.008,-50151.207,32504.803
881795.1851919934,-13294.108,-94604.29,-27952.393,-16286.906,-37465.13,-35022.79,-50138.594,32515.098
881795.1891919912,-13300.009,-94607.18,-27950.195,-16285.157,-37465.457,-35023.316,-50133.832,32521.445
881795.1931919891,-13309.978,-94618.49,-27960.002,-16292.44,-37479.94,-35021.85,-50143.637,32512.045
881795.197191987,-13319.784,-94633.63,-27970.785,-16304.078,-37488.688,-35025.31,-50156.09,32490.072
881795.2011919848,-13317.099,-94626.02,-27970.053,-16305.502,-37483.035,-35027.47,-50154.785,32496.299
881795.2051919827,-13298.91,-94612.35,-27957.684,-16293.661,-37468.75,-35023.97,-50144.086,32498.781
881795.2091919805,-13292.5625,-94606.29,-27952.11,-16287.477,-37464.438,-35022.746,-50135.38,32514.283
881795.2131919784,-13301.84,-94617.15,-27958.74,-16295.614,-37478.19,-35026.004,-50140.625,32511.883
881795.2171919763,-13313.437,-94630.375,-27965.781,-16303.061,-37487.836,-35026.695,-50149.09,32499.879
881795.2211919741,-13315.308,-94629.97,-27962.525,-16302.45,-37485.395,-35030.07,-50155.926,32486.695
881795.225191972,-13307.17,-94622.89,-27953.98,-16297.038,-37474.895,-35029.746,-50148.03,32488.04
881795.2291919698,-13300.293,-94612.836,-27947.959,-16290.243,-37464.76,-35023.844,-50134.81,32505.82
881795.2331919677,-13306.845,-94618.77,-27951.742,-16297.567,-37469.44,-35022.543,-50139.934,32505.982
881795.2371919656,-13315.512,-94630.62,-27959.922,-16305.055,-37479.492,-35022.504,-50152.14,32483.48
881795.2411919634,-13306.601,-94625.57,-27961.264,-16304.2,-37477.785,-35026.613,-50146.08,32497.764
881795.2451919613,-13293.457,-94608.4,-27953.004,-16293.783,-37463.785,-35027.996,-50136.152,32511.11
881795.2491919592,-13301.758,-94601.32,-27950.684,-16288.412,-37458.58,-35027.426,-50133.953,32509.36
881795.253191957,-13315.471,-94607.914,-27958.334,-16295.126,-37471.438,-35026.41,-50138.31,32512.33
881795.2571919549,-13319.58,-94616.5,-27965.373,-16300.619,-37484.58,-35026.773,-50151.492,32491.049
881795.2611919527,-13313.64,-94616.7,-27967.123,-16300.944,-37479.004,-35031.09,-50152.832,32483.725
881795.2651919506,-13301.352,-94603.766,-27958.09,-16293.498,-37471.52,-35030.273,-50140.34,32497.275
881795.2691919485,-13288.208,-94590.17,-27949.707,-16283.692,-37463.176,-35024.58,-50131.676,32513.469
881795.2731919463,-13290.771,-94598.8,-27957.031,-16288.737,-37469.85,-35022.098,-50138.145,32507.977
881795.2771919442,-13296.591,-94612.1,-27961.467,-16296.428,-37472.293,-35023.03,-50142.66,32505.047
881795.281191942,-13295.532,-94611.86,-27960.328,-16296.55,-37471.805,-35025.797,-50144.656,32495.281
881795.28519194,-13288.818,-94601.195,-27950.318,-16287.721,-37470.176,-35027.305,-50138.266,32499.025
881795.2891919379,-13286.621,-94596.4,-27948.203,-16278.972,-37459.15,-35022.83,-50127.93,32517.213
881795.2931919358,-13299.887,-94607.914,-27951.377,-16283.529,-37457.438,-35021.61,-50134.93,32503.541
881795.2971919336,-13309.692,-94618.82,-27960.775,-16295.451,-37463.867,-35023.074,-50146.812,32489.87
881795.3011919315,-13313.965,-94616.055,-27964.193,-16299.113,-37467.082,-35026.004,-50142.99,32505.738
881795.3051919293,-13312.582,-94605.63,-27963.664,-16292.115,-37459.39,-35030.152,-50134.48,32500.367
881795.3091919272,-13306.682,-94604.58,-27962.525,-16286.256,-37451.66,-35028.973,-50125.773,32515.748
881795.3131919251,-13309.57,-94610.4,-27952.842,-16289.43,-37450.195,-35025.797,-50136.312,32498.414
881795.3171919229,-13317.343,-94619.63,-27959.84,-16298.381,-37458.824,-35026.285,-50146.73,32484.865
881795.3211919208,-13316.081,-94609.625,-27961.223,-16298.015,-37464.438,-35028.523,-50143.965,32498.984
881795.3251919186,-13303.793,-94588.87,-27951.621,-16285.36,-37452.11,-35028.77,-50133.26,32507.977
881795.3291919165,-13300.537,-94580.445,-27944.662,-16277.833,-37446.414,-35024.54,-50120.81,32519.98
881795.3331919144,-13308.228,-94587.28,-27950.277,-16282.228,-37453.777,-35023.48,-50128.95,32507.488
881795.3371919122,-13317.343,-94595.22,-27957.275,-16288.697,-37457.926,-35024.21,-50135.906,32498.129
881795.3411919101,-13326.254,-94595.22,-27953.857,-16286.418,-37450.562,-35022.34,-50129.234,32504.396
881795.345191908,-13321.818,-94580.77,-27946.209,-16276.734,-37438.844,-35025.15,-50123.984,32507.326
881795.3491919058,-13316.406,-94576.87,-27940.918,-16269.857,-37427.207,-35024.17,-50117.8,32510.54
881795.3531919037,-13327.841,-94591.48,-27952.637,-16280.152,-37434.33,-35025.516,-50121.504,32514.69
881795.3571919015,-13339.926,-94603.195,-27963.217,-16290.854,-37435.223,-35024.7,-50129.234,32504.518
881795.3611918994,-13341.96,-94599.77,-27958.334,-16290.69,-37432.984,-35028.605,-50130.332,32489.137
881795.3651918973,-13329.794,-94581.664,-27948.283,-16283.285,-37422.77,-35033.938,-50125.125,32496.46
881795.3691918951,-13323.935,-94572.31,-27941.447,-16274.903,-37407.758,-35029.664,-50117.84,32511.965
881795.373191893,-13329.102,-94578.86,-27942.871,-16273.845,-37400.15,-35020.914,-50117.35,32515.016
881795.3771918908,-13344.687,-94588.055,-27949.992,-16282.838,-37415.812,-35022.3,-50128.418,32507.488
881795.3811918887,-13352.702,-94588.71,-27952.719,-16284.181,-37416.504,-35025.27,-50130.047,32492.31
881795.3851918866,-13351.237,-94580.734,-27947.55,-16277.101,-37399.457,-35026.41,-50118.98,32501.467
881795.3891918844,-13339.966,-94569.83,-27943.36,-16270.427,-37385.5,-35019.004,-50109.457,32519.777
881795.3931918823,-13348.349,-94580.69,-27953.533,-16274.577,-37387.98,-35012.656,-50112.996,32514.445
881795.3971918802,-13355.957,-94597.74,-27965.252,-16285.6455,-37404.703,-35016.6,-50125.203,32502.768
881795.401191878,-13353.598,-94597.66,-27956.625,-16286.012,-37403.523,-35019.168,-50125.49,32493.693
881795.4051918759,-13349.813,-94592.77,-27951.824,-16279.094,-37399.742,-35020.266,-50117.637,32492.229
881795.4091918737,-13343.994,-94584.84,-27944.336,-16272.462,-37408.285,-35020.508,-50107.992,32502.482
881795.4131918716,-13348.796,-94597.05,-27946.33,-16274.903,-37414.348,-35016.93,-50109.133,32502.85
881795.4171918695,-13365.438,-94606.2,-27956.584,-16281.291,-37427.246,-35013.836,-50115.723,32494.223
881795.4211918673,-13360.312,-94600.266,-27954.55,-16281.576,-37422.65,-35013.797,-50109.457,32515.139
881795.4251918652,-13337.484,-94586.305,-27942.262,-16273.967,-37404.867,-35017.863,-50101.484,32523.643
881795.429191863,-13325.684,-94575.08,-27936.688,-16266.562,-37389.16,-35019.41,-50104.82,32500.367
881795.4331918609,-13341.269,-94593.63,-27945.232,-16275.88,-37411.824,-35020.348,-50113.08,32491.904
881795.4371918588,-13347.209,-94606.08,-27950.889,-16284.669,-37405.355,-35017.945,-50121.094,32482.83
881795.4411918566,-13334.433,-94590.09,-27948.162,-16282.309,-37404.99,-35020.875,-50121.094,32479.33
881795.4451918545,-13314.86,-94570.07,-27935.02,-16270.387,-37394.168,-35017.742,-50106.69,32488.73
881795.4491918525,-13311.442,-94568.56,-27927.775,-16261.842,-37380.496,-35012.41,-50097.617,32496.502
881795.4531918503,-13321.127,-94575.24,-27932.984,-16265.951,-37380.74,-35012.453,-50105.227,32490.031
881795.4571918482,-13329.143,-94582.85,-27941.57,-16277.223,-37396.402,-35013.918,-50116.008,32467.002
881795.461191846,-13329.306,-94577.805,-27939.332,-16275.676,-37394.695,-35014.12,-50114.055,32469.729
881795.4651918439,-13314.535,-94563.56,-27928.02,-16264.242,-37387.047,-35013.59,-50109.133,32463.625
881795.4691918418,-13308.31,-94558.72,-27923.87,-16254.843,-37377.484,-35007.406,-50098.918,32488.934
881795.4731918396,-13320.272,-94570.56,-27934.002,-16262.899,-37377.848,-35010.66,-50105.47,32481.283
881795.4771918375,-13330.7295,-94582.85,-27940.35,-16268.474,-37384.074,-35011.637,-50114.18,32466.35
881795.4811918354,-13326.579,-94581.875,-27936.484,-16267.538,-37385.582,-35016.074,-50117.8,32454.266
881795.4851918332,-13317.587,-94566.98,-27930.46,-16263.388,-37375.125,-35019.98,-50114.016,32465.537
881795.4891918311,-13308.96,-94557.74,-27919.963,-16252.32,-37360.35,-35013.184,-50103.844,32480.51
881795.493191829,-13324.26,-94573.49,-27926.799,-16257.203,-37366.293,-35008.504,-50104.414,32482.016
881795.4971918268,-13331.747,-94582.16,-27936.32,-16267.497,-37381.023,-35005.656,-50107.3,32479.697
881795.5011918247,-13325.603,-94575.32,-27934.979,-16267.253,-37375.652,-35006.39,-50106.527,32477.785
881795.5051918225,-13317.505,-94565.516,-27927.94,-16258.22,-37366.496,-35010.742,-50103.19,32476.523
881795.5091918204,-13324.829,-94567.23,-27927.857,-16255.982,-37368.652,-35010.457,-50098.066,32483.645
881795.5131918183,-13328.817,-94569.586,-27939.494,-16259.604,-37372.4,-35005.656,-50102.418,32478.8
881795.5171918161,-13328.817,-94578.86,-27941.367,-16265.138,-37380.617,-35005.574,-50106.57,32470.988
881795.521191814,-13327.23,-94581.055,-27931.805,-16264.405,-37383.586,-35009.48,-50105.023,32477.256
881795.5251918118,-13316.0,-94564.086,-27917.156,-16255.25,-37379.438,-35009.035,-50095.38,32490.154
881795.5291918097,-13315.918,-94562.75,-27912.762,-16248.251,-37370.85,-35005.86,-50084.8,32508.098
881795.5331918076,-13321.696,-94575.97,-27920.492,-16250.8955,-37364.016,-35002.848,-50083.906,32522.746
881795.5371918054,-13330.363,-94591.27,-27926.799,-16258.464,-37372.438,-35003.133,-50099.45,32487.834
881795.5411918033,-13327.312,-94589.93,-27926.514,-16259.44,-37383.06,-35004.965,-50107.992,32472.088
881795.5451918012,-13319.052,-94580.53,-27921.387,-16253.175,-37378.133,-35004.52,-50097.7,32482.545
881795.549191799,-13317.343,-94572.06,-27912.232,-16247.193,-37366.457,-35002.81,-50089.684,32496.055
881795.5531917969,-13323.08,-94578.49,-27915.812,-16253.744,-37372.316,-35001.465,-50094.035,32497.805
881795.5571917947,-13334.066,-94589.69,-27928.916,-16263.0625,-37384.277,-35001.508,-50101.2,32489.584
881795.5611917926,-13333.09,-94582.16,-27925.578,-16261.679,-37381.105,-35000.734,-50098.918,32494.875
881795.5651917905,-13326.132,-94571.9,-27916.912,-16256.633,-37371.707,-35005.332,-50093.344,32509.115
881795.5691917883,-13328.898,-94570.56,-27913.453,-16252.36,-37372.6,-35007.203,-50087.527,32514.486
881795.5731917862,-13339.152,-94585.05,-27923.057,-16261.19,-37382.082,-35005.902,-50099.043,32494.67
881795.577191784,-13350.058,-94599.77,-27933.473,-16274.903,-37389.04,-35005.332,-50108.684,32484.58
881795.5811917819,-13337.484,-94590.13,-27925.904,-16273.275,-37389.977,-35003.5,-50104.29,32486.898
881795.5851917798,-13326.132,-94572.02,-27918.945,-16261.271,-37374.105,-35001.344,-50096.926,32487.062
881795.5891917776,-13331.299,-94568.08,-27917.807,-16255.046,-37363.16,-34999.715,-50088.016,32496.055
881795.5931917755,-13335.734,-94579.836,-27921.592,-16259.5625,-37367.27,-35001.344,-50090.375,32491.172
881795.5971917734,-13339.111,-94591.76,-27929.12,-16266.684,-37371.582,-35000.082,-50097.617,32488.242
881795.6011917712,-13328.003,-94590.375,-27926.88,-16263.957,-37364.79,-34999.88,-50098.227,32476.727
881795.6051917691,-13316.691,-94584.64,-27916.545,-16257.447,-37355.51,-35001.75,-50093.14,32480.633
881795.6091917669,-13316.528,-94587.85,-27909.506,-16253.134,-37359.133,-35001.953,-50088.95,32500.773
881795.6131917648,-13324.26,-94598.76,-27911.338,-16256.063,-37360.19,-35001.63,-50095.582,32480.633
881795.6171917628,-13334.106,-94608.4,-27919.312,-16265.87,-37363.12,-35003.01,-50098.918,32474.65
881795.6211917606,-13326.62,-94605.96,-27915.691,-16264.445,-37364.992,-35002.605,-50092.207,32496.176
881795.6251917585,-13311.239,-94593.55,-27905.479,-16254.518,-37359.863,-35001.18,-50084.15,32495.037
881795.6291917564,-13305.42,-94583.58,-27898.764,-16247.152,-37352.336,-34999.023,-50081.22,32489.787
881795.6331917542,-13316.122,-94591.72,-27904.176,-16251.222,-37363.934,-34994.754,-50082.848,32495.688
881795.6371917521,-13324.179,-94603.64,-27912.03,-16262.696,-37379.11,-34997.316,-50092.33,32494.06
881795.64119175,-13319.174,-94596.805,-27913.33,-16263.347,-37378.336,-35000.082,-50094.08,32489.463
881795.6451917478,-13305.38,-94582.08,-27901.164,-16249.879,-37369.266,-34998.496,-50082.562,32504.518
881795.6491917457,-13300.009,-94580.85,-27897.99,-16243.979,-37364.87,-34996.42,-50077.84,32512.98
881795.6531917435,-13308.513,-94587.65,-27902.914,-16250.448,-37367.105,-34996.543,-50083.17,32506.553
881795.6571917414,-13318.726,-94601.52,-27908.082,-16261.882,-37377.44,-34999.35,-50093.344,32494.71
881795.6611917393,-13312.948,-94600.914,-27910.076,-16265.178,-37381.43,-35001.793,-50094.973,32487.387
881795.6651917371,-13302.49,-94591.516,-27906.455,-16257.284,-37382.57,-35000.816,-50084.473,32501.303
881795.669191735,-13304.729,-94587.77,-27905.152,-16254.965,-37380.168,-35001.344,-50077.76,32510.906
881795.6731917328,-13313.843,-94596.31,-27908.203,-16261.109,-37385.824,-35004.926,-50082.848,32504.355
881795.6771917307,-13321.005,-94602.625,-27916.383,-16268.596,-37391.195,-35006.836,-50089.97,32496.46
881795.6811917286,-13318.808,-94600.43,-27918.865,-16266.195,-37385.418,-35007.61,-50089.723,32492.799
881795.6851917264,-13310.629,-94586.51,-27909.424,-16256.959,-37374.023,-35006.676,-50077.07,32500.652
881795.6891917243,-13309.489,-94578.9,-27903.932,-16253.988,-37370.89,-35004.926,-50070.152,32513.43
881795.6931917222,-13323.608,-94590.82,-27914.062,-16261.679,-37367.758,-35002.81,-50078.695,32513.104
881795.69719172,-13328.329,-94603.36,-27917.521,-16270.102,-37376.547,-34999.31,-50089.277,32505.006
881795.7011917179,-13319.743,-94602.7,-27911.662,-16267.823,-37391.684,-35004.152,-50090.617,32499.92
881795.7051917157,-13309.326,-94589.97,-27902.832,-16256.063,-37379.844,-35005.086,-50079.51,32502.97
881795.7091917136,-13304.932,-94581.99,-27898.723,-16249.553,-37363.445,-35001.18,-50069.785,32516.807
881795.7131917115,-13316.081,-94595.91,-27908.203,-16256.471,-37372.64,-34999.39,-50076.01,32509.36
881795.7171917093,-13326.172,-94611.94,-27914.836,-16265.951,-37384.195,-34999.594,-50092.33,32482.627
881795.7211917072,-13318.237,-94603.44,-27913.78,-16265.26,-37381.836,-34999.96,-50092.41,32483.074
881795.725191705,-13309.042,-94591.88,-27916.26,-16255.494,-37371.176,-35003.785,-50084.555,32493.775
881795.7291917029,-13311.239,-94589.36,-27902.344,-16252.768,-37363.2,-35001.547,-50076.66,32513.021
881795.7331917008,-13320.395,-94603.56,-27906.535,-16260.946,-37366.496,-34999.35,-50082.03,32511.557
881795.7371916986,-13326.376,-94615.805,-27910.686,-16269.532,-37375.57,-34998.617,-50093.914,32475.547
881795.7411916965,-13316.203,-94611.375,-27908.244,-16265.3,-37375.49,-34998.66,-50088.38,32486.98
881795.7451916944,-13305.624,-94591.23,-27900.879,-16255.046,-37369.59,-35000.043,-50076.945,32496.096
881795.7491916922,-13305.258,-94582.52,-27897.46,-16252.198,-37374.797,-35000.652,-50072.88,32503.094
881795.7531916901,-13317.871,-94594.36,-27907.47,-16259.44,-37394.004,-35000.246,-50081.953,32493.531
881795.7571916879,-13325.073,-94609.945,-27913.291,-16267.863,-37402.793,-34999.676,-50092.41,32478.436
881795.7611916858,-13313.681,-94606.9,-27906.861,-16264.771,-37400.39,-34999.105,-50082.93,32494.346
881795.7651916837,-13298.828,-94587.24,-27901.775,-16255.86,-37391.562,-35000.773,-50071.535,32510.012
881795.7691916815,-13297.893,-94580.57,-27900.229,-16252.238,-37389.203,-34997.887,-50066.406,32515.586
881795.7731916794,-13305.136,-94591.11,-27902.508,-16256.186,-37398.887,-34991.54,-50068.2,32514.771
881795.7771916772,-13314.575,-94601.97,-27911.785,-16262.126,-37408.49,-34991.336,-50078.74,32493.979
881795.7811916752,-13310.913,-94601.73,-27912.842,-16264.364,-37410.688,-34995.08,-50081.42,32489.543
881795.7851916731,-13304.321,-94590.09,-27905.723,-16257.406,-37405.355,-34995.65,-50071.7,32500.979
881795.789191671,-13306.601,-94583.09,-27900.676,-16254.802,-37400.516,-34994.793,-50068.24,32502.605
881795.7931916688,-13312.785,-94589.56,-27901.693,-16260.377,-37407.39,-34992.516,-50073.773,32500.855
881795.7971916667,-13317.627,-94603.88,-27911.5,-16267.782,-37420.695,-34995.484,-50080.49,32496.379
881795.8011916645,-13313.965,-94604.17,-27910.035,-16265.544,-37418.906,-34999.96,-50081.625,32492.922
881795.8051916624,-13310.059,-94591.92,-27904.297,-16258.79,-37419.68,-35003.38,-50073.04,32499.635
881795.8091916603,-13311.728,-94593.06,-27904.338,-16255.86,-37417.766,-35004.11,-50067.953,32504.64
881795.8131916581,-13319.702,-94607.016,-27909.018,-16261.354,-37421.836,-35000.69,-50073.285,32503.094
881795.817191656,-13330.648,-94608.12,-27926.107,-16271.241,-37433.51,-34998.008,-50080.527,32490.316
881795.8211916538,-13327.719,-94604.74,-27926.19,-16272.218,-37441.406,-35000.285,-50084.395,32482.668
881795.8251916517,-13314.819,-94592.05,-27905.723,-16264.201,-37438.03,-35000.246,-50076.945,32494.875
881795.8291916496,-13309.733,-94586.55,-27901.246,-16258.586,-37433.637,-35000.734,-50067.344,32513.795
881795.8331916474,-13316.244,-94597.336,-27906.006,-16262.004,-37439.496,-34997.76,-50066.57,32516.236
881795.8371916453,-13324.057,-94607.47,-27910.727,-16270.0205,-37445.64,-35000.164,-50080.73,32492.025
881795.8411916432,-13320.679,-94606.81,-27911.459,-16270.468,-37442.508,-35000.613,-50075.81,32507.65
881795.845191641,-13309.774,-94601.69,-27910.156,-16265.626,-37439.008,-35000.57,-50067.996,32521.81
881795.8491916389,-13305.339,-94595.5,-27907.146,-16261.3125,-37423.543,-35003.215,-50064.82,32518.88
881795.8531916367,-13312.46,-94598.63,-27909.588,-16265.341,-37432.7,-35002.484,-50076.742,32494.752
881795.8571916346,-13316.488,-94605.35,-27914.389,-16269.369,-37438.395,-34997.723,-50080.0,32498.617
881795.8611916325,-13311.32,-94601.08,-27920.492,-16268.067,-37437.5,-35001.383,-50080.77,32501.873
881795.8651916303,-13304.118,-94584.44,-27913.168,-16261.068,-37442.996,-35007.69,-50078.004,32497.072
881795.8691916282,-13302.694,-94580.37,-27904.014,-16255.168,-37443.81,-35007.242,-50075.645,32491.984
881795.873191626,-13308.798,-94589.73,-27907.188,-16257.65,-37438.52,-35000.164,-50077.273,32492.717
881795.8771916239,-13316.325,-94605.67,-27912.518,-16267.091,-37455.08,-35002.36,-50090.008,32481.568
881795.8811916218,-13313.029,-94601.69,-27910.97,-16269.654,-37453.94,-35007.367,-50089.56,32480.104
881795.8851916196,-13301.555,-94580.94,-27903.809,-16263.225,-37451.215,-35004.438,-50080.895,32491.701
881795.8891916175,-13298.625,-94572.35,-27902.264,-16259.196,-37448.406,-35002.89,-50078.086,32495.646
881795.8931916154,-13306.4375,-94579.71,-27907.146,-16263.632,-37449.953,-35002.28,-50084.15,32492.717
881795.8971916132,-13312.541,-94590.82,-27912.354,-16269.166,-37452.312,-35002.117,-50090.742,32494.346
881795.9011916111,-13302.328,-94586.06,-27918.906,-16268.393,-37446.047,-35006.31,-50090.863,32497.275
881795.9051916089,-13290.771,-94570.31,-27901.043,-16259.929,-37433.594,-35006.754,-50080.85,32510.133
881795.9091916068,-13289.348,-94568.97,-27894.613,-16256.796,-37424.6,-35007.164,-50073.406,32521.73
881795.9131916047,-13304.321,-94585.45,-27907.959,-16268.148,-37426.758,-35007.164,-50079.227,32514.527
881795.9171916025,-13318.4,-94598.31,-27913.86,-16277.548,-37436.08,-35009.035,-50086.63,32509.727
881795.9211916004,-13311.931,-94587.69,-27908.611,-16274.984,-37435.63,-35009.195,-50085.574,32505.047
881795.9251915982,-13306.601,-94580.04,-27901.084,-16265.585,-37427.004,-35011.883,-50075.93,32518.88
881795.9291915961,-13299.846,-94572.72,-27901.652,-16258.302,-37428.67,-35012.656,-50072.47,32519.451
881795.933191594,-13302.938,-94579.76,-27902.588,-16262.696,-37428.266,-35009.402,-50079.836,32509.36
881795.9371915918,-13308.228,-94588.055,-27908.611,-16267.335,-37414.754,-35008.668,-50090.375,32488.648
881795.9411915897,-13300.334,-94579.76,-27905.723,-16264.486,-37414.797,-35010.094,-50089.4,32486.898
881795.9451915877,-13292.888,-94564.78,-27894.328,-16256.715,-37425.7,-35011.19,-50078.29,32501.791
881795.9491915855,-13295.939,-94562.75,-27893.475,-16253.663,-37424.316,-35009.848,-50068.848,32513.674
881795.9531915834,-13291.301,-94568.65,-27896.81,-16259.97,-37421.305,-35009.848,-50075.36,32507.244
881795.9571915813,-13290.894,-94573.77,-27902.182,-16268.718,-37421.957,-35010.094,-50084.516,32495.852
881795.9611915791,-13295.98,-94570.44,-27906.535,-16270.143,-37428.266,-35011.07,-50085.33,32511.271
881795.965191577,-13288.412,-94554.94,-27899.984,-16260.051,-37419.8,-35013.918,-50083.293,32491.496
881795.9691915748,-13284.384,-94544.84,-27893.352,-16254.151,-37413.492,-35014.406,-50082.562,32478.068
881795.9731915727,-13299.235,-94554.484,-27901.164,-16260.824,-37430.3,-35014.0,-50087.117,32485.148
881795.9771915706,-13309.937,-94569.016,-27908.285,-16269.694,-37446.617,-35016.52,-50097.293,32477.785
881795.9811915684,-13305.38,-94567.836,-27908.691,-16269.572,-37445.438,-35020.223,-50095.176,32492.434
881795.9851915663,-13290.854,-94554.57,-27900.229,-16257.691,-37429.65,-35017.863,-50085.33,32501.955
881795.9891915641,-13284.668,-94546.72,-27889.201,-16250.855,-37425.945,-35014.12,-50076.99,32502.402
881795.993191562,-13290.854,-94550.21,-27892.05,-16253.988,-37428.47,-35012.41,-50080.242,32504.07
881795.9971915599,-13301.433,-94562.586,-27903.076,-16262.98,-37432.58,-35014.324,-50090.82,32487.916
881796.0011915577,-13301.596,-94563.84,-27900.066,-16262.045,-37434.695,-35018.19,-50092.938,32471.885
881796.0051915556,-13290.69,-94555.055,-27894.736,-16253.907,-37421.266,-35017.66,-50080.812,32493.205
881796.0091915535,-13285.36,-94547.125,-27890.748,-16248.617,-37416.14,-35013.184,-50073.12,32509.238
881796.0131915513,-13289.633,-94547.445,-27891.846,-16252.442,-37418.785,-35009.24,-50083.293,32495.281
881796.0171915492,-13304.81,-94558.59,-27902.873,-16263.591,-37426.027,-35011.312,-50094.523,32487.957
881796.021191547,-13309.082,-94558.84,-27906.25,-16265.016,-37425.54,-35015.91,-50100.953,32480.389
881796.0251915449,-13295.858,-94544.35,-27898.479,-16256.349,-37416.63,-35019.41,-50093.75,32491.375
881796.0291915428,-13291.179,-94541.47,-27893.516,-16253.419,-37410.93,-35020.184,-50086.754,32493.084
881796.0331915406,-13299.927,-94557.17,-27900.107,-16259.318,-37427.246,-35016.36,-50091.594,32496.867
881796.0371915385,-13309.408,-94562.625,-27904.258,-16263.0625,-37437.176,-35016.36,-50102.01,32483.969
881796.0411915364,-13299.765,-94552.164,-27899.578,-16260.824,-37437.99,-35020.305,-50104.168,32470.664
881796.0451915342,-13281.413,-94538.945,-27891.398,-16250.651,-37427.734,-35018.35,-50094.035,32486.94
881796.0491915321,-13279.216,-94537.27,-27891.969,-16246.623,-37416.87,-35013.31,-50085.125,32498.008
881796.0531915299,-13297.079,-94557.58,-27898.723,-16256.552,-37421.59,-35012.168,-50087.934,32501.873
881796.0571915278,-13312.622,-94575.12,-27909.668,-16267.945,-37439.74,-35014.203,-50099.734,32486.898
881796.0611915257,-13302.49,-94565.8,-27906.414,-16265.056,-37440.145,-35012.574,-50098.918,32476.768
881796.0651915235,-13295.532,-94552.53,-27895.63,-16255.372,-37429.324,-35010.457,-50082.52,32498.008
881796.0691915214,-13295.492,-94543.336,-27889.648,-16246.583,-37413.332,-35005.74,-50069.95,32515.79
881796.0731915192,-13291.87,-94551.555,-27889.486,-16248.658,-37416.547,-34999.35,-50072.88,32515.951
881796.0771915171,-13300.253,-94562.055,-27896.16,-16256.308,-37426.312,-35001.305,-50083.457,32507.0
881796.081191515,-13295.736,-94553.71,-27898.805,-16258.383,-37425.293,-35004.477,-50088.137,32494.752
881796.0851915128,-13287.191,-94540.9,-27890.463,-16249.797,-37415.527,-35007.49,-50078.98,32508.465
881796.0891915107,-13291.138,-94536.99,-27883.668,-16244.955,-37415.082,-35003.785,-50072.797,32516.887
881796.0931915086,-13300.985,-94547.04,-27889.283,-16249.553,-37418.254,-34998.78,-50075.848,32519.572
881796.0971915064,-13307.943,-94561.28,-27899.049,-16259.115,-37425.418,-35000.246,-50087.16,32503.338
881796.1011915043,-13303.02,-94557.58,-27897.34,-16260.255,-37426.27,-35004.56,-50090.332,32492.066
881796.1051915021,-13292.847,-94538.66,-27889.08,-16250.204,-37409.426,-35003.785,-50078.004,32499.105
881796.1091915001,-13291.748,-94533.2,-27887.492,-16246.623,-37395.387,-35005.25,-50073.04,32512.777
881796.113191498,-13302.165,-94542.6,-27895.428,-16252.401,-37393.027,-35006.145,-50081.3,32501.588
881796.1171914958,-13313.07,-94551.516,-27906.21,-16259.278,-37398.844,-35009.074,-50088.992,32491.496
881796.1211914937,-13307.007,-94544.35,-27905.152,-16257.406,-37393.434,-35010.133,-50083.742,32498.984
881796.1251914916,-13298.381,-94524.17,-27890.3,-16245.729,-37376.26,-35006.676,-50070.883,32508.262
881796.1291914894,-13295.736,-94515.875,-27885.377,-16240.805,-37364.176,-35004.11,-50065.145,32517.213
881796.1331914873,-13299.438,-94524.01,-27897.46,-16244.142,-37364.46,-34998.984,-50069.746,32517.457
881796.1371914851,-13310.425,-94535.32,-27905.111,-16253.5,-37367.312,-34995.77,-50077.15,32505.535
881796.141191483,-13301.799,-94524.62,-27900.635,-16250.692,-37367.72,-34995.445,-50073.73,32502.482
881796.1451914809,-13289.348,-94503.09,-27890.26,-16237.916,-37354.004,-34997.316,-50065.594,32513.957
881796.1491914787,-13287.272,-94495.81,-27879.191,-16231.568,-37340.58,-34994.184,-50054.61,32530.52
881796.1531914766,-13299.887,-94510.13,-27886.354,-16238.607,-37338.707,-34994.47,-50057.13,32532.268
881796.1571914745,-13317.424,-94526.33,-27897.38,-16248.536,-37344.77,-34998.375,-50068.156,32517.863
881796.1611914723,-13315.715,-94518.76,-27892.863,-16245.118,-37350.383,-35000.938,-50072.188,32514.771
881796.1651914702,-13304.077,-94502.04,-27884.197,-16235.312,-37344.645,-35001.1,-50064.902,32526.205
881796.169191468,-13301.88,-94498.3,-27884.4,-16231.69,-37340.945,-34998.535,-50060.914,32516.725
881796.1731914659,-13310.71,-94509.56,-27890.178,-16237.997,-37346.316,-34997.887,-50065.84,32503.908
881796.1771914638,-13314.819,-94522.34,-27893.922,-16246.379,-37350.504,-34996.625,-50071.414,32503.664
881796.1811914616,-13305.827,-94518.48,-27888.836,-16244.63,-37345.133,-34998.74,-50066.043,32515.91
881796.1851914595,-13291.992,-94503.18,-27879.6,-16233.033,-37333.008,-35000.57,-50054.688,32526.287
881796.1891914573,-13300.944,-94500.164,-27878.826,-16228.964,-37331.055,-34999.15,-50054.324,32525.27
881796.1931914552,-13313.314,-94507.98,-27890.422,-16235.678,-37337.32,-34999.43,-50064.453,32514.69
881796.1971914531,-13318.726,-94519.86,-27896.078,-16246.013,-37347.78,-35001.71,-50075.074,32502.564
881796.2011914509,-13309.53,-94513.59,-27895.387,-16243.531,-37352.094,-35002.117,-50072.957,32511.965
881796.2051914488,-13296.265,-94498.5,-27886.924,-16234.172,-37340.25,-35001.71,-50062.91,32517.213
881796.2091914467,-13298.666,-94495.0,-27882.936,-16229.289,-37337.08,-35001.63,-50053.754,32529.95
881796.2131914445,-13309.978,-94512.375,-27886.395,-16236.776,-37351.074,-34999.473,-50059.652,32510.377
881796.2171914424,-13318.726,-94524.62,-27898.031,-16246.501,-37355.918,-34999.27,-50073.324,32484.54
881796.2211914402,-13314.819,-94517.7,-27896.69,-16244.67,-37356.527,-35001.305,-50067.63,32500.693
881796.2251914381,-13300.415,-94498.78,-27883.871,-16231.853,-37345.62,-35000.082,-50055.137,32515.504
881796.229191436,-13296.957,-94492.15,-27881.023,-16228.72,-37340.535,-34999.555,-50050.703,32520.51
881796.2331914338,-13306.519,-94502.04,-27887.127,-16236.451,-37345.906,-34998.21,-50051.96,32527.102
881796.2371914317,-13310.669,-94511.64,-27893.719,-16245.646,-37361.246,-34994.996,-50059.125,32515.707
881796.2411914296,-13306.763,-94505.58,-27894.736,-16243.9375,-37364.46,-34992.96,-50060.387,32509.604
881796.2451914274,-13301.84,-94495.61,-27888.754,-16235.312,-37354.9,-34995.484,-50055.83,32512.777
881796.2491914253,-13307.861,-94495.81,-27888.266,-16231.853,-37344.93,-34996.91,-50050.215,32522.707
881796.2531914231,-13315.715,-94511.56,-27893.31,-16241.496,-37348.51,-34997.844,-50056.926,32522.096
881796.257191421,-13315.268,-94523.69,-27898.723,-16249.35,-37353.76,-34997.723,-50066.69,32508.18
881796.2611914189,-13305.949,-94517.78,-27894.207,-16245.81,-37345.95,-35000.082,-50064.74,32496.055
881796.2651914167,-13301.352,-94507.61,-27883.465,-16238.038,-37334.027,-35003.094,-50055.3,32501.71
881796.2691914146,-13305.949,-94508.63,-27876.018,-16233.562,-37321.82,-35003.297,-50050.62,32509.686
881796.2731914126,-13308.594,-94516.195,-27880.412,-16236.613,-37315.758,-34997.438,-50052.98,32512.168
881796.2771914104,-13317.831,-94529.42,-27889.934,-16245.484,-37334.11,-34996.95,-50060.14,32512.736
881796.2811914083,-13319.906,-94525.11,-27890.545,-16246.054,-37344.44,-34998.13,-50065.39,32499.432
881796.2851914061,-13303.467,-94507.734,-27883.668,-16238.282,-37334.312,-34999.676,-50060.547,32502.523
881796.289191404,-13298.869,-94497.89,-27879.68,-16231.894,-37331.83,-34995.523,-50054.527,32507.0
881796.2931914019,-13302.856,-94511.27,-27884.482,-16236.735,-37341.797,-34992.27,-50057.742,32497.682
881796.2971913997,-13305.339,-94522.55,-27889.08,-16242.758,-37352.133,-34989.3,-50058.72,32498.252
881796.3011913976,-13297.363,-94517.91,-27883.342,-16239.828,-37350.668,-34993.777,-50060.75,32501.547
881796.3051913955,-13285.849,-94505.05,-27876.344,-16229.818,-37340.78,-34994.47,-50055.176,32516.236
881796.3091913933,-13285.116,-94504.195,-27873.658,-16225.831,-37331.668,-34992.15,-50050.215,32523.928
881796.3131913912,-13296.265,-94519.734,-27881.553,-16234.498,-37347.13,-34989.992,-50054.61,32525.758
881796.317191389,-13304.525,-94528.98,-27890.992,-16245.199,-37361.33,-34993.246,-50066.69,32501.547
881796.3211913869,-13300.659,-94522.586,-27894.248,-16246.013,-37354.574,-34995.16,-50065.555,32499.39
881796.3251913848,-13291.504,-94509.93,-27883.465,-16239.34,-37346.234,-34991.496,-50057.742,32500.53
881796.3291913826,-13285.319,-94508.71,-27880.168,-16235.434,-37347.168,-34990.48,-50052.125,32512.045
881796.3331913805,-13296.875,-94521.37,-27888.713,-16243.043,-37348.062,-34989.383,-50059.082,32505.9
881796.3371913783,-13309.204,-94535.61,-27893.76,-16249.879,-37353.92,-34988.242,-50069.297,32497.396
881796.3411913762,-13306.845,-94530.6,-27890.79,-16247.763,-37355.67,-34991.008,-50068.402,32494.63
881796.3451913741,-13298.706,-94516.69,-27889.975,-16241.293,-37350.016,-34991.336,-50061.08,32507.285
881796.3491913719,-13294.638,-94511.27,-27883.75,-16233.562,-37344.035,-34990.562,-50051.758,32512.777
881796.3531913698,-13299.194,-94520.14,-27887.736,-16237.875,-37352.133,-34992.555,-50055.992,32512.29
881796.3571913677,-13306.315,-94531.82,-27898.438,-16246.298,-37354.777,-34997.03,-50069.95,32501.547
881796.3611913655,-13302.572,-94528.57,-27897.746,-16243.368,-37349.69,-34997.52,-50069.95,32492.758
881796.3651913634,-13295.817,-94520.875,-27888.51,-16234.701,-37348.39,-34995.77,-50060.67,32507.082
881796.3691913612,-13298.3,-94518.48,-27886.719,-16232.585,-37339.684,-34996.95,-50060.305,32508.586
881796.3731913591,-13305.908,-94524.414,-27890.748,-16237.55,-37344.24,-34995.65,-50065.473,32511.8
881796.377191357,-13305.014,-94533.66,-27897.299,-16245.524,-37354.453,-34994.67,-50072.47,32502.361
881796.3811913548,-13295.126,-94526.45,-27893.76,-16245.28,-37355.387,-34996.707,-50069.46,32496.95
881796.3851913527,-13280.559,-94509.85,-27883.098,-16234.823,-37350.426,-34998.617,-50059.98,32499.105
881796.3891913506,-13277.507,-94504.36,-27876.547,-16227.214,-37345.258,-34997.03,-50049.805,32526.37
881796.3931913484,-13283.325,-94514.445,-27885.377,-16232.341,-37349.69,-34994.426,-50054.566,32515.627
881796.3971913463,-13294.108,-94530.84,-27902.06,-16242.066,-37356.812,-34997.03,-50064.535,32500.326
881796.4011913441,-13300.456,-94533.98,-27890.016,-16242.27,-37354.29,-35001.832,-50063.03,32505.941
881796.405191342,-13290.283,-94521.37,-27879.924,-16236.41,-37346.56,-35004.64,-50057.008,32503.297
881796.4091913399,-13281.413,-94512.58,-27877.117,-16231.771,-37349.12,-35002.28,-50051.84,32516.521
881796.4131913377,-13284.994,-94520.76,-27886.395,-16236.41,-37357.383,-34998.82,-50057.254,32519.695
881796.4171913356,-13291.26,-94533.9,-27894.328,-16245.484,-37368.98,-35003.582,-50069.094,32508.059
881796.4211913334,-13290.854,-94532.23,-27889.69,-16243.449,-37369.02,-35004.8,-50066.773,32510.58
881796.4251913313,-13277.832,-94515.67,-27876.67,-16231.73,-37359.66,-35003.746,-50055.098,32512.168
881796.4291913292,-13279.501,-94510.055,-27875.53,-16227.784,-37350.63,-35001.1,-50052.492,32510.295
881796.433191327,-13293.295,-94521.12,-27881.43,-16234.01,-37353.152,-34998.25,-50056.277,32516.44
881796.437191325,-13299.438,-94533.33,-27885.783,-16243.246,-37365.766,-35001.305,-50063.64,32508.627
881796.4411913229,-13294.434,-94526.414,-27887.656,-16242.636,-37358.93,-35005.37,-50067.75,32496.543
881796.4451913207,-13280.681,-94513.23,-27883.668,-16236.735,-37348.88,-35005.496,-50058.637,32508.586
881796.4491913186,-13277.995,-94503.586,-27876.75,-16231.894,-37348.55,-35003.01,-50047.69,32528.729
881796.4531913165,-13286.621,-94510.99,-27882.162,-16237.794,-37356.203,-35001.793,-50049.93,32533.896
881796.4571913143,-13292.318,-94518.234,-27888.469,-16245.973,-37362.184,-35001.344,-50061.605,32521.69
881796.4611913122,-13284.709,-94511.516,-27883.83,-16243.734,-37358.523,-35000.367,-50058.31,32517.213
881796.46519131,-13268.515,-94499.63,-27872.926,-16231.527,-37346.11,-35000.977,-50046.918,32527.102
881796.4691913079,-13272.258,-94500.2,-27869.508,-16226.441,-37347.414,-35001.63,-50043.457,32534.506
881796.4731913058,-13285.971,-94513.02,-27881.836,-16235.393,-37357.75,-35003.99,-50051.19,32529.217
881796.4771913036,-13291.26,-94524.26,-27888.877,-16243.856,-37367.637,-35002.688,-50060.914,32516.195
881796.4811913015,-13282.919,-94517.055,-27885.377,-16240.764,-37374.637,-34999.84,-50055.83,32527.02
881796.4851912993,-13272.38,-94504.6,-27880.535,-16233.766,-37360.758,-35001.996,-50045.047,32547.812
881796.4891912972,-13272.055,-94497.48,-27875.53,-16230.021,-37351.24,-35001.953,-50041.426,32542.238
881796.4931912951,-13279.379,-94506.555,-27879.111,-16236.003,-37367.473,-35004.355,-50047.285,32534.953
881796.4971912929,-13288.859,-94517.58,-27886.598,-16244.589,-37377.645,-35003.746,-50054.08,32537.07
881796.5011912908,-13282.309,-94513.06,-27888.592,-16244.182,-37379.19,-35007.0,-50053.875,32523.44
881796.5051912887,-13270.102,-94504.93,-27883.18,-16236.166,-37378.582,-35010.133,-50047.65,32521.363
881796.5091912865,-13272.461,-94499.63,-27868.613,-16228.476,-37370.688,-35007.164,-50041.504,32537.191
881796.5131912844,-13272.38,-94504.36,-27873.21,-16233.888,-37374.555,-35006.266,-50047.16,32532.188
881796.5171912822,-13276.978,-94515.83,-27882.53,-16243.043,-37380.82,-35009.684,-50057.332,32516.277
881796.5211912801,-13281.006,-94514.04,-27882.244,-16243.979,-37380.047,-35010.703,-50054.402,32519.613
881796.525191278,-13276.449,-94502.12,-27881.633,-16238.363,-37377.156,-35008.426,-50044.92,32535.117
881796.5291912758,-13268.311,-94496.664,-27872.275,-16229.533,-37371.91,-35000.285,-50034.465,32551.555
881796.5331912737,-13277.385,-94506.11,-27876.832,-16236.288,-37378.5,-35000.082,-50042.523,32549.562
881796.5371912715,-13292.48,-94522.46,-27884.686,-16245.24,-37384.605,-35001.59,-50049.316,32546.592
881796.5411912694,-13286.743,-94517.984,-27883.18,-16241.781,-37382.242,-35004.68,-50051.066,32528.729
881796.5451912673,-13275.065,-94505.375,-27873.902,-16230.429,-37370.242,-35003.95,-50043.824,32537.111
881796.5491912651,-13274.008,-94499.8,-27867.188,-16224.8545,-37366.293,-35003.133,-50044.844,32531.496
881796.553191263,-13287.272,-94510.375,-27876.588,-16234.213,-37383.504,-35005.453,-50054.973,32527.955
881796.5571912609,-13297.445,-94521.81,-27889.16,-16246.827,-37397.258,-35007.04,-50063.355,32518.23
881796.5611912587,-13290.527,-94517.87,-27884.36,-16245.565,-37398.926,-35008.18,-50060.67,32522.055
881796.5651912566,-13277.06,-94500.734,-27876.059,-16235.393,-37389.0,-35008.22,-50046.062,32540.53
881796.5691912544,-13271.647,-94493.86,-27875.611,-16231.446,-37382.04,-35009.24,-50041.992,32549.154
881796.5731912523,-13276.367,-94502.81,-27882.488,-16236.735,-37388.797,-35008.504,-50048.668,32546.266
881796.5771912502,-13290.324,-94516.08,-27889.16,-16249.146,-37397.625,-35011.637,-50061.566,32529.746
881796.581191248,-13291.667,-94517.78,-27889.445,-16248.942,-37393.473,-35015.3,-50056.52,32531.902
881796.5851912459,-13281.006,-94504.4,-27880.209,-16238.566,-37386.027,-35015.668,-50042.36,32552.41
881796.5891912438,-13275.798,-94496.914,-27874.268,-16232.585,-37388.875,-35012.168,-50035.32,32559.367
881796.5931912416,-13287.517,-94509.16,-27883.912,-16239.381,-37400.84,-35009.24,-50042.562,32540.732
881796.5971912395,-13294.516,-94522.26,-27889.121,-16248.251,-37408.082,-35009.402,-50053.957,32522.828
881796.6011912375,-13284.953,-94518.4,-27883.057,-16246.013,-37407.676,-35012.047,-50050.62,32531.008
881796.6051912353,-13269.816,-94501.02,-27871.055,-16235.312,-37395.1,-35012.613,-50038.13,32550.375
881796.6091912332,-13270.915,-94497.68,-27872.111,-16229.574,-37389.406,-35011.844,-50031.293,32562.705
881796.613191231,-13283.936,-94507.086,-27882.244,-16236.939,-37397.707,-35010.742,-50040.773,32547.812
881796.6171912289,-13288.127,-94516.65,-27886.475,-16247.193,-37405.68,-35011.598,-50053.387,32527.102
881796.6211912268,-13285.6045,-94515.83,-27887.412,-16248.007,-37410.24,-35016.684,-50057.13,32519.451
881796.6251912246,-13280.518,-94505.86,-27883.545,-16241.578,-37403.934,-35018.598,-50049.48,32524.943
881796.6291912225,-13281.088,-94497.805,-27881.064,-16237.062,-37401.082,-35017.293,-50043.62,32531.902
881796.6331912203,-13285.197,-94508.34,-27886.557,-16243.083,-37410.973,-35015.3,-50045.82,32545.33
881796.6371912182,-13292.277,-94522.016,-27901.49,-16251.994,-37420.207,-35017.742,-50055.137,32526.979
881796.6411912161,-13293.417,-94520.59,-27905.6,-16250.489,-37417.36,-35020.387,-50057.742,32518.963
881796.6451912139,-13283.325,-94505.66,-27883.139,-16241.537,-37408.49,-35019.98,-50045.82,32531.902
881796.6491912118,-13279.135,-94498.54,-27881.47,-16237.387,-37403.566,-35016.887,-50038.94,32541.262
881796.6531912097,-13286.133,-94507.164,-27886.271,-16244.182,-37412.395,-35013.227,-50042.605,32539.104
881796.6571912075,-13295.329,-94518.07,-27889.242,-16251.628,-37423.098,-35013.715,-50048.79,32535.238
881796.6611912054,-13294.719,-94518.72,-27889.771,-16248.332,-37421.266,-35015.016,-50042.766,32550.62
881796.6651912032,-13288.656,-94513.63,-27884.562,-16240.275,-37414.715,-35015.83,-50037.64,32558.473
881796.6691912011,-13286.703,-94511.6,-27882.977,-16238.688,-37410.24,-35019.37,-50040.164,32554.607
881796.673191199,-13290.324,-94520.875,-27887.656,-16242.514,-37409.426,-35018.19,-50046.633,32550.09
881796.6771911968,-13299.438,-94531.82,-27896.201,-16248.21,-37410.36,-35016.195,-50055.46,32538.78
881796.6811911947,-13298.625,-94526.0,-27896.404,-16245.81,-37412.56,-35017.375,-50050.375,32538.576
881796.6851911925,-13290.161,-94514.0,-27886.436,-16234.864,-37406.21,-35017.375,-50040.164,32540.773
881796.6891911904,-13291.057,-94511.88,-27885.58,-16232.585,-37404.625,-35015.625,-50040.324,32542.238
881796.6931911883,-13295.41,-94518.92,-27893.799,-16239.787,-37408.285,-35013.875,-50042.766,32546.307
881796.6971911861,-13295.37,-94524.91,-27898.154,-16243.246,-37410.24,-35014.324,-50048.34,32540.0
881796.701191184,-13283.8955,-94517.78,-27892.701,-16241.7,-37412.273,-35016.93,-50048.098,32534.465
881796.7051911819,-13275.513,-94499.07,-27883.057,-16232.789,-37402.63,-35017.375,-50037.152,32547.486
881796.7091911797,-13283.081,-94490.44,-27880.25,-16227.052,-37394.656,-35012.25,-50027.06,32567.424
881796.7131911776,-13294.922,-94500.2,-27884.197,-16233.195,-37401.207,-35011.15,-50041.586,32543.05
881796.7171911754,-13310.751,-94510.74,-27894.451,-16245.606,-37405.6,-35018.473,-50058.555,32521.607
881796.7211911733,-13311.523,-94503.055,-27895.469,-16245.443,-37410.074,-35022.867,-50059.082,32525.96
881796.7251911712,-13293.091,-94492.516,-27886.639,-16236.613,-37404.664,-35018.35,-50044.68,32550.01
881796.729191169,-13286.581,-94490.97,-27882.65,-16229.737,-37403.2,-35013.918,-50040.164,32550.05
881796.7331911669,-13294.108,-94503.22,-27887.371,-16235.026,-37414.51,-35013.145,-50050.215,32540.854
881796.7371911647,-13302.572,-94517.17,-27897.625,-16242.758,-37421.305,-35013.51,-50055.176,32548.463
881796.7411911626,-13293.701,-94511.56,-27895.713,-16240.927,-37420.535,-35016.277,-50052.207,32546.266
881796.7451911605,-13279.094,-94495.24,-27885.254,-16229.127,-37406.008,-35013.875,-50041.26,32555.502
