timestamp,Fp1,Fp2,F3,Fz,F4,Cz,Pz,Oz
881017.5616071448,7964.1113,-123503.46,-41784.223,-36578.94,-66621.055,-38170.125,-79303.47,9340.088
881017.5656071426,7968.1807,-123514.086,-41792.195,-36585.246,-66635.13,-38172.85,-79305.83,9336.548
881017.5696071405,7964.7217,-123523.4,-41809.246,-36590.414,-66650.64,-38174.48,-79308.02,9324.626
881017.5736071384,7958.944,-123519.984,-41808.23,-36587.81,-66639.77,-38172.242,-79301.59,9328.695
881017.5776071362,7961.2227,-123515.55,-41795.33,-36581.258,-66626.836,-38171.754,-79296.35,9339.396
881017.5816071341,7965.332,-123512.45,-41791.383,-36580.65,-66625.61,-38173.18,-79295.945,9345.825
881017.585607132,7964.9253,-123516.93,-41801.188,-36589.316,-66640.1,-38176.883,-79298.75,9344.809
881017.5896071298,7962.85,-123525.39,-41813.883,-36595.62,-66652.266,-38179.28,-79303.96,9335.571
881017.5936071277,7961.3853,-123519.17,-41810.465,-36592.285,-66646.08,-38177.043,-79304.81,9335.043
881017.5976071255,7961.141,-123514.04,-41800.09,-36584.84,-66631.47,-38174.52,-79301.72,9340.78
881017.6016071234,7960.002,-123515.586,-41793.945,-36584.35,-66629.16,-38175.254,-79304.04,9335.897
881017.6056071213,7956.787,-123530.93,-41804.08,-36592.816,-66640.71,-38177.938,-79308.76,9328.817
881017.6096071191,7950.9277,-123540.98,-41822.594,-36598.023,-66649.01,-38181.03,-79310.55,9322.021
881017.613607117,7953.6543,-123535.0,-41819.95,-36591.84,-66640.42,-38181.52,-79307.21,9321.818
881017.6176071148,7956.584,-123523.97,-41807.21,-36585.29,-66619.02,-38177.777,-79301.68,9336.548
881017.6216071128,7955.5664,-123525.03,-41802.695,-36587.688,-66604.05,-38176.555,-79295.01,9353.271
881017.6256071107,7960.246,-123524.78,-41806.805,-36592.082,-66609.83,-38175.824,-79294.72,9352.824
881017.6296071085,7960.083,-123528.28,-41815.88,-36595.746,-66621.87,-38178.14,-79298.055,9342.773
881017.6336071064,7960.6123,-123530.27,-41814.13,-36592.69,-66616.62,-38175.293,-79298.79,9338.583
881017.6376071043,7962.972,-123527.71,-41805.707,-36589.723,-66609.87,-38171.59,-79295.086,9347.087
881017.6416071021,7960.8564,-123535.57,-41802.043,-36592.246,-66607.305,-38168.5,-79292.24,9358.358
881017.6456071,7961.548,-123545.01,-41805.664,-36599.0,-66612.02,-38168.824,-79296.23,9350.058
881017.6496070978,7966.1055,-123539.31,-41812.582,-36601.727,-66603.64,-38166.42,-79299.4,9336.792
881017.6536070957,7968.425,-123531.46,-41809.938,-36597.617,-66588.79,-38159.383,-79296.1,9338.095
881017.6576070936,7971.2324,-123524.664,-41798.543,-36591.84,-66570.56,-38151.57,-79291.55,9343.588
881017.6616070914,7972.534,-123521.33,-41793.457,-36593.75,-66568.36,-38149.78,-79294.07,9339.071
881017.6656070893,7972.0054,-123522.99,-41805.707,-36600.14,-66574.99,-38149.496,-79298.38,9333.618
881017.6696070872,7971.6797,-123525.15,-41815.227,-36603.027,-66590.74,-38149.82,-79304.81,9315.796
881017.673607085,7967.163,-123524.13,-41818.727,-36599.406,-66587.04,-38147.137,-79309.164,9297.038
881017.6776070829,7957.723,-123528.77,-41809.45,-36597.13,-66580.69,-38143.72,-79308.555,9302.612
881017.6816070807,7960.7344,-123537.07,-41805.258,-36596.64,-66581.79,-38140.87,-79307.58,9310.303
881017.6856070786,7965.454,-123544.36,-41815.633,-36602.62,-66595.54,-38140.3,-79310.1,9311.442
881017.6896070765,7963.786,-123554.04,-41830.895,-36609.62,-66604.984,-38141.562,-79313.88,9307.007
881017.6936070743,7963.42,-123550.016,-41823.977,-36605.266,-66594.52,-38137.94,-79311.24,9308.228
881017.6976070722,7963.8267,-123542.65,-41810.832,-36599.324,-66579.02,-38133.914,-79306.44,9323.364
881017.70160707,7960.653,-123547.0,-41811.28,-36600.26,-66574.18,-38132.406,-79300.984,9342.651
881017.7056070679,7960.449,-123552.62,-41823.203,-36607.504,-66584.02,-38132.203,-79298.586,9348.593
881017.7096070658,7963.2163,-123547.33,-41834.758,-36608.44,-66591.02,-38134.117,-79299.93,9337.606
881017.7136070636,7965.7393,-123539.27,-41829.062,-36604.29,-66587.08,-38134.44,-79300.01,9339.111
881017.7176070615,7967.285,-123537.6,-41821.168,-36598.758,-66579.266,-38132.49,-79297.24,9351.115
881017.7216070594,7970.703,-123534.71,-41815.348,-36599.57,-66580.94,-38132.45,-79298.586,9356.527
881017.7256070572,7972.331,-123534.75,-41820.926,-36603.965,-66589.44,-38133.914,-79303.875,9343.303
881017.7296070551,7970.215,-123537.27,-41833.58,-36608.113,-66601.6,-38135.742,-79305.664,9336.711
881017.733607053,7971.802,-123531.13,-41829.387,-36600.63,-66594.61,-38135.457,-79305.75,9334.636
881017.7376070508,7979.411,-123523.766,-41812.906,-36594.484,-66578.734,-38132.652,-79301.805,9337.6875
881017.7416070487,7984.131,-123514.86,-41803.387,-36592.285,-66570.4,-38132.0,-79299.805,9339.6
881017.7456070465,7982.951,-123515.875,-41812.703,-36598.473,-66579.836,-38134.97,-79302.82,9333.13
881017.7496070444,7979.696,-123530.84,-41829.633,-36605.594,-66596.234,-38137.25,-79308.516,9323.242
881017.7536070423,7976.8066,-123531.91,-41829.062,-36603.23,-66587.57,-38134.605,-79308.96,9320.354
881017.7576070401,7977.8647,-123523.6,-41814.74,-36594.89,-66571.49,-38132.04,-79305.38,9325.236
881017.761607038,7978.3125,-123529.95,-41811.566,-36595.703,-66573.04,-38132.69,-79308.84,9326.538
881017.7656070358,7980.062,-123538.945,-41819.703,-36601.2,-66585.57,-38136.23,-79312.3,9317.79
881017.7696070337,7979.126,-123538.91,-41830.08,-36603.56,-66593.266,-38138.918,-79315.266,9305.583
881017.7736070316,7976.6035,-123535.41,-41825.195,-36602.133,-66588.09,-38137.125,-79312.83,9305.176
881017.7776070294,7974.162,-123536.016,-41816.652,-36598.51,-66587.12,-38135.62,-79308.96,9311.442
881017.7816070273,7974.6094,-123541.1,-41817.75,-36599.164,-66585.77,-38134.605,-79306.52,9321.127
881017.7856070253,7973.4297,-123540.49,-41828.125,-36603.68,-66587.98,-38135.66,-79307.58,9314.535
881017.7896070231,7974.7725,-123541.67,-41838.543,-36607.75,-66594.08,-38136.76,-79313.07,9296.916
881017.793607021,7976.115,-123544.56,-41834.88,-36605.594,-66581.51,-38135.215,-79311.41,9302.816
881017.7976070188,7978.6787,-123541.016,-41820.64,-36599.406,-66564.336,-38133.832,-79308.64,9310.466
881017.8016070167,7975.383,-123545.414,-41818.32,-36598.31,-66571.58,-38132.242,-79305.26,9315.471
881017.8056070146,7974.6094,-123553.19,-41829.793,-36604.29,-66583.414,-38134.156,-79309.77,9308.594
881017.8096070124,7976.3184,-123553.8,-41840.82,-36606.73,-66586.59,-38134.645,-79310.67,9309.326
881017.8136070103,7978.6787,-123550.055,-41834.27,-36599.812,-66579.96,-38133.914,-79307.09,9314.616
881017.8176070082,7986.6133,-123536.13,-41814.902,-36593.223,-66566.61,-38131.145,-79300.414,9333.212
881017.821607006,7994.548,-123530.56,-41808.473,-36592.652,-66565.23,-38131.145,-79299.234,9344.482
881017.8256070039,7987.9966,-123548.625,-41822.836,-36600.586,-66582.484,-38134.32,-79299.56,9346.232
881017.8296070017,7985.881,-123562.18,-41838.42,-36605.715,-66601.73,-38136.19,-79303.14,9332.846
881017.8336069996,7983.1543,-123561.69,-41835.207,-36602.457,-66594.69,-38133.586,-79302.125,9338.461
881017.8376069975,7982.585,-123551.84,-41822.266,-36597.37,-66581.71,-38129.965,-79296.305,9351.5625
881017.8416069953,7997.8843,-123540.29,-41813.52,-36596.438,-66573.94,-38131.39,-79295.21,9355.591
881017.8456069932,8000.0,-123538.86,-41823.16,-36600.914,-66585.57,-38132.773,-79298.42,9349.243
881017.849606991,7991.211,-123549.484,-41836.63,-36604.656,-66598.516,-38133.426,-79302.37,9337.402
881017.8536069889,7980.754,-123554.125,-41835.367,-36603.273,-66587.69,-38133.016,-79302.62,9333.13
881017.8576069868,7983.5205,-123543.336,-41827.066,-36598.676,-66569.375,-38132.812,-79303.47,9335.368
881017.8616069846,7989.4614,-123539.15,-41818.727,-36601.156,-66564.945,-38134.848,-79306.93,9333.7
881017.8656069825,7993.083,-123545.05,-41827.72,-36606.16,-66579.875,-38138.1,-79312.55,9319.499
881017.8696069804,7989.624,-123551.35,-41841.797,-36607.465,-66593.34,-38141.36,-79318.484,9300.944
881017.8736069782,7986.206,-123551.11,-41837.89,-36603.68,-66591.23,-38139.527,-79316.086,9301.962
881017.8776069761,7984.538,-123551.48,-41821.574,-36598.473,-66578.125,-38138.59,-79312.38,9307.414
881017.8816069739,7982.3,-123560.14,-41814.902,-36599.57,-66580.77,-38136.273,-79311.52,9306.763
881017.8856069718,7982.5034,-123564.74,-41826.297,-36604.25,-66587.69,-38137.574,-79315.48,9303.101
881017.8896069697,7982.137,-123564.3,-41843.875,-36607.3,-66595.625,-38140.83,-79322.31,9286.743
881017.8936069675,7975.1387,-123568.41,-41844.523,-36606.242,-66594.16,-38140.098,-79323.695,9284.384
881017.8976069654,7964.559,-123574.75,-41834.434,-36601.81,-66587.2,-38134.562,-79317.79,9295.207
881017.9016069632,7960.124,-123571.336,-41832.4,-36603.598,-66580.69,-38133.426,-79312.7,9303.711
881017.9056069611,7967.977,-123562.5,-41844.2,-36609.906,-66585.57,-38137.004,-79314.45,9298.869
881017.909606959,7974.6504,-123563.195,-41855.145,-36613.324,-66593.305,-38138.47,-79316.77,9289.714
881017.9136069568,7972.575,-123561.0,-41852.01,-36609.945,-66587.0,-38135.418,-79310.55,9300.741
881017.9176069547,7972.8193,-123558.44,-41842.57,-36603.434,-66577.19,-38131.55,-79303.02,9314.291
881017.9216069526,7966.1865,-123565.11,-41845.543,-36606.49,-66579.875,-38130.74,-79295.82,9328.735
881017.9256069504,7952.0674,-123581.586,-41857.668,-36615.848,-66595.83,-38131.188,-79290.94,9333.578
881017.9296069483,7947.1846,-123584.88,-41864.383,-36617.473,-66597.58,-38131.43,-79291.06,9332.724
881017.9336069461,7957.9673,-123574.1,-41856.73,-36610.19,-66589.84,-38132.324,-79291.83,9334.27
881017.937606944,7959.758,-123566.734,-41848.145,-36605.918,-66581.99,-38130.332,-79288.336,9349.406
881017.9416069419,7956.3804,-123569.75,-41846.03,-36607.383,-66576.7,-38129.64,-79289.59,9351.237
881017.9456069397,7954.0205,-123575.16,-41859.05,-36614.46,-66580.445,-38131.797,-79290.086,9347.331
881017.9496069377,7954.7935,-123578.58,-41869.508,-36619.71,-66587.89,-38134.195,-79291.22,9336.101
881017.9536069356,7959.2285,-123572.02,-41866.09,-36613.527,-66582.195,-38133.426,-79293.336,9323.771
881017.9576069334,7949.626,-123580.29,-41859.5,-36608.523,-66577.15,-38133.18,-79294.76,9323.975
881017.9616069313,7940.959,-123592.86,-41857.26,-36610.8,-66579.67,-38136.07,-79297.2,9324.26
881017.9656069292,7942.3423,-123591.8,-41866.984,-36615.887,-66587.28,-38139.445,-79301.555,9318.563
881017.969606927,7946.737,-123589.69,-41876.508,-36619.957,-66592.9,-38140.953,-79302.66,9309.896
881017.9736069249,7942.668,-123587.81,-41870.73,-36614.83,-66584.44,-38138.875,-79295.53,9312.053
881017.9776069227,7940.674,-123583.625,-41858.805,-36607.383,-66576.375,-38136.11,-79290.98,9318.481
881017.9816069206,7940.8774,-123580.65,-41858.316,-36608.97,-66577.15,-38136.883,-79290.24,9320.964
881017.9856069185,7934.5703,-123592.62,-41869.14,-36616.78,-66584.516,-38139.0,-79292.08,9318.686
881017.9896069163,7922.16,-123604.01,-41886.027,-36622.355,-66594.32,-38141.6,-79291.67,9315.634
881017.9936069142,7920.4917,-123597.5,-41882.812,-36619.305,-66582.805,-38139.285,-79287.36,9322.0625
881017.997606912,7913.33,-123596.89,-41869.14,-36615.195,-66576.625,-38135.38,-79283.0,9328.329
881018.0016069099,7908.081,-123602.75,-41865.805,-36617.39,-66576.91,-38134.32,-79277.14,9335.693
881018.0056069078,7896.8506,-123622.805,-41878.176,-36624.066,-66584.516,-38134.562,-79279.016,9332.113
881018.0096069056,7880.005,-123642.664,-41890.22,-36626.793,-66596.766,-38135.05,-79279.22,9327.148
881018.0136069035,7869.344,-123653.53,-41889.0,-36624.715,-66594.85,-38132.203,-79273.484,9333.415
881018.0176069014,7873.047,-123647.34,-41874.88,-36617.516,-66577.516,-38129.64,-79266.65,9348.186
881018.0216068992,7871.948,-123653.94,-41871.01,-36618.164,-66576.42,-38129.64,-79265.18,9357.382
881018.0256068971,7861.6943,-123669.72,-41879.883,-36626.668,-66593.836,-38135.785,-79269.62,9348.918
881018.0296068949,7852.458,-123677.66,-41893.96,-36629.844,-66602.87,-38139.527,-79272.71,9344.971
881018.0336068928,7842.326,-123680.875,-41889.812,-36627.81,-66602.26,-38138.51,-79269.86,9351.156
881018.0376068907,7836.8735,-123681.4,-41875.246,-36624.35,-66594.81,-38137.086,-79264.57,9368.042
881018.0416068885,7836.548,-123684.94,-41874.88,-36626.305,-66598.96,-38137.695,-79262.086,9376.953
881018.0456068864,7827.3115,-123695.97,-41887.29,-36634.44,-66612.67,-38140.137,-79263.51,9380.249
881018.0496068842,7823.4053,-123702.64,-41894.816,-36637.125,-66624.63,-38142.984,-79266.89,9374.919
881018.0536068821,7821.981,-123702.48,-41888.55,-36633.26,-66618.0,-38144.168,-79271.08,9362.956
881018.05760688,7817.383,-123696.78,-41878.5,-36628.215,-66608.12,-38140.42,-79266.69,9376.628
881018.0616068778,7811.361,-123700.08,-41877.77,-36631.105,-66607.305,-38137.695,-79262.66,9385.905
881018.0656068757,7807.251,-123714.89,-41886.516,-36637.004,-66619.39,-38139.85,-79264.2,9373.21
881018.0696068736,7806.4375,-123722.54,-41895.836,-36641.562,-66628.99,-38141.36,-79266.85,9364.706
881018.0736068714,7812.3374,-123717.9,-41890.83,-36638.875,-66630.86,-38140.625,-79268.68,9361.776
881018.0776068693,7804.9727,-123727.09,-41879.152,-36635.336,-66623.7,-38138.51,-79265.67,9368.042
881018.0816068671,7791.5854,-123742.15,-41877.973,-36636.8,-66623.91,-38137.74,-79264.24,9371.054
881018.085606865,7793.2944,-123746.79,-41889.363,-36643.027,-66633.34,-38143.35,-79269.125,9361.206
881018.0896068629,7795.7764,-123742.96,-41897.83,-36643.883,-66636.92,-38146.89,-79270.63,9355.795
881018.0936068607,7790.2427,-123740.445,-41896.2,-36642.58,-66628.055,-38145.59,-79266.65,9363.322
881018.0976068586,7783.9766,-123735.64,-41886.56,-36638.633,-66619.71,-38143.516,-79261.97,9375.732
881018.1016068564,7782.593,-123740.89,-41883.26,-36639.49,-66625.9,-38143.19,-79259.6,9380.209
881018.1056068543,7782.5522,-123747.195,-41891.36,-36644.734,-66646.98,-38146.16,-79261.15,9371.379
881018.1096068522,7782.43,-123754.16,-41901.695,-36650.88,-66659.836,-38147.34,-79261.234,9367.31
881018.1136068502,7779.175,-123755.375,-41898.074,-36647.992,-66647.71,-38147.137,-79261.15,9369.223
881018.117606848,7775.757,-123753.91,-41887.168,-36642.09,-66634.28,-38146.934,-79258.914,9376.181
881018.1216068459,7777.9136,-123760.5,-41883.832,-36643.23,-66635.09,-38148.152,-79256.35,9384.97
881018.1256068437,7780.8433,-123768.03,-41890.42,-36648.6,-66645.96,-38151.043,-79256.555,9386.23
881018.1296068416,7782.634,-123769.45,-41898.723,-36648.52,-66648.89,-38152.223,-79257.41,9382.284
881018.1336068395,7783.773,-123765.1,-41899.17,-36645.875,-66639.125,-38153.28,-79255.86,9389.812
881018.1376068373,7781.291,-123758.586,-41884.97,-36641.36,-66631.47,-38151.082,-79250.53,9401.855
881018.1416068352,7783.6104,-123755.91,-41877.93,-36641.97,-66633.83,-38150.92,-79247.56,9407.431
881018.145606833,7783.6914,-123763.19,-41885.05,-36648.4,-66644.21,-38152.344,-79248.09,9398.4375
881018.1496068309,7780.1924,-123765.14,-41897.95,-36651.41,-66648.234,-38154.543,-79253.26,9384.44
881018.1536068288,7777.832,-123762.45,-41897.83,-36649.457,-66644.66,-38154.543,-79252.2,9380.656
881018.1576068266,7778.5645,-123762.74,-41887.656,-36646.28,-66643.11,-38152.47,-79249.15,9387.858
881018.1616068245,7780.477,-123763.31,-41882.367,-36647.016,-66643.64,-38152.387,-79246.586,9396.892
881018.1656068224,7781.535,-123767.87,-41892.824,-36650.23,-66655.36,-38155.76,-79248.62,9395.671
881018.1696068202,7782.0234,-123773.16,-41901.41,-36651.652,-66662.88,-38159.465,-79250.57,9389.567
881018.1736068181,7780.2734,-123771.04,-41900.594,-36648.6,-66651.0,-38160.727,-79252.98,9384.929
881018.1776068159,7776.8555,-123767.79,-41890.3,-36643.555,-66637.49,-38160.44,-79253.13,9390.219
881018.1816068138,7772.868,-123770.72,-41885.824,-36644.86,-66638.19,-38160.89,-79253.5,9395.508
881018.1856068117,7774.455,-123773.93,-41893.434,-36650.555,-66647.586,-38161.785,-79253.87,9394.694
881018.1896068095,7774.577,-123775.96,-41906.414,-36655.965,-66652.71,-38165.57,-79258.79,9375.163
881018.1936068074,7768.3516,-123782.15,-41907.27,-36654.785,-66649.945,-38165.12,-79256.47,9378.215
881018.1976068052,7765.9507,-123784.1,-41896.77,-36649.05,-66641.73,-38163.25,-79255.58,9387.451
881018.2016068031,7766.0728,-123786.83,-41892.945,-36650.434,-66644.984,-38162.355,-79253.09,9392.05
881018.205606801,7768.5957,-123788.86,-41899.58,-36654.42,-66650.02,-38164.105,-79253.664,9385.742
881018.2096067988,7769.409,-123787.16,-41906.82,-36655.64,-66659.43,-38166.668,-79256.555,9379.313
881018.2136067967,7770.2637,-123777.63,-41900.105,-36651.043,-66651.86,-38165.12,-79254.44,9383.586
881018.2176067946,7767.8633,-123770.836,-41889.203,-36645.793,-66646.77,-38161.05,-79247.195,9405.6
881018.2216067924,7766.4795,-123767.74,-41886.19,-36647.543,-66648.234,-38161.176,-79243.86,9414.795
881018.2256067903,7767.09,-123770.02,-41895.754,-36653.973,-66652.51,-38163.453,-79246.016,9409.14
881018.2296067881,7765.259,-123774.984,-41905.4,-36656.58,-66658.81,-38163.535,-79242.15,9416.748
881018.233606786,7763.9976,-123777.39,-41902.426,-36653.2,-66651.94,-38163.004,-79240.36,9419.394
881018.2376067839,7760.946,-123786.09,-41894.9,-36652.14,-66651.25,-38162.355,-79241.91,9414.022
881018.2416067817,7761.3525,-123787.27,-41889.934,-36654.055,-66653.12,-38163.29,-79240.56,9414.185
881018.2456067796,7760.783,-123792.08,-41898.438,-36657.96,-66662.03,-38164.43,-79241.74,9414.185
881018.2496067774,7760.0913,-123794.11,-41909.18,-36658.773,-66665.164,-38167.523,-79245.37,9396.973
881018.2536067753,7758.423,-123789.68,-41901.695,-36653.117,-66657.35,-38166.016,-79243.21,9396.729
881018.2576067732,7756.592,-123790.37,-41890.34,-36649.05,-66647.87,-38163.332,-79237.43,9410.482
881018.261606771,7755.9814,-123798.71,-41888.1,-36650.23,-66648.64,-38163.13,-79236.086,9413.859
881018.2656067689,7755.412,-123804.9,-41899.617,-36655.723,-66663.414,-38166.42,-79241.5,9402.548
881018.2696067668,7751.506,-123806.36,-41913.004,-36658.816,-66678.02,-38170.125,-79246.016,9394.857
881018.2736067646,7746.9077,-123803.39,-41906.984,-36656.09,-66677.984,-38169.516,-79248.414,9388.835
881018.2776067626,7746.501,-123798.79,-41895.71,-36652.67,-66669.35,-38167.36,-79242.59,9402.182
881018.2816067605,7744.4663,-123796.266,-41894.53,-36655.113,-66664.92,-38168.582,-79239.71,9416.545
881018.2856067583,7743.327,-123802.25,-41904.137,-36658.652,-66671.71,-38170.9,-79242.64,9408.122
881018.2896067562,7740.682,-123809.53,-41912.8,-36661.133,-66682.984,-38172.12,-79243.37,9394.938
881018.293606754,7741.008,-123805.99,-41906.25,-36657.39,-66683.96,-38170.613,-79241.58,9397.339
881018.2976067519,7740.6006,-123800.42,-41894.492,-36652.426,-66672.2,-38169.434,-79235.11,9407.227
881018.3016067498,7738.485,-123797.57,-41893.883,-36651.938,-66668.13,-38169.84,-79231.85,9414.551
881018.3056067476,7739.909,-123804.484,-41900.88,-36658.855,-66681.4,-38171.918,-79233.85,9415.161
881018.3096067455,7738.4443,-123815.39,-41906.78,-36663.86,-66690.555,-38174.52,-79237.51,9402.222
881018.3136067434,7733.8057,-123823.77,-41907.35,-36663.86,-66690.63,-38175.984,-79240.07,9399.048
881018.3176067412,7728.231,-123822.15,-41899.375,-36659.508,-66685.23,-38175.906,-79238.94,9409.302
881018.3216067391,7723.9585,-123821.25,-41892.78,-36658.977,-66688.03,-38176.96,-79239.38,9406.413
881018.3256067369,7702.5557,-123845.5,-41907.39,-36668.133,-66699.914,-38177.9,-79237.43,9402.995
881018.3296067348,7695.5566,-123859.83,-41915.527,-36671.387,-66702.72,-38177.98,-79234.42,9403.728
881018.3336067327,7728.923,-123836.76,-41901.613,-36662.883,-66694.5,-38178.062,-79232.75,9410.238
881018.3376067305,7736.9385,-123818.81,-41889.527,-36656.74,-66684.695,-38179.605,-79234.055,9408.244
881018.3416067284,7719.4824,-123834.84,-41892.58,-36661.824,-66691.66,-38179.77,-79233.234,9410.767
881018.3456067262,7713.094,-123849.33,-41906.496,-36670.86,-66711.63,-38183.434,-79237.836,9406.576
881018.3496067241,7710.002,-123850.14,-41915.934,-36671.793,-66714.12,-38185.67,-79239.664,9402.141
881018.353606722,7711.5073,-123849.0,-41909.668,-36667.36,-66700.4,-38185.914,-79239.95,9403.198
881018.3576067198,7710.5713,-123848.27,-41897.543,-36662.312,-66687.91,-38184.246,-79238.33,9406.535
881018.3616067177,7708.374,-123846.4,-41894.207,-36662.438,-66687.664,-38184.773,-79237.06,9411.784
881018.3656067156,7714.681,-123849.29,-41900.35,-36667.36,-66698.08,-38188.56,-79235.64,9416.504
881018.3696067134,7714.5186,-123852.91,-41908.652,-36671.062,-66709.02,-38191.406,-79237.1,9408.8955
881018.3736067113,7712.972,-123853.27,-41906.453,-36669.56,-66702.64,-38188.926,-79233.445,9415.243
881018.3776067091,7715.373,-123847.25,-41898.03,-36664.957,-66688.11,-38186.89,-79232.51,9420.044
881018.381606707,7716.7563,-123844.61,-41896.242,-36664.676,-66689.49,-38186.93,-79231.24,9429.525
881018.3856067049,7717.2446,-123849.0,-41903.16,-36671.1,-66700.52,-38189.332,-79231.734,9424.927
881018.3896067027,7716.919,-123856.695,-41912.19,-36673.258,-66709.8,-38191.53,-79234.625,9408.122
881018.3936067006,7716.5938,-123851.445,-41906.008,-36672.65,-66705.484,-38191.082,-79232.75,9416.342
881018.3976066984,7718.1396,-123841.68,-41893.555,-36667.93,-66688.31,-38188.234,-79229.086,9429.362
881018.4016066963,7718.2617,-123844.81,-41892.496,-36668.17,-66677.62,-38187.5,-79228.97,9432.902
881018.4056066942,7719.7676,-123853.88,-41903.85,-36674.766,-66677.49,-38189.453,-79233.52,9422.812
881018.409606692,7721.3135,-123858.28,-41910.484,-36676.92,-66678.75,-38189.535,-79236.45,9413.615
881018.4136066899,7722.29,-123852.79,-41904.42,-36672.85,-66674.56,-38183.637,-79232.47,9417.358
881018.4176066878,7718.9536,-123851.12,-41892.984,-36668.05,-66659.586,-38176.84,-79224.86,9429.159
881018.4216066856,7718.547,-123859.87,-41892.05,-36670.37,-66655.56,-38174.277,-79222.414,9430.786
881018.4256066835,7721.3135,-123864.51,-41905.19,-36678.508,-66657.68,-38173.83,-79225.55,9422.7705
881018.4296066813,7725.179,-123869.71,-41913.086,-36681.52,-66666.55,-38171.227,-79229.17,9416.626
881018.4336066792,7726.1963,-123868.25,-41906.78,-36676.35,-66658.57,-38165.164,-79228.195,9416.016
881018.4376066771,7726.1963,-123863.49,-41897.42,-36671.793,-66641.52,-38159.87,-79222.01,9428.874
881018.441606675,7726.888,-123861.25,-41896.934,-36673.22,-66645.06,-38157.51,-79221.234,9432.902
881018.4456066729,7725.505,-123864.305,-41908.043,-36680.46,-66655.234,-38157.39,-79225.14,9420.41
881018.4496066708,7727.092,-123866.21,-41915.773,-36681.48,-66659.47,-38154.46,-79229.695,9410.075
881018.4536066686,7729.126,-123864.14,-41911.176,-36679.16,-66649.74,-38151.082,-79229.54,9410.889
881018.4576066665,7726.9697,-123861.695,-41899.82,-36677.207,-66641.6,-38145.062,-79224.61,9416.179
881018.4616066644,7725.383,-123863.28,-41895.71,-36678.71,-66643.92,-38142.863,-79222.25,9420.41
881018.4656066622,7723.918,-123876.95,-41914.145,-36685.953,-66663.336,-38145.633,-79228.88,9414.226
881018.4696066601,7721.4355,-123881.11,-41928.14,-36689.13,-66659.305,-38147.137,-79235.31,9404.338
881018.4736066579,7717.2446,-123879.36,-41924.684,-36685.953,-66652.95,-38144.492,-79235.6,9400.473
881018.4776066558,7719.6455,-123871.95,-41912.68,-36680.504,-66643.35,-38141.52,-79233.89,9405.233
881018.4816066537,7722.575,-123871.26,-41910.973,-36681.766,-66641.805,-38142.133,-79236.49,9404.867
881018.4856066515,7722.534,-123872.03,-41920.86,-36686.973,-66651.29,-38142.58,-79237.06,9403.32
881018.4896066494,7726.9697,-123865.805,-41926.11,-36687.99,-66662.31,-38142.62,-79239.586,9396.892
881018.4936066472,7730.9165,-123859.7,-41923.953,-36682.945,-66658.734,-38141.97,-79241.414,9391.887
881018.4976066451,7731.6084,-123859.13,-41915.367,-36676.395,-66642.91,-38140.707,-79239.95,9397.543
881018.501606643,7735.6772,-123862.06,-41912.8,-36676.35,-66638.96,-38141.766,-79240.44,9403.198
881018.5056066408,7736.125,-123867.03,-41922.77,-36680.38,-66650.48,-38142.742,-79241.984,9402.304
881018.5096066387,7744.2627,-123861.086,-41926.434,-36681.316,-66654.95,-38143.84,-79245.445,9385.946
881018.5136066366,7747.762,-123855.555,-41924.113,-36679.2,-66651.53,-38144.86,-79248.09,9377.563
881018.5176066344,7757.202,-123837.37,-41912.598,-36673.016,-66649.82,-38144.207,-79246.91,9387.207
881018.5216066323,7768.2295,-123819.18,-41909.508,-36674.074,-66650.96,-38148.844,-79252.0,9383.749
881018.5256066301,7779.948,-123814.945,-41918.582,-36678.836,-66658.45,-38152.02,-79255.78,9380.737
881018.529606628,7780.925,-123809.29,-41929.77,-36679.324,-66656.13,-38152.387,-79256.67,9374.187
881018.5336066259,7788.452,-123794.805,-41926.15,-36674.766,-66642.21,-38152.14,-79254.516,9368.042
881018.5376066237,7809.367,-123768.4,-41909.832,-36668.863,-66635.3,-38149.902,-79250.25,9377.768
881018.5416066216,7823.6084,-123755.58,-41896.402,-36669.027,-66640.71,-38148.926,-79246.75,9386.841
881018.5456066194,7832.4385,-123759.73,-41903.16,-36675.54,-66651.695,-38151.652,-79250.33,9376.384
881018.5496066173,7844.0757,-123758.02,-41911.746,-36677.29,-66657.68,-38155.887,-79256.63,9364.99
881018.5536066152,7854.167,-123739.75,-41903.363,-36670.94,-66646.52,-38156.453,-79254.84,9366.862
881018.557606613,7861.1655,-123728.36,-41888.51,-36665.49,-66636.97,-38155.316,-79251.75,9375.937
881018.5616066109,7869.3037,-123725.23,-41882.367,-36665.406,-66635.91,-38154.664,-79252.81,9376.14
881018.5656066088,7883.3823,-123723.43,-41889.934,-36668.133,-66650.02,-38157.555,-79257.164,9373.291
881018.5696066066,7881.592,-123736.05,-41898.887,-36670.777,-66660.89,-38159.26,-79259.73,9366.984
881018.5736066045,7876.506,-123743.66,-41894.37,-36670.37,-66654.42,-38159.586,-79259.24,9367.636
881018.5776066023,7880.2085,-123740.195,-41885.5,-36667.684,-66647.09,-38158.61,-79257.57,9370.972
881018.5816066002,7879.1504,-123744.35,-41881.96,-36668.254,-66645.59,-38158.0,-79253.87,9373.576
881018.5856065981,7880.2085,-123750.37,-41888.31,-36673.383,-66655.07,-38159.547,-79255.336,9371.338
881018.5896065959,7880.9814,-123747.28,-41894.125,-36672.324,-66652.71,-38160.523,-79255.66,9371.948
881018.5936065938,7880.493,-123741.54,-41891.316,-36668.05,-66647.79,-38158.855,-79253.09,9368.002
881018.5976065916,7872.5996,-123740.93,-41888.387,-36666.465,-66652.06,-38157.51,-79252.484,9371.46
881018.6016065895,7867.92,-123744.43,-41892.457,-36670.25,-66653.32,-38156.047,-79252.484,9378.703
881018.6056065874,7864.868,-123750.94,-41901.082,-36675.254,-66658.164,-38157.43,-79254.48,9374.716
881018.6096065853,7860.9214,-123755.336,-41907.715,-36674.848,-66657.06,-38159.14,-79256.266,9368.9375
881018.6136065832,7854.248,-123759.85,-41905.56,-36671.793,-66651.94,-38157.023,-79253.09,9369.263
881018.6176065811,7849.6094,-123759.61,-41895.02,-36667.766,-66652.95,-38155.56,-79246.99,9379.436
881018.6216065789,7842.2446,-123765.914,-41891.156,-36671.43,-66650.84,-38154.38,-79242.64,9386.435
881018.6256065768,7833.822,-123780.32,-41904.785,-36679.85,-66660.36,-38157.594,-79243.98,9385.824
881018.6296065747,7831.9907,-123791.51,-41913.492,-36681.926,-66672.61,-38160.156,-79248.21,9375.651
881018.6336065725,7829.631,-123795.945,-41905.113,-36679.2,-66672.28,-38158.12,-79244.305,9381.145
881018.6376065704,7822.7134,-123797.04,-41892.008,-36677.246,-66664.875,-38156.535,-79239.305,9390.625
881018.6416065682,7818.563,-123800.5,-41891.36,-36678.914,-66665.41,-38156.168,-79238.445,9391.357
881018.6456065661,7812.134,-123811.89,-41907.39,-36684.45,-66679.32,-38159.02,-79241.05,9380.534
881018.649606564,7805.217,-123820.97,-41917.035,-36685.305,-66687.54,-38159.75,-79242.8,9376.547
881018.6536065618,7797.4043,-123827.07,-41916.87,-36684.082,-66679.61,-38158.61,-79243.125,9377.279
881018.6576065597,7792.684,-123821.86,-41910.035,-36682.863,-66676.11,-38157.188,-79238.33,9387.167
881018.6616065576,7782.5522,-123830.445,-41908.652,-36686.77,-66682.82,-38156.58,-79235.27,9392.538
881018.6656065554,7778.2393,-123840.74,-41916.465,-36692.465,-66688.48,-38158.33,-79238.57,9388.55
881018.6696065533,7776.7334,-123844.85,-41926.066,-36692.465,-66685.1,-38159.87,-79239.664,9384.848
881018.6736065511,7773.6816,-123847.17,-41925.62,-36689.656,-66682.414,-38161.176,-79235.4,9391.806
881018.677606549,7770.5894,-123847.58,-41914.43,-36685.547,-66678.47,-38158.53,-79231.04,9396.525
881018.6816065469,7768.799,-123851.69,-41908.53,-36685.184,-66678.836,-38156.902,-79227.055,9398.764
881018.6856065447,7765.2183,-123858.28,-41919.15,-36691.45,-66687.91,-38159.87,-79230.43,9390.91
881018.6896065426,7762.248,-123859.375,-41931.52,-36696.25,-66689.21,-38163.574,-79239.586,9372.03
881018.6936065404,7757.324,-123865.12,-41929.04,-36694.215,-66686.85,-38162.68,-79239.46,9374.919
881018.6976065383,7755.249,-123869.67,-41919.19,-36691.977,-66686.65,-38162.19,-79236.414,9385.295
881018.7016065362,7758.301,-123870.33,-41914.797,-36692.26,-66682.21,-38160.523,-79231.81,9391.724
881018.705606534,7757.0396,-123877.73,-41921.51,-36697.39,-66688.516,-38162.926,-79233.36,9387.777
881018.7096065319,7756.4697,-123878.34,-41924.6,-36698.082,-66694.625,-38164.594,-79233.36,9379.924
881018.7136065298,7754.8423,-123875.164,-41919.11,-36693.766,-66685.914,-38163.535,-79228.44,9383.667
881018.7176065276,7753.418,-123873.984,-41911.297,-36689.168,-66675.82,-38161.5,-79226.81,9395.183
881018.7216065255,7755.168,-123881.35,-41911.176,-36690.43,-66674.89,-38161.785,-79226.28,9402.344
881018.7256065233,7758.2603,-123884.93,-41917.97,-36694.582,-66687.95,-38163.21,-79227.336,9400.595
881018.7296065212,7759.8066,-123886.07,-41924.805,-36694.215,-66694.83,-38164.676,-79228.56,9394.125
881018.7336065191,7756.999,-123881.59,-41922.566,-36691.043,-66685.38,-38163.74,-79226.97,9395.793
881018.7376065169,7756.063,-123876.8,-41913.13,-36686.688,-66675.055,-38162.027,-79223.266,9406.494
881018.7416065148,7759.1147,-123877.24,-41906.414,-36687.258,-66672.85,-38162.395,-79221.16,9414.185
881018.7456065126,7758.708,-123883.23,-41914.88,-36693.277,-66683.23,-38165.527,-79223.06,9409.872
881018.7496065105,7756.185,-123894.125,-41926.84,-36698.04,-66694.09,-38168.375,-79226.24,9400.961
881018.7536065084,7753.703,-123897.55,-41921.184,-36694.133,-66687.91,-38166.14,-79225.95,9399.414
881018.7576065062,7755.0864,-123886.31,-41906.94,-36686.93,-66675.87,-38164.836,-79220.83,9409.465
881018.7616065041,7752.889,-123887.54,-41908.49,-36688.316,-66674.97,-38165.61,-79218.23,9415.935
881018.765606502,7751.709,-123896.33,-41923.79,-36696.414,-66687.09,-38171.145,-79225.47,9406.535
881018.7696064998,7752.0347,-123900.03,-41928.348,-36697.55,-66692.836,-38174.48,-79231.125,9392.456
881018.7736064978,7749.5933,-123896.57,-41923.992,-36694.297,-66687.46,-38173.504,-79228.27,9391.032
881018.7776064957,7746.053,-123890.55,-41915.49,-36693.074,-66684.05,-38171.145,-79222.945,9403.605
881018.7816064935,7747.1113,-123888.72,-41917.887,-36696.86,-66687.22,-38173.098,-79222.7,9405.273
881018.7856064914,7748.332,-123892.5,-41926.637,-36701.785,-66694.375,-38176.72,-79226.04,9401.083
881018.7896064892,7749.1865,-123890.305,-41931.723,-36701.5,-66695.805,-38177.043,-79227.83,9392.497
881018.7936064871,7750.4883,-123883.836,-41930.258,-36699.75,-66686.12,-38176.11,-79224.41,9395.02
881018.797606485,7748.535,-123880.17,-41918.17,-36696.414,-66679.94,-38174.887,-79220.18,9403.809
881018.8016064828,7750.3257,-123882.29,-41914.39,-36697.67,-66674.73,-38174.848,-79219.41,9408.529
881018.8056064807,7749.5933,-123890.22,-41929.566,-36702.8,-66683.96,-38178.508,-79221.68,9406.982
881018.8096064785,7747.3145,-123890.95,-41939.453,-36704.508,-66696.82,-38181.64,-79225.99,9395.183
881018.8136064764,7747.1113,-123889.2,-41934.367,-36702.883,-66694.336,-38182.58,-79231.53,9385.051
881018.8176064743,7742.5947,-123889.98,-41925.62,-36702.027,-66690.516,-38180.746,-79230.59,9390.219
881018.8216064721,7739.177,-123891.12,-41926.35,-36703.86,-66695.195,-38182.17,-79230.39,9388.388
881018.82560647,7739.2173,-123894.125,-41936.523,-36709.23,-66711.1,-38186.035,-79232.22,9387.167
881018.8296064679,7738.6885,-123896.57,-41941.938,-36711.957,-66715.984,-38190.066,-79235.76,9380.859
881018.8336064657,7733.114,-123895.51,-41937.746,-36706.91,-66713.625,-38189.13,-79234.7,9385.417
881018.8376064636,7731.3643,-123891.195,-41928.55,-36701.863,-66709.76,-38187.83,-79231.734,9391.317
881018.8416064614,7732.341,-123892.87,-41927.29,-36703.207,-66709.27,-38190.348,-79230.59,9397.136
881018.8456064593,7733.032,-123899.91,-41936.32,-36709.027,-66720.79,-38195.8,-79235.84,9387.329
881018.8496064572,7735.433,-123896.94,-41942.26,-36710.164,-66723.11,-38198.812,-79240.44,9376.506
881018.853606455,7736.125,-123888.63,-41938.926,-36705.28,-66711.47,-38198.61,-79238.445,9379.802
881018.8576064529,7734.7007,-123889.49,-41928.184,-36700.81,-66702.31,-38197.31,-79233.28,9389.689
881018.8616064508,7731.9336,-123893.92,-41925.293,-36702.434,-66706.016,-38198.69,-79233.484,9393.637
881018.8656064486,7730.9165,-123902.23,-41933.23,-36711.508,-66720.74,-38203.086,-79239.055,9383.22
881018.8696064465,7732.422,-123905.44,-41942.344,-36713.055,-66729.58,-38204.918,-79242.516,9373.495
881018.8736064443,7733.8057,-123899.055,-41940.145,-36708.09,-66721.16,-38202.72,-79243.25,9377.563
881018.8776064422,7734.2124,-123896.04,-41928.184,-36702.516,-66710.695,-38202.76,-79242.68,9383.22
881018.8816064401,7733.5615,-123900.555,-41929.812,-36703.9,-66712.32,-38205.445,-79242.19,9384.929
881018.8856064379,7731.8525,-123901.25,-41937.746,-36709.92,-66723.15,-38208.824,-79242.31,9383.22
881018.8896064358,7731.9746,-123899.5,-41941.0,-36710.246,-66726.81,-38211.14,-79243.86,9375.163
881018.8936064336,7729.6553,-123904.26,-41938.6,-36706.992,-66719.766,-38210.086,-79242.27,9376.262
881018.8976064315,7730.3877,-123904.3,-41932.13,-36703.777,-66713.09,-38206.95,-79238.484,9385.498
881018.9016064294,7730.713,-123908.33,-41931.316,-36708.133,-66718.305,-38206.34,-79237.39,9398.234
881018.9056064272,7723.9585,-123916.51,-41940.39,-36715.047,-66732.26,-38207.684,-79236.49,9397.746
881018.9096064251,7722.7783,-123910.16,-41950.24,-36715.457,-66734.7,-38208.824,-79235.27,9389.364
881018.913606423,7727.3765,-123895.67,-41945.027,-36711.832,-66727.664,-38209.598,-79233.97,9385.01
881018.9176064208,7734.782,-123886.4,-41931.887,-36704.996,-66712.164,-38211.02,-79230.8,9391.276
881018.9216064187,7739.0137,-123886.84,-41931.438,-36703.656,-66710.29,-38214.152,-79230.836,9396.973
881018.9256064165,7736.9795,-123893.195,-41942.383,-36711.996,-66728.195,-38217.246,-79234.42,9392.782
881018.9296064144,7735.2705,-123893.27,-41948.977,-36716.27,-66734.78,-38219.363,-79238.24,9375.732
881018.9336064123,7732.3,-123893.516,-41947.39,-36713.094,-66726.6,-38218.387,-79237.836,9374.919
881018.9376064102,7732.422,-123896.81,-41941.812,-36707.805,-66725.625,-38217.57,-79238.57,9382.731
881018.9416064081,7733.8057,-123900.19,-41940.797,-36709.473,-66733.6,-38220.094,-79238.94,9384.521
881018.945606406,7733.6836,-123903.65,-41946.492,-36714.48,-66740.16,-38222.82,-79240.89,9381.145
881018.9496064038,7734.009,-123903.24,-41950.562,-36712.77,-66739.664,-38221.76,-79237.96,9380.859
881018.9536064017,7735.4736,-123896.484,-41945.965,-36708.824,-66726.484,-38220.215,-79235.68,9376.343
881018.9576063995,7739.095,-123890.22,-41940.066,-36703.453,-66720.91,-38219.035,-79231.04,9387.248
881018.9616063974,7738.2407,-123889.04,-41939.82,-36703.453,-66722.58,-38219.973,-79229.086,9394.165
881018.9656063953,7738.485,-123895.555,-41951.336,-36709.758,-66730.35,-38223.27,-79230.72,9397.827
881018.9696063931,7738.8105,-123895.836,-41958.824,-36713.016,-66736.734,-38224.04,-79228.88,9404.785
881018.973606391,7736.9795,-123891.32,-41951.215,-36712.402,-66725.914,-38223.55,-79229.375,9393.474
881018.9776063889,7735.067,-123890.22,-41941.855,-36709.066,-66720.664,-38223.51,-79227.016,9392.375
881018.9816063867,7737.2236,-123893.84,-41939.94,-36709.676,-66727.99,-38222.535,-79224.98,9396.892
881018.9856063846,7733.3984,-123904.26,-41951.336,-36715.945,-66747.234,-38227.01,-79229.945,9393.026
881018.9896063824,7733.724,-123908.45,-41956.746,-36714.723,-66747.6,-38230.594,-79234.984,9381.022
881018.9936063803,7734.9043,-123905.73,-41951.58,-36711.344,-66737.1,-38232.547,-79235.84,9376.628
881018.9976063782,7737.549,-123900.6,-41941.043,-36708.863,-66730.72,-38231.12,-79233.52,9387.329
881019.001606376,7741.211,-123895.15,-41938.76,-36710.246,-66729.82,-38232.3,-79233.08,9390.747
881019.0056063739,7738.7695,-123898.97,-41950.887,-36713.867,-66733.234,-38236.94,-79237.63,9381.022
881019.0096063718,7740.2754,-123904.51,-41960.41,-36712.445,-66734.91,-38239.46,-79237.02,9379.843
881019.0136063696,7739.8276,-123902.555,-41955.65,-36710.164,-66726.12,-38238.406,-79233.73,9380.005
881019.0176063675,7740.8447,-123895.875,-41948.16,-36707.645,-66721.93,-38236.33,-79228.88,9388.55
881019.0216063653,7742.676,-123897.22,-41948.527,-36711.02,-66732.42,-38237.875,-79226.85,9397.055
881019.0256063632,7740.438,-123904.3,-41954.715,-36717.45,-66749.31,-38241.008,-79227.87,9398.315
881019.0296063611,7738.8105,-123904.914,-41963.137,-36718.63,-66754.16,-38241.21,-79230.02,9389.567
881019.0336063589,7740.0312,-123901.9,-41963.582,-36713.504,-66743.77,-38240.152,-79226.61,9391.643
881019.0376063568,7740.8447,-123899.83,-41955.04,-36709.637,-66732.016,-38241.824,-79227.26,9392.619
881019.0416063546,7741.089,-123905.36,-41951.863,-36710.246,-66743.086,-38244.02,-79226.56,9399.536
881019.0456063525,7741.211,-123912.11,-41957.438,-36715.414,-66757.37,-38245.484,-79226.52,9401.53
881019.0496063504,7739.543,-123913.945,-41968.465,-36717.57,-66762.25,-38247.684,-79229.74,9390.137
881019.0536063482,7738.5664,-123911.42,-41965.375,-36715.375,-66754.64,-38247.887,-79231.41,9387.167
881019.0576063461,7735.759,-123908.45,-41958.293,-36711.754,-66745.32,-38247.113,-79230.43,9390.463
881019.061606344,7737.142,-123908.734,-41957.48,-36713.297,-66749.35,-38248.375,-79230.305,9395.264
881019.0656063418,7736.369,-123915.086,-41961.305,-36717.69,-66758.305,-38250.49,-79232.625,9390.097
881019.0696063397,7735.5957,-123914.31,-41970.055,-36719.85,-66762.78,-38252.36,-79233.69,9383.423
881019.0736063375,7736.369,-123907.23,-41969.77,-36717.57,-66753.336,-38251.305,-79232.83,9381.226
881019.0776063354,7734.945,-123903.164,-41959.92,-36716.473,-66742.48,-38251.793,-79230.266,9382.895
881019.0816063333,7734.375,-123900.31,-41956.543,-36717.45,-66749.836,-38252.035,-79230.516,9384.726
881019.0856063311,7735.9214,-123899.83,-41963.34,-36721.965,-66761.88,-38256.31,-79234.54,9380.981
881019.089606329,7735.067,-123898.03,-41970.5,-36722.453,-66764.484,-38258.75,-79236.086,9380.656
881019.0936063268,7735.6367,-123896.445,-41968.547,-36718.02,-66756.96,-38260.582,-79236.82,9378.54
881019.0976063247,7737.386,-123893.805,-41957.887,-36713.543,-66751.06,-38261.355,-79234.3,9386.557
881019.1016063227,7736.45,-123896.33,-41957.03,-36717.082,-66756.11,-38263.31,-79231.85,9393.107
881019.1056063205,7736.125,-123902.06,-41970.055,-36724.12,-66769.62,-38266.24,-79236.21,9386.963
881019.1096063184,7736.9385,-123903.41,-41976.32,-36724.61,-66772.914,-38268.92,-79235.6,9379.721
881019.1136063163,7729.248,-123905.64,-41971.152,-36723.105,-66768.03,-38267.133,-79232.38,9382.121
881019.1176063141,7724.8535,-123907.84,-41967.125,-36722.086,-66764.61,-38265.625,-79228.766,9390.259
881019.121606312,7728.475,-123902.14,-41966.39,-36721.723,-66766.28,-38266.36,-79228.195,9390.381
881019.1256063099,7737.671,-123891.766,-41968.344,-36722.168,-66774.54,-38269.777,-79230.92,9384.318
881019.1296063077,7738.7695,-123892.375,-41975.87,-36721.76,-66773.56,-38274.58,-79233.6,9377.686
881019.1336063056,7740.1533,-123890.22,-41974.69,-36718.387,-66766.64,-38274.414,-79230.1,9385.214
881019.1376063034,7741.455,-123886.805,-41965.375,-36714.76,-66755.25,-38272.34,-79225.14,9392.944
881019.1416063013,7737.7524,-123890.42,-41964.926,-36719.08,-66758.586,-38269.086,-79217.61,9403.728
881019.1456062992,7736.654,-123893.195,-41975.586,-36724.812,-66764.85,-38271.65,-79216.48,9401.489
881019.149606297,7735.1074,-123900.72,-41984.703,-36727.336,-66769.9,-38275.31,-79220.26,9394.369
881019.1536062949,7735.881,-123898.6,-41977.38,-36723.31,-66762.33,-38276.53,-79221.36,9394.003
881019.1576062927,7733.3174,-123895.8,-41968.18,-36721.07,-66760.91,-38276.652,-79220.46,9403.646
881019.1616062906,7731.771,-123895.76,-41970.38,-36720.99,-66758.83,-38280.887,-79224.445,9401.449
881019.1656062885,7733.1543,-123899.01,-41980.47,-36726.156,-66765.914,-38285.402,-79230.23,9385.498
881019.1696062863,7735.84,-123900.15,-41983.195,-36726.727,-66773.07,-38287.312,-79232.055,9380.209
881019.1736062842,7736.369,-123896.24,-41981.16,-36722.453,-66769.45,-38285.77,-79228.195,9385.702
881019.177606282,7735.6367,-123897.79,-41973.594,-36721.395,-66762.66,-38282.51,-79223.11,9395.264
881019.1816062799,7734.741,-123901.695,-41972.414,-36724.938,-66765.914,-38284.06,-79220.055,9400.229
881019.1856062778,7735.718,-123906.7,-41982.992,-36730.105,-66774.375,-38286.582,-79219.32,9398.356
881019.1896062756,7732.3813,-123909.67,-41991.54,-36730.754,-66774.336,-38288.13,-79221.56,9388.754
881019.1936062735,7727.824,-123908.57,-41987.184,-36726.402,-66767.83,-38288.168,-79218.18,9396.362
881019.1976062714,7729.94,-123905.44,-41975.465,-36720.01,-66757.04,-38285.28,-79216.43,9398.356
881019.2016062692,7734.3345,-123906.13,-41972.617,-36720.62,-66752.08,-38284.668,-79218.8,9387.289
881019.2056062671,7736.084,-123909.43,-41981.73,-36726.645,-66769.62,-38286.38,-79219.69,9387.37
881019.209606265,7735.962,-123913.945,-41990.723,-36726.402,-66773.93,-38287.8,-79223.88,9382.487
881019.2136062628,7736.125,-123908.77,-41990.152,-36725.344,-66772.46,-38286.582,-79225.47,9384.196
881019.2176062607,7735.2295,-123903.98,-41982.34,-36723.473,-66762.33,-38283.977,-79223.47,9392.416
881019.2216062585,7738.8105,-123912.234,-41985.555,-36728.64,-66762.29,-38283.45,-79224.125,9401.205
881019.2256062564,7739.0547,-123922.77,-41994.71,-36734.78,-66769.125,-38284.996,-79227.09,9393.107
881019.2296062543,7739.624,-123917.73,-41999.637,-36734.99,-66765.46,-38283.855,-79229.25,9381.552
881019.2336062521,7742.269,-123910.85,-41993.734,-36731.934,-66743.45,-38281.496,-79230.43,9378.581
881019.23760625,7741.699,-123913.25,-41987.02,-36730.023,-66731.2,-38276.855,-79225.71,9387.045
881019.2416062478,7740.6416,-123917.2,-41985.27,-36731.934,-66731.24,-38272.586,-79221.805,9393.84
881019.2456062457,7744.0186,-123918.3,-41995.2,-36738.16,-66732.875,-38269.613,-79222.984,9392.334
881019.2496062436,7744.548,-123920.945,-42001.383,-36743.004,-66730.8,-38266.277,-79226.93,9383.83
881019.2536062414,7745.7686,-123920.9,-41997.273,-36741.984,-66724.0,-38262.004,-79228.15,9381.226
881019.2576062393,7745.6055,-123919.07,-41991.617,-36741.17,-66720.95,-38257.69,-79227.87,9384.359
881019.2616062372,7747.4365,-123916.67,-41993.855,-36742.72,-66714.93,-38255.535,-79230.8,9381.836
881019.2656062351,7752.4824,-123913.945,-42001.223,-36747.805,-66722.45,-38255.453,-79236.49,9371.501
881019.269606233,7751.058,-123914.59,-42005.086,-36747.887,-66726.97,-38252.848,-79238.164,9369.467
881019.2736062309,7749.1455,-123909.75,-42001.71,-36744.957,-66718.02,-38248.7,-79234.055,9370.524
881019.2776062287,7751.7905,-123902.47,-41992.434,-36739.664,-66706.914,-38244.344,-79229.984,9378.988
881019.2816062266,7752.7266,-123900.11,-41989.176,-36741.17,-66711.63,-38243.29,-79231.81,9383.993
881019.2856062244,7748.454,-123905.234,-42003.824,-36747.684,-66725.914,-38244.71,-79237.1,9374.023
881019.2896062223,7746.0938,-123918.625,-42017.496,-36750.164,-66734.78,-38245.73,-79242.11,9362.549
881019.2936062202,7747.64,-123923.586,-42010.945,-36747.56,-66729.17,-38242.27,-79239.09,9369.426
881019.297606218,7747.8438,-123921.875,-41999.066,-36743.082,-66720.83,-38240.316,-79236.21,9375.977
881019.3016062159,7750.0815,-123920.58,-41997.4,-36742.188,-66724.0,-38238.28,-79234.13,9383.871
881019.3056062137,7750.3257,-123923.71,-42006.918,-36746.5,-66726.24,-38239.176,-79238.28,9371.46
881019.3096062116,7747.925,-123929.08,-42020.145,-36749.43,-66730.266,-38239.176,-79239.79,9368.286
881019.3136062095,7741.74,-123930.14,-42020.348,-36747.684,-66727.99,-38235.15,-79239.34,9366.903
881019.3176062073,7735.718,-123925.87,-42010.66,-36743.164,-66720.18,-38233.277,-79237.63,9372.559
881019.3216062052,7744.914,-123919.03,-42005.29,-36742.23,-66714.84,-38235.434,-79238.12,9371.948
881019.325606203,7749.349,-123921.875,-42018.8,-36749.023,-66725.22,-38239.543,-79241.984,9365.356
881019.3296062009,7746.0938,-123925.945,-42024.984,-36750.164,-66731.81,-38239.87,-79244.875,9354.004
881019.3336061988,7748.861,-123919.72,-42015.42,-36747.152,-66724.33,-38238.61,-79244.305,9350.302
881019.3376061966,7745.809,-123920.45,-42011.19,-36745.73,-66716.59,-38237.918,-79241.01,9358.317
881019.3416061945,7741.211,-123922.85,-42016.766,-36750.406,-66723.47,-38239.83,-79239.55,9364.787
881019.3456061924,7743.1235,-123923.55,-42024.13,-36753.258,-66727.664,-38241.05,-79240.484,9362.183
881019.3496061902,7743.164,-123927.05,-42030.316,-36753.336,-66720.13,-38241.457,-79240.28,9358.969
881019.3536061881,7744.751,-123926.195,-42021.402,-36748.25,-66713.55,-38238.973,-79236.62,9365.275
881019.357606186,7743.7744,-123925.7,-42010.457,-36745.08,-66709.02,-38237.02,-79235.19,9365.845
881019.3616061838,7743.6523,-123932.3,-42010.945,-36748.25,-66706.38,-38237.67,-79237.836,9362.997
881019.3656061817,7751.872,-123937.22,-42017.66,-36753.418,-66718.1,-38239.87,-79242.19,9356.527
881019.3696061795,7751.2207,-123936.85,-42026.004,-36754.438,-66723.59,-38242.066,-79247.56,9345.744
881019.3736061774,7746.216,-123935.47,-42026.207,-36751.547,-66717.77,-38241.17,-79248.17,9351.645
881019.3776061753,7750.692,-123929.65,-42013.31,-36746.582,-66710.9,-38239.504,-79243.53,9365.194
881019.3816061731,7755.9814,-123926.31,-42010.38,-36747.844,-66711.71,-38239.543,-79241.09,9367.351
881019.385606171,7753.8657,-123928.305,-42020.59,-36751.26,-66725.836,-38239.625,-79238.98,9365.072
881019.3896061688,7757.08,-123928.71,-42026.98,-36751.383,-66720.13,-38239.383,-79238.53,9364.34
881019.3936061667,7756.7954,-123929.08,-42026.45,-36750.816,-66712.2,-38237.55,-79236.01,9366.455
881019.3976061646,7754.2725,-123930.79,-42022.34,-36749.88,-66709.48,-38236.656,-79236.01,9372.192
881019.4016061624,7751.0986,-123936.2,-42023.234,-36753.785,-66718.305,-38239.34,-79238.12,9372.478
881019.4056061603,7750.6104,-123937.87,-42029.703,-36756.594,-66730.43,-38241.336,-79242.27,9365.52
881019.4096061582,7750.9766,-123936.94,-42034.71,-36755.74,-66729.375,-38241.21,-79245.0,9363.444
881019.413606156,7750.407,-123938.07,-42031.453,-36753.215,-66721.195,-38241.58,-79245.73,9359.497
881019.4176061539,7748.576,-123942.43,-42024.54,-36749.918,-66712.57,-38241.13,-79243.98,9363.7295
881019.4216061517,7751.628,-123938.97,-42024.254,-36751.14,-66710.62,-38240.926,-79242.84,9370.646
881019.4256061496,7753.011,-123941.9,-42033.855,-36756.348,-66718.75,-38241.54,-79244.14,9367.229
881019.4296061476,7755.005,-123946.21,-42036.418,-36756.754,-66720.664,-38241.414,-79246.83,9357.666
881019.4336061454,7756.714,-123940.39,-42030.926,-36755.21,-66715.13,-38240.48,-79243.125,9364.462
881019.4376061433,7757.08,-123934.05,-42024.375,-36750.938,-66706.664,-38237.957,-79237.02,9379.272
881019.4416061412,7757.772,-123932.74,-42024.945,-36753.215,-66709.44,-38238.484,-79237.836,9383.139
881019.445606139,7758.7485,-123938.27,-42035.2,-36757.12,-66721.56,-38241.05,-79242.39,9371.501
881019.4496061369,7758.2197,-123940.27,-42038.21,-36756.96,-66727.5,-38242.96,-79246.87,9361.044
881019.4536061347,7757.406,-123940.39,-42038.332,-36756.633,-66726.195,-38243.98,-79248.414,9353.923
881019.4576061326,7755.819,-123937.42,-42028.484,-36753.055,-66720.13,-38243.57,-79244.75,9359.619
881019.4616061305,7758.83,-123928.266,-42025.27,-36755.574,-66723.59,-38245.32,-79244.305,9368.612
881019.4656061283,7759.074,-123926.68,-42037.234,-36761.637,-66738.69,-38246.543,-79242.44,9369.06
881019.4696061262,7757.8535,-123928.8,-42041.14,-36761.07,-66740.97,-38246.22,-79242.39,9364.462
881019.473606124,7756.3477,-123924.36,-42035.44,-36758.22,-66731.37,-38245.32,-79243.9,9366.781
881019.4776061219,7756.7954,-123919.03,-42026.938,-36754.64,-66724.24,-38244.508,-79239.914,9374.309
881019.4816061198,7755.046,-123920.086,-42030.52,-36756.51,-66726.4,-38246.38,-79240.89,9371.176
881019.4856061176,7754.3945,-123927.66,-42044.11,-36762.125,-66735.07,-38249.676,-79245.28,9367.514
881019.4896061155,7755.4526,-123934.695,-42048.91,-36765.055,-66739.14,-38251.26,-79248.62,9361.816
881019.4936061134,7755.2085,-123935.71,-42043.418,-36761.844,-66733.08,-38250.938,-79249.92,9363.974
881019.4976061112,7755.005,-123933.59,-42032.88,-36755.496,-66726.81,-38248.863,-79251.18,9361.328
881019.5016061091,7755.249,-123937.83,-42027.793,-36757.773,-66727.3,-38251.508,-79250.57,9360.312
881019.505606107,7751.0986,-123944.55,-42036.297,-36764.285,-66739.3,-38254.68,-79254.48,9355.957
881019.5096061048,7747.3555,-123946.78,-42048.746,-36766.277,-66740.27,-38256.062,-79258.625,9346.3545
881019.5136061027,7744.914,-123941.57,-42044.273,-36760.254,-66727.54,-38252.848,-79256.555,9346.965
881019.5176061005,7743.8965,-123937.14,-42032.39,-36757.04,-66723.47,-38250.773,-79251.47,9359.253
881019.5216060984,7742.8794,-123939.5,-42035.81,-36761.355,-66730.43,-38252.523,-79250.77,9359.294
881019.5256060963,7741.4146,-123948.66,-42051.15,-36768.758,-66747.48,-38255.656,-79255.62,9350.912
881019.5296060941,7739.99,-123951.38,-42055.543,-36769.45,-66750.94,-38256.39,-79257.734,9346.843
881019.533606092,7736.4097,-123946.17,-42049.03,-36766.074,-66741.05,-38254.76,-79253.5,9352.783
881019.5376060898,7737.956,-123936.94,-42040.082,-36762.332,-66733.12,-38253.906,-79251.67,9359.416
881019.5416060877,7737.1826,-123942.34,-42041.098,-36764.16,-66736.49,-38253.418,-79250.61,9362.915
881019.5456060856,7731.242,-123958.42,-42053.47,-36771.934,-66748.86,-38257.49,-79252.85,9357.26
881019.5496060834,7732.463,-123959.64,-42056.926,-36772.137,-66747.4,-38257.773,-79251.586,9358.603
881019.5536060813,7744.4663,-123946.82,-42050.336,-36767.215,-66734.664,-38258.832,-79250.45,9359.945
881019.5576060791,7744.873,-123946.91,-42045.535,-36761.598,-66728.44,-38257.69,-79249.31,9361.735
881019.561606077,7742.025,-123947.31,-42044.72,-36763.715,-66728.03,-38258.953,-79251.06,9364.055
881019.5656060749,7743.2456,-123948.86,-42052.98,-36769.86,-66739.99,-38262.656,-79255.58,9359.416
881019.5696060727,7739.746,-123951.79,-42059.57,-36772.586,-66744.67,-38264.242,-79259.16,9353.109
881019.5736060706,7736.9795,-123949.22,-42060.223,-36768.68,-66740.6,-38262.574,-79258.1,9352.336
881019.5776060685,7740.56,-123944.09,-42054.28,-36763.754,-66731.37,-38262.168,-79256.836,9357.178
881019.5816060663,7740.682,-123942.1,-42052.492,-36763.55,-66729.414,-38261.965,-79257.98,9357.056
881019.5856060642,7739.543,-123954.1,-42058.84,-36770.184,-66741.46,-38263.43,-79258.42,9355.998
881019.589606062,7744.222,-123959.11,-42064.25,-36769.777,-66750.25,-38263.797,-79255.21,9358.032
881019.59360606,7746.948,-123954.516,-42057.17,-36764.977,-66748.13,-38262.332,-79251.02,9358.439
881019.5976060579,7743.083,-123953.125,-42047.73,-36763.062,-66739.55,-38262.168,-79247.805,9367.147
881019.6016060557,7742.2285,-123953.336,-42050.62,-36766.684,-66738.57,-38261.68,-79246.26,9374.228
881019.6056060536,7744.344,-123956.95,-42061.523,-36771.934,-66748.086,-38264.04,-79250.33,9371.094
881019.6096060515,7744.792,-123956.95,-42064.74,-36772.83,-66750.49,-38266.97,-79252.69,9368.042
881019.6136060493,7744.873,-123952.56,-42060.59,-36770.793,-66745.28,-38268.066,-79253.7,9364.99
881019.6176060472,7744.222,-123945.36,-42056.195,-36766.805,-66732.26,-38267.984,-79255.086,9361.816
881019.621606045,7741.333,-123947.59,-42057.496,-36768.637,-66733.08,-38268.758,-79256.59,9364.299
881019.6256060429,7741.13,-123954.31,-42064.58,-36773.48,-66744.63,-38270.305,-79258.18,9361.206
881019.6296060408,7742.147,-123951.664,-42070.8,-36773.03,-66751.38,-38273.48,-79260.336,9352.336
881019.6336060386,7739.095,-123954.19,-42067.63,-36770.305,-66751.18,-38274.457,-79258.016,9350.546
881019.6376060365,7735.84,-123957.805,-42058.023,-36768.758,-66740.766,-38273.97,-79255.45,9354.289
881019.6416060344,7738.851,-123963.99,-42059.977,-36771.324,-66744.55,-38275.35,-79255.74,9364.177
881019.6456060322,7743.042,-123967.695,-42067.02,-36776.043,-66757.0,-38278.605,-79259.08,9361.532
881019.6496060301,7742.92,-123965.82,-42070.76,-36774.58,-66759.4,-38280.6,-79258.99,9362.956
881019.653606028,7740.8447,-123960.86,-42066.324,-36770.508,-66751.51,-38280.844,-79260.336,9357.056
881019.6576060258,7740.0312,-123958.83,-42059.41,-36768.555,-66744.71,-38280.68,-79261.44,9358.847
881019.6616060237,7741.0483,-123961.63,-42059.938,-36771.28,-66750.41,-38281.414,-79262.17,9364.665
881019.6656060215,7738.2407,-123969.61,-42070.11,-36779.42,-66761.76,-38283.53,-79264.81,9357.666
881019.6696060194,7737.915,-123969.57,-42075.035,-36780.64,-66766.766,-38285.28,-79265.22,9353.801
881019.6736060173,7738.2812,-123964.93,-42069.38,-36776.125,-66764.0,-38283.33,-79263.76,9351.156
881019.6776060151,7737.3457,-123966.555,-42062.785,-36774.496,-66759.484,-38282.51,-79261.35,9352.133
881019.681606013,7733.1953,-123967.164,-42064.453,-36778.24,-66763.96,-38284.71,-79260.09,9363.811
881019.6856060108,7733.4395,-123970.016,-42073.16,-36781.7,-66775.76,-38286.785,-79263.96,9356.853
881019.6896060087,7732.666,-123969.81,-42074.42,-36779.5,-66775.64,-38287.598,-79264.484,9346.313
881019.6936060066,7731.527,-123969.164,-42071.207,-36776.98,-66768.84,-38287.64,-79262.78,9346.191
881019.6976060044,7731.4863,-123963.75,-42066.734,-36775.555,-66763.76,-38285.973,-79262.125,9353.068
881019.7016060023,7733.2764,-123964.12,-42067.668,-36778.24,-66773.84,-38286.094,-79263.39,9357.504
881019.7056060001,7732.5034,-123966.39,-42076.17,-36784.223,-66782.516,-38288.332,-79266.03,9351.5625
881019.709605998,7734.131,-123962.65,-42078.086,-36782.594,-66781.375,-38290.367,-79266.93,9350.139
881019.7136059959,7733.5205,-123957.766,-42074.26,-36780.316,-66767.54,-38289.836,-79264.61,9354.614
881019.7176059937,7731.9336,-123954.96,-42067.098,-36777.387,-66760.016,-38288.74,-79260.74,9361.9795
881019.7216059916,7732.015,-123953.9,-42068.523,-36780.234,-66774.375,-38289.023,-79258.79,9369.548
881019.7256059895,7730.754,-123963.055,-42079.918,-36787.395,-66790.164,-38291.504,-79259.89,9371.094
881019.7296059873,7730.835,-123965.664,-42085.33,-36788.98,-66792.805,-38293.457,-79264.484,9351.767
881019.7336059852,7729.6143,-123965.984,-42077.434,-36788.82,-66783.0,-38293.418,-79268.31,9351.645
881019.737605983,7731.2827,-123960.695,-42067.426,-36784.02,-66769.25,-38292.93,-79267.13,9357.219
881019.7416059809,7730.0215,-123962.85,-42071.902,-36786.785,-66771.52,-38294.965,-79269.49,9359.66
881019.7456059788,7728.3125,-123968.43,-42081.34,-36792.562,-66781.86,-38300.09,-79272.83,9354.614
881019.7496059766,7727.173,-123963.42,-42081.625,-36791.832,-66783.94,-38302.043,-79274.87,9350.424
881019.7536059745,7726.3594,-123955.164,-42075.848,-36788.37,-66780.6,-38301.27,-79273.27,9348.308
881019.7576059724,7728.5156,-123953.05,-42068.727,-36784.914,-66775.11,-38298.22,-79266.12,9364.99
881019.7616059703,7728.6787,-123955.41,-42070.883,-36787.76,-66777.06,-38298.79,-79263.96,9366.211
881019.7656059682,7726.8066,-123961.836,-42085.246,-36795.492,-66789.02,-38303.754,-79272.51,9345.256
881019.769605966,7725.342,-123958.3,-42090.902,-36794.84,-66787.11,-38305.46,-79275.07,9341.675
881019.7736059639,7726.6035,-123957.4,-42084.516,-36788.94,-66781.66,-38305.91,-79273.97,9345.622
881019.7776059618,7723.877,-123957.65,-42079.793,-36785.523,-66774.87,-38305.42,-79269.86,9358.806
881019.7816059596,7720.215,-123960.62,-42081.18,-36786.297,-66776.86,-38307.863,-79270.39,9360.312
881019.7856059575,7722.6157,-123964.28,-42087.445,-36791.3,-66785.445,-38311.2,-79272.914,9356.853
881019.7896059554,7722.7783,-123968.8,-42093.344,-36793.582,-66785.81,-38312.46,-79271.81,9355.713
881019.7936059532,7720.5,-123965.91,-42091.066,-36789.39,-66783.086,-38307.414,-79266.52,9360.312
881019.7976059511,7720.459,-123960.58,-42083.17,-36787.64,-66779.3,-38307.945,-79264.484,9361.166
881019.801605949,7724.121,-123960.82,-42079.957,-36788.168,-66785.73,-38310.344,-79263.76,9362.631
881019.8056059468,7723.348,-123962.65,-42088.258,-36792.766,-66799.89,-38314.09,-79267.01,9357.463
881019.8096059447,7724.8535,-123959.31,-42094.2,-36795.492,-66800.21,-38315.676,-79266.805,9359.375
881019.8136059425,7729.0854,-123955.164,-42088.504,-36792.562,-66796.63,-38315.188,-79267.26,9360.556
881019.8176059404,7725.993,-123950.81,-42078.9,-36789.594,-66791.95,-38313.64,-79264.08,9359.579
881019.8216059383,7724.162,-123953.58,-42084.516,-36792.156,-66792.65,-38314.7,-79260.7,9367.31
881019.8256059361,7722.738,-123956.586,-42096.07,-36799.156,-66801.11,-38317.3,-79263.305,9367.106
881019.829605934,7721.4355,-123951.99,-42092.043,-36796.55,-66802.53,-38317.508,-79263.266,9363.159
881019.8336059318,7720.215,-123947.31,-42085.53,-36793.5,-66794.6,-38317.02,-79264.484,9360.718
881019.8376059297,7722.1274,-123941.29,-42079.836,-36790.203,-66788.01,-38318.24,-79265.79,9357.26
881019.8416059276,7722.6973,-123942.14,-42084.516,-36792.277,-66792.6,-38320.844,-79267.13,9358.073
881019.8456059254,7720.0522,-123956.14,-42098.43,-36799.723,-66814.086,-38322.88,-79270.23,9355.185
881019.8496059233,7719.2383,-123963.305,-42101.2,-36800.984,-66819.055,-38322.227,-79267.78,9359.131
881019.8536059211,7713.9893,-123959.234,-42097.25,-36798.746,-66810.266,-38321.13,-79269.37,9355.51
881019.857605919,7713.094,-123956.18,-42088.46,-36796.145,-66799.52,-38320.19,-79265.305,9368.042
881019.8616059169,7716.5938,-123951.46,-42088.867,-36795.94,-66802.734,-38321.168,-79264.28,9372.925
881019.8656059147,7716.7563,-123948.94,-42100.992,-36800.824,-66810.67,-38322.918,-79264.77,9367.025
881019.8696059126,7714.8438,-123950.81,-42106.57,-36804.65,-66814.58,-38325.523,-79265.71,9362.265
881019.8736059105,7717.407,-123953.49,-42104.37,-36802.938,-66813.64,-38326.66,-79269.37,9359.294
881019.8776059083,7719.8896,-123952.516,-42096.438,-36798.383,-66804.28,-38326.297,-79268.15,9363.852
881019.8816059062,7720.581,-123953.66,-42098.918,-36798.543,-66802.414,-38328.613,-79265.95,9367.798
881019.885605904,7719.2383,-123960.21,-42109.293,-36805.707,-66812.26,-38332.234,-79266.65,9365.072
881019.8896059019,7717.5703,-123959.195,-42111.29,-36806.56,-66812.625,-38333.09,-79268.68,9360.678
881019.8936058998,7718.5874,-123955.98,-42105.715,-36802.41,-66808.72,-38332.03,-79270.1,9358.398
881019.8976058976,7719.1978,-123958.42,-42097.293,-36799.195,-66803.96,-38331.504,-79268.96,9362.0205
881019.9016058955,7719.93,-123959.72,-42098.918,-36801.027,-66814.13,-38332.97,-79269.086,9365.397
881019.9056058933,7721.802,-123962.41,-42110.84,-36806.113,-66829.59,-38337.89,-79275.35,9357.585
881019.9096058912,7719.5234,-123963.26,-42114.137,-36804.04,-66824.99,-38340.008,-79275.92,9357.463
881019.9136058891,7719.7676,-123957.56,-42106.445,-36799.848,-66807.3,-38336.63,-79272.99,9360.393
881019.9176058869,7723.3887,-123954.8,-42094.566,-36796.47,-66801.35,-38336.63,-79270.47,9361.125
881019.9216058848,7723.633,-123960.375,-42095.38,-36798.953,-66808.72,-38337.445,-79269.164,9362.875
881019.9256058828,7721.1104,-123968.875,-42110.066,-36806.887,-66820.35,-38340.82,-79272.22,9360.474
881019.9296058806,7718.628,-123975.38,-42117.88,-36806.97,-66820.805,-38344.402,-79275.44,9359.741
881019.9336058785,7717.7734,-123977.016,-42115.152,-36804.04,-66815.43,-38342.367,-79273.484,9357.422
881019.9376058764,7717.977,-123971.4,-42107.83,-36801.92,-66807.3,-38341.15,-79274.82,9356.934
881019.9416058742,7716.797,-123967.45,-42109.62,-36801.516,-66810.47,-38340.535,-79274.87,9362.224
881019.9456058721,7719.0757,-123966.88,-42117.188,-36805.137,-66821.45,-38343.668,-79276.414,9351.156
881019.94960587,7719.0757,-123967.33,-42122.152,-36806.805,-66824.47,-38344.44,-79275.19,9350.261
881019.9536058678,7720.378,-123963.71,-42116.78,-36804.28,-66819.99,-38343.547,-79273.16,9351.359
881019.9576058657,7723.47,-123962.125,-42111.41,-36801.96,-66820.35,-38342.9,-79272.95,9356.608
881019.9616058635,7725.383,-123965.414,-42111.9,-36803.426,-66822.72,-38343.793,-79272.016,9364.624
881019.9656058614,7725.952,-123966.03,-42116.78,-36807.17,-66829.39,-38347.25,-79274.25,9354.411
881019.9696058593,7725.2607,-123963.016,-42117.8,-36806.887,-66829.23,-38346.926,-79273.56,9350.505
881019.9736058571,7722.738,-123959.84,-42115.97,-36804.973,-66823.49,-38344.85,-79268.516,9354.452
881019.977605855,7718.099,-123961.305,-42113.61,-36802.734,-66814.91,-38342.082,-79264.61,9360.515
881019.9816058528,7716.4717,-123963.1,-42115.4,-36805.625,-66818.12,-38344.688,-79265.67,9361.003
881019.9856058507,7715.373,-123963.42,-42128.297,-36811.973,-66826.336,-38349.082,-79268.64,9361.776
881019.9896058486,7714.966,-123964.28,-42133.63,-36812.746,-66831.79,-38349.652,-79272.51,9355.835
881019.9936058464,7714.6406,-123967.05,-42132.57,-36809.41,-66823.53,-38348.88,-79272.664,9356.364
881019.9976058443,7716.2275,-123962.24,-42121.707,-36805.016,-66811.16,-38348.348,-79270.51,9362.875
881020.0016058421,7719.442,-123961.39,-42119.184,-36808.31,-66803.55,-38348.797,-79269.66,9366.415
881020.00560584,7719.0757,-123966.234,-42127.89,-36813.438,-66812.016,-38350.547,-79268.92,9365.886
881020.0096058379,7719.686,-123967.21,-42131.918,-36813.52,-66821.984,-38352.133,-79268.27,9362.0205
881020.0136058357,7719.2383,-123958.01,-42132.324,-36810.793,-66820.68,-38351.48,-79267.54,9362.305
881020.0176058336,7717.8145,-123950.445,-42126.953,-36809.938,-66817.55,-38351.48,-79266.32,9368.9375
881020.0216058315,7717.407,-123952.195,-42126.305,-36812.83,-66822.39,-38353.598,-79267.664,9365.52
881020.0256058293,7716.3496,-123955.85,-42133.426,-36816.977,-66828.49,-38356.406,-79269.984,9362.753
881020.0296058272,7717.2446,-123954.8,-42138.145,-36816.53,-66825.12,-38354.86,-79271.41,9360.637
881020.033605825,7721.029,-123951.586,-42132.61,-36812.664,-66816.445,-38351.93,-79274.17,9350.749
881020.0376058229,7721.5986,-123952.97,-42124.676,-36810.875,-66804.65,-38349.367,-79274.25,9351.44
881020.0416058208,7717.6514,-123957.805,-42127.32,-36815.227,-66803.34,-38347.332,-79272.625,9355.835
881020.0456058186,7719.442,-123966.03,-42135.867,-36823.61,-66808.43,-38348.758,-79276.086,9352.255
881020.0496058165,7721.639,-123966.234,-42138.227,-36825.848,-66804.37,-38345.62,-79279.13,9351.807
881020.0536058143,7724.0806,-123959.72,-42135.457,-36823.69,-66789.43,-38341.15,-79280.805,9347.372
881020.0576058122,7722.9414,-123961.875,-42133.79,-36822.145,-66782.23,-38338.258,-79279.055,9355.713
881020.0616058101,7722.534,-123970.79,-42136.11,-36827.76,-66772.34,-38336.793,-79281.54,9354.899
881020.0656058079,7722.575,-123978.03,-42146.28,-36834.676,-66769.66,-38334.27,-79281.25,9350.505
881020.0696058058,7722.534,-123976.28,-42154.215,-36835.492,-66770.23,-38331.055,-79280.64,9352.905
881020.0736058037,7722.86,-123970.664,-42152.875,-36832.234,-66768.59,-38327.598,-79282.836,9344.32
881020.0776058015,7722.738,-123968.266,-42147.83,-36829.996,-66768.76,-38323.0,-79283.81,9342.245
881020.0816057994,7725.179,-123970.34,-42148.113,-36833.375,-66774.09,-38320.516,-79285.04,9346.313
881020.0856057972,7726.156,-123972.7,-42157.105,-36837.81,-66778.32,-38319.582,-79286.46,9342.814
881020.0896057952,7725.383,-123971.32,-42163.86,-36835.33,-66771.57,-38315.836,-79286.09,9338.664
881020.0936057931,7726.3594,-123966.72,-42155.805,-36832.97,-66763.266,-38309.695,-79284.14,9338.339
881020.097605791,7728.6787,-123968.02,-42142.418,-36831.707,-66758.67,-38307.375,-79282.35,9343.425
881020.1016057888,7729.2075,-123972.336,-42141.887,-36832.97,-66759.28,-38307.047,-79281.66,9351.318
881020.1056057867,7727.9053,-123979.49,-42155.805,-36838.38,-66774.09,-38309.977,-79288.58,9339.641
881020.1096057845,7727.987,-123976.93,-42164.39,-36835.41,-66772.664,-38310.305,-79292.16,9336.345
881020.1136057824,7727.4985,-123975.914,-42163.047,-36833.09,-66766.805,-38307.863,-79294.4,9332.52
881020.1176057803,7731.649,-123979.82,-42155.805,-36832.848,-66760.7,-38304.402,-79291.914,9338.298
881020.1216057781,7732.2593,-123985.31,-42157.555,-36835.164,-66764.0,-38303.266,-79289.43,9348.511
881020.125605776,7728.1904,-123985.97,-42166.504,-36840.863,-66779.5,-38304.973,-79289.8,9343.588
881020.1296057738,7732.3813,-123977.016,-42165.0,-36838.22,-66780.56,-38305.504,-79291.75,9334.106
881020.1336057717,7732.666,-123974.05,-42160.2,-36832.03,-66772.914,-38303.793,-79289.516,9332.4795
881020.1376057696,7730.754,-123978.84,-42155.68,-36831.504,-66770.19,-38300.496,-79283.04,9343.71
881020.1416057674,7734.782,-123980.23,-42155.19,-36831.34,-66766.03,-38298.22,-79278.85,9354.086
881020.1456057653,7737.386,-123983.73,-42158.977,-36835.125,-66771.81,-38299.074,-79277.836,9355.225
881020.1496057631,7736.8574,-123979.49,-42159.586,-36834.35,-66776.125,-38298.258,-79277.39,9350.708
881020.153605761,7735.2705,-123972.54,-42159.832,-36834.23,-66771.77,-38297.895,-79279.3,9342.937
881020.1576057589,7734.05,-123975.914,-42157.188,-36835.004,-66772.09,-38296.59,-79277.914,9352.377
881020.1616057567,7730.754,-123982.95,-42162.152,-36837.2,-66774.336,-38296.67,-79277.63,9353.19
881020.1656057546,7734.294,-123982.55,-42169.8,-36843.305,-66782.35,-38299.52,-79282.48,9346.029
881020.1696057525,7734.5786,-123982.55,-42174.03,-36843.344,-66782.35,-38299.848,-79283.734,9345.622
881020.1736057503,7731.5674,-123983.4,-42173.3,-36840.984,-66770.1,-38300.21,-79285.766,9339.56
881020.1776057482,7736.6133,-123979.336,-42163.21,-36834.88,-66759.32,-38300.824,-79287.36,9336.711
881020.181605746,7739.543,-123977.26,-42158.49,-36837.445,-66758.55,-38300.418,-79288.375,9342.692
881020.1856057439,7734.8228,-123984.586,-42168.54,-36842.0,-66762.58,-38301.473,-79289.8,9341.919
881020.1896057418,7736.125,-123988.24,-42173.543,-36838.664,-66764.81,-38302.246,-79294.03,9331.177
881020.1936057396,7737.9966,-123984.13,-42168.824,-36835.086,-66758.586,-38302.574,-79295.05,9328.9795
881020.1976057375,7735.555,-123985.766,-42163.98,-36836.223,-66756.11,-38303.305,-79295.01,9337.973
881020.2016057353,7735.3926,-123986.05,-42168.582,-36837.117,-66766.4,-38305.625,-79299.56,9333.212
881020.2056057332,7735.3926,-123986.05,-42180.094,-36842.367,-66782.31,-38307.375,-79302.21,9333.415
881020.2096057311,7734.2124,-123990.97,-42182.09,-36842.043,-66784.305,-38305.707,-79300.58,9331.096
881020.2136057289,7734.0903,-123989.79,-42179.605,-36841.473,-66778.445,-38304.445,-79299.36,9326.294
881020.2176057268,7731.6895,-123986.05,-42172.65,-36838.707,-66770.19,-38301.434,-79294.35,9331.95
881020.2216057247,7726.5625,-123989.55,-42172.69,-36838.664,-66772.79,-38299.562,-79291.47,9338.827
881020.2256057225,7722.738,-123996.46,-42185.426,-36847.574,-66782.15,-38302.164,-79291.79,9339.152
881020.2296057204,7721.151,-123995.61,-42192.26,-36849.45,-66785.04,-38302.125,-79292.73,9337.484
881020.2336057182,7718.669,-123995.734,-42189.496,-36849.04,-66783.086,-38302.574,-79295.945,9333.944
881020.2376057161,7723.552,-123994.67,-42175.863,-36844.77,-66769.57,-38301.434,-79293.22,9342.692
881020.241605714,7732.0967,-123991.42,-42173.465,-36842.57,-66758.47,-38301.8,-79290.61,9351.359
881020.2456057118,7730.184,-123991.83,-42183.84,-36846.805,-66770.305,-38304.934,-79295.49,9345.419
881020.2496057097,7732.91,-123986.9,-42185.75,-36843.1,-66776.57,-38305.3,-79295.945,9338.745
881020.2536057077,7732.0557,-123990.766,-42177.53,-36841.023,-66769.984,-38306.438,-79299.28,9336.67
881020.2576057055,7733.8057,-123986.05,-42173.055,-36839.316,-66767.21,-38308.23,-79300.7,9331.625
881020.2616057034,7727.824,-123982.47,-42177.246,-36841.39,-66768.88,-38309.082,-79300.664,9333.212
881020.2656057013,7726.5625,-123988.24,-42183.473,-36846.395,-66781.05,-38312.297,-79303.23,9331.584
881020.2696056991,7728.109,-123987.67,-42183.676,-36846.883,-66784.63,-38314.168,-79307.336,9321.737
881020.273605697,7730.3877,-123983.24,-42180.91,-36845.055,-66776.086,-38314.37,-79309.37,9317.505
881020.2776056948,7731.201,-123984.055,-42178.754,-36841.023,-66773.84,-38313.07,-79306.48,9323.242
881020.2816056927,7731.201,-123993.58,-42183.96,-36843.344,-66779.625,-38312.38,-79307.3,9324.707
881020.2856056906,7731.893,-123997.36,-42193.848,-36850.63,-66793.22,-38314.78,-79310.14,9319.296
881020.2896056884,7729.3296,-123997.484,-42194.133,-36849.285,-66794.44,-38315.51,-79309.0,9319.499
881020.2936056863,7727.4985,-123995.69,-42188.6,-36845.785,-66792.4,-38312.746,-79304.04,9323.12
881020.2976056841,7727.214,-123993.25,-42180.543,-36843.14,-66792.36,-38310.426,-79303.55,9327.515
881020.301605682,7725.342,-123995.94,-42181.64,-36845.746,-66790.81,-38310.59,-79302.125,9329.468
881020.3056056799,7718.547,-124009.04,-42197.918,-36855.348,-66799.36,-38313.844,-79305.71,9322.0625
881020.3096056777,7717.611,-124011.72,-42200.4,-36853.883,-66797.125,-38314.86,-79306.07,9319.865
881020.3136056756,7720.825,-124006.516,-42193.44,-36848.43,-66786.74,-38312.867,-79302.86,9321.208
881020.3176056735,7720.703,-124000.66,-42189.984,-36845.99,-66784.305,-38311.2,-79299.6,9325.644
881020.3216056713,7717.448,-124005.414,-42194.38,-36850.465,-66785.89,-38311.65,-79298.95,9332.52
881020.3256056692,7718.669,-124013.63,-42206.992,-36857.91,-66791.55,-38316.406,-79302.05,9328.613
881020.329605667,7720.744,-124012.21,-42207.36,-36856.363,-66787.68,-38317.87,-79302.414,9329.55
881020.3336056649,7720.866,-124010.7,-42200.727,-36852.5,-66784.016,-38315.145,-79302.82,9328.939
881020.3376056628,7722.0054,-124013.92,-42193.277,-36848.145,-66781.74,-38313.844,-79299.73,9343.059
881020.3416056606,7720.459,-124018.88,-42195.11,-36850.26,-66785.08,-38314.25,-79299.12,9349.081
881020.3456056585,7720.1743,-124017.09,-42202.23,-36855.43,-66788.336,-38316.938,-79306.16,9327.963
881020.3496056563,7724.7725,-124012.29,-42205.04,-36855.387,-66784.71,-38318.156,-79305.79,9324.585
881020.3536056542,7722.575,-124011.516,-42204.266,-36853.434,-66786.38,-38318.848,-79305.625,9324.341
881020.3576056521,7719.686,-124012.91,-42195.56,-36852.297,-66783.49,-38316.977,-79303.96,9329.265
881020.3616056499,7718.669,-124014.94,-42197.594,-36854.13,-66783.61,-38317.75,-79303.23,9336.589
881020.3656056478,7716.716,-124019.25,-42211.344,-36859.703,-66791.266,-38321.617,-79306.766,9327.026
881020.3696056457,7718.221,-124018.64,-42216.758,-36858.887,-66792.4,-38322.67,-79309.94,9318.93
881020.3736056435,7719.035,-124010.016,-42207.6,-36855.105,-66785.97,-38321.492,-79307.17,9324.667
881020.3776056414,7718.9536,-124005.58,-42197.918,-36851.156,-66779.79,-38320.395,-79305.46,9325.603
881020.3816056392,7720.7847,-124010.54,-42197.348,-36853.965,-66784.38,-38321.168,-79305.22,9326.294
881020.3856056371,7725.586,-124015.38,-42205.69,-36856.49,-66794.64,-38323.445,-79307.82,9322.348
881020.389605635,7724.447,-124018.234,-42207.887,-36857.137,-66797.28,-38326.133,-79308.19,9318.522
881020.3936056328,7723.104,-124015.586,-42204.875,-36854.332,-66790.734,-38324.26,-79304.81,9318.441
881020.3976056307,7723.47,-124013.23,-42199.3,-36852.582,-66782.19,-38321.574,-79300.01,9326.416
881020.4016056285,7723.348,-124016.195,-42199.3,-36855.348,-66784.75,-38321.98,-79297.37,9333.822
881020.4056056264,7727.8647,-124019.82,-42209.434,-36860.637,-66793.54,-38323.04,-79298.55,9335.246
881020.4096056243,7728.801,-124017.3,-42215.25,-36857.586,-66794.88,-38322.797,-79298.14,9333.618
881020.4136056221,7725.464,-124012.945,-42213.625,-36855.43,-66796.266,-38322.43,-79297.98,9334.147
881020.4176056201,7727.458,-124008.67,-42204.227,-36854.41,-66790.33,-38320.72,-79296.15,9336.63
881020.421605618,7727.702,-124011.93,-42203.41,-36855.023,-66787.68,-38322.55,-79296.8,9335.327
881020.4256056158,7727.6206,-124013.43,-42213.582,-36859.62,-66801.88,-38325.44,-79299.4,9338.42
881020.4296056137,7728.6787,-124006.8,-42213.91,-36857.87,-66801.72,-38327.434,-79300.91,9336.101
881020.4336056116,7728.923,-124005.62,-42209.473,-36856.934,-66791.625,-38329.348,-79302.53,9332.4795
881020.4376056094,7729.6143,-124003.99,-42205.895,-36855.023,-66785.28,-38327.92,-79303.875,9333.334
881020.4416056073,7728.4346,-124008.75,-42207.6,-36858.6,-66796.1,-38329.754,-79305.18,9336.264
881020.4456056051,7726.5625,-124014.24,-42215.457,-36863.363,-66808.23,-38332.113,-79306.234,9336.874
881020.449605603,7724.2026,-124013.72,-42222.617,-36864.098,-66812.055,-38335.043,-79306.89,9338.135
881020.4536056009,7723.999,-124006.15,-42215.09,-36860.516,-66800.78,-38336.062,-79306.12,9331.503
881020.4576055987,7722.6973,-124003.055,-42201.785,-36859.78,-66795.734,-38334.72,-79304.94,9322.51
881020.4616055966,7722.209,-124010.336,-42206.668,-36864.055,-66805.625,-38333.7,-79301.48,9326.416
881020.4656055945,7718.3433,-124014.24,-42221.844,-36870.81,-66822.516,-38337.16,-79302.33,9326.701
881020.4696055923,7718.3433,-124016.89,-42229.086,-36871.582,-66823.81,-38341.51,-79307.5,9319.458
881020.4736055902,7717.6924,-124016.4,-42224.12,-36870.688,-66817.42,-38342.613,-79309.33,9319.092
881020.477605588,7715.129,-124015.75,-42214.887,-36866.617,-66813.516,-38338.95,-79303.02,9335.368
881020.4816055859,7714.0303,-124023.93,-42216.88,-36868.367,-66820.92,-38340.293,-79304.08,9333.212
881020.4856055838,7716.838,-124026.33,-42222.535,-36873.13,-66829.836,-38343.668,-79303.06,9327.312
881020.4896055816,7717.041,-124021.94,-42223.473,-36870.2,-66827.44,-38342.816,-79302.25,9331.462
881020.4936055795,7715.1694,-124017.54,-42223.96,-36866.742,-66823.53,-38341.473,-79302.66,9332.886
881020.4976055773,7714.2744,-124012.49,-42221.11,-36866.54,-66817.875,-38341.96,-79303.06,9334.758
881020.5016055752,7714.8438,-124011.88,-42222.008,-36869.914,-66815.8,-38343.75,-79301.88,9339.722
881020.5056055731,7715.007,-124015.38,-42228.477,-36873.94,-66828.414,-38343.914,-79304.37,9336.792
881020.5096055709,7710.8154,-124019.21,-42231.61,-36873.008,-66828.45,-38342.938,-79303.63,9336.67
881020.5136055688,7711.833,-124021.85,-42228.68,-36870.688,-66823.0,-38342.285,-79300.984,9341.391
881020.5176055667,7713.135,-124022.99,-42225.344,-36868.652,-66815.96,-38343.832,-79301.805,9337.851
881020.5216055645,7705.526,-124032.15,-42231.812,-36872.438,-66828.695,-38345.176,-79302.695,9345.134
881020.5256055624,7708.9033,-124034.914,-42238.73,-36875.082,-66836.47,-38348.715,-79309.125,9334.961
881020.5296055602,7711.67,-124032.64,-42238.65,-36874.797,-66833.21,-38352.418,-79313.4,9328.085
881020.5336055581,7710.368,-124024.01,-42236.695,-36872.805,-66825.97,-38353.152,-79314.25,9330.893
881020.537605556,7712.9316,-124020.1,-42229.25,-36868.207,-66818.08,-38351.97,-79313.73,9326.742
881020.5416055538,7710.9375,-124023.195,-42228.965,-36868.9,-66822.96,-38353.152,-79314.336,9322.185
881020.5456055517,7706.421,-124031.336,-42239.137,-36872.684,-66837.41,-38354.574,-79317.38,9317.709
881020.5496055495,7702.2705,-124036.625,-42244.832,-36874.31,-66841.48,-38354.9,-79320.234,9311.361
881020.5536055474,7700.3174,-124037.48,-42243.652,-36873.82,-66839.88,-38354.86,-79322.15,9309.042
881020.5576055453,7698.934,-124035.41,-42233.44,-36870.605,-66836.8,-38355.145,-79318.73,9318.686
881020.5616055431,7700.5615,-124038.74,-42231.04,-36872.195,-66840.21,-38358.6,-79318.56,9317.261
881020.565605541,7704.061,-124041.38,-42239.91,-36876.668,-66850.99,-38360.555,-79319.83,9313.273
881020.5696055389,7705.241,-124038.78,-42238.85,-36872.4,-66850.914,-38359.336,-79314.82,9315.39
881020.5736055367,7707.5195,-124032.27,-42235.965,-36869.67,-66846.56,-38357.707,-79312.87,9313.3545
881020.5776055346,7707.2754,-124031.74,-42232.22,-36869.793,-66842.05,-38357.098,-79311.08,9321.615
881020.5816055326,7707.5605,-124036.09,-42233.316,-36873.293,-66851.6,-38358.645,-79310.67,9324.585
881020.5856055304,7704.631,-124044.92,-42244.547,-36879.844,-66869.06,-38360.72,-79310.06,9324.992
881020.5896055283,7705.404,-124036.13,-42246.99,-36876.465,-66862.96,-38359.54,-79307.58,9328.776
881020.5936055261,7705.892,-124031.54,-42241.254,-36872.805,-66857.26,-38359.418,-79308.64,9327.393
881020.597605524,7709.188,-124032.92,-42230.31,-36870.035,-66852.87,-38358.195,-79309.45,9326.172
881020.6016055219,7708.8623,-124037.195,-42228.19,-36869.59,-66852.42,-38357.91,-79308.64,9327.026
881020.6056055197,7709.5947,-124035.73,-42240.684,-36875.406,-66858.16,-38361.94,-79309.98,9320.883
881020.6096055176,7715.007,-124028.445,-42245.2,-36874.758,-66854.86,-38361.695,-79309.29,9317.465
881020.6136055154,7717.611,-124016.69,-42241.496,-36871.83,-66850.016,-38362.836,-79310.266,9314.291
881020.6176055133,7719.686,-124012.45,-42233.805,-36870.566,-66845.18,-38363.73,-79311.41,9321.127
881020.6216055112,7724.365,-124011.72,-42231.934,-36871.38,-66848.23,-38365.97,-79313.44,9324.382
881020.625605509,7731.405,-124007.0,-42245.566,-36875.33,-66851.766,-38370.16,-79314.21,9327.841
881020.6296055069,7729.7363,-124004.64,-42245.2,-36873.78,-66845.79,-38370.117,-79313.4,9324.585
881020.6336055048,7741.4146,-123989.18,-42235.758,-36868.043,-66838.87,-38370.242,-79313.11,9325.155
881020.6376055026,7755.7783,-123974.98,-42226.848,-36863.895,-66844.36,-38371.055,-79310.38,9335.571
881020.6416055005,7755.493,-123974.49,-42230.023,-36866.21,-66846.93,-38372.03,-79310.51,9338.095
881020.6456054983,7759.847,-123976.16,-42234.742,-36869.387,-66853.07,-38371.582,-79308.35,9343.384
881020.6496054962,7772.746,-123956.22,-42234.457,-36866.617,-66849.81,-38372.477,-79307.21,9344.035
881020.6536054941,7780.1514,-123950.89,-42232.016,-36863.2,-66841.555,-38371.625,-79306.84,9343.832
881020.6576054919,7782.756,-123947.72,-42227.62,-36859.05,-66836.59,-38370.16,-79304.81,9341.309
881020.6616054898,7790.8125,-123935.39,-42225.14,-36857.18,-66840.66,-38372.56,-79304.89,9334.106
881020.6656054877,7805.298,-123922.94,-42228.312,-36859.215,-66847.29,-38375.938,-79306.27,9333.456
881020.6696054855,7814.0464,-123913.25,-42224.895,-36858.195,-66841.92,-38377.035,-79309.45,9324.138
881020.6736054834,7816.61,-123907.35,-42222.25,-36857.137,-66838.14,-38376.26,-79308.8,9321.411
881020.6776054812,7820.028,-123906.62,-42220.01,-36856.977,-66837.57,-38377.402,-79311.08,9321.452
881020.6816054791,7820.15,-123908.05,-42221.355,-36860.23,-66840.62,-38380.168,-79316.2,9319.865
881020.685605477,7821.533,-123912.64,-42226.81,-36864.543,-66853.195,-38384.074,-79321.375,9311.157
881020.6896054748,7820.15,-123914.63,-42230.51,-36863.12,-66856.164,-38386.72,-79322.67,9310.425
881020.6936054727,7820.7197,-123908.164,-42226.44,-36859.5,-66845.38,-38385.785,-79322.555,9309.204
881020.6976054705,7825.073,-123902.02,-42219.28,-36856.57,-66842.125,-38384.117,-79320.31,9311.89
881020.7016054684,7822.103,-123909.63,-42223.594,-36858.766,-66845.87,-38386.355,-79321.17,9309.326
881020.7056054663,7823.6494,-123911.5,-42236.004,-36861.246,-66849.86,-38389.49,-79323.77,9304.729
881020.7096054641,7826.9043,-123911.42,-42238.566,-36858.6,-66848.39,-38391.277,-79326.22,9304.892
881020.713605462,7826.294,-123909.34,-42232.953,-36857.547,-66843.02,-38390.137,-79324.79,9311.564
881020.7176054599,7823.9746,-123906.984,-42228.395,-36855.67,-66837.04,-38389.566,-79321.45,9315.349
881020.7216054577,7825.765,-123901.82,-42227.906,-36855.105,-66836.836,-38389.566,-79319.46,9316.977
881020.7256054556,7821.3706,-123913.74,-42235.35,-36860.598,-66850.42,-38392.496,-79321.49,9317.993
881020.7296054534,7818.2783,-123919.68,-42233.24,-36859.336,-66853.68,-38393.883,-79320.766,9317.749
881020.7336054513,7819.702,-123915.734,-42228.8,-36856.934,-66851.97,-38393.555,-79318.32,9320.19
881020.7376054492,7820.15,-123913.01,-42223.918,-36855.594,-66847.17,-38392.215,-79317.47,9320.435
881020.741605447,7813.68,-123924.195,-42226.2,-36858.44,-66845.99,-38392.703,-79316.125,9320.923
881020.745605445,7813.1104,-123930.875,-42232.87,-36861.613,-66854.62,-38394.37,-79314.21,9326.457
881020.7496054429,7808.757,-123936.24,-42234.99,-36862.184,-66861.45,-38396.16,-79311.93,9323.935
881020.7536054407,7803.589,-123937.09,-42231.16,-36861.574,-66858.28,-38395.47,-79313.16,9316.04
881020.7576054386,7801.8394,-123935.39,-42224.49,-36860.555,-66855.305,-38394.207,-79311.69,9322.592
881020.7616054364,7795.98,-123946.54,-42228.965,-36863.61,-66859.74,-38396.04,-79311.81,9330.282
881020.7656054343,7786.947,-123958.17,-42243.082,-36868.855,-66870.89,-38399.21,-79316.24,9325.888
881020.7696054322,7787.3535,-123959.11,-42240.195,-36865.848,-66869.14,-38398.844,-79316.45,9324.463
881020.77360543,7785.4004,-123959.11,-42232.137,-36860.35,-66860.84,-38398.074,-79315.836,9319.377
881020.7776054279,7778.4834,-123964.89,-42228.883,-36859.5,-66859.58,-38396.2,-79312.13,9327.556
881020.7816054258,7774.17,-123968.63,-42234.375,-36863.08,-66867.64,-38397.91,-79313.07,9330.811
881020.7856054236,7770.508,-123978.36,-42245.117,-36870.566,-66880.05,-38401.938,-79318.52,9321.005
881020.7896054215,7765.381,-123988.33,-42246.91,-36873.617,-66884.484,-38402.996,-79317.875,9324.504
881020.7936054193,7763.713,-123988.49,-42244.754,-36871.83,-66877.41,-38401.33,-79317.06,9322.673
881020.7976054172,7759.847,-123986.58,-42237.55,-36869.14,-66872.11,-38399.008,-79310.305,9328.735
881020.8016054151,7751.4243,-123992.19,-42238.895,-36874.227,-66870.69,-38400.105,-79306.36,9335.897
881020.8056054129,7744.4663,-124003.38,-42246.38,-36878.703,-66876.836,-38401.613,-79308.15,9324.789
881020.8096054108,7739.787,-124007.86,-42251.305,-36877.156,-66881.35,-38402.75,-79310.266,9322.144
881020.8136054086,7737.02,-124006.92,-42251.02,-36876.63,-66878.3,-38402.1,-79311.445,9320.354
881020.8176054065,7737.264,-124007.77,-42246.664,-36876.344,-66873.45,-38399.902,-79310.43,9324.545
881020.8216054044,7735.433,-124016.4,-42247.195,-36880.086,-66879.48,-38397.83,-79307.414,9332.642
881020.8256054022,7731.771,-124027.555,-42258.75,-36887.656,-66890.71,-38396.934,-79306.16,9331.34
881020.8296054001,7729.248,-124031.62,-42259.402,-36887.777,-66890.26,-38396.527,-79304.57,9326.945
881020.833605398,7729.6143,-124023.16,-42252.402,-36885.418,-66876.305,-38392.293,-79305.664,9323.039
881020.8376053958,7727.9053,-124022.46,-42244.996,-36884.81,-66869.75,-38389.445,-79305.42,9334.677
881020.8416053937,7728.3936,-124028.57,-42243.207,-36886.56,-66863.2,-38388.31,-79305.79,9340.17
881020.8456053915,7731.0386,-124031.62,-42246.867,-36892.293,-66866.87,-38386.883,-79308.23,9330.444
881020.8496053894,7729.818,-124037.03,-42249.023,-36893.92,-66860.805,-38384.89,-79309.33,9325.114
881020.8536053873,7730.3467,-124040.37,-42245.605,-36892.703,-66849.86,-38381.797,-79309.2,9327.434
881020.8576053851,7730.306,-124041.1,-42244.266,-36891.24,-66839.16,-38375.816,-79306.07,9335.449
881020.861605383,7731.2827,-124040.086,-42251.26,-36893.8,-66845.055,-38372.195,-79304.484,9337.769
881020.8656053809,7732.422,-124046.11,-42258.22,-36898.48,-66848.92,-38371.707,-79304.37,9330.16
881020.8696053787,7731.242,-124052.53,-42257.527,-36899.58,-66854.78,-38368.043,-79302.414,9331.381
881020.8736053766,7728.3936,-124059.01,-42257.324,-36900.594,-66856.484,-38366.66,-79305.914,9325.48
881020.8776053744,7727.702,-124062.34,-42254.598,-36902.184,-66854.86,-38366.375,-79307.5,9329.509
881020.8816053723,7731.6895,-124063.234,-42253.867,-36901.125,-66850.266,-38365.234,-79305.18,9341.553
881020.8856053702,7728.5566,-124068.69,-42260.38,-36906.535,-66853.68,-38364.83,-79307.78,9340.983
881020.889605368,7726.9287,-124067.55,-42263.47,-36907.31,-66851.766,-38361.777,-79309.98,9331.909
881020.8936053659,7729.248,-124058.15,-42257.938,-36903.035,-66838.14,-38359.62,-79311.04,9328.9795
881020.8976053637,7728.719,-124055.055,-42254.68,-36900.72,-66827.68,-38358.4,-79309.94,9336.833
881020.9016053616,7724.8535,-124069.055,-42256.51,-36903.973,-66834.02,-38358.523,-79310.51,9337.565
881020.9056053595,7722.0054,-124078.945,-42265.504,-36911.5,-66843.71,-38361.574,-79312.625,9338.705
881020.9096053573,7721.965,-124073.57,-42268.637,-36908.043,-66839.88,-38360.84,-79308.48,9341.309
881020.9136053553,7719.32,-124074.43,-42267.215,-36903.934,-66839.234,-38358.848,-79306.69,9343.425
881020.9176053532,7718.913,-124074.06,-42263.023,-36904.38,-66840.336,-38357.953,-79306.12,9348.43
881020.921605351,7717.6924,-124078.86,-42263.633,-36908.203,-66843.305,-38359.293,-79302.94,9354.696
881020.9256053489,7715.2915,-124083.5,-42273.234,-36911.62,-66849.04,-38360.84,-79302.414,9354.411
881020.9296053468,7715.6577,-124081.055,-42273.64,-36909.02,-66851.97,-38362.957,-79305.26,9344.6455
881020.9336053446,7715.1694,-124079.02,-42274.17,-36909.75,-66850.1,-38364.016,-79306.32,9345.744
881020.9376053425,7713.908,-124083.22,-42273.844,-36910.2,-66850.18,-38363.77,-79307.7,9345.215
881020.9416053403,7713.2163,-124086.35,-42279.137,-36910.688,-66860.88,-38365.848,-79313.73,9334.636
881020.9456053382,7709.0254,-124089.484,-42284.508,-36915.203,-66869.75,-38368.777,-79317.1,9333.049
881020.9496053361,7710.205,-124084.44,-42280.926,-36913.82,-66857.46,-38368.695,-79317.79,9325.806
881020.9536053339,7707.235,-124086.96,-42277.305,-36912.027,-66852.42,-38367.92,-79318.56,9322.998
881020.9576053318,7705.4443,-124081.18,-42273.805,-36910.484,-66852.26,-38368.164,-79317.914,9319.987
881020.9616053296,7707.845,-124074.875,-42276.53,-36909.75,-66856.41,-38368.41,-79316.77,9324.585
881020.9656053275,7705.3223,-124082.65,-42284.953,-36917.645,-66869.266,-38370.117,-79319.42,9322.876
881020.9696053254,7702.108,-124083.58,-42290.0,-36920.004,-66874.43,-38370.32,-79318.81,9324.219
881020.9736053232,7703.003,-124079.43,-42285.117,-36916.668,-66863.24,-38370.2,-79316.45,9325.562
881020.9776053211,7702.8,-124075.97,-42275.84,-36914.754,-66857.95,-38369.06,-79316.2,9320.72
881020.981605319,7702.5146,-124074.55,-42273.887,-36915.57,-66858.484,-38370.85,-79316.04,9326.498
881020.9856053168,7699.504,-124079.35,-42282.066,-36919.516,-66873.82,-38374.51,-79318.61,9322.47
881020.9896053147,7700.0327,-124083.5,-42285.035,-36918.824,-66869.8,-38375.49,-79324.38,9308.96
881020.9936053125,7699.951,-124081.914,-42281.21,-36918.254,-66868.695,-38376.26,-79328.375,9304.525
881020.9976053104,7699.707,-124076.7,-42276.652,-36918.785,-66861.86,-38376.18,-79326.83,9311.85
881021.0016053083,7697.4287,-124077.64,-42280.68,-36917.97,-66859.7,-38377.2,-79325.52,9317.953
881021.0056053061,7695.272,-124086.06,-42290.527,-36923.707,-66869.55,-38377.973,-79326.664,9323.364
881021.009605304,7695.5977,-124081.79,-42290.445,-36923.258,-66863.77,-38377.117,-79325.65,9324.219
881021.0136053019,7696.574,-124075.65,-42287.152,-36918.215,-66856.04,-38375.164,-79321.54,9323.202
881021.0176052997,7694.377,-124074.586,-42282.88,-36918.01,-66856.24,-38375.734,-79319.7,9324.789
881021.0216052976,7697.795,-124076.74,-42283.285,-36921.43,-66861.82,-38377.973,-79319.7,9325.399
881021.0256052954,7698.0796,-124080.53,-42294.35,-36925.09,-66867.64,-38379.76,-79319.7,9325.603
881021.0296052933,7694.1733,-124087.445,-42301.188,-36927.125,-66877.56,-38379.273,-79320.48,9326.538
881021.0336052912,7695.15,-124085.78,-42296.715,-36924.234,-66877.484,-38378.99,-79321.375,9321.94
881021.037605289,7697.0625,-124082.69,-42285.93,-36921.266,-66869.55,-38379.64,-79318.766,9324.951
881021.0416052869,7692.22,-124090.58,-42290.445,-36924.4,-66874.96,-38382.855,-79320.03,9325.358
881021.0456052847,7689.0464,-124098.11,-42303.996,-36930.707,-66892.62,-38386.15,-79322.35,9320.517
881021.0496052826,7688.5986,-124098.15,-42304.04,-36929.812,-66892.945,-38385.99,-79319.83,9321.615
881021.0536052805,7695.1904,-124090.62,-42296.348,-36924.074,-66882.125,-38384.848,-79318.85,9321.615
881021.0576052783,7696.167,-124087.2,-42291.79,-36920.98,-66874.48,-38383.344,-79319.945,9319.499
881021.0616052762,7693.4814,-124096.56,-42297.527,-36925.336,-66881.875,-38384.156,-79321.25,9319.296
881021.065605274,7694.2954,-124101.89,-42304.73,-36931.723,-66893.72,-38386.23,-79324.266,9317.383
881021.0696052719,7695.0684,-124101.98,-42304.363,-36930.42,-66888.836,-38388.184,-79324.95,9316.162
881021.0736052698,7698.7305,-124098.11,-42300.09,-36925.133,-66884.52,-38389.12,-79324.38,9313.925
881021.0776052678,7699.056,-124100.43,-42291.344,-36919.56,-66883.586,-38389.0,-79322.59,9323.486
881021.0816052656,7698.039,-124102.22,-42287.312,-36918.01,-66882.086,-38389.04,-79320.72,9325.317
881021.0856052635,7695.8823,-124104.86,-42295.453,-36920.453,-66880.17,-38388.47,-79320.68,9323.283
881021.0896052613,7693.4814,-124109.46,-42301.35,-36920.168,-66882.29,-38387.695,-79316.94,9327.2705
881021.0936052592,7695.964,-124107.18,-42297.445,-36916.832,-66873.01,-38388.47,-79319.83,9318.481
881021.0976052571,7698.934,-124102.54,-42290.285,-36914.88,-66868.29,-38387.82,-79317.43,9324.789
881021.1016052549,7698.934,-124097.336,-42291.79,-36914.55,-66870.61,-38387.74,-79311.08,9333.415
881021.1056052528,7699.0156,-124096.16,-42300.293,-36919.027,-66876.99,-38389.363,-79311.16,9330.811
881021.1096052506,7697.4287,-124096.89,-42303.836,-36920.816,-66875.086,-38390.625,-79314.21,9327.23
881021.1136052485,7696.167,-124094.2,-42302.29,-36920.574,-66878.46,-38390.953,-79317.63,9323.446
881021.1176052464,7695.028,-124096.56,-42301.516,-36918.62,-66883.875,-38390.504,-79318.69,9324.545
881021.1216052442,7693.9697,-124103.07,-42302.613,-36920.94,-66888.19,-38392.58,-79319.42,9328.125
881021.1256052421,7692.7085,-124104.49,-42308.797,-36923.258,-66892.13,-38396.08,-79322.8,9320.19
881021.12960524,7691.7725,-124104.086,-42308.105,-36920.25,-66884.805,-38395.71,-79320.4,9319.743
881021.1336052378,7692.22,-124097.375,-42304.117,-36918.906,-66880.13,-38395.47,-79319.055,9318.767
881021.1376052357,7696.737,-124093.47,-42299.277,-36917.156,-66878.74,-38394.29,-79316.37,9319.824
881021.1416052335,7696.981,-124095.5,-42302.53,-36920.656,-66880.9,-38394.86,-79314.66,9326.335
881021.1456052314,7691.8135,-124110.48,-42311.484,-36927.734,-66891.89,-38397.504,-79316.41,9323.649
881021.1496052293,7694.4175,-124116.17,-42312.703,-36924.113,-66886.88,-38397.543,-79316.29,9323.608
881021.1536052271,7693.807,-124114.625,-42305.79,-36921.957,-66882.81,-38397.42,-79316.164,9322.673
881021.157605225,7692.22,-124112.39,-42305.055,-36920.207,-66884.36,-38397.016,-79314.336,9326.742
881021.1616052228,7690.9995,-124114.26,-42308.023,-36920.9,-66889.57,-38399.54,-79315.43,9332.52
881021.1656052207,7691.2437,-124114.016,-42316.57,-36925.54,-66892.17,-38401.98,-79319.26,9328.776
881021.1696052186,7686.727,-124116.945,-42317.547,-36924.562,-66887.66,-38403.89,-79324.586,9315.674
881021.1736052164,7682.658,-124119.23,-42317.344,-36922.69,-66886.92,-38406.496,-79329.51,9311.972
881021.1776052143,7682.821,-124118.9,-42319.38,-36922.61,-66891.93,-38409.426,-79332.234,9313.477
881021.1816052122,7683.838,-124121.305,-42318.484,-36924.316,-66894.82,-38408.043,-79331.22,9318.767
881021.18560521,7686.198,-124120.61,-42324.625,-36927.734,-66897.42,-38408.855,-79330.28,9318.686
881021.1896052079,7685.8726,-124117.35,-42328.043,-36925.863,-66900.92,-38407.88,-79327.15,9314.291
881021.1936052057,7684.6924,-124115.89,-42324.79,-36922.08,-66899.21,-38405.52,-79323.65,9311.564
881021.1976052036,7685.018,-124116.26,-42320.598,-36921.305,-66895.305,-38404.46,-79319.7,9318.156
881021.2016052015,7687.7036,-124115.89,-42322.88,-36922.69,-66899.375,-38405.844,-79317.38,9319.621
881021.2056051993,7688.1104,-124117.805,-42329.348,-36926.516,-66910.16,-38406.617,-79318.61,9315.349
881021.2096051972,7685.5063,-124116.7,-42328.25,-36925.66,-66910.97,-38407.31,-79318.56,9317.668
881021.213605195,7681.722,-124114.47,-42322.715,-36924.887,-66902.836,-38408.734,-79320.31,9313.721
881021.2176051929,7682.17,-124108.04,-42319.703,-36922.895,-66898.48,-38409.344,-79320.36,9321.655
881021.2216051908,7681.6816,-124114.914,-42329.957,-36925.54,-66900.72,-38412.11,-79325.69,9317.749
881021.2256051886,7679.6875,-124125.125,-42338.625,-36927.86,-66905.07,-38416.42,-79329.914,9309.855
881021.2296051865,7678.589,-124128.09,-42343.06,-36927.98,-66905.68,-38419.84,-79332.44,9310.019
881021.2336051844,7678.1416,-124127.81,-42339.56,-36926.35,-66909.06,-38420.695,-79333.984,9306.723
881021.2376051822,7678.1416,-124125.734,-42333.66,-36925.336,-66908.45,-38422.0,-79334.555,9298.584
881021.2416051802,7676.3105,-124132.45,-42334.11,-36926.92,-66910.81,-38421.875,-79334.15,9303.386
881021.2456051781,7677.5312,-124135.87,-42341.27,-36929.28,-66919.555,-38423.746,-79333.984,9307.373
881021.2496051759,7682.007,-124129.93,-42339.64,-36926.11,-66919.35,-38422.65,-79329.305,9312.907
881021.2536051738,7682.048,-124128.7,-42335.164,-36923.668,-66914.266,-38421.67,-79324.79,9315.756
881021.2576051716,7683.065,-124121.55,-42332.03,-36923.3,-66910.69,-38421.633,-79321.945,9324.301
881021.2616051695,7686.727,-124120.33,-42334.15,-36925.293,-66919.31,-38423.3,-79321.78,9338.42
881021.2656051674,7690.145,-124121.55,-42339.234,-36930.38,-66927.66,-38429.2,-79326.5,9324.626
881021.2696051652,7689.8604,-124115.484,-42340.902,-36928.59,-66919.72,-38427.695,-79322.47,9326.416
881021.2736051631,7689.9824,-124113.49,-42336.71,-36924.805,-66908.77,-38427.086,-79322.516,9329.265
881021.277605161,7690.4707,-124109.79,-42335.246,-36920.9,-66901.86,-38429.65,-79326.42,9328.735
881021.2816051588,7689.1685,-124105.35,-42338.707,-36921.957,-66902.305,-38431.234,-79328.33,9328.776
881021.2856051567,7687.9478,-124107.95,-42348.797,-36927.043,-66909.75,-38434.45,-79329.59,9324.789
881021.2896051545,7693.034,-124106.41,-42347.984,-36924.6,-66916.14,-38434.734,-79331.14,9314.86
881021.2936051524,7692.5864,-124110.56,-42344.402,-36925.863,-66915.0,-38434.652,-79330.89,9319.092
881021.2976051503,7692.22,-124108.04,-42340.047,-36926.434,-66914.23,-38435.14,-79328.78,9329.794
881021.3016051481,7691.976,-124108.08,-42341.31,-36928.47,-66920.82,-38437.094,-79326.74,9331.096
881021.305605146,7690.1045,-124112.59,-42347.168,-36932.414,-66931.12,-38439.902,-79330.04,9320.557
881021.3096051438,7688.0293,-124114.26,-42345.34,-36929.402,-66927.125,-38439.617,-79330.81,9317.505
881021.3136051417,7690.1855,-124115.484,-42339.113,-36929.242,-66918.42,-38440.676,-79330.41,9318.197
881021.3176051396,7689.494,-124116.3,-42334.676,-36930.46,-66920.58,-38440.715,-79328.695,9325.603
881021.3216051374,7689.494,-124118.984,-42339.64,-36932.66,-66928.71,-38441.53,-79328.66,9328.898
881021.3256051353,7688.9243,-124119.63,-42345.95,-36934.855,-66942.63,-38443.44,-79327.516,9333.74
881021.3296051332,7690.0635,-124115.03,-42344.81,-36930.094,-66932.945,-38443.766,-79326.336,9331.503
881021.333605131,7690.511,-124115.484,-42341.797,-36927.86,-66925.21,-38444.785,-79324.586,9328.369
881021.3376051289,7691.61,-124117.516,-42342.977,-36928.387,-66919.805,-38446.207,-79325.32,9323.283
881021.3416051267,7688.8022,-124123.91,-42351.277,-36932.008,-66922.37,-38448.367,-79327.07,9325.439
881021.3456051246,7684.9775,-124130.01,-42361.41,-36938.113,-66933.11,-38452.312,-79331.664,9322.795
881021.3496051225,7683.6753,-124127.98,-42359.17,-36935.996,-66942.42,-38451.66,-79332.36,9316.772
881021.3536051203,7680.5015,-124130.7,-42357.83,-36934.53,-66943.16,-38452.72,-79337.85,9306.274
881021.3576051182,7677.816,-124132.94,-42355.387,-36936.08,-66939.66,-38455.73,-79343.02,9302.49
881021.361605116,7679.077,-124133.75,-42357.87,-36936.363,-66935.71,-38458.008,-79343.875,9302.816
881021.3656051139,7679.118,-124134.81,-42366.496,-36938.723,-66937.54,-38460.734,-79342.61,9300.7
881021.3696051118,7678.874,-124129.4,-42372.113,-36939.74,-66940.39,-38459.92,-79336.55,9311.483
881021.3736051096,7677.165,-124122.805,-42368.613,-36936.77,-66941.9,-38459.312,-79333.336,9317.709
881021.3776051075,7680.3794,-124118.29,-42362.71,-36934.49,-66937.13,-38458.58,-79334.96,9309.57
881021.3816051054,7680.0947,-124123.78,-42368.855,-36941.49,-66942.79,-38460.164,-79337.04,9313.314
881021.3856051032,7673.503,-124132.53,-42379.76,-36946.777,-66955.12,-38460.695,-79333.055,9324.789
881021.3896051011,7669.515,-124136.516,-42380.574,-36946.535,-66956.46,-38460.734,-79330.24,9327.353
881021.393605099,7668.62,-124137.414,-42377.156,-36942.426,-66944.46,-38460.855,-79327.96,9326.498
881021.3976050968,7666.545,-124134.28,-42374.918,-36942.02,-66940.96,-38460.33,-79327.92,9327.189
881021.4016050947,7666.626,-124132.57,-42378.418,-36944.824,-66948.94,-38462.934,-79330.41,9326.416
881021.4056050926,7666.3413,-124135.91,-42385.62,-36948.812,-66958.375,-38466.27,-79334.07,9324.341
881021.4096050905,7664.1035,-124136.805,-42388.51,-36948.65,-66959.31,-38467.082,-79336.8,9319.011
881021.4136050884,7661.865,-124137.49,-42388.754,-36947.594,-66958.87,-38467.855,-79339.97,9304.77
881021.4176050862,7662.069,-124134.98,-42382.45,-36947.51,-66953.78,-38468.793,-79342.41,9304.973
881021.4216050841,7660.4414,-124139.86,-42386.516,-36949.504,-66956.664,-38471.03,-79343.23,9305.461
881021.425605082,7659.424,-124142.13,-42392.418,-36954.02,-66963.46,-38472.535,-79344.93,9303.264
881021.4296050798,7658.1626,-124135.26,-42388.184,-36954.184,-66962.37,-38472.78,-79344.12,9293.498
881021.4336050777,7660.7666,-124131.836,-42389.812,-36952.76,-66958.87,-38472.656,-79344.52,9289.185
881021.4376050755,7659.424,-124134.484,-42391.48,-36953.37,-66955.37,-38471.965,-79341.88,9298.096
881021.4416050734,7659.587,-124140.18,-42394.207,-36953.86,-66956.22,-38473.797,-79339.64,9306.682
881021.4456050713,7660.4414,-124141.12,-42398.195,-36954.59,-66960.37,-38476.2,-79340.91,9305.217
881021.4496050691,7661.7026,-124135.3,-42400.188,-36952.273,-66961.06,-38478.965,-79343.02,9296.753
881021.453605067,7663.0454,-124134.445,-42397.543,-36950.848,-66958.74,-38478.027,-79340.87,9299.968
881021.4576050648,7662.5166,-124127.85,-42395.996,-36950.035,-66953.414,-38477.62,-79341.48,9298.747
881021.4616050627,7664.4697,-124130.09,-42401.043,-36950.562,-66955.89,-38478.68,-79341.02,9301.474
881021.4656050606,7664.958,-124139.695,-42409.87,-36954.59,-66972.13,-38480.184,-79339.32,9310.669
881021.4696050584,7666.1377,-124130.62,-42403.24,-36951.17,-66965.78,-38478.76,-79333.945,9320.231
881021.4736050563,7669.922,-124123.78,-42399.09,-36948.12,-66959.27,-38477.945,-79334.03,9310.466
881021.4776050542,7677.0835,-124118.94,-42395.59,-36947.105,-66959.39,-38478.965,-79333.984,9303.833
881021.481605052,7675.578,-124120.57,-42398.113,-36948.242,-66965.09,-38480.227,-79333.414,9312.622
881021.4856050499,7671.1836,-124127.93,-42403.32,-36955.12,-66971.6,-38481.73,-79336.305,9309.652
881021.4896050477,7670.329,-124124.84,-42405.152,-36954.266,-66966.8,-38483.887,-79337.32,9305.298
881021.4936050456,7673.706,-124123.7,-42406.453,-36954.1,-66963.016,-38486.004,-79340.87,9300.619
881021.4976050435,7672.9736,-124124.19,-42400.31,-36952.598,-66963.75,-38484.945,-79341.8,9304.973
881021.5016050413,7671.8345,-124124.68,-42401.004,-36952.434,-66968.14,-38485.68,-79339.03,9314.128
881021.5056050392,7673.95,-124129.52,-42410.81,-36955.363,-66978.516,-38486.816,-79338.55,9315.674
881021.509605037,7673.1772,-124128.14,-42407.594,-36955.445,-66974.86,-38487.1,-79338.55,9309.123
881021.5136050349,7671.631,-124126.95,-42402.914,-36953.9,-66969.32,-38488.973,-79340.58,9302.043
881021.5176050328,7675.1304,-124127.98,-42405.152,-36952.84,-66968.34,-38490.074,-79339.234,9312.175
881021.5216050306,7676.351,-124134.08,-42408.164,-36956.42,-66972.086,-38491.254,-79336.59,9317.099
881021.5256050285,7672.933,-124142.83,-42416.06,-36962.242,-66980.43,-38493.855,-79338.14,9314.209
881021.5296050264,7671.55,-124142.42,-42410.727,-36963.137,-66980.39,-38493.734,-79337.89,9308.838
881021.5336050242,7671.875,-124135.3,-42409.547,-36960.207,-66980.555,-38494.305,-79340.13,9304.6875
881021.5376050221,7672.7295,-124133.67,-42406.94,-36961.223,-66977.99,-38493.164,-79335.94,9318.686
881021.54160502,7675.049,-124136.234,-42407.676,-36961.305,-66979.45,-38493.855,-79336.1,9316.772
881021.5456050178,7672.8926,-124143.68,-42416.18,-36965.09,-66982.71,-38497.4,-79339.16,9309.978
881021.5496050157,7668.0503,-124144.62,-42422.12,-36965.457,-66983.65,-38500.082,-79340.78,9306.723
881021.5536050135,7667.9688,-124139.41,-42419.312,-36963.83,-66980.8,-38501.508,-79340.25,9303.874
881021.5576050114,7668.1724,-124135.91,-42420.695,-36965.82,-66979.25,-38501.14,-79338.625,9310.629
881021.5616050093,7667.2773,-124135.74,-42425.66,-36966.797,-66978.516,-38501.465,-79338.016,9312.622
881021.5656050071,7667.6436,-124130.66,-42431.723,-36968.1,-66981.125,-38503.176,-79336.34,9310.547
881021.5696050051,7671.875,-124127.57,-42429.812,-36968.63,-66975.875,-38502.24,-79337.85,9305.461
881021.573605003,7669.5967,-124132.94,-42422.85,-36970.418,-66970.055,-38502.035,-79339.766,9303.508
881021.5776050008,7672.282,-124131.02,-42417.605,-36969.645,-66970.055,-38499.066,-79336.67,9309.448
881021.5816049987,7675.9443,-124130.54,-42421.793,-36971.805,-66975.67,-38496.38,-79338.55,9310.222
881021.5856049965,7672.8516,-124137.74,-42433.27,-36976.402,-66966.39,-38495.605,-79344.24,9308.513
881021.5896049944,7668.62,-124144.01,-42434.246,-36975.668,-66952.07,-38493.855,-79346.6,9304.973
881021.5936049923,7666.87,-124147.34,-42433.27,-36975.953,-66941.2,-38492.676,-79349.81,9298.869
881021.5976049901,7669.149,-124144.375,-42428.67,-36976.48,-66934.53,-38487.918,-79349.49,9301.474
881021.601604988,7671.224,-124145.06,-42432.78,-36980.266,-66933.84,-38483.97,-79346.97,9308.716
881021.6056049858,7670.41,-124148.195,-42443.89,-36985.883,-66937.99,-38482.504,-79347.414,9305.827
881021.6096049837,7671.672,-124149.414,-42450.727,-36988.28,-66936.41,-38479.25,-79346.805,9304.159
881021.6136049816,7675.578,-124145.59,-42447.55,-36984.78,-66930.22,-38476.074,-79347.49,9299.438
881021.6176049794,7678.182,-124145.63,-42444.785,-36980.957,-66920.734,-38471.03,-79347.336,9300.497
881021.6216049773,7682.4546,-124150.88,-42448.203,-36982.016,-66920.25,-38467.855,-79348.59,9300.619
881021.6256049752,7676.8394,-124153.41,-42453.25,-36986.33,-66928.875,-38465.902,-79350.99,9295.207
881021.629604973,7670.3696,-124154.3,-42457.645,-36988.895,-66928.875,-38462.605,-79353.6,9294.027
881021.6336049709,7668.62,-124155.36,-42456.586,-36989.91,-66925.91,-38460.043,-79357.055,9282.512
881021.6376049687,7668.376,-124158.98,-42458.375,-36991.375,-66932.66,-38460.207,-79360.31,9274.17
881021.6416049666,7664.7544,-124163.78,-42463.055,-36992.88,-66944.055,-38461.387,-79362.875,9278.076
881021.6456049645,7661.0923,-124170.9,-42472.047,-36996.42,-66943.93,-38461.47,-79361.82,9282.919
881021.6496049623,7659.709,-124167.08,-42474.203,-36994.875,-66939.13,-38459.676,-79358.766,9288.412
881021.6536049602,7668.335,-124148.766,-42467.164,-36989.83,-66933.8,-38458.496,-79359.87,9278.769
881021.657604958,7680.949,-124130.91,-42464.48,-36990.03,-66922.37,-38458.457,-79358.28,9278.036
881021.6616049559,7686.5234,-124124.76,-42469.402,-36991.863,-66922.81,-38457.48,-79354.086,9288.249
881021.6656049538,7697.2656,-124110.27,-42473.43,-36992.066,-66913.66,-38457.48,-79354.9,9291.667
881021.6696049516,7712.5654,-124096.36,-42470.99,-36990.234,-66911.87,-38458.133,-79358.93,9285.686
881021.6736049495,7727.4985,-124073.33,-42463.95,-36986.29,-66907.836,-38460.086,-79360.72,9280.64
881021.6776049474,7734.538,-124064.91,-42457.926,-36981.85,-66895.39,-38460.125,-79360.516,9280.151
881021.6816049452,7749.878,-124044.27,-42457.684,-36978.64,-66892.5,-38462.28,-79363.69,9281.047
881021.6856049431,7770.101,-124034.06,-42464.926,-36979.41,-66895.914,-38467.082,-79367.555,9275.513
881021.6896049409,7775.4316,-124040.49,-42466.88,-36979.82,-66900.96,-38466.676,-79369.55,9270.834
881021.6936049388,7777.873,-124035.69,-42466.797,-36978.312,-66898.16,-38468.1,-79372.16,9264.689
881021.6976049367,7801.3105,-124010.46,-42458.375,-36975.668,-66896.04,-38470.703,-79377.04,9257.121
881021.7016049345,7815.674,-124001.75,-42460.98,-36977.418,-66901.734,-38472.78,-79380.49,9258.261
881021.7056049324,7817.912,-124000.0,-42473.758,-36981.445,-66911.26,-38475.383,-79385.016,9249.268
881021.7096049302,7822.4287,-123991.984,-42475.832,-36977.703,-66895.55,-38474.49,-79383.016,9249.553
881021.7136049281,7836.833,-123980.555,-42471.805,-36972.414,-66882.61,-38474.812,-79382.41,9252.89
881021.717604926,7838.4604,-123977.336,-42467.285,-36969.156,-66884.69,-38474.285,-79381.88,9255.005
881021.7216049238,7834.554,-123981.734,-42467.773,-36971.438,-66882.37,-38475.547,-79383.38,9246.338
881021.7256049217,7834.88,-123983.445,-42478.312,-36976.727,-66888.875,-38479.535,-79389.41,9235.393
881021.7296049196,7832.601,-123983.61,-42478.598,-36977.297,-66887.375,-38480.715,-79389.33,9238.607
881021.7336049175,7831.787,-123984.13,-42476.277,-36973.473,-66880.695,-38478.56,-79389.77,9232.992
881021.7376049154,7832.479,-123984.664,-42477.664,-36974.938,-66890.46,-38478.883,-79391.73,9237.834
881021.7416049133,7833.8623,-123987.02,-42481.85,-36977.38,-66893.76,-38479.453,-79389.734,9248.088
881021.7456049111,7834.188,-123991.42,-42486.168,-36980.47,-66905.56,-38478.68,-79388.19,9252.441
881021.749604909,7837.972,-123995.24,-42488.08,-36981.57,-66911.79,-38481.082,-79388.67,9250.57
881021.7536049068,7839.193,-123993.29,-42485.598,-36979.41,-66897.71,-38480.875,-79384.65,9256.145
881021.7576049047,7832.6826,-123998.375,-42482.87,-36980.227,-66893.31,-38479.535,-79382.695,9261.108
881021.7616049026,7829.183,-124002.77,-42479.74,-36983.44,-66898.69,-38479.656,-79384.12,9254.68
881021.7656049004,7830.2,-124003.34,-42484.703,-36985.883,-66897.42,-38480.227,-79386.555,9252.6045
881021.7696048983,7831.9907,-123998.58,-42487.633,-36983.074,-66896.32,-38479.94,-79387.695,9249.594
881021.7736048962,7825.9277,-124008.38,-42486.086,-36983.684,-66900.72,-38481.285,-79390.1,9244.955
881021.777604894,7821.3706,-124012.945,-42483.6,-36985.434,-66897.75,-38482.668,-79392.78,9238.607
881021.7816048919,7820.272,-124014.65,-42485.965,-36985.92,-66901.33,-38483.035,-79394.62,9234.131
881021.7856048897,7818.197,-124016.6,-42487.71,-36989.664,-66911.586,-38484.54,-79397.46,9232.504
881021.7896048876,7813.1514,-124015.75,-42488.895,-36991.336,-66911.945,-38488.12,-79399.78,9229.574
881021.7936048855,7807.292,-124019.78,-42492.35,-36990.03,-66907.11,-38487.996,-79397.55,9222.738
881021.7976048833,7807.821,-124031.3,-42490.48,-36990.805,-66912.36,-38487.67,-79395.63,9222.778
881021.8016048812,7807.17,-124039.27,-42491.984,-36994.387,-66921.23,-38490.316,-79394.58,9230.0625
881021.805604879,7798.4214,-124041.875,-42499.15,-36997.234,-66926.11,-38491.984,-79393.88,9234.457
881021.8096048769,7795.7764,-124034.51,-42496.297,-36995.035,-66925.21,-38490.848,-79392.26,9235.312
881021.8136048748,7793.823,-124033.66,-42493.777,-36994.957,-66925.09,-38490.074,-79391.44,9233.887
881021.8176048726,7789.3477,-124039.88,-42494.508,-36997.76,-66921.836,-38490.766,-79391.65,9230.266
881021.8216048705,7784.2207,-124051.88,-42501.953,-37001.996,-66931.4,-38491.824,-79390.71,9238.933
881021.8256048684,7776.001,-124059.125,-42511.76,-37003.99,-66932.54,-38493.41,-79392.984,9238.647
881021.8296048662,7768.718,-124069.016,-42517.336,-37004.598,-66932.25,-38494.426,-79397.71,9229.248
881021.8336048641,7762.248,-124079.02,-42515.504,-37005.7,-66930.75,-38495.65,-79397.26,9226.278
881021.8376048619,7757.121,-124084.88,-42511.312,-37007.855,-66932.45,-38497.76,-79395.39,9230.713
881021.8416048598,7755.168,-124091.48,-42514.49,-37008.3,-66932.414,-38498.09,-79396.164,9235.352
881021.8456048577,7752.5635,-124101.41,-42525.066,-37009.36,-66934.61,-38497.965,-79395.305,9238.2
881021.8496048555,7749.7153,-124100.8,-42524.09,-37007.73,-66931.805,-38497.438,-79393.03,9240.642
881021.8536048534,7745.687,-124098.555,-42524.902,-37009.684,-66928.55,-38498.17,-79394.66,9233.317
881021.8576048512,7740.8447,-124099.49,-42522.664,-37012.37,-66926.76,-38497.316,-79393.27,9237.753
881021.8616048491,7739.177,-124105.266,-42529.625,-37015.668,-66931.805,-38499.188,-79395.63,9239.99
881021.865604847,7734.538,-124110.35,-42535.402,-37018.68,-66940.266,-38499.84,-79397.016,9241.171
881021.8696048448,7729.3296,-124114.34,-42536.703,-37017.703,-66935.18,-38500.406,-79397.75,9238.933
881021.8736048427,7724.121,-124120.734,-42538.332,-37014.61,-66925.414,-38501.914,-79399.7,9232.87
881021.8776048406,7722.738,-124120.24,-42537.312,-37013.51,-66919.234,-38502.81,-79397.75,9239.258
881021.8816048384,7718.75,-124126.305,-42538.332,-37018.68,-66928.34,-38504.07,-79400.84,9234.945
881021.8856048363,7716.2275,-124131.68,-42544.395,-37022.504,-66936.98,-38505.086,-79402.1,9230.388
881021.8896048341,7715.698,-124131.92,-42545.816,-37022.504,-66937.18,-38505.008,-79398.234,9234.009
881021.893604832,7712.1177,-124132.94,-42545.777,-37020.348,-66933.88,-38503.906,-79397.71,9233.847
881021.89760483,7706.421,-124134.24,-42545.656,-37020.67,-66938.03,-38501.87,-79394.414,9242.392
881021.9016048278,7700.9277,-124142.99,-42551.27,-37024.05,-66946.21,-38501.953,-79395.63,9243.327
881021.9056048257,7698.9746,-124152.19,-42560.465,-37029.867,-66953.29,-38505.25,-79399.5,9237.875
881021.9096048236,7696.8994,-124160.445,-42566.285,-37033.406,-66947.67,-38506.594,-79400.516,9236.369
881021.9136048214,7693.4004,-124155.484,-42562.215,-37030.6,-66947.02,-38506.43,-79399.78,9231.079
881021.9176048193,7688.5176,-124155.64,-42559.367,-37029.297,-66945.88,-38507.49,-79401.125,9229.533
881021.9216048172,7691.8135,-124158.164,-42565.188,-37029.5,-66950.89,-38508.953,-79400.39,9231.975
881021.925604815,7688.7617,-124161.664,-42570.926,-37034.344,-66956.22,-38510.785,-79400.72,9235.84
881021.9296048129,7684.2856,-124164.43,-42567.668,-37034.547,-66956.18,-38510.01,-79400.68,9234.294
881021.9336048107,7684.5703,-124161.55,-42565.758,-37033.53,-66954.67,-38510.01,-79401.695,9230.388
881021.9376048086,7680.9897,-124168.42,-42571.29,-37035.848,-66961.914,-38511.68,-79401.695,9232.829
881021.9416048065,7676.4326,-124174.36,-42580.812,-37039.676,-66967.61,-38515.098,-79404.38,9234.701
881021.9456048043,7672.8926,-124172.695,-42585.45,-37041.344,-66974.9,-38518.758,-79406.086,9233.806
881021.9496048022,7673.1772,-124172.53,-42584.27,-37038.414,-66972.82,-38519.734,-79408.57,9235.474
881021.9536048,7670.207,-124168.54,-42585.695,-37037.926,-66966.92,-38519.9,-79409.47,9228.964
881021.9576047979,7670.2476,-124165.29,-42583.254,-37037.438,-66963.46,-38521.812,-79410.28,9224.854
881021.9616047958,7671.5903,-124165.49,-42588.137,-37039.023,-66969.69,-38523.6,-79413.984,9220.907
881021.9656047936,7668.701,-124172.125,-42598.227,-37043.17,-66980.39,-38527.305,-79416.586,9228.842
881021.9696047915,7673.2993,-124169.03,-42598.594,-37042.97,-66980.43,-38530.19,-79420.414,9225.058
881021.9736047894,7674.3164,-124164.02,-42594.08,-37041.668,-66975.266,-38531.293,-79425.7,9218.222
881021.9776047872,7673.0957,-124162.97,-42591.715,-37039.88,-66976.766,-38532.39,-79425.414,9221.11
881021.9816047851,7672.5264,-124167.12,-42598.348,-37043.05,-66981.37,-38535.484,-79427.33,9216.838
881021.9856047829,7669.027,-124170.58,-42605.47,-37044.92,-66982.055,-38536.258,-79424.195,9223.1045
881021.9896047808,7668.498,-124170.05,-42601.605,-37044.11,-66980.63,-38536.746,-79422.85,9234.294
881021.9936047787,7670.207,-124163.17,-42598.55,-37043.297,-66976.97,-38539.39,-79423.914,9226.807
881021.9976047765,7669.1084,-124167.24,-42596.03,-37045.168,-66982.38,-38540.977,-79422.37,9226.604
881022.0016047744,7667.9688,-124181.64,-42599.773,-37050.375,-66987.47,-38543.785,-79425.74,9223.755
881022.0056047722,7665.8936,-124185.71,-42607.383,-37052.816,-66989.99,-38546.55,-79427.414,9225.383
881022.0096047701,7659.668,-124186.445,-42609.133,-37051.84,-66986.25,-38546.43,-79424.195,9228.638
881022.013604768,7657.715,-124182.74,-42606.406,-37050.254,-66985.15,-38545.37,-79420.984,9227.336
881022.0176047658,7653.646,-124183.39,-42609.133,-37049.48,-66981.98,-38543.99,-79417.89,9228.638
881022.0216047637,7653.402,-124186.77,-42613.61,-37051.066,-66986.58,-38546.918,-79420.125,9228.638
881022.0256047616,7657.593,-124181.64,-42616.457,-37053.836,-66995.16,-38550.09,-79424.52,9225.017
881022.0296047594,7660.482,-124183.03,-42617.027,-37054.934,-66997.73,-38553.508,-79426.35,9219.6045
881022.0336047573,7659.017,-124182.5,-42613.73,-37052.613,-66994.18,-38554.973,-79429.0,9213.949
881022.0376047551,7664.7544,-124172.94,-42609.54,-37049.36,-66984.74,-38554.65,-79428.8,9213.623
881022.041604753,7666.382,-124176.72,-42610.965,-37052.938,-66992.84,-38556.03,-79427.25,9216.553
881022.0456047509,7662.9233,-124180.586,-42617.96,-37054.04,-67001.305,-38558.39,-79423.95,9219.32
881022.0496047487,7658.4067,-124185.1,-42622.113,-37052.9,-67001.1,-38560.06,-79423.71,9217.163
881022.0536047466,7656.7383,-124189.3,-42624.023,-37055.3,-66998.25,-38562.215,-79426.15,9218.262
881022.0576047444,7659.831,-124187.586,-42621.83,-37057.047,-67000.57,-38564.21,-79425.91,9223.674
881022.0616047424,7662.435,-124183.234,-42626.305,-37056.64,-67002.445,-38564.656,-79425.01,9226.645
881022.0656047403,7661.133,-124186.69,-42634.562,-37059.164,-67005.58,-38566.12,-79424.44,9228.516
881022.0696047381,7657.3486,-124189.01,-42635.824,-37059.57,-67005.49,-38567.06,-79420.78,9232.097
881022.073604736,7658.122,-124180.055,-42629.234,-37055.91,-66999.02,-38568.2,-79421.92,9220.5
881022.0776047339,7660.726,-124175.336,-42624.39,-37054.89,-66995.0,-38567.02,-79420.33,9221.477
881022.0816047317,7661.9873,-124178.51,-42626.26,-37056.113,-66999.19,-38569.336,-79419.805,9226.074
881022.0856047296,7661.9873,-124181.6,-42632.04,-37059.855,-67005.66,-38572.062,-79419.84,9236.247
881022.0896047275,7659.709,-124187.46,-42636.273,-37062.543,-67007.53,-38572.51,-79417.36,9243.286
881022.0936047253,7656.8604,-124189.01,-42636.027,-37059.57,-67004.234,-38574.953,-79422.9,9224.569
881022.0976047232,7657.7964,-124186.41,-42631.676,-37058.758,-67006.31,-38574.992,-79424.56,9225.993
881022.101604721,7656.2095,-124190.516,-42638.47,-37061.65,-67007.29,-38576.254,-79424.85,9232.097
881022.1056047189,7653.3203,-124197.76,-42646.566,-37064.496,-67006.63,-38578.25,-79425.01,9232.87
881022.1096047168,7651.937,-124196.984,-42644.86,-37063.152,-67005.86,-38578.207,-79424.52,9229.899
881022.1136047146,7653.28,-124193.2,-42641.24,-37061.484,-67001.586,-38576.742,-79423.55,9229.818
881022.1176047125,7656.169,-124192.914,-42638.43,-37060.67,-67001.14,-38576.742,-79419.76,9231.934
881022.1216047104,7658.2847,-124199.266,-42644.168,-37065.555,-67012.086,-38580.203,-79422.734,9226.44
881022.1256047082,7658.651,-124207.12,-42651.004,-37068.81,-67018.88,-38581.992,-79426.805,9225.464
881022.1296047061,7653.8496,-124211.555,-42652.547,-37066.812,-67013.43,-38583.09,-79429.08,9225.83
881022.1336047039,7654.46,-124207.32,-42648.48,-37063.965,-67008.55,-38583.54,-79428.63,9223.511
881022.1376047018,7655.1514,-124209.03,-42644.777,-37061.81,-67007.61,-38583.09,-79424.32,9229.696
881022.1416046997,7651.6113,-124213.99,-42645.754,-37064.293,-67010.055,-38583.133,-79420.62,9236.288
881022.1456046975,7649.4956,-124215.91,-42652.06,-37068.24,-67021.52,-38585.29,-79419.92,9239.014
881022.1496046954,7647.5425,-124216.8,-42656.863,-37065.918,-67024.82,-38584.473,-79418.46,9238.7295
881022.1536046932,7642.7817,-124214.73,-42657.145,-37064.78,-67019.414,-38585.652,-79420.25,9238.485
881022.1576046911,7644.8164,-124211.555,-42654.258,-37064.37,-67016.766,-38588.625,-79419.68,9241.699
881022.161604689,7647.583,-124209.555,-42656.168,-37065.39,-67019.62,-38588.176,-79419.07,9240.275
881022.1656046868,7643.677,-124210.05,-42661.95,-37069.418,-67024.7,-38590.17,-79420.945,9232.504
881022.1696046847,7644.8164,-124211.1,-42665.57,-37069.824,-67025.64,-38591.758,-79423.305,9225.627
881022.1736046826,7645.0195,-124215.13,-42663.29,-37068.93,-67023.16,-38594.035,-79426.92,9220.622
881022.1776046804,7646.322,-124219.85,-42663.13,-37069.215,-67019.25,-38594.93,-79427.164,9228.027
881022.1816046783,7646.159,-124222.3,-42665.527,-37070.477,-67026.25,-38596.395,-79426.555,9230.307
881022.1856046761,7646.4033,-124219.52,-42666.3,-37070.477,-67029.09,-38596.477,-79425.26,9227.377
881022.189604674,7650.1875,-124211.875,-42666.992,-37070.152,-67026.41,-38596.07,-79426.96,9218.994
881022.1936046719,7650.7163,-124209.84,-42667.727,-37068.727,-67018.84,-38595.46,-79427.29,9219.89
881022.1976046697,7647.949,-124211.1,-42662.598,-37067.71,-67020.43,-38597.293,-79424.97,9227.092
881022.2016046676,7646.688,-124208.46,-42663.82,-37068.81,-67026.49,-38600.016,-79427.33,9223.552
881022.2056046654,7644.613,-124207.4,-42674.4,-37072.797,-67025.88,-38602.742,-79427.94,9221.3545
881022.2096046633,7642.6597,-124214.12,-42679.2,-37075.97,-67025.76,-38602.457,-79426.76,9219.89
881022.2136046612,7637.2886,-124217.94,-42674.48,-37075.44,-67026.82,-38601.727,-79425.5,9224.772
881022.217604659,7639.486,-124216.03,-42674.93,-37076.945,-67022.79,-38604.41,-79426.31,9227.661
881022.2216046569,7650.0244,-124208.87,-42675.703,-37077.883,-67023.766,-38606.977,-79430.5,9221.762
881022.2256046548,7649.984,-124207.484,-42678.71,-37078.53,-67028.57,-38610.35,-79434.164,9214.844
881022.2296046527,7653.9717,-124199.79,-42677.777,-37074.992,-67030.195,-38612.223,-79434.66,9212.606
881022.2336046506,7653.768,-124196.58,-42677.043,-37072.39,-67031.414,-38611.734,-79434.49,9212.932
881022.2376046485,7650.92,-124194.336,-42674.36,-37073.49,-67026.45,-38611.777,-79433.35,9218.466
881022.2416046463,7653.8496,-124194.586,-42676.23,-37075.277,-67024.78,-38611.53,-79432.05,9223.43
881022.2456046442,7653.6865,-124200.65,-42682.984,-37077.35,-67030.68,-38612.67,-79431.93,9222.534
881022.249604642,7651.2046,-124208.375,-42685.914,-37079.875,-67034.75,-38612.47,-79431.03,9223.227
881022.2536046399,7650.8384,-124211.59,-42684.57,-37078.043,-67031.82,-38613.363,-79430.914,9224.284
881022.2576046378,7650.5127,-124217.164,-42681.074,-37077.35,-67027.34,-38616.496,-79432.3,9223.796
881022.2616046356,7651.7334,-124214.766,-42685.71,-37077.92,-67030.73,-38617.105,-79433.555,9220.622
881022.2656046335,7651.571,-124214.44,-42694.867,-37080.12,-67035.28,-38616.78,-79432.74,9220.093
881022.2696046314,7648.641,-124215.13,-42695.19,-37078.574,-67030.31,-38617.188,-79431.84,9220.175
881022.2736046292,7647.624,-124217.29,-42690.27,-37077.312,-67027.75,-38617.39,-79430.42,9221.273
881022.2776046271,7649.577,-124216.88,-42687.664,-37077.637,-67027.47,-38618.938,-79428.8,9228.435
881022.2816046249,7650.0654,-124211.23,-42689.94,-37079.633,-67033.77,-38620.363,-79428.266,9231.567
881022.2856046228,7644.857,-124212.734,-42697.227,-37085.613,-67043.54,-38623.008,-79431.64,9222.168
881022.2896046207,7644.084,-124217.57,-42700.44,-37085.574,-67039.555,-38623.332,-79434.2,9217.448
881022.2936046185,7645.752,-124220.34,-42701.336,-37085.574,-67039.76,-38623.78,-79434.86,9218.832
881022.2976046164,7647.5425,-124224.37,-42701.375,-37087.566,-67045.94,-38625.043,-79432.87,9224.772
881022.3016046142,7646.8506,-124230.76,-42698.61,-37088.258,-67046.51,-38626.223,-79428.23,9234.741
881022.3056046121,7647.1357,-124229.91,-42702.8,-37088.094,-67046.47,-38626.14,-79426.84,9231.283
881022.30960461,7649.292,-124226.65,-42702.92,-37086.875,-67042.12,-38623.7,-79425.87,9225.017
881022.3136046078,7647.99,-124218.34,-42704.305,-37087.28,-67032.72,-38623.535,-79428.06,9219.116
881022.3176046057,7647.868,-124217.37,-42709.11,-37088.055,-67025.516,-38625.164,-79433.92,9211.955
881022.3216046036,7648.8853,-124222.09,-42710.125,-37090.82,-67026.82,-38625.53,-79436.93,9208.74
881022.3256046014,7649.9434,-124223.8,-42716.637,-37095.055,-67028.445,-38622.477,-79435.75,9217.001
881022.3296045993,7648.3154,-124231.29,-42722.86,-37094.28,-67017.3,-38618.855,-79437.09,9211.792
881022.3336045971,7646.5254,-124233.4,-42717.33,-37094.566,-67006.06,-38617.066,-79442.836,9198.364
881022.337604595,7647.1763,-124233.89,-42714.234,-37094.605,-66999.15,-38612.754,-79441.86,9202.597
881022.3416045929,7645.508,-124241.055,-42719.32,-37098.105,-66998.62,-38609.58,-79439.945,9205.16
881022.3456045907,7645.996,-124248.54,-42725.3,-37101.523,-66996.26,-38606.934,-79440.35,9201.213
881022.3496045886,7645.508,-124247.03,-42720.99,-37100.26,-66994.39,-38602.297,-79442.1,9201.091
881022.3536045864,7646.81,-124236.66,-42723.023,-37099.855,-66991.664,-38598.27,-79443.52,9196.737
881022.3576045843,7650.106,-124234.87,-42722.82,-37100.223,-66990.64,-38593.914,-79443.61,9197.348
881022.3616045822,7651.408,-124235.84,-42723.43,-37103.844,-66991.58,-38592.082,-79442.22,9201.579
881022.36560458,7651.408,-124237.8,-42724.895,-37108.4,-67000.086,-38589.56,-79440.48,9205.7295
881022.3696045779,7654.582,-124232.67,-42722.37,-37106.406,-66996.22,-38586.1,-79441.61,9204.468
881022.3736045758,7657.7964,-124222.336,-42721.723,-37105.51,-66988.445,-38584.39,-79447.31,9193.075
881022.3776045736,7659.424,-124216.234,-42722.047,-37105.957,-66988.41,-38583.05,-79447.39,9194.58
881022.3816045715,7660.6445,-124218.1,-42720.83,-37105.797,-66991.54,-38579.754,-79444.42,9198.08
881022.3856045693,7661.2144,-124220.18,-42726.93,-37107.87,-66989.586,-38577.965,-79443.61,9200.48
