timestamp,Fp1,Fp2,F3,Fz,F4,Cz,Pz,Oz
970816.9335801167,-25433.432,-21639.16,-24199.383,-17780.07,-1044.7592,-22450.928,-8733.603,-1031.657
970816.9375801141,-25430.787,-21634.93,-24196.127,-17777.955,-1040.7308,-22449.707,-8726.97,-1020.3858
970816.9415801115,-25429.078,-21632.732,-24194.012,-17778.32,-1037.4349,-22448.162,-8721.069,-1012.085
970816.9455801089,-25428.672,-21631.43,-24194.785,-17777.914,-1036.4584,-22446.533,-8717.814,-1010.37604
970816.9495801063,-25428.346,-21631.918,-24195.03,-17777.996,-1038.4929,-22446.045,-8713.827,-1008.1788
970816.9535801037,-25431.072,-21635.336,-24195.924,-17779.744,-1040.5273,-22446.941,-8713.827,-1009.3995
970816.9575801012,-25434.979,-21638.55,-24198.975,-17780.64,-1042.1143,-22447.186,-8715.292,-1014.4857
970816.9615800986,-25437.176,-21641.398,-24202.027,-17781.17,-1041.0156,-22448.203,-8715.454,-1012.1664
970816.965580096,-25438.72,-21641.113,-24202.557,-17782.064,-1039.5916,-22448.61,-8716.269,-1004.3539
970816.9695800934,-25437.176,-21637.615,-24201.945,-17780.926,-1037.2314,-22448.771,-8714.519,-1002.88904
970816.9735800908,-25434.45,-21633.424,-24204.998,-17780.926,-1038.2894,-22448.568,-8712.932,-1003.3773
970816.9775800883,-25435.752,-21634.197,-24205.201,-17782.023,-1038.4521,-22449.098,-8712.158,-1002.8483
970816.9815800857,-25436.688,-21635.498,-24202.148,-17781.576,-1035.4412,-22447.998,-8711.833,-999.349
970816.9855800831,-25436.564,-21636.11,-24203.654,-17781.047,-1036.1736,-22446.574,-8713.217,-998.0876
970816.9895800805,-25435.14,-21634.97,-24201.54,-17779.95,-1033.5287,-22445.354,-8713.176,-1005.33044
970816.9935800779,-25437.053,-21636.598,-24200.684,-17781.738,-1036.2957,-22448.447,-8716.675,-1014.974
970816.9975800753,-25437.46,-21636.475,-24201.01,-17783.895,-1037.0687,-22449.219,-8715.292,-1011.5153
970817.0015800728,-25437.338,-21636.027,-24201.498,-17784.588,-1035.2377,-22449.18,-8710.327,-1003.0518
970817.0055800702,-25435.71,-21634.482,-24200.928,-17783.855,-1036.906,-22448.08,-8708.008,-1002.3194
970817.0095800676,-25432.21,-21629.68,-24198.162,-17781.332,-1036.6211,-22447.795,-8708.7,-1004.3946
970817.013580065,-25427.41,-21626.629,-24195.883,-17778.973,-1034.5867,-22447.674,-8708.496,-1003.4587
970817.0175800624,-25422.771,-21623.496,-24191.57,-17777.223,-1031.0466,-22449.18,-8706.95,-1003.78424
970817.0215800598,-25422.201,-21621.95,-24190.918,-17776.043,-1029.948,-22450.115,-8707.968,-1010.70154
970817.0255800573,-25422.242,-21621.787,-24189.129,-17774.658,-1030.4363,-22450.236,-8714.03,-1015.3809
970817.0295800547,-25425.01,-21623.496,-24192.668,-17774.414,-1033.2439,-22450.807,-8720.337,-1022.6644
970817.0335800521,-25429.688,-21629.314,-24196.453,-17777.182,-1036.3363,-22454.102,-8728.557,-1032.7556
970817.0375800495,-25429.729,-21628.379,-24195.436,-17778.484,-1036.3363,-22456.422,-8732.87,-1035.726
970817.0415800469,-25432.17,-21627.97,-24194.988,-17779.256,-1037.3535,-22457.072,-8733.276,-1034.3832
970817.0455800443,-25430.46,-21627.482,-24192.953,-17777.02,-1034.0984,-22454.713,-8730.103,-1027.4252
970817.0495800418,-25422.04,-21621.135,-24188.682,-17774.822,-1030.9246,-22452.312,-8724.65,-1022.17615
970817.0535800392,-25415.0,-21616.375,-24184.164,-17772.258,-1028.4832,-22450.684,-8719.971,-1025.35
970817.0575800366,-25412.68,-21613.404,-24181.275,-17771.037,-1025.8383,-22449.586,-8716.146,-1020.99615
970817.061580034,-25415.527,-21617.188,-24181.885,-17772.625,-1026.123,-22450.074,-8715.576,-1016.1947
970817.0655800314,-25417.36,-21619.834,-24187.338,-17774.334,-1029.3376,-22450.195,-8717.001,-1015.0147
970817.0695800288,-25420.371,-21620.322,-24191.65,-17777.303,-1033.8949,-22451.904,-8720.581,-1020.7113
970817.0735800263,-25424.725,-21623.496,-24196.127,-17778.2,-1034.79,-22453.574,-8723.837,-1030.1514
970817.0775800237,-25427.734,-21627.158,-24197.186,-17777.223,-1034.8308,-22454.63,-8722.209,-1026.408
970817.0815800211,-25424.928,-21625.408,-24194.906,-17776.45,-1033.3252,-22453.37,-8719.482,-1023.112
970817.0855800185,-25421.875,-21623.535,-24194.621,-17774.984,-1030.6396,-22452.068,-8714.885,-1014.974
970817.0895800159,-25423.748,-21625.732,-24196.29,-17774.537,-1033.366,-22451.377,-8713.949,-1011.59674
970817.0935800134,-25423.463,-21624.146,-24197.998,-17772.746,-1034.0984,-22448.73,-8713.501,-1008.13806
970817.0975800108,-25421.916,-21622.803,-24196.9,-17773.152,-1032.5115,-22446.33,-8709.351,-1004.43524
970817.1015800082,-25421.63,-21623.008,-24196.29,-17775.555,-1030.8838,-22446.574,-8705.282,-1004.84216
970817.1055800056,-25417.604,-21620.89,-24192.22,-17774.09,-1027.832,-22444.865,-8703.207,-999.2269
970817.109580003,-25417.521,-21619.264,-24191.244,-17772.176,-1026.4893,-22444.5,-8705.078,-993.7744
970817.1135800004,-25415.812,-21618.002,-24193.197,-17771.566,-1026.8555,-22445.557,-8706.869,-1000.0814
970817.1175799979,-25413.656,-21614.87,-24189.902,-17770.184,-1023.8444,-22445.15,-8703.735,-996.0124
970817.1215799953,-25413.982,-21615.643,-24186.85,-17770.264,-1021.6065,-22442.912,-8699.626,-989.2578
970817.1255799927,-25415.527,-21616.252,-24186.646,-17771.443,-1024.8617,-22442.1,-8699.829,-989.86816
970817.12957999,-25416.748,-21618.125,-24192.139,-17773.479,-1030.7617,-22446.127,-8703.166,-991.57715
970817.1335799875,-25413.86,-21615.398,-24193.93,-17773.438,-1026.0417,-22446.86,-8701.457,-986.8571
970817.1375799848,-25413.291,-21614.137,-24191.162,-17773.357,-1021.36237,-22444.297,-8693.115,-971.9238
970817.1415799824,-25414.55,-21613.69,-24188.193,-17774.658,-1017.5375,-22440.879,-8687.988,-964.88446
970817.1455799798,-25412.273,-21611.248,-24189.902,-17777.182,-1015.9913,-22441.57,-8689.738,-971.2321
970817.1495799772,-25412.273,-21611.533,-24191.203,-17778.28,-1018.2292,-22442.018,-8689.86,-970.94727
970817.1535799745,-25409.994,-21607.871,-24188.6,-17777.873,-1021.5658,-22443.115,-8691.691,-975.99286
970817.157579972,-25410.238,-21607.83,-24183.27,-17777.752,-1021.6065,-22443.482,-8690.878,-975.8708
970817.1615799693,-25414.47,-21609.54,-24180.746,-17777.303,-1019.40924,-22444.053,-8693.319,-975.9115
970817.1655799669,-25411.744,-21602.947,-24181.438,-17775.35,-1015.9913,-22443.809,-8697.144,-980.63153
970817.1695799642,-25400.352,-21598.553,-24183.473,-17774.21,-1018.4327,-22442.588,-8697.958,-988.0371
970817.1735799616,-25400.635,-21603.68,-24182.537,-17776.082,-1025.472,-22442.383,-8698.69,-989.99023
970817.177579959,-25404.826,-21609.092,-24181.072,-17778.729,-1028.8086,-22442.262,-8699.667,-988.1185
970817.1815799564,-25406.535,-21612.102,-24180.746,-17780.885,-1030.5176,-22440.756,-8697.348,-980.5502
970817.185579954,-25408.814,-21613.607,-24180.787,-17781.006,-1028.6052,-22438.152,-8693.4,-975.46387
970817.1895799513,-25409.668,-21610.88,-24184.043,-17781.453,-1029.0935,-22435.955,-8692.383,-975.8301
970817.1935799487,-25410.156,-21611.898,-24184.408,-17783.203,-1030.9246,-22435.264,-8694.011,-980.50946
970817.1975799461,-25411.582,-21617.188,-24182.74,-17784.18,-1032.308,-22435.955,-8695.435,-986.0026
970817.2015799435,-25413.86,-21621.135,-24183.39,-17786.336,-1035.6445,-22435.791,-8699.504,-988.81024
970817.2055799409,-25414.186,-21621.055,-24184.205,-17785.889,-1039.0625,-22434.938,-8701.742,-991.1703
970817.2095799384,-25414.389,-21619.549,-24188.682,-17784.303,-1039.917,-22435.1,-8700.439,-993.73376
970817.2135799358,-25413.25,-21617.188,-24189.332,-17783.773,-1039.3066,-22434.326,-8695.435,-991.08887
970817.2175799332,-25411.621,-21615.52,-24191.326,-17784.18,-1035.4412,-22433.799,-8693.197,-986.20605
970817.2215799306,-25412.842,-21616.049,-24195.924,-17785.115,-1030.1107,-22432.414,-8691.569,-979.8991
970817.225579928,-25417.36,-21618.205,-24194.541,-17785.238,-1029.2156,-22434.002,-8695.354,-984.98535
970817.2295799254,-25420.777,-21619.264,-24196.006,-17785.36,-1029.948,-22436.158,-8700.358,-991.9027
970817.2335799229,-25424.033,-21623.496,-24201.945,-17787.354,-1033.7728,-22436.89,-8702.393,-993.8965
970817.2375799203,-25426.84,-21626.22,-24199.383,-17786.662,-1038.2894,-22438.314,-8704.0205,-997.111
970817.2415799177,-25426.799,-21626.994,-24196.209,-17785.076,-1037.6791,-22441.082,-8706.259,-996.7855
970817.2455799151,-25425.742,-21628.785,-24193.564,-17783.53,-1036.6211,-22441.406,-8707.357,-995.80896
970817.2495799125,-25424.316,-21631.023,-24190.023,-17781.25,-1037.2722,-22440.838,-8708.09,-998.37244
970817.2535799099,-25424.766,-21631.553,-24189.332,-17780.477,-1034.2205,-22442.22,-8708.659,-1002.36005
970817.2575799074,-25424.154,-21626.018,-24190.635,-17779.785,-1034.3425,-22442.383,-8709.595,-1004.2318
970817.2615799048,-25425.701,-21625.164,-24192.344,-17781.535,-1035.4818,-22441.814,-8711.874,-1001.7497
970817.2655799022,-25427.734,-21628.094,-24192.994,-17781.414,-1034.2611,-22441.041,-8712.851,-998.4945
970817.2695798996,-25424.766,-21628.256,-24193.93,-17781.332,-1032.3894,-22442.383,-8713.542,-1003.3773
970817.273579897,-25424.928,-21630.371,-24193.97,-17782.838,-1032.8777,-22443.28,-8712.443,-1010.0912
970817.2775798945,-25427.002,-21632.977,-24193.28,-17785.035,-1031.3721,-22441.406,-8706.909,-1007.08014
970817.2815798919,-25424.725,-21629.314,-24189.738,-17783.895,-1028.1576,-22439.25,-8699.341,-998.291
970817.2855798893,-25424.521,-21627.035,-24187.867,-17782.635,-1026.9369,-22437.582,-8695.3125,-994.7917
970817.2895798867,-25425.945,-21627.564,-24188.965,-17783.285,-1028.6459,-22437.379,-8694.906,-993.7744
970817.2935798841,-25425.863,-21628.215,-24190.146,-17783.977,-1032.8777,-22438.926,-8698.161,-999.95935
970817.2975798815,-25426.27,-21631.309,-24185.873,-17783.244,-1035.197,-22439.494,-8701.05,-1009.68427
970817.301579879,-25425.293,-21632.447,-24185.059,-17781.006,-1029.1748,-22438.6,-8699.789,-1001.8311
970817.3055798764,-25424.44,-21630.494,-24184.855,-17780.885,-1030.3549,-22439.941,-8697.185,-993.8965
970817.3095798738,-25425.457,-21630.291,-24181.52,-17781.941,-1034.0984,-22440.674,-8700.073,-996.25653
970817.3135798712,-25422.648,-21629.762,-24181.275,-17782.146,-1032.9998,-22440.553,-8701.132,-998.16895
970817.3175798686,-25423.137,-21628.418,-24180.787,-17781.658,-1029.419,-22440.756,-8699.748,-997.15173
970817.321579866,-25424.154,-21631.104,-24178.184,-17782.674,-1028.4017,-22439.861,-8697.754,-991.333
970817.3255798635,-25423.422,-21628.541,-24177.166,-17780.193,-1025.6348,-22437.867,-8697.307,-990.8041
970817.3295798609,-25425.293,-21625.652,-24176.963,-17778.035,-1024.0072,-22437.297,-8700.806,-1000.2035
970817.3335798583,-25425.334,-21627.646,-24177.531,-17778.484,-1025.5941,-22438.518,-8704.509,-1007.3649
970817.3375798557,-25427.94,-21629.639,-24181.193,-17780.72,-1025.4314,-22439.78,-8705.485,-1006.7139
970817.3415798531,-25433.229,-21631.633,-24184.775,-17782.635,-1026.1638,-22441.082,-8702.8,-1002.8077
970817.3455798505,-25439.25,-21633.465,-24184.814,-17784.344,-1028.1576,-22442.668,-8703.573,-1004.3132
970817.349579848,-25439.902,-21634.645,-24185.832,-17784.465,-1028.0355,-22443.482,-8707.357,-1008.62634
970817.3535798454,-25431.64,-21632.568,-24186.809,-17783.855,-1024.4548,-22442.994,-8704.59,-1007.1615
970817.3575798428,-25425.334,-21628.785,-24186.361,-17783.082,-1022.6237,-22441.162,-8700.847,-1007.3243
970817.3615798402,-25425.537,-21628.867,-24186.484,-17784.465,-1022.90857,-22440.227,-8698.608,-1004.2725
970817.3655798376,-25429.525,-21630.088,-24186.2,-17785.889,-1025.7976,-22439.941,-8696.818,-998.9828
970817.369579835,-25430.34,-21629.518,-24186.646,-17786.377,-1030.5176,-22441.447,-8696.452,-1001.058
970817.3735798325,-25430.664,-21626.629,-24185.426,-17784.465,-1030.2734,-22440.838,-8695.435,-1004.10974
970817.3775798299,-25431.275,-21624.797,-24184.246,-17783.57,-1026.7742,-22440.227,-8693.604,-996.2158
970817.3815798273,-25425.172,-21623.373,-24185.467,-17783.367,-1026.2045,-22441.041,-8696.371,-1001.4242
970817.3855798247,-25421.184,-21616.781,-24183.473,-17780.314,-1026.123,-22440.674,-8694.54,-1001.4649
970817.3895798221,-25415.324,-21608.562,-24180.46,-17778.158,-1019.69403,-22440.838,-8693.034,-1001.7904
970817.3935798196,-25411.133,-21603.639,-24178.428,-17776.45,-1019.043,-22442.465,-8694.743,-1005.33044
970817.397579817,-25407.879,-21599.0,-24176.637,-17775.188,-1019.5313,-22442.75,-8694.824,-1003.8656
970817.4015798144,-25407.35,-21599.406,-24175.986,-17775.92,-1018.1071,-22444.703,-8695.842,-997.68066
970817.4055798118,-25403.32,-21594.28,-24172.486,-17773.682,-1014.5671,-22446.006,-8697.104,-993.9372
970817.4095798092,-25401.123,-21588.543,-24173.951,-17771.281,-1011.96295,-22445.842,-8698.486,-996.3786
970817.4135798066,-25403.32,-21596.152,-24175.742,-17771.973,-1013.0616,-22446.453,-8698.73,-997.5586
970817.4175798041,-25399.822,-21591.229,-24175.13,-17772.99,-1008.545,-22446.168,-8696.249,-993.36755
970817.4215798015,-25399.334,-21588.908,-24177.207,-17774.129,-1009.35876,-22446.371,-8693.034,-987.42676
970817.4255797989,-25392.742,-21580.771,-24174.48,-17772.664,-1007.44635,-22446.738,-8692.912,-990.07166
970817.4295797963,-25383.057,-21572.836,-24171.672,-17771.281,-1006.836,-22446.25,-8692.017,-991.9027
970817.4335797937,-25377.727,-21568.686,-24168.54,-17770.428,-1009.2774,-22445.312,-8690.552,-988.5661
970817.4375797911,-25371.258,-21564.697,-24163.25,-17770.875,-1005.33044,-22444.5,-8690.39,-987.0199
970817.4415797886,-25362.998,-21555.34,-24163.656,-17770.467,-999.2269,-22445.842,-8694.499,-991.5365
970817.445579786,-25360.596,-21549.643,-24163.047,-17770.955,-998.53516,-22445.232,-8695.639,-993.4082
970817.4495797834,-25355.266,-21547.08,-24162.395,-17772.096,-1001.4242,-22443.727,-8697.226,-1001.34283
970817.4535797808,-25354.371,-21548.545,-24161.906,-17772.87,-1006.1036,-22444.541,-8698.935,-1002.1566
970817.4575797782,-25347.941,-21537.762,-24161.133,-17772.908,-1003.0518,-22445.15,-8696.533,-993.65234
970817.4615797756,-25337.281,-21527.549,-24156.535,-17772.014,-998.37244,-22443.768,-8691.447,-984.2529
970817.4655797731,-25334.717,-21529.217,-24153.605,-17770.834,-998.4131,-22442.465,-8688.477,-981.8115
970817.4695797705,-25323.691,-21525.229,-24150.676,-17768.025,-1000.4069,-22442.627,-8692.668,-992.0654
970817.4735797679,-25318.035,-21519.654,-24149.7,-17767.293,-1000.3663,-22445.842,-8693.93,-999.59314
970817.4775797653,-25317.506,-21516.887,-24150.31,-17766.969,-997.80273,-22446.371,-8693.726,-999.47107
970817.4815797627,-25312.135,-21511.271,-24151.572,-17767.904,-997.80273,-22449.18,-8695.679,-1002.6449
970817.4855797602,-25310.71,-21511.027,-24150.025,-17767.986,-1000.7325,-22450.928,-8695.639,-1002.8077
970817.4895797576,-25307.781,-21507.65,-24150.514,-17767.213,-1002.6449,-22452.11,-8700.48,-1006.1036
970817.493579755,-25308.432,-21507.203,-24152.1,-17766.602,-1002.2787,-22453.045,-8703.451,-1011.8002
970817.4975797524,-25304.12,-21504.477,-24149.334,-17764.73,-1000.9359,-22455.934,-8705.282,-1013.9567
970817.5015797497,-25303.143,-21504.314,-24149.658,-17764.445,-1001.9125,-22456.422,-8703.9795,-1008.3415
970817.5055797471,-25305.42,-21505.371,-24155.438,-17767.578,-1005.65594,-22455.852,-8703.573,-1006.1036
970817.5095797447,-25298.992,-21500.773,-24155.234,-17766.887,-1003.418,-22456.422,-8707.642,-1012.0036
970817.513579742,-25296.104,-21499.473,-24154.664,-17763.348,-1002.6856,-22458.578,-8708.781,-1012.77673
970817.5175797394,-25295.94,-21500.123,-24153.89,-17762.086,-1001.3835,-22459.596,-8709.229,-1013.99744
970817.5215797368,-25292.441,-21495.77,-24150.596,-17762.736,-998.90137,-22460.613,-8714.804,-1016.39813
970817.5255797342,-25292.197,-21492.31,-24151.531,-17762.492,-997.64,-22460.37,-8719.035,-1020.1823
970817.5295797316,-25292.115,-21490.316,-24153.076,-17762.451,-996.8262,-22460.693,-8720.825,-1018.51404
970817.5335797291,-25291.016,-21487.957,-24150.473,-17761.11,-995.07654,-22462.037,-8721.802,-1018.3106
970817.5375797265,-25289.062,-21486.37,-24148.072,-17760.865,-993.4896,-22462.932,-8725.139,-1021.1182
970817.5415797239,-25284.018,-21485.922,-24148.072,-17761.312,-995.6869,-22463.217,-8726.359,-1018.71747
970817.5455797213,-25283.244,-21485.23,-24146.852,-17760.662,-996.58203,-22463.828,-8728.557,-1017.61884
970817.5495797187,-25283.488,-21483.928,-24149.049,-17759.562,-996.45996,-22465.414,-8729.614,-1018.6361
970817.5535797161,-25283.244,-21481.08,-24147.91,-17758.465,-992.51306,-22466.146,-8729.004,-1019.9789
970817.5575797136,-25280.355,-21477.092,-24145.387,-17758.424,-988.973,-22466.229,-8728.027,-1021.0775
970817.561579711,-25274.21,-21472.453,-24140.38,-17757.936,-985.3923,-22464.844,-8726.196,-1014.8519
970817.5655797084,-25275.758,-21472.332,-24144.125,-17757.65,-984.7412,-22462.973,-8724.854,-1011.1898
970817.5695797058,-25274.13,-21470.094,-24147.096,-17757.488,-985.51434,-22462.688,-8724.406,-1014.89264
970817.5735797032,-25273.56,-21470.908,-24147.422,-17757.936,-989.4613,-22463.217,-8723.349,-1011.8409
970817.5775797007,-25274.09,-21470.744,-24145.428,-17756.795,-989.0137,-22462.852,-8723.389,-1013.4278
970817.5815796981,-25271.973,-21468.67,-24141.48,-17755.086,-985.7178,-22461.549,-8722.616,-1014.40436
970817.5855796955,-25271.24,-21468.873,-24141.277,-17756.592,-987.95575,-22462.402,-8720.378,-1008.8705
970817.5895796929,-25272.46,-21470.826,-24143.352,-17756.795,-988.85095,-22462.525,-8721.884,-1016.8864
970817.5935796903,-25274.21,-21468.955,-24142.701,-17757.568,-988.2406,-22462.646,-8724.813,-1023.641
970817.5975796877,-25268.76,-21465.17,-24140.504,-17759.36,-986.40955,-22463.014,-8722.168,-1019.9382
970817.6015796852,-25265.137,-21464.805,-24136.475,-17760.54,-983.9274,-22460.49,-8716.391,-1009.2774
970817.6055796826,-25266.154,-21468.914,-24132.773,-17760.092,-985.35156,-22456.422,-8710.531,-1005.28973
970817.60957968,-25269.41,-21472.78,-24134.197,-17762.33,-988.6882,-22455.322,-8710.205,-1006.95807
970817.6135796774,-25274.008,-21477.418,-24137.29,-17764.568,-992.47235,-22456.299,-8712.402,-1008.7891
970817.6175796748,-25277.467,-21480.348,-24141.236,-17766.072,-993.32684,-22458.172,-8714.682,-1009.725
970817.6215796722,-25281.494,-21484.213,-24146.16,-17766.521,-996.1752,-22458.457,-8714.763,-1005.69666
970817.6255796697,-25278.809,-21482.26,-24144.248,-17765.3,-994.7917,-22456.625,-8716.96,-1003.6622
970817.6295796671,-25272.666,-21477.336,-24138.633,-17763.266,-989.21716,-22455.934,-8720.825,-1009.9691
970817.6335796645,-25272.666,-21477.336,-24139.08,-17764.812,-990.43787,-22456.625,-8720.988,-1014.8112
970817.6375796619,-25277.344,-21478.436,-24139.854,-17767.537,-992.2689,-22455.12,-8716.513,-1011.02704
970817.6415796593,-25274.822,-21479.453,-24134.889,-17768.434,-990.8447,-22451.66,-8712.24,-1000.9766
970817.6455796567,-25273.398,-21480.713,-24134.238,-17767.781,-989.3799,-22449.79,-8711.833,-999.5117
970817.6495796542,-25273.846,-21476.604,-24137.98,-17767.904,-986.40955,-22449.79,-8715.17,-1008.1788
970817.6535796516,-25274.496,-21477.824,-24139.365,-17766.969,-989.0544,-22450.562,-8717.692,-1014.68915
970817.657579649,-25277.426,-21480.104,-24140.504,-17768.148,-989.4206,-22451.54,-8717.001,-1017.9037
970817.6615796464,-25276.938,-21479.33,-24138.836,-17767.701,-985.02606,-22451.336,-8715.454,-1013.9567
970817.6655796438,-25272.543,-21475.994,-24137.004,-17766.725,-981.32324,-22452.88,-8715.861,-1008.99255
970817.6695796412,-25272.422,-21476.686,-24138.836,-17767.822,-984.375,-22453.045,-8714.111,-1012.736
970817.6735796387,-25273.764,-21476.28,-24138.348,-17766.969,-983.5205,-22450.074,-8706.909,-1006.9987
970817.6775796361,-25275.432,-21474.65,-24136.639,-17766.113,-981.1605,-22448.527,-8703.532,-998.0469
970817.6815796335,-25270.549,-21470.623,-24134.889,-17764.324,-981.32324,-22449.098,-8702.2705,-994.6696
970817.6855796309,-25264.69,-21468.506,-24134.36,-17764.324,-982.4219,-22449.3,-8702.475,-992.14685
970817.6895796283,-25268.596,-21471.559,-24134.604,-17764.324,-982.666,-22452.516,-8711.386,-1000.2035
970817.6935796258,-25268.84,-21471.518,-24134.807,-17764.527,-983.43915,-22455.69,-8719.523,-1016.3168
970817.6975796232,-25266.643,-21470.176,-24134.277,-17764.283,-982.2998,-22457.031,-8722.494,-1024.292
970817.7015796206,-25269.613,-21467.45,-24133.545,-17762.736,-978.55634,-22455.283,-8723.1045,-1024.6582
970817.705579618,-25272.217,-21467.814,-24135.01,-17763.754,-977.2949,-22455.322,-8719.6045,-1020.3451
970817.7095796154,-25274.7,-21469.523,-24134.4,-17764.04,-977.74255,-22455.486,-8719.36,-1015.6657
970817.7135796128,-25273.072,-21472.047,-24133.75,-17763.63,-979.5736,-22455.322,-8718.344,-1011.6781
970817.7175796103,-25268.922,-21472.453,-24130.494,-17764.12,-980.2246,-22454.59,-8714.885,-1007.1615
970817.7215796077,-25266.562,-21473.268,-24126.953,-17762.86,-979.4922,-22452.068,-8713.379,-1005.2084
970817.7255796051,-25266.521,-21474.814,-24124.676,-17763.795,-983.96814,-22452.068,-8714.396,-1007.73114
970817.7295796025,-25271.525,-21479.209,-24128.785,-17764.893,-987.2233,-22451.945,-8716.269,-1010.21326
970817.7335795999,-25276.49,-21482.219,-24135.336,-17767.172,-987.6709,-22452.76,-8717.529,-1010.8643
970817.7375795973,-25280.803,-21485.678,-24140.178,-17768.025,-985.7585,-22454.266,-8715.983,-1011.7188
970817.7415795948,-25280.07,-21485.23,-24135.703,-17766.887,-983.84607,-22455.607,-8715.861,-1011.92224
970817.7455795922,-25281.576,-21484.092,-24132.488,-17767.01,-982.54395,-22455.322,-8718.71,-1013.46844
970817.7495795896,-25277.873,-21479.533,-24134.115,-17765.666,-979.8584,-22454.875,-8721.069,-1019.73474
970817.753579587,-25269.613,-21473.268,-24130.82,-17763.875,-979.0446,-22454.102,-8721.558,-1023.1527
970817.7575795844,-25272.299,-21479.941,-24132.365,-17765.016,-984.33435,-22453.086,-8719.727,-1018.06647
970817.7615795818,-25275.025,-21485.8,-24133.18,-17768.514,-987.63025,-22451.54,-8716.064,-1004.51666
970817.7655795793,-25272.096,-21480.957,-24129.803,-17768.678,-986.20605,-22451.172,-8715.536,-1001.4649
970817.7695795767,-25267.66,-21473.877,-24128.5,-17768.84,-984.7412,-22452.637,-8715.82,-1002.6856
970817.7735795741,-25267.09,-21473.43,-24132.041,-17770.549,-985.0668,-22453.004,-8712.199,-1000.529
970817.7775795715,-25265.545,-21475.953,-24131.877,-17770.223,-983.724,-22451.783,-8709.188,-999.91864
970817.7815795689,-25265.951,-21474.65,-24132.365,-17768.19,-978.75977,-22448.406,-8705.7705,-998.37244
970817.7855795664,-25264.648,-21468.75,-24130.82,-17765.016,-974.73145,-22448.08,-8703.9795,-994.01855
970817.7895795638,-25262.451,-21465.537,-24128.094,-17762.94,-975.057,-22448.936,-8706.991,-998.4131
970817.7935795612,-25267.986,-21471.191,-24128.662,-17765.34,-980.99774,-22451.621,-8710.612,-1002.92975
970817.7975795586,-25267.578,-21473.47,-24127.361,-17767.172,-983.96814,-22452.516,-8708.781,-1001.0173
970817.801579556,-25264.121,-21471.232,-24131.145,-17767.945,-983.5205,-22451.336,-8707.438,-997.80273
970817.8055795534,-25267.904,-21477.215,-24131.145,-17768.963,-985.3923,-22449.098,-8708.374,-997.80273
970817.8095795509,-25270.387,-21481.201,-24136.557,-17771.363,-986.36884,-22451.133,-8711.264,-1000.7325
970817.8135795483,-25269.695,-21478.436,-24132.488,-17773.52,-985.7585,-22451.621,-8712.646,-998.90137
970817.8175795457,-25267.578,-21475.018,-24126.018,-17774.21,-982.3812,-22451.336,-8712.036,-998.8607
970817.8215795431,-25265.016,-21471.518,-24123.21,-17773.805,-982.0964,-22451.01,-8709.636,-991.6992
970817.8255795405,-25265.91,-21471.111,-24122.885,-17773.885,-980.2653,-22450.236,-8707.194,-986.8978
970817.8295795379,-25267.578,-21470.176,-24124.797,-17773.234,-981.32324,-22452.271,-8707.724,-990.3158
970817.8335795354,-25271.445,-21474.285,-24126.873,-17774.496,-984.2529,-22453.451,-8706.787,-986.9792
970817.8375795328,-25272.625,-21477.092,-24126.262,-17775.96,-982.9916,-22454.51,-8711.304,-998.90137
970817.8415795302,-25276.531,-21481.65,-24125.814,-17776.979,-982.3812,-22452.516,-8710.9375,-997.80273
970817.8455795276,-25278.605,-21484.213,-24125.123,-17777.182,-983.3578,-22451.824,-8713.298,-995.8496
970817.849579525,-25274.13,-21477.744,-24125.814,-17773.885,-978.8005,-22452.475,-8720.622,-1007.24286
970817.8535795223,-25275.514,-21476.727,-24128.297,-17773.764,-977.5798,-22455.404,-8728.109,-1019.3685
970817.8575795199,-25276.855,-21477.05,-24128.906,-17772.87,-977.946,-22456.625,-8728.598,-1019.1244
970817.8615795173,-25274.496,-21472.9,-24124.146,-17772.096,-978.8005,-22456.34,-8723.145,-1013.67194
970817.8655795146,-25275.84,-21473.674,-24124.023,-17773.275,-977.8239,-22454.266,-8717.611,-1002.6449
970817.869579512,-25274.943,-21474.895,-24124.512,-17774.984,-976.52185,-22454.021,-8711.142,-996.29724
970817.8735795094,-25274.537,-21474.041,-24125.041,-17775.025,-976.6439,-22452.475,-8707.886,-995.8903
970817.877579507,-25273.316,-21470.582,-24124.635,-17775.025,-974.1618,-22451.05,-8705.893,-993.69305
970817.8815795043,-25274.74,-21469.768,-24123.617,-17774.902,-970.4997,-22450.807,-8704.387,-985.6771
970817.8855795017,-25278.281,-21472.535,-24128.053,-17773.072,-970.62177,-22450.645,-8704.59,-979.65497
970817.8895794991,-25272.87,-21469.523,-24124.635,-17773.193,-971.2728,-22452.434,-8708.537,-984.98535
970817.8935794965,-25273.887,-21472.25,-24123.576,-17776.45,-973.22595,-22454.63,-8708.944,-985.55505
970817.8975794939,-25279.95,-21476.848,-24123.088,-17777.955,-974.40594,-22455.283,-8707.846,-984.904
970817.9015794914,-25279.297,-21474.488,-24121.176,-17776.979,-972.9818,-22454.062,-8706.015,-980.10254
970817.9055794888,-25284.059,-21477.133,-24126.832,-17778.32,-973.4701,-22452.76,-8708.578,-984.4971
970817.9095794862,-25291.992,-21485.148,-24130.576,-17781.576,-979.6957,-22453.492,-8713.705,-996.3379
970817.9135794836,-25294.434,-21489.828,-24126.22,-17786.215,-988.7289,-22455.078,-8721.069,-1004.5573
970817.917579481,-25292.197,-21489.258,-24121.176,-17785.645,-985.47363,-22453.695,-8720.134,-998.9421
970817.9215794784,-25287.436,-21484.742,-24114.34,-17781.494,-977.946,-22452.068,-8718.384,-997.7214
970817.9255794759,-25282.676,-21479.045,-24115.967,-17776.938,-973.2666,-22450.645,-8716.879,-1000.9766
970817.9295794733,-25279.094,-21474.447,-24116.252,-17775.96,-970.459,-22449.463,-8713.786,-1004.2318
970817.9335794707,-25279.46,-21474.53,-24116.863,-17776.896,-966.4714,-22450.562,-8710.409,-1004.3539
970817.9375794681,-25284.1,-21479.453,-24115.072,-17778.523,-969.56384,-22450.807,-8707.561,-1002.8483
970817.9415794655,-25284.465,-21480.795,-24113.566,-17778.605,-971.06934,-22450.928,-8706.503,-1007.1615
970817.9455794629,-25283.041,-21481.04,-24115.154,-17780.07,-970.8252,-22451.66,-8708.74,-1005.2491
970817.9495794604,-25284.303,-21480.633,-24119.873,-17780.682,-971.84247,-22452.557,-8713.501,-1004.8829
970817.9535794578,-25283.408,-21477.174,-24118.652,-17776.693,-970.78455,-22452.88,-8712.851,-1002.36005
970817.9575794552,-25278.646,-21471.436,-24114.99,-17774.17,-968.70935,-22452.475,-8709.961,-997.80273
970817.9615794526,-25276.246,-21468.344,-24112.102,-17772.99,-966.26794,-22451.254,-8705.7295,-991.4551
970817.96557945,-25275.96,-21465.7,-24114.34,-17773.072,-963.29755,-22449.219,-8702.148,-984.4564
970817.9695794474,-25272.137,-21461.63,-24114.87,-17773.113,-960.00165,-22448.406,-8700.928,-984.9447
970817.9735794449,-25270.02,-21461.955,-24110.678,-17773.52,-959.51337,-22449.3,-8701.742,-989.66473
970817.9775794423,-25270.793,-21464.6,-24111.613,-17774.21,-959.51337,-22448.365,-8702.067,-991.9027
970817.9815794397,-25278.77,-21469.605,-24112.428,-17774.455,-960.1644,-22447.998,-8701.05,-983.5205
970817.9855794371,-25280.6,-21469.605,-24108.969,-17771.973,-961.0596,-22448.771,-8703.491,-986.8978
970817.9895794345,-25279.502,-21465.781,-24115.316,-17772.38,-959.2285,-22450.725,-8705.241,-991.1703
970817.993579432,-25278.2,-21463.828,-24120.24,-17771.607,-956.74646,-22450.604,-8703.776,-990.07166
970817.9975794294,-25277.264,-21464.52,-24114.34,-17770.549,-959.432,-22448.854,-8699.179,-982.05566
970818.0015794268,-25277.955,-21466.676,-24110.352,-17770.428,-961.9548,-22447.348,-8696.249,-976.766
970818.0055794242,-25279.094,-21467.938,-24112.428,-17770.223,-964.3962,-22449.3,-8701.823,-991.0482
970818.0095794216,-25283.652,-21472.25,-24111.29,-17769.734,-964.3962,-22449.424,-8704.143,-997.1924
970818.013579419,-25284.465,-21475.506,-24109.945,-17769.94,-965.2507,-22448.975,-8701.579,-993.9779
970818.0175794165,-25280.396,-21471.6,-24107.91,-17768.963,-962.6465,-22448.61,-8700.806,-993.8965
970818.0215794139,-25277.467,-21469.768,-24102.58,-17767.822,-962.6872,-22447.47,-8698.364,-987.99646
970818.0255794113,-25278.932,-21470.5,-24104.045,-17766.969,-960.612,-22448.08,-8701.091,-987.79297
970818.0295794087,-25283.488,-21474.121,-24106.201,-17768.799,-961.3444,-22448.812,-8706.991,-992.3096
970818.0335794061,-25290.283,-21477.621,-24109.54,-17771.16,-962.93134,-22447.145,-8710.49,-998.82
970818.0375794035,-25290.283,-21475.994,-24113.69,-17771.893,-960.9375,-22446.533,-8709.188,-997.68066
970818.041579401,-25284.709,-21472.78,-24111.084,-17771.363,-959.0251,-22447.55,-8706.706,-990.43787
970818.0455793984,-25282.064,-21471.6,-24109.904,-17769.734,-958.61816,-22446.574,-8702.23,-985.6771
970818.0495793958,-25284.303,-21473.105,-24112.305,-17770.223,-960.4492,-22447.795,-8704.184,-990.88544
970818.0535793932,-25285.605,-21473.47,-24117.31,-17770.346,-959.7168,-22450.521,-8705.241,-994.54755
970818.0575793906,-25287.191,-21474.773,-24115.031,-17770.996,-959.2285,-22451.416,-8704.0205,-992.6758
970818.061579388,-25286.094,-21475.098,-24109.58,-17771.078,-958.5368,-22450.766,-8701.132,-987.8337
970818.0655793855,-25287.762,-21477.174,-24110.068,-17772.014,-959.7168,-22449.26,-8698.649,-981.2012
970818.0695793829,-25288.371,-21477.012,-24113.81,-17771.77,-960.4492,-22447.47,-8698.486,-979.126
970818.0735793803,-25290.895,-21478.232,-24113.322,-17771.525,-961.8734,-22447.266,-8701.538,-995.1172
970818.0775793777,-25292.441,-21479.777,-24112.021,-17771.16,-960.40857,-22447.186,-8700.928,-996.8262
970818.0815793751,-25293.621,-21477.906,-24109.783,-17769.41,-958.8623,-22447.754,-8698.771,-988.0371
970818.0855793726,-25295.451,-21477.418,-24113.404,-17768.637,-956.0547,-22447.51,-8698.283,-986.24677
970818.08957937,-25298.625,-21481.04,-24119.629,-17771.443,-958.61816,-22446.33,-8697.348,-986.8164
970818.0935793674,-25297.201,-21481.242,-24121.826,-17772.055,-960.6527,-22445.557,-8696.737,-984.4564
970818.0975793648,-25296.672,-21482.79,-24121.664,-17773.682,-962.321,-22446.33,-8699.545,-983.195
970818.1015793622,-25301.148,-21487.102,-24121.95,-17775.717,-963.9079,-22446.25,-8697.673,-975.09766
970818.1055793596,-25306.926,-21492.066,-24121.787,-17776.45,-964.88446,-22446.615,-8698.8125,-971.84247
970818.1095793571,-25305.95,-21488.648,-24120.484,-17774.537,-962.6872,-22446.86,-8705.404,-984.7819
970818.1135793545,-25303.143,-21485.107,-24119.182,-17774.252,-961.58856,-22445.842,-8705.2,-988.32196
970818.1175793519,-25307.008,-21489.299,-24119.67,-17776.002,-961.4258,-22443.32,-8699.219,-978.06805
970818.1215793493,-25308.676,-21492.514,-24120.158,-17776.246,-959.3506,-22441.082,-8693.319,-973.6735
970818.1255793467,-25304.932,-21488.201,-24121.338,-17775.27,-956.9092,-22440.594,-8691.447,-976.1963
970818.1295793441,-25304.566,-21484.742,-24125.0,-17774.129,-957.51953,-22442.383,-8692.099,-978.8412
970818.1335793416,-25310.426,-21491.334,-24125.611,-17775.27,-958.3334,-22443.523,-8691.528,-978.92255
970818.137579339,-25311.24,-21492.92,-24125.0,-17774.902,-960.85614,-22445.557,-8689.535,-977.21356
970818.1415793364,-25305.828,-21490.275,-24122.275,-17773.152,-959.3506,-22446.533,-8688.803,-975.4232
970818.1455793338,-25305.137,-21488.525,-24123.008,-17772.299,-955.2816,-22445.639,-8687.622,-975.3825
970818.1495793312,-25302.898,-21486.29,-24120.729,-17771.037,-953.2471,-22445.191,-8688.3955,-974.3246
970818.1535793286,-25297.283,-21481.568,-24121.176,-17771.12,-954.9154,-22446.941,-8687.907,-976.1963
970818.1575793261,-25298.3,-21480.674,-24120.525,-17771.852,-956.0954,-22446.412,-8686.687,-972.5749
970818.1615793235,-25301.799,-21483.807,-24120.322,-17773.438,-956.9092,-22446.33,-8688.192,-967.44794
970818.1655793209,-25302.166,-21482.219,-24119.873,-17774.7,-959.10645,-22445.72,-8688.925,-966.39
970818.1695793183,-25299.805,-21480.998,-24118.857,-17775.594,-960.612,-22445.15,-8689.535,-965.4541
970818.1735793157,-25300.049,-21482.3,-24119.508,-17775.96,-960.2458,-22446.25,-8692.587,-966.5121
970818.1775793132,-25302.37,-21484.863,-24119.914,-17776.45,-963.0127,-22446.006,-8694.824,-977.53906
970818.1815793106,-25303.71,-21487.06,-24125.367,-17777.547,-964.19275,-22443.848,-8690.715,-968.75
970818.185579308,-25304.2,-21488.893,-24128.053,-17778.523,-964.9252,-22444.785,-8690.349,-971.51697
970818.1895793054,-25306.357,-21491.293,-24128.297,-17779.5,-966.91895,-22445.557,-8692.139,-971.51697
970818.1935793028,-25309.531,-21494.59,-24129.314,-17778.646,-969.3197,-22446.453,-8693.481,-969.84863
970818.1975793001,-25312.256,-21497.031,-24125.773,-17778.484,-970.3776,-22447.795,-8695.72,-972.7783
970818.2015792977,-25314.82,-21498.82,-24121.135,-17778.973,-971.2321,-22449.016,-8696.533,-968.3024
970818.205579295,-25316.041,-21501.385,-24124.676,-17778.564,-971.5576,-22449.504,-8696.574,-960.32715
970818.2095792925,-25315.838,-21501.182,-24127.85,-17776.652,-971.9238,-22450.969,-8699.219,-966.95966
970818.2135792898,-25314.006,-21499.146,-24126.426,-17777.547,-972.81903,-22451.742,-8702.353,-980.10254
970818.2175792872,-25311.564,-21495.605,-24125.164,-17777.182,-969.40106,-22451.254,-8697.632,-976.9287
970818.2215792846,-25308.432,-21489.422,-24120.81,-17775.066,-966.59344,-22449.707,-8693.604,-967.57
970818.2255792822,-25303.996,-21482.219,-24118.205,-17774.902,-961.91406,-22447.062,-8687.378,-958.1706
970818.2295792795,-25292.236,-21475.342,-24116.66,-17773.56,-955.6071,-22448.73,-8685.588,-955.7699
970818.233579277,-25284.953,-21470.297,-24113.12,-17770.143,-953.6947,-22451.824,-8689.616,-963.29755
970818.2375792743,-25289.877,-21475.059,-24114.828,-17770.143,-954.834,-22454.184,-8689.616,-963.0941
970818.2415792717,-25297.527,-21481.61,-24120.158,-17773.316,-958.41473,-22454.672,-8690.959,-964.19275
970818.2455792691,-25298.422,-21479.004,-24126.426,-17775.799,-960.1644,-22457.113,-8697.0625,-972.5749
970818.2495792666,-25296.55,-21479.697,-24129.191,-17779.012,-964.5996,-22456.87,-8699.87,-976.48114
970818.253579264,-25298.219,-21485.393,-24128.623,-17782.023,-968.3024,-22455.81,-8702.23,-974.6908
970818.2575792614,-25302.451,-21487.793,-24128.459,-17783.57,-971.84247,-22454.875,-8703.532,-972.9411
970818.2615792588,-25304.729,-21489.502,-24125.814,-17783.123,-969.56384,-22454.672,-8703.491,-972.29004
970818.2655792562,-25307.129,-21490.357,-24127.158,-17782.146,-967.7328,-22452.922,-8702.841,-974.44666
970818.2695792537,-25305.258,-21488.934,-24123.496,-17780.314,-966.91895,-22452.678,-8704.143,-976.9694
970818.2735792511,-25299.643,-21486.37,-24121.867,-17778.605,-964.9252,-22454.225,-8704.143,-981.2419
970818.2775792485,-25297.363,-21486.328,-24119.14,-17777.955,-963.98926,-22454.795,-8701.457,-977.2543
970818.2815792459,-25298.26,-21489.055,-24117.758,-17777.547,-966.06445,-22456.219,-8700.155,-971.06934
970818.2855792433,-25297.08,-21486.898,-24117.188,-17778.076,-965.6576,-22456.016,-8701.01,-968.50586
970818.2895792407,-25296.307,-21483.074,-24117.229,-17778.2,-966.3493,-22456.38,-8703.695,-971.6797
970818.2935792382,-25298.38,-21482.383,-24121.502,-17777.996,-967.9769,-22456.91,-8705.078,-977.53906
970818.2975792356,-25301.352,-21485.027,-24124.188,-17778.89,-969.808,-22456.422,-8704.794,-984.2123
970818.301579233,-25300.457,-21484.05,-24124.105,-17778.809,-966.0238,-22455.607,-8703.735,-982.58466
970818.3055792304,-25300.334,-21483.643,-24122.52,-17779.95,-964.35547,-22455.04,-8706.055,-977.66113
970818.3095792278,-25303.184,-21486.613,-24123.82,-17780.926,-965.5762,-22455.73,-8711.589,-985.9619
970818.3135792252,-25302.734,-21484.863,-24119.223,-17780.314,-965.861,-22455.527,-8709.311,-983.47986
970818.3175792227,-25296.998,-21479.941,-24118.775,-17778.768,-965.20996,-22453.94,-8705.363,-979.1667
970818.3215792201,-25298.137,-21481.04,-24123.7,-17779.582,-966.43066,-22453.125,-8702.2705,-975.99286
970818.3255792175,-25304.404,-21485.596,-24125.164,-17781.332,-970.5404,-22453.654,-8700.399,-970.4997
970818.3295792149,-25305.746,-21484.254,-24125.285,-17781.209,-972.7783,-22454.225,-8700.928,-971.8832
970818.3335792123,-25301.31,-21482.139,-24126.709,-17781.576,-973.2666,-22456.096,-8704.265,-976.5625
970818.3375792097,-25299.033,-21479.736,-24125.164,-17782.186,-973.7956,-22456.504,-8705.811,-977.74255
970818.3415792072,-25299.44,-21483.115,-24121.502,-17782.268,-972.69696,-22453.98,-8703.491,-975.46387
970818.3455792046,-25302.207,-21486.492,-24123.984,-17782.756,-969.93005,-22451.133,-8701.213,-974.2025
970818.349579202,-25301.066,-21480.021,-24126.67,-17782.838,-967.3666,-22450.48,-8700.114,-968.66864
970818.3535791994,-25299.928,-21476.197,-24126.059,-17784.303,-970.3776,-22452.76,-8700.521,-968.50586
970818.3575791968,-25301.758,-21475.383,-24128.174,-17782.186,-968.2617,-22453.248,-8703.41,-975.8708
970818.3615791942,-25295.127,-21471.844,-24122.559,-17777.629,-964.2334,-22453.574,-8704.794,-967.57
970818.3655791917,-25286.541,-21466.553,-24115.684,-17776.043,-964.35547,-22455.893,-8708.049,-963.0941
970818.3695791891,-25285.889,-21467.896,-24116.537,-17775.473,-966.1459,-22457.48,-8711.345,-969.4824
970818.3735791865,-25290.162,-21469.688,-24117.31,-17777.996,-965.04724,-22457.031,-8709.717,-959.7168
970818.3775791839,-25290.895,-21465.129,-24114.951,-17779.297,-959.51337,-22454.957,-8708.008,-958.6996
970818.3815791813,-25288.33,-21460.857,-24110.637,-17779.5,-955.0781,-22453.086,-8707.886,-963.62305
970818.3855791788,-25284.262,-21455.934,-24113.201,-17779.012,-952.8402,-22449.79,-8702.475,-955.89197
970818.3895791762,-25283.041,-21452.719,-24112.834,-17778.768,-953.2064,-22448.61,-8699.097,-954.9154
970818.3935791736,-25286.906,-21457.275,-24110.23,-17777.467,-952.3926,-22446.777,-8695.761,-957.1127
970818.397579171,-25290.527,-21461.67,-24107.83,-17775.92,-953.8574,-22449.098,-8695.517,-960.4899
970818.4015791684,-25286.988,-21452.8,-24105.266,-17773.723,-949.8698,-22449.79,-8694.621,-961.6699
970818.4055791658,-25284.14,-21447.998,-24103.395,-17773.479,-947.4284,-22451.01,-8694.418,-956.8685
970818.4095791633,-25284.344,-21447.918,-24108.033,-17775.105,-950.1953,-22453.492,-8696.899,-958.82166
970818.4135791607,-25286.297,-21450.195,-24108.154,-17775.555,-951.9043,-22453.451,-8695.435,-954.58984
970818.4175791581,-25291.424,-21456.219,-24110.88,-17776.246,-953.3285,-22453.045,-8694.906,-953.8168
970818.4215791555,-25292.521,-21454.387,-24110.475,-17776.002,-952.02637,-22454.875,-8696.289,-957.51953
970818.4255791529,-25293.418,-21452.19,-24109.416,-17775.838,-949.6664,-22455.16,-8701.213,-966.22723
970818.4295791503,-25292.93,-21452.557,-24111.37,-17777.914,-949.1374,-22453.613,-8703.898,-973.7549
970818.4335791478,-25287.762,-21447.836,-24113.404,-17777.791,-950.6836,-22452.76,-8705.933,-974.81287
970818.4375791452,-25289.592,-21447.836,-24115.44,-17777.791,-951.00916,-22454.63,-8710.979,-976.03357
970818.4415791426,-25287.924,-21447.998,-24114.219,-17777.344,-950.5615,-22458.66,-8713.827,-971.96454
970818.44557914,-25291.139,-21447.307,-24112.51,-17780.314,-953.3285,-22460.654,-8718.14,-972.2087
970818.4495791374,-25294.842,-21445.965,-24113.73,-17781.047,-956.74646,-22461.793,-8721.069,-974.9756
970818.4535791348,-25298.951,-21449.463,-24113.607,-17781.738,-956.0547,-22461.955,-8720.866,-973.6328
970818.4575791323,-25296.307,-21451.66,-24115.234,-17784.709,-954.67126,-22460.938,-8717.733,-967.7328
970818.4615791297,-25294.15,-21451.05,-24115.275,-17786.621,-950.80566,-22457.236,-8711.711,-958.61816
970818.4655791271,-25294.068,-21449.668,-24114.178,-17785.523,-950.1953,-22455.201,-8707.52,-953.04364
970818.4695791245,-25294.963,-21448.895,-24114.666,-17782.959,-953.2064,-22457.154,-8706.747,-950.15466
970818.4735791219,-25291.79,-21445.557,-24114.219,-17781.697,-951.33466,-22457.236,-8709.717,-955.7699
970818.4775791194,-25286.377,-21442.303,-24109.986,-17780.6,-949.4629,-22457.643,-8711.101,-968.7907
970818.4815791168,-25286.744,-21443.768,-24108.48,-17779.623,-948.1608,-22455.566,-8706.95,-966.55273
970818.4855791142,-25286.418,-21442.832,-24109.172,-17778.973,-947.30634,-22455.283,-8702.963,-958.61816
970818.4895791116,-25285.197,-21438.64,-24109.66,-17777.873,-945.6787,-22455.81,-8703.003,-957.1533
970818.493579109,-25280.762,-21433.066,-24104.697,-17777.996,-944.1732,-22456.504,-8700.439,-966.7969
970818.4975791064,-25277.793,-21431.438,-24105.633,-17778.768,-939.81934,-22455.16,-8692.79,-962.1989
970818.5015791039,-25277.182,-21429.078,-24105.225,-17777.67,-937.5814,-22454.51,-8692.505,-958.82166
970818.5055791013,-25279.502,-21427.451,-24106.445,-17777.385,-938.59863,-22455.12,-8699.382,-963.4196
970818.5095790987,-25275.432,-21424.113,-24106.812,-17777.264,-940.1042,-22456.828,-8704.631,-968.75
970818.5135790961,-25274.863,-21424.887,-24104.248,-17778.402,-942.26074,-22458.578,-8709.392,-975.30115
970818.5175790935,-25275.27,-21425.62,-24103.068,-17779.705,-943.7256,-22462.525,-8716.146,-984.4971
970818.5215790909,-25274.943,-21425.01,-24100.83,-17779.135,-943.9697,-22465.17,-8719.564,-983.84607
970818.5255790884,-25276.938,-21425.822,-24105.104,-17779.744,-943.4408,-22466.105,-8722.778,-981.486
970818.5295790858,-25284.262,-21429.078,-24109.742,-17781.82,-945.7194,-22464.967,-8722.697,-978.10876
970818.5335790832,-25284.018,-21425.66,-24107.219,-17780.111,-943.15594,-22461.63,-8718.018,-970.7031
970818.5375790806,-25279.094,-21419.516,-24103.027,-17778.973,-937.9883,-22459.352,-8714.233,-966.1459
970818.541579078,-25276.45,-21415.771,-24102.012,-17778.28,-933.8379,-22456.38,-8708.7,-957.4789
970818.5455790753,-25272.299,-21411.5,-24100.586,-17777.67,-933.431,-22458.781,-8710.49,-958.25195
970818.5495790729,-25273.602,-21412.762,-24101.035,-17777.791,-934.3669,-22460.613,-8716.472,-968.22107
970818.5535790703,-25274.293,-21414.104,-24105.592,-17778.688,-933.3496,-22462.2,-8720.744,-977.74255
970818.5575790677,-25277.182,-21417.318,-24107.504,-17779.908,-936.6455,-22463.584,-8723.227,-985.7992
970818.561579065,-25282.188,-21421.957,-24106.69,-17781.535,-939.5752,-22462.281,-8722.575,-980.3874
970818.5655790624,-25283.691,-21420.654,-24107.3,-17783.611,-940.6332,-22460.37,-8717.651,-974.8535
970818.56957906,-25279.42,-21418.906,-24103.76,-17782.105,-942.62695,-22459.799,-8716.228,-975.5046
970818.5735790574,-25271.77,-21416.586,-24096.72,-17780.72,-941.3249,-22458.984,-8712.6875,-973.51074
970818.5775790547,-25266.195,-21410.564,-24089.52,-17779.135,-938.1918,-22458.09,-8704.509,-966.8783
970818.5815790521,-25265.057,-21405.762,-24085.45,-17778.2,-935.87244,-22455.73,-8695.068,-954.9154
970818.5855790495,-25268.922,-21404.867,-24088.258,-17780.152,-935.01794,-22452.8,-8685.588,-940.7959
970818.5895790469,-25267.375,-21404.053,-24091.838,-17782.959,-938.11035,-22452.842,-8682.943,-934.9365
970818.5935790444,-25266.602,-21404.258,-24096.273,-17784.547,-938.7614,-22453.37,-8687.785,-942.66766
970818.5975790418,-25274.7,-21411.094,-24102.215,-17787.639,-944.8649,-22453.29,-8692.709,-946.28906
970818.6015790392,-25279.705,-21415.527,-24099.773,-17787.842,-947.876,-22455.363,-8698.894,-956.6244
970818.6055790366,-25276.367,-21411.662,-24100.709,-17786.133,-943.11523,-22457.236,-8699.179,-950.765
970818.609579034,-25271.078,-21406.902,-24100.139,-17783.082,-937.5407,-22457.643,-8697.632,-937.8662
970818.6135790314,-25270.834,-21407.92,-24098.674,-17781.902,-936.6862,-22455.852,-8696.208,-937.6628
970818.6175790289,-25270.469,-21408.326,-24098.674,-17782.635,-935.87244,-22454.672,-8693.808,-935.30273
970818.6215790263,-25268.637,-21403.646,-24094.97,-17783.203,-934.2855,-22454.469,-8693.197,-937.0524
970818.6255790237,-25270.305,-21403.037,-24097.332,-17783.773,-933.4717,-22452.678,-8694.824,-940.1042
970818.6295790211,-25276.043,-21407.512,-24099.203,-17783.732,-938.59863,-22453.857,-8701.132,-946.9401
970818.6335790185,-25280.03,-21411.174,-24103.15,-17785.4,-941.7318,-22457.072,-8709.147,-958.9437
970818.6375790159,-25283.896,-21417.115,-24105.469,-17788.127,-943.6442,-22460.287,-8718.222,-973.55145
970818.6415790134,-25292.766,-21424.766,-24106.61,-17789.307,-945.4753,-22461.264,-8725.871,-979.24805
970818.6455790108,-25295.29,-21425.863,-24106.162,-17788.453,-943.9291,-22462.24,-8725.79,-973.6735
970818.6495790082,-25293.621,-21425.742,-24108.44,-17787.72,-944.05115,-22462.2,-8721.802,-974.2025
970818.6535790056,-25287.03,-21416.016,-24101.93,-17785.28,-940.4704,-22460.205,-8715.292,-977.33563
970818.657579003,-25277.67,-21401.816,-24098.268,-17781.902,-934.12274,-22453.857,-8701.945,-963.29755
970818.6615790004,-25275.107,-21397.625,-24096.803,-17781.373,-925.8627,-22447.062,-8687.5,-943.84766
970818.6655789979,-25265.79,-21391.969,-24093.67,-17777.873,-923.01434,-22443.727,-8683.024,-931.55927
970818.6695789953,-25264.73,-21389.934,-24093.791,-17778.809,-924.92676,-22447.795,-8688.314,-934.611
970818.6735789927,-25269.654,-21391.643,-24098.877,-17780.314,-929.8096,-22453.533,-8696.452,-945.92285
970818.6775789901,-25277.873,-21399.414,-24107.545,-17784.465,-937.1338,-22457.52,-8701.376,-951.0905
970818.6815789875,-25281.738,-21401.855,-24108.398,-17788.045,-942.0166,-22459.31,-8703.532,-951.0905
970818.685578985,-25281.414,-21399.7,-24105.469,-17788.25,-942.26074,-22458.13,-8702.067,-947.0622
970818.6895789824,-25285.4,-21403.77,-24109.742,-17790.771,-945.7194,-22459.555,-8702.353,-945.8008
970818.6935789798,-25279.094,-21397.746,-24109.945,-17789.674,-945.1904,-22460.654,-8701.416,-943.7663
970818.6975789772,-25271.852,-21388.062,-24102.54,-17785.523,-937.82556,-22458.781,-8696.33,-932.5358
970818.7015789746,-25263.145,-21382.285,-24092.205,-17782.553,-933.4717,-22457.56,-8690.1045,-921.46814
970818.705578972,-25259.645,-21378.947,-24092.002,-17783.082,-932.04755,-22455.566,-8685.385,-912.76044
970818.7095789695,-25262.004,-21378.867,-24091.717,-17785.645,-932.8613,-22453.29,-8684.123,-913.9404
970818.7135789669,-25263.021,-21379.355,-24091.635,-17786.906,-933.1462,-22453.045,-8683.269,-922.64813
970818.7175789643,-25264.04,-21381.023,-24094.443,-17788.656,-934.8959,-22453.654,-8686.564,-934.0414
970818.7215789617,-25267.904,-21381.512,-24096.72,-17787.518,-936.60486,-22453.777,-8691.8545,-943.88837
970818.7255789591,-25274.902,-21386.475,-24097.006,-17789.348,-939.69727,-22455.975,-8701.457,-957.4382
970818.7295789565,-25280.193,-21388.672,-24100.262,-17789.348,-944.5801,-22458.904,-8708.374,-968.7907
970818.733578954,-25282.35,-21391.602,-24102.662,-17789.55,-946.5739,-22462.037,-8712.362,-972.0459
970818.7375789514,-25280.355,-21391.113,-24101.807,-17788.738,-943.56287,-22463.258,-8709.351,-965.33203
970818.7415789488,-25274.537,-21385.986,-24093.71,-17784.424,-936.32,-22460.084,-8697.714,-947.5912
970818.7455789462,-25273.682,-21382.0,-24091.064,-17786.215,-937.1745,-22457.072,-8686.89,-937.1745
970818.7495789436,-25277.1,-21383.3,-24092.773,-17788.412,-939.5752,-22453.98,-8678.996,-928.182
970818.753578941,-25277.508,-21381.553,-24086.793,-17789.47,-938.8835,-22449.463,-8670.898,-918.53845
970818.7575789385,-25277.344,-21380.494,-24090.129,-17791.26,-939.37177,-22448.771,-8666.423,-914.7543
970818.7615789359,-25275.025,-21376.67,-24092.205,-17789.186,-936.88965,-22449.219,-8667.48,-912.76044
970818.7655789333,-25272.258,-21371.258,-24095.826,-17788.29,-934.9365,-22452.637,-8673.259,-916.9108
970818.7695789307,-25273.438,-21372.275,-24100.586,-17789.266,-936.40137,-22457.357,-8680.746,-924.7233
970818.7735789281,-25275.146,-21372.967,-24099.936,-17789.633,-939.53455,-22459.352,-8682.943,-921.4274
970818.7775789256,-25275.879,-21370.525,-24098.594,-17789.633,-935.2214,-22461.426,-8682.739,-917.0329
970818.781578923,-25270.549,-21364.828,-24094.727,-17786.988,-931.0303,-22462.607,-8686.239,-928.5075
970818.7855789204,-25267.375,-21361.451,-24094.809,-17786.703,-930.33856,-22463.99,-8689.616,-935.14
970818.7895789178,-25264.486,-21357.91,-24094.238,-17786.336,-930.78613,-22462.363,-8687.175,-923.8281
970818.7935789152,-25261.475,-21354.33,-24089.396,-17787.518,-928.833,-22461.59,-8684.937,-919.4743
970818.7975789126,-25257.0,-21347.656,-24088.42,-17787.232,-922.8923,-22460.979,-8680.624,-913.65564
970818.8015789101,-25252.441,-21344.28,-24082.805,-17785.28,-918.986,-22459.799,-8675.049,-908.56934
970818.8055789075,-25250.611,-21342.773,-24079.266,-17783.855,-917.806,-22457.887,-8671.713,-901.12305
970818.8095789049,-25255.982,-21345.379,-24086.67,-17788.982,-922.68884,-22457.44,-8672.648,-903.76794
970818.8135789023,-25263.916,-21352.988,-24091.473,-17793.824,-930.0944,-22458.049,-8673.259,-914.9577
970818.8175788997,-25268.799,-21357.178,-24093.059,-17795.37,-934.4076,-22457.113,-8673.747,-916.7074
970818.8215788971,-25274.7,-21360.107,-24096.355,-17796.998,-939.1276,-22455.322,-8678.142,-918.4164
970818.8255788946,-25275.799,-21361.898,-24096.396,-17798.422,-943.0339,-22457.154,-8685.141,-929.8096
970818.829578892,-25280.07,-21364.178,-24098.756,-17799.48,-945.1091,-22458.375,-8686.076,-931.51855
970818.8335788894,-25278.037,-21361.166,-24095.703,-17797.81,-942.66766,-22457.44,-8683.594,-925.7406
970818.8375788868,-25267.416,-21351.93,-24089.234,-17793.865,-938.5173,-22456.504,-8676.799,-914.0625
970818.8415788842,-25260.498,-21344.443,-24083.457,-17788.656,-932.2917,-22454.998,-8669.23,-905.31415
970818.8455788816,-25264.16,-21342.326,-24085.775,-17787.762,-928.0192,-22452.963,-8664.673,-898.8037
970818.8495788791,-25263.348,-21339.64,-24088.217,-17789.959,-929.4841,-22451.416,-8666.626,-900.43134
970818.8535788765,-25257.732,-21336.102,-24088.705,-17791.18,-930.66406,-22450.766,-8669.271,-903.5238
970818.8575788739,-25265.3,-21342.041,-24093.588,-17794.027,-934.08203,-22451.621,-8671.916,-902.6693
970818.8615788713,-25269.492,-21346.885,-24096.355,-17796.062,-936.56415,-22453.898,-8673.218,-902.5879
970818.8655788687,-25266.684,-21346.07,-24095.5,-17795.654,-937.74414,-22455.527,-8673.828,-900.0651
970818.8695788662,-25269.004,-21347.494,-24096.559,-17796.672,-941.6504,-22454.795,-8672.323,-892.9037
970818.8735788636,-25267.904,-21346.68,-24097.656,-17796.387,-942.83044,-22455.486,-8669.882,-896.8506
970818.877578861,-25266.357,-21344.564,-24098.105,-17795.98,-945.96356,-22453.574,-8666.464,-899.53613
970818.8815788584,-25268.271,-21343.059,-24095.664,-17796.63,-943.278,-22451.01,-8662.558,-892.2119
970818.8855788558,-25265.057,-21338.34,-24089.926,-17794.068,-936.97107,-22449.098,-8659.79,-884.8877
970818.8895788532,-25261.719,-21335.734,-24085.246,-17794.027,-934.5703,-22447.918,-8659.831,-886.5153
970818.8935788507,-25258.506,-21332.031,-24084.514,-17793.824,-933.8786,-22447.795,-8661.784,-892.5781
970818.8975788481,-25256.104,-21329.63,-24082.928,-17792.033,-931.4372,-22448.08,-8664.633,-900.5534
970818.9015788455,-25257.121,-21329.102,-24084.025,-17792.928,-931.72205,-22448.568,-8666.423,-902.05896
970818.9055788429,-25259.889,-21329.225,-24089.234,-17794.271,-932.8613,-22451.01,-8671.509,-907.4707
970818.9095788402,-25261.8,-21331.258,-24090.617,-17794.027,-938.1918,-22453.451,-8677.531,-916.0156
970818.9135788376,-25263.55,-21332.44,-24089.64,-17794.88,-939.6566,-22455.283,-8679.24,-919.4743
970818.9175788352,-25264.812,-21333.375,-24088.258,-17797.527,-940.7959,-22458.049,-8680.502,-919.67773
970818.9215788326,-25264.568,-21329.305,-24090.576,-17796.387,-932.77997,-22456.016,-8676.188,-912.43494
970818.92557883,-25265.342,-21326.945,-24090.332,-17795.777,-928.0192,-22454.062,-8672.241,-907.2673
970818.9295788273,-25266.195,-21326.62,-24088.217,-17795.654,-928.9144,-22454.59,-8671.794,-909.6273
970818.9335788247,-25268.516,-21326.457,-24090.943,-17795.695,-927.6123,-22455.566,-8669.353,-914.6322
970818.9375788221,-25268.84,-21327.678,-24090.129,-17796.184,-928.05994,-22456.504,-8664.877,-907.9997
970818.9415788196,-25267.62,-21325.887,-24088.014,-17796.021,-929.44336,-22455.078,-8661.784,-899.6989
970818.945578817,-25269.125,-21324.219,-24086.793,-17795.695,-930.86755,-22454.469,-8661.215,-898.8037
970818.9495788144,-25270.59,-21324.098,-24085.166,-17796.469,-932.1696,-22456.87,-8664.429,-904.98865
970818.9535788118,-25272.096,-21324.504,-24086.143,-17797.566,-929.6875,-22458.334,-8665.527,-902.9948
970818.9575788092,-25272.096,-21322.062,-24086.387,-17796.387,-923.01434,-22458.13,-8663.859,-890.95056
970818.9615788066,-25267.701,-21316.814,-24082.928,-17793.05,-917.8874,-22457.357,-8662.517,-885.57947
970818.9655788041,-25267.498,-21316.121,-24081.055,-17792.44,-921.1019,-22457.764,-8662.517,-886.556
970818.9695788015,-25267.578,-21316.61,-24080.69,-17793.54,-922.11914,-22460.734,-8667.766,-892.45605
970818.9735787989,-25269.654,-21316.977,-24081.463,-17794.963,-920.6543,-22463.828,-8674.765,-901.8148
970818.9775787963,-25269.531,-21314.332,-24084.717,-17794.557,-918.2536,-22465.293,-8677.531,-901.65204
970818.9815787937,-25266.807,-21311.688,-24080.04,-17794.963,-919.71844,-22464.52,-8675.578,-898.3154
970818.9855787912,-25264.365,-21309.285,-24078.94,-17795.045,-919.75916,-22464.072,-8677.45,-903.9714
970818.9895787886,-25262.004,-21304.322,-24081.87,-17794.148,-916.78876,-22463.95,-8678.183,-908.56934
970818.993578786,-25262.045,-21302.898,-24080.934,-17793.254,-912.63837,-22463.135,-8678.508,-905.3955
970818.9975787834,-25265.545,-21304.646,-24080.852,-17793.336,-912.3535,-22461.305,-8679.484,-907.02313
970819.0015787808,-25272.625,-21310.182,-24085.938,-17797.283,-916.5853,-22460.246,-8679.159,-917.8467
970819.0055787782,-25277.629,-21313.72,-24089.234,-17799.357,-922.20056,-22460.246,-8677.653,-917.8467
970819.0095787757,-25280.07,-21316.854,-24090.414,-17801.555,-924.7233,-22460.45,-8680.339,-919.75916
970819.0135787731,-25283.285,-21317.342,-24090.129,-17802.654,-921.26465,-22461.223,-8680.868,-922.8923
970819.0175787705,-25280.682,-21313.355,-24086.02,-17800.984,-919.4743,-22463.828,-8684.489,-928.42615
970819.0215787679,-25281.738,-21311.523,-24084.229,-17799.928,-919.1081,-22464.967,-8686.687,-923.01434
970819.0255787653,-25282.676,-21311.523,-24082.195,-17797.12,-917.806,-22464.967,-8683.798,-918.2536
970819.0295787627,-25281.658,-21308.96,-24084.596,-17796.795,-917.3991,-22466.146,-8683.146,-918.7826
970819.0335787602,-25285.727,-21308.96,-24086.426,-17798.219,-920.8578,-22466.309,-8682.007,-921.26465
970819.0375787576,-25289.55,-21312.867,-24087.81,-17800.863,-922.52606,-22464.234,-8674.032,-910.52246
970819.041578755,-25289.756,-21312.459,-24087.646,-17801.596,-921.30536,-22461.63,-8667.766,-900.1465
970819.0455787524,-25288.371,-21309.773,-24087.729,-17801.596,-920.45087,-22461.67,-8667.807,-894.9382
970819.0495787498,-25286.297,-21305.502,-24086.67,-17801.758,-918.7012,-22463.299,-8670.695,-898.4375
970819.0535787472,-25283.0,-21299.031,-24081.422,-17799.928,-917.64325,-22465.414,-8672.7295,-902.2217
970819.0575787447,-25282.676,-21293.213,-24079.102,-17798.016,-916.5446,-22466.105,-8671.428,-896.4437
970819.0615787421,-25282.39,-21293.416,-24080.04,-17797.486,-913.53357,-22468.1,-8670.817,-889.7705
970819.0655787395,-25283.082,-21294.719,-24077.312,-17796.713,-910.0749,-22469.85,-8673.544,-891.5609
970819.0695787369,-25282.268,-21294.516,-24077.312,-17797.078,-910.52246,-22469.238,-8677.612,-901.9369
970819.0735787343,-25284.059,-21293.783,-24082.887,-17798.828,-911.2956,-22470.338,-8679.565,-906.9418
970819.0775787318,-25278.688,-21286.621,-24077.393,-17796.55,-908.0404,-22470.826,-8680.054,-904.0121
970819.0815787292,-25274.334,-21280.111,-24078.125,-17795.086,-906.4128,-22472.656,-8684.53,-908.0404
970819.0855787266,-25274.537,-21278.564,-24077.516,-17795.37,-908.7321,-22474.244,-8688.843,-914.0625
970819.089578724,-25277.223,-21278.85,-24078.695,-17796.713,-911.6211,-22475.139,-8693.156,-919.39294
970819.0935787214,-25279.502,-21280.273,-24083.09,-17798.34,-916.0156,-22477.012,-8697.266,-930.3793
970819.0975787188,-25280.479,-21281.373,-24084.025,-17799.113,-922.8109,-22477.459,-8698.161,-930.50134
970819.1015787163,-25281.455,-21282.838,-24084.514,-17799.072,-917.64325,-22475.506,-8698.283,-927.6937
970819.1055787137,-25279.541,-21279.988,-24084.596,-17797.404,-912.59766,-22472.412,-8696.249,-922.8109
970819.1095787111,-25276.164,-21278.076,-24082.44,-17796.672,-913.53357,-22472.373,-8697.51,-919.8405
970819.1135787085,-25275.799,-21276.367,-24083.13,-17798.34,-912.3942,-22472.82,-8696.737,-918.33496
970819.1175787059,-25277.71,-21276.855,-24087.078,-17799.52,-911.53973,-22473.877,-8694.824,-917.68396
970819.1215787033,-25279.582,-21278.24,-24084.96,-17796.102,-910.9701,-22474.773,-8690.918,-911.7025
970819.1255787008,-25282.879,-21279.867,-24085.531,-17796.143,-908.28455,-22474.732,-8689.657,-910.52246
970819.1295786982,-25289.512,-21286.662,-24087.363,-17797.404,-911.6618,-22475.953,-8689.209,-909.30176
970819.1335786956,-25289.877,-21284.588,-24089.234,-17796.346,-912.4756,-22475.953,-8685.669,-899.1293
970819.137578693,-25281.17,-21275.31,-24086.387,-17794.842,-910.0342,-22474.406,-8683.676,-893.1885
970819.1415786904,-25280.803,-21273.357,-24085.45,-17796.225,-910.19696,-22475.465,-8684.774,-898.2748
970819.1455786878,-25287.436,-21279.176,-24084.229,-17798.748,-913.65564,-22477.092,-8683.635,-895.75195
970819.1495786853,-25287.924,-21278.117,-24084.596,-17797.078,-911.90594,-22478.312,-8684.733,-892.82227
970819.1535786827,-25286.988,-21275.066,-24085.572,-17795.695,-907.4707,-22479.98,-8687.826,-895.75195
970819.1575786801,-25290.365,-21273.846,-24085.41,-17796.59,-905.8838,-22481.895,-8688.599,-894.0023
970819.1615786775,-25290.0,-21273.193,-24082.928,-17796.713,-907.06384,-22481.527,-8688.518,-891.8864
970819.1655786749,-25290.365,-21274.373,-24085.775,-17797.242,-908.24384,-22478.842,-8687.175,-892.29333
970819.1695786724,-25291.18,-21275.514,-24090.21,-17798.299,-911.74316,-22477.295,-8689.86,-897.3796
970819.1735786698,-25291.504,-21275.229,-24088.705,-17797.81,-913.0453,-22476.889,-8690.959,-899.3734
970819.1775786672,-25297.648,-21276.326,-24090.008,-17798.748,-912.59766,-22477.58,-8693.726,-905.27344
970819.1815786646,-25306.316,-21282.186,-24094.809,-17801.107,-912.43494,-22478.312,-8695.231,-905.4362
970819.185578662,-25303.63,-21284.262,-24095.176,-17799.643,-914.9984,-22479.492,-8700.48,-918.7419
970819.1895786594,-25296.672,-21282.715,-24093.059,-17798.34,-915.6901,-22479.818,-8704.102,-928.9958
970819.1935786569,-25297.934,-21282.227,-24090.252,-17799.031,-914.7949,-22481.324,-8706.137,-935.4248
970819.1975786543,-25298.38,-21276.775,-24089.52,-17798.34,-912.3942,-22480.795,-8704.062,-935.01794
970819.2015786517,-25296.795,-21272.176,-24089.111,-17797.566,-909.87146,-22480.55,-8702.841,-933.6752
970819.2055786491,-25294.354,-21268.963,-24092.082,-17797.404,-908.56934,-22479.818,-8701.457,-926.473
970819.2095786465,-25292.725,-21266.725,-24092.979,-17799.072,-907.9997,-22479.371,-8698.771,-922.20056
970819.2135786439,-25292.562,-21264.242,-24089.031,-17800.049,-912.96387,-22479.045,-8700.155,-923.9909
970819.2175786414,-25288.941,-21261.76,-24085.043,-17801.637,-913.98114,-22478.477,-8697.958,-915.20184
970819.2215786388,-25287.72,-21260.906,-24082.113,-17801.393,-906.1279,-22476.36,-8692.099,-903.60516
970819.2255786362,-25289.186,-21262.33,-24082.52,-17801.148,-907.22656,-22476.93,-8688.803,-894.1244
970819.2295786336,-25291.709,-21262.777,-24087.973,-17801.88,-909.0576,-22479.248,-8688.192,-891.9271
970819.233578631,-25296.348,-21264.283,-24094.117,-17803.914,-909.5866,-22479.086,-8687.378,-889.36365
970819.2375786284,-25300.904,-21265.422,-24094.2,-17806.438,-913.12665,-22480.55,-8690.063,-890.6657
970819.2415786259,-25301.922,-21264.568,-24094.523,-17806.56,-914.83563,-22482.951,-8695.028,-892.13055
970819.2455786233,-25300.172,-21264.607,-24092.611,-17804.729,-912.3535,-22484.213,-8697.958,-887.736
970819.2495786207,-25299.398,-21264.486,-24092.45,-17803.182,-911.6211,-22485.107,-8701.132,-894.7754
970819.253578618,-25300.863,-21265.545,-24090.537,-17802.45,-912.31287,-22483.562,-8702.556,-899.53613
970819.2575786154,-25302.246,-21267.172,-24088.867,-17803.914,-909.66797,-22481.121,-8699.138,-893.02576
970819.2615786128,-25305.95,-21269.41,-24086.793,-17805.176,-910.4818,-22478.8,-8696.533,-886.39325
970819.2655786104,-25309.367,-21270.63,-24089.193,-17805.42,-912.76044,-22479.29,-8693.889,-887.08496
970819.2695786078,-25310.629,-21272.99,-24090.21,-17803.426,-913.5742,-22479.086,-8691.244,-889.7705
970819.2735786051,-25308.35,-21271.12,-24090.861,-17804.402,-913.208,-22480.674,-8694.255,-894.8568
970819.2775786025,-25302.857,-21266.316,-24087.729,-17801.758,-909.66797,-22483.36,-8698.894,-899.8617
970819.2815785999,-25301.678,-21263.469,-24084.107,-17799.725,-907.308,-22483.48,-8699.341,-900.8789
970819.2855785975,-25299.56,-21261.19,-24085.002,-17799.236,-905.63965,-22482.951,-8698.894,-899.8617
970819.2895785948,-25302.41,-21260.662,-24088.014,-17802.166,-904.62244,-22483.277,-8699.504,-901.16376
970819.2935785922,-25307.09,-21261.76,-24090.17,-17803.387,-904.50037,-22481.406,-8696.167,-899.292
970819.2975785896,-25308.066,-21263.875,-24091.025,-17804.852,-907.308,-22480.062,-8694.702,-902.1403
970819.301578587,-25305.46,-21261.963,-24090.576,-17805.867,-910.64453,-22480.998,-8695.557,-905.1921
970819.3055785844,-25306.764,-21262.086,-24090.617,-17804.2,-911.09216,-22480.225,-8693.319,-902.83203
970819.309578582,-25310.223,-21264.607,-24090.861,-17804.81,-911.21423,-22481.934,-8696.005,-907.1859
970819.3135785793,-25306.438,-21261.15,-24091.146,-17805.787,-910.19696,-22483.195,-8695.435,-905.0293
970819.3175785767,-25302.654,-21255.615,-24093.75,-17804.363,-907.5114,-22481.527,-8690.1455,-889.36365
970819.3215785741,-25299.113,-21251.75,-24093.588,-17802.246,-905.84314,-22480.145,-8686.768,-880.9408
970819.3255785715,-25299.033,-21248.332,-24095.379,-17800.375,-900.79755,-22479.248,-8682.821,-873.69794
970819.3295785689,-25301.596,-21248.332,-24098.389,-17802.693,-903.5238,-22480.592,-8686.32,-876.3428
970819.3335785664,-25304.729,-21251.588,-24096.762,-17804.078,-906.57556,-22482.951,-8690.674,-882.24286
970819.3375785638,-25307.373,-21255.86,-24092.57,-17803.387,-906.90106,-22482.666,-8691.813,-882.6091
970819.3415785612,-25307.861,-21257.0,-24094.97,-17804.363,-907.1452,-22481.771,-8692.099,-878.7842
970819.3455785586,-25308.27,-21256.959,-24092.979,-17806.152,-910.31903,-22482.383,-8692.871,-877.8076
970819.349578556,-25308.96,-21257.04,-24095.094,-17808.064,-913.8591,-22483.033,-8691.8545,-882.3242
970819.3535785534,-25310.223,-21259.033,-24096.355,-17809.164,-915.0798,-22482.666,-8692.993,-890.54364
970819.3575785509,-25309.938,-21259.807,-24096.07,-17808.553,-914.5915,-22481.242,-8691.0,-891.39813
970819.3615785483,-25310.791,-21260.621,-24094.688,-17809.814,-916.09705,-22479.777,-8686.972,-887.0443
970819.3655785457,-25311.32,-21259.115,-24095.215,-17810.426,-915.52734,-22477.783,-8684.082,-885.376
970819.3695785431,-25310.955,-21257.61,-24095.988,-17810.303,-916.09705,-22477.418,-8684.001,-888.916
970819.3735785405,-25310.955,-21256.836,-24096.111,-17808.92,-912.8825,-22476.768,-8682.861,-891.154
970819.377578538,-25311.85,-21256.47,-24095.785,-17810.059,-909.9528,-22475.668,-8678.752,-887.736
970819.3815785354,-25311.89,-21257.08,-24097.006,-17811.28,-908.61005,-22474.773,-8675.09,-883.7484
970819.3855785328,-25317.1,-21262.248,-24098.877,-17813.273,-909.79004,-22474.65,-8671.631,-873.4945
970819.3895785302,-25316.53,-21258.504,-24099.285,-17810.955,-908.8949,-22473.309,-8669.76,-868.2048
970819.3935785276,-25314.373,-21256.877,-24101.238,-17810.018,-910.68524,-22473.877,-8671.347,-868.2048
970819.397578525,-25312.541,-21255.33,-24097.738,-17809.814,-907.8776,-22475.871,-8673.544,-864.7461
970819.4015785225,-25310.955,-21254.518,-24094.85,-17808.758,-907.22656,-22477.256,-8676.718,-862.1826
970819.4055785199,-25308.39,-21251.506,-24091.758,-17807.861,-908.65076,-22475.871,-8675.09,-857.015
970819.4095785173,-25303.223,-21246.297,-24091.473,-17807.861,-906.2907,-22473.512,-8671.835,-855.5502
970819.4135785147,-25302.084,-21245.85,-24089.967,-17810.223,-907.4707,-22473.918,-8670.817,-859.13086
970819.4175785121,-25301.352,-21243.775,-24088.867,-17812.785,-910.1156,-22475.994,-8670.126,-857.7881
970819.4215785095,-25298.38,-21238.852,-24093.182,-17812.5,-909.9935,-22476.115,-8669.556,-854.24805
970819.425578507,-25296.875,-21235.596,-24093.506,-17812.459,-909.01697,-22476.686,-8671.428,-852.9867
970819.4295785044,-25297.08,-21233.602,-24093.303,-17811.688,-904.6631,-22478.11,-8676.066,-856.1605
970819.4335785018,-25296.875,-21233.969,-24089.355,-17808.717,-903.40173,-22479.004,-8678.793,-860.3109
970819.4375784992,-25297.04,-21230.836,-24091.064,-17806.152,-904.13416,-22478.516,-8679.037,-862.0199
970819.4415784966,-25296.062,-21232.992,-24089.438,-17807.455,-904.82587,-22478.477,-8677.043,-857.7067
970819.445578494,-25297.283,-21236.94,-24087.402,-17808.188,-907.75555,-22477.58,-8674.154,-852.53906
970819.4495784915,-25302.125,-21241.414,-24090.943,-17810.223,-913.737,-22476.441,-8673.381,-854.81775
970819.4535784889,-25302.816,-21242.676,-24089.234,-17812.135,-914.67285,-22475.547,-8671.591,-857.91016
970819.4575784863,-25302.572,-21240.805,-24090.496,-17811.238,-913.5742,-22473.756,-8668.701,-859.4564
970819.4615784837,-25307.17,-21244.873,-24090.21,-17812.053,-912.028,-22471.152,-8665.649,-853.8412
970819.4655784811,-25309.49,-21248.129,-24091.514,-17814.78,-913.3301,-22470.582,-8665.894,-854.77704
970819.4695784786,-25308.92,-21246.502,-24093.791,-17816.977,-916.7074,-22472.25,-8664.714,-855.8757
970819.473578476,-25309.611,-21244.752,-24095.012,-17817.506,-917.2363,-22472.576,-8663.574,-863.48474
970819.4775784734,-25307.455,-21244.67,-24091.35,-17816.365,-917.48047,-22472.373,-8662.761,-866.4144
970819.4815784708,-25302.734,-21240.643,-24087.89,-17813.355,-913.81836,-22469.89,-8656.21,-855.3874
970819.4855784682,-25303.06,-21237.875,-24089.072,-17812.664,-914.30664,-22469.035,-8654.948,-849.9756
970819.4895784656,-25309.531,-21243.938,-24090.74,-17814.129,-916.5853,-22470.053,-8658.366,-852.7832
970819.4935784631,-25311.361,-21244.549,-24091.594,-17813.64,-913.65564,-22471.314,-8657.512,-850.95215
970819.4975784605,-25306.885,-21238.648,-24090.049,-17811.89,-910.2377,-22472.047,-8657.187,-849.44666
970819.5015784579,-25300.66,-21233.969,-24086.549,-17810.67,-910.1156,-22471.355,-8655.844,-842.7328
970819.5055784553,-25295.451,-21231.934,-24084.84,-17808.676,-911.94666,-22469.605,-8652.914,-838.7858
970819.5095784527,-25300.049,-21237.184,-24088.014,-17811.238,-913.6963,-22468.344,-8650.024,-836.8734
970819.5135784501,-25302.49,-21238.484,-24090.088,-17814.209,-916.95154,-22468.75,-8649.943,-833.5775
970819.5175784476,-25301.475,-21235.88,-24090.414,-17813.965,-914.266,-22469.117,-8651.083,-830.2002
970819.521578445,-25296.428,-21232.463,-24085.613,-17814.047,-909.34247,-22467.773,-8649.902,-827.7995
970819.5255784424,-25292.441,-21230.145,-24084.922,-17813.762,-906.3314,-22464.234,-8645.956,-815.71454
970819.5295784398,-25291.912,-21229.127,-24082.928,-17813.885,-907.2673,-22467.611,-8651.693,-821.0043
970819.5335784372,-25288.656,-21226.074,-24078.574,-17812.135,-906.7383,-22471.803,-8658.691,-835.5713
970819.5375784346,-25287.762,-21226.115,-24076.783,-17812.256,-905.84314,-22472.982,-8660.522,-837.93134
970819.5415784321,-25290.488,-21228.11,-24075.4,-17814.332,-907.6742,-22473.715,-8657.675,-831.8685
970819.5455784295,-25293.295,-21227.092,-24075.074,-17813.6,-906.3314,-22473.797,-8656.494,-827.7588
970819.5495784269,-25293.701,-21226.848,-24077.23,-17813.232,-906.4128,-22473.47,-8656.332,-830.5664
970819.5535784243,-25292.4,-21225.709,-24078.818,-17812.459,-902.7507,-22473.633,-8656.982,-833.5368
970819.5575784217,-25289.55,-21219.686,-24075.156,-17809.814,-897.6644,-22472.332,-8654.867,-835.69336
970819.5615784192,-25284.709,-21216.594,-24069.865,-17806.805,-894.6533,-22470.012,-8653.076,-834.3913
970819.5655784166,-25281.78,-21214.07,-24068.076,-17803.834,-891.76434,-22468.344,-8651.978,-830.48505
970819.569578414,-25282.023,-21211.06,-24070.436,-17803.387,-892.4154,-22468.832,-8649.699,-825.11395
970819.5735784114,-25286.541,-21212.117,-24072.959,-17805.217,-894.0023,-22472.697,-8653.687,-832.56024
970819.5775784088,-25289.062,-21216.676,-24077.637,-17805.828,-893.51404,-22473.838,-8654.419,-836.0189
970819.5815784062,-25291.22,-21218.953,-24073.447,-17806.275,-894.20575,-22473.715,-8656.901,-833.374
970819.5855784037,-25294.271,-21218.709,-24075.807,-17808.473,-894.8568,-22476.562,-8662.15,-839.1113
970819.5895784011,-25293.945,-21215.008,-24074.627,-17807.21,-892.49677,-22477.988,-8664.47,-842.9769
970819.5935783985,-25291.016,-21210.205,-24072.51,-17805.014,-889.32294,-22477.256,-8662.15,-840.6169
970819.5975783959,-25291.016,-21208.863,-24072.592,-17805.258,-885.4574,-22477.092,-8658.122,-835.1644
970819.6015783933,-25290.04,-21209.352,-24068.115,-17804.2,-883.62634,-22475.912,-8655.3955,-830.7699
970819.6055783906,-25289.592,-21208.943,-24068.768,-17804.932,-885.2539,-22474.814,-8658.325,-829.63055
970819.6095783882,-25293.945,-21212.932,-24075.889,-17806.682,-888.265,-22475.383,-8660.441,-830.11884
970819.6135783856,-25297.445,-21214.234,-24078.98,-17808.473,-887.4919,-22475.791,-8661.54,-837.2396
970819.617578383,-25298.707,-21215.291,-24079.225,-17810.14,-890.86914,-22477.5,-8666.748,-840.41345
970819.6215783803,-25297.771,-21215.088,-24078.533,-17809.773,-891.60156,-22478.15,-8667.521,-837.44305
970819.6255783777,-25296.387,-21213.826,-24077.719,-17808.758,-891.1947,-22479.29,-8668.661,-840.9424
970819.6295783751,-25293.133,-21210.896,-24076.621,-17807.496,-890.7471,-22479.492,-8666.545,-841.43066
970819.6335783727,-25289.674,-21207.357,-24071.574,-17806.52,-888.2243,-22477.5,-8662.598,-830.9326
970819.63757837,-25287.232,-21205.73,-24066.57,-17805.34,-883.95184,-22476.645,-8660.441,-829.7119
970819.6415783674,-25286.744,-21207.357,-24063.07,-17805.664,-883.26013,-22477.5,-8659.831,-835.1237
970819.6455783648,-25291.465,-21211.182,-24066.65,-17805.502,-882.6091,-22476.482,-8660.278,-838.5417
970819.6495783622,-25295.777,-21215.373,-24070.598,-17806.805,-886.92224,-22478.557,-8663.208,-841.6748
970819.6535783596,-25300.13,-21218.914,-24074.545,-17808.27,-888.3871,-22480.021,-8663.29,-840.41345
970819.6575783571,-25303.59,-21220.541,-24077.271,-17809.205,-889.72986,-22481.162,-8664.592,-845.4997
970819.6615783545,-25303.223,-21220.256,-24076.986,-17810.059,-892.65955,-22480.225,-8663.981,-849.6501
970819.6655783519,-25305.055,-21221.844,-24074.545,-17809.734,-893.2292,-22477.5,-8663.29,-849.1618
970819.6695783493,-25303.875,-21219.197,-24073.486,-17810.223,-892.29333,-22474.814,-8661.296,-844.93005
970819.6735783467,-25298.422,-21213.908,-24072.307,-17808.473,-888.30566,-22474.936,-8661.54,-841.8783
970819.6775783442,-25296.387,-21211.305,-24068.686,-17804.852,-884.5622,-22475.018,-8662.761,-844.52313
970819.6815783416,-25297.975,-21212.646,-24067.22,-17803.467,-882.8125,-22474.61,-8658.447,-835.2051
970819.685578339,-25296.469,-21212.402,-24067.18,-17802.857,-883.8298,-22476.074,-8658.244,-833.5775
970819.6895783364,-25291.748,-21208.984,-24065.594,-17803.02,-881.307,-22477.54,-8659.709,-833.2113
970819.6935783338,-25295.654,-21212.322,-24066.57,-17803.875,-883.26013,-22480.225,-8662.191,-836.8327
970819.6975783312,-25301.799,-21218.832,-24069.865,-17806.682,-887.6953,-22481.73,-8664.592,-836.8327
970819.7015783287,-25307.049,-21223.715,-24069.336,-17808.92,-888.50916,-22482.79,-8669.271,-840.20996
970819.7055783261,-25302.979,-21220.053,-24071.168,-17809.002,-885.9863,-22482.342,-8668.457,-836.4258
970819.7095783235,-25298.91,-21215.74,-24067.627,-17809.123,-887.5326,-22480.266,-8666.057,-832.07196
970819.7135783209,-25294.395,-21209.96,-24069.174,-17807.902,-884.5622,-22478.598,-8663.696,-833.08923
970819.7175783183,-25285.28,-21203.084,-24064.576,-17804.646,-881.307,-22477.336,-8657.064,-826.70087
970819.7215783157,-25280.682,-21200.48,-24062.053,-17803.02,-878.2959,-22477.783,-8652.71,-816.12146
970819.7255783132,-25282.879,-21201.863,-24066.57,-17804.281,-876.7497,-22478.883,-8655.151,-819.9463
970819.7295783106,-25285.28,-21202.434,-24067.588,-17804.729,-878.09247,-22478.516,-8658.569,-824.1781
970819.733578308,-25287.436,-21202.76,-24067.506,-17804.688,-880.49316,-22480.266,-8662.598,-828.6133
970819.7375783054,-25290.0,-21203.98,-24069.5,-17804.646,-880.49316,-22482.057,-8665.121,-831.0547
970819.7415783028,-25292.115,-21206.258,-24069.703,-17805.46,-883.05664,-22484.457,-8666.423,-832.88574
970819.7455783002,-25289.795,-21206.137,-24065.512,-17804.688,-880.8594,-22484.295,-8666.138,-830.9326
970819.7495782977,-25287.07,-21204.184,-24062.217,-17801.88,-880.4118,-22482.139,-8665.121,-827.9216
970819.7535782951,-25289.268,-21204.713,-24063.314,-17801.96,-880.49316,-22480.877,-8662.598,-829.8747
970819.7575782925,-25290.936,-21204.713,-24059.531,-17801.758,-881.4697,-22478.965,-8658.447,-827.1078
970819.7615782899,-25291.912,-21205.078,-24061.24,-17803.143,-882.3649,-22476.36,-8653.891,-816.89453
970819.7655782873,-25295.086,-21207.44,-24063.438,-17806.844,-884.0739,-22475.586,-8654.419,-823.1608
970819.7695782848,-25299.195,-21212.932,-24066.041,-17809.45,-885.6608,-22474.162,-8653.198,-820.4346
970819.7735782822,-25300.213,-21213.014,-24067.018,-17810.1,-888.30566,-22474.936,-8653.036,-824.8698
970819.7775782796,-25298.707,-21211.996,-24068.32,-17808.879,-889.7705,-22476.848,-8653.117,-826.66016
970819.781578277,-25298.748,-21211.182,-24064.697,-17807.781,-888.1836,-22476.482,-8650.554,-824.3408
970819.7855782744,-25295.98,-21210.37,-24063.193,-17808.514,-888.3464,-22478.15,-8652.914,-821.77734
970819.7895782718,-25296.184,-21209.555,-24065.105,-17809.082,-887.4919,-22480.713,-8658.285,-825.07324
970819.7935782693,-25298.828,-21211.346,-24066.406,-17808.635,-884.9284,-22481.568,-8660.93,-830.363
970819.7975782667,-25304.037,-21214.314,-24067.953,-17808.797,-886.8002,-22482.748,-8662.883,-833.1706
970819.8015782641,-25305.176,-21215.088,-24066.977,-17808.797,-887.0036,-22483.115,-8666.708,-829.1423
970819.8055782615,-25306.56,-21217.082,-24068.482,-17809.896,-887.4919,-22485.922,-8673.096,-830.9733
970819.8095782589,-25307.7,-21217.123,-24071.453,-17811.2,-889.6078,-22487.021,-8675.537,-837.7279
970819.8135782563,-25305.584,-21214.275,-24070.68,-17810.426,-888.6719,-22486.816,-8672.282,-832.96716
970819.8175782538,-25302.41,-21210.043,-24068.36,-17810.14,-886.5967,-22483.887,-8665.527,-824.42224
970819.8215782512,-25301.678,-21211.305,-24064.006,-17810.994,-887.28845,-22481.895,-8661.215,-818.84766
970819.8255782486,-25302.572,-21211.02,-24059.611,-17811.361,-888.3464,-22478.8,-8657.512,-812.2152
970819.829578246,-25306.275,-21210.125,-24062.95,-17813.924,-890.7064,-22477.662,-8656.25,-817.098
970819.8335782434,-25308.432,-21212.158,-24066.123,-17815.389,-888.9567,-22478.924,-8657.309,-824.1374
970819.8375782408,-25308.555,-21211.71,-24066.0,-17814.494,-884.8877,-22478.8,-8657.512,-821.3705
970819.8415782383,-25309.164,-21212.646,-24066.57,-17813.965,-884.80634,-22481.568,-8662.72,-823.7712
970819.8455782357,-25309.734,-21211.508,-24068.441,-17812.135,-883.016,-22483.318,-8668.132,-833.4961
970819.8495782331,-25308.717,-21212.322,-24068.238,-17810.588,-883.26013,-22483.887,-8670.614,-836.1003
970819.8535782305,-25306.438,-21210.49,-24067.547,-17808.39,-885.21326,-22484.336,-8672.852,-836.26306
970819.8575782279,-25301.107,-21202.88,-24061.484,-17803.875,-882.73114,-22484.172,-8673.34,-835.40857
970819.8615782254,-25299.521,-21200.928,-24059.611,-17802.37,-882.73114,-22482.016,-8670.939,-829.5085
970819.8655782228,-25300.416,-21199.871,-24060.1,-17802.775,-881.38837,-22479.412,-8667.888,-824.42224
970819.8695782202,-25301.758,-21200.928,-24059.246,-17804.24,-882.0394,-22478.68,-8666.626,-823.4457
970819.8735782176,-25301.23,-21200.848,-24061.85,-17804.281,-883.7484,-22478.068,-8666.708,-824.1374
970819.877578215,-25302.37,-21203.166,-24063.844,-17803.834,-881.5918,-22480.674,-8670.532,-828.45056
970819.8815782124,-25303.143,-21202.88,-24066.203,-17803.02,-879.47595,-22484.54,-8673.381,-826.9043
970819.8855782099,-25300.049,-21198.61,-24069.459,-17800.904,-875.6918,-22484.092,-8671.875,-824.78845
970819.8895782073,-25299.316,-21195.8,-24070.477,-17799.56,-874.2676,-22482.627,-8670.329,-819.987
970819.8935782047,-25302.002,-21196.98,-24070.518,-17799.52,-874.5117,-22482.545,-8669.516,-822.30634
970819.8975782021,-25301.758,-21198.162,-24070.11,-17798.707,-872.5993,-22481.201,-8665.405,-821.49255
970819.9015781995,-25300.578,-21197.795,-24067.627,-17797.893,-871.0124,-22482.79,-8665.649,-823.8119
970819.9055781969,-25303.996,-21202.027,-24067.547,-17798.463,-871.62274,-22486.816,-8672.363,-829.1423
970819.9095781944,-25307.902,-21206.055,-24068.482,-17799.316,-872.35516,-22488.078,-8674.316,-832.723
970819.9135781918,-25311.2,-21207.398,-24068.36,-17799.113,-874.59314,-22488.893,-8679.037,-844.279
970819.9175781892,-25313.926,-21207.967,-24069.58,-17799.969,-878.1738,-22489.178,-8681.071,-847.4121
970819.9215781866,-25316.691,-21209.799,-24071.533,-17800.66,-881.6732,-22488.975,-8680.583,-845.9066
970819.925578184,-25318.441,-21209.96,-24069.906,-17801.19,-880.28973,-22487.549,-8677.043,-839.51825
970819.9295781814,-25315.309,-21206.543,-24070.762,-17802.043,-879.3539,-22485.8,-8672.119,-830.52576
970819.9335781789,-25311.32,-21200.684,-24071.982,-17801.555,-877.6449,-22484.783,-8670.004,-834.3913
970819.9375781763,-25307.334,-21197.225,-24066.977,-17799.275,-876.0173,-22484.213,-8670.207,-834.83887
970819.9415781737,-25305.258,-21194.947,-24063.152,-17798.299,-873.69794,-22483.643,-8671.347,-836.22235
970819.945578171,-25304.932,-21195.516,-24062.256,-17800.457,-876.3021,-22485.148,-8674.887,-837.6465
970819.9495781685,-25304.16,-21196.086,-24064.088,-17802.49,-878.3366,-22487.021,-8679.24,-840.4948
970819.9535781658,-25303.834,-21196.045,-24062.988,-17802.693,-877.31934,-22487.834,-8681.396,-844.7673
970819.9575781634,-25304.729,-21194.865,-24062.988,-17803.467,-877.4821,-22489.787,-8684.937,-845.25555
970819.9615781608,-25301.475,-21192.018,-24062.176,-17802.898,-876.3021,-22488.893,-8682.536,-839.47754
970819.9655781582,-25299.928,-21190.064,-24064.006,-17802.37,-877.76697,-22487.06,-8679.484,-833.5368
970819.9695781555,-25297.568,-21187.867,-24064.576,-17802.166,-877.1159,-22484.783,-8675.822,-830.6478
970819.973578153,-25293.418,-21185.955,-24065.715,-17801.96,-877.03455,-22482.219,-8669.597,-825.5209
970819.9775781505,-25291.586,-21184.979,-24065.186,-17801.637,-874.1862,-22479.086,-8664.958,-821.0449
970819.9815781479,-25294.516,-21184.408,-24059.896,-17802.572,-874.59314,-22477.783,-8662.231,-815.0635
970819.9855781452,-25300.01,-21189.656,-24059.896,-17803.63,-876.09863,-22474.895,-8658.122,-810.01794
970819.9895781426,-25307.09,-21196.574,-24064.82,-17807.414,-881.51044,-22475.139,-8656.128,-809.48895
970819.99357814,-25309.814,-21199.666,-24070.436,-17810.506,-886.43396,-22477.54,-8658.936,-817.9525
970819.9975781374,-25310.508,-21200.115,-24069.785,-17811.932,-887.20703,-22479.33,-8662.883,-823.07947
970820.001578135,-25311.035,-21199.545,-24068.28,-17810.547,-887.1257,-22480.225,-8665.243,-819.2546
970820.0055781323,-25309.082,-21196.453,-24068.564,-17808.025,-884.84705,-22480.021,-8665.527,-818.11523
970820.0095781297,-25309.611,-21194.906,-24069.744,-17808.92,-883.7484,-22481.121,-8666.016,-817.0573
970820.0135781271,-25305.299,-21192.018,-24069.541,-17808.797,-881.06287,-22482.057,-8665.039,-809.8959
970820.0175781245,-25298.463,-21187.785,-24066.855,-17806.967,-877.6449,-22482.26,-8662.883,-807.5358
970820.0215781219,-25298.79,-21186.402,-24065.715,-17807.82,-878.3773,-22481.445,-8660.971,-807.3324
970820.0255781194,-25300.945,-21189.129,-24065.512,-17809.123,-878.4994,-22479.086,-8659.831,-802.2868
970820.0295781168,-25301.31,-21190.064,-24068.727,-17810.426,-881.958,-22481.934,-8666.342,-811.7676
970820.0335781142,-25302.37,-21191.326,-24070.518,-17810.223,-883.13806,-22484.701,-8674.357,-825.64294
970820.0375781116,-25302.002,-21188.885,-24068.523,-17809.53,-882.9753,-22485.19,-8678.63,-833.5368
970820.041578109,-25302.084,-21190.512,-24069.133,-17808.838,-885.376,-22484.904,-8678.061,-826.5381
970820.0455781064,-25301.475,-21191.285,-24065.715,-17806.844,-883.8298,-22483.154,-8672.567,-823.6898
970820.0495781039,-25300.822,-21190.512,-24065.838,-17805.543,-881.4697,-22481.934,-8667.644,-826.4567
970820.0535781013,-25298.096,-21183.146,-24065.715,-17805.014,-880.61523,-22480.104,-8661.337,-818.9291
970820.0575780987,-25293.662,-21179.363,-24064.535,-17805.217,-877.36005,-22476.441,-8653.198,-809.4076
970820.0615780961,-25296.63,-21179.973,-24069.865,-17805.664,-878.25525,-22473.43,-8647.502,-800.82196
970820.0655780935,-25299.033,-21182.21,-24075.604,-17808.39,-878.94696,-22474.406,-8645.671,-795.45087
970820.069578091,-25300.172,-21184.45,-24077.354,-17811.727,-882.5277,-22475.709,-8647.258,-792.0736
970820.0735780884,-25304.363,-21186.482,-24078.736,-17813.477,-884.68427,-22477.865,-8650.595,-789.4287
970820.0775780858,-25305.38,-21189.209,-24076.986,-17811.768,-880.3711,-22479.98,-8653.402,-790.7715
970820.0815780832,-25306.438,-21189.738,-24073.324,-17809.205,-879.43524,-22482.016,-8656.576,-792.27704
970820.0855780806,-25303.752,-21188.803,-24067.22,-17806.967,-881.02216,-22482.79,-8661.174,-798.8281
970820.089578078,-25303.02,-21188.762,-24067.344,-17806.316,-884.31805,-22483.684,-8668.173,-810.6283
970820.0935780755,-25306.479,-21190.47,-24069.297,-17807.576,-887.0036,-22484.05,-8673.137,-817.0166
970820.0975780729,-25307.373,-21191.773,-24066.0,-17806.438,-888.0209,-22483.074,-8673.788,-815.59247
970820.1015780703,-25304.525,-21188.844,-24060.832,-17804.852,-885.2539,-22482.342,-8674.683,-819.987
970820.1055780677,-25304.566,-21189.576,-24060.71,-17805.908,-884.9691,-22481.162,-8673.666,-818.19666
970820.1095780651,-25307.496,-21194.256,-24062.582,-17809.246,-886.3119,-22481.69,-8673.096,-815.7959
970820.1135780625,-25309.814,-21197.145,-24061.117,-17811.117,-885.53876,-22481.121,-8668.986,-810.01794
970820.11757806,-25307.496,-21195.232,-24060.914,-17809.205,-884.5215,-22480.145,-8664.185,-809.2855
970820.1215780574,-25307.617,-21192.506,-24062.379,-17809.326,-882.20215,-22480.795,-8663.005,-803.42615
970820.1255780548,-25310.914,-21196.656,-24062.908,-17810.629,-884.4401,-22480.795,-8664.714,-795.24744
970820.1295780522,-25308.92,-21195.312,-24063.682,-17808.838,-881.38837,-22482.342,-8667.847,-803.6296
970820.1335780496,-25309.938,-21193.115,-24065.43,-17808.146,-877.76697,-22485.312,-8672.363,-811.4421
970820.137578047,-25309.287,-21190.674,-24065.105,-17806.438,-875.24414,-22486.125,-8674.235,-811.8083
970820.1415780445,-25305.502,-21188.191,-24058.879,-17805.867,-878.09247,-22486.166,-8673.381,-810.30273
970820.1455780419,-25301.31,-21185.018,-24054.443,-17804.2,-875.65106,-22486.004,-8671.306,-806.6406
970820.1495780393,-25296.184,-21179.158,-24053.793,-17802.043,-873.73865,-22485.557,-8671.916,-812.0117
970820.1535780367,-25293.133,-21176.434,-24057.373,-17802.002,-872.84344,-22485.027,-8673.259,-817.2201
970820.1575780341,-25292.156,-21175.049,-24058.146,-17802.898,-869.2627,-22483.36,-8671.55,-813.558
970820.1615780316,-25294.027,-21176.025,-24060.303,-17805.379,-870.60547,-22483.48,-8672.567,-817.30145
970820.165578029,-25297.12,-21177.41,-24063.803,-17807.455,-870.76825,-22484.213,-8675.903,-820.96356
970820.1695780264,-25296.957,-21178.346,-24065.43,-17808.473,-869.751,-22485.516,-8677.206,-823.4457
970820.1735780238,-25295.492,-21177.572,-24066.814,-17808.553,-866.25165,-22486.613,-8678.955,-825.07324
970820.1775780212,-25294.354,-21176.19,-24064.494,-17809.367,-866.57715,-22486.94,-8680.705,-825.7243
970820.1815780186,-25293.906,-21176.473,-24063.518,-17810.14,-869.7103,-22487.549,-8676.188,-820.1498
970820.1855780161,-25291.016,-21172.607,-24063.965,-17807.943,-867.1875,-22485.596,-8672.241,-813.8428
970820.1895780135,-25290.324,-21171.55,-24060.14,-17806.885,-865.72266,-22481.73,-8669.556,-810.0993
970820.1935780109,-25289.795,-21171.021,-24060.14,-17807.74,-865.6413,-22479.818,-8665.8125,-804.1992
970820.1975780083,-25288.697,-21170.125,-24057.822,-17807.617,-864.7868,-22479.697,-8664.511,-800.78125
970820.2015780057,-25287.924,-21170.898,-24057.861,-17808.146,-863.7289,-22480.55,-8663.696,-794.515
970820.2055780031,-25291.016,-21172.648,-24062.582,-17809.896,-864.21716,-22480.754,-8662.68,-792.68396
970820.2095780006,-25295.94,-21175.984,-24070.598,-17812.256,-867.14685,-22478.557,-8659.302,-788.4115
970820.213577998,-25300.01,-21177.084,-24075.807,-17814.576,-868.28613,-22477.703,-8655.884,-791.9922
970820.2175779954,-25302.207,-21177.979,-24077.637,-17814.82,-868.73376,-22477.947,-8648.071,-789.0625
970820.2215779928,-25295.371,-21170.207,-24070.191,-17810.71,-865.03094,-22474.773,-8641.276,-788.0453
970820.2255779902,-25291.016,-21165.203,-24066.082,-17807.7,-860.35156,-22472.82,-8637.329,-781.8197
970820.2295779876,-25290.244,-21163.209,-24065.39,-17806.56,-860.92126,-22471.314,-8636.638,-783.7321
970820.2335779851,-25292.36,-21165.691,-24063.152,-17805.99,-858.5205,-22472.006,-8639.689,-786.05145
970820.2375779825,-25295.086,-21167.725,-24066.041,-17807.21,-856.4453,-22474.244,-8642.904,-788.2487
970820.2415779799,-25296.713,-21170.125,-24067.303,-17809.938,-857.91016,-22475.465,-8644.165,-781.86035
970820.2455779773,-25300.578,-21171.713,-24065.715,-17811.97,-861.36884,-22477.783,-8649.943,-785.9701
970820.2495779747,-25305.258,-21173.951,-24068.523,-17811.117,-864.0137,-22481.934,-8658.8955,-799.56055
970820.2535779721,-25306.846,-21173.26,-24065.879,-17811.85,-862.06055,-22482.79,-8661.052,-802.4496
970820.2575779696,-25304.12,-21169.23,-24064.982,-17810.182,-861.1654,-22481.568,-8660.278,-803.3447
970820.261577967,-25302.084,-21167.033,-24061.809,-17808.594,-858.96814,-22480.957,-8661.337,-804.4841
970820.2655779644,-25299.805,-21165.121,-24057.902,-17807.658,-857.58466,-22480.633,-8660.767,-802.0834
970820.2695779618,-25299.766,-21164.266,-24061.523,-17806.52,-855.8757,-22482.79,-8663.696,-804.97235
970820.2735779592,-25299.846,-21161.58,-24065.674,-17804.852,-857.0964,-22483.969,-8669.678,-815.6332
970820.2775779567,-25298.748,-21159.1,-24064.129,-17803.793,-855.3874,-22482.178,-8669.516,-818.56287
970820.2815779541,-25300.049,-21160.604,-24061.24,-17806.56,-855.95703,-22482.707,-8668.579,-814.7787
970820.2855779515,-25300.254,-21163.982,-24061.484,-17808.064,-861.2875,-22484.13,-8670.004,-810.9131
970820.2895779489,-25302.613,-21165.65,-24065.553,-17809.53,-862.63025,-22484.701,-8670.288,-809.7738
970820.2935779463,-25305.95,-21167.725,-24066.53,-17809.734,-862.79297,-22483.562,-8670.288,-806.9662
970820.2975779437,-25299.805,-21162.354,-24060.508,-17807.129,-860.02606,-22483.115,-8667.888,-812.25586
970820.3015779412,-25295.777,-21156.78,-24060.752,-17805.217,-859.2529,-22481.771,-8665.08,-807.8207
970820.3055779386,-25293.133,-21153.523,-24058.473,-17804.688,-857.4219,-22480.145,-8664.633,-802.6937
970820.309577936,-25291.3,-21151.814,-24059.611,-17805.46,-857.8288,-22479.492,-8662.272,-798.33984
970820.3135779334,-25289.836,-21151.205,-24058.31,-17807.049,-856.8115,-22478.598,-8665.283,-802.124
970820.3175779307,-25286.947,-21150.025,-24055.664,-17807.332,-854.2074,-22478.8,-8667.358,-807.90204
970820.3215779281,-25291.586,-21154.379,-24058.35,-17807.088,-856.486,-22479.33,-8667.358,-811.7269
970820.3255779257,-25299.766,-21162.395,-24060.303,-17809.652,-861.9792,-22481.324,-8670.858,-817.7084
970820.329577923,-25303.305,-21163.533,-24066.326,-17811.158,-863.5254,-22481.854,-8673.666,-822.9167
970820.3335779204,-25300.334,-21156.25,-24068.848,-17810.182,-859.82263,-22482.178,-8675.659,-826.86365
970820.3375779178,-25295.98,-21152.914,-24066.65,-17807.7,-856.40466,-22481.162,-8674.398,-832.4789
970820.3415779152,-25295.533,-21152.467,-24063.03,-17806.438,-853.3122,-22479.29,-8670.614,-829.3864
970820.3455779126,-25288.006,-21147.096,-24055.87,-17804.12,-848.6735,-22479.248,-8668.864,-825.236
970820.3495779102,-25281.129,-21145.672,-24048.707,-17802.41,-850.09766,-22478.8,-8666.87,-823.1201
970820.3535779075,-25283.53,-21148.072,-24049.113,-17803.143,-854.24805,-22479.941,-8666.22,-821.2484
970820.357577905,-25291.465,-21151.408,-24051.352,-17803.63,-854.9398,-22479.045,-8666.545,-822.34705
970820.3615779023,-25301.719,-21159.1,-24058.555,-17806.234,-856.68945,-22478.76,-8665.609,-820.96356
970820.3655778997,-25306.56,-21162.598,-24063.559,-17809.855,-859.375,-22477.783,-8664.348,-814.4125
970820.3695778972,-25304.24,-21158.082,-24062.785,-17809.734,-859.4564,-22478.271,-8662.639,-811.03516
970820.3735778946,-25302.695,-21155.885,-24060.1,-17808.92,-859.0495,-22477.783,-8658.285,-799.56055
970820.377577892,-25300.09,-21155.965,-24053.428,-17809.57,-857.17773,-22477.295,-8655.07,-797.11914
970820.3815778894,-25294.963,-21152.426,-24049.357,-17805.787,-852.4984,-22475.75,-8653.198,-792.3584
970820.3855778868,-25291.139,-21148.846,-24046.062,-17804.2,-850.2197,-22474.814,-8651.205,-782.71484
970820.3895778842,-25290.406,-21149.537,-24044.271,-17804.646,-849.6501,-22473.553,-8648.52,-775.9603
970820.3935778817,-25291.22,-21149.658,-24047.812,-17804.443,-850.46387,-22474.244,-8645.671,-772.7458
970820.3975778791,-25289.795,-21148.152,-24046.266,-17804.078,-851.0742,-22476.238,-8645.712,-773.6003
970820.4015778765,-25294.434,-21152.752,-24048.096,-17804.973,-851.9694,-22476.035,-8644.45,-769.0837
970820.4055778739,-25298.666,-21158.244,-24050.945,-17805.42,-854.24805,-22478.271,-8645.264,-769.9382
970820.4095778713,-25298.625,-21157.879,-24050.578,-17805.502,-855.46875,-22479.941,-8645.996,-779.45966
970820.4135778687,-25297.201,-21155.232,-24050.09,-17804.402,-853.3122,-22479.004,-8641.439,-777.38446
970820.4175778662,-25293.54,-21152.1,-24051.148,-17804.2,-851.6032,-22475.994,-8638.021,-774.1293
970820.4215778636,-25293.54,-21151.855,-24050.863,-17804.484,-851.88806,-22475.342,-8640.3,-776.4486
970820.425577861,-25297.201,-21154.744,-24051.025,-17804.158,-852.9053,-22473.633,-8638.266,-769.16504
970820.4295778584,-25298.545,-21154.664,-24052.613,-17804.322,-853.5156,-22470.053,-8632.609,-765.4623
970820.4335778558,-25300.049,-21154.623,-24056.275,-17807.781,-858.96814,-22470.176,-8631.714,-768.51404
970820.4375778532,-25301.025,-21158.691,-24059.205,-17810.506,-861.8571,-22471.355,-8633.098,-773.39685
970820.4415778507,-25306.438,-21164.633,-24062.053,-17813.885,-867.79785,-22473.227,-8635.132,-770.6706
970820.4455778481,-25307.617,-21165.486,-24061.932,-17815.756,-868.6117,-22475.342,-8638.794,-774.41406
970820.4495778455,-25304.729,-21163.086,-24056.357,-17813.924,-865.88544,-22474.691,-8641.032,-780.8024
970820.4535778429,-25303.102,-21157.715,-24056.072,-17810.914,-862.6709,-22473.186,-8639.853,-772.583
970820.4575778403,-25300.945,-21154.256,-24057.049,-17809.082,-862.7116,-22474.895,-8638.957,-767.5781
970820.4615778378,-25298.545,-21151.979,-24053.916,-17808.92,-862.58954,-22477.377,-8639.404,-764.64844
970820.4655778352,-25298.096,-21152.914,-24052.775,-17808.96,-862.99646,-22478.068,-8640.3,-761.6374
970820.4695778326,-25294.883,-21148.357,-24055.42,-17809.326,-863.4033,-22478.312,-8641.806,-765.86914
970820.47357783,-25297.242,-21151.326,-24057.7,-17811.85,-863.81024,-22477.459,-8642.538,-769.04297
970820.4775778274,-25300.049,-21151.896,-24057.049,-17813.885,-862.1826,-22475.139,-8640.544,-765.4623
970820.4815778248,-25298.219,-21149.414,-24055.787,-17814.861,-864.0137,-22475.342,-8639.567,-766.9678
970820.4855778223,-25297.812,-21149.252,-24054.2,-17814.088,-865.39716,-22476.115,-8639.608,-769.89746
970820.4895778197,-25298.34,-21149.129,-24056.926,-17814.006,-864.21716,-22475.059,-8637.167,-762.28845
970820.4935778171,-25299.277,-21149.496,-24058.066,-17813.273,-862.63025,-22474.203,-8636.23,-760.8236
970820.4975778145,-25300.375,-21148.438,-24058.35,-17812.867,-861.24677,-22475.668,-8637.695,-766.1133
970820.5015778119,-25302.328,-21149.09,-24059.734,-17812.379,-861.8978,-22474.732,-8634.766,-763.79395
970820.5055778093,-25304.852,-21152.873,-24063.885,-17812.744,-863.32196,-22474.082,-8631.877,-762.77673
970820.5095778068,-25306.64,-21155.682,-24064.414,-17814.291,-864.2578,-22475.83,-8632.731,-765.01465
970820.5135778042,-25307.781,-21155.07,-24067.18,-17814.373,-862.42676,-22476.889,-8633.098,-769.2871
970820.5175778016,-25308.39,-21153.2,-24066.691,-17814.168,-863.6882,-22476.035,-8633.057,-763.7126
970820.521577799,-25307.781,-21152.71,-24064.291,-17814.617,-866.0075,-22474.406,-8629.436,-760.6608
970820.5255777964,-25302.94,-21149.781,-24058.96,-17814.412,-863.64746,-22471.965,-8625.651,-756.06287
970820.5295777938,-25300.334,-21147.87,-24057.617,-17814.82,-862.5488,-22470.826,-8624.309,-752.2787
970820.5335777913,-25299.56,-21146.607,-24057.21,-17814.168,-861.8571,-22471.152,-8623.088,-751.2614
970820.5375777887,-25298.422,-21144.49,-24054.037,-17813.152,-861.24677,-22472.168,-8625.773,-746.13446
970820.5415777861,-25300.578,-21146.893,-24052.41,-17813.191,-861.69434,-22472.088,-8628.906,-744.9951
970820.5455777835,-25305.664,-21151.082,-24054.81,-17813.07,-865.03094,-22475.059,-8633.505,-747.51794
970820.5495777809,-25304.078,-21151.693,-24053.102,-17811.482,-865.35645,-22477.703,-8640.219,-759.80634
970820.5535777783,-25306.316,-21151.49,-24057.373,-17812.256,-864.7461,-22480.225,-8643.107,-763.99744
970820.5575777758,-25305.746,-21148.275,-24057.902,-17813.314,-863.9323,-22479.656,-8642.944,-766.9678
970820.5615777732,-25303.305,-21148.031,-24053.305,-17811.32,-864.0137,-22478.191,-8636.638,-755.49316
970820.5655777706,-25302.166,-21144.451,-24053.467,-17809.938,-864.4613,-22478.842,-8634.5625,-750.2035
970820.569577768,-25300.375,-21142.049,-24053.59,-17812.256,-861.0026,-22479.248,-8634.685,-752.76697
970820.5735777654,-25299.56,-21141.154,-24053.916,-17813.152,-857.015,-22477.621,-8630.331,-742.9199
970820.5775777629,-25300.254,-21142.334,-24056.275,-17812.703,-860.14813,-22477.744,-8631.267,-742.63513
970820.5815777603,-25303.223,-21144.979,-24055.543,-17812.744,-862.58954,-22477.5,-8630.249,-745.8903
970820.5855777577,-25304.281,-21147.217,-24051.475,-17813.762,-864.9496,-22476.848,-8628.703,-742.6758
970820.5895777551,-25303.71,-21148.846,-24051.19,-17814.291,-865.8447,-22476.848,-8625.407,-743.00134
970820.5935777525,-25304.037,-21150.146,-24051.719,-17813.111,-865.8447,-22475.22,-8623.535,-740.92615
970820.5975777499,-25303.467,-21149.943,-24049.316,-17814.494,-866.9027,-22475.668,-8622.233,-740.8447
970820.6015777474,-25303.264,-21148.764,-24049.277,-17814.656,-865.4785,-22474.082,-8619.67,-733.724
970820.6055777448,-25303.428,-21148.64,-24047.445,-17815.145,-865.1123,-22472.291,-8616.943,-727.8239
970820.6095777422,-25303.955,-21147.787,-24051.066,-17815.268,-866.8213,-22473.023,-8615.356,-728.5156
970820.6135777396,-25303.59,-21145.143,-24051.799,-17814.9,-866.1703,-22473.023,-8613.159,-722.0866
970820.617577737,-25301.758,-21144.695,-24051.19,-17815.553,-863.4033,-22473.43,-8612.102,-720.6625
970820.6215777344,-25303.549,-21145.346,-24051.025,-17814.006,-860.6364,-22472.494,-8609.335,-722.2494
970820.6255777319,-25304.443,-21145.793,-24048.951,-17814.047,-859.8633,-22472.982,-8611.369,-726.9694
970820.6295777293,-25306.152,-21145.672,-24053.06,-17815.877,-862.06055,-22474.121,-8616.049,-730.67224
970820.6335777267,-25308.717,-21147.217,-24056.846,-17817.059,-862.46747,-22476.36,-8620.972,-734.82263
970820.6375777241,-25309.938,-21149.252,-24055.705,-17817.342,-863.5254,-22478.271,-8624.309,-737.91504
970820.6415777215,-25310.1,-21148.152,-24056.234,-17816.814,-862.79297,-22477.662,-8624.756,-738.2406
970820.6455777189,-25309.734,-21148.64,-24052.816,-17815.186,-863.6882,-22475.994,-8621.704,-727.37634
970820.6495777164,-25307.74,-21146.12,-24048.096,-17813.762,-861.6537,-22474.53,-8619.101,-727.0508
970820.6535777138,-25306.316,-21142.254,-24050.254,-17813.396,-860.6771,-22473.594,-8616.577,-730.7129
970820.6575777112,-25304.566,-21140.057,-24049.969,-17812.947,-861.04333,-22475.383,-8616.943,-725.7894
970820.6615777086,-25300.66,-21137.33,-24046.469,-17811.238,-861.8571,-22476.318,-8615.886,-714.9658
970820.665577706,-25298.584,-21135.213,-24049.846,-17810.71,-858.195,-22477.05,-8617.31,-720.1742
970820.6695777035,-25302.166,-21138.143,-24051.393,-17811.28,-860.6771,-22478.477,-8619.101,-724.77216
970820.6735777009,-25306.193,-21140.504,-24056.072,-17812.947,-860.2295,-22480.43,-8621.826,-728.59705
970820.6775776983,-25306.846,-21141.643,-24056.113,-17812.541,-863.973,-22482.586,-8624.634,-731.6488
970820.6815776957,-25304.607,-21140.34,-24054.363,-17810.506,-863.32196,-22482.383,-8623.291,-729.61426
970820.685577693,-25300.66,-21137.615,-24051.922,-17810.832,-862.10126,-22480.918,-8622.396,-732.21844
970820.6895776904,-25300.863,-21136.516,-24052.125,-17813.191,-860.7992,-22480.104,-8619.345,-730.67224
970820.693577688,-25301.758,-21137.98,-24052.084,-17814.291,-859.7819,-22479.492,-8616.781,-727.6205
970820.6975776854,-25298.748,-21138.225,-24048.26,-17813.477,-857.58466,-22478.68,-8613.892,-727.4577
970820.7015776827,-25297.893,-21137.207,-24049.277,-17812.703,-858.39844,-22478.436,-8613.444,-723.18524
970820.7055776801,-25298.707,-21136.312,-24051.963,-17814.291,-859.4157,-22480.021,-8616.211,-722.9411
970820.7095776775,-25299.846,-21137.654,-24055.137,-17815.47,-858.80536,-22480.51,-8615.764,-725.09766
970820.7135776749,-25300.537,-21138.754,-24054.607,-17815.47,-858.9274,-22481.283,-8618.164,-731.32324
970820.7175776724,-25299.56,-21139.607,-24053.02,-17813.762,-857.8288,-22480.307,-8622.478,-738.2406
970820.7215776698,-25298.666,-21141.113,-24050.049,-17812.988,-858.43915,-22480.754,-8622.763,-736.9792
970820.7255776672,-25298.38,-21139.934,-24052.37,-17812.541,-855.5908,-22481.04,-8622.722,-730.99774
970820.7295776646,-25299.072,-21142.416,-24055.746,-17814.088,-855.46875,-22481.65,-8624.35,-727.0508
970820.733577662,-25301.352,-21145.71,-24054.443,-17814.25,-859.4157,-22482.951,-8625.651,-725.46387
970820.7375776594,-25304.037,-21146.281,-24054.404,-17814.209,-859.5785,-22483.236,-8627.89,-727.66113
970820.7415776569,-25304.893,-21147.828,-24052.654,-17814.373,-860.83984,-22482.992,-8629.313,-727.0915
970820.7455776543,-25313.07,-21153.973,-24055.664,-17817.871,-866.4551,-22481.568,-8629.924,-727.5798
970820.7495776517,-25313.803,-21156.576,-24057.7,-17818.97,-867.6758,-22482.016,-8631.47,-735.1074
970820.7535776491,-25303.793,-21149.578,-24057.17,-17817.547,-865.43787,-22483.684,-8633.667,-740.6413
970820.7575776465,-25302.125,-21146.2,-24057.902,-17817.262,-861.77576,-22484.01,-8630.981,-739.624
970820.761577644,-25304.525,-21147.46,-24058.105,-17819.256,-861.4909,-22482.26,-8625.163,-733.5205
970820.7655776414,-25303.793,-21147.664,-24056.275,-17817.668,-859.5378,-22481.365,-8622.519,-733.9274
970820.7695776388,-25304.852,-21149.455,-24058.92,-17816.406,-856.486,-22480.918,-8621.664,-736.3281
970820.7735776362,-25306.885,-21148.357,-24063.72,-17817.139,-853.43427,-22481.406,-8619.304,-737.79297
970820.7775776336,-25305.99,-21147.258,-24061.484,-17816.936,-853.475,-22480.592,-8613.607,-730.83496
970820.781577631,-25301.352,-21145.672,-24057.008,-17815.838,-854.65497,-22479.412,-8609.009,-721.80176
970820.7855776285,-25300.293,-21148.031,-24053.955,-17817.791,-857.2998,-22480.918,-8609.416,-722.29004
970820.7895776259,-25302.816,-21149.74,-24054.443,-17820.191,-857.0964,-22482.951,-8615.031,-731.85223
970820.7935776233,-25302.49,-21147.299,-24056.234,-17819.662,-859.33435,-22485.23,-8622.192,-739.7868
970820.7975776207,-25300.13,-21145.955,-24049.684,-17818.727,-857.91016,-22486.613,-8624.634,-734.70056
970820.8015776181,-25298.992,-21145.672,-24046.795,-17818.318,-857.1371,-22487.021,-8623.454,-729.0446
970820.8055776155,-25298.3,-21143.84,-24050.742,-17818.441,-857.015,-22488.525,-8626.628,-732.9916
970820.809577613,-25295.33,-21140.584,-24051.19,-17817.994,-852.53906,-22487.06,-8631.511,-739.2985
970820.8135776104,-25294.516,-21138.143,-24052.613,-17818.035,-849.528,-22487.875,-8636.638,-748.53516
970820.8175776078,-25292.686,-21135.336,-24052.572,-17814.291,-847.6156,-22487.225,-8638.713,-749.2269
970820.8215776052,-25291.709,-21135.295,-24050.049,-17813.396,-849.2839,-22488.445,-8644.857,-759.35876
970820.8255776026,-25292.48,-21139.363,-24051.678,-17813.965,-853.55634,-22490.56,-8650.391,-766.3574
970820.8295776,-25298.748,-21147.625,-24052.734,-17815.064,-859.4157,-22492.758,-8655.233,-772.17615
970820.8335775975,-25304.525,-21151.408,-24054.24,-17816.326,-859.9447,-22493.775,-8657.797,-778.27966
970820.8375775949,-25307.252,-21149.984,-24056.234,-17817.953,-858.9274,-22492.637,-8654.623,-778.72723
970820.8415775923,-25310.02,-21150.799,-24058.35,-17819.662,-857.7067,-22487.916,-8645.468,-769.69403
970820.8455775897,-25312.582,-21153.32,-24060.223,-17820.965,-856.7709,-22482.016,-8636.638,-759.9691
970820.8495775871,-25311.973,-21153.605,-24060.71,-17822.43,-856.1605,-22478.639,-8630.859,-757.8939
970820.8535775846,-25311.768,-21152.264,-24061.32,-17822.877,-854.1667,-22478.436,-8627.6455,-752.76697
970820.857577582,-25308.35,-21151.814,-24060.71,-17820.924,-853.39355,-22480.266,-8628.947,-756.2663
970820.8615775794,-25303.672,-21149.334,-24058.514,-17818.035,-856.2826,-22482.707,-8628.825,-748.9421
970820.8655775768,-25300.578,-21147.908,-24055.055,-17816.53,-859.33435,-22486.248,-8631.063,-739.7868
970820.8695775742,-25301.393,-21150.27,-24050.742,-17816.61,-859.13086,-22487.549,-8631.999,-734.5785
970820.8735775716,-25300.416,-21151.205,-24049.602,-17817.098,-857.8288,-22487.469,-8633.261,-732.2998
970820.8775775691,-25299.56,-21150.879,-24048.26,-17815.877,-856.8115,-22487.549,-8634.115,-729.2074
970820.8815775665,-25299.44,-21151.164,-24049.56,-17817.098,-860.2295,-22486.816,-8633.667,-725.3825
970820.8855775639,-25301.719,-21154.867,-24050.13,-17819.703,-865.153,-22487.957,-8635.62,-731.4453
970820.8895775613,-25299.969,-21152.67,-24050.863,-17818.197,-862.10126,-22488.322,-8636.394,-738.3627
970820.8935775587,-25299.398,-21150.676,-24046.55,-17816.61,-857.2998,-22488.078,-8635.295,-735.7992
970820.8975775561,-25294.963,-21147.705,-24042.521,-17816.162,-854.3701,-22486.857,-8629.028,-726.1963
970820.9015775536,-25291.424,-21144.695,-24039.959,-17815.633,-854.5329,-22485.434,-8624.594,-722.00525
970820.905577551,-25290.162,-21141.643,-24041.424,-17815.633,-851.31836,-22486.41,-8626.872,-727.946
970820.9095775484,-25290.283,-21139.934,-24042.807,-17814.412,-850.1791,-22488.16,-8631.022,-737.46747
970820.9135775458,-25291.504,-21138.998,-24046.51,-17814.209,-852.4984,-22491.416,-8634.726,-739.0951
970820.9175775432,-25290.488,-21140.096,-24049.236,-17813.07,-853.23083,-22493.287,-8634.97,-737.7523
970820.9215775406,-25289.959,-21141.236,-24047.363,-17812.867,-853.5156,-22493.37,-8634.359,-735.55505
970820.9255775381,-25293.05,-21142.457,-24044.963,-17815.838,-851.9694,-22491.537,-8634.604,-735.7992
970820.9295775355,-25296.104,-21144.979,-24043.498,-17817.953,-853.59705,-22490.602,-8631.877,-737.46747
970820.9335775329,-25292.441,-21141.033,-24039.877,-17818.035,-849.4873,-22489.055,-8627.157,-733.07294
970820.9375775303,-25285.4,-21130.982,-24036.133,-17815.227,-842.12244,-22488.16,-8627.849,-738.8916
970820.9415775277,-25278.973,-21122.396,-24035.238,-17812.459,-835.36786,-22486.898,-8629.517,-739.0544
970820.9455775251,-25281.535,-21123.088,-24035.4,-17813.355,-837.6465,-22489.014,-8634.399,-744.2627
970820.9495775226,-25285.076,-21128.297,-24036.703,-17813.72,-839.88446,-22490.44,-8640.097,-748.57587
970820.95357752,-25288.127,-21132.447,-24042.807,-17815.594,-840.2507,-22492.92,-8642.7,-754.2318
970820.9575775174,-25292.236,-21136.15,-24043.662,-17817.018,-842.85486,-22492.758,-8638.713,-749.59314
970820.9615775148,-25292.441,-21135.01,-24043.701,-17817.668,-843.99414,-22490.316,-8633.911,-745.44275
970820.9655775122,-25291.504,-21133.992,-24041.709,-17816.773,-842.57,-22489.707,-8629.517,-742.0248
970820.9695775097,-25289.674,-21132.65,-24041.342,-17815.512,-842.7328,-22491.416,-8628.5,-743.16406
970820.9735775071,-25286.133,-21129.883,-24042.277,-17814.535,-841.0238,-22493.125,-8630.981,-744.3034
970820.9775775045,-25284.14,-21126.791,-24035.076,-17814.209,-835.32715,-22492.637,-8628.378,-737.8744
970820.9815775019,-25281.006,-21123.943,-24030.518,-17813.355,-831.33954,-22490.764,-8624.228,-730.2246
970820.9855774993,-25276.855,-21118.938,-24029.541,-17811.85,-827.9216,-22489.463,-8620.6875,-723.02246
970820.9895774967,-25276.45,-21117.107,-24030.438,-17814.129,-829.0202,-22489.625,-8618.693,-716.39
970820.9935774942,-25275.146,-21116.537,-24030.03,-17814.494,-829.3864,-22489.746,-8621.257,-717.00037
970820.9975774916,-25274.334,-21116.62,-24033.244,-17814.373,-832.03125,-22490.56,-8624.1455,-720.7031
970821.001577489,-25276.855,-21120.688,-24035.238,-17815.633,-834.2692,-22490.154,-8628.906,-725.3418
970821.0055774864,-25282.797,-21126.547,-24035.482,-17817.059,-839.0707,-22487.957,-8630.453,-723.22595
970821.0095774838,-25286.621,-21128.785,-24036.541,-17819.215,-841.7155,-22488.69,-8630.819,-723.87695
970821.0135774811,-25287.559,-21130.412,-24036.053,-17817.22,-839.2741,-22490.031,-8631.958,-731.7709
970821.0175774787,-25283.977,-21128.826,-24033.977,-17816.326,-837.76855,-22489.666,-8630.615,-735.02606
970821.021577476,-25281.535,-21125.244,-24031.943,-17815.309,-834.51337,-22487.225,-8624.919,-731.85223
970821.0255774735,-25278.402,-21123.617,-24029.338,-17813.191,-830.85126,-22486.248,-8620.728,-722.1273
970821.0295774709,-25277.1,-21120.361,-24031.943,-17813.68,-827.55536,-22486.898,-8619.873,-717.041
970821.0335774682,-25277.467,-21119.832,-24031.414,-17814.982,-828.6133,-22489.463,-8622.722,-721.5983
970821.0375774656,-25276.328,-21120.646,-24031.373,-17813.68,-833.0485,-22492.555,-8627.279,-726.1149
970821.0415774632,-25280.6,-21123.82,-24034.588,-17814.535,-836.1003,-22495.078,-8632.08,-730.10254
970821.0455774606,-25281.21,-21124.146,-24035.441,-17816.244,-838.70447,-22494.264,-8630.087,-727.33563
970821.049577458,-25280.967,-21127.564,-24034.059,-17816.162,-839.51825,-22492.107,-8625.8955,-721.5983
970821.0535774553,-25286.094,-21133.22,-24034.832,-17818.074,-843.66864,-22492.514,-8626.262,-723.9584
970821.0575774527,-25288.535,-21136.639,-24034.18,-17818.28,-842.4072,-22491.416,-8627.035,-732.05566
970821.0615774503,-25292.4,-21138.348,-24035.28,-17818.604,-840.9424,-22491.781,-8628.296,-732.5033
970821.0655774476,-25291.992,-21134.725,-24033.488,-17818.482,-842.041,-22494.14,-8634.521,-732.2998
970821.069577445,-25287.436,-21130.982,-24032.432,-17817.22,-841.43066,-22493.816,-8638.957,-734.70056
970821.0735774424,-25290.365,-21131.268,-24035.809,-17814.941,-836.4665,-22494.14,-8638.632,-735.92126
970821.0775774398,-25287.395,-21129.354,-24036.541,-17814.168,-832.2754,-22495.322,-8640.137,-736.084
970821.0815774372,-25283.855,-21127.809,-24038.168,-17816.447,-832.1127,-22493.45,-8638.632,-731.32324
970821.0855774347,-25289.674,-21128.215,-24043.701,-17819.05,-832.19403,-22492.148,-8635.214,-729.0039
970821.0895774321,-25294.842,-21130.78,-24046.428,-17821.412,-832.6823,-22491.904,-8633.627,-727.8239
970821.0935774295,-25289.389,-21128.744,-24040.691,-17819.988,-834.96094,-22491.62,-8633.952,-723.2666
970821.0975774269,-25283.855,-21128.174,-24042.074,-17819.092,-838.25684,-22493.002,-8635.295,-723.59216
970821.1015774243,-25288.086,-21132.488,-24043.54,-17820.271,-837.76855,-22493.37,-8634.644,-727.6205
970821.1055774217,-25289.959,-21133.22,-24042.318,-17820.8,-838.29755,-22494.385,-8632.162,-718.4652
970821.1095774192,-25292.197,-21135.621,-24042.48,-17821.004,-840.37274,-22497.926,-8632.487,-717.65137
970821.1135774166,-25292.889,-21137.166,-24042.848,-17820.516,-840.0879,-22499.146,-8634.399,-722.81903
970821.117577414,-25290.977,-21134.725,-24040.568,-17819.783,-839.3962,-22497.234,-8632.406,-724.528
970821.1215774114,-25286.662,-21134.36,-24037.395,-17821.371,-840.20996,-22494.346,-8626.872,-720.8252
970821.1255774088,-25286.012,-21132.771,-24038.453,-17824.098,-840.6576,-22491.455,-8619.873,-710.69336
970821.1295774062,-25284.832,-21131.43,-24041.953,-17825.36,-841.1459,-22493.164,-8621.298,-713.5417
970821.1335774037,-25283.367,-21129.436,-24040.08,-17824.342,-835.8154,-22494.182,-8627.279,-718.5466
970821.1375774011,-25281.617,-21129.639,-24039.062,-17823.486,-834.47266,-22494.59,-8631.267,-720.988
970821.1415773985,-25282.023,-21128.621,-24041.383,-17822.307,-834.18787,-22495.24,-8630.737,-716.63416
970821.1455773959,-25284.791,-21131.348,-24041.992,-17822.633,-835.2865,-22496.95,-8633.464,-718.3838
970821.1495773933,-25288.291,-21135.742,-24043.213,-17824.545,-836.5072,-22499.35,-8637.492,-723.02246
970821.1535773908,-25288.9,-21136.15,-24044.23,-17823.771,-835.4899,-22501.873,-8643.026,-735.14813
970821.1575773882,-25291.668,-21138.469,-24044.8,-17823.934,-837.8906,-22504.436,-8646.159,-736.57227
970821.1615773856,-25295.818,-21141.195,-24048.545,-17826.498,-841.7969,-22505.78,-8649.536,-734.82263
970821.165577383,-25296.836,-21140.87,-24049.236,-17827.434,-841.91895,-22503.215,-8646.729,-731.32324
970821.1695773804,-25294.883,-21139.771,-24046.795,-17828.533,-842.3666,-22500.0,-8641.398,-727.9053
970821.1735773778,-25292.889,-21138.875,-24045.492,-17828.207,-841.63416,-22497.193,-8638.021,-730.0212
970821.1775773753,-25293.54,-21139.527,-24045.492,-17828.125,-841.55273,-22496.094,-8633.911,-721.1914
970821.1815773727,-25291.016,-21137.654,-24043.05,-17828.29,-839.5996,-22494.996,-8631.308,-713.9079
970821.1855773701,-25289.104,-21135.05,-24043.213,-17826.498,-837.8906,-22495.484,-8633.017,-715.6169
970821.1895773675,-25293.824,-21137.777,-24046.875,-17825.969,-839.19275,-22496.094,-8634.277,-715.41345
970821.1935773649,-25298.87,-21142.375,-24050.781,-17826.295,-843.099,-22499.96,-8641.439,-725.13837
970821.1975773623,-25299.195,-21143.88,-24050.578,-17825.969,-844.88934,-22503.541,-8647.624,-739.2578
970821.2015773598,-25298.34,-21144.734,-24050.578,-17824.342,-844.6045,-22503.5,-8644.775,-724.6094
970821.2055773572,-25297.73,-21144.451,-24052.125,-17824.422,-841.3493,-22503.623,-8643.962,-719.03485
970821.2095773546,-25298.584,-21144.857,-24051.025,-17827.393,-841.43066,-22503.012,-8644.409,-721.2728
970821.213577352,-25301.19,-21145.955,-24051.31,-17829.021,-841.3086,-22499.756,-8643.433,-724.6908
970821.2175773494,-25298.219,-21141.928,-24049.56,-17827.516,-837.2803,-22498.414,-8642.944,-733.07294
970821.2215773468,-25292.318,-21136.76,-24044.883,-17824.91,-835.04236,-22496.908,-8640.991,-728.3122
970821.2255773443,-25288.371,-21131.633,-24042.562,-17824.545,-831.1361,-22495.566,-8638.306,-720.8659
970821.2295773417,-25284.303,-21126.75,-24038.33,-17821.656,-825.3988,-22493.857,-8636.394,-718.4245
970821.2335773391,-25283.326,-21124.023,-24038.86,-17821.412,-823.85254,-22495.078,-8639.282,-723.3887
970821.2375773365,-25283.57,-21123.535,-24042.277,-17821.492,-824.6664,-22494.305,-8638.876,-720.3776
970821.2415773339,-25282.715,-21124.838,-24041.424,-17820.76,-825.3581,-22494.996,-8637.126,-719.4824
970821.2455773313,-25282.146,-21125.367,-24041.627,-17822.266,-826.2126,-22497.111,-8635.214,-719.9707
970821.2495773288,-25281.78,-21128.012,-24040.04,-17823.73,-828.125,-22498.332,-8634.074,-723.02246
970821.2535773262,-25284.506,-21128.906,-24040.854,-17825.115,-830.7699,-22499.676,-8631.714,-720.5404
970821.2575773236,-25286.5,-21130.047,-24040.61,-17825.521,-830.9326,-22501.059,-8633.179,-719.56384
970821.261577321,-25285.645,-21132.08,-24043.865,-17826.701,-831.21747,-22500.896,-8629.639,-715.0879
970821.2655773184,-25286.256,-21131.959,-24042.197,-17826.824,-829.7526,-22496.543,-8622.478,-707.60095
970821.2695773159,-25282.635,-21128.012,-24042.725,-17826.295,-826.70087,-22493.857,-8616.089,-698.6898
970821.2735773133,-25280.07,-21127.076,-24042.197,-17828.41,-829.5492,-22493.693,-8614.38,-702.4333
970821.2775773107,-25285.441,-21132.488,-24044.8,-17829.875,-834.18787,-22493.45,-8613.933,-702.7995
970821.2815773081,-25283.57,-21132.121,-24047.812,-17829.59,-836.71063,-22494.71,-8613.037,-695.0277
970821.2855773055,-25280.723,-21130.25,-24046.104,-17829.266,-838.5417,-22496.299,-8614.34,-693.4001
970821.2895773029,-25282.39,-21133.424,-24043.824,-17830.975,-839.55896,-22497.193,-8618.327,-697.0622
970821.2935773004,-25281.373,-21132.691,-24043.01,-17831.137,-838.7858,-22499.023,-8623.983,-704.9154
970821.2975772978,-25283.611,-21134.033,-24045.736,-17830.934,-838.70447,-22498.047,-8622.355,-703.8168
970821.3015772952,-25283.936,-21133.709,-24043.945,-17830.242,-839.2741,-22496.338,-8617.1875,-694.6615
970821.3055772926,-25285.32,-21133.3,-24042.93,-17830.486,-840.69824,-22496.787,-8616.171,-693.807
970821.30957729,-25291.098,-21138.266,-24041.79,-17832.928,-842.00037,-22495.158,-8616.496,-696.81805
970821.3135772874,-25291.424,-21135.824,-24045.29,-17833.416,-842.041,-22494.182,-8615.153,-699.3002
970821.3175772849,-25292.318,-21135.621,-24046.836,-17832.234,-840.8203,-22494.06,-8613.933,-702.474
970821.3215772823,-25297.201,-21140.625,-24049.357,-17835.043,-842.7328,-22494.182,-8613.403,-698.85254
970821.3255772797,-25301.637,-21144.94,-24051.393,-17836.385,-847.1273,-22494.508,-8621.013,-704.834
970821.3295772771,-25303.63,-21146.363,-24050.863,-17837.729,-847.81903,-22497.111,-8627.686,-716.8376
970821.3335772745,-25309.896,-21152.467,-24051.555,-17840.332,-848.6735,-22499.309,-8628.215,-717.041
970821.3375772719,-25310.1,-21154.785,-24050.049,-17838.746,-850.1791,-22499.35,-8628.703,-717.32587
970821.3415772694,-25305.664,-21152.914,-24046.104,-17837.158,-849.40594,-22497.885,-8627.482,-719.72656
970821.3455772668,-25301.352,-21151.002,-24048.748,-17836.549,-847.7783,-22495.484,-8623.413,-715.9424
970821.3495772642,-25300.781,-21148.52,-24048.26,-17836.59,-847.33075,-22496.379,-8622.192,-712.11755
970821.3535772616,-25295.94,-21145.305,-24048.666,-17834.637,-848.02246,-22497.355,-8621.786,-707.1533
970821.357577259,-25297.201,-21146.77,-24045.777,-17834.352,-847.2087,-22497.6,-8620.158,-704.7119
970821.3615772565,-25296.428,-21147.828,-24039.348,-17833.416,-847.7377,-22496.867,-8617.31,-703.4912
970821.3655772539,-25297.607,-21148.64,-24040.732,-17832.113,-851.3591,-22497.764,-8615.072,-703.57263
970821.3695772513,-25301.23,-21151.367,-24047.975,-17835.328,-846.11005,-22499.96,-8613.933,-704.3864
970821.3735772487,-25300.945,-21149.578,-24051.393,-17836.06,-845.5404,-22501.1,-8614.462,-707.03125
970821.377577246,-25298.38,-21148.316,-24047.812,-17835.125,-845.21484,-22500.45,-8616.211,-701.9857
970821.3815772434,-25296.875,-21147.34,-24047.12,-17834.229,-843.3838,-22501.385,-8617.229,-692.0573
970821.385577241,-25295.574,-21145.875,-24045.898,-17832.44,-843.66864,-22500.652,-8615.683,-686.60486
970821.3895772384,-25294.027,-21146.484,-24044.19,-17831.299,-843.13965,-22500.164,-8615.601,-681.8441
970821.3935772358,-25296.795,-21148.846,-24044.598,-17831.707,-841.63416,-22499.473,-8613.485,-675.7406
970821.3975772331,-25298.057,-21149.09,-24045.29,-17831.707,-842.8955,-22498.332,-8610.515,-664.917
970821.4015772305,-25300.049,-21149.129,-24046.387,-17831.096,-846.15076,-22497.764,-8609.253,-667.11426
970821.4055772279,-25301.963,-21152.02,-24048.79,-17831.99,-848.0632,-22499.432,-8612.346,-673.8281
970821.4095772255,-25302.49,-21153.729,-24046.348,-17832.805,-848.6735,-22501.1,-8618.246,-681.8441
970821.4135772228,-25297.607,-21149.578,-24045.451,-17831.463,-847.65625,-22503.988,-8626.628,-701.416
970821.4175772202,-25296.062,-21145.955,-24044.027,-17830.281,-844.279,-22504.314,-8632.406,-710.5713
970821.4215772176,-25294.027,-21147.543,-24045.777,-17830.69,-844.4824,-22505.006,-8634.685,-712.93134
970821.425577215,-25295.166,-21149.781,-24045.98,-17829.63,-844.36035,-22503.297,-8633.301,-712.76855
970821.4295772124,-25297.283,-21149.822,-24050.049,-17830.486,-841.3086,-22503.541,-8631.918,-713.2162
970821.43357721,-25296.55,-21148.275,-24051.84,-17831.91,-837.3617,-22503.135,-8628.54,-711.3444
970821.4375772073,-25296.266,-21148.152,-24051.963,-17833.334,-840.2507,-22502.605,-8626.669,-711.0596
970821.4415772047,-25294.922,-21148.723,-24049.033,-17833.7,-841.7155,-22499.92,-8623.739,-705.6885
970821.4455772021,-25294.271,-21149.781,-24050.578,-17833.334,-840.6169,-22498.496,-8622.478,-699.25946
970821.4495771995,-25295.98,-21152.059,-24052.41,-17834.596,-840.1286,-22500.488,-8624.512,-691.1621
970821.453577197,-25293.213,-21149.373,-24048.463,-17833.904,-842.5293,-22501.262,-8623.983,-688.2324
970821.4575771944,-25290.895,-21145.71,-24045.736,-17833.943,-843.18036,-22502.361,-8622.803,-694.33594
970821.4615771918,-25291.504,-21147.299,-24044.15,-17835.572,-843.18036,-22501.709,-8618.205,-689.4531
970821.4655771892,-25288.127,-21146.688,-24040.283,-17835.857,-840.2914,-22500.285,-8614.38,-684.8959
970821.4695771866,-25283.814,-21143.758,-24039.062,-17834.27,-837.97205,-22499.229,-8613.159,-683.59375
970821.473577184,-25282.432,-21139.568,-24042.645,-17833.293,-837.11755,-22498.414,-8613.485,-687.5
970821.4775771815,-25282.35,-21136.23,-24045.371,-17832.072,-836.6699,-22498.658,-8613.7295,-688.029
970821.4815771789,-25284.873,-21137.94,-24045.574,-17831.422,-835.36786,-22498.008,-8612.305,-679.0365
970821.4855771763,-25286.215,-21140.178,-24045.695,-17832.398,-835.4492,-22496.99,-8609.619,-670.0033
970821.4895771737,-25290.61,-21143.963,-24047.771,-17834.84,-838.0941,-22496.746,-8609.619,-675.49646
970821.4935771711,-25292.93,-21147.299,-24048.057,-17836.752,-839.19275,-22498.252,-8610.556,-679.4027
970821.4975771685,-25292.848,-21146.648,-24047.812,-17834.555,-839.681,-22499.105,-8609.945,-679.15857
970821.501577166,-25291.383,-21145.428,-24045.41,-17833.252,-842.32587,-22496.99,-8606.242,-677.4089
970821.5055771634,-25286.826,-21144.49,-24040.936,-17832.602,-841.22723,-22494.67,-8603.76,-677.04266
970821.5095771608,-25284.953,-21144.002,-24038.86,-17831.137,-841.7969,-22494.67,-8601.237,-672.64813
970821.5135771582,-25285.889,-21144.37,-24044.842,-17831.584,-844.36035,-22495.566,-8602.173,-673.70605
970821.5175771556,-25286.094,-21145.305,-24046.062,-17831.87,-842.1631,-22494.467,-8604.492,-677.04266
970821.521577153,-25285.97,-21145.59,-24048.016,-17833.21,-840.73895,-22493.37,-8603.19,-674.1537
970821.5255771505,-25287.11,-21146.12,-24048.828,-17832.479,-840.20996,-22492.188,-8603.598,-673.86884
970821.5295771479,-25288.574,-21146.484,-24049.928,-17831.87,-838.29755,-22492.555,-8605.957,-674.7233
970821.5335771453,-25287.395,-21145.793,-24050.049,-17833.049,-838.3789,-22496.826,-8611.369,-680.1758
970821.5375771427,-25284.465,-21143.678,-24045.98,-17832.56,-838.7858,-22499.188,-8615.601,-683.22754
970821.5415771401,-25283.488,-21143.555,-24042.197,-17832.031,-839.51825,-22500.0,-8617.798,-682.45447
970821.5455771375,-25282.309,-21140.666,-24044.475,-17831.625,-838.70447,-22496.95,-8615.316,-679.7282
970821.549577135,-25282.432,-21140.38,-24045.248,-17831.87,-836.6293,-22494.549,-8613.525,-683.6752
970821.5535771324,-25284.18,-21141.928,-24049.154,-17834.025,-840.5355,-22496.094,-8613.444,-683.1462
970821.5575771298,-25284.873,-21139.201,-24050.781,-17835.205,-838.501,-22495.81,-8609.172,-678.3447
970821.5615771272,-25286.906,-21138.062,-24053.184,-17835.37,-835.89685,-22494.873,-8603.882,-675.3337
970821.5655771246,-25288.33,-21140.79,-24055.137,-17837.443,-838.29755,-22495.646,-8603.271,-674.6826
970821.5695771221,-25289.47,-21142.945,-24056.52,-17839.031,-837.76855,-22495.443,-8601.807,-672.404
970821.5735771195,-25289.836,-21142.293,-24056.275,-17838.826,-838.7858,-22496.379,-8604.004,-678.75165
970821.5775771169,-25288.047,-21141.521,-24054.322,-17838.094,-838.0534,-22495.89,-8603.557,-682.8613
970821.5815771143,-25285.809,-21139.201,-24049.195,-17835.125,-833.1299,-22496.582,-8600.505,-676.83923
970821.5855771117,-25279.379,-21129.72,-24044.11,-17832.643,-829.1423,-22495.566,-8598.308,-677.653
970821.5895771091,-25275.84,-21124.512,-24043.457,-17831.463,-825.6836,-22491.334,-8594.482,-670.24744
970821.5935771066,-25279.053,-21127.035,-24045.615,-17833.21,-826.0498,-22490.357,-8592.978,-663.45215
970821.597577104,-25274.496,-21123.535,-24043.906,-17833.008,-828.5319,-22491.172,-8595.297,-665.8529
970821.6015771014,-25268.31,-21121.014,-24039.062,-17834.066,-829.58984,-22492.717,-8598.999,-670.7357
970821.6055770988,-25274.822,-21126.75,-24037.639,-17835.002,-832.2754,-22493.652,-8602.661,-667.7246
970821.6095770962,-25278.2,-21128.906,-24034.424,-17835.816,-831.1361,-22495.281,-8604.858,-668.90466
