timestamp,Fp1,Fp2,F3,Fz,F4,Cz,Pz,Oz
970888.6615337841,-23350.912,-17123.7,-21545.492,-17946.127,774.8617,-22895.63,-6101.156,4514.5674
970888.6655337815,-23346.6,-17120.2,-21540.568,-17943.97,777.4252,-22894.857,-6102.295,4513.916
970888.6695337789,-23343.75,-17117.799,-21541.709,-17943.074,778.9714,-22895.469,-6102.2544,4508.9927
970888.6735337763,-23338.584,-17112.06,-21538.982,-17939.982,780.15137,-22898.316,-6103.76,4510.01
970888.6775337737,-23334.393,-17105.145,-21536.338,-17938.03,784.1797,-22900.27,-6106.771,4511.434
970888.6815337711,-23334.84,-17105.957,-21535.076,-17937.988,784.9528,-22900.879,-6110.1484,4504.9644
970888.6855337686,-23339.723,-17110.027,-21536.621,-17939.738,779.78516,-22902.14,-6113.5664,4499.4307
970888.689533766,-23343.182,-17113.322,-21536.297,-17940.756,776.9369,-22901.002,-6114.7056,4499.878
970888.6935337634,-23341.758,-17115.926,-21538.78,-17941.326,775.5534,-22900.635,-6115.6416,4493.8154
970888.6975337608,-23341.553,-17117.066,-21539.307,-17942.262,776.8962,-22899.049,-6113.851,4493.8154
970888.7015337582,-23342.082,-17116.902,-21538.453,-17941.447,774.94305,-22899.252,-6109.5786,4499.878
970888.7055337556,-23342.082,-17117.39,-21542.604,-17941.773,774.90234,-22899.943,-6106.649,4502.8076
970888.7095337531,-23339.805,-17113.77,-21542.236,-17939.82,775.47205,-22898.967,-6103.1494,4506.1445
970888.7135337505,-23337.402,-17112.672,-21542.236,-17939.617,776.16376,-22897.666,-6099.162,4508.789
970888.7175337479,-23335.734,-17111.613,-21544.678,-17939.738,779.41895,-22895.225,-6093.0176,4515.3
970888.7215337453,-23340.21,-17114.178,-21544.354,-17942.383,776.8148,-22893.637,-6091.5527,4517.7817
970888.7255337427,-23341.92,-17115.316,-21544.678,-17944.459,773.8444,-22894.125,-6092.041,4522.054
970888.7295337401,-23341.229,-17115.764,-21544.922,-17944.377,773.641,-22897.99,-6094.5234,4524.211
970888.7335337376,-23338.502,-17113.607,-21539.918,-17941.65,774.41406,-22900.473,-6097.9004,4518.677
970888.737533735,-23335.898,-17111.287,-21537.354,-17938.803,775.7162,-22900.676,-6096.924,4517.9443
970888.7415337324,-23333.537,-17110.393,-21533.367,-17938.191,778.76794,-22899.863,-6093.872,4524.048
970888.7455337298,-23333.822,-17111.043,-21536.174,-17939.576,777.9948,-22900.146,-6094.5234,4525.3906
970888.7495337272,-23338.787,-17115.723,-21539.227,-17941.447,775.5127,-22901.49,-6097.9004,4517.334
970888.7535337247,-23339.764,-17117.39,-21537.72,-17941.041,774.6582,-22900.676,-6097.412,4514.9336
970888.7575337221,-23333.09,-17113.893,-21534.303,-17939.412,778.1169,-22899.21,-6093.0586,4522.2983
970888.7615337195,-23330.771,-17114.422,-21532.309,-17940.715,776.8962,-22898.643,-6090.8613,4532.186
970888.7655337169,-23333.213,-17116.13,-21533.652,-17941.488,777.3031,-22899.781,-6094.808,4527.385
970888.7695337143,-23336.426,-17118.123,-21533.244,-17940.715,777.3031,-22903.076,-6101.7256,4512.248
970888.7735337117,-23335.125,-17117.555,-21531.861,-17940.43,776.12305,-22904.95,-6106.405,4510.254
970888.7775337092,-23330.363,-17113.81,-21530.803,-17940.959,779.8666,-22904.99,-6107.7476,4513.265
970888.7815337066,-23330.445,-17113.607,-21530.6,-17943.035,783.8542,-22903.443,-6104.4517,4519.5312
970888.785533704,-23329.55,-17113.16,-21527.67,-17942.383,785.52246,-22902.385,-6104.5737,4516.8457
970888.7895337014,-23330.322,-17112.752,-21527.182,-17942.018,784.3832,-22903.688,-6107.0557,4510.4575
970888.7935336988,-23328.33,-17108.766,-21529.46,-17942.342,784.46454,-22903.525,-6107.3,4504.232
970888.7975336962,-23326.986,-17107.422,-21528.688,-17942.303,785.68524,-22900.146,-6102.661,4510.2134
970888.8015336937,-23327.88,-17109.54,-21524.943,-17941.406,788.53357,-22898.805,-6098.755,4513.8755
970888.8055336911,-23330.12,-17112.225,-21524.62,-17941.406,788.53357,-22899.414,-6095.4185,4517.131
970888.8095336885,-23329.143,-17111.898,-21523.846,-17939.82,788.8591,-22897.787,-6091.3496,4521.322
970888.8135336859,-23328.41,-17112.428,-21522.625,-17940.43,787.7197,-22896.363,-6087.606,4527.2217
970888.8175336833,-23328.086,-17112.875,-21521.852,-17941.121,786.09216,-22897.258,-6089.3555,4526.0825
970888.8215336807,-23328.451,-17115.56,-21523.193,-17940.715,787.31287,-22897.096,-6089.193,4529.1343
970888.8255336782,-23327.354,-17114.096,-21521.484,-17941.53,785.8887,-22897.99,-6091.0645,4532.9185
970888.8295336756,-23328.125,-17112.387,-21525.514,-17944.092,785.4818,-22898.398,-6088.745,4539.958
970888.833533673,-23326.295,-17111.654,-21526.164,-17942.668,786.37695,-22897.34,-6083.496,4548.9097
970888.8375336704,-23324.383,-17106.893,-21522.99,-17941.57,787.9232,-22896.16,-6079.3867,4552.0835
970888.8415336678,-23319.459,-17102.742,-21519.451,-17940.023,793.90466,-22893.516,-6073.5273,4560.2217
970888.8455336652,-23319.297,-17104.492,-21519.531,-17939.738,794.515,-22895.184,-6073.8936,4562.134
970888.8495336627,-23320.477,-17106.404,-21524.293,-17941.854,789.83563,-22899.293,-6078.003,4555.9897
970888.8535336601,-23320.557,-17103.23,-21523.682,-17943.807,791.3005,-22899.7,-6078.7764,4550.537
970888.8575336575,-23320.191,-17099.65,-21522.422,-17943.482,794.71844,-22897.828,-6073.8936,4556.9663
970888.8615336549,-23319.541,-17099.488,-21521.729,-17943.768,795.5322,-22897.096,-6073.8936,4559.0415
970888.8655336522,-23319.621,-17101.686,-21519.816,-17942.791,796.5495,-22896.893,-6073.4053,4561.727
970888.8695336498,-23322.43,-17106.486,-21520.305,-17942.586,791.1377,-22898.357,-6075.073,4553.2227
970888.8735336472,-23323.936,-17107.951,-21520.184,-17943.604,786.58044,-22897.014,-6075.073,4545.451
970888.8775336446,-23326.58,-17110.352,-21521.078,-17943.238,785.0749,-22896.24,-6073.4053,4546.1836
970888.881533642,-23329.998,-17114.584,-21522.46,-17944.215,782.8369,-22896.525,-6073.568,4550.1304
970888.8855336393,-23332.113,-17116.74,-21521.852,-17945.76,783.12177,-22897.46,-6077.108,4543.091
970888.8895336367,-23334.107,-17119.14,-21524.781,-17947.348,781.2907,-22897.787,-6079.9155,4535.8076
970888.8935336343,-23334.717,-17120.402,-21524.293,-17948.201,781.0873,-22895.752,-6077.3926,4534.261
970888.8975336317,-23334.799,-17121.746,-21522.178,-17948.895,784.4238,-22894.41,-6075.277,4540.3647
970888.901533629,-23335.246,-17123.006,-21519.41,-17948.771,785.8887,-22893.555,-6077.352,4537.2314
970888.9055336264,-23335.734,-17122.03,-21522.787,-17947.674,785.8887,-22893.107,-6079.6714,4535.034
970888.9095336238,-23338.787,-17124.879,-21526.367,-17950.277,780.5176,-22893.799,-6084.554,4528.8086
970888.9135336212,-23341.146,-17129.07,-21528.729,-17950.928,778.361,-22895.834,-6089.2334,4520.508
970888.9175336187,-23344.402,-17128.785,-21532.146,-17952.107,778.1169,-22897.625,-6088.9893,4520.63
970888.9215336161,-23342.855,-17125.977,-21528.932,-17952.922,777.54724,-22897.502,-6087.199,4528.1577
970888.9255336135,-23341.105,-17125.732,-21529.623,-17952.148,777.181,-22896.525,-6086.141,4531.494
970888.9295336109,-23345.703,-17128.865,-21533.082,-17952.719,774.90234,-22897.137,-6089.2334,4525.3906
970888.9335336083,-23345.582,-17132.936,-21533.244,-17954.754,775.0244,-22898.398,-6089.559,4527.0186
970888.9375336057,-23347.209,-17132.65,-21530.438,-17953.777,775.6755,-22897.828,-6087.036,4528.4424
970888.9415336032,-23348.756,-17133.016,-21526.367,-17953.777,775.8789,-22897.014,-6085.49,4528.2393
970888.9455336006,-23351.441,-17133.748,-21529.664,-17953.94,777.34375,-22895.996,-6085.0425,4533.122
970888.949533598,-23348.756,-17130.086,-21529.379,-17953.045,780.5583,-22894.816,-6084.6763,4530.4365
970888.9535335954,-23345.867,-17125.488,-21527.588,-17952.23,782.5114,-22892.701,-6080.8105,4532.1045
970888.9575335928,-23346.559,-17127.32,-21528.158,-17952.027,782.1045,-22892.62,-6077.4336,4540.731
970888.9615335903,-23341.553,-17125.164,-21523.643,-17949.057,783.08105,-22892.54,-6076.4976,4541.3413
970888.9655335877,-23340.7,-17125.732,-21522.666,-17949.178,782.308,-22892.416,-6078.695,4533.6104
970888.9695335851,-23344.768,-17129.395,-21526.084,-17950.969,780.68036,-22893.19,-6077.7183,4541.26
970888.9735335825,-23344.158,-17128.5,-21529.502,-17951.01,781.69763,-22894.004,-6079.3867,4541.4634
970888.9775335799,-23340.617,-17125.082,-21529.99,-17950.115,781.0873,-22895.264,-6081.3804,4537.8013
970888.9815335773,-23338.787,-17124.227,-21525.025,-17949.383,783.44727,-22895.672,-6079.59,4540.324
970888.9855335748,-23338.584,-17124.023,-21525.84,-17949.707,782.5521,-22893.596,-6079.9155,4542.806
970888.9895335722,-23340.21,-17124.676,-21526.816,-17950.684,781.0873,-22893.475,-6077.881,4544.393
970888.9935335696,-23339.64,-17125.367,-21525.92,-17951.58,780.9245,-22892.09,-6074.626,4543.254
970888.997533567,-23339.64,-17125.326,-21526.043,-17951.742,779.45966,-22890.463,-6070.3125,4544.515
970889.0015335644,-23343.832,-17126.873,-21527.06,-17953.94,778.60516,-22887.86,-6068.3594,4551.677
970889.0055335618,-23341.432,-17124.188,-21524.943,-17955.566,780.07,-22887.492,-6069.0107,4550.3745
970889.0095335593,-23337.852,-17122.803,-21523.479,-17954.916,779.541,-22888.957,-6072.632,4537.069
970889.0135335567,-23335.246,-17121.338,-21525.39,-17955.201,778.76794,-22890.098,-6076.416,4532.064
970889.0175335541,-23330.69,-17117.39,-21526.775,-17953.857,780.27344,-22892.13,-6079.59,4526.3267
970889.0215335515,-23329.713,-17115.275,-21525.514,-17953.572,783.1625,-22895.06,-6082.3164,4523.4375
970889.0255335489,-23328.207,-17112.713,-21525.799,-17952.23,784.9121,-22897.38,-6083.659,4528.117
970889.0295335463,-23324.912,-17107.707,-21523.438,-17950.033,786.7025,-22899.293,-6085.368,4527.0996
970889.0335335438,-23320.436,-17105.55,-21523.602,-17951.01,786.1735,-22900.84,-6085.6934,4521.322
970889.0375335412,-23313.844,-17100.383,-21522.46,-17949.666,789.7543,-22898.113,-6084.0254,4521.118
970889.0415335386,-23305.299,-17092.408,-21519.043,-17947.307,795.12537,-22895.672,-6087.199,4515.5845
970889.045533536,-23304.893,-17089.152,-21517.701,-17947.55,796.30536,-22896.12,-6091.268,4510.01
970889.0495335334,-23304.037,-17088.42,-21523.072,-17949.383,792.68396,-22897.584,-6093.75,4504.72
970889.0535335309,-23300.049,-17086.629,-21523.479,-17950.684,791.5446,-22900.025,-6096.1914,4496.867
970889.0575335283,-23292.93,-17081.951,-21520.793,-17948.162,793.0502,-22900.635,-6096.3545,4499.9595
970889.0615335257,-23284.547,-17073.812,-21518.23,-17945.557,798.5026,-22900.188,-6095.6626,4504.5576
970889.0655335231,-23283.447,-17069.783,-21519.41,-17944.947,798.54333,-22900.635,-6096.965,4502.1567
970889.0695335205,-23281.7,-17065.594,-21517.904,-17943.97,800.6185,-22902.1,-6100.708,4500.4883
970889.0735335179,-23275.31,-17061.646,-21517.822,-17942.994,800.7406,-22903.688,-6103.9634,4498.6167
970889.0775335154,-23274.537,-17063.355,-21517.05,-17942.383,801.67645,-22903.77,-6103.231,4504.11
970889.0815335128,-23273.682,-17057.576,-21513.389,-17942.262,804.15857,-22903.076,-6099.8535,4512.5327
970889.0855335102,-23275.188,-17057.17,-21513.428,-17943.97,802.85645,-22904.826,-6099.447,4510.946
970889.0895335076,-23280.273,-17060.018,-21519.248,-17946.127,795.5322,-22904.623,-6100.952,4499.756
970889.093533505,-23280.396,-17063.232,-21522.096,-17948.771,790.73083,-22903.688,-6100.505,4505.412
970889.0975335024,-23279.297,-17067.098,-21520.428,-17949.951,793.7826,-22904.297,-6097.6562,4512.492
970889.1015334999,-23279.297,-17064.982,-21519.654,-17948.283,794.3115,-22903.281,-6094.442,4516.0728
970889.1055334973,-23280.273,-17064.453,-21519.41,-17948.406,797.3633,-22902.305,-6090.454,4524.455
970889.1095334947,-23282.797,-17067.75,-21520.752,-17948.242,799.4385,-22901.164,-6087.2803,4528.0356
970889.1135334921,-23285.32,-17070.395,-21521.078,-17948.568,795.08466,-22902.549,-6089.2334,4525.798
970889.1175334895,-23286.133,-17072.592,-21518.352,-17947.51,796.0612,-22904.705,-6089.9253,4526.4487
970889.1215334869,-23288.738,-17073.242,-21515.91,-17946.533,795.41016,-22905.355,-6089.3965,4528.28
970889.1255334844,-23290.732,-17076.295,-21515.057,-17947.713,793.5791,-22904.094,-6088.867,4535.36
970889.1295334818,-23292.318,-17081.707,-21515.342,-17949.098,792.60254,-22902.426,-6087.077,4541.626
970889.1335334792,-23294.76,-17084.717,-21516.113,-17948.08,793.00946,-22901.896,-6086.3853,4548.625
970889.1375334766,-23299.195,-17084.473,-21514.121,-17947.754,792.15497,-22902.549,-6087.6875,4552.0835
970889.141533474,-23302.287,-17088.338,-21516.725,-17948.162,792.7653,-22902.71,-6085.9785,4560.0586
970889.1455334714,-23307.861,-17094.809,-21520.549,-17950.643,790.6494,-22902.182,-6080.7295,4571.981
970889.1495334689,-23315.023,-17101.604,-21525.84,-17954.387,787.31287,-22901.367,-6078.247,4571.086
970889.1535334663,-23319.174,-17102.336,-21526.084,-17955.078,782.22656,-22899.375,-6078.125,4561.6865
970889.1575334637,-23320.436,-17103.395,-21523.805,-17953.98,779.62244,-22897.99,-6079.468,4556.1934
970889.1615334611,-23319.744,-17104.777,-21523.602,-17953.451,780.35486,-22896.893,-6082.8047,4552.7344
970889.1655334585,-23318.768,-17104.371,-21521.69,-17952.027,783.0404,-22896.12,-6085.449,4547.8516
970889.169533456,-23320.11,-17103.11,-21519.94,-17951.336,782.43005,-22897.584,-6083.13,4545.288
970889.1735334534,-23322.55,-17103.719,-21521.16,-17950.928,782.5114,-22897.422,-6082.927,4541.1377
970889.1775334508,-23325.033,-17106.16,-21521.69,-17950.154,783.5287,-22897.178,-6083.049,4538.33
970889.1815334482,-23326.05,-17107.586,-21521.037,-17950.195,783.0404,-22896.648,-6081.136,4536.3364
970889.1855334456,-23326.986,-17109.13,-21519.775,-17950.318,780.15137,-22894.736,-6079.875,4541.5854
970889.189533443,-23332.764,-17114.625,-21523.887,-17953.492,774.57684,-22894.775,-6080.404,4543.823
970889.1935334405,-23335.37,-17118.164,-21528.076,-17956.463,768.4326,-22897.014,-6082.1943,4538.574
970889.1975334379,-23335.857,-17117.92,-21526.816,-17955.81,768.5547,-22898.846,-6084.758,4533.5693
970889.2015334353,-23338.705,-17119.02,-21525.555,-17955.445,770.9961,-22901.693,-6086.589,4533.8135
970889.2055334327,-23343.588,-17120.443,-21528.076,-17955.201,769.2871,-22903.402,-6084.4727,4538.493
970889.20953343,-23346.72,-17122.07,-21528.076,-17954.713,767.334,-22902.588,-6080.6074,4542.928
970889.2135334274,-23347.129,-17125.082,-21529.705,-17954.59,769.24646,-22899.7,-6074.7886,4546.0615
970889.217533425,-23347.453,-17124.715,-21529.094,-17953.29,770.5078,-22897.38,-6074.6665,4542.196
970889.2215334224,-23342.45,-17122.885,-21527.1,-17952.352,771.4844,-22897.178,-6076.091,4538.8184
970889.2255334198,-23337.646,-17121.867,-21525.352,-17952.027,772.4203,-22897.95,-6079.875,4536.784
970889.2295334172,-23339.52,-17123.738,-21525.39,-17953.94,769.57196,-22898.805,-6082.4385,4534.343
970889.2335334145,-23342.041,-17124.512,-21525.432,-17956.625,763.5905,-22901.652,-6085.4087,4533.9355
970889.237533412,-23341.514,-17122.152,-21522.91,-17954.875,764.8519,-22902.71,-6084.961,4540.161
970889.2415334095,-23339.52,-17119.793,-21522.787,-17953.328,769.69403,-22903.24,-6081.014,4550.415
970889.2455334069,-23338.096,-17119.793,-21524.17,-17954.06,772.9492,-22904.502,-6079.2646,4554.199
970889.2495334042,-23338.746,-17120.729,-21526.531,-17954.672,771.1996,-22905.03,-6079.59,4554.7285
970889.2535334016,-23337.77,-17119.1,-21523.682,-17954.305,770.91473,-22903.525,-6078.166,4552.043
970889.257533399,-23331.38,-17113.525,-21520.428,-17951.701,777.50653,-22900.229,-6076.66,4548.055
970889.2615333966,-23326.498,-17109.01,-21519.328,-17949.748,781.49414,-22898.234,-6073.934,4553.5483
970889.265533394,-23326.904,-17108.398,-21518.637,-17950.887,776.6113,-22899.863,-6073.446,4553.874
970889.2695333913,-23325.848,-17106.771,-21518.596,-17949.707,776.7334,-22901.084,-6070.1904,4560.8726
970889.2735333887,-23324.098,-17105.062,-21519.695,-17949.666,778.72723,-22904.094,-6070.4756,4560.791
970889.2775333861,-23321.656,-17104.371,-21518.922,-17948.365,781.0873,-22904.176,-6068.5225,4562.541
970889.2815333835,-23319.906,-17103.354,-21518.148,-17948.486,782.75555,-22903.402,-6066.04,4568.807
970889.285533381,-23317.22,-17104.004,-21514.648,-17948.771,783.3659,-22902.426,-6067.383,4567.79
970889.2895333784,-23313.885,-17102.906,-21511.883,-17949.3,785.2783,-22901.531,-6069.0513,4569.5396
970889.2935333758,-23313.07,-17101.727,-21509.074,-17950.643,783.3252,-22902.588,-6070.516,4563.2324
970889.2975333732,-23309.002,-17096.6,-21507.08,-17948.568,790.8122,-22901.855,-6068.8887,4560.791
970889.3015333706,-23303.955,-17091.756,-21506.227,-17944.988,795.93915,-22899.7,-6063.5176,4576.294
970889.305533368,-23302.613,-17093.588,-21506.023,-17945.11,796.1019,-22900.31,-6063.5986,4583.374
970889.3095333655,-23305.664,-17098.227,-21508.057,-17948.69,793.986,-22900.229,-6066.3657,4576.0093
970889.3135333629,-23310.71,-17102.133,-21511.8,-17952.148,789.4287,-22899.21,-6063.3545,4578.369
970889.3175333603,-23310.02,-17103.8,-21509.36,-17951.904,788.49286,-22898.193,-6060.2217,4581.0547
970889.3215333577,-23311.158,-17106.486,-21503.662,-17952.068,792.0736,-22897.99,-6062.2153,4568.807
970889.3255333551,-23318.848,-17112.428,-21505.576,-17954.998,791.5039,-22895.996,-6061.157,4570.6787
970889.3295333525,-23322.877,-17112.346,-21507.244,-17954.957,791.8701,-22896.69,-6063.5176,4567.0166
970889.33353335,-23315.43,-17106.568,-21508.383,-17952.719,793.2943,-22898.52,-6066.3657,4564.8604
970889.3375333474,-23310.71,-17104.168,-21507.324,-17950.604,797.68884,-22897.95,-6062.5,4571.7773
970889.3415333448,-23314.373,-17107.586,-21503.988,-17951.172,800.0488,-22896.729,-6061.5234,4572.469
970889.3455333422,-23318.523,-17111.531,-21506.023,-17953.572,797.15985,-22897.055,-6063.2734,4568.0747
970889.3495333396,-23321.494,-17115.723,-21510.865,-17953.777,793.6198,-22897.096,-6063.7617,4564.2905
970889.3535333371,-23321.168,-17114.055,-21512.736,-17954.63,791.82947,-22900.514,-6067.2607,4555.0947
970889.3575333345,-23322.715,-17115.52,-21511.354,-17954.754,795.12537,-22901.775,-6071.574,4548.503
970889.3615333319,-23324.627,-17118.775,-21510.703,-17953.045,799.3978,-22900.84,-6072.9575,4550.334
970889.3655333293,-23324.951,-17117.596,-21507.08,-17951.62,802.7751,-22898.926,-6072.998,4555.013
970889.3695333267,-23324.463,-17114.95,-21509.727,-17951.13,802.7344,-22897.705,-6069.743,4560.262
970889.3735333241,-23324.463,-17113.934,-21512.004,-17950.562,800.0488,-22898.154,-6068.0747,4560.3843
970889.3775333216,-23325.969,-17114.502,-21510.05,-17951.295,800.2523,-22900.799,-6070.5977,4555.3794
970889.381533319,-23325.969,-17114.178,-21508.545,-17951.945,801.9613,-22903.729,-6075.277,4555.0947
970889.3855333164,-23325.074,-17114.258,-21509.686,-17952.8,801.71716,-22904.582,-6078.6133,4551.8394
970889.3895333138,-23326.58,-17115.357,-21513.104,-17954.184,802.7751,-22903.89,-6077.3115,4553.1416
970889.3935333112,-23329.266,-17115.113,-21515.87,-17955.77,799.60126,-22904.094,-6080.2,4546.3057
970889.3975333086,-23328.41,-17114.217,-21513.145,-17952.434,801.3916,-22903.2,-6080.2,4544.393
970889.4015333061,-23330.078,-17116.375,-21511.11,-17952.027,800.9033,-22903.932,-6080.0376,4542.8467
970889.4055333035,-23329.307,-17116.049,-21512.004,-17952.434,801.31024,-22904.99,-6079.875,4543.62
970889.4095333009,-23328.207,-17116.578,-21512.777,-17951.824,804.07715,-22906.25,-6081.7466,4542.5215
970889.4135332983,-23331.422,-17119.955,-21514.16,-17951.416,800.78125,-22906.576,-6087.8096,4533.325
970889.4175332957,-23335.002,-17122.518,-21510.662,-17951.986,797.404,-22908.0,-6092.611,4529.0938
970889.4215332931,-23338.787,-17123.332,-21512.818,-17953.045,795.166,-22908.896,-6092.3667,4534.465
970889.4255332906,-23340.943,-17124.635,-21517.498,-17954.143,797.3633,-22908.977,-6090.454,4537.069
970889.429533288,-23338.502,-17125.447,-21516.643,-17953.328,796.26465,-22909.832,-6092.204,4536.5806
970889.4335332854,-23338.055,-17124.227,-21515.342,-17953.777,793.7419,-22911.621,-6096.3135,4527.629
970889.4375332828,-23339.805,-17124.553,-21517.742,-17954.184,794.5964,-22909.994,-6096.761,4523.4375
970889.4415332802,-23340.414,-17127.441,-21516.318,-17953.777,796.5495,-22907.594,-6093.1396,4528.524
970889.4455332776,-23340.049,-17129.924,-21515.87,-17954.793,794.6371,-22906.17,-6090.9834,4531.9014
970889.4495332751,-23341.594,-17129.762,-21517.01,-17957.967,792.7653,-22906.455,-6089.437,4533.773
970889.4535332725,-23344.932,-17130.78,-21518.596,-17960.531,789.51013,-22904.99,-6086.3037,4536.662
970889.4575332699,-23345.135,-17129.762,-21521.078,-17959.514,789.1032,-22903.932,-6084.0254,4542.3584
970889.4615332673,-23341.635,-17126.588,-21520.469,-17958.66,792.60254,-22903.77,-6082.4385,4543.742
970889.4655332647,-23343.303,-17127.97,-21525.514,-17959.84,791.5853,-22905.111,-6084.758,4538.7373
970889.4695332622,-23344.89,-17126.22,-21528.2,-17959.758,795.2067,-22905.559,-6081.8687,4543.7827
970889.4735332596,-23340.658,-17121.217,-21526.246,-17958.496,798.33984,-22904.338,-6080.2,4547.038
970889.477533257,-23336.67,-17117.758,-21518.596,-17956.625,802.4496,-22902.426,-6078.6543,4549.0723
970889.4815332544,-23335.572,-17118.572,-21520.428,-17956.014,803.3041,-22900.84,-6075.5615,4553.467
970889.4855332518,-23337.525,-17118.246,-21520.63,-17957.602,800.49646,-22900.473,-6075.155,4553.7925
970889.4895332492,-23334.84,-17116.578,-21516.969,-17958.252,798.9909,-22900.473,-6074.585,4551.5547
970889.4935332467,-23332.725,-17114.625,-21515.137,-17958.293,799.3571,-22900.717,-6076.294,4548.34
970889.4975332441,-23331.34,-17113.281,-21513.592,-17957.52,803.6703,-22901.979,-6078.3286,4546.509
970889.5015332415,-23329.672,-17112.387,-21514.242,-17956.299,804.7282,-22902.1,-6075.277,4555.786
970889.5055332389,-23324.83,-17110.434,-21512.615,-17955.607,805.9896,-22900.96,-6072.551,4553.06
970889.5095332363,-23324.139,-17109.213,-21513.55,-17956.38,803.8737,-22903.158,-6071.533,4549.8457
970889.5135332337,-23325.236,-17109.986,-21516.44,-17957.52,803.3447,-22905.479,-6069.7837,4552.287
970889.5175332312,-23326.904,-17112.184,-21514.771,-17956.828,801.9613,-22905.193,-6068.2783,4555.786
970889.5215332286,-23327.678,-17113.729,-21511.11,-17955.893,799.4792,-22905.682,-6067.871,4560.5063
970889.525533226,-23323.242,-17110.596,-21507.65,-17954.63,800.78125,-22904.014,-6066.5693,4560.71
970889.5295332234,-23323.08,-17110.76,-21510.783,-17956.543,800.9033,-22902.71,-6062.134,4562.2153
970889.5335332208,-23324.016,-17112.346,-21513.713,-17959.432,798.4619,-22902.264,-6058.0244,4562.5
970889.5375332182,-23322.104,-17110.516,-21511.842,-17959.637,795.97986,-22899.863,-6055.461,4561.1167
970889.5415332157,-23322.918,-17109.498,-21511.354,-17959.148,797.8923,-22899.943,-6055.908,4563.1104
970889.5455332131,-23322.715,-17109.783,-21512.656,-17958.21,798.5026,-22902.67,-6061.035,4560.8726
970889.5495332105,-23323.121,-17111.695,-21513.957,-17958.293,797.11914,-22904.826,-6065.918,4557.251
970889.5535332079,-23320.68,-17109.54,-21512.33,-17957.357,796.63086,-22904.338,-6066.162,4561.1167
970889.5575332053,-23318.441,-17109.578,-21507.244,-17955.363,800.0082,-22902.467,-6064.779,4559.7334
970889.5615332028,-23320.518,-17112.143,-21509.238,-17957.234,800.0488,-22903.2,-6065.796,4556.6816
970889.5655332002,-23319.906,-17111.736,-21511.027,-17958.66,792.96875,-22903.564,-6066.854,4555.461
970889.5695331976,-23321.371,-17113.12,-21509.197,-17959.432,791.5039,-22902.67,-6064.9824,4558.2686
970889.573533195,-23319.174,-17113.607,-21508.424,-17959.432,790.8529,-22903.117,-6065.145,4559.448
970889.5775331924,-23315.227,-17111.248,-21510.58,-17959.229,791.95154,-22906.047,-6068.034,4554.9727
970889.5815331897,-23318.4,-17112.59,-21511.557,-17958.455,793.7012,-22907.715,-6070.638,4551.758
970889.5855331873,-23323.08,-17116.252,-21513.307,-17960.002,792.3991,-22907.756,-6072.8354,4547.9736
970889.5895331847,-23323.936,-17116.334,-21515.87,-17960.652,788.6963,-22906.902,-6073.242,4547.5264
970889.593533182,-23323.936,-17115.234,-21517.334,-17959.473,789.51013,-22907.92,-6072.998,4545.614
970889.5975331794,-23327.76,-17115.764,-21521.322,-17958.66,792.3991,-22907.227,-6072.51,4546.5903
970889.6015331768,-23330.283,-17117.514,-21519.613,-17958.863,792.15497,-22906.861,-6072.0215,4549.276
970889.6055331742,-23328.857,-17118.816,-21520.387,-17958.455,793.7826,-22906.658,-6071.8184,4548.6655
970889.6095331718,-23329.754,-17120.809,-21519.572,-17960.246,793.17224,-22906.738,-6070.8823,4548.9097
970889.6135331691,-23324.83,-17116.414,-21519.207,-17960.125,792.15497,-22905.07,-6068.563,4548.1367
970889.6175331665,-23318.564,-17113.69,-21517.578,-17958.293,794.7998,-22904.826,-6068.197,4546.1426
970889.6215331639,-23321.738,-17117.066,-21516.195,-17957.723,794.5964,-22907.838,-6067.912,4547.16
970889.6255331613,-23321.412,-17118.408,-21515.748,-17958.455,792.0329,-22909.709,-6069.4175,4545.8984
970889.6295331587,-23317.424,-17116.537,-21513.021,-17958.375,793.00946,-22908.611,-6068.8887,4544.3115
970889.6335331562,-23315.838,-17115.887,-21512.533,-17957.643,790.8122,-22907.35,-6068.8887,4546.1426
970889.6375331536,-23310.344,-17111.41,-21508.912,-17955.16,794.55566,-22906.332,-6067.9526,4551.2695
970889.641533151,-23308.555,-17111.37,-21503.541,-17955.81,796.224,-22905.355,-6070.3535,4552.246
970889.6455331484,-23309.287,-17109.295,-21504.6,-17956.422,798.2178,-22905.723,-6072.1846,4550.334
970889.6495331458,-23307.455,-17103.354,-21507.854,-17956.87,799.4385,-22905.111,-6070.7197,4552.7344
970889.6535331433,-23308.146,-17104.248,-21510.01,-17957.887,798.90955,-22905.723,-6070.3125,4553.467
970889.6575331407,-23306.926,-17102.58,-21512.451,-17957.643,797.8923,-22906.902,-6070.964,4554.4434
970889.6615331381,-23305.502,-17102.662,-21512.33,-17956.584,800.3337,-22907.146,-6070.0684,4553.955
970889.6655331355,-23306.52,-17104.492,-21510.58,-17956.87,801.35095,-22907.023,-6071.452,4551.1885
970889.6695331329,-23303.02,-17102.906,-21512.127,-17955.404,801.31024,-22905.926,-6074.26,4549.154
970889.6735331303,-23300.375,-17103.516,-21511.883,-17954.266,798.01434,-22904.95,-6075.4805,4552.9785
970889.6775331278,-23298.504,-17103.354,-21505.9,-17952.475,800.0082,-22905.479,-6073.812,4564.494
970889.6815331252,-23296.957,-17099.773,-21502.32,-17950.848,802.6937,-22903.32,-6069.9463,4573.7305
970889.6855331226,-23297.852,-17094.361,-21503.582,-17950.115,800.9033,-22901.611,-6065.145,4579.3457
970889.68953312,-23299.195,-17094.32,-21505.168,-17950.36,800.9033,-22903.932,-6062.378,4577.352
970889.6935331174,-23297.08,-17095.256,-21504.436,-17951.498,802.653,-22903.809,-6062.297,4570.842
970889.6975331148,-23299.969,-17098.064,-21505.453,-17952.76,803.42615,-22903.24,-6063.558,4564.7383
970889.7015331123,-23301.678,-17097.006,-21506.064,-17951.904,807.2917,-22901.979,-6063.9243,4570.842
970889.7055331097,-23303.305,-17096.436,-21508.545,-17953.695,807.3324,-22904.135,-6070.0684,4562.5815
970889.7095331071,-23301.719,-17096.314,-21507.895,-17953.777,805.29785,-22905.438,-6074.056,4556.926
970889.7135331045,-23301.025,-17097.127,-21507.812,-17953.166,804.4841,-22906.658,-6075.399,4556.7627
970889.7175331019,-23296.672,-17095.215,-21503.906,-17950.604,806.88477,-22906.82,-6073.2017,4559.2856
970889.7215330993,-23293.05,-17093.547,-21498.252,-17949.871,808.5531,-22905.111,-6069.377,4567.79
970889.7255330968,-23291.098,-17091.756,-21497.07,-17951.742,808.30896,-22903.158,-6065.511,4569.255
970889.7295330942,-23292.36,-17092.285,-21503.256,-17952.434,805.9489,-22901.979,-6065.796,4563.884
970889.7335330916,-23296.266,-17094.97,-21507.0,-17953.736,802.57166,-22902.508,-6065.4297,4563.314
970889.737533089,-23296.348,-17095.5,-21507.121,-17955.201,802.8158,-22902.996,-6065.6333,4563.843
970889.7415330864,-23297.934,-17097.209,-21508.506,-17953.816,803.9958,-22903.932,-6065.267,4567.912
970889.7455330839,-23299.316,-17098.836,-21507.65,-17953.41,804.5248,-22904.785,-6064.0464,4569.214
970889.7495330813,-23299.766,-17098.43,-21509.277,-17954.59,802.7344,-22904.502,-6063.192,4569.824
970889.7535330787,-23301.066,-17098.43,-21508.953,-17955.81,801.0254,-22905.152,-6063.6396,4567.749
970889.7575330761,-23299.44,-17098.268,-21505.697,-17956.422,799.92676,-22903.443,-6060.2217,4577.3926
970889.7615330735,-23298.219,-17099.406,-21501.303,-17957.275,800.5778,-22899.74,-6055.217,4584.758
970889.7655330709,-23298.625,-17098.104,-21505.576,-17957.316,800.45575,-22897.666,-6055.8677,4582.1943
970889.7695330684,-23297.893,-17095.379,-21506.145,-17957.602,802.04266,-22898.723,-6060.3438,4575.887
970889.7735330658,-23294.354,-17092.896,-21503.012,-17955.566,801.31024,-22899.902,-6061.7676,4578.41
970889.7775330632,-23288.535,-17088.46,-21499.594,-17952.068,805.50134,-22902.14,-6060.262,4582.3975
970889.7815330606,-23287.11,-17087.646,-21496.867,-17950.398,806.7627,-22905.193,-6063.0293,4579.3867
970889.785533058,-23289.104,-17089.234,-21496.338,-17950.887,806.68134,-22907.188,-6068.563,4571.7773
970889.7895330554,-23291.586,-17090.17,-21497.52,-17952.23,804.11786,-22907.838,-6071.6963,4567.993
970889.7935330529,-23290.977,-17090.617,-21498.902,-17953.533,803.3447,-22906.943,-6073.6494,4565.593
970889.7975330503,-23290.04,-17091.023,-21499.188,-17953.777,802.85645,-22908.203,-6076.335,4556.9663
970889.8015330477,-23290.65,-17087.646,-21500.488,-17953.613,804.5654,-22905.234,-6071.208,4560.0996
970889.8055330451,-23289.674,-17086.834,-21503.297,-17954.143,802.7751,-22903.564,-6064.901,4570.638
970889.8095330425,-23291.668,-17087.932,-21504.68,-17954.672,801.7578,-22901.45,-6059.082,4576.416
970889.8135330399,-23295.98,-17092.0,-21507.61,-17953.695,803.5075,-22900.758,-6056.885,4577.2705
970889.8175330374,-23292.93,-17091.146,-21506.715,-17955.566,805.50134,-22901.693,-6057.617,4575.765
970889.8215330348,-23291.3,-17089.926,-21503.744,-17955.648,808.95996,-22902.629,-6058.2275,4573.039
970889.8255330322,-23292.807,-17091.473,-21502.686,-17955.69,808.1462,-22903.646,-6058.716,4574.056
970889.8295330296,-23295.207,-17095.215,-21505.82,-17955.852,803.1413,-22904.297,-6061.483,4572.1436
970889.833533027,-23295.86,-17095.867,-21507.447,-17955.404,802.4496,-22905.355,-6062.744,4569.499
970889.8375330244,-23294.557,-17095.215,-21508.465,-17955.281,802.36816,-22908.652,-6064.6973,4559.774
970889.8415330219,-23297.12,-17097.209,-21507.244,-17956.299,802.93787,-22908.082,-6063.5986,4561.6455
970889.8455330193,-23294.271,-17096.924,-21503.988,-17955.445,804.5654,-22904.746,-6059.2856,4567.993
970889.8495330167,-23288.412,-17093.588,-21502.686,-17956.422,805.1758,-22903.564,-6055.8677,4572.5913
970889.8535330141,-23285.85,-17092.0,-21506.227,-17958.293,806.4372,-22903.24,-6058.2275,4570.4346
970889.8575330115,-23286.947,-17094.441,-21506.268,-17960.652,805.50134,-22903.564,-6058.187,4568.4004
970889.861533009,-23286.256,-17093.385,-21503.988,-17961.06,807.04755,-22903.32,-6055.9897,4570.964
970889.8655330064,-23288.818,-17093.344,-21502.117,-17960.328,806.4372,-22903.32,-6055.461,4569.865
970889.8695330038,-23292.115,-17096.6,-21500.326,-17959.92,807.9834,-22903.85,-6054.525,4573.7305
970889.8735330012,-23289.062,-17095.785,-21496.867,-17959.27,810.4655,-22902.588,-6051.5547,4570.15
970889.8775329986,-23286.215,-17094.28,-21492.393,-17956.463,812.5,-22902.305,-6047.6074,4576.7417
970889.881532996,-23284.791,-17092.977,-21492.107,-17954.875,813.31384,-22902.67,-6048.0146,4578.4507
970889.8855329935,-23279.502,-17091.229,-21495.85,-17955.81,812.41864,-22901.367,-6049.764,4579.712
970889.8895329909,-23278.158,-17089.355,-21498.7,-17956.828,813.5173,-22900.96,-6051.3916,4577.352
970889.8935329883,-23275.92,-17086.102,-21497.64,-17956.219,813.3952,-22901.693,-6052.816,4574.5444
970889.8975329857,-23273.764,-17083.172,-21494.834,-17953.41,815.4704,-22902.873,-6052.7344,4574.4224
970889.901532983,-23276.164,-17083.172,-21492.432,-17952.922,817.62695,-22905.355,-6053.874,4574.7886
970889.9055329805,-23278.809,-17085.002,-21496.95,-17955.893,817.99316,-22903.809,-6052.8564,4579.2236
970889.909532978,-23279.053,-17086.264,-21497.844,-17957.154,815.26697,-22905.396,-6054.8506,4580.648
970889.9135329754,-23279.826,-17086.955,-21496.258,-17957.684,812.45935,-22908.447,-6058.431,4574.829
970889.9175329728,-23277.996,-17083.7,-21492.393,-17956.422,815.6738,-22909.465,-6056.3965,4579.2646
970889.9215329702,-23273.723,-17080.16,-21490.887,-17954.266,815.6738,-22907.594,-6054.24,4585.124
970889.9255329676,-23271.12,-17079.998,-21491.7,-17952.84,816.2028,-22906.738,-6053.955,4585.9375
970889.929532965,-23274.293,-17081.34,-21492.88,-17953.572,816.8132,-22905.844,-6053.508,4587.1177
970889.9335329625,-23275.758,-17082.967,-21492.799,-17954.998,812.94763,-22907.432,-6055.7456,4580.119
970889.9375329599,-23273.887,-17085.002,-21491.334,-17955.648,812.2966,-22907.92,-6053.63,4578.4507
970889.9415329573,-23275.31,-17088.787,-21488.281,-17955.893,815.0228,-22908.691,-6053.5483,4582.1533
970889.9455329546,-23276.205,-17090.373,-21487.225,-17956.87,815.0228,-22908.447,-6056.112,4584.1064
970889.949532952,-23278.646,-17089.803,-21489.258,-17957.928,814.2497,-22908.691,-6059.4077,4582.479
970889.9535329496,-23278.646,-17088.379,-21490.643,-17956.951,816.44696,-22907.676,-6060.14,4584.188
970889.957532947,-23276.043,-17084.84,-21487.102,-17954.469,817.30145,-22908.447,-6057.414,4589.0303
970889.9615329443,-23274.09,-17081.625,-21488.525,-17954.793,819.74286,-22908.57,-6055.42,4589.315
970889.9655329417,-23276.205,-17084.025,-21490.52,-17955.934,819.6208,-22906.617,-6051.0664,4596.1914
970889.9695329391,-23278.32,-17085.652,-21489.34,-17957.031,818.11523,-22905.967,-6047.811,4598.796
970889.9735329365,-23276.938,-17084.27,-21493.164,-17958.455,814.04626,-22905.844,-6049.3574,4592.489
970889.977532934,-23273.805,-17080.934,-21488.73,-17956.422,815.71454,-22903.932,-6046.8345,4597.412
970889.9815329314,-23269.613,-17078.492,-21481.73,-17954.387,823.40497,-22901.938,-6041.911,4605.2656
970889.9855329288,-23268.475,-17076.783,-21483.48,-17953.857,827.6774,-22901.775,-6041.8296,4610.2295
970889.9895329262,-23266.44,-17074.016,-21484.13,-17952.84,831.70575,-22900.96,-6041.8296,4605.2656
970889.9935329236,-23265.016,-17071.127,-21484.54,-17951.54,833.374,-22901.123,-6041.789,4602.214
970889.997532921,-23263.672,-17069.662,-21480.957,-17948.08,831.54297,-22902.67,-6043.9453,4602.051
970890.0015329185,-23263.021,-17070.557,-21480.021,-17947.348,829.834,-22902.385,-6042.8467,4608.602
970890.0055329159,-23260.621,-17069.865,-21481.283,-17947.795,830.2409,-22902.14,-6042.196,4602.8647
970890.0095329133,-23259.521,-17067.627,-21481.406,-17948.73,829.79333,-22902.71,-6041.504,4596.0693
970890.0135329107,-23260.54,-17068.035,-21484.13,-17950.236,830.81055,-22903.525,-6041.504,4594.564
970890.0175329081,-23254.273,-17065.674,-21481.975,-17948.365,833.08923,-22903.2,-6039.917,4594.8896
970890.0215329055,-23252.402,-17062.947,-21480.795,-17945.639,839.3148,-22902.02,-6036.296,4601.8477
970890.025532903,-23253.053,-17061.035,-21476.074,-17943.482,841.10516,-22900.188,-6033.122,4608.7646
970890.0295329004,-23254.762,-17061.85,-21476.523,-17945.312,837.76855,-22900.96,-6039.144,4596.4766
970890.0335328978,-23258.668,-17062.297,-21480.55,-17946.533,836.8327,-22902.914,-6043.8643,4589.803
970890.0375328952,-23260.662,-17063.111,-21481.69,-17946.209,834.7575,-22903.32,-6043.62,4593.221
970890.0415328926,-23266.725,-17068.889,-21486.248,-17950.604,832.07196,-22905.355,-6044.2305,4596.4766
970890.0455328901,-23272.46,-17072.104,-21489.543,-17952.148,832.2754,-22905.967,-6045.4917,4594.6455
970890.0495328875,-23274.252,-17074.504,-21492.393,-17951.945,832.1127,-22905.438,-6046.4277,4590.78
970890.0535328849,-23271.973,-17075.398,-21490.56,-17951.904,832.8451,-22903.361,-6041.1377,4595.093
970890.0575328823,-23268.516,-17075.643,-21485.19,-17951.01,834.18787,-22902.426,-6038.4116,4592.5293
970890.0615328797,-23271.973,-17077.475,-21486.328,-17952.23,832.6416,-22903.809,-6037.0283,4594.5234
970890.0655328771,-23274.375,-17079.834,-21492.352,-17953.248,830.6478,-22905.111,-6038.208,4595.0117
970890.0695328746,-23275.229,-17080.934,-21492.066,-17952.557,827.55536,-22906.129,-6043.0503,4589.885
970890.073532872,-23275.596,-17082.44,-21493.287,-17952.678,826.4567,-22908.855,-6050.334,4583.7812
970890.0775328694,-23277.426,-17084.799,-21493.287,-17953.328,824.8698,-22912.436,-6055.542,4581.014
970890.0815328668,-23278.85,-17086.629,-21492.473,-17952.148,823.93396,-22912.395,-6059.001,4579.509
970890.0855328642,-23277.549,-17085.979,-21489.463,-17949.463,823.73047,-22910.93,-6058.9194,4571.533
970890.0895328616,-23276.328,-17084.596,-21489.096,-17947.633,826.86365,-22908.936,-6056.356,4576.3755
970890.0935328591,-23279.582,-17086.549,-21493.205,-17950.44,827.2705,-22909.506,-6055.217,4578.939
970890.0975328565,-23282.105,-17087.484,-21494.629,-17952.719,825.6836,-22910.32,-6056.9663,4576.986
970890.1015328539,-23282.715,-17087.281,-21496.543,-17952.8,826.1312,-22908.732,-6055.583,4580.5664
970890.1055328513,-23284.262,-17087.688,-21496.42,-17955.607,825.236,-22907.064,-6052.287,4584.4727
970890.1095328487,-23285.238,-17087.484,-21493.002,-17956.137,824.58496,-22906.658,-6049.642,4588.094
970890.1135328461,-23284.262,-17089.479,-21494.426,-17955.363,822.99805,-22906.047,-6047.445,4588.745
970890.1175328436,-23283.164,-17091.146,-21492.676,-17954.957,822.71326,-22906.25,-6046.102,4587.8906
970890.121532841,-23285.4,-17091.797,-21491.943,-17955.404,824.3002,-22907.553,-6046.102,4589.559
970890.1255328384,-23287.559,-17091.39,-21493.408,-17956.34,824.70703,-22907.553,-6045.6953,4589.193
970890.1295328358,-23291.098,-17095.135,-21497.885,-17958.943,823.73047,-22907.676,-6045.7764,4587.362
970890.1335328332,-23293.906,-17099.895,-21502.158,-17959.229,823.85254,-22906.25,-6043.335,4590.251
970890.1375328306,-23294.23,-17098.715,-21503.5,-17961.223,822.67255,-22905.6,-6041.423,4587.6875
970890.1415328281,-23293.54,-17095.703,-21499.717,-17963.99,822.7946,-22906.332,-6040.202,4591.8784
970890.1455328255,-23294.557,-17095.012,-21499.797,-17964.967,822.50977,-22905.152,-6038.5337,4601.278
970890.1495328229,-23290.691,-17092.732,-21501.465,-17965.129,824.0967,-22905.518,-6040.609,4594.3604
970890.1535328203,-23290.121,-17092.977,-21502.809,-17965.658,821.3298,-22907.268,-6041.9517,4589.966
970890.1575328177,-23290.162,-17092.938,-21501.303,-17965.617,819.33594,-22908.611,-6042.1143,4590.617
970890.1615328152,-23291.18,-17093.14,-21499.879,-17966.756,821.3705,-22907.879,-6039.673,4593.913
970890.1655328126,-23293.092,-17094.809,-21501.873,-17965.373,819.4987,-22906.943,-6039.388,4595.1743
970890.16953281,-23294.678,-17096.72,-21504.395,-17963.95,817.749,-22906.414,-6041.748,4593.628
970890.1735328074,-23297.283,-17098.145,-21506.47,-17965.047,816.2842,-22908.367,-6046.672,4587.972
970890.1775328048,-23298.3,-17098.553,-21505.78,-17966.879,817.0166,-22910.809,-6049.7236,4583.822
970890.1815328022,-23297.283,-17097.168,-21504.68,-17967.977,817.1794,-22910.809,-6046.4277,4589.559
970890.1855327997,-23297.527,-17097.332,-21502.482,-17968.506,817.098,-22909.588,-6044.0674,4588.0127
970890.1895327971,-23298.422,-17099.977,-21505.371,-17969.564,813.31384,-22908.896,-6041.097,4592.9365
970890.1935327945,-23296.754,-17098.959,-21507.162,-17969.197,814.1276,-22909.588,-6042.684,4590.21
970890.1975327919,-23293.133,-17095.338,-21508.953,-17967.408,818.84766,-22909.912,-6043.9863,4582.0312
970890.2015327893,-23294.15,-17097.9,-21509.848,-17968.588,819.9463,-22910.32,-6041.8296,4589.966
970890.2055327867,-23297.486,-17100.586,-21504.07,-17969.482,818.6035,-22910.93,-6041.3413,4593.384
970890.2095327842,-23299.236,-17098.674,-21507.0,-17968.018,818.11523,-22912.273,-6043.457,4589.7627
970890.2135327816,-23298.87,-17095.053,-21508.262,-17967.57,817.62695,-22914.795,-6047.445,4581.421
970890.217532779,-23293.133,-17091.35,-21504.395,-17964.234,820.96356,-22914.674,-6046.631,4576.66
970890.2215327764,-23289.43,-17089.438,-21500.408,-17960.49,824.21875,-22913.86,-6044.963,4580.4443
970890.2255327738,-23288.006,-17089.314,-21501.832,-17959.229,825.8464,-22915.61,-6046.631,4588.867
970890.2295327712,-23289.227,-17090.332,-21502.89,-17959.473,827.9216,-22915.977,-6049.968,4593.7095
970890.2335327687,-23290.488,-17091.594,-21503.826,-17960.572,827.7995,-22918.254,-6053.2227,4595.7847
970890.2375327661,-23294.639,-17093.182,-21505.25,-17962.484,825.64294,-22919.883,-6052.409,4603.0273
970890.2415327635,-23299.277,-17096.639,-21506.918,-17963.908,824.78845,-22919.76,-6049.1943,4609.009
970890.2455327609,-23301.88,-17098.47,-21507.162,-17963.623,822.99805,-22919.719,-6049.0317,4607.2593
970890.2495327583,-23302.37,-17097.127,-21508.22,-17962.484,822.3877,-22916.953,-6047.567,4604.004
970890.2535327558,-23301.637,-17096.03,-21508.83,-17961.102,822.71326,-22916.016,-6045.4917,4601.0337
970890.2575327532,-23301.393,-17094.809,-21507.895,-17960.49,823.6898,-22913.494,-6042.7656,4602.051
970890.2615327506,-23300.904,-17091.756,-21507.08,-17961.182,823.8119,-22910.645,-6039.592,4599.8945
970890.265532748,-23302.37,-17094.158,-21509.156,-17964.111,820.63806,-22909.018,-6037.2314,4600.1387
970890.2695327454,-23304.037,-17100.098,-21514.445,-17969.035,815.9994,-22910.605,-6042.7246,4593.994
970890.2735327428,-23304.037,-17097.82,-21519.94,-17971.68,815.3483,-22911.865,-6046.794,4586.3037
970890.2775327403,-23302.166,-17092.814,-21518.799,-17970.662,820.76013,-22910.727,-6046.3867,4589.885
970890.2815327377,-23298.016,-17089.193,-21511.883,-17968.588,825.236,-22910.523,-6045.8984,4592.082
970890.285532735,-23297.568,-17087.646,-21510.295,-17967.732,826.1312,-22911.703,-6047.4854,4590.0474
970890.2895327325,-23302.125,-17089.764,-21512.004,-17969.238,822.99805,-22914.268,-6050.3745,4591.146
970890.2935327298,-23304.281,-17089.723,-21512.492,-17970.053,820.27185,-22913.941,-6050.7,4589.559
970890.2975327272,-23302.37,-17091.309,-21507.936,-17970.297,819.5801,-22912.191,-6049.2354,4587.2397
970890.3015327248,-23298.3,-17094.28,-21505.656,-17967.896,820.4753,-22909.709,-6045.4917,4591.2275
970890.3055327222,-23297.568,-17093.344,-21506.959,-17967.244,822.2656,-22909.709,-6044.1895,4596.1104
970890.3095327195,-23296.55,-17090.902,-21505.697,-17965.658,824.42224,-22908.082,-6040.3647,4600.383
970890.313532717,-23296.998,-17089.355,-21506.389,-17964.926,824.3408,-22907.594,-6041.545,4592.5293
970890.3175327143,-23298.178,-17087.688,-21505.371,-17963.42,823.9746,-22906.373,-6042.2363,4588.786
970890.3215327117,-23296.387,-17087.037,-21503.703,-17963.338,822.71326,-22907.553,-6040.9346,4592.0005
970890.3255327092,-23297.975,-17089.031,-21501.873,-17964.314,820.1904,-22909.1,-6041.1787,4597.9004
970890.3295327066,-23298.504,-17091.39,-21503.541,-17965.984,817.30145,-22910.035,-6043.8643,4596.7207
970890.333532704,-23297.324,-17091.023,-21504.844,-17966.512,818.2373,-22909.588,-6045.7764,4593.628
970890.3375327014,-23296.998,-17090.129,-21503.744,-17965.252,819.5801,-22909.385,-6045.614,4592.5703
970890.3415326988,-23296.998,-17086.752,-21504.111,-17964.234,822.99805,-22910.727,-6046.1426,4593.0586
970890.3455326963,-23299.236,-17083.781,-21506.186,-17963.705,824.58496,-22909.791,-6046.631,4597.412
970890.3495326937,-23302.654,-17085.613,-21509.645,-17965.78,823.9746,-22909.832,-6046.8345,4598.552
970890.3535326911,-23304.81,-17089.111,-21510.783,-17968.832,822.5912,-22911.418,-6047.5264,4596.5986
970890.3575326885,-23302.898,-17088.176,-21510.783,-17968.791,821.5739,-22912.924,-6048.6655,4589.5186
970890.3615326859,-23301.799,-17085.857,-21512.004,-17966.797,822.99805,-22913.535,-6047.445,4594.2793
970890.3655326833,-23299.357,-17084.758,-21508.342,-17965.617,821.49255,-22913.086,-6043.132,4596.1104
970890.3695326808,-23298.016,-17084.84,-21505.168,-17965.088,822.5912,-22912.842,-6039.917,4596.924
970890.3735326782,-23295.492,-17083.822,-21503.053,-17963.543,823.1201,-22914.674,-6041.7075,4593.872
970890.3775326756,-23293.621,-17085.043,-21499.879,-17961.59,826.0498,-22914.795,-6039.795,4599.04
970890.381532673,-23291.953,-17087.281,-21497.844,-17961.996,826.945,-22914.307,-6038.371,4601.278
970890.3855326704,-23293.824,-17090.496,-21494.71,-17963.502,823.2422,-22913.697,-6038.5337,4599.6504
970890.3895326678,-23298.137,-17094.809,-21498.088,-17965.658,820.06836,-22913.982,-6038.778,4596.5986
970890.3935326653,-23301.758,-17096.965,-21504.191,-17968.385,817.749,-22915.568,-6042.684,4585.368
970890.3975326627,-23296.998,-17091.96,-21505.82,-17966.594,824.1374,-22915.812,-6039.8765,4589.966
970890.4015326601,-23289.836,-17087.525,-21501.588,-17964.559,829.0202,-22915.283,-6037.0283,4590.088
970890.4055326575,-23289.959,-17088.176,-21502.035,-17963.826,830.85126,-22914.268,-6037.1094,4592.8145
970890.4095326549,-23288.656,-17086.426,-21498.861,-17963.135,832.7637,-22913.9,-6036.133,4599.447
970890.4135326523,-23287.11,-17087.89,-21496.543,-17963.299,830.89197,-22914.145,-6037.7607,4595.9883
970890.4175326498,-23286.541,-17088.055,-21495.605,-17962.525,831.2582,-22915.04,-6040.4053,4591.1055
970890.4215326472,-23283.285,-17086.06,-21493.164,-17961.59,833.0485,-22916.83,-6042.7246,4592.9365
970890.4255326446,-23284.832,-17085.979,-21494.834,-17962.484,831.0547,-22917.156,-6041.7075,4598.1445
970890.429532642,-23282.756,-17082.887,-21493.45,-17962.158,833.78094,-22916.342,-6038.005,4602.214
970890.4335326394,-23280.518,-17081.258,-21492.758,-17961.71,835.6527,-22917.4,-6037.2725,4604.37
970890.4375326368,-23279.541,-17081.258,-21491.781,-17961.549,838.4603,-22918.54,-6036.418,4604.533
970890.4415326343,-23277.629,-17079.305,-21487.672,-17961.182,838.66376,-22917.115,-6033.4883,4605.754
970890.4455326317,-23274.455,-17076.66,-21487.184,-17960.125,842.85486,-22916.3,-6032.064,4604.37
970890.4495326291,-23273.805,-17074.91,-21489.707,-17960.857,843.4652,-22917.236,-6032.756,4607.707
970890.4535326265,-23271.037,-17071.615,-21486.98,-17959.432,844.6452,-22917.848,-6032.756,4607.91
970890.4575326239,-23268.107,-17069.744,-21484.01,-17956.951,846.47626,-22917.441,-6033.0,4600.6675
970890.4615326214,-23267.416,-17072.55,-21481.975,-17956.258,849.1211,-22917.48,-6031.413,4604.248
970890.4655326188,-23268.88,-17072.957,-21480.348,-17958.13,845.4997,-22918.377,-6029.907,4609.131
970890.4695326162,-23270.346,-17071.248,-21482.871,-17959.27,841.43066,-22916.709,-6029.338,4610.962
970890.4735326136,-23270.672,-17070.477,-21481.121,-17958.537,839.2334,-22914.592,-6027.832,4607.463
970890.477532611,-23272.543,-17073.201,-21479.168,-17958.943,836.4665,-22913.656,-6026.042,4609.782
970890.4815326084,-23272.746,-17074.016,-21479.656,-17959.596,836.5072,-22915.08,-6025.9604,4610.5146
970890.4855326059,-23271.648,-17073.406,-21479.818,-17959.188,838.13477,-22915.08,-6026.4487,4614.421
970890.4895326033,-23270.834,-17075.604,-21477.05,-17959.473,839.51825,-22912.395,-6021.7695,4619.7104
970890.4935326007,-23275.84,-17078.207,-21481.65,-17963.705,838.1755,-22913.086,-6020.5894,4616.13
970890.4975325981,-23274.984,-17073.08,-21484.416,-17963.42,840.0879,-22909.873,-6017.334,4621.257
970890.5015325955,-23272.543,-17069.418,-21481.812,-17962.2,843.75,-22908.0,-6015.503,4625.366
970890.5055325929,-23273.072,-17071.777,-21483.074,-17963.014,845.4997,-22908.367,-6016.195,4627.5635
970890.5095325904,-23274.943,-17072.633,-21485.637,-17963.135,843.50586,-22910.523,-6016.9272,4630.0864
970890.5135325878,-23272.99,-17073.895,-21482.666,-17961.996,839.19275,-22914.674,-6021.4844,4625.4883
970890.5175325852,-23273.723,-17074.463,-21481.08,-17960.287,840.2914,-22915.203,-6021.6475,4621.501
970890.5215325826,-23276.45,-17073.73,-21481.486,-17960.45,842.1631,-22914.062,-6018.3105,4628.296
970890.52553258,-23277.344,-17074.057,-21483.195,-17960.652,845.7031,-22914.877,-6019.6533,4628.052
970890.5295325774,-23279.217,-17074.463,-21484.13,-17962.322,844.72656,-22914.715,-6020.345,4627.9297
970890.5335325749,-23273.723,-17073.445,-21481.201,-17962.117,845.29626,-22912.965,-6016.317,4628.988
970890.5375325723,-23272.258,-17071.615,-21479.941,-17962.158,845.988,-22912.477,-6010.9053,4638.4277
970890.5415325697,-23273.682,-17073.406,-21479.98,-17963.705,844.3197,-22912.03,-6010.376,4639.1196
970890.5455325671,-23275.717,-17074.79,-21482.79,-17965.332,841.8376,-22911.012,-6011.434,4638.6313
970890.5495325645,-23276.123,-17071.004,-21487.06,-17963.99,843.34314,-22909.75,-6009.2773,4637.207
970890.553532562,-23275.514,-17069.215,-21485.963,-17964.193,844.4824,-22909.465,-6010.498,4628.1333
970890.5575325594,-23273.887,-17068.482,-21484.254,-17963.338,845.4997,-22909.873,-6011.0273,4628.703
970890.5615325568,-23271.852,-17068.645,-21484.986,-17961.873,844.88934,-22910.564,-6010.7017,4631.877
970890.5655325542,-23271.77,-17069.58,-21486.37,-17961.508,843.34314,-22911.418,-6013.835,4628.703
970890.5695325516,-23273.398,-17071.412,-21484.945,-17961.59,843.8721,-22910.93,-6015.5845,4625.814
970890.573532549,-23273.154,-17072.225,-21485.678,-17961.02,844.7673,-22911.865,-6017.4155,4621.704
970890.5775325465,-23274.496,-17070.271,-21486.451,-17959.473,844.88934,-22912.03,-6018.148,4626.0176
970890.5815325439,-23276.49,-17070.477,-21486.451,-17959.88,847.1273,-22910.197,-6017.334,4633.952
970890.5855325413,-23276.652,-17069.215,-21482.992,-17960.49,850.8708,-22909.629,-6018.1074,4626.831
970890.5895325387,-23274.902,-17067.424,-21478.027,-17960.164,848.02246,-22907.594,-6014.7705,4632.202
970890.5935325361,-23271.24,-17065.594,-21478.354,-17960.084,844.88934,-22907.188,-6011.434,4635.4575
970890.5975325335,-23271.566,-17064.9,-21479.209,-17959.758,844.6859,-22907.797,-6009.969,4636.3525
970890.601532531,-23270.752,-17064.861,-21482.992,-17960.775,843.75,-22909.506,-6011.2305,4629.598
970890.6055325284,-23269.328,-17064.82,-21483.604,-17959.188,845.7031,-22908.611,-6011.882,4625.4478
970890.6095325258,-23270.713,-17064.9,-21483.766,-17959.514,847.4935,-22908.447,-6013.835,4627.645
970890.6135325232,-23270.672,-17062.053,-21483.604,-17958.62,849.6501,-22911.053,-6017.904,4626.506
970890.6175325206,-23267.701,-17057.373,-21483.725,-17956.299,857.54395,-22910.97,-6015.096,4625.6104
970890.621532518,-23264.73,-17054.566,-21481.69,-17956.625,855.67224,-22910.686,-6014.16,4629.476
970890.6255325155,-23266.969,-17058.676,-21481.61,-17957.602,851.6032,-22911.338,-6018.1074,4630.046
970890.6295325129,-23272.014,-17064.494,-21481.812,-17958.416,848.9584,-22911.785,-6021.566,4619.67
970890.6335325103,-23278.443,-17069.133,-21483.928,-17960.246,844.6452,-22913.168,-6024.333,4612.8745
970890.6375325077,-23280.273,-17070.516,-21484.254,-17959.514,844.52313,-22912.842,-6022.0947,4619.1
970890.641532505,-23275.717,-17069.336,-21481.201,-17958.252,846.3949,-22910.523,-6017.9854,4623.7793
970890.6455325026,-23273.887,-17067.668,-21480.55,-17957.398,850.13837,-22909.424,-6015.422,4625.0815
970890.6495325,-23270.916,-17063.111,-21482.992,-17956.502,854.6957,-22908.814,-6012.451,4623.291
970890.6535324974,-23269.492,-17058.676,-21484.254,-17955.566,855.63153,-22910.32,-6011.7188,4623.0063
970890.6575324947,-23268.719,-17059.57,-21482.3,-17954.225,857.7881,-22911.338,-6010.0913,4623.088
970890.6615324921,-23265.83,-17059.611,-21479.86,-17952.557,859.7412,-22912.191,-6012.248,4620.8496
970890.6655324895,-23265.83,-17057.984,-21480.55,-17952.8,859.2123,-22913.86,-6016.561,4618.5303
970890.669532487,-23267.986,-17058.473,-21484.824,-17955.201,854.45154,-22914.389,-6020.996,4616.455
970890.6735324844,-23270.305,-17060.588,-21487.51,-17956.137,851.9287,-22915.0,-6021.6064,4619.7104
970890.6775324818,-23269.043,-17059.57,-21483.969,-17955.078,852.6205,-22915.691,-6022.868,4616.252
970890.6815324792,-23267.701,-17058.635,-21482.178,-17953.613,855.2246,-22914.062,-6023.153,4620.2393
970890.6855324766,-23269.492,-17060.994,-21482.586,-17953.98,856.2826,-22913.818,-6023.2344,4621.948
970890.689532474,-23266.113,-17060.018,-21481.771,-17952.922,858.6833,-22914.268,-6024.7803,4619.507
970890.6935324715,-23261.436,-17055.379,-21479.168,-17951.13,860.9619,-22914.104,-6024.658,4615.438
970890.6975324689,-23260.58,-17052.816,-21479.045,-17951.904,862.3047,-22913.168,-6024.2515,4620.4023
970890.7015324663,-23260.662,-17052.002,-21475.75,-17951.62,865.03094,-22914.348,-6025.35,4624.105
970890.7055324637,-23261.842,-17050.496,-21478.232,-17951.416,863.64746,-22916.139,-6029.216,4620.9717
970890.7095324611,-23265.26,-17050.375,-21480.592,-17952.963,860.83984,-22915.895,-6030.1514,4615.7637
970890.7135324585,-23264.771,-17051.393,-21479.248,-17954.346,857.58466,-22914.47,-6029.338,4613.729
970890.717532456,-23265.586,-17051.799,-21480.348,-17955.607,855.8757,-22913.78,-6026.3267,4621.0127
970890.7215324534,-23261.76,-17051.922,-21477.012,-17954.266,857.8288,-22914.186,-6023.7227,4627.3604
970890.7255324508,-23260.986,-17053.955,-21477.947,-17954.51,857.7067,-22914.674,-6023.8037,4635.3354
970890.7295324482,-23261.598,-17054.2,-21477.256,-17954.143,858.11365,-22914.918,-6025.9604,4630.8594
970890.7335324456,-23263.672,-17054.81,-21479.086,-17955.607,855.306,-22917.93,-6031.128,4620.6055
970890.737532443,-23263.877,-17056.072,-21481.812,-17956.91,851.9694,-22916.18,-6028.4424,4626.2207
970890.7415324405,-23263.633,-17055.217,-21478.76,-17954.875,854.7363,-22913.494,-6025.228,4631.2256
970890.7455324379,-23263.51,-17053.467,-21478.191,-17954.346,856.1605,-22911.703,-6024.048,4634.847
970890.7495324353,-23263.998,-17051.31,-21480.51,-17955.607,857.05566,-22910.523,-6022.583,4637.085
970890.7535324327,-23263.754,-17052.938,-21479.453,-17956.178,854.4922,-22910.97,-6023.1934,4630.6562
970890.7575324301,-23262.371,-17056.234,-21477.703,-17956.584,851.2777,-22913.291,-6026.367,4628.093
970890.7615324276,-23263.145,-17055.99,-21475.871,-17956.707,850.66736,-22916.504,-6028.6865,4626.9126
970890.765532425,-23263.145,-17056.072,-21473.35,-17954.713,855.3467,-22919.19,-6029.419,4630.819
970890.7695324224,-23261.436,-17053.02,-21475.059,-17953.695,857.95087,-22919.8,-6029.1343,4634.1553
970890.7735324198,-23262.412,-17052.084,-21478.312,-17955.078,854.24805,-22920.166,-6031.047,4631.755
970890.7775324172,-23262.248,-17053.875,-21478.395,-17954.957,851.80664,-22919.76,-6029.5005,4630.941
970890.7815324146,-23261.475,-17053.752,-21475.506,-17952.76,856.8115,-22918.133,-6022.258,4643.5957
970890.7855324121,-23262.086,-17053.793,-21479.045,-17952.027,855.7536,-22916.83,-6016.6426,4657.2676
970890.7895324095,-23266.725,-17054.729,-21482.098,-17952.719,856.03845,-22916.545,-6015.4624,4659.3833
970890.7935324069,-23270.102,-17056.275,-21483.807,-17955.12,855.14325,-22918.377,-6019.287,4654.216
970890.7975324043,-23273.479,-17060.303,-21485.312,-17955.893,853.10876,-22919.312,-6021.688,4651.937
970890.8015324017,-23276.084,-17061.523,-21486.777,-17956.707,852.4984,-22919.395,-6024.333,4654.175
970890.8055323991,-23274.537,-17059.855,-21486.125,-17954.184,857.05566,-22918.742,-6027.71,4650.92
970890.8095323966,-23272.422,-17057.373,-21485.76,-17953.248,859.98535,-22918.783,-6028.0356,4644.5312
970890.813532394,-23272.543,-17053.223,-21485.068,-17953.613,861.613,-22918.945,-6028.3203,4638.1025
970890.8175323914,-23272.87,-17052.613,-21484.701,-17953.328,864.0137,-22917.562,-6026.367,4637.329
970890.8215323888,-23272.543,-17056.52,-21484.742,-17954.549,862.26404,-22918.213,-6027.71,4638.1025
970890.8255323862,-23273.398,-17059.205,-21483.807,-17956.463,858.11365,-22918.133,-6028.0356,4645.549
970890.8295323836,-23270.06,-17054.646,-21480.266,-17955.607,858.47986,-22914.715,-6024.333,4650.106
970890.8335323811,-23269.94,-17054.607,-21480.266,-17955.934,856.6488,-22914.186,-6022.7866,4646.159
970890.8375323785,-23271.12,-17055.828,-21478.598,-17955.078,853.8412,-22915.324,-6021.9727,4647.38
970890.8415323759,-23274.21,-17059.49,-21476.441,-17955.201,853.02734,-22917.156,-6023.0713,4647.054
970890.8455323733,-23277.629,-17063.436,-21479.127,-17954.102,854.65497,-22919.068,-6026.042,4642.6597
970890.8495323707,-23277.426,-17062.215,-21483.318,-17953.898,858.0322,-22919.395,-6026.7744,4641.6426
970890.8535323682,-23280.559,-17063.273,-21483.848,-17954.793,857.21844,-22921.184,-6027.588,4637.9805
970890.8575323656,-23278.89,-17062.623,-21484.904,-17955.445,856.40466,-22921.916,-6026.5303,4637.8174
970890.861532363,-23279.094,-17061.605,-21486.248,-17956.299,858.39844,-22920.207,-6022.258,4648.397
970890.8655323604,-23279.664,-17061.809,-21484.13,-17957.846,857.0964,-22917.93,-6018.921,4656.82
970890.8695323578,-23279.502,-17062.664,-21481.445,-17957.887,854.81775,-22916.139,-6017.9443,4653.6865
970890.8735323552,-23280.682,-17063.436,-21482.3,-17957.928,852.5798,-22916.627,-6018.7583,4645.874
970890.8775323527,-23277.426,-17062.215,-21479.777,-17957.967,853.1901,-22916.586,-6017.578,4643.962
970890.8815323501,-23275.717,-17063.803,-21478.354,-17958.13,852.9053,-22915.936,-6017.2935,4641.0728
970890.8855323475,-23276.123,-17062.012,-21478.354,-17957.643,854.8584,-22915.936,-6016.9272,4642.456
970890.8895323449,-23273.275,-17060.385,-21475.912,-17956.219,856.9743,-22913.656,-6013.6313,4645.549
970890.8935323423,-23274.293,-17060.467,-21476.889,-17956.707,853.8005,-22912.965,-6012.655,4647.461
970890.8975323397,-23276.328,-17059.57,-21473.47,-17956.096,856.7709,-22912.639,-6011.7188,4653.5645
970890.9015323372,-23272.95,-17055.867,-21471.111,-17956.014,861.69434,-22913.33,-6009.074,4659.302
970890.9055323346,-23274.293,-17056.152,-21472.941,-17956.625,862.5082,-22915.812,-6010.2134,4656.0874
970890.909532332,-23276.002,-17059.164,-21475.098,-17957.195,858.9274,-22917.236,-6012.8174,4652.6694
970890.9135323294,-23277.832,-17062.053,-21479.33,-17959.148,854.24805,-22920.29,-6015.666,4645.9556
970890.9175323268,-23277.344,-17062.867,-21478.883,-17959.84,853.43427,-22921.387,-6017.4155,4639.8926
970890.9215323242,-23277.264,-17062.379,-21476.4,-17960.896,853.3122,-22920.615,-6017.2935,4646.24
970890.9255323217,-23279.908,-17067.912,-21477.256,-17963.42,850.13837,-22919.963,-6016.3574,4650.1465
970890.9295323191,-23281.006,-17071.127,-21478.232,-17962.85,850.9115,-22919.23,-6014.852,4649.455
970890.9335323165,-23278.443,-17068.807,-21477.824,-17961.182,853.02734,-22919.963,-6016.4795,4648.4785
970890.9375323139,-23275.596,-17068.035,-21474.244,-17960.205,855.63153,-22920.898,-6017.6597,4646.159
970890.9415323113,-23273.072,-17067.424,-21470.623,-17959.473,857.95087,-22918.01,-6018.5547,4647.624
970890.9455323088,-23272.746,-17066.53,-21470.338,-17959.92,858.80536,-22916.465,-6016.683,4652.995
970890.9495323062,-23270.225,-17063.72,-21468.1,-17958.822,860.6364,-22916.586,-6016.8457,4648.8037
970890.9535323036,-23271.445,-17063.844,-21470.703,-17957.44,861.084,-22919.963,-6019.857,4646.24
970890.957532301,-23268.107,-17060.588,-21471.477,-17956.178,862.06055,-22922.568,-6019.45,4645.7114
970890.9615322984,-23265.178,-17057.252,-21466.92,-17954.672,862.8337,-22922.08,-6017.1714,4648.275
970890.9655322958,-23262.615,-17056.275,-21464.805,-17955.037,862.79297,-22922.771,-6015.544,4654.989
970890.9695322933,-23257.812,-17052.002,-21462.973,-17954.346,866.9841,-22919.639,-6010.742,4661.621
970890.9735322907,-23257.568,-17051.637,-21463.055,-17955.852,865.8447,-22918.498,-6007.6904,4665.08
970890.9775322881,-23256.43,-17051.678,-21463.99,-17956.746,867.47235,-22918.865,-6005.615,4663.493
970890.9815322855,-23257.121,-17048.951,-21460.979,-17956.543,868.0827,-22919.598,-6006.2256,4659.546
970890.9855322829,-23260.01,-17048.178,-21463.867,-17956.91,869.2627,-22920.654,-6007.772,4655.721
970890.9895322802,-23264.61,-17050.945,-21463.543,-17957.44,870.1172,-22921.998,-6013.021,4648.275
970890.9935322778,-23261.68,-17055.176,-21463.299,-17957.031,867.2282,-22923.38,-6017.131,4642.741
970890.9975322752,-23258.098,-17052.775,-21459.799,-17954.102,868.6117,-22923.057,-6019.5723,4642.1714
970891.0015322726,-23255.332,-17050.252,-21457.928,-17951.336,869.50684,-22923.422,-6021.0776,4645.427
970891.00553227,-23257.0,-17051.393,-21460.246,-17949.504,866.1296,-22925.578,-6023.2344,4644.4907
970891.0095322673,-23260.58,-17054.281,-21467.285,-17951.904,867.9199,-22925.742,-6025.0654,4643.718
970891.0135322647,-23263.184,-17054.566,-21468.547,-17953.248,870.931,-22924.56,-6025.35,4642.8633
970891.0175322623,-23263.998,-17054.363,-21468.14,-17954.549,872.3959,-22924.033,-6022.7866,4641.805
970891.0215322596,-23264.934,-17054.24,-21463.828,-17954.957,874.2676,-22919.883,-6019.735,4645.223
970891.025532257,-23268.31,-17056.926,-21463.746,-17955.607,870.5648,-22920.492,-6022.054,4644.0024
970891.0295322544,-23267.986,-17056.479,-21463.787,-17953.98,867.14685,-22921.63,-6025.0654,4630.5747
970891.0335322518,-23268.475,-17059.652,-21463.217,-17955.893,863.1999,-22922.324,-6021.932,4634.1147
970891.0375322492,-23265.26,-17060.426,-21463.379,-17954.754,861.8571,-22923.3,-6023.6006,4638.591
970891.0415322467,-23265.748,-17058.553,-21463.096,-17952.922,862.79297,-22923.178,-6023.2344,4647.461
970891.0455322441,-23268.271,-17058.473,-21465.088,-17954.021,867.2282,-22923.34,-6021.6475,4652.629
970891.0495322415,-23270.264,-17058.879,-21468.791,-17955.607,866.5365,-22923.34,-6022.583,4655.355
970891.0535322389,-23268.922,-17056.6,-21472.617,-17955.607,867.3503,-22924.072,-6023.8447,4650.7163
970891.0575322363,-23267.01,-17056.764,-21468.873,-17956.38,869.87305,-22924.44,-6022.624,4650.1465
970891.0615322338,-23265.26,-17055.34,-21466.105,-17955.281,875.0,-22921.754,-6018.799,4659.1797
970891.0655322312,-23263.51,-17049.357,-21468.873,-17954.102,880.0863,-22920.654,-6015.7065,4665.9346
970891.0695322286,-23259.562,-17045.29,-21466.105,-17951.13,881.4697,-22920.207,-6013.55,4669.7593
970891.073532226,-23258.83,-17044.11,-21463.787,-17951.13,878.21454,-22921.592,-6014.282,4664.2256
970891.0775322234,-23261.15,-17043.133,-21459.96,-17950.604,877.5228,-22920.29,-6010.9053,4667.6025
970891.0815322208,-23261.842,-17043.01,-21460.938,-17950.643,876.9531,-22918.662,-6006.1445,4676.8394
970891.0855322183,-23260.133,-17045.166,-21460.613,-17953.248,875.4883,-22918.213,-6004.802,4680.217
970891.0895322157,-23255.576,-17043.54,-21460.979,-17952.271,878.6621,-22918.05,-6006.5513,4675.212
970891.0935322131,-23256.836,-17042.4,-21466.35,-17952.271,878.4587,-22918.295,-6007.406,4673.5435
970891.0975322105,-23257.773,-17043.213,-21464.6,-17953.084,879.7201,-22917.93,-6005.3306,4679.403
970891.1015322079,-23256.512,-17041.992,-21459.393,-17951.092,880.61523,-22917.521,-6003.093,4676.3916
970891.1055322053,-23258.22,-17041.504,-21459.229,-17951.092,881.18494,-22919.475,-6005.127,4670.9395
970891.1095322028,-23255.453,-17038.941,-21459.19,-17950.398,882.6904,-22921.225,-6008.138,4668.7827
970891.1135322002,-23250.938,-17032.715,-21456.137,-17949.26,883.3008,-22923.34,-6011.0273,4662.679
970891.1175321976,-23248.455,-17030.72,-21455.283,-17947.957,882.77185,-22921.428,-6010.7017,4661.7026
970891.121532195,-23248.7,-17033.814,-21452.068,-17947.836,882.3242,-22920.166,-6009.603,4662.313
970891.1255321924,-23249.188,-17035.4,-21453.086,-17948.73,878.90625,-22919.883,-6012.207,4660.3193
970891.1295321898,-23253.662,-17039.47,-21457.113,-17950.398,875.28485,-22919.557,-6015.381,4659.953
970891.1335321873,-23261.719,-17045.898,-21460.328,-17953.248,871.8669,-22921.184,-6017.09,4657.2266
970891.1375321847,-23261.11,-17043.213,-21459.352,-17952.678,874.7966,-22919.557,-6014.282,4657.878
970891.1415321821,-23256.592,-17039.266,-21457.357,-17949.91,880.0863,-22916.912,-6006.7954,4670.7764
970891.1455321795,-23255.047,-17037.8,-21459.717,-17948.975,881.51044,-22915.854,-6004.5166,4675.9443
970891.1495321769,-23255.088,-17038.209,-21459.799,-17949.666,882.77185,-22916.3,-6005.6562,4672.689
970891.1535321744,-23255.006,-17037.68,-21457.154,-17950.195,883.016,-22918.54,-6008.0566,4667.3994
970891.1575321718,-23255.576,-17039.836,-21457.031,-17949.26,881.1442,-22918.254,-6009.1147,4668.335
970891.1615321692,-23255.494,-17042.684,-21453.857,-17946.941,880.3711,-22918.336,-6012.207,4666.87
970891.1655321666,-23258.627,-17047.16,-21456.26,-17949.463,876.50555,-22918.986,-6015.381,4670.736
970891.169532164,-23262.615,-17050.701,-21461.467,-17951.904,872.2738,-22918.945,-6015.991,4669.0674
970891.1735321614,-23260.377,-17048.504,-21460.205,-17953.166,869.9951,-22920.492,-6019.043,4659.831
970891.1775321589,-23256.553,-17049.398,-21454.59,-17953.492,868.36755,-22920.695,-6017.6597,4662.1504
970891.1815321563,-23254.477,-17048.178,-21454.021,-17952.76,867.43164,-22920.94,-6019.165,4665.7715
970891.1855321537,-23252.85,-17045.045,-21455.648,-17952.148,867.2282,-22924.033,-6022.949,4664.9985
970891.1895321511,-23245.402,-17040.242,-21456.016,-17949.83,869.18134,-22924.154,-6024.658,4659.465
970891.1935321485,-23239.625,-17033.244,-21458.375,-17949.586,869.05927,-22926.31,-6027.7915,4653.28
970891.1975321459,-23232.3,-17025.838,-21457.684,-17947.43,870.8496,-22927.695,-6031.942,4646.8506
970891.2015321434,-23220.42,-17015.951,-21453.004,-17945.027,875.4069,-22930.46,-6034.6274,4639.7705
970891.2055321408,-23211.02,-17005.168,-21450.848,-17941.977,881.5918,-22929.12,-6029.419,4647.461
970891.2095321382,-23198.936,-16994.264,-21447.754,-17939.291,886.556,-22926.352,-6025.472,4647.583
970891.2135321356,-23188.07,-16983.969,-21444.174,-17938.885,887.57324,-22923.625,-6024.292,4641.8457
970891.217532133,-23182.414,-16979.695,-21444.256,-17939.78,886.5967,-22924.56,-6021.4844,4641.2764
970891.2215321304,-23180.908,-16981.648,-21442.465,-17940.309,884.27734,-22924.602,-6020.427,4642.619
970891.2255321279,-23178.672,-16974.854,-21442.506,-17940.43,883.95184,-22924.113,-6021.566,4645.101
970891.2295321253,-23180.584,-16974.121,-21446.33,-17942.953,882.5277,-22926.352,-6022.705,4642.9443
970891.2335321227,-23183.879,-16980.55,-21446.29,-17944.703,880.65594,-22926.066,-6022.38,4639.323
970891.2375321201,-23186.688,-16984.54,-21444.988,-17946.697,880.8187,-22926.514,-6020.915,4640.91
970891.2415321175,-23184.611,-16975.871,-21442.22,-17946.209,886.88153,-22925.375,-6019.979,4642.497
970891.245532115,-23179.973,-16974.041,-21444.947,-17944.824,890.4216,-22925.578,-6021.7695,4644.6533
970891.2495321124,-23180.625,-16976.4,-21445.518,-17945.191,889.4043,-22927.002,-6024.333,4641.6016
970891.2535321098,-23179.363,-16971.07,-21443.156,-17942.83,890.54364,-22927.531,-6023.397,4639.2417
970891.2575321072,-23180.42,-16970.703,-21443.768,-17942.342,888.265,-22928.71,-6022.9087,4642.0493
970891.2615321046,-23186.809,-16977.336,-21446.697,-17945.8,889.445,-22928.916,-6023.926,4646.7285
970891.265532102,-23195.72,-16984.09,-21451.457,-17948.65,888.30566,-22928.63,-6022.7866,4648.031
970891.2695320995,-23201.092,-16986.125,-21452.027,-17950.643,885.90497,-22928.875,-6023.3154,4647.99
970891.2735320969,-23202.11,-16985.271,-21450.889,-17950.521,887.3698,-22931.926,-6025.35,4644.45
970891.2775320943,-23197.633,-16981.16,-21448.447,-17946.533,888.99744,-22934.123,-6026.2046,4647.339
970891.2815320917,-23195.639,-16983.154,-21445.68,-17944.906,889.8519,-22933.799,-6024.6177,4653.2393
970891.2855320891,-23200.36,-16989.096,-21444.297,-17944.988,888.30566,-22932.7,-6022.054,4653.768
970891.2895320865,-23201.336,-16989.502,-21447.795,-17943.97,889.5671,-22932.984,-6020.549,4656.657
970891.293532084,-23201.824,-16990.193,-21446.25,-17943.686,889.20087,-22933.635,-6018.1074,4659.9937
970891.2975320814,-23205.04,-16994.549,-21443.645,-17944.133,885.57947,-22933.31,-6017.4155,4661.4585
970891.3015320788,-23206.666,-16997.844,-21442.709,-17944.012,885.376,-22931.805,-6017.2935,4657.2266
970891.3055320762,-23212.729,-17002.809,-21443.97,-17946.29,883.91113,-22931.316,-6018.3516,4660.36
970891.3095320736,-23218.75,-17005.982,-21447.959,-17947.754,880.9408,-22932.049,-6019.287,4662.7197
970891.313532071,-23219.97,-17004.11,-21451.904,-17947.633,877.03455,-22931.64,-6018.148,4655.884
970891.3175320685,-23216.838,-17001.18,-21447.836,-17944.295,880.5746,-22930.055,-6014.6484,4650.3906
970891.3215320659,-23221.07,-17007.527,-21446.412,-17947.021,879.5573,-22930.137,-6010.9053,4662.2314
970891.3255320633,-23222.412,-17008.504,-21446.29,-17949.098,880.0456,-22929.443,-6012.655,4664.3066
970891.3295320607,-23224.488,-17008.383,-21444.988,-17947.225,880.8594,-22926.88,-6011.2715,4670.736
970891.333532058,-23228.11,-17011.639,-21446.412,-17947.062,879.76074,-22927.531,-6015.1777,4669.0674
970891.3375320556,-23230.674,-17014.527,-21451.58,-17949.422,877.88904,-22927.287,-6016.0728,4670.736
970891.341532053,-23233.604,-17016.56,-21452.23,-17951.172,876.9125,-22925.457,-6010.498,4681.4375
970891.3455320504,-23240.52,-17019.328,-21452.19,-17953.248,873.6572,-22926.066,-6008.545,4680.949
970891.3495320478,-23243.531,-17020.346,-21458.781,-17954.346,872.88416,-22928.223,-6011.882,4674.6016
970891.3535320451,-23242.352,-17023.967,-21460.654,-17955.037,873.16895,-22928.793,-6012.5327,4671.55
970891.3575320425,-23241.252,-17024.7,-21457.072,-17954.998,871.8262,-22925.945,-6008.423,4680.542
970891.36153204,-23242.92,-17024.578,-21456.26,-17955.607,871.7041,-22924.602,-6004.6797,4678.0195
970891.3655320375,-23245.117,-17024.7,-21454.55,-17957.275,871.0124,-22923.666,-6007.65,4673.6655
970891.3695320348,-23246.014,-17025.432,-21453.777,-17957.398,870.3207,-22924.357,-6007.243,4677.246
970891.3735320322,-23247.07,-17027.264,-21454.51,-17958.252,870.44275,-22926.19,-6007.121,4676.473
970891.3775320296,-23248.82,-17030.232,-21455.201,-17959.758,869.7103,-22926.719,-6004.6797,4676.3105
970891.381532027,-23251.629,-17032.959,-21456.137,-17961.02,869.05927,-22925.62,-5997.0703,4682.129
970891.3855320245,-23253.703,-17035.156,-21455.934,-17961.182,868.8965,-22925.049,-5992.676,4683.838
970891.389532022,-23257.732,-17037.598,-21456.992,-17960.857,867.43164,-22922.812,-5991.1704,4684.5703
970891.3935320193,-23259.686,-17039.021,-21460.613,-17960.896,863.3627,-22923.26,-5992.6353,4685.2217
970891.3975320167,-23260.254,-17040.812,-21459.31,-17962.688,859.5378,-22924.195,-5994.385,4690.796
970891.4015320141,-23256.715,-17039.348,-21456.666,-17959.96,863.2406,-22921.957,-5992.1875,4697.0215
970891.4055320115,-23256.756,-17039.877,-21458.62,-17961.182,863.81024,-22924.277,-5994.629,4693.7256
970891.409532009,-23260.254,-17043.824,-21458.537,-17963.094,864.7868,-22925.578,-5996.745,4693.2783
970891.4135320064,-23259.848,-17041.707,-21457.072,-17961.508,862.8337,-22929.404,-6003.093,4679.6875
970891.4175320038,-23258.3,-17037.11,-21453.818,-17958.863,861.4502,-22929.973,-6006.714,4679.9727
970891.4215320012,-23259.848,-17037.72,-21454.184,-17959.88,859.0495,-22927.695,-6005.7373,4690.552
970891.4255319986,-23264.242,-17041.586,-21456.87,-17962.973,859.9447,-22925.375,-6003.052,4694.9873
970891.429531996,-23264.771,-17042.44,-21457.357,-17962.402,860.02606,-22925.213,-6000.244,4696.9404
970891.4335319935,-23262.371,-17040.895,-21457.602,-17961.59,859.98535,-22926.23,-5998.9424,4697.347
970891.4375319909,-23261.271,-17040.242,-21455.566,-17959.432,860.6364,-22926.066,-5996.5415,4700.887
970891.4415319883,-23259.604,-17040.406,-21451.621,-17957.52,863.1185,-22925.416,-5995.687,4701.3755
970891.4455319857,-23263.062,-17042.4,-21453.33,-17959.188,863.64746,-22926.23,-5998.8203,4693.441
970891.4495319831,-23265.342,-17043.213,-21453.207,-17959.596,862.46747,-22928.143,-6000.6514,4688.5176
970891.4535319806,-23262.412,-17039.43,-21451.66,-17957.928,861.6537,-22930.87,-6001.343,4688.192
970891.457531978,-23261.719,-17038.818,-21453.736,-17957.643,861.04333,-22932.617,-5997.3145,4690.7554
970891.4615319754,-23259.441,-17039.062,-21452.557,-17956.91,863.6882,-22930.99,-5993.5303,4692.505
970891.4655319728,-23257.324,-17037.639,-21450.848,-17957.846,864.9496,-22929.322,-5993.083,4697.917
970891.4695319702,-23258.506,-17037.15,-21450.645,-17958.172,864.5834,-22927.734,-5991.333,4701.172
970891.4735319676,-23256.309,-17037.068,-21447.715,-17960.084,869.87305,-22927.328,-5988.363,4705.0376
970891.4775319651,-23253.662,-17037.068,-21445.762,-17958.66,869.54755,-22927.531,-5988.5254,4703.939
970891.4815319625,-23253.094,-17037.03,-21447.918,-17957.723,871.7041,-22926.678,-5989.38,4702.1895
970891.4855319599,-23254.762,-17037.842,-21450.36,-17958.822,874.1862,-22925.334,-5986.491,4710.449
970891.4895319573,-23257.691,-17039.021,-21452.475,-17961.385,874.349,-22925.863,-5986.5723,4711.711
970891.4935319547,-23256.268,-17039.062,-21452.678,-17961.06,874.06415,-22926.758,-5986.2876,4705.241
970891.4975319521,-23253.623,-17039.918,-21451.986,-17959.393,874.2269,-22925.498,-5984.741,4707.5195
970891.5015319496,-23256.797,-17042.807,-21451.254,-17959.84,874.75586,-22925.254,-5984.4565,4710.531
970891.505531947,-23257.244,-17042.4,-21449.871,-17959.432,876.3835,-22924.195,-5985.2705,4700.1143
970891.5095319444,-23253.459,-17041.912,-21449.098,-17959.188,875.65106,-22924.766,-5987.1826,4694.2954
970891.5135319418,-23252.727,-17042.684,-21447.43,-17958.252,877.1159,-22924.154,-5986.491,4693.2783
970891.5175319392,-23252.809,-17042.807,-21445.068,-17957.643,879.1504,-22923.951,-5983.114,4694.6616
970891.5215319366,-23252.727,-17041.342,-21444.785,-17958.09,882.1208,-22924.643,-5981.6084,4697.673
970891.5255319341,-23251.709,-17038.738,-21445.965,-17958.252,887.1664,-22925.09,-5980.876,4699.5444
970891.5295319315,-23249.35,-17035.686,-21445.842,-17958.049,891.8457,-22926.066,-5979.9805,4702.5146
970891.5335319289,-23247.438,-17028.768,-21444.744,-17956.299,892.08984,-22927.002,-5981.9746,4699.504
970891.5375319263,-23244.385,-17024.17,-21441.488,-17954.59,893.35126,-22925.781,-5981.2827,4698.039
970891.5415319237,-23243.408,-17026.57,-21440.39,-17954.875,895.2637,-22923.79,-5980.1436,4705.526
970891.5455319212,-23245.77,-17030.111,-21438.682,-17956.219,896.932,-22922.852,-5981.1606,4709.188
970891.5495319186,-23244.71,-17026.734,-21439.535,-17954.916,897.01337,-22924.277,-5984.8633,4705.4443
970891.553531916,-23243.613,-17025.188,-21442.424,-17955.12,896.68787,-22926.514,-5988.973,4701.0093
970891.5575319134,-23244.793,-17024.129,-21442.506,-17956.707,896.3623,-22926.19,-5989.5835,4699.178
970891.5615319108,-23241.863,-17020.955,-21438.232,-17954.06,899.53613,-22924.887,-5987.1826,4702.3926
970891.5655319082,-23240.764,-17021.973,-21438.232,-17952.963,902.54724,-22922.568,-5985.2705,4703.125
970891.5695319057,-23240.275,-17022.746,-21437.664,-17953.98,902.5879,-22921.713,-5981.9336,4707.723
970891.5735319031,-23240.723,-17022.176,-21436.402,-17954.469,901.4079,-22920.777,-5979.248,4706.543
970891.5775319005,-23241.008,-17020.549,-21436.117,-17955.648,897.4203,-22920.166,-5978.3936,4705.2817
970891.5815318979,-23242.88,-17019.166,-21437.867,-17955.893,897.3796,-22919.434,-5978.231,4707.2754
970891.5855318953,-23245.973,-17022.502,-21439.088,-17957.398,895.1416,-22920.004,-5982.3813,4706.7466
970891.5895318927,-23244.955,-17024.21,-21439.738,-17957.846,892.49677,-22920.574,-5985.2705,4702.474
970891.5935318902,-23241.13,-17020.143,-21440.39,-17954.834,893.5954,-22921.428,-5988.8105,4699.7886
970891.5975318876,-23238.201,-17016.56,-21436.809,-17950.521,896.32166,-22919.76,-5989.0547,4700.6836
970891.601531885,-23237.59,-17012.695,-21432.049,-17949.057,898.88513,-22919.068,-5986.6133,4705.0376
970891.6055318824,-23237.184,-17011.312,-21430.908,-17948.61,902.181,-22918.377,-5983.114,4712.4434
970891.6095318798,-23236.572,-17012.451,-21431.56,-17948.975,902.70996,-22918.498,-5981.893,4716.0645
970891.6135318772,-23239.91,-17014.812,-21434.002,-17951.213,899.6989,-22920.451,-5985.3516,4703.247
970891.6175318747,-23239.502,-17017.09,-21432.781,-17952.678,897.9492,-22921.387,-5985.5957,4702.922
970891.6215318721,-23238.893,-17019.898,-21432.943,-17951.701,897.86786,-22920.98,-5983.4395,4704.061
970891.6255318695,-23238.975,-17021.443,-21432.049,-17951.295,897.2982,-22921.225,-5978.6377,4705.8516
970891.6295318669,-23237.387,-17021.037,-21432.537,-17952.312,898.5189,-22920.29,-5976.1963,4708.374
970891.6335318643,-23236.248,-17019.613,-21430.502,-17951.701,901.001,-22920.654,-5975.179,4711.6294
970891.6375318618,-23232.463,-17014.607,-21427.654,-17949.91,902.9541,-22919.271,-5972.453,4712.4434
970891.6415318592,-23228.436,-17009.889,-21427.979,-17949.871,905.8838,-22917.562,-5969.4824,4719.8486
970891.6455318566,-23229.533,-17010.783,-21428.793,-17950.074,904.541,-22916.953,-5969.8896,4721.761
970891.649531854,-23230.145,-17012.777,-21429.404,-17950.398,902.0996,-22918.295,-5972.534,4716.838
970891.6535318514,-23228.477,-17011.922,-21429.525,-17948.486,902.54724,-22917.645,-5974.365,4713.7046
970891.6575318488,-23226.197,-17010.254,-21431.275,-17948.08,899.53613,-22915.812,-5971.924,4723.1855
970891.6615318463,-23223.309,-17005.574,-21431.113,-17948.527,899.7396,-22914.104,-5968.872,4727.8647
970891.6655318437,-23222.9,-17003.012,-21431.52,-17946.736,903.6865,-22912.639,-5968.0176,4730.6724
970891.6695318411,-23222.168,-17001.059,-21430.705,-17946.697,906.779,-22912.191,-5964.2744,4733.8057
970891.6735318385,-23219.85,-16999.268,-21431.072,-17947.633,907.1859,-22911.826,-5962.8906,4733.9277
970891.6775318359,-23218.791,-16998.291,-21431.072,-17946.697,907.5114,-22910.809,-5960.49,4735.6772
970891.6815318333,-23221.844,-17001.994,-21429.322,-17947.957,905.3955,-22912.03,-5960.9785,4738.5254
970891.6855318308,-23225.668,-17005.291,-21432.334,-17948.162,904.8666,-22912.762,-5962.6875,4733.9277
970891.6895318282,-23226.318,-17005.25,-21433.758,-17948.04,905.1107,-22913.291,-5964.3965,4730.184
970891.6935318256,-23225.465,-17003.297,-21435.426,-17947.145,903.6865,-22912.518,-5963.176,4729.696
970891.697531823,-23223.553,-17002.645,-21432.861,-17945.924,903.6865,-22911.826,-5959.31,4737.0605
970891.7015318203,-23222.982,-17003.094,-21427.166,-17945.354,907.02313,-22911.621,-5958.415,4741.618
970891.7055318177,-23224.121,-17004.07,-21428.467,-17946.209,906.7383,-22912.559,-5961.426,4738.485
970891.7095318153,-23227.988,-17007.0,-21430.625,-17949.3,904.05273,-22913.168,-5964.3965,4731.8115
970891.7135318127,-23232.178,-17010.621,-21434.123,-17951.701,899.1699,-22914.512,-5967.5703,4728.5156
970891.71753181,-23232.463,-17012.615,-21433.432,-17951.54,897.46094,-22916.465,-5970.622,4723.0635
970891.7215318074,-23230.592,-17011.068,-21428.793,-17950.44,898.6003,-22916.586,-5970.9473,4721.1914
970891.7255318048,-23231.771,-17012.248,-21433.39,-17949.992,899.3734,-22917.074,-5969.442,4724.813
970891.7295318022,-23232.098,-17012.004,-21437.95,-17950.074,897.9899,-22918.457,-5967.8955,4726.9287
970891.7335317997,-23229.412,-17009.725,-21437.541,-17947.307,899.4955,-22917.889,-5965.4136,4724.8535
970891.7375317971,-23228.598,-17010.783,-21433.717,-17948.08,899.292,-22917.93,-5961.141,4728.801
970891.7415317945,-23230.104,-17011.598,-21440.064,-17952.434,898.9665,-22916.748,-5958.0894,4735.311
970891.7455317919,-23235.148,-17012.371,-21445.273,-17956.137,897.2168,-22917.48,-5958.496,4735.718
970891.7495317893,-23235.068,-17012.94,-21447.227,-17956.38,895.58923,-22918.986,-5960.7344,4731.2827
970891.7535317868,-23235.434,-17014.242,-21444.662,-17955.078,894.4092,-22918.295,-5960.8154,4738.607
970891.7575317842,-23235.963,-17013.713,-21442.22,-17955.525,894.1244,-22919.15,-5960.6123,4741.13
970891.7615317816,-23234.092,-17010.457,-21442.953,-17955.078,894.9789,-22919.354,-5961.3447,4740.804
970891.765531779,-23231.201,-17009.156,-21443.564,-17953.94,895.95544,-22916.668,-5961.3853,4738.5254
970891.7695317764,-23228.516,-17007.121,-21444.662,-17952.312,896.8506,-22914.512,-5960.2866,4740.4785
970891.7735317738,-23230.674,-17009.48,-21447.795,-17952.719,895.95544,-22915.488,-5961.7515,4739.868
970891.7775317713,-23230.389,-17009.969,-21443.848,-17951.824,896.0368,-22915.162,-5960.9375,4743.1235
970891.7815317687,-23231.08,-17008.992,-21444.5,-17952.148,896.7692,-22914.023,-5959.6763,4744.5884
970891.7855317661,-23229.412,-17007.08,-21446.371,-17952.719,897.2575,-22913.291,-5959.9204,4742.4727
970891.7895317635,-23228.027,-17006.877,-21443.768,-17953.125,897.13544,-22914.47,-5960.897,4740.0312
970891.7935317609,-23228.639,-17007.04,-21442.018,-17952.963,894.8161,-22915.732,-5963.908,4731.9746
970891.7975317583,-23225.994,-17003.541,-21438.152,-17949.871,895.8334,-22915.0,-5961.589,4733.114
970891.8015317558,-23224.977,-17003.621,-21435.508,-17949.545,897.6644,-22912.803,-5958.3335,4740.316
970891.8055317532,-23223.918,-17005.697,-21438.72,-17950.928,894.4092,-22914.47,-5961.3447,4738.607
970891.8095317506,-23223.553,-17002.93,-21441.732,-17950.887,897.0541,-22916.912,-5964.1113,4732.951
970891.813531748,-23223.186,-16998.78,-21442.871,-17949.83,900.47205,-22916.545,-5962.8096,4732.585
970891.8175317454,-23225.791,-16999.432,-21444.703,-17948.812,901.8148,-22916.709,-5957.4385,4739.7056
970891.8215317428,-23229.818,-17005.982,-21446.29,-17950.48,899.3327,-22917.318,-5956.95,4742.4727
970891.8255317403,-23229.86,-17008.139,-21446.982,-17953.37,895.91473,-22917.48,-5953.491,4750.8955
970891.8295317377,-23229.736,-17008.79,-21446.574,-17954.021,897.13544,-22917.441,-5953.491,4757.0396
970891.8335317351,-23229.86,-17010.457,-21445.312,-17953.572,896.5658,-22918.742,-5959.3506,4750.8955
970891.8375317325,-23228.965,-17008.748,-21443.156,-17951.824,897.7051,-22918.945,-5961.792,4751.628
970891.8415317299,-23230.957,-17010.336,-21442.627,-17952.637,897.13544,-22916.83,-5959.5947,4756.958
970891.8455317274,-23228.15,-17008.3,-21442.627,-17952.027,898.0713,-22913.982,-5956.3804,4756.836
970891.8495317248,-23227.295,-17006.307,-21441.977,-17952.475,899.57684,-22912.273,-5954.061,4756.4697
970891.8535317222,-23227.012,-17004.598,-21442.139,-17952.027,899.61755,-22911.662,-5955.5664,4752.523
970891.8575317196,-23225.994,-17004.436,-21441.285,-17950.766,902.6286,-22912.314,-5955.8516,4749.3086
970891.861531717,-23225.303,-17006.186,-21441.203,-17950.684,902.83203,-22910.482,-5952.8,4750.041
970891.8655317144,-23227.133,-17008.098,-21442.832,-17952.637,899.61755,-22911.094,-5954.631,4748.9014
970891.8695317119,-23228.11,-17007.527,-21441.611,-17953.29,899.21063,-22912.395,-5957.479,4744.507
970891.8735317093,-23229.412,-17008.504,-21443.441,-17954.346,900.1465,-22912.03,-5955.77,4751.953
970891.8775317067,-23232.586,-17012.207,-21443.727,-17955.078,896.7285,-22913.78,-5953.4507,4758.8706
970891.8815317041,-23233.887,-17013.957,-21443.889,-17953.777,899.6582,-22912.477,-5950.277,4765.7065
970891.8855317015,-23237.875,-17018.107,-21442.506,-17955.12,897.7865,-22911.703,-5949.056,4765.2183
970891.8895316989,-23235.027,-17016.521,-21441.285,-17956.178,895.3451,-22912.07,-5950.4805,4757.406
970891.8935316964,-23231.242,-17014.04,-21445.03,-17956.178,894.04297,-22911.621,-5952.8,4749.3086
970891.8975316938,-23231.162,-17011.19,-21444.377,-17955.16,894.4906,-22912.11,-5952.6367,4748.861
970891.9015316912,-23229.412,-17011.271,-21441.244,-17955.404,895.91473,-22912.232,-5952.5146,4749.7153
970891.9055316886,-23230.186,-17013.916,-21439.17,-17955.81,896.5658,-22912.924,-5954.753,4748.7793
970891.909531686,-23232.871,-17014.324,-21441.447,-17955.201,898.4375,-22912.762,-5955.1597,4750.4883
970891.9135316834,-23236.533,-17016.357,-21446.574,-17955.893,893.71747,-22913.78,-5955.648,4746.623
970891.9175316809,-23238.16,-17020.752,-21446.25,-17956.91,890.7471,-22916.057,-5956.299,4744.2627
970891.9215316783,-23239.502,-17019.451,-21445.557,-17957.316,893.1071,-22915.854,-5955.7295,4747.2334
970891.9255316757,-23240.195,-17020.143,-21447.43,-17958.455,892.45605,-22914.47,-5956.462,4752.401
970891.9295316731,-23239.87,-17018.27,-21448.854,-17958.578,894.8161,-22914.592,-5956.787,4752.3193
970891.9335316705,-23236.857,-17016.887,-21444.785,-17958.049,893.9616,-22914.062,-5960.327,4745.3613
970891.937531668,-23238.486,-17018.799,-21445.72,-17958.822,894.69403,-22915.162,-5963.9893,4735.067
970891.9415316654,-23240.52,-17020.549,-21445.15,-17959.758,893.5547,-22915.324,-5963.5825,4737.1016
970891.9455316628,-23240.234,-17021.12,-21441.326,-17959.393,893.9209,-22916.016,-5966.2275,4740.316
970891.9495316602,-23242.799,-17025.92,-21443.238,-17962.525,892.29333,-22917.807,-5968.3433,4738.7695
970891.9535316576,-23240.52,-17027.752,-21445.924,-17963.623,886.39325,-22920.166,-5972.412,4728.9634
970891.957531655,-23239.625,-17026.734,-21442.994,-17962.322,884.0332,-22920.207,-5971.639,4732.0967
970891.9615316525,-23240.195,-17023.926,-21441.611,-17959.676,886.1084,-22919.639,-5966.3496,4744.4663
970891.9655316499,-23238.201,-17021.16,-21439.738,-17958.334,887.98016,-22918.783,-5963.501,4744.3037
970891.9695316473,-23239.38,-17022.217,-21441.082,-17959.473,886.39325,-22917.725,-5962.6875,4742.513
970891.9735316447,-23238.893,-17021.322,-21441.0,-17958.7,888.50916,-22918.54,-5965.698,4738.2407
970891.9775316421,-23241.375,-17023.479,-21437.176,-17956.543,889.9333,-22919.883,-5967.285,4741.8623
970891.9815316395,-23237.59,-17022.137,-21438.762,-17954.957,888.79395,-22919.068,-5965.78,4750.041
970891.985531637,-23237.266,-17023.52,-21442.953,-17957.398,888.79395,-22920.086,-5966.675,4749.634
970891.9895316344,-23243.775,-17026.938,-21447.795,-17960.693,888.1836,-22922.04,-5970.7847,4743.9375
970891.9935316318,-23247.111,-17027.426,-21448.975,-17961.793,886.1898,-22923.057,-5970.744,4746.6636
970891.9975316292,-23242.96,-17024.861,-21448.447,-17960.857,887.0036,-22923.545,-5970.9067,4746.0938
970892.0015316266,-23239.219,-17020.955,-21445.639,-17959.637,887.4919,-22922.04,-5970.134,4745.4023
970892.005531624,-23239.828,-17024.7,-21442.953,-17960.084,884.2367,-22919.883,-5968.3027,4751.506
970892.0095316215,-23238.566,-17022.42,-21446.615,-17960.246,884.1553,-22921.428,-5967.977,4750.4883
970892.0135316189,-23236.125,-17018.678,-21443.686,-17958.62,884.9284,-22923.422,-5968.791,4748.21
970892.0175316163,-23235.148,-17019.49,-21441.977,-17959.432,886.556,-22925.049,-5968.791,4753.4995
970892.0215316137,-23234.092,-17021.322,-21439.982,-17960.043,888.83466,-22924.154,-5966.6343,4759.033
970892.025531611,-23234.295,-17025.35,-21438.965,-17961.873,884.1553,-22923.545,-5967.6514,4755.371
970892.0295316085,-23232.178,-17022.87,-21440.959,-17963.42,881.7953,-22924.521,-5968.1807,4749.878
970892.033531606,-23231.406,-17023.764,-21439.861,-17964.764,882.487,-22924.969,-5967.041,4746.46
970892.0375316034,-23232.992,-17027.385,-21438.152,-17965.332,884.9691,-22923.828,-5963.908,4753.784
970892.0415316008,-23230.998,-17024.455,-21433.635,-17963.826,886.02704,-22923.584,-5964.315,4754.1914
970892.0455315982,-23229.574,-17019.695,-21437.42,-17963.95,889.4043,-22924.154,-5962.7686,4756.958
970892.0495315955,-23229.818,-17018.025,-21437.826,-17963.217,891.5609,-22925.986,-5963.2163,4754.3945
970892.0535315931,-23229.412,-17016.725,-21435.182,-17963.014,893.88025,-22927.816,-5963.0127,4752.5635
970892.0575315905,-23223.877,-17014.852,-21435.02,-17962.037,894.73474,-22927.531,-5961.3037,4752.2383
970892.0615315879,-23223.553,-17013.713,-21434.164,-17961.305,896.7285,-22926.758,-5958.618,4756.9175
970892.0655315852,-23226.074,-17015.096,-21432.7,-17963.338,899.61755,-22926.19,-5954.6714,4762.0444
970892.0695315826,-23225.994,-17014.852,-21430.746,-17962.729,901.0417,-22924.684,-5952.2705,4763.021
970892.07353158,-23222.006,-17009.441,-21428.387,-17959.393,904.50037,-22923.422,-5953.41,4753.8657
970892.0775315776,-23218.791,-17004.883,-21426.88,-17956.91,904.78516,-22923.79,-5954.5493,4746.867
970892.081531575,-23216.838,-17004.232,-21424.154,-17955.934,907.5114,-22923.137,-5952.5146,4753.2554
970892.0855315723,-23214.072,-17002.4,-21418.824,-17954.143,916.0156,-22922.404,-5951.701,4756.1035
970892.0895315697,-23214.682,-16999.512,-21419.271,-17952.352,917.5212,-22925.375,-5956.299,4755.493
970892.0935315671,-23213.623,-16996.582,-21423.016,-17950.074,916.78876,-22929.16,-5962.4023,4747.8843
970892.0975315645,-23218.14,-17000.855,-21427.166,-17951.498,915.3646,-22931.885,-5965.617,4745.321
970892.101531562,-23222.861,-17006.877,-21427.572,-17953.777,913.6149,-22931.764,-5965.9424,4747.4775
970892.1055315594,-23225.586,-17009.562,-21429.078,-17956.746,913.0046,-22930.99,-5963.9487,4754.72
970892.1095315568,-23225.139,-17008.424,-21429.16,-17958.172,912.4756,-22933.105,-5965.373,4754.7607
970892.1135315542,-23222.129,-17005.9,-21428.06,-17958.049,910.72595,-22935.02,-5969.3604,4744.344
970892.1175315516,-23222.453,-17006.55,-21427.572,-17957.479,910.6039,-22933.432,-5966.5527,4746.46
970892.121531549,-23224.65,-17009.074,-21427.451,-17958.293,911.01074,-22930.99,-5962.606,4750.122
970892.1255315465,-23231.771,-17013.143,-21432.984,-17958.822,909.66797,-22931.56,-5964.681,4749.5933
970892.1295315439,-23236.045,-17014.08,-21436.768,-17959.514,910.4411,-22932.293,-5967.448,4753.662
970892.1335315413,-23238.201,-17015.34,-21438.844,-17960.49,908.7728,-22935.955,-5972.6973,4745.036
970892.1375315387,-23236.98,-17016.236,-21440.227,-17960.125,904.50037,-22937.053,-5977.8647,4735.2295
970892.1415315361,-23234.295,-17018.148,-21442.547,-17961.508,901.7334,-22937.744,-5979.5737,4739.7056
970892.1455315336,-23234.295,-17018.963,-21441.367,-17962.89,900.9196,-22936.973,-5975.505,4747.1113
970892.149531531,-23232.748,-17015.422,-21439.535,-17962.646,901.6113,-22934.164,-5971.761,4753.1333
970892.1535315284,-23227.05,-17007.936,-21438.193,-17961.182,905.8024,-22933.146,-5968.669,4755.493
970892.1575315258,-23224.773,-17003.826,-21434.287,-17960.979,907.8369,-22931.56,-5963.745,4759.359
970892.1615315232,-23229.29,-17008.22,-21432.984,-17964.479,905.5583,-22930.42,-5962.6875,4764.4043
970892.1655315206,-23229.29,-17009.725,-21427.979,-17965.252,905.9245,-22930.502,-5963.094,4765.3403
970892.1695315181,-23229.656,-17010.824,-21426.637,-17965.78,908.6914,-22932.334,-5965.0474,4762.492
970892.1735315155,-23229.045,-17008.79,-21427.328,-17963.135,909.5459,-22934.082,-5964.7627,4761.9224
970892.1775315129,-23226.97,-17010.742,-21423.096,-17963.176,909.2611,-22932.943,-5960.6123,4770.427
970892.1815315103,-23224.326,-17010.213,-21420.654,-17962.078,908.56934,-22932.008,-5956.828,4772.99
970892.1855315077,-23222.25,-17008.342,-21420.86,-17960.043,908.3659,-22933.555,-5956.909,4767.741
970892.1895315051,-23219.85,-17002.117,-21419.76,-17957.723,911.58044,-22931.56,-5953.8574,4771.3623
970892.1935315026,-23216.432,-16998.455,-21419.434,-17956.299,910.15625,-22932.578,-5953.247,4777.588
970892.1975315,-23214.234,-16997.723,-21416.953,-17956.178,908.3659,-22933.066,-5955.9326,4770.63
970892.2015314974,-23213.42,-16996.135,-21418.213,-17956.014,909.5866,-22932.373,-5958.374,4765.1777
970892.2055314948,-23214.111,-16997.03,-21418.986,-17956.625,911.6618,-22933.39,-5961.0596,4756.714
970892.2095314922,-23218.262,-16999.594,-21422.201,-17958.537,911.499,-22935.832,-5965.902,4753.784
970892.2135314896,-23220.215,-17000.53,-21426.555,-17956.787,910.64453,-22938.682,-5970.215,4745.8496
970892.2175314871,-23219.158,-17000.691,-21427.043,-17956.055,908.8542,-22937.297,-5968.4653,4746.867
970892.2215314845,-23218.832,-16999.146,-21425.457,-17955.81,912.5163,-22933.92,-5964.1113,4756.063
970892.2255314819,-23220.623,-16997.926,-21427.246,-17955.648,916.5039,-22932.373,-5961.1816,4759.1553
970892.2295314793,-23220.379,-16997.518,-21426.596,-17954.549,917.60254,-22932.781,-5960.531,4757.08
970892.2335314767,-23217.896,-16996.297,-21424.887,-17952.84,918.00946,-22932.7,-5962.5654,4754.1914
970892.2375314742,-23220.256,-16997.111,-21424.316,-17952.516,918.0502,-22931.602,-5959.554,4753.296
970892.2415314716,-23223.918,-17001.588,-21423.625,-17955.648,915.7715,-22930.99,-5959.1064,4751.628
970892.245531469,-23230.225,-17008.545,-21427.857,-17959.84,910.9701,-22930.787,-5960.7344,4753.784
970892.2495314664,-23232.26,-17011.354,-21431.846,-17961.467,911.1328,-22932.17,-5962.158,4752.8076
970892.2535314638,-23230.062,-17010.092,-21428.996,-17960.45,910.9701,-22934.205,-5965.454,4747.4365
970892.2575314612,-23227.744,-17007.04,-21427.451,-17957.928,913.7777,-22934.082,-5963.7046,4752.8076
970892.2615314587,-23227.58,-17006.795,-21425.13,-17958.008,911.90594,-22934.367,-5962.85,4759.1147
970892.2655314561,-23225.668,-17006.877,-21424.113,-17957.764,912.23145,-22933.92,-5961.8735,4759.481
970892.2695314535,-23225.018,-17008.22,-21422.04,-17959.066,911.05145,-22931.885,-5960.124,4761.3936
970892.2735314509,-23227.295,-17010.254,-21424.44,-17959.596,906.20935,-22931.193,-5959.839,4755.8594
970892.2775314483,-23228.11,-17012.898,-21425.254,-17959.799,897.54236,-22932.781,-5964.4775,4739.7056
970892.2815314457,-23230.957,-17015.26,-21425.986,-17961.508,896.80994,-22934.775,-5969.1978,4739.624
970892.2855314432,-23235.148,-17018.475,-21428.996,-17962.81,897.2168,-22936.646,-5972.412,4744.1816
970892.2895314406,-23237.266,-17019.37,-21428.264,-17963.014,897.3796,-22937.094,-5973.47,4739.868
970892.293531438,-23235.23,-17017.781,-21428.264,-17962.525,894.04297,-22934.855,-5971.4355,4739.3394
970892.2975314354,-23232.098,-17016.521,-21427.613,-17962.729,894.53125,-22935.223,-5969.686,4742.3096
970892.3015314328,-23233.521,-17018.799,-21426.393,-17962.117,895.38574,-22934.326,-5964.437,4748.983
970892.3055314302,-23231.08,-17017.66,-21427.287,-17960.896,896.5658,-22934.082,-5961.67,4752.3604
970892.3095314277,-23229.33,-17014.12,-21426.434,-17958.578,901.8962,-22933.676,-5961.6294,4750.3257
970892.3135314251,-23224.57,-17011.883,-21422.404,-17956.014,905.1107,-22934.287,-5963.501,4748.576
970892.3175314225,-23224.854,-17009.36,-21422.283,-17956.014,904.3783,-22935.344,-5966.4307,4747.64
970892.3215314199,-23224.773,-17010.54,-21421.266,-17955.322,903.23895,-22936.523,-5970.4185,4747.6807
970892.3255314173,-23225.871,-17012.86,-21421.957,-17953.94,902.1403,-22938.152,-5972.331,4749.797
970892.3295314147,-23225.059,-17014.201,-21422.283,-17953.328,904.50037,-22937.826,-5974.6094,4743.8154
970892.3335314122,-23226.889,-17015.748,-21424.725,-17954.021,903.361,-22938.07,-5978.1494,4735.962
970892.3375314096,-23233.887,-17018.475,-21428.752,-17955.404,903.3203,-22940.838,-5981.242,4723.755
970892.341531407,-23235.027,-17019.94,-21428.06,-17954.428,906.57556,-22940.918,-5983.5615,4727.0103
970892.3455314044,-23233.643,-17014.73,-21429.607,-17954.754,907.75555,-22941.732,-5982.137,4732.1777
970892.3495314018,-23233.684,-17010.621,-21428.875,-17955.893,908.93555,-22942.871,-5982.544,4734.619
970892.3535313993,-23234.54,-17012.371,-21426.107,-17956.014,907.79626,-22945.11,-5984.3345,4731.9746
970892.3575313967,-23229.86,-17011.922,-21423.951,-17953.695,906.90106,-22945.72,-5982.8696,4728.6377
970892.3615313941,-23226.197,-17011.475,-21419.963,-17954.59,909.2204,-22944.785,-5978.353,4734.619
970892.3655313915,-23225.139,-17009.766,-21420.371,-17954.672,911.09216,-22942.547,-5975.5454,4741.374
970892.3695313889,-23225.791,-17010.174,-21421.387,-17953.125,913.2894,-22942.668,-5976.115,4733.5615
970892.3735313863,-23225.75,-17008.504,-21421.104,-17951.945,910.19696,-22944.418,-5979.9805,4724.935
970892.3775313838,-23226.441,-17005.656,-21419.19,-17951.295,907.1452,-22945.598,-5982.91,4722.046
970892.3815313812,-23227.783,-17006.633,-21421.916,-17951.945,911.2956,-22946.168,-5981.323,4737.1016
970892.3855313786,-23227.906,-17004.232,-21422.404,-17952.027,915.7715,-22945.8,-5982.788,4735.6772
970892.389531376,-23227.906,-17004.559,-21422.16,-17951.295,918.0502,-22946.168,-5982.666,4737.8745
970892.3935313734,-23225.059,-17002.523,-21419.23,-17948.568,920.97986,-22944.336,-5981.6084,4741.252
970892.3975313707,-23222.697,-17001.953,-21416.424,-17946.86,920.8171,-22944.053,-5982.5034,4737.386
970892.4015313683,-23221.72,-17002.605,-21417.36,-17947.389,919.6371,-22944.418,-5980.51,4740.4785
970892.4055313657,-23224.773,-17001.424,-21422.568,-17951.213,916.38184,-22943.768,-5977.6206,4750.814
970892.409531363,-23228.354,-17001.709,-21423.87,-17953.29,916.1784,-22943.604,-5977.458,4753.052
970892.4135313604,-23225.383,-17002.28,-21421.63,-17953.125,917.27704,-22943.076,-5978.0273,4743.6523
970892.4175313578,-23222.941,-16999.432,-21419.027,-17951.213,918.5791,-22941.65,-5975.2197,4747.2334
970892.4215313552,-23221.273,-16999.268,-21417.36,-17950.521,919.23016,-22939.941,-5972.331,4757.121
970892.4255313528,-23222.861,-17000.0,-21416.3,-17949.871,922.5668,-22936.24,-5967.855,4767.9443
970892.4295313501,-23227.783,-16999.188,-21417.645,-17950.318,920.08466,-22934.408,-5963.8267,4777.71
970892.4335313475,-23227.418,-17001.303,-21420.94,-17951.54,917.68396,-22935.832,-5965.8613,4773.763
970892.437531345,-23229.371,-17003.785,-21422.283,-17951.904,916.5446,-22938.6,-5969.9707,4770.0195
970892.4415313423,-23230.713,-17005.656,-21426.025,-17952.352,914.83563,-22941.285,-5973.877,4763.957
970892.4455313399,-23231.975,-17008.627,-21423.707,-17953.451,913.53357,-22940.023,-5974.162,4763.957
970892.4495313372,-23232.91,-17009.156,-21422.771,-17955.73,913.3708,-22938.885,-5975.4233,4761.8003
970892.4535313346,-23229.33,-17006.877,-21425.416,-17956.096,911.21423,-22938.07,-5973.755,4759.6846
970892.457531332,-23222.006,-17002.117,-21419.922,-17953.045,913.0046,-22935.467,-5969.32,4766.5205
970892.4615313294,-23217.734,-16998.006,-21412.762,-17951.904,915.52734,-22934.855,-5965.6577,4773.7227
970892.4655313268,-23218.344,-16996.95,-21411.5,-17954.387,915.16113,-22935.791,-5968.0176,4771.3623
970892.4695313243,-23218.873,-16995.443,-21416.709,-17955.975,914.87634,-22936.605,-5970.825,4771.6475
970892.4735313217,-23217.45,-16992.879,-21417.277,-17954.875,915.73083,-22937.053,-5969.6045,4774.089
970892.4775313191,-23213.664,-16990.438,-21413.86,-17951.62,916.6667,-22936.89,-5968.1807,4771.566
970892.4815313165,-23213.705,-16992.229,-21409.873,-17949.83,916.46326,-22937.297,-5965.8613,4776.571
970892.4855313139,-23213.096,-16992.676,-21410.076,-17949.26,915.6901,-22938.72,-5964.803,4776.245
970892.4895313113,-23212.402,-16990.438,-21411.785,-17950.766,914.9577,-22938.803,-5964.2744,4772.258
970892.4935313088,-23210.287,-16989.99,-21412.924,-17952.393,915.03906,-22936.24,-5959.3506,4781.4536
970892.4975313062,-23210.002,-16990.438,-21411.377,-17953.451,914.7543,-22934.855,-5956.299,4784.587
970892.5015313036,-23206.422,-16986.166,-21407.756,-17953.328,915.60876,-22933.676,-5956.543,4784.2207
970892.505531301,-23209.555,-16991.008,-21408.123,-17954.63,911.41766,-22934.45,-5958.618,4781.047
970892.5095312984,-23212.646,-16992.96,-21414.307,-17955.77,910.4411,-22935.832,-5961.1816,4776.001
970892.5135312958,-23209.393,-16988.363,-21415.936,-17957.031,910.35974,-22938.926,-5966.2275,4767.212
970892.5175312933,-23208.701,-16988.404,-21414.877,-17955.975,911.37695,-22937.623,-5966.024,4770.101
970892.5215312907,-23208.334,-16992.676,-21417.725,-17958.416,911.53973,-22937.867,-5967.733,4770.1416
970892.5255312881,-23209.393,-16993.45,-21421.143,-17960.857,911.499,-22939.129,-5969.2383,4771.24
970892.5295312855,-23200.562,-16982.707,-21415.895,-17956.828,913.7777,-22938.03,-5972.168,4765.3403
970892.5335312829,-23188.355,-16971.314,-21411.703,-17953.98,915.6901,-22939.414,-5976.9697,4755.0864
970892.5375312804,-23175.62,-16961.223,-21403.646,-17950.562,918.2129,-22939.088,-5976.115,4758.6265
970892.5415312778,-23168.701,-16955.893,-21397.705,-17947.713,921.1833,-22937.379,-5970.5,4768.4736
970892.5455312752,-23163.006,-16949.79,-21399.902,-17948.895,923.1771,-22937.42,-5971.3135,4772.461
970892.5495312726,-23159.18,-16944.174,-21400.31,-17950.033,921.7529,-22940.146,-5975.7896,4762.451
970892.55353127,-23158.691,-16943.807,-21404.95,-17949.504,921.5902,-22942.465,-5978.1494,4760.417
970892.5575312674,-23158.0,-16940.268,-21403.89,-17948.324,921.5088,-22942.75,-5978.8413,4767.1714
970892.5615312649,-23154.785,-16936.564,-21403.932,-17947.021,926.7578,-22942.22,-5979.7773,4763.7534
970892.5655312623,-23150.92,-16932.902,-21401.816,-17945.639,930.6234,-22941.082,-5977.214,4767.1714
970892.5695312597,-23152.182,-16930.096,-21400.025,-17944.58,934.81445,-22938.559,-5974.6094,4765.3403
970892.5735312571,-23146.729,-16927.37,-21398.275,-17943.523,932.94275,-22939.209,-5974.813,4760.4575
970892.5775312545,-23145.508,-16929.566,-21395.59,-17944.824,929.362,-22938.72,-5971.924,4761.76
970892.5815312519,-23147.828,-16935.791,-21395.59,-17947.266,928.4668,-22937.256,-5967.2446,4771.6475
970892.5855312494,-23151.531,-16939.78,-21393.352,-17948.61,928.9958,-22935.059,-5964.3965,4775.798
970892.5895312468,-23158.0,-16947.145,-21395.549,-17952.312,926.0661,-22934.611,-5963.867,4775.7163
970892.5935312442,-23161.906,-16951.05,-21398.398,-17954.102,926.7578,-22933.27,-5963.42,4774.699
970892.5975312416,-23157.512,-16947.795,-21397.787,-17951.904,928.05994,-22933.27,-5963.501,4772.2983
970892.601531239,-23158.367,-16949.26,-21397.787,-17951.416,927.89716,-22933.635,-5960.8564,4776.367
970892.6055312364,-23158.57,-16950.766,-21393.922,-17949.91,932.4951,-22933.146,-5961.467,4775.757
970892.6095312339,-23163.615,-16953.045,-21393.31,-17949.26,934.44824,-22932.984,-5964.5186,4770.0195
970892.6135312313,-23166.342,-16953.98,-21396.037,-17948.934,933.1869,-22931.396,-5963.094,4769.328
970892.6175312287,-23166.627,-16957.113,-21395.102,-17948.486,931.23376,-22931.031,-5960.775,4769.6533
970892.6215312261,-23167.766,-16958.781,-21392.66,-17947.674,930.2165,-22932.943,-5962.199,4762.777
970892.6255312235,-23171.469,-16962.688,-21390.098,-17947.469,928.182,-22934.693,-5963.4604,4763.4277
970892.629531221,-23173.992,-16964.764,-21390.666,-17947.918,928.71094,-22935.547,-5965.129,4765.259
970892.6335312184,-23171.55,-16961.793,-21389.445,-17945.924,931.6,-22935.344,-5965.902,4763.916
970892.6375312158,-23171.754,-16960.857,-21386.475,-17946.33,930.0944,-22936.85,-5965.617,4762.085
970892.6415312132,-23176.758,-16965.291,-21390.422,-17946.941,931.7627,-22937.5,-5962.4023,4769.8975
970892.6455312106,-23180.014,-16968.75,-21392.578,-17947.55,934.48895,-22938.232,-5960.8154,4776.3267
970892.649531208,-23184.57,-16968.426,-21395.549,-17951.254,936.1166,-22939.332,-5963.8267,4773.397
970892.6535312055,-23190.635,-16970.785,-21399.537,-17953.654,931.51855,-22941.406,-5965.6577,4771.6475
970892.6575312029,-23191.53,-16972.615,-21401.164,-17952.76,931.1117,-22940.309,-5964.0303,4766.8867
970892.6615312003,-23189.658,-16971.72,-21400.31,-17953.572,931.7627,-22938.559,-5959.4727,4770.1416
970892.6655311977,-23188.232,-16970.988,-21397.34,-17951.336,933.6752,-22936.443,-5954.061,4775.594
970892.6695311951,-23189.17,-16970.826,-21394.898,-17951.05,932.37305,-22933.025,-5949.3003,4787.2314
970892.6735311925,-23188.314,-16971.15,-21395.63,-17951.375,932.45447,-22932.373,-5950.399,4787.3535
970892.67753119,-23191.773,-16973.836,-21394.816,-17952.557,929.93164,-22932.617,-5952.1895,4785.726
970892.6815311874,-23195.03,-16979.33,-21397.666,-17955.445,926.5951,-22932.658,-5951.091,4788.778
970892.6855311848,-23201.783,-16986.207,-21400.84,-17958.62,921.79364,-22932.414,-5950.8057,4786.621
970892.6895311822,-23212.158,-16992.066,-21409.1,-17962.2,916.95154,-22933.92,-5950.8057,4786.662
970892.6935311796,-23215.984,-16995.2,-21417.4,-17962.688,916.3412,-22934.855,-5949.585,4781.8604
970892.697531177,-23215.332,-16994.67,-21416.586,-17959.514,917.3584,-22934.164,-5945.272,4784.261
970892.7015311745,-23213.867,-16992.352,-21413.209,-17957.764,920.166,-22931.967,-5939.087,4790.202
970892.7055311719,-23212.646,-16991.09,-21408.57,-17959.352,921.9157,-22929.973,-5933.7974,4801.595
970892.7095311693,-23208.904,-16989.87,-21404.785,-17957.805,925.1709,-22930.584,-5933.879,4799.52
970892.7135311667,-23206.543,-16988.77,-21405.518,-17956.625,925.08954,-22930.42,-5935.0996,4796.4683
970892.7175311641,-23204.713,-16987.264,-21404.297,-17954.59,924.5199,-22932.09,-5936.9307,4798.503
970892.7215311615,-23206.055,-16986.166,-21403.076,-17954.549,925.2116,-22935.223,-5938.9243,4800.537
970892.725531159,-23208.049,-16987.387,-21405.396,-17955.607,924.07227,-22938.518,-5944.7837,4800.2524
970892.7295311564,-23209.27,-16989.217,-21408.203,-17954.793,927.93787,-22937.988,-5945.5977,4802.0835
970892.7335311538,-23214.355,-16993.855,-21411.906,-17956.137,924.60126,-22938.682,-5947.917,4797.2007
970892.7375311512,-23216.146,-16995.729,-21411.215,-17959.107,923.1771,-22937.42,-5948.8525,4791.667
970892.7415311486,-23217.123,-16996.135,-21406.738,-17960.246,926.5544,-22934.043,-5943.6035,4797.3633
970892.7455311461,-23215.82,-16994.629,-21406.21,-17960.287,922.85156,-22932.293,-5941.325,4800.985
970892.7495311435,-23215.414,-16992.84,-21407.756,-17960.938,920.04395,-22931.885,-5940.8774,4802.124
970892.7535311409,-23216.676,-16995.484,-21406.332,-17961.102,918.00946,-22930.38,-5940.145,4800.456
970892.7575311383,-23213.867,-16994.793,-21404.582,-17960.246,920.08466,-22928.672,-5936.849,4799.927
970892.7615311356,-23210.531,-16992.555,-21403.688,-17959.676,923.6654,-22929.932,-5936.7676,4800.334
970892.765531133,-23210.572,-16988.893,-21403.158,-17959.107,924.3164,-22933.229,-5941.3657,4800.049
970892.7695311306,-23212.525,-16988.404,-21406.129,-17960.246,926.63574,-22935.264,-5946.086,4801.758
970892.773531128,-23209.922,-16985.963,-21406.332,-17958.66,928.42615,-22936.361,-5947.0215,4797.8926
970892.7775311253,-23204.957,-16981.365,-21400.92,-17954.957,928.6703,-22935.752,-5945.272,4802.002
970892.7815311227,-23204.021,-16980.184,-21398.234,-17954.305,930.542,-22933.758,-5943.685,4807.658
970892.7855311201,-23204.713,-16981.648,-21395.713,-17954.754,931.7627,-22931.479,-5943.7256,4803.63
970892.7895311175,-23206.137,-16983.074,-21396.648,-17955.525,929.362,-22930.096,-5941.203,4806.885
970892.793531115,-23206.91,-16980.145,-21398.193,-17954.998,930.29785,-22930.87,-5940.1045,4801.7173
970892.7975311124,-23206.543,-16981.242,-21399.293,-17955.404,930.0537,-22930.543,-5940.6333,4799.7236
970892.8015311098,-23203.613,-16982.992,-21397.46,-17956.99,928.79236,-22928.549,-5934.367,4809.1636
970892.8055311072,-23201.742,-16982.342,-21393.352,-17957.928,929.5654,-22927.775,-5929.3213,4814.616
970892.8095311046,-23198.691,-16978.842,-21393.19,-17956.502,930.6234,-22929.566,-5930.6235,4810.5063
970892.813531102,-23194.744,-16974.041,-21392.822,-17954.469,933.79724,-22930.95,-5931.0713,4809.8145
970892.8175310995,-23191.814,-16974.203,-21389.934,-17953.328,935.0993,-22932.21,-5932.8613,4807.048
970892.8215310969,-23190.39,-16974.244,-21388.592,-17951.498,936.97107,-22931.56,-5932.6987,4810.5063
970892.8255310943,-23192.303,-16974.854,-21389.934,-17951.904,938.47656,-22931.438,-5935.6284,4808.757
970892.8295310917,-23196.412,-16978.027,-21388.225,-17953.816,936.32,-22930.87,-5939.209,4803.3857
970892.8335310891,-23198.771,-16978.719,-21390.748,-17953.857,935.87244,-22930.99,-5941.04,4799.8047
970892.8375310866,-23203.777,-16981.73,-21392.863,-17954.346,933.0241,-22932.334,-5941.8135,4798.34
970892.841531084,-23205.16,-16988.893,-21393.516,-17955.566,928.6296,-22932.008,-5941.488,4800.7812
970892.8455310814,-23206.91,-16990.52,-21394.654,-17955.852,925.3337,-22933.025,-5943.563,4798.503
970892.8495310788,-23207.56,-16988.729,-21397.258,-17956.666,925.0488,-22933.229,-5944.9873,4797.282
970892.8535310762,-23207.48,-16989.178,-21397.543,-17956.584,925.08954,-22934.002,-5945.801,4798.1367
970892.8575310736,-23203.857,-16986.94,-21394.898,-17954.143,929.7282,-22933.432,-5944.9463,4798.0957
970892.8615310711,-23201.621,-16983.766,-21393.107,-17951.416,933.79724,-22932.373,-5942.871,4795.736
970892.8655310685,-23202.354,-16983.44,-21395.264,-17950.928,934.7331,-22931.396,-5942.8306,4798.381
970892.8695310659,-23205.12,-16985.027,-21396.24,-17952.922,932.3324,-22932.414,-5947.673,4797.933
970892.8735310633,-23204.834,-16986.004,-21396.363,-17955.078,928.71094,-22933.635,-5952.5557,4792.033
970892.8775310607,-23203.166,-16986.125,-21395.996,-17956.178,925.8627,-22933.676,-5953.817,4792.2363
970892.8815310581,-23201.172,-16985.88,-21392.05,-17956.219,928.9551,-22933.105,-5953.8984,4791.1787
970892.8855310556,-23199.627,-16982.83,-21388.713,-17955.445,931.3151,-22931.113,-5951.213,4803.2227
970892.889531053,-23196.453,-16980.51,-21388.469,-17954.428,933.0648,-22928.71,-5948.3643,4808.757
970892.8935310504,-23196.697,-16979.045,-21388.184,-17953.41,933.3903,-22929.078,-5946.6963,4808.5938
970892.8975310478,-23196.656,-16979.533,-21388.795,-17953.125,932.9834,-22930.055,-5944.6616,4809.9775
970892.9015310452,-23197.55,-16982.91,-21387.86,-17953.654,934.9365,-22929.322,-5941.61,4815.4297
970892.9055310426,-23204.021,-16986.248,-21393.107,-17957.195,932.73926,-22930.34,-5942.871,4812.8257
970892.9095310401,-23209.27,-16989.299,-21396.934,-17959.555,930.4199,-22933.514,-5948.3237,4806.4375
970892.9135310375,-23211.914,-16990.234,-21398.52,-17959.473,929.60614,-22935.508,-5950.155,4798.625
970892.9175310349,-23211.182,-16988.201,-21398.602,-17958.62,928.9144,-22934.531,-5947.917,4797.3228
970892.9215310323,-23209.066,-16990.113,-21396.12,-17957.031,930.7048,-22933.229,-5944.377,4804.891
970892.9255310297,-23211.305,-16992.27,-21397.014,-17958.74,928.182,-22934.082,-5945.7197,4799.5605
970892.9295310272,-23211.955,-16990.52,-21399.496,-17960.45,929.07715,-22934.652,-5946.4927,4797.119
970892.9335310246,-23208.863,-16986.98,-21398.479,-17959.025,929.0365,-22934.123,-5945.2314,4798.9097
970892.937531022,-23205.12,-16983.725,-21397.87,-17958.008,929.7689,-22932.902,-5941.488,4804.4434
970892.9415310194,-23203.492,-16981.201,-21397.705,-17957.764,930.66406,-22932.7,-5940.511,4804.3213
970892.9455310168,-23204.55,-16980.55,-21396.69,-17958.455,930.4199,-22934.123,-5942.9526,4802.368
970892.9495310142,-23202.963,-16976.97,-21395.102,-17956.258,934.4076,-22936.28,-5945.801,4800.7
970892.9535310117,-23200.807,-16974.936,-21394.736,-17954.875,937.9069,-22938.926,-5951.1313,4794.393
970892.9575310091,-23201.457,-16976.36,-21393.516,-17955.281,938.8021,-22938.232,-5949.748,4798.34
970892.9615310065,-23201.58,-16977.418,-21390.951,-17954.916,934.5703,-22937.826,-5945.5977,4803.711
970892.9655310039,-23202.76,-16980.062,-21388.795,-17954.63,932.9834,-22935.955,-5942.546,4811.157
970892.9695310013,-23202.271,-16981.73,-21391.033,-17956.096,933.10547,-22934.938,-5941.3657,4810.018
970892.9735309987,-23199.83,-16980.062,-21391.562,-17955.486,933.75653,-22933.188,-5942.9526,4803.508
970892.9775309962,-23198.61,-16979.29,-21391.236,-17954.59,933.95996,-22934.123,-5942.3423,4799.5605
970892.9815309936,-23196.33,-16977.906,-21390.057,-17955.445,934.3262,-22933.594,-5938.558,4805.0537
970892.985530991,-23196.25,-16978.068,-21387.248,-17956.096,935.14,-22931.113,-5936.361,4809.123
970892.9895309884,-23197.021,-16977.621,-21388.184,-17956.666,936.4828,-22930.664,-5936.849,4803.63
970892.9935309858,-23199.951,-16977.54,-21388.713,-17957.316,933.0241,-22930.787,-5935.2217,4803.06
970892.9975309832,-23202.88,-16979.33,-21386.883,-17957.398,930.66406,-22930.664,-5932.251,4813.7617
970893.0015309807,-23202.11,-16982.219,-21387.777,-17958.334,928.4668,-22930.38,-5929.7285,4824.504
970893.0055309781,-23204.63,-16985.027,-21391.154,-17959.27,924.92676,-22932.008,-5930.2573,4826.579
970893.0095309755,-23208.334,-16985.107,-21394.287,-17958.7,928.5075,-22934.287,-5934.245,4826.213
970893.0135309729,-23211.182,-16982.178,-21394.857,-17957.44,929.28064,-22934.938,-5937.378,4822.8354
970893.0175309703,-23205.648,-16980.021,-21397.055,-17956.422,931.0303,-22933.838,-5937.2153,4820.1094
970893.0215309677,-23200.033,-16977.254,-21394.736,-17955.525,931.72205,-22934.531,-5938.436,4819.9873
970893.0255309652,-23200.4,-16977.377,-21395.428,-17955.525,933.59375,-22934.367,-5936.727,4823.242
970893.0295309626,-23203.248,-16978.639,-21398.234,-17956.014,935.9945,-22933.635,-5937.175,4817.749
970893.03353096,-23204.63,-16978.842,-21397.258,-17955.81,934.48895,-22935.14,-5940.837,4809.6113
970893.0375309574,-23202.963,-16978.312,-21395.02,-17956.502,932.5358,-22934.775,-5943.8477,4807.7393
970893.0415309548,-23201.336,-16979.695,-21391.969,-17957.195,932.73926,-22933.838,-5946.289,4808.5127
970893.0455309523,-23203.166,-16981.283,-21390.91,-17959.96,928.4668,-22932.781,-5945.1094,4813.68
970893.0495309497,-23202.148,-16979.736,-21391.643,-17959.84,927.6937,-22933.229,-5945.0684,4813.843
970893.0535309471,-23202.842,-16978.15,-21392.457,-17959.025,928.6296,-22934.246,-5947.9575,4806.0303
970893.0575309445,-23205.445,-16978.11,-21390.342,-17959.555,925.2523,-22934.855,-5949.5444,4804.4434
970893.0615309419,-23199.83,-16975.83,-21386.027,-17958.537,926.473,-22934.734,-5946.6963,4810.7505
970893.0655309393,-23199.139,-16976.318,-21388.184,-17957.52,927.7751,-22934.531,-5943.2373,4806.3965
970893.0695309368,-23200.928,-16979.33,-21392.701,-17957.723,927.0834,-22932.334,-5940.389,4810.7505
970893.0735309342,-23197.877,-16979.656,-21391.562,-17958.09,923.9909,-22932.008,-5938.7617,4813.1514
970893.0775309316,-23197.307,-16978.312,-21393.719,-17958.252,924.56055,-22932.09,-5939.494,4819.336
970893.081530929,-23201.01,-16978.395,-21395.102,-17958.252,925.82196,-22934.57,-5940.9995,4819.0513
970893.0855309264,-23202.19,-16976.807,-21392.66,-17958.455,928.9144,-22935.832,-5944.2954,4811.727
970893.0895309238,-23202.8,-16975.506,-21392.254,-17957.723,932.8207,-22934.814,-5942.424,4817.383
970893.0935309213,-23206.016,-16976.156,-21394.287,-17959.27,931.6,-22936.28,-5939.616,4820.516
970893.0975309187,-23203.41,-16973.836,-21390.178,-17958.172,933.1462,-22935.02,-5936.5645,4820.5977
970893.101530916,-23198.73,-16970.5,-21386.598,-17957.928,935.4248,-22933.635,-5934.123,4827.4336
970893.1055309135,-23195.273,-16966.188,-21384.93,-17956.34,935.9945,-22931.682,-5932.414,4830.5664
970893.1095309108,-23197.145,-16967.611,-21386.271,-17957.113,931.8441,-22932.902,-5934.6924,4827.5146
970893.1135309082,-23201.945,-16970.988,-21389.121,-17958.578,927.36816,-22934.123,-5936.361,4822.225
970893.1175309058,-23204.102,-16977.092,-21391.643,-17958.863,924.19434,-22932.861,-5934.326,4817.4644
970893.1215309032,-23209.434,-16979.574,-21392.375,-17959.31,924.23505,-22932.373,-5932.0884,4824.0967
970893.1255309006,-23212.89,-16982.26,-21396.648,-17960.816,924.6826,-22932.984,-5933.309,4825.6836
970893.129530898,-23210.816,-16983.113,-21397.46,-17960.084,927.49023,-22932.252,-5933.716,4823.446
970893.1335308953,-23206.625,-16981.445,-21395.346,-17958.416,928.182,-22930.95,-5931.6816,4823.568
970893.1375308929,-23200.645,-16976.848,-21389.08,-17957.072,928.1006,-22930.46,-5926.473,4829.4272
970893.1415308903,-23200.033,-16975.098,-21385.092,-17957.316,929.1992,-22928.71,-5924.642,4833.944
970893.1455308876,-23206.26,-16976.807,-21383.83,-17959.025,928.75165,-22928.996,-5926.677,4833.293
970893.149530885,-23208.62,-16982.342,-21386.924,-17961.59,928.6703,-22930.746,-5928.3857,4829.509
970893.1535308824,-23208.008,-16985.434,-21389.08,-17962.402,925.0488,-22932.984,-5931.6816,4825.277
970893.1575308798,-23206.543,-16988.201,-21388.754,-17961.102,922.52606,-22933.635,-5936.361,4819.2954
970893.1615308773,-23207.764,-16990.56,-21389.201,-17961.385,919.9626,-22933.594,-5939.9824,4818.9697
970893.1655308747,-23206.463,-16987.752,-21391.562,-17961.102,920.7357,-22932.943,-5940.023,4817.0576
970893.1695308721,-23202.842,-16984.172,-21390.098,-17960.652,925.6592,-22932.822,-5939.9824,4816.3657
970893.1735308695,-23196.818,-16976.807,-21386.395,-17956.828,932.3324,-22931.805,-5937.9478,4816.162
970893.1775308669,-23192.465,-16972.941,-21384.156,-17954.469,937.7035,-22930.87,-5936.971,4814.9414
970893.1815308643,-23194.174,-16974.324,-21382.365,-17954.184,941.4877,-22928.02,-5934.8145,4822.0215
970893.1855308618,-23198.527,-16977.295,-21382.895,-17957.643,941.60974,-22927.531,-5933.6753,4823.4863
970893.1895308592,-23199.871,-16978.271,-21385.336,-17957.316,942.1794,-22929.729,-5935.8726,4817.424
970893.1935308566,-23199.504,-16975.262,-21383.424,-17955.975,942.62695,-22931.316,-5939.1685,4814.9414
970893.197530854,-23198.61,-16972.941,-21384.645,-17954.916,944.37665,-22930.908,-5940.023,4816.732
970893.2015308514,-23197.266,-16971.883,-21382.0,-17952.88,945.8008,-22929.322,-5937.297,4826.3755
970893.2055308488,-23197.43,-16972.209,-21379.639,-17951.945,945.59735,-22927.898,-5935.2217,4829.509
970893.2095308463,-23195.232,-16969.768,-21376.709,-17950.684,945.8822,-22928.955,-5936.3203,4823.12
970893.2135308437,-23193.768,-16969.768,-21377.197,-17951.05,943.88837,-22930.299,-5937.663,4820.923
970893.2175308411,-23191.611,-16970.012,-21375.693,-17952.23,944.6615,-22930.746,-5935.669,4819.906
970893.2215308385,-23190.797,-16969.768,-21373.984,-17951.904,948.93396,-22929.12,-5931.5186,4824.585
970893.2255308359,-23192.588,-16971.477,-21372.6,-17953.166,953.45056,-22929.363,-5930.1353,4829.5493
970893.2295308334,-23196.371,-16972.168,-21372.031,-17954.387,954.99677,-22930.95,-5931.0303,4826.4976
970893.2335308308,-23196.086,-16971.314,-21376.018,-17952.352,955.0781,-22932.293,-5934.326,4823.161
970893.2375308282,-23195.232,-16972.168,-21375.896,-17952.637,953.125,-22934.123,-5935.425,4822.7134
970893.2415308256,-23196.494,-16970.582,-21372.52,-17953.695,951.49744,-22934.855,-5932.943,4828.41
970893.245530823,-23196.045,-16969.361,-21371.094,-17953.451,951.0498,-22934.123,-5930.1353,4836.548
970893.2495308204,-23194.459,-16969.441,-21372.355,-17952.23,948.93396,-22933.717,-5930.908,4835.327
970893.2535308179,-23195.639,-16968.709,-21374.309,-17951.701,946.12634,-22935.67,-5933.309,4825.9688
970893.2575308153,-23195.068,-16972.006,-21371.014,-17952.475,944.5801,-22937.46,-5936.1167,4822.7134
970893.2615308127,-23194.541,-16972.332,-21368.49,-17953.98,948.56775,-22936.076,-5935.3438,4832.7637
970893.2655308101,-23197.918,-16971.844,-21368.043,-17955.16,947.18427,-22934.652,-5935.8726,4832.927
970893.2695308075,-23197.55,-16970.623,-21366.537,-17952.76,950.8871,-22934.814,-5937.419,4826.294
970893.2735308049,-23196.697,-16970.094,-21370.158,-17952.596,953.2878,-22935.955,-5937.5815,4823.568
970893.2775308024,-23200.889,-16974.244,-21373.861,-17954.102,950.5615,-22935.385,-5935.71,4825.8057
970893.2815307998,-23203.086,-16977.986,-21376.67,-17954.875,947.225,-22933.92,-5934.7334,4829.468
970893.2855307972,-23199.545,-16974.244,-21373.088,-17952.596,947.9167,-22932.902,-5930.176,4833.2114
970893.2895307946,-23199.098,-16972.656,-21374.188,-17952.516,947.7539,-22931.723,-5927.49,4836.67
970893.293530792,-23197.998,-16971.639,-21371.299,-17950.928,947.63184,-22931.64,-5926.9614,4837.8906
970893.2975307894,-23194.662,-16970.826,-21368.084,-17950.684,947.1029,-22936.646,-5933.3496,4828.8574
970893.3015307869,-23189.902,-16964.803,-21367.025,-17948.895,950.80566,-22937.867,-5935.2217,4828.939
970893.3055307843,-23190.47,-16962.77,-21362.957,-17946.004,954.0202,-22936.89,-5934.8555,4831.584
970893.3095307817,-23184.531,-16959.066,-21361.125,-17943.93,958.5368,-22935.059,-5935.954,4826.823
970893.3135307791,-23184.45,-16960.938,-21363.281,-17944.906,953.6133,-22935.426,-5936.198,4827.1895
970893.3175307765,-23187.744,-16964.479,-21365.52,-17947.998,948.6491,-22935.752,-5936.035,4825.1143
970893.3215307739,-23191.977,-16965.291,-21369.996,-17949.951,948.93396,-22935.752,-5933.716,4824.056
970893.3255307714,-23191.773,-16966.268,-21370.361,-17951.66,950.27673,-22934.326,-5929.7285,4828.0845
970893.3295307688,-23189.617,-16962.89,-21370.688,-17949.91,953.89813,-22930.787,-5926.88,4832.8857
970893.3335307662,-23185.873,-16957.643,-21370.605,-17950.115,955.5664,-22931.56,-5930.013,4825.7246
970893.3375307636,-23187.176,-16956.951,-21369.914,-17949.26,956.0954,-22932.008,-5930.6235,4822.0215
970893.341530761,-23192.18,-16961.426,-21373.21,-17949.586,957.88574,-22933.432,-5933.1055,4820.272
970893.3455307585,-23198.691,-16965.047,-21378.418,-17951.824,956.5837,-22934.611,-5936.239,4815.511
970893.3495307559,-23203.492,-16970.662,-21381.309,-17953.37,953.2064,-22935.182,-5938.07,4814.087
970893.3535307533,-23203.41,-16972.982,-21381.512,-17953.533,949.74774,-22936.688,-5938.965,4815.552
970893.3575307507,-23202.354,-16973.756,-21381.389,-17953.654,949.6257,-22935.182,-5939.6973,4812.5815
970893.3615307481,-23202.475,-16974.65,-21379.03,-17952.963,948.93396,-22934.49,-5943.441,4808.1055
970893.3655307455,-23203.98,-16977.824,-21376.67,-17953.37,950.07324,-22933.594,-5943.441,4812.744
970893.369530743,-23207.154,-16979.9,-21378.541,-17954.346,948.1201,-22934.693,-5945.6787,4818.685
970893.3735307404,-23204.916,-16976.807,-21379.477,-17953.777,946.2484,-22935.223,-5950.6836,4809.8555
970893.3775307378,-23205.566,-16977.133,-21381.389,-17955.363,942.99316,-22934.896,-5949.341,4807.129
970893.3815307352,-23210.572,-16981.445,-21382.121,-17957.643,940.26697,-22936.688,-5948.5273,4807.17
970893.3855307326,-23214.885,-16986.492,-21381.268,-17959.066,941.2028,-22937.582,-5950.5615,4807.495
970893.38953073,-23213.379,-16986.125,-21382.121,-17958.172,943.0746,-22938.273,-5953.6543,4803.182
970893.3935307275,-23208.822,-16981.568,-21379.111,-17955.893,944.90564,-22940.43,-5956.462,4800.415
970893.3975307249,-23204.59,-16975.79,-21381.877,-17953.328,946.3705,-22941.977,-5958.9844,4796.3057
970893.4015307223,-23204.59,-16974.895,-21387.371,-17952.76,945.59735,-22941.162,-5955.7295,4804.9316
970893.4055307197,-23204.469,-16975.994,-21387.777,-17953.451,943.68494,-22941.732,-5952.23,4811.727
970893.4095307171,-23205.81,-16978.11,-21389.61,-17956.787,941.60974,-22940.756,-5952.23,4806.5596
