timestamp,Fp1,Fp2,F3,Fz,F4,Cz,Pz,Oz
1300269.9271897555,-57358.156,-45054.566,17719.441,-14939.86,31975.059,2721.7205,-11305.949,41874.31
1300269.9311897517,-57333.62,-45035.727,17738.404,-14939.128,32001.791,2736.735,-11303.264,42405.234
1300269.9351897482,-57298.22,-45016.727,17767.781,-14939.819,32017.254,2743.4897,-11305.217,42686.688
1300269.9391897444,-57301.758,-45019.86,17767.01,-14940.227,32001.588,2734.4158,-11310.303,42361.574
1300269.9431897409,-57339.64,-45050.945,17736.41,-14940.227,31973.309,2719.7266,-11312.256,41866.17
1300269.947189737,-57358.562,-45073.527,17720.053,-14940.023,31970.541,2719.2383,-11312.826,41864.176
1300269.9511897336,-57332.97,-45055.42,17739.137,-14939.657,31996.543,2732.544,-11312.256,42344.156
1300269.9551897298,-57299.848,-45025.312,17768.23,-14940.43,32014.895,2740.438,-11313.232,42636.637
1300269.9591897263,-57305.258,-45029.543,17769.125,-14940.186,32000.693,2732.9917,-11313.232,42347.13
1300269.9631897227,-57343.63,-45054.688,17740.031,-14938.314,31983.562,2719.9707,-11313.232,41865.48
1300269.967189719,-57361.574,-45064.13,17726.36,-14937.785,31984.336,2719.7266,-11310.222,41840.7
1300269.9711897154,-57336.145,-45040.164,17744.996,-14937.297,32007.895,2735.5957,-11303.996,42342.45
1300269.9751897117,-57300.375,-45009.848,17772.543,-14938.314,32025.596,2748.9421,-11297.445,42677.45
1300269.9791897081,-57299.195,-45012.9,17773.682,-14938.721,32012.656,2742.025,-11296.062,42395.145
1300269.9831897044,-57335.613,-45044.56,17741.252,-14939.128,31979.453,2728.231,-11298.788,41884.48
1300269.9871897008,-57362.305,-45065.96,17721.72,-14941.406,31979.533,2727.9053,-11300.7,41878.664
1300269.991189697,-57345.34,-45047.285,17739.217,-14942.912,31998.332,2738.9731,-11302.328,42355.797
1300269.9951896935,-57310.547,-45022.42,17768.066,-14944.336,32019.41,2743.4897,-11305.054,42626.996
1300269.99918969,-57307.496,-45025.312,17771.037,-14945.231,32001.467,2732.7068,-11307.943,42380.777
1300270.0031896862,-57340.414,-45048.992,17731.69,-14941.691,31981.975,2719.1162,-11313.762,41868.004
1300270.0071896827,-57362.145,-45066.406,17720.744,-14941.04,31974.121,2716.1052,-11316.691,41875.043
1300270.011189679,-57338.586,-45047.73,17745.688,-14940.39,32002.238,2725.5454,-11316.569,42392.05
1300270.0151896754,-57298.465,-45014.12,17774.617,-14939.697,32019.045,2734.375,-11315.715,42684.652
1300270.0191896716,-57298.34,-45014.406,17775.27,-14938.965,32003.5,2726.522,-11316.772,42404.746
1300270.023189668,-57338.867,-45038.29,17747.518,-14938.3955,31975.139,2713.5417,-11318.237,41853.477
1300270.0271896643,-57364.668,-45057.78,17729.736,-14938.11,31972.78,2716.024,-11316.0,41807.58
1300270.0311896608,-57336.793,-45035.973,17753.621,-14937.948,32002.564,2730.3875,-11311.687,42369.875
1300270.0351896572,-57292.24,-45002.28,17786.174,-14939.25,32024.863,2741.3738,-11306.967,42705.566
1300270.0391896535,-57291.63,-45004.723,17790.162,-14938.599,32011.395,2735.962,-11305.176,42402.547
1300270.04318965,-57327.477,-45039.145,17756.104,-14939.25,31984.172,2722.2495,-11306.763,41888.875
1300270.0471896462,-57345.42,-45048.504,17740.764,-14940.268,31969.932,2720.5405,-11308.594,41891.24
1300270.0511896426,-57322.473,-45023.887,17760.865,-14940.634,31995.566,2732.951,-11310.181,42380.902
1300270.0551896389,-57288.414,-44993.855,17783.936,-14941.447,32017.783,2741.9841,-11310.629,42674.97
1300270.0591896353,-57291.63,-45002.973,17784.18,-14942.587,31993.002,2732.7068,-11316.569,42354.168
1300270.0631896316,-57331.42,-45046.227,17751.791,-14941.162,31972.78,2718.872,-11318.441,41838.83
1300270.067189628,-57357.586,-45065.96,17734.54,-14940.837,31975.83,2719.8894,-11316.366,41870.484
1300270.0711896245,-57335.98,-45040.855,17755.656,-14939.128,31998.78,2733.3171,-11314.575,42360.598
1300270.0751896207,-57300.78,-45014.363,17786.459,-14938.965,32018.23,2741.4146,-11312.297,42638.227
1300270.0791896172,-57307.21,-45022.258,17783.447,-14942.058,31998.414,2731.4048,-11312.948,42323.773
1300270.0831896134,-57343.67,-45047.773,17752.361,-14940.349,31975.668,2718.75,-11311.931,41847.94
1300270.0871896099,-57358.195,-45061.85,17741.822,-14937.744,31974.488,2721.3135,-11306.804,41885.457
1300270.091189606,-57329.51,-45039.188,17772.42,-14935.263,32004.72,2734.1716,-11303.589,42403.402
1300270.0951896026,-57288.168,-44996.38,17804.363,-14935.059,32027.59,2742.5537,-11300.009,42711.348
1300270.0991895988,-57290.082,-44989.586,17785.36,-14935.547,32015.342,2735.9214,-11300.415,42381.39
1300270.1031895953,-57328.535,-45021.895,17758.83,-14934.733,31993.531,2721.151,-11305.176,41891.6
1300270.1071895917,-57349.61,-45048.79,17745.281,-14935.222,31994.508,2718.2617,-11307.536,41871.176
1300270.111189588,-57332.113,-45032.023,17763.184,-14936.85,32012.98,2727.702,-11310.466,42395.875
1300270.1151895844,-57299.848,-45003.297,17794.148,-14938.314,32027.549,2731.4453,-11314.86,42715.58
1300270.1191895807,-57302.695,-45006.918,17790.73,-14937.5,32011.436,2723.9177,-11316.488,42350.3
1300270.1231895771,-57341.88,-45041.18,17756.104,-14937.826,31980.389,2711.7107,-11319.174,41880.008
1300270.1271895734,-57363.895,-45057.984,17740.193,-14936.401,31979.209,2711.8328,-11320.476,41879.152
1300270.1311895698,-57340.66,-45038.902,17767.13,-14935.263,32012.656,2722.3716,-11315.837,42393.8
1300270.1351895663,-57298.098,-45001.996,17796.754,-14934.245,32030.111,2728.8005,-11309.245,42682.008
1300270.1391895625,-57296.797,-45005.535,17794.312,-14932.251,32010.215,2721.9238,-11305.258,42321.492
1300270.143189559,-57335.45,-45042.48,17765.057,-14932.414,31990.234,2710.0425,-11307.007,41855.105
1300270.1471895552,-57350.02,-45052.125,17753.012,-14930.502,31990.602,2713.3384,-11304.403,41912.56
1300270.1511895517,-57321.414,-45025.92,17775.27,-14929.565,32020.59,2726.4812,-11303.671,42432.047
1300270.155189548,-57285.566,-44998.78,17804.2,-14929.484,32034.629,2733.8054,-11303.915,42732.383
1300270.1591895444,-57283.164,-45001.63,17798.504,-14928.874,32021.81,2724.0398,-11309.448,42374.27
1300270.1631895406,-57320.723,-45037.477,17763.836,-14930.054,32001.344,2710.612,-11316.162,41865.52
1300270.167189537,-57347.78,-45060.1,17746.42,-14931.763,31994.549,2710.49,-11318.97,41867.92
1300270.1711895335,-57322.594,-45032.39,17767.945,-14932.17,32011.232,2726.5625,-11319.255,42394.168
1300270.1751895298,-57286.99,-45003.867,17794.148,-14933.065,32028.078,2732.2593,-11319.133,42677.734
1300270.1791895262,-57291.832,-45014.285,17790.08,-14935.019,32011.232,2722.168,-11322.754,42305.055
1300270.1831895225,-57337.04,-45049.645,17760.377,-14934.53,31984.824,2712.3618,-11323.69,41821.25
1300270.187189519,-57367.92,-45068.93,17742.473,-14935.669,31978.883,2715.332,-11319.621,41855.633
1300270.1911895152,-57334.19,-45046.266,17765.057,-14933.228,32012.615,2727.2136,-11318.604,42327.395
1300270.1951895116,-57283.773,-45003.582,17795.654,-14933.065,32034.953,2731.771,-11319.336,42606.12
1300270.1991895079,-57287.234,-45003.703,17793.172,-14932.821,32023.684,2723.1445,-11320.354,42287.027
1300270.2031895043,-57323.367,-45027.914,17761.19,-14931.234,31997.396,2709.8389,-11322.998,41803.387
1300270.2071895008,-57333.945,-45031.17,17745.809,-14928.955,31993.652,2710.7341,-11323.608,41855.51
1300270.211189497,-57303.43,-45007.082,17763.713,-14929.118,32020.428,2721.6797,-11322.795,42362.47
1300270.2151894935,-57250.855,-44963.38,17797.16,-14928.183,32038.615,2730.1433,-11324.911,42674.074
1300270.2191894897,-57232.383,-44954.305,17795.574,-14928.386,32017.904,2719.442,-11327.189,42311.973
1300270.2231894862,-57258.87,-44984.99,17766.236,-14926.718,31991.334,2706.2175,-11326.904,41804.934
1300270.2271894824,-57275.84,-44991.293,17755.291,-14924.643,31998.291,2709.3506,-11326.05,41818.32
1300270.231189479,-57247.805,-44957.6,17776.896,-14925.212,32030.926,2718.7908,-11329.55,42307.863
1300270.2351894751,-57201.62,-44921.51,17806.885,-14925.659,32054.363,2724.121,-11331.706,42626.18
1300270.2391894716,-57184.33,-44914.43,17806.885,-14924.276,32032.553,2713.786,-11337.443,42291.586
1300270.243189468,-57215.008,-44937.625,17778.361,-14921.916,32008.506,2697.7947,-11343.588,41802.734
1300270.2471894643,-57231.203,-44941.164,17766.521,-14920.41,32006.959,2699.0562,-11345.419,41863.04
1300270.2511894607,-57190.27,-44904.867,17791.3,-14919.882,32030.111,2711.4666,-11344.809,42361.004
1300270.255189457,-57136.07,-44864.258,17823.201,-14919.475,32049.195,2718.4246,-11344.36,42637.125
1300270.2591894534,-57127.77,-44861.86,17818.93,-14918.457,32025.92,2712.0361,-11342.8955,42280.4
1300270.2631894497,-57160.688,-44887.574,17791.424,-14915.243,31999.756,2701.945,-11338.664,41766.848
1300270.2671894461,-57176.312,-44897.258,17778.443,-14914.714,32004.518,2704.9155,-11334.106,41853.68
1300270.2711894424,-57150.39,-44866.863,17798.299,-14915.324,32029.867,2715.8203,-11333.781,42363.363
1300270.2751894388,-57101.2,-44826.742,17828.94,-14913.371,32053.225,2717.5293,-11338.705,42640.91
1300270.2791894353,-57083.336,-44813.19,17832.684,-14911.296,32039.797,2704.7527,-11348.145,42322.39
1300270.2831894315,-57117.27,-44835.938,17802.37,-14910.727,32009.115,2691.2437,-11351.522,41836.59
1300270.287189428,-57135.742,-44851.035,17787.557,-14910.36,32004.436,2692.9932,-11350.79,41856.203
1300270.2911894242,-57102.297,-44826.336,17812.42,-14908.732,32032.309,2706.7466,-11347.128,42332.316
1300270.2951894207,-57059.938,-44791.953,17845.338,-14909.302,32048.586,2713.786,-11346.3955,42627.523
1300270.299189417,-57066.773,-44797.73,17837.973,-14911.418,32034.75,2704.2236,-11349.936,42284.426
1300270.3031894134,-57106.57,-44830.203,17810.385,-14910.482,32012.656,2691.6504,-11352.824,41784.586
1300270.3071894096,-57118.043,-44839.56,17794.8,-14909.221,32013.145,2691.3657,-11354.94,41837.85
1300270.311189406,-57088.91,-44816.043,17815.674,-14908.325,32034.832,2701.0093,-11357.87,42313.355
1300270.3151894026,-57056.438,-44782.35,17850.912,-14907.227,32057.252,2708.903,-11356.445,42611.613
1300270.3191893988,-57060.63,-44782.188,17848.756,-14904.989,32044.23,2703.3691,-11354.818,42314.25
1300270.3231893952,-57084.312,-44808.188,17816.732,-14902.466,32016.033,2690.3892,-11356.039,41812.258
1300270.3271893915,-57079.227,-44806.355,17803.549,-14897.095,32017.783,2687.7441,-11356.079,41870.363
1300270.331189388,-57049.562,-44775.84,17831.463,-14896.118,32052.004,2698.3237,-11356.242,42398.723
1300270.3351893842,-57022.42,-44752.44,17857.504,-14898.153,32070.354,2704.5085,-11354.736,42648.195
1300270.3391893806,-57025.066,-44761.92,17856.201,-14899.089,32050.822,2693.4814,-11357.788,42312.38
1300270.3431893769,-57054.65,-44782.39,17829.225,-14895.102,32023.44,2681.071,-11361.491,41803.305
1300270.3471893733,-57079.715,-44799.887,17815.47,-14892.944,32019.816,2681.6406,-11364.665,41837.117
1300270.3511893698,-57058.637,-44777.71,17831.746,-14893.637,32048.422,2694.865,-11365.397,42355.594
1300270.355189366,-57015.26,-44741.824,17866.984,-14893.962,32072.268,2700.6023,-11368.042,42642.62
1300270.3591893625,-57008.914,-44742.188,17867.352,-14894.043,32060.305,2691.6099,-11368.979,42302.86
1300270.3631893587,-57040.69,-44766.93,17836.549,-14892.212,32031.414,2683.1462,-11364.828,41829.508
1300270.3671893552,-57052.453,-44775.27,17824.26,-14890.422,32033.855,2688.2324,-11362.549,41875.53
1300270.3711893514,-57020.43,-44748.09,17849.895,-14889.364,32062.705,2704.183,-11358.928,42365.277
1300270.375189348,-56986.695,-44718.184,17872.967,-14890.341,32078.166,2710.368,-11358.684,42625.773
1300270.3791893441,-56997.926,-44731.082,17862.184,-14890.381,32052.451,2699.3003,-11362.468,42250.773
1300270.3831893406,-57031.58,-44767.09,17831.787,-14891.195,32027.793,2684.4482,-11365.642,41826.457
1300270.387189337,-57043.703,-44776.53,17821.697,-14889.893,32028.85,2688.2732,-11365.316,41897.625
1300270.3911893333,-57019.574,-44748.945,17845.256,-14889.16,32056.846,2702.23,-11363.485,42386.434
1300270.3951893297,-56982.016,-44717.652,17874.838,-14888.998,32076.377,2706.2988,-11369.019,42626.75
1300270.399189326,-56980.51,-44715.7,17877.361,-14887.207,32065.92,2696.818,-11376.181,42305.867
1300270.4031893224,-57016.36,-44746.176,17844.768,-14886.841,32037.273,2686.3608,-11372.152,41833.17
1300270.4071893187,-57038.13,-44765.465,17828.004,-14887.695,32036.541,2692.9932,-11363.688,41900.15
1300270.4111893151,-57013.836,-44747.355,17849.812,-14887.655,32060.06,2707.8857,-11358.236,42417.81
1300270.4151893114,-56975.996,-44717.57,17878.744,-14887.655,32071.127,2712.321,-11359.782,42675.984
1300270.4191893078,-56978.355,-44713.746,17878.541,-14887.573,32051.107,2703.7761,-11363.159,42299.766
1300270.4231893043,-57021.85,-44746.055,17847.209,-14887.37,32024.293,2691.8945,-11364.828,41830.61
1300270.4271893005,-57041.098,-44758.87,17834.514,-14886.108,32028.85,2694.58,-11362.346,41888.67
1300270.431189297,-57012.695,-44737.754,17855.389,-14884.929,32053.59,2705.6072,-11361.654,42352.582
1300270.4351892932,-56972.656,-44710.695,17883.504,-14884.888,32070.477,2711.2224,-11360.515,42681.766
1300270.4391892897,-56981.57,-44718.344,17879.273,-14884.521,32057.537,2703.2878,-11360.596,42344.484
1300270.443189286,-57022.668,-44747.56,17843.994,-14883.261,32039.633,2691.976,-11362.753,41869.914
1300270.4471892824,-57033.246,-44756.55,17841.432,-14880.941,32031.82,2691.2437,-11363.525,41942.79
1300270.4511892786,-57000.773,-44734.336,17865.52,-14881.47,32062.99,2704.7527,-11363.281,42443.81
1300270.455189275,-56960.246,-44703.574,17888.143,-14880.453,32085.166,2711.9548,-11362.956,42676.434
1300270.4591892716,-56969.566,-44705.28,17892.172,-14881.592,32065.959,2704.6714,-11360.107,42311.117
1300270.4631892678,-57009.035,-44737.715,17862.06,-14881.999,32033.123,2691.976,-11357.178,41839.234
1300270.4671892643,-57021.566,-44750.855,17853.963,-14879.802,32037.72,2695.6787,-11356.567,41880.74
1300270.4711892605,-56990.36,-44728.355,17877.076,-14879.599,32071.25,2712.7686,-11355.266,42380.332
1300270.475189257,-56962.28,-44704.918,17898.967,-14881.633,32087.322,2721.1914,-11354.858,42667.81
1300270.4791892532,-56974.855,-44711.836,17889.527,-14883.545,32067.14,2710.5308,-11357.26,42312.664
1300270.4831892496,-57014.324,-44747.4,17861.98,-14882.895,32033.367,2697.5098,-11359.945,41822.67
1300270.4871892459,-57016.277,-44750.246,17854.492,-14879.924,32038.453,2698.934,-11358.195,41919.72
1300270.4911892423,-56981.855,-44711.348,17873.658,-14878.581,32067.18,2711.8328,-11354.736,42392.703
1300270.4951892388,-56956.3,-44684.45,17899.293,-14877.768,32080.324,2719.1162,-11352.58,42627.89
1300270.499189235,-56968.508,-44697.105,17893.434,-14877.36,32063.723,2708.4556,-11353.109,42239.83
1300270.5031892315,-57008.75,-44736.492,17868.084,-14878.459,32032.512,2695.4753,-11356.771,41751.75
1300270.5071892277,-57014.57,-44743.574,17856.324,-14876.14,32041.18,2698.8525,-11358.48,41856.285
1300270.5111892242,-56985.76,-44716.39,17876.465,-14872.925,32080.404,2711.1816,-11355.673,42349.938
1300270.5151892204,-56959.395,-44690.51,17906.82,-14873.657,32086.184,2717.6514,-11356.161,42594.32
1300270.519189217,-56961.957,-44699.586,17904.582,-14873.82,32062.541,2709.7576,-11356.039,42254.598
1300270.5231892134,-56992.027,-44725.63,17873.17,-14871.989,32042.4,2698.7712,-11357.463,41816.285
1300270.5271892096,-57009.727,-44738.406,17859.13,-14871.786,32039.959,2701.5789,-11355.876,41911.867
1300270.531189206,-56986.86,-44712.484,17874.594,-14871.989,32064.738,2714.3555,-11356.364,42383.547
1300270.5351892023,-56958.906,-44687.055,17901.367,-14873.169,32077.354,2718.628,-11358.398,42591.434
1300270.5391891988,-56965.82,-44699.953,17898.56,-14872.885,32062.705,2709.8796,-11360.393,42247.64
1300270.543189195,-56995.934,-44728.152,17874.188,-14872.111,32041.75,2696.981,-11361.898,41792.848
1300270.5471891914,-57013.47,-44736.125,17846.111,-14872.478,32040.936,2700.4802,-11358.684,41871.38
1300270.5511891877,-56989.87,-44712.77,17869.182,-14872.192,32069.865,2714.03,-11351.929,42375.125
1300270.5551891841,-56955.0,-44688.152,17909.059,-14870.239,32093.467,2721.0693,-11350.871,42606.65
1300270.5591891806,-56966.797,-44696.574,17904.012,-14869.955,32075.848,2711.4258,-11352.824,42256.797
1300270.5631891768,-57007.69,-44728.11,17867.432,-14871.298,32048.79,2699.0562,-11356.079,41804.85
1300270.5671891733,-57014.203,-44733.36,17859.05,-14870.199,32054.893,2701.701,-11356.079,41891.113
1300270.5711891695,-56982.586,-44709.27,17882.203,-14869.833,32075.889,2712.0361,-11356.323,42388.67
1300270.575189166,-56949.75,-44685.547,17902.508,-14870.036,32085.94,2718.0583,-11356.445,42607.098
1300270.5791891622,-56959.637,-44695.395,17907.838,-14869.467,32067.668,2710.897,-11357.341,42228.273
1300270.5831891587,-57007.812,-44737.43,17873.088,-14869.019,32047.527,2699.8699,-11359.416,41758.75
1300270.587189155,-57026.45,-44753.215,17854.615,-14869.629,32044.842,2703.3691,-11360.393,41861.33
1300270.5911891514,-56993.734,-44724.855,17878.826,-14869.995,32070.924,2715.088,-11360.718,42372.56
1300270.5951891479,-56955.445,-44693.89,17911.703,-14871.745,32087.404,2718.9128,-11365.886,42607.26
1300270.599189144,-56966.637,-44704.875,17895.752,-14872.519,32068.482,2706.828,-11369.385,42237.918
1300270.6031891406,-57008.75,-44735.516,17855.307,-14869.223,32048.707,2695.9229,-11366.659,41830.973
1300270.6071891368,-57021.77,-44744.55,17859.254,-14866.577,32052.248,2695.8008,-11364.909,41888.43
1300270.6111891333,-56979.13,-44712.85,17877.117,-14866.74,32073.0,2707.2754,-11365.52,42402.06
1300270.6151891295,-56945.598,-44693.562,17908.367,-14867.351,32078.248,2712.4023,-11368.124,42611.125
1300270.619189126,-56971.03,-44712.28,17910.115,-14869.019,32062.623,2704.183,-11370.443,42192.508
1300270.6231891222,-57024.58,-44745.566,17856.975,-14869.548,32039.959,2696.6553,-11370.972,41778.484
1300270.6271891186,-57026.246,-44748.617,17857.91,-14867.676,32043.58,2698.12,-11373.739,41890.016
1300270.631189115,-56991.906,-44724.285,17875.896,-14869.467,32072.55,2707.8857,-11373.942,42353.844
1300270.6351891113,-56966.555,-44699.26,17895.549,-14871.176,32077.19,2713.8267,-11370.524,42628.867
1300270.6391891078,-56972.13,-44714.03,17901.123,-14870.6875,32060.71,2702.474,-11372.233,42264.08
1300270.643189104,-57002.2,-44745.566,17877.035,-14868.774,32039.309,2691.4062,-11369.385,41796.348
1300270.6471891005,-57020.1,-44751.18,17864.705,-14866.821,32049.113,2694.1326,-11364.828,41922.406
1300270.6511890967,-56999.39,-44732.06,17880.25,-14867.473,32071.738,2704.3052,-11365.234,42395.062
1300270.6551890932,-56962.85,-44707.48,17900.514,-14869.263,32093.426,2708.5776,-11366.496,42634.48
1300270.6591890894,-56967.9,-44719.523,17909.303,-14868.612,32074.342,2701.0093,-11367.351,42279.5
1300270.663189086,-56998.375,-44747.805,17871.664,-14867.554,32045.412,2689.86,-11369.06,41820.72
1300270.6671890824,-57015.465,-44760.094,17861.492,-14864.95,32050.742,2693.563,-11369.06,41889.65
1300270.6711890786,-56993.043,-44729.047,17885.824,-14864.624,32082.643,2706.2583,-11366.821,42407.145
1300270.675189075,-56956.625,-44698.57,17909.871,-14865.601,32097.006,2711.7107,-11366.455,42648.562
1300270.6791890713,-56955.04,-44701.582,17906.617,-14866.089,32076.54,2702.108,-11365.112,42281.656
1300270.6831890678,-56989.383,-44728.8,17879.762,-14864.624,32050.01,2693.278,-11360.637,41830.69
1300270.687189064,-57006.555,-44738.242,17869.873,-14863.363,32048.26,2693.1968,-11364.055,41950.195
1300270.6911890605,-56985.395,-44722.78,17885.418,-14864.421,32073.0,2703.8574,-11366.74,42411.906
1300270.6951890567,-56952.883,-44695.19,17916.627,-14866.333,32082.725,2710.2866,-11368.896,42606.977
1300270.6991890531,-56958.906,-44699.87,17907.635,-14867.92,32066.611,2700.0732,-11372.396,42210.777
1300270.7031890496,-57001.426,-44737.47,17873.658,-14867.676,32040.53,2687.9883,-11374.472,41784.953
1300270.7071890458,-57016.074,-44747.723,17864.34,-14866.293,32045.98,2691.2842,-11373.129,41923.87
1300270.7111890423,-56988.08,-44728.19,17880.9,-14866.862,32075.969,2703.2065,-11370.524,42398.113
1300270.7151890385,-56957.805,-44700.684,17908.0,-14866.618,32092.45,2709.0251,-11369.019,42621.46
1300270.719189035,-56967.98,-44709.883,17892.945,-14866.984,32069.133,2699.1375,-11369.426,42256.55
1300270.7231890312,-57002.93,-44735.19,17868.572,-14866.171,32045.412,2687.4187,-11370.565,41838.664
1300270.7271890277,-57013.43,-44739.625,17863.525,-14864.624,32053.834,2690.796,-11370.769,41901.855
1300270.731189024,-56982.22,-44711.426,17884.521,-14865.886,32074.871,2704.5085,-11368.327,42363.65
1300270.7351890204,-56949.832,-44688.477,17905.72,-14866.577,32084.352,2709.6763,-11368.449,42633.832
1300270.7391890169,-56962.934,-44700.4,17892.986,-14865.764,32068.523,2700.3174,-11374.472,42270.633
1300270.743189013,-57005.25,-44735.027,17871.258,-14865.153,32046.469,2689.901,-11376.547,41849.406
1300270.7471890096,-57015.832,-44743.207,17857.586,-14864.665,32053.549,2691.7725,-11376.709,41961.47
1300270.7511890058,-56980.715,-44727.906,17870.32,-14865.316,32079.592,2703.2065,-11376.994,42429.527
1300270.7551890023,-56954.797,-44716.797,17900.27,-14866.374,32085.37,2706.421,-11375.285,42642.17
1300270.7591889985,-56968.875,-44721.438,17895.143,-14866.008,32066.732,2696.167,-11372.885,42261.883
1300270.763188995,-57005.09,-44734.863,17865.643,-14864.868,32048.83,2685.018,-11369.06,41843.223
1300270.7671889912,-57010.582,-44729.492,17854.33,-14864.299,32054.404,2688.192,-11368.368,41978.11
1300270.7711889877,-56980.227,-44702.56,17881.43,-14864.055,32076.213,2699.2595,-11371.298,42455.28
1300270.7751889841,-56950.074,-44680.137,17905.6,-14865.356,32089.967,2705.241,-11375.041,42652.14
1300270.7791889803,-56975.547,-44695.64,17890.992,-14866.984,32067.18,2698.3643,-11379.558,42263.715
1300270.7831889768,-57022.543,-44737.348,17858.44,-14867.025,32040.977,2689.616,-11381.552,41802.207
1300270.787188973,-57028.08,-44746.625,17852.906,-14866.008,32047.975,2691.3657,-11382.8125,41914.31
1300270.7911889695,-56992.066,-44718.305,17879.72,-14864.299,32077.354,2703.3691,-11380.656,42418.133
1300270.7951889657,-56960.125,-44689.496,17898.52,-14862.997,32087.078,2707.072,-11377.116,42631.676
1300270.7991889622,-56972.047,-44699.79,17898.113,-14862.305,32068.238,2693.7256,-11375.407,42230.797
1300270.8031889584,-57006.797,-44727.46,17866.74,-14860.637,32049.807,2681.8442,-11372.478,41829.633
1300270.807188955,-57013.836,-44726.727,17861.572,-14858.847,32057.902,2682.3325,-11372.641,41934.938
1300270.8111889514,-56981.977,-44701.094,17896.404,-14857.544,32082.521,2693.685,-11377.035,42415.445
1300270.8151889476,-56950.93,-44694.01,17913.086,-14858.643,32088.055,2699.0154,-11381.714,42608.113
1300270.819188944,-56972.74,-44709.066,17891.277,-14859.457,32071.168,2690.8774,-11381.714,42209.39
1300270.8231889403,-57012.98,-44741.375,17868.164,-14860.148,32048.91,2679.891,-11379.802,41804.566
1300270.8271889368,-57016.97,-44740.48,17864.34,-14859.375,32059.246,2683.6345,-11378.622,41929.566
1300270.831188933,-56989.18,-44718.06,17887.248,-14859.375,32086.63,2697.1843,-11375.692,42441.45
1300270.8351889295,-56959.883,-44693.36,17908.65,-14860.189,32094.158,2702.9216,-11371.704,42632.773
1300270.8391889257,-56965.17,-44700.887,17892.822,-14858.439,32076.457,2694.987,-11368.449,42240.316
1300270.8431889222,-56995.16,-44729.332,17873.82,-14857.219,32048.463,2684.2856,-11370.646,41874.88
1300270.8471889186,-57009.645,-44739.543,17861.531,-14858.154,32045.94,2685.3435,-11373.82,41973.39
1300270.8511889149,-56997.234,-44728.23,17891.643,-14861.694,32077.19,2696.1265,-11374.512,42388.023
1300270.8551889113,-56967.938,-44707.645,17901.45,-14862.671,32090.822,2703.2065,-11375.8545,42575.277
1300270.8591889075,-56979.332,-44720.38,17897.299,-14862.224,32070.354,2693.3594,-11381.226,42178.59
1300270.863188904,-57013.266,-44748.414,17872.438,-14860.718,32050.172,2683.838,-11383.383,41809.41
1300270.8671889002,-57016.562,-44749.594,17865.275,-14856.975,32055.299,2689.5752,-11381.511,41956.504
1300270.8711888967,-56990.113,-44727.742,17890.34,-14856.445,32076.58,2700.0732,-11380.778,42400.27
1300270.875188893,-56958.984,-44701.5,17913.738,-14858.48,32090.455,2702.474,-11381.918,42615.4
1300270.8791888894,-56969.08,-44710.53,17903.646,-14857.666,32079.225,2693.8477,-11379.883,42242.39
1300270.8831888859,-57014.855,-44746.664,17874.47,-14856.853,32058.676,2682.373,-11378.744,41834.758
1300270.887188882,-57021.527,-44749.555,17872.152,-14855.225,32067.262,2684.9773,-11380.29,41934.613
1300270.8911888786,-56977.133,-44718.832,17897.096,-14853.72,32092.002,2695.7195,-11380.168,42400.92
1300270.8951888748,-56942.832,-44690.918,17920.98,-14854.167,32087.81,2700.399,-11382.121,42618.53
1300270.8991888713,-56965.008,-44709.84,17905.6,-14856.445,32060.385,2688.5173,-11388.225,42207.887
1300270.9031888675,-57012.37,-44760.582,17874.756,-14859.619,32039.633,2678.1821,-11389.445,41766.113
1300270.907188864,-57022.586,-44773.074,17861.898,-14859.782,32048.625,2682.129,-11388.794,41887.777
1300270.9111888604,-56995.324,-44741.902,17889.975,-14858.847,32084.637,2695.8823,-11386.801,42395.184
1300270.9151888567,-56966.84,-44706.87,17917.604,-14857.626,32096.803,2699.707,-11384.929,42599.04
1300270.9191888531,-56979.414,-44718.75,17899.414,-14858.887,32070.436,2689.9414,-11382.935,42208.78
1300270.9231888494,-57011.273,-44748.82,17868.816,-14858.032,32050.945,2681.1118,-11383.545,41839.844
1300270.9271888458,-57018.19,-44751.465,17865.56,-14855.876,32062.867,2684.2449,-11379.069,41972.656
1300270.931188842,-56985.637,-44724.406,17895.143,-14855.632,32087.484,2697.1843,-11375.366,42427.207
1300270.9351888385,-56959.066,-44697.188,17916.79,-14856.853,32086.223,2700.643,-11372.885,42592.45
1300270.9391888347,-56982.992,-44721.64,17903.361,-14858.398,32078.615,2690.5518,-11370.891,42183.51
1300270.9431888312,-57020.957,-44753.99,17875.896,-14857.666,32061.688,2681.5186,-11371.176,41821.29
1300270.9471888277,-57031.09,-44756.105,17867.39,-14857.341,32065.838,2687.0117,-11373.291,41946.492
1300270.951188824,-57003.094,-44736.168,17892.578,-14858.032,32092.287,2701.3347,-11374.39,42405.965
1300270.9551888204,-56971.805,-44708.824,17913.574,-14857.788,32103.883,2706.0142,-11374.023,42606.16
1300270.9591888166,-56982.098,-44718.387,17900.31,-14856.812,32080.404,2694.0513,-11371.501,42227.664
1300270.963188813,-57016.035,-44748.008,17871.053,-14854.899,32059.45,2683.1462,-11370.077,41831.055
1300270.9671888093,-57021.12,-44745.2,17870.525,-14853.027,32066.814,2686.4014,-11371.704,41961.793
1300270.9711888058,-56990.277,-44723.715,17896.688,-14853.3125,32086.508,2696.045,-11372.314,42411.215
1300270.975188802,-56965.78,-44705.242,17919.76,-14854.614,32101.523,2701.1719,-11371.664,42608.848
1300270.9791887985,-56985.76,-44725.3,17904.785,-14855.388,32086.02,2692.3015,-11374.064,42209.8
1300270.983188795,-57018.273,-44752.688,17883.504,-14853.394,32055.422,2680.5828,-11379.721,41824.87
1300270.9871887912,-57019.29,-44753.62,17872.844,-14853.354,32061.443,2681.6406,-11384.399,41986.777
1300270.9911887876,-56988.406,-44727.46,17885.377,-14853.882,32091.594,2697.0623,-11380.859,42453.656
1300270.9951887839,-56965.78,-44705.566,17915.486,-14855.591,32098.146,2701.538,-11379.843,42599.324
1300270.9991887803,-56984.17,-44721.03,17901.287,-14857.707,32075.766,2691.6099,-11383.017,42179.605
1300271.0031887766,-57023.766,-44753.664,17868.693,-14858.236,32056.682,2681.5593,-11385.336,41800.78
1300271.007188773,-57026.855,-44756.633,17863.12,-14856.975,32068.93,2684.4077,-11385.783,41954.305
1300271.0111887692,-56998.21,-44740.36,17893.025,-14855.307,32094.729,2697.0215,-11385.051,42434.652
1300271.0151887657,-56981.934,-44721.03,17917.277,-14856.73,32101.4,2699.992,-11386.23,42587.688
1300271.0191887622,-56995.484,-44733.36,17896.322,-14860.067,32076.58,2689.087,-11389.079,42173.992
1300271.0231887584,-57027.062,-44764.977,17867.555,-14860.718,32051.922,2680.2979,-11389.323,41760.785
1300271.0271887549,-57036.01,-44771.973,17865.56,-14859.009,32056.438,2689.0464,-11384.685,41959.473
1300271.031188751,-57012.207,-44744.426,17892.416,-14859.579,32081.219,2701.7822,-11380.859,42446.25
1300271.0351887476,-56987.754,-44720.906,17910.93,-14860.596,32091.39,2703.2878,-11379.232,42616.17
1300271.0391887438,-57004.152,-44736.043,17902.67,-14862.102,32072.227,2694.1326,-11380.656,42237.508
1300271.0431887403,-57039.27,-44765.707,17871.582,-14860.2705,32052.857,2685.0586,-11379.802,41857.625
1300271.0471887365,-57042.562,-44768.11,17864.746,-14857.666,32064.17,2688.5173,-11377.808,42017.62
1300271.051188733,-57006.227,-44739.83,17889.73,-14857.3,32094.484,2700.3582,-11377.279,42453.41
1300271.0551887294,-56979.453,-44716.35,17914.998,-14857.788,32102.541,2705.6072,-11376.181,42568.484
1300271.0591887257,-57003.582,-44734.457,17904.867,-14858.725,32079.672,2695.6382,-11377.116,42208.742
1300271.0631887221,-57039.797,-44765.992,17881.389,-14858.887,32057.334,2686.076,-11378.744,41818.562
1300271.0671887184,-57040.285,-44768.516,17875.041,-14858.154,32068.156,2691.162,-11380.453,41975.87
1300271.0711887148,-56998.66,-44734.5,17894.857,-14855.429,32093.223,2702.4333,-11379.069,42485.965
1300271.075188711,-56973.758,-44709.516,17919.475,-14855.713,32098.756,2707.9673,-11375.448,42625.895
1300271.0791887075,-57002.523,-44737.633,17906.941,-14858.969,32078.207,2699.3003,-11374.594,42200.766
1300271.0831887037,-57041.344,-44769.043,17879.883,-14858.806,32059.572,2688.558,-11373.82,41807.902
1300271.0871887002,-57044.11,-44774.414,17875.977,-14857.951,32065.35,2691.203,-11373.129,41968.06
1300271.0911886967,-57018.066,-44743.855,17895.955,-14856.934,32090.617,2703.6948,-11372.966,42456.18
1300271.095188693,-56993.41,-44720.176,17916.3,-14859.416,32096.07,2708.1707,-11374.512,42598.836
1300271.0991886894,-57003.867,-44733.848,17907.309,-14859.091,32065.47,2696.981,-11376.953,42192.3
1300271.1031886856,-57034.1,-44761.395,17882.854,-14857.016,32049.846,2691.4062,-11372.437,41839.887
1300271.107188682,-57041.344,-44765.26,17870.605,-14857.056,32065.35,2697.2656,-11370.077,41992.516
1300271.1111886783,-57018.273,-44740.684,17896.078,-14859.294,32093.303,2707.601,-11369.873,42456.34
1300271.1151886748,-56989.586,-44717.043,17918.865,-14858.969,32102.092,2711.1003,-11369.263,42612.754
1300271.119188671,-56993.492,-44726.766,17910.727,-14857.829,32084.107,2699.3816,-11370.199,42205.61
1300271.1231886675,-57024.293,-44754.598,17883.26,-14856.079,32068.197,2690.3892,-11369.182,41826.66
1300271.127188664,-57029.258,-44757.04,17873.535,-14854.94,32076.865,2694.6208,-11367.595,41995.85
1300271.1311886602,-57003.34,-44732.383,17902.588,-14854.289,32101.4,2705.0376,-11366.252,42461.184
1300271.1351886566,-56982.75,-44716.35,17929.363,-14855.185,32109.54,2706.7466,-11368.083,42615.074
1300271.1391886529,-57003.176,-44732.344,17920.492,-14855.51,32085.816,2694.4988,-11367.31,42194.133
1300271.1431886493,-57039.55,-44761.598,17889.242,-14855.591,32065.023,2685.1807,-11367.432,41832.766
1300271.1471886456,-57046.387,-44763.875,17878.785,-14854.98,32071.412,2690.1855,-11368.571,42010.62
1300271.151188642,-57018.23,-44741.09,17900.635,-14855.917,32094.2,2703.1658,-11367.676,42492.066
1300271.1551886383,-56993.004,-44722.74,17921.021,-14856.567,32111.451,2706.421,-11369.914,42620.28
1300271.1591886347,-57007.0,-44736.37,17911.133,-14856.608,32090.293,2695.3533,-11373.82,42233.4
1300271.1631886312,-57039.43,-44768.027,17894.287,-14854.818,32064.047,2686.483,-11375.773,41886.15
1300271.1671886274,-57039.348,-44763.957,17888.55,-14851.848,32075.969,2690.1855,-11375.326,42033.33
1300271.1711886239,-57004.723,-44731.49,17910.889,-14849.121,32104.006,2701.7822,-11375.082,42446.13
1300271.17518862,-56986.37,-44715.047,17932.088,-14848.999,32112.916,2701.294,-11374.96,42551.72
1300271.1791886166,-57008.465,-44738.16,17920.695,-14849.609,32084.19,2689.5347,-11376.791,42201.254
1300271.1831886128,-57043.05,-44768.92,17887.533,-14851.034,32067.22,2683.9194,-11379.599,41848.676
1300271.1871886093,-57046.55,-44768.68,17884.848,-14850.79,32084.84,2690.9587,-11379.15,41985.19
1300271.1911886055,-57018.965,-44741.336,17915.203,-14850.017,32111.654,2701.538,-11379.069,42452.477
1300271.195188602,-56992.15,-44719.117,17932.576,-14850.83,32120.12,2704.9968,-11379.68,42628.215
1300271.1991885984,-57009.277,-44736.613,17916.18,-14853.882,32090.21,2695.516,-11382.935,42204.145
1300271.2031885947,-57044.273,-44768.15,17887.086,-14854.574,32066.285,2687.4187,-11382.284,41823.285
1300271.2071885911,-57047.49,-44770.59,17885.701,-14851.5625,32076.092,2692.9932,-11377.523,41983.074
1300271.2111885874,-57020.1,-44749.15,17918.254,-14850.952,32100.709,2705.6072,-11374.187,42422.28
1300271.2151885838,-56998.535,-44729.656,17937.703,-14851.726,32107.383,2710.9783,-11375.204,42569.418
1300271.21918858,-57017.863,-44741.902,17922.69,-14852.377,32082.48,2701.538,-11377.6045,42198.773
1300271.2231885765,-57052.004,-44772.543,17901.855,-14852.336,32059.693,2692.2202,-11379.232,41857.953
1300271.2271885728,-57051.68,-44771.934,17889.12,-14851.074,32072.104,2697.2656,-11380.859,42037.76
1300271.2311885692,-57017.824,-44741.457,17917.604,-14848.674,32098.715,2706.1768,-11381.47,42487.633
1300271.2351885657,-56994.1,-44725.223,17943.727,-14848.43,32106.447,2709.7983,-11381.348,42603.68
1300271.239188562,-57017.375,-44749.594,17928.02,-14848.511,32079.266,2701.4976,-11383.301,42194.742
1300271.2431885584,-57055.543,-44776.855,17892.537,-14847.453,32062.502,2692.4236,-11385.661,41836.223
1300271.2471885546,-57054.2,-44774.375,17901.164,-14846.191,32075.074,2698.2017,-11383.993,42010.133
1300271.251188551,-57028.445,-44746.95,17920.207,-14845.947,32105.021,2710.8154,-11381.958,42464.152
1300271.2551885473,-57005.047,-44722.78,17934.49,-14846.313,32110.88,2714.03,-11383.423,42560.02
1300271.2591885438,-57019.816,-44742.473,17929.81,-14846.965,32087.852,2703.41,-11385.864,42165.57
1300271.26318854,-57057.78,-44774.293,17902.752,-14844.849,32076.906,2696.2485,-11386.149,41856.65
1300271.2671885365,-57058.555,-44774.66,17898.846,-14844.971,32090.984,2702.7996,-11382.976,42023.03
1300271.271188533,-57020.996,-44753.46,17925.781,-14845.947,32104.697,2713.3384,-11381.186,42469.81
1300271.2751885292,-57000.0,-44731.61,17945.516,-14846.762,32115.602,2717.041,-11380.981,42618.734
1300271.2791885256,-57021.08,-44748.332,17928.467,-14846.518,32092.082,2706.6245,-11381.226,42185.71
1300271.2831885219,-57059.9,-44775.92,17901.775,-14845.663,32068.523,2699.5444,-11380.493,41849.164
1300271.2871885183,-57058.23,-44775.92,17899.7,-14844.279,32078.898,2705.4443,-11378.337,42012.125
1300271.2911885146,-57023.97,-44746.746,17927.37,-14844.849,32108.521,2715.4136,-11378.296,42460.33
1300271.295188511,-56997.684,-44725.223,17948.365,-14844.035,32114.422,2718.5466,-11376.059,42592.246
1300271.2991885075,-57014.445,-44741.496,17931.479,-14843.832,32097.332,2709.6355,-11375.977,42192.465
1300271.3031885037,-57056.113,-44774.17,17905.477,-14843.059,32071.574,2700.0732,-11378.337,41862.996
1300271.3071885002,-57060.63,-44773.766,17906.861,-14840.861,32082.072,2705.9326,-11378.052,42063.234
1300271.3111884964,-57025.84,-44746.992,17936.402,-14841.064,32118.654,2717.733,-11377.523,42509.277
1300271.3151884929,-56999.35,-44730.266,17942.059,-14843.384,32123.373,2720.5405,-11376.303,42627.973
1300271.319188489,-57019.74,-44743.816,17940.023,-14842.001,32097.576,2709.3506,-11375.8955,42189.656
1300271.3231884856,-57057.293,-44774.414,17912.762,-14840.373,32072.389,2702.3926,-11379.232,41813.316
1300271.3271884818,-57062.22,-44779.5,17912.273,-14839.355,32091.39,2710.9375,-11376.547,42019.656
1300271.3311884783,-57031.21,-44751.59,17937.135,-14839.233,32121.096,2722.9412,-11370.891,42490.562
1300271.3351884747,-57005.58,-44725.18,17956.666,-14840.983,32128.338,2725.7896,-11369.833,42637.695
1300271.339188471,-57018.35,-44741.863,17946.736,-14841.309,32104.045,2715.0066,-11372.844,42234.05
1300271.3431884674,-57047.285,-44764.57,17922.404,-14838.42,32084.475,2705.77,-11375.814,41880.777
1300271.3471884637,-57052.086,-44765.383,17913.371,-14838.013,32091.188,2711.7515,-11376.14,42017.457
1300271.3511884601,-57024.66,-44743.734,17936.646,-14838.583,32110.027,2722.412,-11377.6045,42461.426
1300271.3551884564,-57005.656,-44732.22,17965.984,-14840.251,32113.81,2724.691,-11377.768,42589.234
1300271.3591884528,-57027.47,-44760.254,17959.637,-14838.542,32087.77,2712.8093,-11376.343,42196.777
1300271.363188449,-57056.887,-44780.926,17919.922,-14836.426,32073.283,2704.9155,-11377.441,41869.957
1300271.3671884455,-57060.426,-44776.33,17915.121,-14836.467,32092.611,2709.4727,-11379.558,42058.92
1300271.371188442,-57033.734,-44757.855,17945.15,-14835.693,32116.781,2721.0288,-11378.866,42497.273
1300271.3751884382,-57010.582,-44743.9,17970.256,-14836.874,32117.473,2725.0571,-11374.797,42558.72
1300271.3791884347,-57024.17,-44758.383,17955.893,-14837.606,32099.162,2717.326,-11373.861,42199.098
1300271.383188431,-57063.273,-44787.76,17925.496,-14836.508,32077.963,2707.8857,-11377.523,41891.44
1300271.3871884274,-57066.613,-44791.18,17916.3,-14836.142,32093.059,2711.1003,-11383.627,42048.91
1300271.3911884236,-57032.434,-44757.57,17946.209,-14836.508,32116.863,2718.9941,-11385.905,42486.574
1300271.39518842,-57009.766,-44738.324,17969.523,-14837.28,32122.52,2721.8018,-11384.074,42606.445
1300271.3991884163,-57028.16,-44761.516,17949.748,-14837.932,32102.215,2712.9314,-11382.65,42223.88
1300271.4031884128,-57067.1,-44797.895,17916.871,-14835.327,32087.688,2705.119,-11382.446,41892.418
1300271.4071884092,-57074.098,-44800.254,17917.889,-14835.327,32095.582,2708.781,-11384.155,42048.098
1300271.4111884055,-57045.13,-44769.004,17947.021,-14835.9375,32116.66,2719.3604,-11384.196,42479.82
1300271.415188402,-57018.8,-44747.723,17966.756,-14836.548,32120.484,2724.6501,-11381.47,42584.758
1300271.4191883982,-57031.58,-44761.434,17953.736,-14836.182,32096.193,2714.315,-11384.155,42208.336
1300271.4231883946,-57063.07,-44786.46,17925.701,-14835.083,32086.793,2705.2817,-11388.103,41870.77
1300271.4271883909,-57073.69,-44795.574,17915.61,-14836.426,32095.297,2709.066,-11387.98,42074.18
1300271.4311883873,-57047.16,-44773.562,17936.768,-14836.101,32118.328,2718.7908,-11386.068,42489.46
1300271.4351883836,-57015.383,-44751.508,17965.17,-14834.27,32121.787,2722.6562,-11384.97,42587.402
1300271.43918838,-57029.094,-44763.918,17952.23,-14833.659,32101.768,2709.5542,-11388.184,42195.72
1300271.4431883765,-57069.99,-44794.8,17925.578,-14831.909,32094.564,2699.707,-11392.863,41867.027
1300271.4471883727,-57074.14,-44797.773,17922.445,-14831.096,32109.621,2705.0376,-11394.409,42023.844
1300271.4511883692,-57046.387,-44774.17,17947.307,-14831.991,32126.67,2715.9832,-11391.724,42431.766
1300271.4551883654,-57029.83,-44750.977,17966.229,-14833.984,32126.426,2717.2852,-11390.381,42559.855
1300271.459188362,-57042.402,-44766.684,17960.613,-14834.961,32095.256,2707.6824,-11391.154,42195.883
1300271.4631883581,-57071.777,-44793.254,17919.963,-14833.537,32075.93,2701.3755,-11392.863,41884.24
1300271.4671883546,-57074.707,-44795.492,17923.34,-14832.194,32092.043,2706.3396,-11396.362,42073.285
1300271.4711883508,-57044.11,-44772.22,17953.533,-14834.758,32118.246,2717.0005,-11395.508,42519.086
1300271.4751883473,-57022.87,-44764.65,17968.914,-14834.961,32128.664,2717.041,-11392.578,42575.97
1300271.4791883437,-57045.332,-44786.215,17954.51,-14834.961,32096.477,2708.252,-11390.91,42155.68
1300271.48318834,-57079.51,-44810.305,17931.885,-14834.555,32071.086,2702.7588,-11390.056,41859.78
1300271.4871883364,-57078.207,-44813.316,17932.984,-14833.171,32084.596,2708.374,-11390.829,42065.594
1300271.4911883327,-57051.68,-44789.473,17954.346,-14832.805,32111.451,2718.628,-11389.16,42470.83
1300271.4951883291,-57034.793,-44775.066,17972.78,-14835.287,32113.852,2721.3542,-11388.51,42591.96
1300271.4991883254,-57050.99,-44789.918,17956.91,-14835.693,32088.34,2709.7576,-11391.724,42177.33
1300271.5031883218,-57080.566,-44812.664,17932.82,-14834.839,32068.482,2702.8403,-11392.294,41869.914
1300271.507188318,-57080.61,-44808.105,17930.217,-14834.188,32085.125,2709.3914,-11388.835,42059.695
1300271.5111883145,-57045.13,-44777.184,17958.7,-14832.927,32115.236,2719.035,-11387.289,42520.996
1300271.515188311,-57016.562,-44759.117,17977.54,-14831.177,32123.537,2717.2852,-11388.51,42592.246
1300271.5191883072,-57034.305,-44764.242,17968.588,-14829.916,32098.023,2704.956,-11392.09,42192.18
1300271.5231883037,-57075.24,-44794.477,17937.703,-14831.177,32076.01,2693.685,-11398.845,41855.836
1300271.5271883,-57072.797,-44802.734,17935.629,-14830.485,32090.252,2698.405,-11400.1875,42030.316
1300271.5311882964,-57041.465,-44774.902,17961.996,-14832.113,32113.527,2709.188,-11401.042,42434.41
1300271.5351882926,-57021.566,-44762.086,17979.086,-14834.514,32118.979,2713.0535,-11401.896,42566.043
1300271.539188289,-57048.06,-44783.895,17960.531,-14836.06,32093.547,2702.4333,-11402.385,42173.3
1300271.5431882853,-57080.773,-44806.766,17933.879,-14835.612,32075.36,2695.6382,-11400.351,41878.297
1300271.5471882818,-57080.773,-44796.51,17949.219,-14835.653,32093.832,2704.3457,-11397.177,42089.805
1300271.5511882782,-57052.98,-44764.445,17960.37,-14836.914,32114.584,2716.6343,-11396.647,42518.516
1300271.5551882745,-57035.24,-44745.28,17968.385,-14837.24,32116.334,2717.2446,-11394.9795,42563.723
1300271.559188271,-57054.73,-44764.406,17958.416,-14837.321,32095.988,2706.9907,-11394.491,42175.54
1300271.5631882672,-57089.438,-44795.656,17935.588,-14835.979,32081.828,2700.1548,-11396.322,41873.617
1300271.5671882636,-57090.13,-44801.473,17930.705,-14836.142,32102.5,2707.072,-11396.933,42085.53
1300271.5711882599,-57059.41,-44780.4,17958.375,-14835.897,32126.955,2717.733,-11400.757,42526.695
1300271.5751882563,-57037.395,-44761.395,17978.068,-14836.589,32122.52,2716.7969,-11403.564,42570.68
1300271.5791882526,-57057.414,-44774.13,17957.56,-14836.874,32097.738,2704.9155,-11405.314,42178.793
1300271.583188249,-57092.613,-44799.93,17925.66,-14838.054,32076.54,2697.5913,-11405.925,41883.79
1300271.5871882455,-57090.496,-44792.277,17934.49,-14835.246,32100.018,2704.1016,-11401.042,42062.46
1300271.5911882417,-57057.54,-44773.48,17961.59,-14835.083,32115.357,2715.3728,-11395.264,42490.277
1300271.5951882382,-57036.83,-44757.977,17981.08,-14836.02,32104.656,2717.0818,-11395.63,42578.98
1300271.5991882344,-57064.17,-44773.848,17961.14,-14835.368,32081.951,2706.3396,-11398.234,42183.676
1300271.603188231,-57099.285,-44803.71,17932.861,-14835.693,32069.297,2699.4224,-11396.24,41880.82
1300271.6071882271,-57097.617,-44804.445,17932.7,-14836.914,32079.836,2706.0547,-11395.305,42050.863
1300271.6111882236,-57070.76,-44784.996,17960.652,-14838.379,32105.43,2715.21,-11397.055,42467.977
1300271.6151882198,-57052.98,-44774.984,17974.365,-14839.355,32111.574,2714.437,-11399.862,42551.883
1300271.6191882163,-57072.797,-44793.824,17956.625,-14837.24,32093.182,2703.817,-11401.774,42171.715
1300271.6231882127,-57100.996,-44812.215,17942.303,-14833.822,32082.154,2695.15,-11399.618,41877.89
1300271.627188209,-57099.367,-44806.562,17939.941,-14832.927,32101.197,2699.9512,-11396.362,42077.395
1300271.6311882054,-57068.77,-44785.93,17963.746,-14834.066,32121.95,2711.0596,-11394.328,42513.387
1300271.6351882017,-57043.703,-44771.406,17975.912,-14834.351,32122.805,2713.0535,-11394.409,42553.71
1300271.6391881981,-57063.684,-44791.707,17965.252,-14833.74,32097.453,2704.834,-11392.456,42171.836
1300271.6431881944,-57099.49,-44828.29,17941.082,-14832.194,32084.066,2699.0967,-11390.91,41888.957
1300271.6471881908,-57098.594,-44829.348,17944.459,-14831.706,32097.617,2705.485,-11390.056,42072.348
1300271.651188187,-57062.094,-44787.03,17970.623,-14829.265,32128.867,2714.1929,-11391.4795,42538.21
1300271.6551881835,-57040.855,-44762.047,17983.725,-14828.532,32132.082,2710.1238,-11395.305,42592.41
1300271.65918818,-57057.742,-44777.914,17969.605,-14828.491,32110.475,2697.103,-11399.089,42212.445
1300271.6631881762,-57092.246,-44802.492,17946.533,-14828.451,32092.938,2687.622,-11403.28,41912.273
1300271.6671881727,-57091.516,-44806.562,17951.58,-14828.166,32102.703,2694.9463,-11405.478,42097.047
1300271.671188169,-57058.027,-44783.164,17981.324,-14830.282,32127.727,2707.8857,-11404.257,42502.77
1300271.6751881654,-57041.992,-44767.09,17998.78,-14831.991,32123.861,2710.2866,-11403.036,42505.21
1300271.6791881616,-57065.473,-44784.383,17979.248,-14832.235,32095.217,2701.9858,-11400.595,42157.84
1300271.683188158,-57093.547,-44813.113,17955.77,-14831.909,32082.48,2697.6726,-11395.915,41911.133
1300271.6871881546,-57091.027,-44810.02,17951.986,-14832.275,32099.447,2705.5664,-11390.585,42103.598
1300271.6911881508,-57060.832,-44785.035,17977.295,-14833.822,32125.205,2715.4136,-11388.916,42548.992
1300271.6951881472,-57041.426,-44779.42,17998.494,-14833.293,32123.658,2714.5183,-11388.306,42596.11
1300271.6991881435,-57064.902,-44798.543,17979.168,-14834.106,32094.24,2701.9043,-11388.103,42233.035
1300271.70318814,-57099.082,-44820.395,17953.37,-14832.927,32075.156,2692.9119,-11388.998,41933.434
1300271.7071881362,-57105.957,-44824.707,17951.213,-14832.724,32087.12,2700.7651,-11390.666,42089.355
1300271.7111881326,-57075.074,-44803.1,17981.771,-14832.438,32113.363,2714.315,-11392.863,42539.062
1300271.7151881289,-57050.457,-44789.51,17997.396,-14833.415,32119.387,2716.7156,-11394.369,42593.426
1300271.7191881253,-57075.36,-44811.32,17979.086,-14835.246,32089.072,2707.3162,-11396.566,42218.344
1300271.7231881218,-57115.93,-44835.492,17950.928,-14835.165,32079.104,2698.4458,-11398.234,41924.562
1300271.727188118,-57115.93,-44826.54,17958.252,-14832.683,32097.617,2701.9858,-11399.374,42081.668
1300271.7311881145,-57082.52,-44799.36,17983.521,-14832.316,32117.596,2710.0425,-11398.967,42487.633
1300271.7351881107,-57058.188,-44783.69,18004.72,-14831.177,32111.33,2711.7515,-11396.647,42543.375
1300271.7391881072,-57074.79,-44803.348,17984.986,-14831.259,32087.16,2702.8809,-11396.037,42175.133
1300271.7431881034,-57098.676,-44826.254,17959.229,-14833.415,32072.877,2694.458,-11400.513,41908.69
1300271.7471881,-57098.96,-44824.3,17958.496,-14834.106,32081.34,2700.521,-11405.478,42109.742
1300271.7511880961,-57069.094,-44798.465,17984.742,-14833.578,32109.824,2711.0596,-11407.715,42525.676
1300271.7551880926,-57048.625,-44786.297,17993.164,-14835.165,32112.102,2710.0017,-11411.906,42551.676
1300271.759188089,-57064.453,-44796.1,17976.238,-14833.008,32088.99,2701.538,-11407.675,42175.863
1300271.7631880853,-57090.21,-44815.96,17962.77,-14832.316,32078.41,2695.7603,-11402.873,41925.008
1300271.7671880818,-57090.863,-44824.016,17965.658,-14832.438,32094.076,2701.9043,-11396.77,42110.23
1300271.771188078,-57065.797,-44798.83,17995.809,-14831.381,32113.16,2712.5652,-11390.747,42541.668
1300271.7751880744,-57048.383,-44782.797,18010.092,-14830.444,32109.172,2711.792,-11389.934,42520.305
1300271.7791880707,-57064.17,-44804.12,17988.934,-14831.421,32085.287,2703.4912,-11389.934,42168.418
1300271.7831880671,-57095.99,-44826.297,17967.611,-14831.421,32075.441,2698.6492,-11391.643,41927.574
1300271.7871880634,-57094.688,-44821.777,17969.441,-14831.665,32096.477,2705.0376,-11394.491,42118.45
1300271.7911880598,-57067.87,-44798.3,17992.066,-14833.944,32130.494,2716.3901,-11396.892,42516.52
1300271.7951880563,-57051.395,-44794.19,18002.727,-14834.555,32126.588,2716.1865,-11400.229,42566.57
1300271.7991880525,-57072.836,-44809.855,17989.178,-14833.862,32092.814,2701.7417,-11405.192,42160.484
1300271.803188049,-57104.777,-44835.98,17964.152,-14831.909,32073.771,2690.9995,-11410.075,41895.67
1300271.8071880452,-57106.242,-44833.54,17969.686,-14831.055,32086.223,2697.754,-11409.953,42088.42
1300271.8111880417,-57072.633,-44806.684,17999.47,-14830.363,32106.854,2708.0486,-11408.61,42463.46
1300271.815188038,-57049.113,-44793.66,18013.307,-14831.015,32108.684,2707.8452,-11408.569,42493.57
1300271.8191880344,-57066.49,-44810.06,17995.443,-14829.794,32094.076,2698.7305,-11404.094,42129.07
1300271.8231880306,-57093.547,-44831.953,17974.61,-14828.9795,32077.557,2693.0747,-11400.31,41869.47
1300271.827188027,-57090.21,-44822.836,17975.465,-14828.329,32091.066,2699.3408,-11399.496,42075.562
1300271.8311880236,-57062.01,-44795.574,17993.49,-14829.55,32114.504,2709.188,-11398.193,42506.062
1300271.8351880198,-57041.953,-44781.535,18012.492,-14829.956,32115.602,2707.6416,-11396.484,42504.19
1300271.8391880163,-57061.73,-44799.24,17998.576,-14828.41,32098.43,2694.8242,-11394.938,42121.094
1300271.8431880125,-57091.797,-44825.523,17974.285,-14827.759,32081.992,2688.1104,-11395.874,41871.582
1300271.847188009,-57089.844,-44822.51,17976.238,-14827.312,32091.188,2692.871,-11399.089,42049.93
1300271.8511880052,-57056.97,-44802.816,17997.559,-14828.9795,32109.213,2704.3865,-11403.361,42516.44
1300271.8551880016,-57046.184,-44789.266,18011.395,-14831.828,32102.621,2704.8748,-11405.925,42511.965
1300271.8591879979,-57070.8,-44805.586,17989.584,-14832.438,32074.342,2696.7773,-11404.094,42133.098
1300271.8631879943,-57102.99,-44829.875,17970.094,-14830.688,32062.297,2691.976,-11400.839,41865.113
1300271.8671879908,-57099.164,-44825.074,17980.754,-14829.55,32083.904,2698.161,-11399.496,42076.66
1300271.871187987,-57061.2,-44799.277,18008.18,-14828.329,32116.822,2707.9673,-11398.601,42518.68
1300271.8751879835,-57050.215,-44789.105,18016.277,-14827.759,32116.457,2707.9673,-11394.694,42539.633
1300271.8791879797,-57070.76,-44801.35,17990.275,-14826.416,32088.787,2701.8638,-11389.648,42146.402
1300271.8831879762,-57096.6,-44823.367,17971.844,-14826.294,32075.807,2696.3298,-11387.045,41895.062
1300271.8871879724,-57093.387,-44828.74,17982.3,-14828.166,32098.268,2698.934,-11390.463,42083.008
1300271.891187969,-57058.555,-44796.715,18004.803,-14829.346,32119.06,2706.3804,-11395.508,42519.004
1300271.8951879651,-57040.69,-44782.797,18007.568,-14832.397,32113.69,2703.817,-11400.676,42521.402
1300271.8991879616,-57068.117,-44819.54,17997.682,-14833.781,32084.799,2695.6787,-11404.175,42125.49
1300271.903187958,-57097.617,-44841.758,17982.504,-14834.555,32070.924,2690.9995,-11405.111,41939.047
1300271.9071879543,-57096.19,-44826.703,17977.824,-14834.433,32082.072,2698.405,-11405.111,42133.344
1300271.9111879508,-57067.223,-44797.934,18003.662,-14832.4795,32106.895,2708.6997,-11401.733,42529.176
1300271.915187947,-57049.727,-44785.645,18013.225,-14832.235,32111.777,2707.8452,-11398.153,42514.445
1300271.9191879435,-57072.754,-44803.426,18013.55,-14831.95,32093.752,2695.2312,-11397.299,42087.402
1300271.9231879397,-57103.844,-44821.414,17980.389,-14827.963,32081.625,2687.2966,-11398.275,41894.574
1300271.9271879361,-57090.09,-44811.65,17983.766,-14826.091,32098.512,2692.1794,-11399.821,42116.293
1300271.9311879324,-57052.29,-44786.055,18015.504,-14826.62,32122.926,2703.9795,-11401.001,42534.71
1300271.9351879288,-57038.496,-44773.926,18025.35,-14827.23,32115.764,2701.945,-11403.931,42532.023
1300271.9391879253,-57067.668,-44799.24,18000.123,-14829.346,32089.764,2688.558,-11407.634,42151.816
1300271.9431879215,-57097.535,-44828.535,17970.338,-14829.956,32076.457,2683.7566,-11407.837,41920.29
1300271.947187918,-57096.805,-44829.47,17984.416,-14830.974,32088.46,2690.7146,-11408.529,42129.844
1300271.9511879142,-57064.293,-44799.03,18015.178,-14830.16,32111.41,2701.5789,-11405.559,42530.07
1300271.9551879107,-57049.074,-44783.69,18027.588,-14831.828,32110.8,2700.7244,-11405.722,42527.14
1300271.959187907,-57072.797,-44805.79,18004.07,-14833.049,32087.525,2688.8022,-11408.366,42154.297
1300271.9631879034,-57102.258,-44831.79,17977.824,-14831.421,32073.0,2681.6,-11409.221,41902.26
1300271.9671878996,-57100.793,-44829.754,17988.404,-14829.265,32086.549,2688.436,-11406.372,42081.055
1300271.971187896,-57061.73,-44797.0,18014.16,-14828.003,32114.096,2700.236,-11403.769,42527.957
1300271.9751878926,-57042.32,-44779.258,18031.373,-14827.312,32113.771,2700.2769,-11403.891,42523.844
1300271.9791878888,-57065.51,-44801.84,18006.836,-14827.23,32091.39,2687.0933,-11407.349,42148.355
1300271.9831878853,-57097.453,-44828.168,17985.922,-14827.759,32075.93,2678.955,-11409.994,41934.53
1300271.9871878815,-57095.867,-44820.027,17988.037,-14828.125,32089.357,2686.076,-11410.156,42130.574
1300271.991187878,-57062.22,-44796.227,18015.584,-14827.922,32109.66,2695.0684,-11407.512,42535.848
1300271.9951878742,-57046.348,-44790.527,18029.785,-14827.515,32103.03,2692.7898,-11408.041,42509.48
1300271.9991878706,-57073.938,-44816.33,18012.248,-14826.864,32080.445,2683.96,-11408.691,42119.875
1300272.0031878669,-57097.008,-44831.504,17997.438,-14824.463,32078.371,2683.2683,-11404.582,41920.004
1300272.0071878633,-57086.02,-44824.344,18007.406,-14825.073,32099.0,2692.5457,-11401.571,42137.777
1300272.0111878598,-57060.59,-44800.906,18025.514,-14824.87,32121.217,2702.2705,-11400.391,42574.504
1300272.015187856,-57044.92,-44789.51,18035.686,-14826.538,32120.646,2699.829,-11402.548,42580.28
1300272.0191878525,-57072.676,-44809.734,18014.648,-14826.335,32094.523,2689.6567,-11404.663,42190.797
1300272.0231878487,-57104.98,-44835.33,17989.705,-14825.399,32081.828,2683.065,-11406.291,41959.88
1300272.0271878452,-57099.367,-44832.645,17994.873,-14824.829,32095.744,2687.2153,-11408.813,42125.652
1300272.0311878414,-57073.527,-44816.0,18022.38,-14827.2705,32115.846,2698.527,-11409.384,42515.625
1300272.035187838,-57057.05,-44805.176,18035.482,-14827.963,32109.904,2700.643,-11406.82,42520.47
1300272.0391878341,-57077.312,-44817.426,18020.428,-14827.148,32091.717,2692.9119,-11403.85,42165.895
1300272.0431878306,-57109.66,-44838.504,17997.682,-14825.725,32077.434,2689.616,-11401.449,41956.79
1300272.047187827,-57103.926,-44830.566,18003.662,-14824.585,32087.729,2699.585,-11397.421,42187.418
1300272.0511878233,-57069.46,-44801.68,18020.143,-14822.836,32118.125,2711.141,-11397.543,42580.28
1300272.0551878198,-57056.562,-44788.37,18037.436,-14823.08,32113.16,2708.5369,-11398.071,42557.09
1300272.059187816,-57077.15,-44811.08,18017.293,-14824.26,32089.234,2697.4285,-11399.089,42169.516
1300272.0631878125,-57099.164,-44840.13,17989.828,-14827.108,32072.104,2694.4988,-11400.31,41964.03
1300272.0671878087,-57100.18,-44833.375,18006.715,-14826.701,32090.17,2700.9277,-11399.821,42181.113
1300272.0711878052,-57074.87,-44809.938,18027.182,-14827.678,32112.307,2710.49,-11401.205,42567.508
1300272.0751878016,-57062.01,-44797.69,18038.453,-14828.207,32107.79,2708.2927,-11404.257,42525.027
1300272.0791877978,-57085.207,-44817.18,18019.41,-14826.538,32085.084,2696.2485,-11407.756,42162.723
1300272.0831877943,-57112.266,-44839.152,18004.518,-14825.399,32072.268,2690.7554,-11408.8545,41943.523
1300272.0871877905,-57103.723,-44835.695,18015.828,-14824.463,32087.484,2696.7368,-11408.529,42169.72
1300272.091187787,-57073.45,-44807.17,18031.576,-14824.463,32114.828,2704.0203,-11408.081,42587.242
1300272.0951877832,-57058.594,-44796.797,18041.463,-14824.504,32108.195,2701.5789,-11408.732,42544.434
1300272.0991877797,-57086.305,-44822.31,18016.236,-14822.0625,32088.137,2695.6787,-11404.989,42198.445
1300272.103187776,-57113.566,-44840.617,17998.861,-14823.446,32078.533,2692.9119,-11404.338,41994.1
1300272.1071877724,-57101.523,-44828.535,18006.959,-14822.551,32094.443,2699.2188,-11405.07,42191.53
1300272.1111877689,-57062.297,-44798.098,18032.064,-14821.818,32115.725,2709.2693,-11404.46,42624.35
1300272.115187765,-57051.19,-44792.36,18046.795,-14821.086,32112.916,2709.3914,-11402.385,42549.562
1300272.1191877616,-57082.113,-44820.68,18024.617,-14822.0625,32086.71,2698.12,-11407.919,42164.88
1300272.1231877578,-57117.35,-44849.082,17996.826,-14823.649,32073.61,2689.1685,-11412.191,41956.992
1300272.1271877543,-57117.066,-44846.316,18003.5,-14824.707,32093.264,2692.9932,-11416.26,42155.6
1300272.1311877505,-57082.24,-44815.227,18032.512,-14825.033,32123.617,2702.23,-11418.701,42576.418
1300272.135187747,-57064.617,-44802.33,18039.47,-14824.097,32106.324,2702.9624,-11418.335,42539.188
1300272.1391877432,-57085.613,-44824.18,18021.77,-14822.673,32086.305,2695.7195,-11418.01,42162.395
1300272.1431877397,-57109.66,-44849.203,17994.1,-14821.208,32080.201,2692.0166,-11415.771,41997.926
1300272.1471877361,-57100.832,-44839.64,18006.307,-14818.4,32096.232,2698.812,-11411.499,42201.58
1300272.1511877324,-57069.094,-44807.414,18036.703,-14819.133,32118.246,2707.8452,-11410.36,42572.31
1300272.1551877288,-57054.895,-44795.168,18043.54,-14820.028,32115.44,2703.817,-11414.877,42503.094
1300272.159187725,-57085.816,-44821.98,18020.06,-14820.3125,32090.17,2692.505,-11417.196,42122.477
1300272.1631877215,-57123.78,-44850.344,17998.82,-14820.435,32082.033,2690.0635,-11419.067,41937.297
1300272.1671877177,-57114.625,-44843.387,18004.883,-14821.127,32093.752,2699.1375,-11419.353,42154.785
1300272.1711877142,-57077.8,-44810.71,18029.094,-14821.493,32119.67,2708.781,-11419.108,42529.055
1300272.1751877104,-57063.4,-44800.17,18047.934,-14821.777,32116.863,2707.1128,-11416.789,42514.406
1300272.179187707,-57085.777,-44821.414,18033.162,-14820.842,32094.688,2696.574,-11415.854,42152.344
1300272.1831877034,-57113.16,-44844.89,18000.732,-14818.4,32079.836,2689.8193,-11416.098,41957.887
1300272.1871876996,-57105.47,-44840.047,18010.54,-14817.953,32092.49,2696.167,-11413.249,42163.492
1300272.191187696,-57076.99,-44818.77,18040.365,-14819.011,32115.195,2707.357,-11409.587,42530.273
1300272.1951876923,-57068.035,-44806.316,18048.055,-14821.086,32113.04,2707.072,-11406.86,42487.223
1300272.1991876888,-57093.426,-44822.51,18027.1,-14820.761,32088.176,2696.981,-11407.1455,42123.17
1300272.203187685,-57123.984,-44849.324,18006.348,-14819.58,32075.766,2690.1855,-11414.022,41931.64
1300272.2071876815,-57117.395,-44841.188,18012.248,-14817.18,32096.03,2695.9636,-11418.986,42173.3
1300272.2111876777,-57086.266,-44812.867,18038.086,-14816.122,32118.246,2705.0376,-11419.353,42554.73
1300272.2151876742,-57070.56,-44800.496,18049.643,-14815.186,32117.434,2703.5728,-11420.492,42514.08
1300272.2191876706,-57089.805,-44819.785,18033.773,-14815.023,32093.14,2690.8367,-11422.038,42177.777
1300272.2231876669,-57111.004,-44845.543,18018.107,-14813.3955,32086.102,2685.6284,-11423.096,41978.844
1300272.2271876633,-57106.49,-44837.688,18026.287,-14813.762,32108.277,2693.1968,-11425.741,42186.65
1300272.2311876595,-57079.43,-44807.332,18042.156,-14814.494,32121.543,2702.9624,-11424.398,42565.066
1300272.235187656,-57073.242,-44806.805,18046.672,-14815.796,32114.178,2702.1484,-11421.387,42472.86
1300272.2391876522,-57102.01,-44838.95,18031.414,-14816.61,32091.27,2692.1387,-11422.607,42136.395
1300272.2431876487,-57117.96,-44853.76,18016.236,-14814.209,32079.875,2689.3718,-11423.3,41977.742
1300272.247187645,-57108.848,-44836.914,18016.766,-14813.11,32098.594,2695.0684,-11425.171,42186.117
1300272.2511876414,-57079.266,-44803.305,18048.87,-14812.541,32113.771,2703.817,-11424.805,42595.543
1300272.2551876379,-57070.273,-44789.676,18053.549,-14812.948,32109.742,2700.8057,-11424.316,42504.598
1300272.259187634,-57092.125,-44817.223,18036.174,-14812.866,32088.584,2688.8428,-11425.741,42144.938
1300272.2631876306,-57116.62,-44842.695,18017.62,-14813.11,32075.318,2681.9255,-11431.112,41966.797
1300272.2671876268,-57111.492,-44837.812,18020.996,-14813.3955,32086.875,2687.9478,-11435.629,42141.684
1300272.2711876233,-57087.73,-44819.01,18040.162,-14814.941,32109.295,2700.643,-11434.814,42558.066
1300272.2751876195,-57077.15,-44811.605,18054.646,-14815.634,32100.139,2700.7651,-11433.432,42516.074
1300272.279187616,-57098.88,-44831.83,18031.209,-14816.162,32078.371,2692.0166,-11431.396,42114.707
1300272.2831876122,-57127.85,-44856.367,18014.12,-14815.227,32070.03,2688.3545,-11432.455,41922.65
1300272.2871876087,-57117.555,-44845.137,18019.328,-14813.151,32090.21,2694.336,-11432.292,42164.227
1300272.2911876051,-57083.133,-44821.98,18040.691,-14812.704,32113.12,2701.7417,-11433.472,42574.75
1300272.2951876014,-57070.19,-44813.76,18053.752,-14812.582,32109.254,2699.4224,-11432.536,42504.11
1300272.2991875978,-57091.96,-44835.574,18033.977,-14811.728,32085.451,2688.7207,-11429.118,42162.477
1300272.303187594,-57115.52,-44852.95,18013.143,-14809.855,32078.695,2684.6924,-11425.497,42010.742
1300272.3071875905,-57109.418,-44848.797,18028.32,-14810.344,32094.117,2692.0166,-11422.7705,42206.95
1300272.3111875867,-57079.227,-44821.94,18053.264,-14811.361,32115.725,2701.538,-11421.713,42578.816
1300272.3151875832,-57063.844,-44815.633,18057.293,-14812.297,32107.057,2698.812,-11425.619,42460.695
1300272.3191875794,-57080.773,-44834.72,18039.998,-14813.07,32088.746,2687.9478,-11427.734,42111.656
1300272.323187576,-57105.918,-44857.465,18021.363,-14810.873,32080.324,2683.838,-11429.6875,41953.37
1300272.3271875724,-57098.43,-44847.168,18031.861,-14810.141,32097.658,2689.4531,-11432.902,42204.875
1300272.3311875686,-57072.227,-44817.996,18054.484,-14811.117,32118.37,2696.0857,-11435.791,42580.12
1300272.335187565,-57061.85,-44810.26,18064.453,-14811.401,32110.271,2694.865,-11433.391,42518.92
1300272.3391875613,-57082.4,-44831.79,18048.137,-14808.838,32086.508,2688.1511,-11430.502,42186.65
1300272.3431875578,-57109.906,-44857.668,18029.135,-14806.845,32075.441,2686.5642,-11428.101,41986.246
1300272.347187554,-57107.832,-44854.29,18022.176,-14807.536,32092.938,2693.5222,-11429.565,42159.586
1300272.3511875505,-57083.58,-44824.547,18052.205,-14808.838,32113.04,2698.0796,-11433.879,42533.0
1300272.3551875467,-57068.36,-44814.375,18064.494,-14809.367,32116.822,2695.394,-11435.019,42491.824
1300272.3591875432,-57089.234,-44829.348,18046.428,-14808.635,32098.756,2686.483,-11432.129,42162.477
1300272.3631875396,-57116.293,-44846.68,18021.973,-14807.902,32089.926,2683.1055,-11429.932,42016.97
1300272.3671875359,-57104.29,-44841.023,18032.959,-14807.211,32109.701,2691.162,-11431.723,42262.535
1300272.3711875323,-57074.668,-44814.74,18056.479,-14808.716,32129.232,2698.12,-11433.798,42622.805
1300272.3751875286,-57066.406,-44804.85,18065.43,-14808.554,32114.584,2695.6787,-11436.117,42491.13
1300272.379187525,-57098.227,-44825.48,18047.566,-14810.669,32090.414,2683.96,-11439.657,42130.21
1300272.3831875212,-57125.082,-44854.492,18027.547,-14810.629,32078.615,2678.1414,-11441.65,41952.68
1300272.3871875177,-57114.098,-44848.39,18040.283,-14810.425,32091.96,2685.8318,-11440.959,42229.574
1300272.391187514,-57084.598,-44822.754,18064.9,-14810.222,32113.486,2697.754,-11436.605,42623.496
1300272.3951875104,-57076.17,-44813.4,18068.28,-14809.448,32115.316,2697.3064,-11434.652,42532.594
1300272.3991875069,-57093.957,-44833.62,18043.133,-14810.385,32091.39,2686.1167,-11437.256,42154.5
1300272.403187503,-57115.316,-44859.297,18027.223,-14810.832,32076.418,2679.9724,-11440.918,41965.7
1300272.4071874996,-57110.56,-44849.734,18043.945,-14809.733,32087.729,2686.1167,-11444.662,42184.082
1300272.4111874958,-57085.734,-44827.312,18066.57,-14810.385,32110.11,2694.1733,-11445.557,42533.652
1300272.4151874923,-57076.38,-44824.06,18073.04,-14810.71,32103.762,2691.4878,-11445.028,42464.64
1300272.4191874885,-57096.07,-44843.63,18050.822,-14810.059,32081.422,2682.9429,-11440.186,42150.637
1300272.423187485,-57119.062,-44861.53,18031.494,-14808.92,32078.492,2680.0132,-11434.896,42042.074
1300272.4271874812,-57108.32,-44847.453,18043.742,-14807.373,32097.902,2687.907,-11431.804,42240.52
1300272.4311874777,-57076.01,-44818.523,18075.887,-14807.495,32117.434,2698.12,-11427.124,42574.79
1300272.4351874741,-57067.832,-44809.773,18083.7,-14808.838,32112.754,2694.58,-11424.846,42475.832
1300272.4391874704,-57093.996,-44831.625,18056.967,-14805.542,32088.258,2682.902,-11423.91,42113.895
1300272.4431874668,-57118.004,-44851.117,18029.217,-14804.199,32082.236,2678.06,-11424.602,41990.03
1300272.447187463,-57108.48,-44841.473,18042.928,-14804.932,32097.332,2682.4546,-11430.949,42202.395
1300272.4511874595,-57077.92,-44816.164,18072.266,-14804.77,32120.607,2690.5925,-11437.419,42588.016
1300272.4551874558,-57070.76,-44815.27,18077.475,-14804.77,32114.504,2689.7788,-11439.982,42476.2
1300272.4591874522,-57091.516,-44835.98,18057.943,-14806.193,32088.95,2680.827,-11440.39,42138.918
1300272.4631874487,-57110.68,-44852.785,18040.691,-14807.78,32077.434,2679.1587,-11439.169,42009.766
1300272.467187445,-57103.234,-44848.188,18050.09,-14809.611,32088.87,2686.2388,-11439.819,42197.023
1300272.4711874414,-57072.754,-44823.242,18072.021,-14807.007,32119.264,2696.167,-11437.582,42551.23
1300272.4751874376,-57058.8,-44814.863,18087.85,-14804.729,32114.584,2692.0981,-11435.181,42461.508
1300272.479187434,-57083.62,-44830.977,18067.75,-14802.572,32095.744,2682.8613,-11429.81,42146.65
1300272.4831874303,-57109.457,-44845.625,18044.271,-14800.985,32086.428,2681.193,-11424.846,41998.863
1300272.4871874268,-57100.87,-44841.23,18054.932,-14801.066,32101.115,2685.7505,-11425.944,42176.434
1300272.491187423,-57065.84,-44814.414,18081.502,-14802.124,32120.932,2692.9119,-11425.781,42591.797
1300272.4951874195,-57058.555,-44808.758,18083.334,-14804.159,32117.352,2691.04,-11424.072,42499.066
1300272.499187416,-57088.504,-44833.824,18064.168,-14806.804,32094.443,2680.827,-11430.298,42145.47
1300272.5031874122,-57106.977,-44853.56,18046.55,-14807.129,32079.143,2675.0083,-11437.46,41989.992
1300272.5071874086,-57100.02,-44846.113,18058.676,-14806.641,32095.5,2680.1758,-11440.186,42186.32
1300272.5111874049,-57075.402,-44823.04,18089.234,-14806.519,32121.42,2686.9304,-11442.221,42557.742
1300272.5151874013,-57065.594,-44811.566,18088.664,-14804.362,32114.38,2682.6172,-11441.0,42463.46
1300272.5191873976,-57091.15,-44827.965,18058.676,-14804.24,32091.432,2672.5261,-11440.593,42142.906
1300272.523187394,-57117.23,-44852.297,18047.404,-14803.345,32083.049,2668.2537,-11441.081,42016.113
1300272.5271873903,-57099.855,-44833.66,18059.855,-14800.009,32108.4,2677.653,-11441.528,42244.387
1300272.5311873867,-57061.402,-44804.04,18083.537,-14801.392,32121.299,2688.7207,-11439.779,42574.016
1300272.5351873832,-57052.94,-44803.348,18086.182,-14801.718,32107.342,2686.198,-11437.704,42434.125
1300272.5391873794,-57076.906,-44829.918,18061.809,-14802.409,32094.932,2677.5718,-11436.6455,42098.918
1300272.5431873759,-57101.117,-44847.414,18044.557,-14802.938,32091.229,2675.171,-11437.907,41967.613
1300272.547187372,-57095.094,-44832.156,18055.584,-14803.386,32103.72,2681.6406,-11439.738,42189.25
1300272.5511873686,-57076.38,-44812.867,18085.49,-14805.339,32124.758,2688.558,-11439.413,42540.895
1300272.5551873648,-57073.812,-44820.273,18086.508,-14806.804,32120.566,2682.8613,-11441.122,42369.426
1300272.5591873613,-57097.82,-44842.45,18066.936,-14806.926,32089.072,2673.462,-11442.058,42088.46
1300272.5631873575,-57115.52,-44858.684,18051.799,-14806.112,32081.828,2673.6655,-11438.273,42004.234
1300272.567187354,-57102.336,-44853.883,18063.885,-14806.479,32095.785,2683.6753,-11435.1,42181.766
1300272.5711873504,-57071.574,-44827.19,18090.984,-14807.292,32116.863,2693.9697,-11432.658,42562.176
1300272.5751873467,-57065.918,-44814.25,18103.842,-14808.1875,32113.81,2690.6333,-11431.641,42468.996
1300272.5791873431,-57086.875,-44834.027,18075.643,-14807.292,32091.717,2679.5654,-11429.606,42134.48
1300272.5831873394,-57106.773,-44850.75,18050.66,-14806.152,32088.746,2678.2634,-11426.147,42001.1
1300272.5871873358,-57099.773,-44844.566,18058.96,-14806.967,32106.691,2685.3843,-11426.433,42195.844
1300272.591187332,-57075.195,-44826.133,18090.861,-14808.635,32120.2,2692.3015,-11428.467,42511.273
1300272.5951873285,-57066.57,-44820.395,18092.855,-14807.821,32110.19,2688.5986,-11431.601,42437.664
1300272.5991873248,-57091.758,-44846.355,18068.93,-14807.007,32090.21,2678.06,-11433.269,42123.21
1300272.6031873212,-57115.03,-44865.723,18052.328,-14806.967,32083.172,2675.3745,-11436.442,42037.273
1300272.6071873177,-57105.43,-44854.004,18064.088,-14808.798,32100.344,2681.6,-11439.901,42235.11
1300272.611187314,-57081.992,-44830.363,18089.885,-14811.768,32123.943,2688.1511,-11444.906,42546.836
1300272.6151873104,-57080.285,-44833.62,18095.012,-14810.222,32110.312,2680.6235,-11453.491,42394.168
1300272.6191873066,-57113.04,-44867.27,18067.262,-14810.344,32088.014,2666.0564,-11458.293,42044.434
1300272.623187303,-57133.668,-44873.82,18046.59,-14809.367,32083.457,2663.4116,-11457.031,41978.273
1300272.6271872993,-57112.67,-44856.527,18069.05,-14808.35,32102.377,2671.9158,-11451.742,42210.695
1300272.6311872958,-57079.957,-44831.504,18104.29,-14810.222,32131.756,2682.658,-11442.221,42564.008
1300272.635187292,-57073.652,-44829.59,18102.865,-14809.57,32128.744,2683.187,-11432.536,42507.285
1300272.6391872885,-57092.938,-44850.3,18087.281,-14808.31,32107.463,2678.1414,-11427.084,42203.613
1300272.643187285,-57114.22,-44867.8,18056.885,-14807.211,32092.123,2676.8394,-11424.398,42081.42
1300272.6471872812,-57107.992,-44852.176,18067.465,-14806.926,32099.732,2680.5828,-11426.392,42285.523
1300272.6511872776,-57088.176,-44835.652,18089.438,-14806.763,32116.66,2686.1167,-11428.183,42579.266
1300272.6551872739,-57087.73,-44833.62,18091.553,-14807.333,32111.736,2680.2166,-11428.711,42452.19
1300272.6591872703,-57105.105,-44849.49,18075.115,-14806.601,32095.785,2670.2068,-11430.664,42187.5
1300272.6631872666,-57124.434,-44871.664,18060.467,-14808.269,32091.105,2667.9688,-11433.269,42074.344
1300272.667187263,-57113.445,-44862.715,18064.494,-14810.954,32105.55,2674.6826,-11439.128,42314.21
1300272.6711872593,-57087.445,-44833.008,18084.27,-14811.279,32119.71,2683.6753,-11440.1045,42621.055
1300272.6751872557,-57084.555,-44831.3,18093.1,-14811.728,32106.324,2679.2808,-11440.715,42472.902
1300272.6791872522,-57115.113,-44859.863,18075.48,-14808.92,32088.87,2670.451,-11442.099,42147.79
1300272.6831872484,-57131.348,-44879.234,18049.031,-14807.048,32086.305,2665.9343,-11444.214,42028.65
1300272.6871872449,-57109.336,-44863.363,18077.637,-14806.601,32101.36,2671.2646,-11449.545,42266.4
1300272.691187241,-57073.242,-44831.22,18101.441,-14806.112,32124.879,2678.7925,-11449.301,42623.332
1300272.6951872376,-57066.0,-44825.117,18100.871,-14805.664,32121.135,2674.8047,-11447.51,42453.656
1300272.6991872338,-57093.67,-44849.45,18078.328,-14804.565,32103.762,2666.3818,-11445.028,42157.918
1300272.7031872303,-57115.562,-44870.527,18065.47,-14805.136,32091.35,2665.446,-11444.784,42082.074
1300272.7071872265,-57101.81,-44860.883,18078.857,-14804.565,32102.092,2672.7703,-11444.377,42297.0
1300272.711187223,-57077.883,-44841.594,18100.627,-14806.193,32124.473,2678.955,-11441.936,42625.0
1300272.7151872194,-57084.434,-44840.535,18090.414,-14807.658,32116.293,2671.9158,-11439.453,42469.28
1300272.7191872157,-57118.086,-44866.414,18064.209,-14809.978,32090.17,2660.9702,-11438.477,42145.145
1300272.7231872121,-57137.86,-44888.184,18052.205,-14810.059,32083.457,2660.482,-11436.239,42064.25
1300272.7271872084,-57115.93,-44872.887,18059.285,-14810.141,32097.617,2668.7012,-11437.216,42285.36
1300272.7311872048,-57085.246,-44845.625,18092.611,-14810.303,32110.354,2677.3276,-11437.134,42611.41
1300272.735187201,-57084.434,-44849.938,18093.1,-14812.582,32102.174,2672.1191,-11438.843,42455.61
1300272.7391871975,-57110.312,-44874.31,18074.871,-14811.85,32089.723,2663.7778,-11439.372,42191.164
1300272.7431871938,-57122.03,-44886.844,18058.838,-14809.611,32085.979,2661.906,-11442.139,42092.652
1300272.7471871902,-57102.336,-44874.555,18072.186,-14807.821,32104.777,2667.8062,-11441.569,42280.926
1300272.7511871867,-57069.703,-44842.246,18105.916,-14807.211,32122.234,2675.3337,-11437.541,42619.1
1300272.755187183,-57067.914,-44834.23,18103.436,-14804.973,32116.09,2671.7937,-11435.181,42437.055
1300272.7591871794,-57093.957,-44859.54,18083.863,-14805.746,32097.902,2664.4287,-11434.286,42147.22
1300272.7631871756,-57114.543,-44875.285,18055.258,-14806.112,32095.582,2662.3943,-11437.744,42079.387
1300272.767187172,-57104.656,-44864.504,18070.191,-14806.152,32109.336,2666.1377,-11442.668,42306.316
1300272.7711871683,-57079.227,-44838.42,18101.727,-14806.845,32128.215,2673.462,-11445.883,42643.84
1300272.7751871648,-57074.75,-44833.418,18111.166,-14805.949,32119.102,2668.7012,-11447.876,42462.2
1300272.779187161,-57097.617,-44852.582,18072.062,-14803.752,32098.756,2660.1157,-11447.226,42155.6
1300272.7831871575,-57117.676,-44864.18,18058.635,-14802.938,32092.367,2658.4067,-11444.214,42085.492
1300272.787187154,-57109.094,-44857.42,18073.61,-14805.99,32101.156,2666.5447,-11441.203,42278.65
1300272.7911871502,-57086.67,-44837.934,18098.674,-14808.269,32114.38,2676.6357,-11434.326,42588.258
1300272.7951871466,-57083.05,-44838.91,18101.807,-14809.937,32102.174,2674.113,-11430.42,42481.04
1300272.7991871429,-57105.797,-44863.324,18083.7,-14810.263,32082.928,2663.33,-11431.193,42185.953
1300272.8031871393,-57128.785,-44884.766,18068.97,-14809.937,32089.56,2660.3599,-11432.048,42102.664
1300272.8071871356,-57113.77,-44876.914,18079.469,-14808.31,32105.592,2667.1958,-11433.879,42310.67
1300272.811187132,-57083.54,-44845.867,18101.238,-14806.396,32126.385,2673.9097,-11434.692,42620.445
1300272.8151871283,-57075.766,-44836.71,18104.615,-14806.396,32112.957,2668.986,-11437.134,42481.12
1300272.8191871247,-57095.703,-44855.43,18085.45,-14805.461,32092.652,2661.0923,-11434.57,42212.242
1300272.8231871212,-57109.62,-44871.055,18075.195,-14805.298,32085.246,2658.9763,-11432.861,42115.316
1300272.8271871174,-57092.938,-44860.72,18093.22,-14804.647,32095.46,2664.1033,-11433.635,42318.766
1300272.831187114,-57071.414,-44839.07,18116.334,-14805.258,32110.312,2671.9565,-11432.617,42590.25
1300272.8351871101,-57072.797,-44845.5,18115.643,-14804.281,32102.092,2668.0503,-11432.861,42486.53
1300272.8391871066,-57099.895,-44863.363,18085.205,-14802.084,32084.719,2659.9937,-11432.699,42212.566
1300272.8431871028,-57114.953,-44870.484,18069.824,-14800.985,32081.828,2659.017,-11432.17,42111.574
1300272.8471870993,-57098.43,-44858.074,18088.502,-14801.514,32107.098,2665.853,-11434.489,42328.004
1300272.8511870957,-57068.523,-44835.41,18110.434,-14801.514,32128.094,2673.0552,-11435.181,42648.152
1300272.855187092,-57068.32,-44841.27,18117.473,-14802.328,32114.38,2667.1958,-11435.913,42454.59
1300272.8591870884,-57091.84,-44859.54,18097.168,-14800.049,32093.71,2659.5867,-11433.676,42202.395
1300272.8631870847,-57111.004,-44869.184,18087.322,-14799.276,32092.531,2657.959,-11434.978,42110.555
1300272.8671870811,-57103.438,-44859.66,18106.121,-14799.846,32104.045,2665.568,-11436.035,42269.41
1300272.8711870774,-57082.03,-44840.496,18116.375,-14801.2295,32128.42,2674.276,-11436.483,42609.215
1300272.8751870738,-57092.613,-44851.24,18113.484,-14802.206,32113.81,2671.4275,-11435.222,42475.383
1300272.87918707,-57115.805,-44878.582,18097.697,-14803.427,32084.19,2664.917,-11434.367,42194.05
1300272.8831870665,-57125.9,-44882.977,18086.71,-14802.328,32081.951,2666.7075,-11432.333,42139.49
1300272.887187063,-57109.785,-44869.426,18097.494,-14802.002,32095.42,2672.689,-11431.641,42333.945
1300272.8911870592,-57086.914,-44852.54,18115.602,-14803.833,32117.434,2678.1821,-11431.152,42601.605
1300272.8951870557,-57084.516,-44855.105,18120.646,-14802.002,32111.574,2674.7234,-11431.519,42460.9
1300272.899187052,-57109.215,-44876.26,18097.697,-14800.863,32079.307,2666.7075,-11431.519,42199.79
1300272.9031870484,-57129.965,-44885.703,18085.287,-14800.09,32078.777,2665.8123,-11429.484,42143.883
1300272.9071870446,-57116.133,-44868.33,18099.447,-14796.916,32105.51,2673.6655,-11430.217,42303.305
1300272.911187041,-57085.207,-44845.137,18131.023,-14797.323,32118.166,2682.4546,-11429.403,42610.23
1300272.9151870373,-57091.92,-44850.547,18122.723,-14798.137,32107.83,2679.24,-11429.321,42455.973
1300272.9191870338,-57118.734,-44871.38,18095.297,-14797.934,32093.1,2672.5261,-11431.519,42185.223
1300272.9231870302,-57136.07,-44887.004,18076.498,-14798.3,32087.525,2670.0034,-11437.053,42133.465
1300272.9271870265,-57119.793,-44874.473,18096.803,-14797.7705,32101.4,2675.2524,-11441.488,42341.473
1300272.931187023,-57095.055,-44854.37,18119.752,-14797.241,32116.945,2682.4138,-11440.1455,42636.355
1300272.9351870192,-57092.125,-44853.516,18124.268,-14797.689,32108.48,2678.9958,-11437.338,42486.695
1300272.9391870156,-57116.05,-44874.434,18102.621,-14796.428,32087.322,2670.044,-11436.239,42202.84
1300272.9431870119,-57134.973,-44890.992,18088.908,-14795.166,32090.17,2669.0269,-11438.3545,42140.83
1300272.9471870083,-57123.21,-44872.152,18104.29,-14795.492,32109.904,2675.2524,-11440.471,42325.684
1300272.9511870046,-57095.01,-44846.64,18127.889,-14795.898,32123.74,2683.4717,-11438.925,42620.363
1300272.955187001,-57098.066,-44846.965,18120.973,-14794.963,32112.795,2680.8677,-11435.425,42458.7
1300272.9591869975,-57120.89,-44870.77,18106.08,-14794.76,32089.275,2673.706,-11429.525,42199.06
1300272.9631869937,-57139.527,-44888.348,18094.646,-14795.817,32085.207,2672.404,-11426.514,42153.65
1300272.9671869902,-57122.887,-44875.49,18110.148,-14794.434,32105.918,2680.0132,-11428.996,42362.145
1300272.9711869864,-57096.68,-44855.227,18133.504,-14796.306,32124.473,2686.4421,-11431.315,42663.7
1300272.975186983,-57100.914,-44861.41,18124.309,-14798.137,32105.918,2679.6875,-11433.838,42441.61
1300272.9791869791,-57128.906,-44886.477,18101.115,-14797.852,32088.137,2669.9626,-11434.164,42141.24
1300272.9831869756,-57143.68,-44901.98,18098.47,-14797.485,32091.066,2669.1895,-11436.605,42075.48
1300272.9871869718,-57130.902,-44889.285,18114.34,-14797.852,32109.01,2676.9614,-11436.85,42311.24
1300272.9911869683,-57101.77,-44864.46,18129.924,-14797.648,32125.002,2685.5876,-11434.001,42624.637
1300272.9951869647,-57103.234,-44864.137,18127.076,-14796.997,32113.81,2682.1697,-11431.4375,42486.574
1300272.999186961,-57128.5,-44880.37,18107.219,-14796.631,32098.918,2673.869,-11430.542,42218.793
1300273.0031869574,-57142.906,-44893.637,18093.791,-14795.858,32093.873,2671.6716,-11431.804,42146.04
1300273.0071869537,-57127.16,-44883.668,18110.76,-14794.922,32101.727,2676.351,-11433.676,42301.96
1300273.0111869501,-57101.117,-44866.17,18127.768,-14796.835,32118.205,2686.0352,-11432.251,42608.562
1300273.0151869464,-57102.336,-44870.77,18135.701,-14796.875,32105.715,2682.0068,-11431.071,42473.062
1300273.0191869428,-57123.863,-44885.336,18114.99,-14794.841,32092.123,2672.8516,-11430.095,42207.684
1300273.023186939,-57141.887,-44893.027,18102.336,-14793.051,32090.578,2671.4275,-11430.624,42150.027
1300273.0271869355,-57125.613,-44883.547,18116.984,-14793.986,32104.453,2677.4497,-11432.211,42291.63
1300273.031186932,-57096.52,-44863.445,18135.742,-14794.882,32121.623,2684.4482,-11433.1875,42579.062
1300273.0351869282,-57101.44,-44866.008,18118.246,-14794.189,32113.975,2681.193,-11431.601,42439.293
1300273.0391869247,-57130.21,-44884.97,18111.898,-14792.521,32094.158,2674.7642,-11427.694,42217.285
1300273.043186921,-57142.906,-44892.824,18107.91,-14790.487,32096.232,2676.107,-11424.032,42161.336
1300273.0471869174,-57121.867,-44876.26,18115.031,-14790.446,32110.312,2682.2104,-11424.154,42341.51
1300273.0511869136,-57093.59,-44859.09,18143.352,-14791.057,32128.42,2690.1855,-11421.428,42652.1
1300273.05518691,-57096.234,-44860.68,18138.998,-14792.847,32111.451,2684.6924,-11421.469,42462.973
1300273.0591869063,-57119.836,-44876.914,18122.926,-14791.586,32092.814,2674.642,-11424.357,42198.73
1300273.0631869028,-57133.344,-44884.48,18109.66,-14789.592,32087.484,2672.2007,-11425.781,42145.1
1300273.0671868993,-57120.242,-44873.008,18121.094,-14788.168,32109.01,2677.7751,-11426.718,42303.71
1300273.0711868955,-57095.5,-44854.82,18144.816,-14787.72,32127.85,2686.8896,-11421.753,42649.902
1300273.075186892,-57096.03,-44854.617,18141.725,-14787.069,32116.09,2683.4312,-11416.87,42480.594
1300273.0791868882,-57124.637,-44875.043,18122.438,-14786.499,32094.564,2675.2117,-11416.057,42215.902
1300273.0831868846,-57134.44,-44884.074,18114.217,-14784.424,32092.734,2674.4385,-11418.132,42231.934
1300273.0871868809,-57116.54,-44866.133,18127.809,-14784.018,32109.01,2681.3152,-11421.55,42401.082
1300273.0911868773,-57095.664,-44844.28,18152.303,-14786.743,32126.588,2688.436,-11422.323,42640.83
1300273.0951868736,-57103.723,-44859.99,18143.963,-14788.534,32117.393,2684.5703,-11423.178,42465.863
1300273.09918687,-57135.05,-44891.645,18119.02,-14791.098,32094.035,2674.6826,-11425.009,42176.72
1300273.1031868665,-57149.21,-44895.02,18104.94,-14789.673,32099.773,2675.822,-11426.27,42174.805
1300273.1071868627,-57130.535,-44881.51,18110.637,-14789.999,32116.863,2682.8208,-11425.863,42371.258
1300273.1111868592,-57111.37,-44866.457,18145.06,-14791.26,32126.791,2687.7036,-11427.124,42613.363
1300273.1151868554,-57115.562,-44868.855,18146.404,-14791.83,32112.957,2682.8208,-11426.677,42424.44
1300273.119186852,-57133.547,-44885.05,18124.959,-14790.365,32095.867,2676.2695,-11425.659,42200.766
1300273.1231868481,-57145.02,-44892.293,18110.76,-14788.696,32088.746,2676.9614,-11424.602,42164.023
1300273.1271868446,-57127.605,-44873.375,18123.332,-14787.72,32115.398,2682.129,-11425.375,42354.574
1300273.1311868408,-57101.28,-44853.8,18151.043,-14787.883,32133.465,2688.8428,-11423.788,42620.32
1300273.1351868373,-57106.61,-44856.285,18126.344,-14789.836,32117.96,2682.251,-11424.846,42444.742
1300273.1391868338,-57136.8,-44881.55,18110.678,-14788.615,32101.645,2675.944,-11422.893,42196.94
1300273.14318683,-57152.1,-44894.777,18109.13,-14788.046,32096.844,2675.7407,-11423.462,42160.81
1300273.1471868264,-57137.207,-44892.5,18112.834,-14789.307,32110.76,2679.9316,-11429.525,42316.53
1300273.1511868227,-57113.28,-44871.055,18150.146,-14789.267,32123.496,2686.198,-11432.292,42617.105
1300273.1551868191,-57113.895,-44875.043,18149.496,-14788.696,32111.33,2678.3447,-11436.523,42420.004
1300273.1591868154,-57136.027,-44893.8,18120.037,-14788.534,32094.564,2670.166,-11435.425,42182.047
1300273.1631868118,-57145.67,-44894.86,18119.873,-14787.964,32103.273,2671.6309,-11431.804,42163.332
1300273.167186808,-57124.27,-44878.297,18139.934,-14788.249,32119.305,2678.9958,-11428.874,42374.39
1300273.1711868045,-57091.84,-44854.29,18162.312,-14787.639,32126.994,2686.198,-11427.979,42642.863
1300273.175186801,-57096.19,-44850.223,18146.363,-14786.621,32112.55,2679.769,-11425.741,42449.06
1300273.1791867972,-57126.63,-44872.64,18128.133,-14787.842,32095.053,2672.1191,-11426.514,42186.973
1300273.1831867937,-57147.992,-44893.395,18111.736,-14787.761,32101.686,2672.8923,-11431.479,42153.77
1300273.18718679,-57130.21,-44883.06,18130.127,-14788.371,32119.264,2678.2634,-11435.344,42368.29
1300273.1911867864,-57100.668,-44858.277,18156.291,-14788.046,32127.402,2684.2449,-11435.466,42647.867
1300273.1951867826,-57108.035,-44860.23,18142.049,-14788.656,32108.725,2679.1992,-11434.001,42478.07
1300273.199186779,-57141.645,-44885.094,18127.28,-14788.696,32087.973,2672.5261,-11434.204,42228.76
1300273.2031867756,-57151.9,-44900.8,18123.21,-14789.389,32092.775,2670.8984,-11434.896,42195.72
1300273.2071867718,-57130.496,-44893.15,18136.19,-14791.504,32114.787,2678.1414,-11433.96,42379.273
1300273.2111867683,-57107.383,-44878.418,18164.877,-14792.847,32126.955,2685.8318,-11431.356,42622.07
1300273.2151867645,-57116.984,-44879.76,18143.025,-14792.033,32114.748,2678.7517,-11432.129,42436.117
1300273.219186761,-57144.33,-44889.57,18121.135,-14791.626,32100.139,2671.2646,-11432.658,42215.414
1300273.2231867572,-57154.258,-44889.16,18111.98,-14790.609,32106.447,2672.6074,-11434.204,42203.98
1300273.2271867536,-57141.48,-44886.92,18128.621,-14791.992,32115.56,2679.118,-11439.453,42380.21
1300273.2311867499,-57120.2,-44871.137,18149.578,-14793.661,32121.379,2684.1228,-11438.151,42647.992
1300273.2351867463,-57123.457,-44872.52,18139.08,-14794.23,32102.297,2676.0662,-11440.512,42423.098
1300273.2391867428,-57150.027,-44896.16,18113.363,-14793.213,32090.902,2666.8296,-11444.458,42167.32
1300273.243186739,-57168.176,-44909.71,18115.193,-14791.626,32098.594,2667.0737,-11444.377,42185.02
1300273.2471867355,-57148.562,-44894.086,18130.535,-14793.986,32118.166,2671.6309,-11444.621,42337.04
1300273.2511867317,-57123.863,-44874.555,18151.775,-14795.004,32127.605,2677.0427,-11445.068,42601.645
1300273.2551867282,-57133.26,-44882.938,18145.06,-14794.963,32111.98,2672.3633,-11442.302,42427.207
1300273.2591867244,-57156.496,-44905.355,18125.367,-14793.579,32099.244,2663.9404,-11442.912,42188.883
1300273.263186721,-57166.465,-44913.21,18111.736,-14794.434,32089.479,2663.737,-11444.255,42143.516
1300273.2671867171,-57155.805,-44902.184,18125.732,-14794.516,32105.062,2671.5903,-11444.865,42330.973
1300273.2711867136,-57129.883,-44884.32,18149.537,-14794.108,32122.438,2678.5076,-11445.761,42628.055
1300273.27518671,-57132.652,-44888.55,18143.596,-14794.678,32111.695,2671.0613,-11447.104,42438.273
1300273.2791867063,-57159.223,-44909.71,18122.152,-14793.498,32095.867,2661.3364,-11444.946,42214.48
1300273.2831867028,-57170.574,-44920.047,18114.258,-14792.196,32102.297,2660.2378,-11445.272,42215.863
1300273.287186699,-57151.53,-44897.383,18131.47,-14792.5625,32120.932,2666.0564,-11446.981,42378.99
1300273.2911866955,-57123.414,-44877.566,18152.223,-14792.358,32137.29,2674.9268,-11443.075,42603.8
1300273.2951866917,-57132.12,-44886.027,18149.129,-14792.44,32122.316,2669.393,-11441.569,42375.043
1300273.2991866881,-57157.96,-44900.758,18123.129,-14792.399,32103.924,2662.7605,-11441.528,42182.457
1300273.3031866844,-57164.715,-44906.453,18125.447,-14791.504,32104.533,2663.1675,-11443.441,42202.312
1300273.3071866808,-57142.215,-44892.5,18140.3,-14791.504,32123.496,2668.986,-11445.883,42392.133
1300273.3111866773,-57118.086,-44871.34,18153.361,-14793.091,32139.121,2676.3103,-11443.4,42660.523
1300273.3151866735,-57121.707,-44870.65,18153.2,-14791.708,32128.867,2671.2646,-11441.325,42441.324
1300273.31918667,-57138.47,-44885.457,18122.518,-14788.208,32112.998,2661.2144,-11442.546,42215.496
1300273.3231866662,-57153.445,-44892.336,18122.682,-14787.476,32113.486,2661.621,-11441.61,42209.758
1300273.3271866627,-57140.75,-44885.094,18133.057,-14788.778,32129.477,2667.9688,-11443.197,42352.05
1300273.331186659,-57114.83,-44866.58,18158.447,-14788.574,32139.65,2672.6482,-11442.139,42628.01
1300273.3351866554,-57120.527,-44875.41,18159.303,-14787.272,32116.537,2668.6606,-11440.878,42457.645
1300273.3391866516,-57144.695,-44897.543,18140.016,-14786.743,32106.04,2664.1846,-11438.518,42217.652
1300273.343186648,-57153.65,-44902.223,18132.04,-14787.964,32108.684,2664.6729,-11436.157,42211.793
1300273.3471866446,-57142.133,-44888.266,18146.688,-14787.069,32124.064,2669.393,-11436.32,42400.39
1300273.3511866408,-57117.35,-44875.0,18165.895,-14788.696,32135.5,2673.6655,-11435.995,42654.297
1300273.3551866373,-57124.96,-44887.086,18154.95,-14789.795,32126.426,2667.3584,-11434.896,42432.496
1300273.3591866335,-57151.207,-44901.004,18138.63,-14789.307,32107.383,2662.5571,-11431.804,42215.047
1300273.36318663,-57159.465,-44903.688,18135.58,-14789.511,32108.766,2665.9343,-11429.565,42232.383
1300273.3671866262,-57146.69,-44890.79,18148.152,-14789.551,32125.123,2671.7124,-11427.246,42399.008
1300273.3711866227,-57123.332,-44870.89,18159.832,-14788.656,32141.643,2678.1414,-11424.194,42619.387
1300273.3751866189,-57127.523,-44879.152,18152.059,-14788.737,32123.252,2670.7764,-11426.025,42411.824
1300273.3791866153,-57154.297,-44905.76,18129.842,-14788.981,32093.14,2661.7026,-11428.142,42204.305
1300273.3831866118,-57171.062,-44914.797,18126.953,-14790.202,32094.932,2660.7666,-11430.42,42196.414
1300273.387186608,-57154.992,-44894.777,18145.996,-14791.504,32118.49,2665.9343,-11434.367,42351.402
1300273.3911866045,-57136.64,-44879.805,18162.883,-14793.661,32133.871,2671.0205,-11435.588,42630.656
1300273.3951866007,-57150.8,-44888.918,18154.135,-14795.207,32119.508,2663.9,-11437.012,42427.53
1300273.3991865972,-57169.883,-44909.59,18129.314,-14795.37,32093.059,2660.1562,-11434.164,42205.61
1300273.4031865934,-57174.684,-44915.73,18128.662,-14795.532,32097.25,2662.313,-11431.967,42236.168
1300273.40718659,-57158.855,-44895.918,18143.963,-14793.945,32128.664,2668.864,-11433.391,42426.637
1300273.4111865861,-57136.477,-44872.6,18153.89,-14794.882,32147.137,2674.1943,-11432.699,42651.613
1300273.4151865826,-57141.766,-44885.867,18157.594,-14794.76,32125.773,2665.853,-11433.1875,42423.83
1300273.419186579,-57168.664,-44913.496,18138.104,-14794.434,32098.959,2660.075,-11432.455,42205.445
1300273.4231865753,-57184.043,-44914.676,18132.568,-14795.329,32101.768,2661.2957,-11434.204,42178.305
1300273.4271865718,-57165.082,-44893.15,18138.672,-14794.882,32128.42,2666.911,-11435.507,42398.52
1300273.431186568,-57137.535,-44874.555,18168.904,-14793.661,32146.934,2671.224,-11432.455,42618.29
1300273.4351865645,-57136.07,-44878.258,18163.9,-14793.783,32132.488,2666.4634,-11432.048,42431.152
1300273.4391865607,-57155.844,-44890.79,18145.184,-14790.894,32111.533,2661.784,-11431.315,42225.06
1300273.4431865572,-57168.457,-44900.594,18147.137,-14791.342,32119.426,2662.5164,-11428.183,42244.06
1300273.4471865534,-57150.027,-44884.36,18161.459,-14790.527,32134.97,2669.1895,-11427.572,42402.996
1300273.4511865498,-57127.08,-44866.375,18178.102,-14790.283,32145.266,2674.7234,-11425.131,42603.312
1300273.4551865463,-57135.254,-44874.758,18168.133,-14790.283,32138.307,2668.6199,-11422.607,42420.574
1300273.4591865425,-57154.707,-44887.74,18141.887,-14789.673,32119.264,2662.9233,-11419.189,42247.07
1300273.463186539,-57162.64,-44896.61,18134.686,-14786.947,32121.379,2666.0564,-11416.667,42292.562
1300273.4671865352,-57140.668,-44887.047,18172.566,-14787.028,32140.545,2673.3398,-11416.83,42488.445
1300273.4711865317,-57113.324,-44863.69,18186.688,-14787.517,32148.072,2677.0427,-11417.969,42675.496
1300273.475186528,-57119.67,-44868.125,18186.28,-14787.15,32132.447,2670.4917,-11418.905,42434.367
1300273.4791865244,-57139.977,-44885.5,18153.32,-14783.977,32116.172,2664.3066,-11418.823,42256.754
1300273.4831865206,-57147.383,-44896.28,18149.984,-14783.569,32120.525,2664.6729,-11418.62,42285.605
1300273.487186517,-57132.977,-44884.605,18166.18,-14786.215,32136.924,2674.8047,-11416.667,42449.465
1300273.4911865136,-57110.965,-44862.47,18178.59,-14787.15,32150.393,2682.6172,-11415.283,42660.77
1300273.4951865098,-57119.387,-44870.16,18177.654,-14786.825,32130.168,2674.0317,-11414.429,42433.555
1300273.4991865063,-57143.84,-44899.05,18156.088,-14786.581,32113.934,2665.1611,-11414.592,42208.414
1300273.5031865025,-57156.17,-44906.047,18148.846,-14786.459,32113.566,2666.2192,-11414.429,42233.44
1300273.507186499,-57137.086,-44888.105,18166.424,-14787.028,32129.273,2671.875,-11416.301,42443.36
1300273.5111864952,-57116.984,-44868.004,18182.129,-14787.436,32137.9,2676.229,-11418.62,42658.53
1300273.5151864917,-57133.14,-44882.285,18170.818,-14789.511,32116.213,2669.2302,-11421.794,42411.094
1300273.519186488,-57156.008,-44904.055,18148.357,-14789.917,32102.947,2664.022,-11420.939,42253.055
1300273.5231864844,-57164.88,-44909.953,18149.252,-14790.527,32113.078,2667.3584,-11421.997,42279.703
1300273.5271864808,-57145.43,-44896.895,18171.428,-14794.597,32127.28,2670.6543,-11425.334,42440.348
1300273.531186477,-57127.973,-44876.996,18173.787,-14793.01,32131.553,2672.3633,-11427.897,42633.992
1300273.5351864735,-57150.11,-44892.215,18169.842,-14791.464,32118.775,2664.1846,-11428.142,42376.18
1300273.5391864697,-57172.12,-44909.14,18148.52,-14789.389,32110.963,2657.308,-11426.188,42231.773
1300273.5431864662,-57173.547,-44908.734,18152.629,-14787.842,32121.828,2660.482,-11425.741,42297.0
1300273.5471864624,-57154.297,-44899.375,18166.219,-14789.673,32137.209,2664.4287,-11429.199,42453.574
1300273.551186459,-57129.6,-44881.55,18180.502,-14790.771,32145.021,2666.748,-11428.874,42688.316
1300273.5551864551,-57140.75,-44883.344,18163.941,-14789.999,32127.646,2659.953,-11428.793,42469.77
1300273.5591864516,-57167.44,-44906.09,18148.316,-14792.196,32109.904,2655.6804,-11426.147,42265.543
1300273.563186448,-57171.023,-44915.203,18140.666,-14790.487,32112.672,2660.482,-11424.724,42258.63
1300273.5671864443,-57157.473,-44896.484,18166.342,-14790.121,32128.541,2665.8123,-11427.165,42388.55
1300273.5711864408,-57132.855,-44878.703,18187.744,-14790.976,32143.8,2668.3757,-11429.199,42627.93
1300273.575186437,-57139.242,-44885.5,18178.102,-14791.016,32130.453,2659.5867,-11428.955,42426.72
1300273.5791864335,-57166.3,-44900.15,18153.035,-14788.29,32110.598,2654.0527,-11427.043,42241.945
1300273.5831864297,-57166.18,-44899.17,18153.035,-14787.476,32117.434,2657.5115,-11428.061,42305.055
1300273.5871864262,-57145.062,-44882.652,18176.27,-14788.696,32142.172,2663.615,-11429.525,42457.113
1300273.5911864226,-57123.66,-44868.246,18180.34,-14788.493,32150.229,2664.795,-11430.705,42632.895
1300273.5951864189,-57130.656,-44876.875,18173.87,-14787.436,32130.412,2657.6743,-11430.664,42428.305
1300273.5991864153,-57154.95,-44897.87,18157.268,-14786.215,32108.115,2655.599,-11425.537,42251.63
1300273.6031864116,-57160.523,-44905.03,18155.193,-14785.767,32119.59,2660.6853,-11421.794,42285.523
1300273.607186408,-57139.527,-44887.535,18192.262,-14783.732,32139.242,2665.6494,-11424.561,42459.188
1300273.6111864042,-57114.3,-44868.652,18210.408,-14783.8545,32149.334,2668.9048,-11426.514,42678.184
1300273.6151864007,-57128.83,-44879.844,18189.209,-14785.034,32134.035,2659.546,-11429.932,42452.965
1300273.619186397,-57159.63,-44903.605,18171.102,-14785.808,32117.799,2652.5474,-11430.502,42234.66
1300273.6231863934,-57172.934,-44912.56,18162.477,-14785.034,32120.688,2655.477,-11430.99,42262.492
1300273.6271863899,-57159.59,-44896.484,18174.52,-14786.215,32137.615,2661.1328,-11433.676,42473.023
1300273.631186386,-57139.203,-44874.84,18193.441,-14787.069,32152.834,2662.4756,-11436.401,42653.117
1300273.6351863826,-57145.754,-44881.27,18187.379,-14787.069,32143.23,2654.4597,-11436.198,42432.375
1300273.6391863788,-57161.133,-44895.47,18171.713,-14785.482,32135.05,2651.0417,-11432.333,42275.96
1300273.6431863753,-57159.223,-44891.766,18159.22,-14782.756,32140.504,2654.948,-11429.24,42317.14
1300273.6471863715,-57133.79,-44872.113,18186.076,-14782.39,32155.803,2662.6384,-11426.27,42465.457
1300273.651186368,-57110.965,-44853.07,18201.62,-14782.187,32162.111,2667.6025,-11421.428,42647.098
1300273.6551863642,-57128.137,-44870.973,18195.312,-14782.39,32147.178,2660.2783,-11419.922,42382.895
1300273.6591863607,-57153.85,-44889.527,18174.725,-14782.715,32136.557,2655.355,-11422.852,42238.324
1300273.6631863571,-57163.7,-44889.895,18168.377,-14783.977,32134.604,2657.837,-11423.706,42299.6
1300273.6671863534,-57146.08,-44875.043,18182.943,-14783.122,32152.793,2664.4287,-11425.659,42456.543
1300273.6711863498,-57125.41,-44859.5,18200.44,-14783.244,32162.965,2664.3474,-11428.589,42659.26
1300273.675186346,-57129.395,-44873.66,18194.092,-14783.203,32150.799,2657.3486,-11429.199,42462.08
1300273.6791863425,-57151.207,-44893.19,18178.02,-14784.628,32140.098,2652.3032,-11429.281,42278.81
1300273.6831863387,-57165.61,-44900.637,18175.537,-14784.384,32142.58,2656.1687,-11428.63,42319.176
1300273.6871863352,-57151.125,-44887.86,18189.861,-14784.912,32160.158,2663.9404,-11427.246,42442.63
1300273.6911863314,-57130.617,-44871.055,18205.607,-14785.889,32169.354,2668.1724,-11425.863,42585.004
1300273.695186328,-57144.33,-44879.64,18186.605,-14785.808,32153.158,2661.9873,-11421.387,42393.598
1300273.6991863244,-57154.83,-44891.727,18182.049,-14783.488,32145.998,2657.2266,-11419.475,42280.438
1300273.7031863206,-57155.273,-44892.62,18173.666,-14779.989,32153.77,2658.895,-11418.376,42300.17
1300273.707186317,-57140.098,-44875.855,18188.72,-14780.722,32168.133,2666.5854,-11419.353,42491.78
1300273.7111863133,-57123.984,-44861.613,18209.596,-14782.878,32175.254,2671.3462,-11417.44,42677.125
1300273.7151863098,-57132.406,-44874.39,18194.906,-14786.215,32155.844,2662.3943,-11415.771,42452.066
1300273.719186306,-57154.504,-44894.613,18180.787,-14785.116,32143.393,2655.599,-11415.446,42263.957
1300273.7231863025,-57153.605,-44896.73,18184.938,-14785.4,32157.35,2658.3252,-11415.854,42322.062
1300273.7271862987,-57134.605,-44884.848,18198.568,-14787.598,32166.22,2662.7197,-11417.807,42476.645
1300273.7311862952,-57117.676,-44871.055,18208.904,-14788.859,32171.062,2667.7654,-11417.969,42657.84
1300273.7351862916,-57133.996,-44881.758,18194.54,-14789.958,32150.025,2661.784,-11416.301,42402.47
1300273.7391862879,-57158.9,-44904.867,18176.555,-14789.022,32142.092,2657.3894,-11413.615,42219.85
1300273.7431862843,-57157.715,-44903.32,18174.56,-14786.987,32153.85,2659.3425,-11414.958,42305.016
1300273.7471862806,-57137.695,-44885.824,18201.945,-14787.558,32171.104,2663.6558,-11417.196,42465.047
1300273.751186277,-57116.62,-44873.945,18213.258,-14786.255,32179.281,2666.9922,-11418.539,42669.72
1300273.7551862733,-57128.176,-44880.656,18208.781,-14785.6045,32159.75,2659.7495,-11420.654,42443.24
1300273.7591862697,-57150.312,-44901.41,18195.191,-14785.522,32146.281,2654.3376,-11422.079,42307.254
1300273.763186266,-57154.38,-44899.13,18188.924,-14784.994,32158.244,2654.0935,-11427.043,42334.637
1300273.7671862624,-57139.12,-44886.434,18204.754,-14785.686,32168.418,2659.668,-11430.908,42486.125
1300273.7711862589,-57119.914,-44872.723,18225.668,-14786.499,32169.068,2664.022,-11427.45,42645.754
1300273.775186255,-57136.72,-44883.79,18218.22,-14785.889,32151.45,2658.5288,-11424.194,42405.926
1300273.7791862516,-57153.973,-44898.848,18193.727,-14784.831,32139.73,2656.128,-11420.492,42262.613
1300273.7831862478,-57153.2,-44896.04,18189.412,-14784.506,32155.803,2663.5337,-11414.755,42339.723
1300273.7871862443,-57130.21,-44878.703,18204.51,-14784.709,32174.195,2672.16,-11412.069,42503.01
1300273.7911862405,-57113.566,-44861.777,18223.836,-14785.441,32181.275,2676.229,-11411.011,42680.098
1300273.795186237,-57127.32,-44871.992,18209.96,-14785.319,32169.963,2669.3523,-11409.587,42465.945
1300273.7991862332,-57154.707,-44890.22,18190.715,-14784.262,32157.879,2662.9233,-11411.133,42296.918
1300273.8031862297,-57163.94,-44892.254,18199.463,-14782.39,32164.227,2664.9985,-11414.267,42343.914
1300273.8071862261,-57145.996,-44877.156,18214.682,-14782.756,32176.963,2667.8062,-11417.399,42469.523
1300273.8111862224,-57127.727,-44868.613,18230.51,-14784.18,32180.87,2672.689,-11416.992,42624.676
1300273.8151862188,-57137.617,-44879.03,18214.438,-14782.512,32160.564,2667.8467,-11416.382,42427.938
1300273.819186215,-57156.457,-44894.492,18203.045,-14780.478,32152.385,2663.5337,-11417.114,42274.21
1300273.8231862115,-57157.434,-44894.94,18205.73,-14780.64,32169.557,2667.44,-11414.145,42378.38
1300273.8271862078,-57138.39,-44875.164,18205.81,-14782.431,32187.014,2675.2524,-11412.028,42534.996
1300273.8311862042,-57129.805,-44863.242,18220.012,-14782.227,32198.324,2680.0132,-11408.244,42681.684
1300273.8351862004,-57147.18,-44876.63,18215.373,-14782.471,32176.84,2673.462,-11408.081,42440.105
1300273.839186197,-57171.31,-44893.35,18195.11,-14780.64,32163.412,2668.1316,-11408.366,42296.59
1300273.8431861934,-57173.26,-44892.99,18196.9,-14779.094,32168.58,2671.0205,-11407.309,42392.05
1300273.8471861896,-57148.645,-44869.062,18216.268,-14779.704,32190.797,2675.9849,-11409.709,42545.535
1300273.851186186,-57130.58,-44863.363,18235.719,-14781.86,32187.623,2677.6123,-11413.737,42669.273
1300273.8551861823,-57145.227,-44871.46,18209.92,-14779.338,32165.65,2669.5151,-11414.226,42376.465
1300273.8591861788,-57172.285,-44892.54,18202.88,-14777.182,32159.465,2664.9578,-11414.226,42249.758
1300273.863186175,-57174.727,-44899.336,18202.557,-14777.954,32167.277,2669.5557,-11417.521,42353.312
1300273.8671861715,-57155.887,-44884.48,18215.129,-14779.175,32179.525,2675.7812,-11419.719,42503.38
1300273.8711861677,-57142.09,-44872.273,18228.395,-14780.151,32190.268,2677.8972,-11418.864,42656.21
1300273.8751861642,-57156.17,-44886.64,18210.979,-14781.576,32170.574,2671.4275,-11418.417,42424.113
1300273.8791861606,-57178.184,-44903.934,18198.283,-14780.314,32161.826,2667.155,-11418.661,42287.477
1300273.8831861569,-57180.95,-44915.406,18196.86,-14778.728,32173.137,2669.7998,-11420.98,42336.793
1300273.8871861533,-57162.926,-44903.16,18214.926,-14779.826,32173.83,2676.229,-11421.794,42470.62
1300273.8911861496,-57140.26,-44877.566,18227.418,-14780.518,32179.934,2680.2166,-11418.905,42641.48
1300273.895186146,-57147.992,-44888.387,18220.867,-14781.25,32162.436,2673.869,-11417.196,42410.645
1300273.8991861423,-57171.266,-44907.27,18196.533,-14782.593,32148.275,2669.5964,-11417.277,42271.85
1300273.9031861387,-57172.324,-44908.938,18208.496,-14781.942,32164.43,2672.8516,-11420.329,42371.95
1300273.907186135,-57157.15,-44897.46,18223.104,-14782.756,32178.957,2678.6704,-11423.178,42498.293
1300273.9111861314,-57148.156,-44889.363,18222.9,-14783.691,32178.06,2680.664,-11424.113,42636.19
1300273.9151861279,-57165.164,-44913.902,18218.629,-14783.325,32159.629,2673.6655,-11425.212,42391.6
1300273.919186124,-57188.844,-44933.797,18207.234,-14783.244,32146.037,2668.4978,-11423.259,42243.29
1300273.9231861206,-57189.008,-44924.113,18203.654,-14781.535,32155.885,2672.0786,-11424.235,42348.105
1300273.9271861168,-57170.9,-44908.33,18215.496,-14779.907,32177.166,2681.6406,-11422.323,42510.133
1300273.9311861133,-57148.48,-44893.68,18236.94,-14779.094,32185.182,2685.3027,-11421.062,42616.254
1300273.9351861095,-57157.434,-44897.95,18229.168,-14778.361,32169.11,2678.955,-11419.841,42429.04
1300273.939186106,-57180.34,-44917.035,18203.492,-14779.297,32166.139,2675.0488,-11416.301,42305.867
1300273.9431861022,-57179.77,-44927.004,18200.195,-14780.111,32172.201,2679.1587,-11414.673,42362.266
1300273.9471860987,-57158.977,-44901.816,18225.424,-14779.785,32185.305,2688.3545,-11413.534,42519.492
1300273.9511860951,-57140.668,-44886.516,18232.91,-14779.541,32189.617,2691.569,-11412.191,42637.656
1300273.9551860914,-57157.637,-44908.895,18223.674,-14780.559,32170.045,2680.0132,-11413.208,42404.137
1300273.9591860878,-57179.12,-44919.312,18207.764,-14779.297,32158.45,2669.8406,-11415.69,42292.195
1300273.963186084,-57177.574,-44908.285,18210.979,-14777.385,32161.785,2671.0205,-11416.586,42369.754
1300273.9671860805,-57161.746,-44892.703,18221.965,-14778.483,32175.822,2676.8394,-11418.213,42518.84
1300273.9711860768,-57150.15,-44884.727,18233.195,-14776.449,32189.17,2680.7048,-11418.701,42586.508
1300273.9751860732,-57160.035,-44895.062,18233.154,-14776.042,32170.533,2672.8923,-11417.766,42342.613
1300273.9791860697,-57182.78,-44911.62,18211.102,-14775.676,32155.234,2668.2537,-11413.981,42269.41
1300273.983186066,-57184.98,-44912.152,18211.182,-14774.333,32165.773,2672.6482,-11411.093,42369.914
1300273.9871860624,-57159.305,-44893.434,18228.11,-14773.845,32184.287,2679.769,-11411.418,42477.664
1300273.9911860586,-57138.227,-44887.047,18231.527,-14776.53,32198.732,2680.1758,-11413.859,42602.785
1300273.995186055,-57151.29,-44898.848,18232.098,-14775.269,32182.049,2669.9626,-11415.894,42430.79
1300273.9991860513,-57173.137,-44916.016,18217.652,-14774.943,32157.553,2664.7544,-11416.952,42314.496
1300274.0031860478,-57175.17,-44917.32,18210.652,-14774.455,32160.686,2671.8345,-11415.649,42389.08
1300274.007186044,-57163.293,-44904.34,18223.348,-14776.611,32188.07,2678.5889,-11416.504,42499.473
1300274.0111860405,-57154.42,-44899.742,18235.516,-14777.832,32195.924,2682.8208,-11415.283,42604.453
1300274.015186037,-57166.914,-44908.977,18221.762,-14777.873,32169.395,2678.833,-11412.964,42401.082
1300274.0191860332,-57193.117,-44920.613,18203.37,-14779.582,32158.041,2674.7642,-11411.377,42271.484
1300274.0231860296,-57195.312,-44920.29,18200.44,-14777.914,32169.027,2677.7344,-11414.633,42371.746
1300274.0271860259,-57178.223,-44907.88,18221.803,-14778.361,32186.932,2679.362,-11419.719,42506.633
1300274.0311860223,-57164.27,-44893.434,18236.37,-14779.013,32190.188,2679.4841,-11421.184,42618.938
1300274.0351860186,-57171.348,-44903.89,18224.447,-14779.419,32175.13,2670.858,-11421.997,42415.57
1300274.039186015,-57192.75,-44927.41,18212.443,-14780.518,32163.371,2667.1143,-11422.038,42293.418
1300274.0431860113,-57201.62,-44936.688,18208.008,-14780.111,32166.262,2672.3633,-11423.015,42351.523
1300274.0471860077,-57184.246,-44913.777,18223.389,-14779.785,32185.629,2678.06,-11424.438,42467.082
1300274.0511860042,-57169.07,-44901.777,18238.322,-14780.314,32189.861,2680.42,-11422.282,42550.17
1300274.0551860004,-57187.5,-44922.85,18228.395,-14781.942,32173.26,2675.4966,-11420.776,42354.695
1300274.059185997,-57207.277,-44940.758,18209.27,-14781.454,32161.906,2671.6309,-11424.398,42267.293
1300274.063185993,-57203.125,-44930.137,18206.787,-14778.646,32170.168,2672.3228,-11428.305,42375.125
1300274.0671859896,-57178.836,-44905.234,18219.85,-14774.943,32190.432,2672.8923,-11432.983,42525.96
1300274.0711859858,-57159.14,-44889.363,18236.207,-14775.1875,32200.645,2670.2068,-11433.96,42652.26
1300274.0751859823,-57176.477,-44905.805,18223.756,-14775.92,32182.13,2660.4412,-11432.211,42386.598
1300274.0791859785,-57200.074,-44924.195,18209.148,-14775.024,32169.963,2657.1045,-11428.915,42282.918
1300274.083185975,-57192.63,-44918.703,18215.252,-14773.723,32173.586,2665.0798,-11424.235,42368.734
1300274.0871859714,-57165.203,-44900.105,18236.043,-14773.642,32191.691,2676.1882,-11421.184,42487.43
1300274.0911859677,-57152.426,-44888.594,18246.094,-14773.601,32197.062,2678.06,-11417.318,42586.996
1300274.0951859641,-57171.266,-44902.71,18233.236,-14774.333,32185.914,2670.6543,-11416.382,42401.695
1300274.0991859604,-57195.312,-44921.957,18216.797,-14774.577,32182.375,2667.4805,-11417.603,42323.812
1300274.1031859568,-57192.59,-44920.574,18222.9,-14772.827,32190.432,2668.742,-11421.672,42389.934
1300274.107185953,-57168.297,-44903.73,18241.375,-14771.362,32201.906,2669.7998,-11430.014,42502.28
1300274.1111859495,-57150.23,-44891.195,18253.459,-14769.287,32207.277,2668.0095,-11433.513,42624.066
1300274.1151859458,-57160.727,-44904.625,18245.484,-14765.3,32192.547,2659.668,-11430.054,42355.43
1300274.1191859422,-57182.05,-44920.9,18226.727,-14765.463,32187.217,2656.3315,-11426.147,42262.29
1300274.1231859387,-57182.254,-44920.613,18228.963,-14766.724,32194.174,2662.2722,-11425.212,42364.625
1300274.127185935,-57162.64,-44905.887,18235.434,-14768.555,32205.975,2671.5496,-11426.677,42472.7
1300274.1311859314,-57148.926,-44895.184,18253.703,-14769.897,32208.254,2675.7,-11425.781,42585.246
1300274.1351859276,-57163.168,-44906.902,18242.799,-14770.956,32195.803,2671.8345,-11421.753,42397.504
1300274.139185924,-57180.3,-44922.527,18226.645,-14769.409,32186.402,2670.1255,-11416.87,42305.867
1300274.1431859203,-57177.9,-44912.07,18227.986,-14769.287,32195.191,2672.3633,-11417.074,42409.586
1300274.1471859168,-57161.297,-44903.117,18248.414,-14769.409,32214.396,2675.293,-11423.381,42527.06
1300274.151185913,-57148.887,-44887.492,18265.34,-14768.84,32224.326,2672.6482,-11427.49,42594.2
1300274.1551859095,-57159.344,-44894.86,18251.385,-14767.741,32200.562,2662.9639,-11428.223,42351.93
1300274.159185906,-57184.492,-44917.156,18221.762,-14768.555,32184.693,2659.546,-11427.043,42256.96
1300274.1631859022,-57186.688,-44922.445,18222.332,-14770.142,32191.57,2665.4868,-11426.392,42390.42
1300274.1671858986,-57167.562,-44909.914,18243.775,-14771.933,32208.293,2673.462,-11426.27,42526.98
1300274.1711858949,-57151.45,-44890.18,18262.045,-14772.177,32211.875,2675.6187,-11422.812,42625.57
1300274.1751858913,-57166.953,-44898.234,18249.92,-14771.159,32189.902,2668.1724,-11417.074,42402.387
1300274.1791858876,-57185.305,-44916.3,18234.986,-14769.735,32176.963,2663.2896,-11416.586,42315.594
1300274.183185884,-57182.293,-44912.68,18238.12,-14768.066,32192.709,2667.3992,-11420.248,42413.98
1300274.1871858803,-57162.844,-44891.316,18253.826,-14768.718,32214.031,2673.3398,-11421.997,42548.34
1300274.1911858767,-57151.855,-44882.69,18273.234,-14770.427,32216.188,2672.6482,-11421.672,42637.047
1300274.1951858732,-57167.605,-44895.793,18257.977,-14770.224,32197.145,2664.917,-11421.631,42403.28
1300274.1991858694,-57183.758,-44908.895,18229.656,-14767.904,32184.979,2661.2144,-11421.265,42316.406
1300274.203185866,-57178.387,-44907.188,18235.19,-14767.538,32193.97,2669.5557,-11419.108,42400.676
1300274.2071858621,-57160.523,-44894.246,18255.047,-14769.247,32209.514,2677.3276,-11418.254,42515.707
1300274.2111858586,-57154.176,-44889.285,18267.172,-14771.892,32210.002,2678.2634,-11419.516,42593.914
1300274.2151858548,-57169.76,-44903.402,18250.447,-14773.397,32191.691,2671.8345,-11418.945,42399.21
1300274.2191858513,-57186.65,-44920.125,18237.672,-14773.967,32184.043,2668.3757,-11418.254,42331.586
1300274.2231858475,-57181.684,-44915.773,18238.893,-14773.642,32197.268,2671.0613,-11418.417,42417.727
1300274.227185844,-57158.285,-44897.42,18256.795,-14772.787,32217.938,2675.4966,-11419.678,42556.97
1300274.2311858404,-57142.863,-44881.633,18273.031,-14771.811,32224.65,2677.2869,-11419.76,42655.805
1300274.2351858367,-57155.926,-44892.336,18259.562,-14771.2,32206.951,2672.4854,-11419.027,42416.953
1300274.2391858331,-57176.637,-44911.336,18244.914,-14772.177,32190.635,2671.8345,-11419.597,42335.33
1300274.2431858294,-57182.13,-44917.074,18254.07,-14773.601,32194.377,2675.2524,-11421.794,42403.117
1300274.2471858258,-57168.54,-44906.414,18265.463,-14775.106,32210.94,2677.7344,-11425.903,42522.867
1300274.251185822,-57152.55,-44893.312,18267.66,-14775.879,32211.752,2678.6704,-11425.131,42606.61
1300274.2551858185,-57166.18,-44904.34,18259.4,-14774.17,32195.68,2671.1426,-11424.805,42401.164
1300274.2591858148,-57184.45,-44920.047,18248.82,-14774.414,32184.287,2669.3115,-11424.561,42345.906
1300274.2631858112,-57183.8,-44916.344,18245.77,-14774.699,32193.035,2673.7468,-11426.311,42432.008
1300274.2671858077,-57164.594,-44900.188,18267.742,-14774.374,32209.637,2678.2634,-11427.043,42530.477
1300274.271185804,-57148.4,-44887.29,18280.559,-14773.153,32211.508,2679.4841,-11424.398,42591.715
1300274.2751858004,-57163.984,-44903.445,18267.863,-14773.315,32199.627,2672.2412,-11422.648,42347.86
1300274.2791857966,-57179.566,-44918.094,18250.123,-14774.089,32189.902,2669.5557,-11422.567,42304.2
1300274.283185793,-57176.395,-44916.14,18250.57,-14773.315,32200.766,2671.2646,-11427.368,42442.668
1300274.2871857893,-57159.06,-44900.758,18272.908,-14771.647,32206.584,2674.0723,-11432.739,42544.07
1300274.2911857858,-57149.17,-44892.375,18285.238,-14771.647,32205.852,2672.567,-11435.303,42606.934
1300274.295185782,-57168.05,-44907.676,18264.404,-14772.624,32189.25,2664.3066,-11435.791,42409.586
1300274.2991857785,-57187.46,-44925.703,18240.887,-14771.362,32178.793,2661.784,-11433.594,42332.723
1300274.303185775,-57181.074,-44923.87,18252.645,-14770.468,32195.883,2668.4978,-11433.432,42422.77
1300274.3071857712,-57162.152,-44901.734,18264.812,-14771.24,32214.723,2672.282,-11437.134,42542.44
1300274.3111857676,-57158.043,-44895.836,18269.49,-14772.38,32213.46,2669.1082,-11439.169,42599.203
1300274.3151857639,-57178.266,-44919.07,18259.93,-14771.484,32194.418,2663.1675,-11438.925,42384.562
1300274.3191857603,-57191.043,-44934.33,18258.83,-14771.078,32183.473,2663.086,-11436.809,42305.746
1300274.3231857566,-57182.293,-44923.504,18263.51,-14770.508,32199.748,2668.2537,-11434.652,42410.848
1300274.327185753,-57160.85,-44909.305,18272.258,-14771.078,32209.963,2673.0552,-11436.483,42491.008
1300274.3311857493,-57150.312,-44907.797,18286.459,-14771.281,32213.584,2673.0552,-11438.762,42510.742
1300274.3351857457,-57166.06,-44923.26,18270.02,-14770.915,32204.51,2666.3413,-11438.151,42364.137
1300274.3391857422,-57190.918,-44936.605,18253.744,-14770.996,32186.076,2665.7715,-11433.146,42318.81
1300274.3431857384,-57186.77,-44928.387,18259.807,-14770.264,32200.197,2673.5027,-11429.932,42453.168
1300274.347185735,-57167.688,-44907.188,18280.152,-14769.775,32223.227,2676.6357,-11431.112,42559.043
1300274.3511857311,-57157.51,-44898.316,18288.33,-14770.183,32220.826,2676.7173,-11433.472,42578.086
1300274.3551857276,-57171.023,-44916.426,18266.725,-14771.606,32200.521,2669.6372,-11431.763,42353.965
1300274.3591857238,-57193.973,-44938.887,18255.047,-14772.624,32189.21,2667.3992,-11430.624,42283.246
1300274.3631857203,-57193.77,-44934.773,18273.357,-14772.868,32201.906,2673.0552,-11430.095,42428.996
1300274.3671857168,-57175.05,-44917.24,18286.865,-14773.52,32209.555,2676.8394,-11431.56,42545.453
1300274.371185713,-57166.71,-44906.496,18290.203,-14776.449,32203.492,2676.5544,-11433.35,42550.09
1300274.3751857094,-57183.676,-44919.23,18264.893,-14775.879,32193.889,2671.1833,-11432.739,42378.582
1300274.3791857057,-57203.086,-44936.523,18259.318,-14774.699,32188.03,2668.6606,-11431.804,42343.668
1300274.3831857021,-57197.51,-44933.555,18259.115,-14769.775,32197.43,2672.2007,-11433.269,42433.51
1300274.3871856984,-57179.04,-44917.44,18279.95,-14771.606,32210.451,2674.6013,-11434.042,42504.438
1300274.3911856948,-57170.492,-44914.715,18290.324,-14774.008,32207.398,2674.0317,-11433.472,42531.902
1300274.395185691,-57181.03,-44924.277,18274.373,-14773.234,32191.203,2666.9922,-11431.56,42359.99
1300274.3991856875,-57191.613,-44933.27,18256.55,-14774.699,32186.973,2665.568,-11429.321,42353.23
1300274.403185684,-57189.453,-44932.21,18260.254,-14776.489,32204.266,2670.4917,-11430.502,42397.586
1300274.4071856802,-57170.94,-44918.5,18287.8,-14774.536,32222.738,2675.578,-11433.676,42510.54
1300274.4111856767,-57159.305,-44915.812,18295.613,-14774.862,32215.293,2674.4792,-11436.85,42569.664
1300274.415185673,-57181.805,-44934.367,18275.514,-14774.78,32192.506,2664.4695,-11439.291,42361.695
1300274.4191856694,-57203.41,-44941.69,18262.736,-14773.356,32188.518,2659.3833,-11438.965,42320.07
1300274.4231856656,-57195.598,-44932.293,18272.014,-14774.618,32204.63,2662.8013,-11441.65,42433.23
1300274.427185662,-57175.457,-44917.44,18291.342,-14775.757,32222.453,2669.5151,-11443.726,42538.82
1300274.4311856583,-57162.723,-44910.688,18295.736,-14774.252,32215.902,2669.5964,-11446.574,42562.785
1300274.4351856548,-57180.055,-44923.668,18290.242,-14773.764,32196.127,2660.4004,-11447.388,42343.914
1300274.4391856513,-57198.0,-44938.887,18270.834,-14773.764,32195.07,2659.8308,-11444.499,42316.12
1300274.4431856475,-57198.04,-44938.316,18265.219,-14773.845,32207.887,2665.324,-11444.865,42405.844
1300274.447185644,-57179.363,-44924.645,18282.39,-14773.315,32226.115,2668.2944,-11442.221,42503.785
1300274.4511856402,-57167.562,-44916.098,18296.428,-14773.112,32225.059,2668.986,-11439.372,42585.734
1300274.4551856366,-57182.617,-44928.754,18287.312,-14772.136,32206.34,2661.3364,-11440.471,42366.293
1300274.4591856329,-57200.766,-44948.652,18274.049,-14773.804,32193.32,2659.3833,-11440.756,42341.434
1300274.4631856293,-57194.133,-44943.035,18278.28,-14773.193,32201.174,2667.562,-11440.1455,42470.785
1300274.4671856256,-57172.49,-44923.18,18292.48,-14773.52,32222.617,2672.4448,-11440.186,42549.277
1300274.471185622,-57165.977,-44918.38,18297.363,-14773.845,32221.926,2671.5496,-11438.518,42570.56
1300274.4751856185,-57187.297,-44928.59,18281.129,-14774.74,32204.51,2665.039,-11435.588,42327.8
1300274.4791856147,-57200.89,-44940.43,18263.795,-14772.502,32202.598,2664.9578,-11431.926,42283.57
1300274.4831856112,-57190.758,-44929.89,18263.307,-14770.142,32219.768,2669.7998,-11431.274,42453.125
1300274.4871856074,-57171.47,-44913.496,18294.8,-14768.962,32228.518,2674.642,-11433.146,42566.082
1300274.491185604,-57161.094,-44904.22,18320.477,-14767.822,32227.133,2673.1365,-11432.007,42589.684
1300274.4951856001,-57174.6,-44916.3,18292.766,-14767.538,32214.56,2662.6384,-11433.105,42383.465
1300274.4991855966,-57191.203,-44937.582,18274.17,-14767.009,32209.514,2658.5693,-11437.216,42329.227
1300274.5031855928,-57185.914,-44935.67,18282.797,-14766.643,32219.688,2662.4756,-11439.372,42420.9
1300274.5071855893,-57165.895,-44922.73,18301.434,-14767.822,32230.47,2665.324,-11441.406,42515.625
1300274.5111855858,-57155.4,-44914.633,18306.967,-14770.183,32220.826,2666.0564,-11439.697,42548.91
1300274.515185582,-57179.2,-44928.02,18290.691,-14771.606,32207.154,2662.3535,-11434.733,42361.9
1300274.5191855785,-57196.453,-44934.53,18273.479,-14769.206,32206.951,2665.202,-11427.572,42352.05
1300274.5231855747,-57183.312,-44923.383,18282.715,-14768.107,32221.926,2672.7295,-11424.072,42497.152
1300274.5271855711,-57163.332,-44910.973,18302.41,-14769.45,32245.363,2675.4966,-11425.497,42581.098
1300274.5311855674,-57158.33,-44911.785,18318.848,-14769.897,32242.717,2671.9565,-11424.724,42576.66
1300274.5351855638,-57180.22,-44928.348,18285.076,-14770.752,32217.531,2664.022,-11424.602,42388.47
1300274.53918556,-57198.04,-44946.25,18273.479,-14771.2,32206.666,2659.668,-11429.321,42334.35
1300274.5431855565,-57187.46,-44937.01,18289.998,-14770.63,32216.31,2664.1846,-11432.861,42496.055
1300274.547185553,-57168.54,-44921.023,18313.314,-14770.468,32224.367,2668.0908,-11438.762,42580.566
1300274.5511855492,-57166.63,-44923.83,18317.098,-14771.118,32214.479,2666.2598,-11441.61,42575.645
1300274.5551855457,-57185.06,-44938.355,18294.434,-14770.305,32199.057,2659.6274,-11443.522,42340.58
1300274.559185542,-57198.527,-44955.49,18281.902,-14770.427,32198.203,2658.773,-11443.645,42308.594
1300274.5631855384,-57194.703,-44949.707,18291.748,-14770.874,32214.396,2662.2722,-11448.649,42413.656
1300274.5671855346,-57178.062,-44934.246,18309.205,-14771.566,32227.459,2665.039,-11449.219,42522.504
1300274.571185531,-57169.11,-44929.16,18319.174,-14769.572,32221.64,2663.2896,-11444.784,42529.137
1300274.5751855273,-57182.254,-44945.273,18300.62,-14768.2705,32209.434,2655.8433,-11442.261,42355.266
1300274.5791855238,-57198.938,-44954.266,18282.064,-14760.824,32216.555,2654.541,-11442.831,42347.37
1300274.5831855203,-57191.938,-44936.523,18295.818,-14747.478,32226.32,2662.313,-11442.79,42445.64
1300274.5871855165,-57166.586,-44915.652,18319.865,-14726.848,32236.492,2671.4275,-11439.087,42542.562
1300274.591185513,-57165.324,-44915.652,18321.818,-14724.203,32232.219,2670.3696,-11437.866,42511.11
1300274.5951855092,-57188.113,-44934.125,18304.646,-14724.936,32212.566,2663.2896,-11437.785,42324.26
1300274.5991855056,-57199.87,-44943.28,18293.783,-14724.691,32209.922,2663.1267,-11433.35,42362.793
1300274.6031855019,-57185.957,-44934.082,18294.148,-14724.528,32225.994,2670.4102,-11429.77,42485.066
1300274.6071854983,-57165.855,-44915.164,18313.762,-14724.365,32242.148,2674.276,-11429.932,42579.715
1300274.6111854946,-57160.402,-44906.453,18321.045,-14724.121,32239.504,2671.5496,-11426.555,42571.168
1300274.615185491,-57169.76,-44920.535,18307.781,-14725.993,32221.193,2664.795,-11424.235,42362.71
1300274.6191854875,-57179.934,-44930.46,18298.219,-14726.237,32218.1,2663.6558,-11424.316,42343.508
1300274.6231854837,-57176.434,-44920.168,18300.252,-14726.726,32224.855,2667.6433,-11427.938,42445.19
1300274.6271854802,-57159.953,-44911.46,18320.477,-14728.679,32235.475,2670.0847,-11432.333,42527.63
1300274.6311854764,-57148.074,-44907.31,18324.139,-14729.98,32241.945,2669.5964,-11432.333,42541.504
1300274.635185473,-57165.246,-44923.953,18306.438,-14730.307,32227.256,2665.1206,-11427.979,42358.24
1300274.6391854691,-57180.46,-44931.805,18300.781,-14728.354,32224.406,2663.9404,-11425.659,42356.812
1300274.6431854656,-57170.25,-44918.38,18312.094,-14727.824,32240.969,2669.5151,-11425.456,42499.84
1300274.6471854618,-57144.656,-44906.78,18320.027,-14728.638,32251.71,2674.398,-11425.009,42596.234
1300274.6511854583,-57140.504,-44913.902,18334.717,-14730.021,32249.92,2671.1833,-11424.398,42575.32
1300274.6551854548,-57166.63,-44926.72,18310.385,-14729.289,32226.564,2663.5337,-11422.852,42395.914
1300274.659185451,-57185.266,-44939.293,18307.129,-14729.858,32214.805,2663.5337,-11419.638,42420.613
1300274.6631854475,-57176.555,-44927.613,18310.1,-14729.248,32226.848,2668.4978,-11419.516,42534.71
1300274.6671854437,-57157.35,-44908.125,18324.016,-14728.354,32248.293,2670.5322,-11424.968,42609.09
1300274.6711854402,-57153.688,-44901.41,18325.643,-14730.429,32246.46,2667.684,-11426.107,42573.773
1300274.6751854364,-57177.492,-44921.55,18312.012,-14730.225,32225.709,2661.2957,-11424.276,42369.266
1300274.6791854328,-57191.53,-44939.13,18306.111,-14729.533,32223.023,2663.737,-11420.329,42370.934
1300274.683185429,-57180.87,-44930.504,18313.396,-14728.231,32238.322,2665.7715,-11419.719,42483.4
1300274.6871854255,-57156.25,-44911.703,18333.496,-14725.83,32249.92,2670.2068,-11418.742,42630.047
1300274.691185422,-57150.676,-44909.668,18340.943,-14727.173,32244.914,2666.5854,-11420.248,42592.0
