timestamp,Fp1,Fp2,F3,Fz,F4,Cz,Pz,Oz
1300299.9151624774,-57595.83,-45398.277,21216.838,-13810.873,33831.383,3411.1328,-11405.803,44026.53
1300299.9191624739,-57570.883,-45376.14,21250.123,-13811.117,33853.395,3421.875,-11403.524,44425.62
1300299.92316247,-57556.684,-45366.902,21273.967,-13812.5,33856.57,3425.3745,-11399.862,44295.125
1300299.9271624666,-57570.395,-45383.18,21264.283,-13812.053,33833.133,3417.8062,-11397.868,43808.35
1300299.9311624628,-57596.68,-45399.58,21233.846,-13811.931,33820.027,3411.0107,-11397.014,43710.574
1300299.9351624593,-57599.082,-45407.27,21228.354,-13812.907,33832.156,3414.6729,-11395.549,44051.066
1300299.9391624557,-57569.38,-45383.465,21253.582,-13812.134,33843.75,3425.822,-11397.095,44475.06
1300299.943162452,-57549.645,-45362.43,21277.1,-13811.605,33850.504,3425.3337,-11400.513,44380.25
1300299.9471624484,-57567.305,-45377.28,21263.63,-13811.728,33832.52,3412.1094,-11403.158,43823.57
1300299.9511624447,-57596.273,-45402.875,21232.87,-13810.751,33815.797,3405.8433,-11403.28,43694.582
1300299.9551624411,-57597.617,-45404.746,21230.469,-13808.472,33827.477,3413.1267,-11403.28,44036.297
1300299.9591624374,-57571.7,-45378.62,21252.117,-13808.269,33851.562,3422.404,-11405.151,44377.117
1300299.9631624338,-57551.516,-45365.36,21268.719,-13809.164,33854.41,3422.811,-11408.529,44302.246
1300299.96716243,-57567.953,-45380.82,21260.662,-13809.57,33839.723,3411.621,-11411.703,43791.63
1300299.9711624265,-57601.117,-45405.234,21229.94,-13807.78,33825.562,3406.0059,-11410.075,43639.082
1300299.975162423,-57602.215,-45405.113,21224.812,-13806.641,33836.387,3412.8418,-11404.541,44021.65
1300299.9791624192,-57567.383,-45376.14,21254.924,-13804.159,33857.42,3422.1191,-11400.146,44460.492
1300299.9831624157,-57543.215,-45358.277,21284.303,-13803.671,33864.46,3422.3228,-11400.513,44374.51
1300299.987162412,-57556.277,-45374.39,21272.625,-13805.705,33845.176,3411.0923,-11402.751,43869.062
1300299.9911624084,-57588.543,-45400.105,21237.59,-13805.258,33824.79,3403.239,-11404.175,43693.81
1300299.9951624046,-57597.7,-45402.914,21229.371,-13805.054,33826.09,3409.1392,-11401.9375,44021.65
1300299.999162401,-57567.793,-45374.227,21259.93,-13805.949,33847.7,3421.753,-11398.112,44438.56
1300300.0031623973,-57543.297,-45362.02,21280.965,-13807.536,33854.94,3423.9097,-11399.699,44376.508
1300300.0071623938,-57557.21,-45380.332,21270.71,-13808.472,33829.59,3415.446,-11399.902,43857.504
1300300.0111623902,-57586.223,-45395.754,21236.125,-13805.786,33821.37,3409.7495,-11396.525,43720.01
1300300.0151623865,-57586.508,-45394.125,21232.098,-13806.274,33838.38,3416.5854,-11391.887,44106.12
1300300.019162383,-57558.676,-45371.176,21266.643,-13805.176,33860.434,3425.9033,-11389.893,44484.05
1300300.0231623792,-57540.773,-45360.273,21291.627,-13804.199,33863.445,3425.537,-11391.806,44376.465
1300300.0271623756,-57556.4,-45373.457,21273.113,-13804.81,33838.42,3413.6558,-11396.118,43819.62
1300300.0311623719,-57587.242,-45401.33,21243.328,-13804.565,33821.617,3407.3486,-11399.821,43645.996
1300300.0351623683,-57590.457,-45397.625,21241.293,-13803.101,33833.54,3411.377,-11402.344,44044.56
1300300.0391623646,-57565.797,-45375.41,21256.348,-13803.671,33863.65,3423.0144,-11402.426,44447.918
1300300.043162361,-57546.062,-45365.156,21286.215,-13804.851,33865.6,3424.8862,-11403.931,44365.113
1300300.0471623575,-57560.508,-45383.465,21265.584,-13806.396,33847.78,3414.266,-11404.582,43870.688
1300300.0511623537,-57586.02,-45397.22,21243.855,-13804.118,33835.29,3409.79,-11399.577,43686.934
1300300.0551623502,-57587.2,-45392.742,21237.875,-13802.856,33842.285,3418.1316,-11394.531,44045.535
1300300.0591623464,-57560.875,-45372.64,21273.072,-13804.077,33863.77,3428.9958,-11395.549,44438.152
1300300.0631623429,-57545.086,-45362.59,21291.342,-13805.583,33862.062,3428.06,-11399.618,44369.14
1300300.067162339,-57565.188,-45385.703,21272.299,-13807.658,33846.355,3415.3647,-11404.785,43816.53
1300300.0711623356,-57592.043,-45407.188,21245.158,-13805.746,33831.46,3411.499,-11404.745,43669.637
1300300.075162332,-57597.902,-45404.01,21244.549,-13803.711,33844.2,3417.4805,-11403.402,44034.71
1300300.0791623283,-57574.992,-45385.297,21263.387,-13804.565,33871.664,3424.1538,-11402.751,44404.83
1300300.0831623247,-57556.926,-45375.41,21284.18,-13806.071,33869.344,3424.52,-11404.135,44341.758
1300300.087162321,-57573.49,-45391.156,21273.316,-13807.333,33846.56,3416.5854,-11402.995,43823.285
1300300.0911623174,-57599.367,-45408.895,21251.1,-13804.81,33834.72,3410.8074,-11400.106,43675.66
1300300.0951623137,-57596.477,-45406.94,21241.21,-13802.45,33844.89,3416.9922,-11396.933,44118.367
1300300.0991623101,-57568.117,-45379.07,21264.08,-13803.183,33860.516,3426.4731,-11399.414,44527.223
1300300.1031623064,-57550.824,-45364.055,21293.54,-13804.892,33867.72,3425.8628,-11401.9375,44404.83
1300300.1071623028,-57568.36,-45383.383,21277.629,-13804.362,33853.76,3415.5273,-11398.52,43815.555
1300300.1111622993,-57601.77,-45418.945,21246.053,-13803.671,33837.2,3409.6274,-11394.735,43640.79
1300300.1151622955,-57605.145,-45416.707,21252.727,-13802.856,33852.297,3413.2488,-11393.393,44069.99
1300300.119162292,-57580.773,-45390.22,21271.2,-13801.84,33876.1,3421.224,-11394.247,44496.016
1300300.1231622882,-57561.16,-45376.02,21288.453,-13802.856,33879.273,3421.2646,-11397.055,44416.06
1300300.1271622847,-57573.73,-45385.38,21279.135,-13802.043,33854.004,3407.5115,-11400.432,43824.832
1300300.131162281,-57597.496,-45400.84,21250.896,-13799.927,33842.33,3402.954,-11397.949,43679.85
1300300.1351622774,-57597.453,-45395.875,21245.646,-13799.765,33856.0,3412.5164,-11392.416,44122.56
1300300.1391622736,-57567.59,-45367.516,21276.896,-13801.474,33867.15,3422.0378,-11393.311,44525.312
1300300.14316227,-57546.633,-45354.492,21302.41,-13801.147,33866.414,3420.3696,-11396.973,44362.715
1300300.1471622665,-57563.723,-45370.85,21277.059,-13799.765,33845.582,3409.546,-11399.17,43788.984
1300300.1511622628,-57595.055,-45395.43,21243.205,-13798.3,33833.336,3403.5645,-11397.665,43627.156
1300300.1551622592,-57601.81,-45402.47,21248.78,-13798.462,33847.453,3412.1094,-11393.718,44077.68
1300300.1591622555,-57577.395,-45381.96,21272.95,-13798.056,33874.797,3425.944,-11392.578,44481.16
1300300.163162252,-57561.484,-45368.207,21293.783,-13798.869,33878.95,3424.398,-11396.322,44363.527
1300300.1671622482,-57576.703,-45383.992,21276.408,-13799.5205,33857.547,3413.1675,-11397.746,43833.62
1300300.1711622446,-57601.81,-45405.723,21253.988,-13800.903,33845.906,3409.4646,-11395.305,43736.656
1300300.1751622409,-57600.18,-45398.684,21246.785,-13800.415,33858.36,3418.1316,-11390.219,44147.258
1300300.1791622373,-57570.883,-45369.957,21269.572,-13800.659,33878.703,3429.2808,-11387.248,44515.34
1300300.1831622338,-57551.11,-45353.883,21288.777,-13800.456,33877.89,3430.1353,-11388.388,44362.957
1300300.18716223,-57571.332,-45373.496,21275.514,-13800.7,33854.29,3418.9453,-11389.12,43820.965
1300300.1911622265,-57600.547,-45400.23,21251.424,-13801.514,33833.945,3415.1611,-11385.742,43700.48
1300300.1951622227,-57600.87,-45393.598,21249.512,-13802.328,33852.457,3424.5605,-11379.883,44049.44
1300300.1991622192,-57574.707,-45371.746,21278.2,-13802.816,33878.297,3434.367,-11376.262,44466.023
1300300.2031622154,-57555.098,-45364.258,21298.584,-13804.606,33883.098,3434.082,-11379.028,44384.81
1300300.2071622119,-57572.39,-45385.62,21276.531,-13806.112,33858.727,3423.991,-11381.674,43817.06
1300300.211162208,-57604.492,-45410.44,21249.188,-13806.315,33848.105,3419.8406,-11380.778,43716.797
1300300.2151622046,-57605.676,-45412.477,21256.307,-13805.339,33860.72,3427.0835,-11379.477,44151.45
1300300.219162201,-57577.477,-45389.203,21286.865,-13806.315,33881.797,3433.9194,-11382.487,44541.547
1300300.2231621973,-57560.67,-45372.07,21295.857,-13806.926,33880.94,3432.658,-11386.557,44388.55
1300300.2271621937,-57579.633,-45387.41,21273.682,-13806.845,33859.5,3422.0786,-11388.713,43820.965
1300300.23116219,-57604.492,-45408.164,21249.756,-13805.014,33848.39,3416.2192,-11387.126,43701.17
1300300.2351621864,-57606.0,-45410.117,21251.668,-13803.752,33859.215,3424.642,-11383.545,44107.42
1300300.2391621827,-57581.016,-45385.582,21274.617,-13804.81,33884.44,3433.1055,-11387.695,44528.28
1300300.2431621791,-57567.1,-45379.234,21295.125,-13805.42,33882.285,3432.78,-11391.195,44374.637
1300300.2471621754,-57586.71,-45396.895,21283.406,-13805.054,33857.707,3421.0613,-11392.131,43798.383
1300300.2511621718,-57613.12,-45419.68,21253.785,-13803.833,33849.652,3417.1143,-11390.747,43680.543
1300300.2551621683,-57611.453,-45422.203,21250.164,-13801.921,33860.066,3425.9849,-11389.038,44134.074
1300300.2591621645,-57576.17,-45386.92,21278.117,-13801.962,33875.203,3435.018,-11389.7705,44560.793
1300300.263162161,-57558.637,-45372.97,21304.363,-13800.944,33876.63,3431.8442,-11393.393,44390.383
1300300.2671621572,-57581.91,-45394.86,21283.488,-13801.188,33854.9,3418.6199,-11398.682,43791.465
1300300.2711621537,-57610.883,-45416.383,21253.621,-13801.433,33837.445,3412.4756,-11396.403,43693.89
1300300.27516215,-57614.465,-45415.164,21253.377,-13801.066,33852.176,3419.5151,-11394.084,44101.848
1300300.2791621464,-57590.21,-45394.98,21285.238,-13799.887,33869.06,3427.0427,-11395.59,44510.867
1300300.2831621426,-57574.3,-45385.38,21306.396,-13801.2295,33869.63,3426.1475,-11398.193,44385.094
1300300.287162139,-57596.723,-45403.08,21274.74,-13803.142,33851.156,3416.5854,-11400.554,43790.652
1300300.2911621355,-57622.97,-45424.4,21252.482,-13803.264,33833.375,3414.3066,-11396.647,43740.113
1300300.2951621318,-57617.883,-45417.523,21260.783,-13799.5205,33850.426,3423.0552,-11395.59,44143.15
1300300.2991621282,-57588.992,-45387.86,21284.547,-13799.398,33876.06,3431.6406,-11398.967,44500.9
1300300.3031621245,-57576.66,-45383.465,21303.834,-13800.863,33874.676,3430.664,-11405.803,44361.043
1300300.307162121,-57594.484,-45399.05,21283.244,-13799.194,33855.633,3420.0034,-11407.593,43751.996
1300300.3111621172,-57621.22,-45415.57,21256.674,-13798.706,33842.53,3416.87,-11403.972,43671.184
1300300.3151621136,-57622.64,-45416.426,21260.58,-13797.119,33846.477,3426.88,-11396.281,44085.33
1300300.3191621099,-57595.094,-45391.4,21289.959,-13796.143,33869.59,3437.5815,-11394.287,44493.98
1300300.3231621063,-57573.406,-45380.25,21310.467,-13796.509,33873.047,3438.1104,-11396.118,44370.242
1300300.3271621028,-57590.293,-45399.293,21293.58,-13796.143,33853.92,3426.351,-11395.02,43792.684
1300300.331162099,-57616.863,-45417.24,21261.354,-13793.905,33838.867,3421.997,-11392.497,43743.613
1300300.3351620955,-57612.957,-45414.062,21268.719,-13792.318,33850.14,3430.42,-11389.689,44160.688
1300300.3391620917,-57580.527,-45388.67,21302.45,-13793.457,33875.895,3439.86,-11388.428,44505.293
1300300.3431620882,-57564.375,-45376.223,21316.895,-13793.823,33880.82,3438.3545,-11390.463,44330.406
1300300.3471620844,-57593.47,-45402.266,21296.346,-13795.736,33853.92,3426.9614,-11394.328,43711.387
1300300.351162081,-57624.473,-45428.145,21268.84,-13796.0205,33839.273,3424.1943,-11393.311,43650.15
1300300.3551620771,-57619.67,-45424.684,21260.05,-13794.76,33854.617,3433.309,-11389.038,44139.49
1300300.3591620736,-57586.59,-45399.457,21294.678,-13792.969,33879.76,3444.2954,-11389.323,44569.133
1300300.36316207,-57570.03,-45383.06,21321.777,-13793.051,33878.906,3443.7664,-11390.056,44407.797
1300300.3671620663,-57592.613,-45397.055,21294.271,-13791.789,33855.754,3430.3794,-11392.538,43784.508
1300300.3711620627,-57621.91,-45421.266,21260.01,-13789.795,33840.902,3425.9033,-11391.154,43700.277
1300300.375162059,-57625.164,-45417.277,21263.836,-13789.348,33853.273,3433.5532,-11385.58,44136.965
1300300.3791620554,-57596.926,-45391.4,21289.307,-13789.511,33883.75,3443.7664,-11384.644,44542.89
1300300.3831620517,-57583.58,-45385.582,21307.088,-13791.586,33885.906,3444.458,-11387.614,44381.27
1300300.3871620481,-57612.43,-45413.7,21292.4,-13793.62,33861.94,3431.8035,-11391.765,43793.215
1300300.3911620444,-57633.06,-45432.945,21266.643,-13791.464,33848.715,3427.9785,-11393.433,43743.855
1300300.3951620408,-57620.812,-45431.152,21269.531,-13791.464,33864.664,3436.849,-11393.2705,44175.375
1300300.3991620373,-57594.402,-45403.523,21292.684,-13792.399,33879.152,3446.289,-11394.206,44560.67
1300300.4031620335,-57586.348,-45395.02,21306.072,-13792.969,33881.188,3444.3767,-11395.549,44376.426
1300300.40716203,-57620.688,-45421.062,21276.367,-13794.027,33858.805,3430.7456,-11398.804,43741.21
1300300.4111620262,-57655.113,-45445.8,21248.373,-13792.766,33849.246,3428.711,-11397.014,43698.406
1300300.4151620227,-57628.664,-45432.82,21265.016,-13790.446,33870.242,3435.3843,-11396.403,44202.19
1300300.419162019,-57580.49,-45393.395,21300.13,-13788.168,33892.62,3443.8884,-11397.99,44553.71
1300300.4231620154,-57576.742,-45391.035,21317.098,-13789.836,33889.285,3443.441,-11399.984,44356.406
1300300.4271620116,-57612.59,-45415.61,21288.209,-13791.586,33859.99,3432.129,-11400.106,43727.01
1300300.431162008,-57644.37,-45431.277,21254.314,-13790.771,33844.566,3429.2808,-11396.24,43619.71
1300300.4351620045,-57641.44,-45425.58,21272.217,-13791.016,33859.336,3439.1685,-11394.206,44126.14
1300300.4391620008,-57608.887,-45405.56,21305.623,-13792.888,33880.535,3446.4111,-11395.712,44528.484
1300300.4431619972,-57593.67,-45398.887,21311.523,-13793.701,33878.95,3444.2954,-11399.252,44361.94
1300300.4471619935,-57621.176,-45419.355,21287.477,-13792.033,33853.72,3431.3152,-11403.32,43750.125
1300300.45116199,-57643.516,-45438.805,21264.893,-13789.633,33840.293,3427.2869,-11401.53,43704.59
1300300.4551619862,-57641.684,-45436.65,21268.758,-13790.487,33846.11,3437.4187,-11398.601,44164.43
1300300.4591619826,-57626.02,-45419.844,21291.912,-13794.23,33866.008,3447.7134,-11399.211,44534.383
1300300.463161979,-57610.516,-45413.008,21311.768,-13795.614,33867.96,3445.0278,-11404.541,44348.145
1300300.4671619753,-57625.082,-45435.06,21291.139,-13793.661,33846.477,3430.2166,-11409.79,43695.926
1300300.4711619718,-57652.344,-45451.01,21256.43,-13793.213,33837.73,3425.0083,-11411.174,43661.01
1300300.475161968,-57650.434,-45442.63,21264.404,-13793.823,33850.14,3432.0476,-11409.058,44155.234
1300300.4791619645,-57627.16,-45434.652,21294.557,-13795.248,33868.246,3442.4236,-11407.797,44522.46
1300300.4831619607,-57621.582,-45430.867,21300.822,-13796.835,33867.434,3442.627,-11408.813,44375.367
1300300.4871619572,-57653.688,-45442.223,21287.11,-13796.225,33847.008,3430.0945,-11408.936,43758.26
1300300.4911619534,-57690.676,-45462.65,21256.959,-13794.108,33842.9,3423.4214,-11409.058,43698.652
1300300.49516195,-57681.277,-45461.062,21262.492,-13793.254,33847.086,3432.129,-11408.651,44205.16
1300300.4991619464,-57642.297,-45436.445,21297.73,-13793.295,33872.316,3442.9119,-11406.006,44550.293
1300300.5031619426,-57619.47,-45419.56,21313.03,-13792.358,33876.508,3442.1387,-11406.494,44373.74
1300300.507161939,-57646.12,-45440.758,21291.3,-13792.277,33856.57,3430.0537,-11405.111,43776.043
1300300.5111619353,-57682.336,-45468.184,21266.44,-13793.01,33846.273,3427.4902,-11400.391,43715.332
1300300.5151619317,-57681.316,-45467.246,21271.281,-13793.01,33862.875,3436.32,-11397.787,44237.59
1300300.519161928,-57660.117,-45449.26,21289.998,-13793.173,33873.82,3446.3706,-11396.606,44573.406
1300300.5231619244,-57642.906,-45443.24,21307.21,-13795.451,33865.277,3444.9463,-11397.258,44392.254
1300300.5271619207,-57664.227,-45466.676,21284.709,-13795.654,33842.41,3433.3496,-11396.159,43761.965
1300300.5311619171,-57696.82,-45491.62,21264.283,-13793.783,33835.41,3429.5654,-11394.206,43714.844
1300300.5351619136,-57699.832,-45485.395,21248.738,-13793.417,33853.844,3438.9648,-11390.463,44205.65
1300300.5391619098,-57672.285,-45464.277,21288.006,-13793.417,33873.863,3448.2422,-11389.486,44571.37
1300300.5431619063,-57641.848,-45446.902,21312.42,-13793.579,33859.62,3444.4175,-11392.66,44386.92
1300300.5471619025,-57661.62,-45470.01,21294.271,-13792.847,33834.72,3431.6406,-11395.712,43760.297
1300300.551161899,-57702.273,-45501.465,21248.25,-13795.492,33836.02,3429.6875,-11391.968,43684.207
1300300.5551618952,-57708.215,-45502.156,21263.957,-13797.119,33852.742,3440.023,-11387.085,44179.688
1300300.5591618917,-57683.27,-45476.645,21296.021,-13795.41,33872.64,3449.3003,-11386.394,44606.445
1300300.563161888,-57664.836,-45463.79,21311.97,-13796.062,33872.52,3446.7773,-11387.004,44393.27
1300300.5671618844,-57685.63,-45483.36,21289.959,-13797.323,33843.223,3434.2449,-11389.567,43752.117
1300300.5711618809,-57711.47,-45504.883,21266.56,-13796.672,33835.246,3430.9897,-11390.056,43706.18
1300300.575161877,-57706.22,-45497.195,21248.21,-13794.922,33851.766,3440.918,-11387.899,44253.83
1300300.5791618736,-57676.84,-45468.223,21288.574,-13795.898,33872.195,3448.527,-11388.835,44629.64
1300300.5831618698,-57659.344,-45458.945,21312.703,-13797.201,33870.32,3444.58,-11391.684,44402.1
1300300.5871618662,-57684.777,-45485.027,21296.957,-13797.363,33842.69,3430.42,-11395.386,43755.332
1300300.5911618625,-57715.09,-45508.832,21267.537,-13796.957,33833.414,3425.0083,-11392.985,43675.09
1300300.595161859,-57716.15,-45503.99,21269.084,-13797.16,33851.688,3433.4717,-11390.625,44239.586
1300300.5991618552,-57681.766,-45472.656,21297.566,-13797.323,33865.074,3443.034,-11392.294,44604.25
1300300.6031618516,-57667.32,-45465.047,21311.28,-13796.184,33868.043,3439.2905,-11394.531,44336.062
1300300.607161848,-57688.56,-45487.754,21287.842,-13795.126,33851.44,3426.5137,-11397.665,43768.965
1300300.6111618443,-57713.258,-45508.668,21262.127,-13795.858,33838.34,3422.933,-11394.328,43750.977
1300300.6151618408,-57704.67,-45501.63,21272.664,-13793.417,33850.63,3432.4546,-11388.876,44239.625
1300300.619161837,-57675.133,-45471.273,21297.975,-13791.545,33874.555,3442.7898,-11384.97,44579.1
1300300.6231618335,-57668.336,-45465.78,21306.805,-13792.277,33880.086,3441.4062,-11383.952,44328.37
1300300.6271618297,-57692.832,-45487.305,21294.434,-13792.603,33854.086,3428.6704,-11388.469,43740.848
1300300.6311618262,-57718.26,-45505.574,21272.055,-13791.952,33844.117,3423.3398,-11389.445,43734.703
1300300.6351618224,-57712.89,-45500.855,21271.81,-13791.545,33856.445,3432.5767,-11389.12,44240.234
1300300.639161819,-57680.707,-45476.93,21305.46,-13791.748,33882.203,3441.447,-11386.801,44611.574
1300300.6431618154,-57666.465,-45463.95,21327.596,-13790.731,33882.406,3436.727,-11387.98,44412.11
1300300.6471618116,-57690.637,-45485.477,21302.084,-13789.714,33852.824,3423.9097,-11388.225,43802.86
1300300.651161808,-57716.637,-45506.31,21267.62,-13790.202,33845.055,3423.0957,-11386.475,43771.77
1300300.6551618043,-57707.805,-45494.71,21261.922,-13790.283,33861.734,3431.5593,-11388.428,44249.594
1300300.6591618008,-57675.945,-45466.676,21309.367,-13789.551,33880.414,3440.9995,-11387.655,44607.992
1300300.663161797,-57661.746,-45462.527,21329.754,-13790.854,33876.793,3438.436,-11389.486,44386.355
1300300.6671617934,-57688.76,-45493.29,21298.463,-13791.057,33848.676,3426.0254,-11387.614,43717.0
1300300.6711617897,-57721.64,-45506.758,21267.863,-13791.138,33835.574,3423.2993,-11383.301,43683.434
1300300.6751617861,-57711.348,-45496.176,21269.49,-13791.586,33855.633,3433.2683,-11380.453,44263.266
1300300.6791617826,-57680.016,-45472.535,21310.832,-13791.667,33877.93,3443.563,-11382.08,44663.94
1300300.6831617788,-57671.062,-45463.543,21321.29,-13793.254,33871.99,3439.86,-11383.667,44407.105
1300300.6871617753,-57699.63,-45488.324,21292.928,-13792.969,33855.105,3426.5952,-11384.726,43782.715
1300300.6911617715,-57720.83,-45509.848,21264.69,-13791.016,33845.176,3425.1304,-11382.324,43779.83
1300300.695161768,-57708.703,-45507.69,21269.857,-13790.731,33860.516,3433.4717,-11383.057,44285.727
1300300.6991617642,-57681.48,-45480.39,21311.605,-13791.098,33878.62,3440.5925,-11384.5625,44619.14
1300300.7031617607,-57673.18,-45474.082,21325.033,-13791.138,33876.59,3436.4421,-11385.132,44349.406
1300300.707161757,-57704.266,-45496.094,21302.246,-13791.83,33851.32,3424.8862,-11383.22,43748.58
1300300.7111617534,-57729.902,-45514.57,21274.129,-13790.854,33844.035,3423.9502,-11380.656,43772.707
1300300.7151617499,-57719.16,-45506.676,21281.006,-13790.771,33865.562,3435.2622,-11378.581,44334.434
1300300.719161746,-57690.023,-45484.703,21308.146,-13792.399,33886.68,3443.4001,-11381.511,44672.49
1300300.7231617426,-57684.164,-45480.31,21332.072,-13793.498,33876.383,3438.1511,-11385.539,44364.79
1300300.7271617388,-57713.504,-45501.875,21301.229,-13793.498,33852.254,3425.7407,-11388.428,43688.68
1300300.7311617353,-57742.883,-45523.52,21267.416,-13793.579,33839.316,3423.2993,-11385.173,43674.6
1300300.7351617315,-57733.117,-45523.48,21264.404,-13794.108,33853.477,3432.658,-11386.475,44237.184
1300300.739161728,-57704.023,-45496.625,21310.14,-13793.945,33878.01,3440.1042,-11390.137,44605.957
1300300.7431617242,-57695.76,-45487.67,21323.934,-13793.376,33875.816,3434.5298,-11392.904,44335.086
1300300.7471617206,-57717.652,-45506.27,21299.52,-13792.033,33855.957,3423.6655,-11390.869,43727.785
1300300.751161717,-57744.71,-45531.902,21272.258,-13793.295,33847.74,3421.7124,-11386.149,43701.906
1300300.7551617133,-57734.17,-45522.016,21282.797,-13792.236,33872.926,3432.0476,-11384.97,44290.45
1300300.7591617098,-57702.516,-45492.473,21311.238,-13793.62,33893.066,3440.5925,-11383.911,44644.734
1300300.763161706,-57697.188,-45485.477,21314.088,-13793.457,33888.875,3436.2793,-11385.376,44380.94
1300300.7671617025,-57726.688,-45512.047,21290.242,-13792.521,33864.22,3423.869,-11385.498,43757.324
1300300.7711616987,-57755.168,-45532.88,21265.219,-13792.155,33849.812,3422.16,-11383.708,43766.848
1300300.7751616952,-57745.605,-45523.848,21279.541,-13792.603,33870.523,3429.9316,-11382.121,44290.0
1300300.7791616914,-57714.805,-45498.332,21312.908,-13794.353,33892.133,3439.209,-11383.22,44644.33
1300300.783161688,-57711.55,-45500.125,21317.342,-13793.783,33882.57,3434.9773,-11385.539,44385.336
1300300.7871616844,-57744.508,-45523.97,21296.143,-13793.335,33853.395,3423.1772,-11384.399,43701.133
1300300.7911616806,-57776.45,-45545.004,21265.137,-13793.905,33852.664,3421.9158,-11379.883,43708.008
1300300.795161677,-57765.22,-45537.273,21272.584,-13794.841,33867.758,3430.4607,-11380.453,44270.67
1300300.7991616733,-57732.91,-45512.94,21309.082,-13794.394,33883.06,3438.8835,-11384.766,44631.023
1300300.8031616698,-57727.582,-45505.21,21328.084,-13794.76,33883.992,3434.5298,-11387.411,44352.176
1300300.807161666,-57748.7,-45526.125,21293.986,-13794.719,33860.72,3423.6248,-11388.835,43780.113
1300300.8111616625,-57771.484,-45545.086,21267.213,-13792.888,33848.55,3421.2646,-11390.951,43783.734
1300300.8151616587,-57762.902,-45541.22,21278.85,-13792.196,33865.887,3427.8972,-11392.416,44301.68
1300300.8191616551,-57733.605,-45520.633,21326.58,-13792.155,33879.11,3434.5703,-11390.747,44615.438
1300300.8231616516,-57735.15,-45513.348,21337.607,-13794.312,33872.4,3432.0476,-11388.428,44305.625
1300300.8271616478,-57777.957,-45540.12,21299.398,-13794.882,33847.574,3419.6777,-11388.754,43728.64
1300300.8311616443,-57789.797,-45559.33,21269.572,-13794.638,33838.016,3419.1082,-11385.539,43755.008
1300300.8351616405,-57775.84,-45551.27,21284.871,-13795.126,33858.195,3431.478,-11382.65,44341.188
1300300.839161637,-57759.727,-45531.58,21325.115,-13797.119,33882.49,3439.7788,-11381.104,44709.11
1300300.8431616332,-57753.746,-45523.97,21327.76,-13798.462,33875.855,3436.4421,-11382.365,44381.96
1300300.8471616297,-57773.438,-45547.324,21296.55,-13797.893,33848.43,3421.9565,-11384.481,43714.113
1300300.8511616262,-57796.594,-45571.047,21270.346,-13796.794,33842.0,3419.7593,-11383.179,43747.56
1300300.8551616224,-57801.72,-45569.297,21291.219,-13799.072,33857.26,3430.42,-11382.162,44302.33
1300300.8591616189,-57775.637,-45545.047,21320.271,-13800.171,33875.53,3437.4187,-11384.521,44615.6
1300300.863161615,-57751.953,-45543.17,21314.373,-13800.131,33872.03,3433.7566,-11384.277,44346.965
1300300.8671616116,-57780.887,-45568.605,21285.564,-13799.113,33847.535,3423.6655,-11382.284,43772.79
1300300.8711616078,-57811.973,-45586.508,21266.887,-13798.462,33842.773,3423.9097,-11375.692,43808.434
1300300.8751616043,-57806.64,-45575.887,21269.451,-13798.666,33860.395,3435.8726,-11374.878,44359.99
1300300.8791616005,-57779.38,-45558.92,21307.537,-13801.596,33882.69,3444.336,-11377.116,44681.355
1300300.883161597,-57778.65,-45554.484,21319.988,-13802.409,33874.27,3440.0635,-11377.808,44387.047
1300300.8871615934,-57809.492,-45576.133,21292.033,-13802.572,33842.0,3427.7344,-11376.669,43749.31
1300300.8911615897,-57836.145,-45599.734,21272.38,-13801.921,33838.137,3426.6357,-11376.181,43783.773
1300300.895161586,-57832.4,-45595.867,21276.164,-13802.734,33848.676,3433.7158,-11377.157,44334.637
1300300.8991615823,-57809.41,-45576.62,21310.873,-13803.671,33873.047,3441.6504,-11378.622,44701.703
1300300.9031615788,-57798.383,-45579.67,21318.93,-13805.298,33875.043,3440.9995,-11379.232,44364.22
1300300.907161575,-57835.574,-45610.395,21280.844,-13806.519,33844.484,3425.7812,-11381.43,43672.527
1300300.9111615715,-57865.44,-45627.523,21258.098,-13806.03,33840.78,3422.2007,-11381.186,43754.03
1300300.9151615677,-57853.438,-45620.08,21272.705,-13804.362,33857.42,3433.5938,-11379.639,44348.918
1300300.9191615642,-57827.312,-45599.652,21304.078,-13803.589,33876.508,3442.9526,-11379.721,44680.664
1300300.9231615607,-57819.746,-45593.832,21309.652,-13804.565,33871.5,3438.4766,-11382.365,44420.695
1300300.927161557,-57851.44,-45623.17,21284.303,-13804.851,33840.58,3427.1648,-11382.69,43780.152
1300300.9311615534,-57886.926,-45655.56,21249.105,-13805.258,33834.188,3426.4731,-11379.477,43784.63
1300300.9351615496,-57880.09,-45654.137,21261.719,-13806.682,33855.387,3435.018,-11377.768,44334.15
1300300.939161546,-57846.316,-45621.176,21297.445,-13805.868,33875.855,3441.0808,-11380.656,44640.22
1300300.9431615423,-57838.91,-45607.586,21306.723,-13804.403,33870.89,3435.3843,-11383.342,44367.434
1300300.9471615388,-57879.152,-45642.863,21275.879,-13805.827,33849.04,3421.6309,-11382.731,43738.527
1300300.951161535,-57913.008,-45666.14,21248.088,-13806.152,33837.566,3419.9626,-11378.256,43812.46
1300300.9551615315,-57908.082,-45659.953,21258.504,-13805.705,33856.363,3433.2683,-11373.169,44382.734
1300300.959161528,-57877.2,-45645.1,21294.19,-13807.455,33878.95,3440.5925,-11373.535,44692.14
1300300.9631615242,-57875.207,-45643.965,21298.34,-13808.146,33867.105,3432.4138,-11377.6045,44366.62
1300300.9671615206,-57912.76,-45671.023,21267.254,-13807.089,33835.53,3418.3757,-11379.028,43729.414
1300300.9711615168,-57951.297,-45700.32,21238.322,-13807.617,33831.016,3418.1316,-11377.197,43772.22
1300300.9751615133,-57946.168,-45700.562,21250.732,-13809.164,33853.027,3429.0771,-11376.018,44358.766
1300300.9791615095,-57911.01,-45679.484,21287.436,-13808.716,33872.195,3438.3953,-11377.563,44721.926
1300300.983161506,-57907.88,-45686.2,21296.63,-13811.6455,33862.875,3435.0586,-11379.599,44376.953
1300300.9871615022,-57939.414,-45717.207,21267.904,-13809.896,33836.184,3421.875,-11380.493,43724.324
1300300.9911614987,-57962.73,-45729.535,21244.182,-13807.007,33828.086,3421.3462,-11376.14,43811.117
1300300.9951614952,-57951.418,-45711.71,21253.744,-13809.855,33845.906,3432.3325,-11370.524,44406.25
1300300.9991614914,-57921.836,-45679.445,21290.527,-13809.611,33857.992,3441.0808,-11368.368,44712.2
1300301.0031614879,-57911.95,-45676.96,21301.393,-13810.425,33850.098,3435.5469,-11369.263,44373.78
1300301.007161484,-57935.344,-45701.54,21263.307,-13810.1,33832.97,3425.6187,-11366.333,43767.5
1300301.0111614806,-57961.1,-45719.24,21243.246,-13809.448,33837.2,3424.6013,-11361.654,43818.035
1300301.0151614768,-57944.906,-45707.723,21258.3,-13809.489,33857.504,3435.8318,-11358.032,44402.223
1300301.0191614733,-57912.316,-45683.555,21295.33,-13809.245,33872.477,3444.58,-11359.579,44728.598
1300301.0231614695,-57910.93,-45679.934,21306.64,-13807.739,33860.15,3438.558,-11362.834,44362.348
1300301.027161466,-57951.945,-45710.29,21285.035,-13807.414,33836.832,3425.415,-11361.247,43687.258
1300301.0311614624,-57969.24,-45731.367,21267.945,-13808.96,33834.23,3427.6938,-11354.167,43829.43
1300301.0351614587,-57950.523,-45719.81,21268.352,-13810.873,33850.26,3440.023,-11351.278,44404.297
1300301.0391614551,-57923.137,-45693.727,21298.584,-13812.622,33866.902,3449.5037,-11349.447,44720.055
1300301.0431614514,-57918.05,-45691.49,21305.299,-13812.582,33861.613,3445.272,-11350.668,44369.266
1300301.0471614478,-57939.74,-45717.938,21282.879,-13811.239,33841.637,3433.96,-11350.79,43775.066
1300301.051161444,-57963.22,-45734.703,21254.762,-13810.019,33843.875,3432.1697,-11349.854,43862.387
1300301.0551614405,-57954.633,-45722.94,21264.568,-13809.733,33864.098,3440.0635,-11350.22,44431.6
1300301.0591614367,-57926.395,-45698.12,21299.928,-13810.466,33883.016,3448.69,-11349.854,44780.316
1300301.0631614332,-57917.848,-45692.87,21310.467,-13810.263,33876.75,3445.1904,-11350.18,44407.758
1300301.0671614297,-57950.645,-45720.664,21286.297,-13809.937,33851.035,3430.0132,-11351.767,43717.773
1300301.071161426,-57975.953,-45737.47,21263.387,-13808.798,33836.1,3432.0476,-11347.534,43839.195
1300301.0751614224,-57963.22,-45724.12,21270.102,-13809.611,33863.406,3444.9058,-11343.1,44450.44
1300301.0791614186,-57931.562,-45700.523,21294.475,-13810.019,33882.69,3453.4912,-11344.076,44759.645
1300301.083161415,-57932.293,-45699.383,21308.146,-13810.995,33870.16,3447.1843,-11348.633,44394.613
1300301.0871614113,-57968.63,-45726.973,21291.83,-13810.425,33846.152,3432.9429,-11349.447,43758.504
1300301.0911614078,-57990.766,-45745.04,21260.133,-13809.692,33845.46,3433.187,-11348.43,43841.797
1300301.095161404,-57969.566,-45729.332,21271.729,-13809.123,33867.637,3444.7837,-11351.074,44453.29
1300301.0991614005,-57933.516,-45700.36,21300.496,-13809.855,33887.25,3451.6196,-11353.3125,44757.367
1300301.103161397,-57931.277,-45699.91,21306.682,-13811.809,33874.96,3446.818,-11354.33,44374.434
1300301.1071613932,-57962.04,-45731.242,21280.07,-13812.785,33843.508,3434.204,-11355.551,43734.336
1300301.1111613896,-57998.13,-45757.324,21250.326,-13812.5,33833.984,3434.1636,-11351.685,43803.59
1300301.1151613859,-57982.42,-45745.117,21267.375,-13810.71,33861.207,3446.8994,-11347.046,44448.082
1300301.1191613823,-57927.656,-45707.766,21310.791,-13807.414,33891.4,3454.5493,-11346.477,44812.215
1300301.1231613785,-57917.117,-45698.652,21316.691,-13808.757,33880.74,3447.8354,-11347.209,44417.36
1300301.127161375,-57969.85,-45742.188,21279.908,-13810.791,33843.14,3436.9304,-11343.384,43776.938
1300301.1311613712,-57999.797,-45766.562,21255.86,-13811.076,33839.273,3436.605,-11340.454,43865.316
1300301.1351613677,-57984.375,-45750.246,21270.223,-13811.972,33862.47,3446.7368,-11340.983,44442.71
1300301.1391613642,-57957.4,-45736.9,21305.055,-13813.518,33878.824,3456.3396,-11339.763,44728.355
1300301.1431613604,-57957.03,-45736.86,21309.326,-13814.169,33868.57,3452.6775,-11339.763,44358.684
1300301.1471613569,-57990.4,-45760.582,21279.744,-13813.477,33847.168,3440.8367,-11337.891,43773.234
1300301.151161353,-58017.457,-45777.996,21260.213,-13812.094,33843.953,3440.6333,-11336.914,43867.312
1300301.1551613496,-57995.08,-45760.457,21266.969,-13810.832,33864.46,3450.8057,-11336.223,44459.92
1300301.1591613458,-57956.91,-45730.55,21305.867,-13811.483,33885.906,3459.5947,-11337.362,44802.086
1300301.1631613423,-57950.277,-45728.56,21315.838,-13810.303,33882.242,3452.9216,-11341.431,44421.797
1300301.1671613385,-57988.65,-45754.844,21283.162,-13810.263,33851.645,3437.0117,-11346.924,43756.43
1300301.171161335,-58017.09,-45776.492,21263.021,-13808.269,33843.63,3436.727,-11349.284,43879.64
1300301.1751613314,-58003.785,-45767.215,21282.756,-13807.333,33866.05,3448.6492,-11348.308,44432.21
1300301.1791613277,-57975.508,-45746.094,21303.264,-13810.751,33880.535,3455.8105,-11348.552,44763.023
1300301.1831613241,-57969.65,-45746.91,21304.77,-13811.809,33868.207,3449.2188,-11352.499,44407.84
1300301.1871613204,-58002.44,-45774.008,21275.39,-13809.082,33841.637,3436.0352,-11353.394,43758.383
1300301.1911613168,-58019.816,-45781.617,21257.977,-13808.146,33833.66,3439.1685,-11348.308,43885.38
1300301.195161313,-58001.59,-45762.617,21278.32,-13808.757,33851.81,3452.108,-11340.698,44473.188
1300301.1991613095,-57972.496,-45738.566,21304.158,-13810.71,33876.63,3459.4727,-11340.942,44759.36
1300301.2031613057,-57970.95,-45737.305,21309.45,-13810.303,33869.875,3452.5146,-11343.669,44354.047
1300301.2071613022,-58007.895,-45774.414,21280.232,-13810.71,33842.367,3439.5752,-11346.151,43698.855
1300301.2111612987,-58027.59,-45788.25,21259.686,-13810.995,33843.875,3440.3892,-11343.954,43843.06
1300301.215161295,-58010.297,-45765.34,21281.047,-13811.117,33867.35,3452.1484,-11341.513,44472.94
1300301.2191612914,-57978.883,-45745.688,21301.19,-13813.232,33886.355,3459.8389,-11341.716,44760.703
1300301.2231612876,-57973.105,-45743.41,21303.182,-13813.803,33873.94,3454.3457,-11344.482,44360.15
1300301.227161284,-58003.625,-45772.137,21285.28,-13813.477,33842.613,3441.3657,-11344.076,43726.24
1300301.2311612803,-58027.062,-45790.082,21257.283,-13811.89,33838.707,3437.9883,-11342.651,43878.62
1300301.2351612768,-58010.664,-45770.305,21269.043,-13811.605,33865.234,3447.5505,-11343.303,44424.6
1300301.2391612732,-57975.098,-45743.086,21308.229,-13809.855,33888.062,3455.8513,-11344.36,44760.906
1300301.2431612695,-57962.2,-45736.004,21315.43,-13810.344,33880.332,3449.4224,-11349.569,44430.34
1300301.247161266,-57993.816,-45760.38,21284.832,-13809.53,33849.367,3434.4077,-11352.499,43768.965
1300301.2511612622,-58018.555,-45773.277,21262.207,-13806.519,33842.977,3434.9365,-11350.302,43846.152
1300301.2551612586,-58000.855,-45755.414,21276.49,-13805.339,33868.938,3448.4458,-11348.877,44446.25
1300301.2591612549,-57967.816,-45733.36,21310.059,-13806.193,33886.8,3454.6306,-11351.889,44741.254
1300301.2631612513,-57965.09,-45735.84,21327.434,-13807.577,33881.062,3448.161,-11353.435,44366.824
1300301.2671612476,-57993.043,-45761.68,21291.545,-13807.129,33852.582,3436.0352,-11354.858,43760.824
1300301.271161244,-58012.453,-45774.09,21259.889,-13806.03,33852.176,3436.5234,-11353.516,43890.016
1300301.2751612405,-57995.65,-45760.5,21286.541,-13807.292,33877.89,3448.6492,-11349.121,44499.227
1300301.2791612367,-57955.527,-45735.35,21312.582,-13807.17,33885.99,3458.903,-11347.738,44781.008
1300301.2831612332,-57948.12,-45731.16,21319.012,-13806.804,33879.52,3456.95,-11347.25,44376.223
1300301.2871612294,-57981.12,-45754.52,21288.006,-13807.455,33852.867,3447.0215,-11343.669,43723.348
1300301.2911612259,-58008.586,-45774.984,21266.928,-13808.065,33851.688,3445.9636,-11338.583,43814.74
1300301.295161222,-57991.21,-45757.082,21290.365,-13808.96,33874.88,3457.9673,-11336.142,44449.22
1300301.2991612186,-57958.215,-45732.668,21316.162,-13807.699,33890.75,3463.6638,-11340.698,44781.78
1300301.3031612148,-57957.03,-45731.812,21325.928,-13805.827,33879.598,3456.95,-11346.313,44384.277
1300301.3071612113,-57989.746,-45756.633,21293.416,-13805.624,33856.934,3447.1843,-11345.907,43805.22
1300301.3111612077,-58014.203,-45772.746,21268.025,-13804.443,33855.31,3448.812,-11342.57,43919.434
1300301.315161204,-57995.484,-45755.332,21281.738,-13802.165,33877.605,3462.443,-11338.745,44475.832
1300301.3191612004,-57958.418,-45730.43,21318.4,-13803.061,33893.35,3469.686,-11337.524,44714.277
1300301.3231611967,-57958.336,-45733.074,21325.074,-13803.711,33880.984,3464.8438,-11338.461,44261.92
1300301.3271611931,-57994.63,-45761.56,21298.87,-13803.183,33856.65,3452.8809,-11337.81,43687.99
1300301.3311611894,-58012.37,-45778.73,21268.434,-13802.572,33854.41,3453.6948,-11333.7,43887.047
1300301.3351611858,-57994.1,-45764.082,21284.18,-13803.589,33872.76,3466.919,-11330.7295,44489.504
1300301.339161182,-57960.734,-45739.34,21314.656,-13803.955,33884.48,3475.0571,-11334.27,44768.35
1300301.3431611785,-57954.836,-45738.65,21322.186,-13803.142,33868.855,3467.9363,-11336.101,44338.91
1300301.347161175,-57985.637,-45761.19,21296.021,-13800.944,33847.008,3454.1016,-11336.06,43711.71
1300301.3511611712,-58007.324,-45776.855,21287.68,-13801.27,33847.617,3456.1768,-11333.374,43818.688
1300301.3551611677,-57989.137,-45757.367,21292.074,-13801.188,33876.426,3469.157,-11331.462,44498.293
1300301.359161164,-57961.145,-45730.47,21315.105,-13801.962,33902.793,3475.9521,-11332.642,44770.266
1300301.3631611604,-57962.2,-45736.9,21317.75,-13803.183,33873.375,3469.4824,-11337.973,44306.4
1300301.3671611566,-57995.566,-45763.594,21289.104,-13803.589,33839.56,3459.188,-11337.851,43693.36
1300301.371161153,-58017.5,-45778.16,21274.943,-13801.352,33835.9,3459.961,-11336.101,43823.73
1300301.3751611493,-58004.113,-45771.04,21280.682,-13800.131,33850.953,3467.448,-11336.548,44382.406
1300301.3791611458,-57972.863,-45751.668,21310.262,-13799.602,33870.85,3473.0225,-11336.955,44645.996
1300301.3831611422,-57975.914,-45752.484,21306.682,-13799.194,33865.48,3468.5059,-11334.392,44280.926
1300301.3871611385,-58014.977,-45782.15,21281.414,-13799.316,33845.785,3455.77,-11333.374,43674.156
1300301.391161135,-58020.348,-45781.535,21267.62,-13798.259,33850.75,3456.665,-11330.7295,43856.406
1300301.3951611312,-57986.492,-45755.496,21285.4,-13798.056,33874.15,3469.8894,-11330.444,44477.46
1300301.3991611276,-57957.805,-45728.68,21319.215,-13798.788,33889.324,3478.6377,-11332.683,44776.367
1300301.4031611239,-57960.777,-45732.79,21320.436,-13799.357,33870.523,3471.4355,-11336.345,44329.305
1300301.4071611203,-58000.043,-45767.58,21287.477,-13799.724,33843.953,3458.0486,-11341.105,43707.562
1300301.4111611166,-58021.363,-45785.89,21266.316,-13799.113,33842.49,3456.8687,-11343.384,43835.734
1300301.415161113,-57996.707,-45764.773,21288.412,-13797.648,33864.95,3468.9128,-11341.919,44473.758
1300301.4191611095,-57960.98,-45737.1,21311.89,-13796.469,33888.023,3476.644,-11340.17,44781.21
1300301.4231611057,-57955.16,-45730.023,21320.232,-13795.248,33875.57,3468.7095,-11339.966,44337.65
1300301.4271611022,-57984.5,-45750.652,21286.824,-13795.044,33844.727,3456.1362,-11341.797,43750.652
1300301.4311610984,-58003.625,-45763.67,21268.31,-13793.701,33840.13,3458.5776,-11339.763,43915.69
1300301.4351610949,-57983.4,-45744.67,21287.72,-13791.952,33864.543,3470.581,-11336.345,44502.77
1300301.439161091,-57952.23,-45720.543,21320.76,-13793.579,33886.434,3477.0916,-11336.955,44774.09
1300301.4431610876,-57959.883,-45731.082,21321.453,-13796.306,33869.67,3468.6687,-11340.088,44295.695
1300301.4471610838,-57996.582,-45763.105,21281.78,-13796.184,33842.0,3456.7058,-11342.611,43699.707
1300301.4511610803,-58018.434,-45779.258,21260.621,-13795.492,33844.363,3459.9204,-11339.355,43908.53
1300301.4551610767,-57999.758,-45762.004,21287.965,-13795.654,33868.652,3473.0632,-11336.833,44523.36
1300301.459161073,-57969.727,-45742.27,21323.568,-13796.184,33889.285,3481.2012,-11338.542,44829.633
1300301.4631610694,-57964.562,-45745.81,21321.777,-13795.817,33871.5,3473.226,-11344.687,44358.156
1300301.4671610657,-57994.1,-45765.34,21292.236,-13795.776,33842.082,3457.601,-11348.267,43704.715
1300301.4711610621,-58014.61,-45777.754,21280.477,-13794.719,33840.984,3459.4321,-11344.442,43849.855
1300301.4751610584,-57997.887,-45764.69,21297.648,-13795.37,33862.508,3473.9585,-11340.78,44479.902
1300301.4791610548,-57967.33,-45740.316,21324.383,-13795.451,33880.86,3481.9744,-11342.489,44834.066
1300301.483161051,-57966.88,-45740.52,21318.115,-13796.062,33867.637,3471.1914,-11347.29,44334.15
1300301.4871610475,-58003.625,-45769.29,21288.006,-13797.282,33842.734,3457.7231,-11347.128,43703.656
1300301.491161044,-58021.61,-45783.406,21272.34,-13796.0205,33838.258,3459.7983,-11343.628,43952.637
1300301.4951610402,-57998.457,-45762.332,21293.904,-13796.835,33864.625,3471.517,-11341.513,44550.742
1300301.4991610367,-57965.54,-45738.08,21325.277,-13796.469,33881.227,3478.2715,-11343.506,44806.438
1300301.503161033,-57967.207,-45747.316,21323.527,-13796.916,33863.934,3471.1914,-11347.616,44350.75
1300301.5071610294,-57999.92,-45775.312,21295.125,-13796.347,33835.938,3457.3975,-11348.552,43691.043
1300301.5111610256,-58015.016,-45789.105,21274.049,-13796.0205,33845.215,3458.1707,-11345.175,43883.016
1300301.515161022,-57998.66,-45768.598,21294.922,-13797.079,33871.83,3471.5984,-11344.6045,44525.92
1300301.5191610183,-57969.2,-45747.805,21325.684,-13799.235,33887.94,3477.539,-11347.738,44773.97
1300301.5231610148,-57968.26,-45748.13,21321.086,-13799.602,33862.508,3470.0522,-11352.011,44313.273
1300301.5271610112,-58001.75,-45768.965,21296.998,-13798.462,33833.58,3457.601,-11351.604,43734.457
1300301.5311610075,-58017.54,-45781.902,21283.732,-13797.038,33834.555,3462.2803,-11344.687,43949.016
1300301.535161004,-57999.434,-45769.125,21291.26,-13798.747,33862.062,3475.9521,-11344.238,44534.953
1300301.5391610002,-57969.2,-45748.902,21323.73,-13800.863,33877.035,3482.7476,-11346.3955,44751.223
1300301.5431609966,-57969.81,-45752.32,21325.195,-13802.816,33860.15,3475.0977,-11349.772,44328.453
1300301.5471609929,-58005.86,-45778.484,21293.254,-13801.311,33844.484,3460.4087,-11350.546,43733.523
1300301.5511609893,-58026.004,-45793.66,21272.299,-13800.863,33845.418,3459.8389,-11347.331,43945.965
1300301.5551609856,-58001.14,-45769.574,21291.463,-13799.927,33861.043,3472.168,-11344.6455,44585.53
1300301.559160982,-57968.426,-45741.54,21321.086,-13799.438,33875.613,3478.8005,-11344.36,44831.055
1300301.5631609785,-57972.09,-45750.652,21326.62,-13801.147,33857.668,3468.1804,-11347.616,44337.16
1300301.5671609747,-58009.973,-45782.797,21296.225,-13801.147,33831.3,3453.0845,-11349.325,43725.344
1300301.5711609712,-58026.492,-45799.887,21275.514,-13800.09,33837.363,3454.5493,-11347.575,43921.836
1300301.5751609674,-58007.69,-45783.285,21301.352,-13799.805,33861.453,3467.9363,-11347.656,44545.125
1300301.579160964,-57978.395,-45761.64,21332.113,-13801.352,33879.76,3474.406,-11347.046,44793.5
1300301.58316096,-57980.31,-45766.24,21328.248,-13800.375,33860.84,3463.8267,-11347.819,44297.242
1300301.5871609566,-58011.926,-45794.965,21294.354,-13798.503,33834.92,3452.0671,-11343.954,43736.37
1300301.591160953,-58028.65,-45799.805,21275.432,-13799.072,33837.2,3453.817,-11342.855,43970.418
1300301.5951609493,-58007.734,-45777.06,21292.074,-13798.462,33858.805,3463.9893,-11343.832,44590.09
1300301.5991609457,-57979.574,-45753.5,21328.777,-13798.056,33871.46,3470.5405,-11342.937,44788.535
1300301.603160942,-57981.652,-45762.98,21332.44,-13799.805,33854.695,3465.0066,-11343.506,44312.38
1300301.6071609384,-58010.824,-45790.082,21293.457,-13800.171,33832.113,3450.8464,-11346.069,43752.645
1300301.6111609347,-58032.434,-45799.805,21273.56,-13797.241,33835.41,3449.2188,-11346.069,43908.613
1300301.6151609311,-58019.453,-45782.84,21294.271,-13797.485,33862.508,3458.0078,-11349.813,44464.723
1300301.6191609274,-57984.945,-45761.19,21329.102,-13799.113,33876.668,3463.8672,-11352.173,44773.562
1300301.6231609238,-57984.254,-45765.953,21329.916,-13799.398,33861.574,3455.485,-11353.149,44300.863
1300301.6271609203,-58020.996,-45797.977,21294.516,-13798.584,33830.812,3442.9526,-11354.818,43736.9
1300301.6311609165,-58040.04,-45807.902,21276.49,-13798.056,33835.613,3446.4111,-11354.818,43946.492
1300301.635160913,-58013.957,-45785.24,21297.934,-13798.422,33863.04,3457.8857,-11353.638,44591.51
1300301.6391609092,-57980.188,-45757.04,21332.357,-13798.178,33882.324,3463.2568,-11356.445,44827.23
1300301.6431609057,-57977.703,-45760.664,21336.71,-13797.241,33862.1,3454.956,-11358.48,44345.83
1300301.647160902,-58015.625,-45796.715,21296.875,-13795.695,33836.14,3441.6912,-11361.491,43751.793
1300301.6511608984,-58046.55,-45824.63,21273.764,-13797.16,33828.94,3443.6443,-11362.468,43946.25
1300301.6551608946,-58021.445,-45794.8,21303.02,-13798.503,33858.36,3455.485,-11363.444,44580.527
1300301.659160891,-57970.137,-45742.96,21333.375,-13796.062,33887.37,3460.8154,-11363.974,44833.375
1300301.6631608875,-57970.746,-45748.414,21328.613,-13795.41,33874.27,3451.945,-11361.613,44345.055
1300301.6671608838,-58008.547,-45779.867,21298.178,-13794.882,33846.07,3441.569,-11358.5205,43816.938
1300301.6711608802,-58030.273,-45796.67,21281.658,-13794.312,33843.02,3445.4753,-11355.225,44036.055
1300301.6751608765,-58015.832,-45782.637,21301.31,-13796.672,33864.46,3456.543,-11354.126,44608.4
1300301.679160873,-57992.434,-45759.24,21332.275,-13797.689,33876.63,3460.4087,-11356.812,44797.406
1300301.6831608692,-57994.71,-45767.62,21332.316,-13798.503,33857.383,3450.9277,-11357.951,44240.848
1300301.6871608656,-58023.113,-45794.273,21300.537,-13797.241,33837.2,3440.1042,-11356.242,43708.293
1300301.6911608619,-58033.977,-45799.93,21286.377,-13797.323,33841.676,3444.2546,-11349.854,44026.855
1300301.6951608583,-58006.473,-45774.008,21309.285,-13797.689,33866.617,3456.0547,-11348.349,44613.77
1300301.6991608548,-57973.227,-45755.535,21343.914,-13797.648,33879.52,3461.1816,-11349.936,44797.934
1300301.703160851,-57978.477,-45765.383,21342.57,-13797.404,33861.816,3452.3926,-11351.359,44341.188
1300301.7071608475,-58016.97,-45797.65,21295.695,-13798.869,33839.97,3440.3892,-11352.702,43787.8
1300301.7111608437,-58036.34,-45807.617,21280.273,-13797.567,33840.332,3444.2139,-11349.569,44000.0
1300301.7151608402,-58011.438,-45783.816,21305.42,-13796.225,33864.176,3456.8687,-11349.081,44581.625
1300301.7191608364,-57981.324,-45756.88,21338.95,-13797.363,33878.664,3463.5825,-11351.156,44839.723
1300301.723160833,-57988.812,-45763.184,21336.426,-13799.072,33869.71,3455.6885,-11352.905,44324.547
1300301.7271608291,-58022.34,-45798.137,21298.137,-13800.456,33838.38,3443.6443,-11353.109,43758.098
1300301.7311608256,-58035.77,-45809.57,21281.291,-13800.293,33839.07,3445.3533,-11351.196,43995.605
1300301.735160822,-58013.47,-45787.11,21307.008,-13799.887,33866.54,3458.13,-11348.674,44548.383
1300301.7391608183,-57980.797,-45756.31,21343.262,-13800.659,33888.797,3464.1113,-11349.976,44821.332
1300301.7431608147,-57985.477,-45766.805,21345.379,-13799.887,33864.91,3454.834,-11354.126,44317.098
1300301.747160811,-58017.824,-45792.523,21308.309,-13800.009,33840.047,3441.1216,-11356.161,43774.457
1300301.7511608074,-58028.688,-45795.453,21295.125,-13798.178,33842.41,3444.1733,-11352.173,44063.07
1300301.7551608037,-58004.926,-45777.547,21316.488,-13796.428,33865.723,3455.4038,-11348.145,44632.406
1300301.7591608001,-57973.145,-45758.914,21345.744,-13798.503,33881.473,3458.781,-11349.854,44833.293
1300301.7631607964,-57979.94,-45769.207,21339.64,-13800.131,33866.496,3448.3237,-11354.492,44268.15
1300301.7671607928,-58019.9,-45793.906,21305.502,-13799.5205,33837.04,3434.2449,-11357.91,43685.06
1300301.7711607893,-58029.95,-45798.18,21288.25,-13797.16,33847.332,3437.6628,-11356.445,43984.742
1300301.7751607855,-58003.83,-45777.1,21314.209,-13796.753,33874.27,3449.9512,-11355.998,44601.81
1300301.779160782,-57967.57,-45748.17,21349.65,-13796.225,33885.418,3455.9734,-11357.178,44861.168
1300301.7831607782,-57964.355,-45747.195,21343.791,-13796.469,33868.855,3446.6147,-11359.009,44340.535
1300301.7871607747,-57995.28,-45771.16,21312.623,-13795.939,33846.56,3434.2449,-11360.515,43773.848
1300301.791160771,-58013.39,-45780.113,21292.889,-13795.41,33843.71,3438.192,-11358.725,43996.46
1300301.7951607674,-57986.613,-45756.797,21313.68,-13794.963,33870.484,3449.0562,-11357.951,44543.703
1300301.7991607636,-57944.746,-45726.727,21359.783,-13795.004,33890.707,3456.7058,-11357.748,44825.605
1300301.80316076,-57941.164,-45725.383,21354.33,-13794.516,33872.52,3447.1843,-11359.335,44251.465
1300301.8071607566,-57968.914,-45750.082,21322.51,-13794.189,33851.36,3435.2622,-11358.806,43703.94
1300301.8111607528,-57978.395,-45758.06,21307.129,-13793.132,33852.01,3437.3374,-11356.161,44016.36
1300301.8151607492,-57947.918,-45727.582,21328.695,-13791.667,33877.605,3449.463,-11359.091,44638.715
1300301.8191607455,-57906.617,-45692.305,21360.23,-13792.074,33885.824,3454.1423,-11363.444,44874.15
1300301.823160742,-57904.016,-45696.168,21356.121,-13792.399,33869.875,3443.563,-11364.096,44323.285
1300301.8271607382,-57938.684,-45721.68,21327.312,-13790.405,33852.215,3432.129,-11362.59,43762.047
1300301.8311607346,-57946.21,-45731.406,21314.25,-13787.924,33857.953,3436.2793,-11362.0205,44017.58
1300301.8351607309,-57912.68,-45707.4,21323.162,-13788.859,33879.355,3446.7773,-11362.143,44602.824
1300301.8391607273,-57879.07,-45672.73,21365.967,-13790.568,33898.723,3451.5789,-11364.299,44837.973
1300301.8431607238,-57887.086,-45687.01,21364.707,-13791.464,33881.51,3442.9526,-11368.083,44317.793
1300301.84716072,-57927.94,-45722.09,21335.572,-13789.877,33855.145,3431.1523,-11367.758,43744.63
1300301.8511607165,-57945.723,-45730.31,21318.562,-13789.0625,33860.312,3433.3496,-11365.805,43950.035
1300301.8551607127,-57930.83,-45710.246,21341.676,-13790.446,33880.086,3446.4111,-11367.676,44579.184
1300301.8591607092,-57896.77,-45685.344,21369.385,-13791.138,33890.22,3452.1892,-11369.263,44811.65
1300301.8631607054,-57903.2,-45698.367,21354.492,-13791.911,33871.95,3442.3423,-11369.995,44298.137
1300301.867160702,-57942.996,-45734.945,21319.906,-13791.342,33846.68,3428.3447,-11371.135,43743.492
1300301.8711606981,-57951.54,-45740.438,21310.75,-13791.626,33855.918,3432.4138,-11370.117,44041.79
1300301.8751606946,-57939.293,-45720.785,21340.781,-13792.074,33878.906,3443.278,-11370.81,44625.613
1300301.879160691,-57919.23,-45696.902,21368.084,-13791.504,33890.504,3448.6492,-11370.117,44793.742
1300301.8831606873,-57922.85,-45710.9,21361.898,-13791.992,33862.59,3440.0635,-11372.111,44214.438
1300301.8871606837,-57964.48,-45740.848,21326.375,-13791.382,33839.113,3426.88,-11374.1455,43689.09
1300301.89116068,-57972.008,-45756.676,21309.326,-13792.074,33844.32,3430.42,-11373.413,44013.105
1300301.8951606764,-57950.684,-45736.9,21332.357,-13791.992,33870.402,3441.8132,-11373.535,44600.098
1300301.8991606727,-57922.57,-45716.434,21358.562,-13790.854,33895.633,3445.272,-11376.099,44808.473
1300301.9031606691,-57937.01,-45745.445,21357.3,-13791.26,33883.586,3434.204,-11379.558,44286.133
1300301.9071606654,-57977.582,-45767.05,21315.877,-13790.527,33851.277,3423.706,-11380.737,43762.9
1300301.9111606618,-57978.355,-45753.01,21302.693,-13789.307,33845.34,3428.9146,-11378.744,44043.215
1300301.9151606583,-57948.69,-45730.062,21323.568,-13788.208,33867.105,3441.203,-11376.913,44598.555
1300301.9191606545,-57932.05,-45723.918,21360.963,-13790.121,33880.13,3445.8008,-11374.1455,44766.316
1300301.923160651,-57946.777,-45742.96,21348.023,-13791.098,33864.176,3436.4014,-11374.187,44233.4
1300301.9271606472,-57983.4,-45759.766,21312.867,-13793.701,33840.58,3424.1943,-11375.8955,43700.562
1300301.9311606437,-57996.83,-45767.09,21297.527,-13793.579,33848.27,3429.7283,-11375.0,44014.082
1300301.93516064,-57974.043,-45751.02,21320.72,-13794.149,33876.87,3444.3767,-11373.698,44605.633
1300301.9391606364,-57946.656,-45732.098,21351.848,-13795.939,33882.61,3449.585,-11374.228,44808.516
1300301.9431606326,-57960.33,-45741.133,21347.129,-13797.485,33868.45,3438.2732,-11378.174,44264.285
1300301.947160629,-58001.184,-45772.34,21310.67,-13796.631,33844.44,3425.0083,-11379.639,43742.516
1300301.9511606256,-58014.773,-45784.26,21295.533,-13794.719,33848.797,3429.118,-11378.662,44028.85
1300301.9551606218,-57980.918,-45768.72,21321.453,-13794.882,33883.992,3440.5925,-11377.727,44590.78
1300301.9591606183,-57951.824,-45751.387,21349.121,-13796.957,33894.613,3445.5974,-11376.831,44802.207
1300301.9631606145,-57970.785,-45763.633,21339.885,-13799.113,33865.64,3437.9883,-11375.8955,44242.188
1300301.967160611,-58011.8,-45792.93,21305.584,-13800.09,33839.03,3429.525,-11373.739,43734.375
1300301.9711606072,-58023.848,-45800.254,21291.098,-13798.991,33844.85,3435.4656,-11368.896,44002.035
1300301.9751606036,-57997.234,-45781.74,21317.018,-13798.991,33875.773,3446.3706,-11368.449,44600.668
1300301.9791606,-57964.152,-45755.332,21349.244,-13799.4795,33890.504,3451.3347,-11370.81,44808.797
1300301.9831605963,-57969.28,-45757.324,21343.832,-13798.381,33867.312,3440.5925,-11370.81,44255.535
1300301.9871605928,-58000.33,-45783.773,21307.293,-13796.184,33844.363,3430.6235,-11368.49,43757.895
1300301.991160589,-58010.703,-45791.18,21296.225,-13795.451,33851.48,3435.3027,-11366.74,44056.844
1300301.9951605855,-57985.19,-45772.95,21315.797,-13795.614,33875.773,3448.4458,-11365.112,44641.44
1300301.9991605817,-57959.637,-45753.95,21353.191,-13796.753,33887.047,3452.1892,-11367.554,44775.027
1300302.0031605782,-57971.4,-45771.73,21349.285,-13797.363,33864.258,3441.2842,-11371.501,44190.96
1300302.0071605744,-58010.582,-45800.54,21319.215,-13798.096,33849.12,3430.9082,-11373.373,43710.246
1300302.011160571,-58023.074,-45808.066,21296.834,-13798.178,33862.02,3435.1807,-11367.961,43982.22
1300302.0151605674,-57994.223,-45787.723,21320.639,-13796.306,33879.723,3447.3064,-11365.479,44599.324
1300302.0191605636,-57962.89,-45764.445,21358.887,-13795.329,33886.355,3451.701,-11367.351,44795.29
1300302.02316056,-57970.01,-45771.28,21348.512,-13794.719,33862.43,3441.8945,-11366.496,44215.457
1300302.0271605563,-58004.316,-45799.93,21315.674,-13794.597,33847.13,3430.827,-11364.584,43744.223
1300302.0311605528,-58014.65,-45808.15,21304.484,-13793.905,33852.99,3437.1746,-11360.596,44049.645
1300302.035160549,-57986.695,-45780.195,21335.125,-13792.766,33881.062,3449.3408,-11360.637,44594.688
1300302.0391605454,-57959.15,-45758.586,21361.857,-13794.189,33887.37,3452.23,-11364.99,44787.438
1300302.0431605417,-57973.473,-45771.445,21346.273,-13794.067,33869.508,3441.6504,-11366.74,44196.086
1300302.0471605381,-58007.69,-45797.69,21314.617,-13793.417,33848.51,3431.6406,-11369.914,43696.86
1300302.0511605346,-58019.33,-45803.59,21304.852,-13792.685,33852.38,3434.5703,-11370.6875,44030.152
1300302.0551605308,-57993.492,-45782.84,21330.69,-13793.01,33878.297,3448.5679,-11370.361,44613.12
1300302.0591605273,-57962.566,-45762.9,21357.139,-13794.76,33890.75,3454.6306,-11373.495,44794.8
1300302.0631605235,-57970.34,-45777.67,21350.912,-13794.922,33864.504,3442.627,-11377.441,44201.703
1300302.06716052,-58003.99,-45806.97,21318.035,-13793.498,33834.23,3430.542,-11377.279,43692.14
1300302.0711605162,-58015.016,-45811.934,21302.125,-13793.701,33843.14,3435.1807,-11375.8545,44026.816
1300302.0751605127,-57989.258,-45788.617,21320.842,-13794.271,33869.996,3447.3064,-11375.326,44583.7
1300302.079160509,-57961.426,-45766.887,21353.477,-13796.875,33887.74,3453.7354,-11373.739,44723.594
1300302.0831605054,-57971.19,-45778.688,21346.152,-13796.347,33873.94,3443.8477,-11372.152,44135.945
1300302.0871605019,-58009.93,-45809.33,21312.867,-13794.394,33852.824,3433.5938,-11369.995,43614.83
1300302.091160498,-58023.156,-45820.965,21296.55,-13796.469,33856.406,3439.7788,-11365.805,43991.496
1300302.0951604946,-57996.504,-45792.32,21320.11,-13796.835,33879.844,3454.956,-11360.556,44595.38
1300302.0991604908,-57966.594,-45767.703,21356.854,-13796.957,33895.426,3461.5886,-11356.486,44758.953
1300302.1031604873,-57981.04,-45776.45,21354.736,-13796.55,33877.36,3449.5444,-11359.091,44132.12
1300302.1071604835,-58019.492,-45807.945,21314.412,-13796.225,33853.273,3439.9822,-11359.538,43670.74
1300302.11116048,-58026.164,-45816.406,21301.637,-13798.706,33857.22,3445.8823,-11356.771,43988.324
1300302.1151604762,-58000.734,-45793.99,21318.848,-13799.561,33887.41,3456.8687,-11356.853,44517.58
1300302.1191604726,-57974.285,-45775.312,21348.227,-13800.09,33891.97,3460.0425,-11358.887,44680.91
1300302.123160469,-57987.348,-45790.938,21338.867,-13800.171,33866.17,3447.3877,-11366.415,44058.066
1300302.1271604653,-58023.645,-45817.63,21297.363,-13799.194,33842.285,3434.0007,-11368.979,43569.664
1300302.1311604618,-58031.332,-45820.07,21294.434,-13797.16,33850.223,3439.2498,-11364.787,43944.746
1300302.135160458,-58006.066,-45802.45,21321.127,-13797.363,33877.848,3451.7822,-11365.723,44500.285
1300302.1391604545,-57979.902,-45787.395,21351.645,-13797.934,33886.965,3456.7058,-11370.565,44654.91
1300302.1431604507,-57991.336,-45795.37,21336.71,-13799.398,33858.6,3444.336,-11374.512,44061.605
1300302.1471604472,-58026.086,-45818.402,21297.69,-13799.276,33834.434,3435.791,-11374.023,43610.027
1300302.1511604434,-58029.867,-45821.004,21289.307,-13797.974,33846.355,3441.732,-11374.594,43948.61
1300302.15516044,-58001.547,-45797.203,21313.314,-13799.398,33872.52,3454.0203,-11375.57,44497.887
1300302.1591604364,-57975.547,-45777.426,21341.025,-13800.903,33886.027,3459.6763,-11373.942,44645.43
1300302.1631604326,-57988.85,-45792.89,21333.945,-13799.438,33862.957,3448.6492,-11373.373,44074.465
1300302.167160429,-58026.207,-45824.504,21312.664,-13797.201,33846.965,3436.5234,-11374.064,43663.086
1300302.1711604253,-58030.97,-45826.742,21314.006,-13796.753,33857.87,3440.3484,-11371.542,44043.703
1300302.1751604218,-58001.793,-45794.965,21323.568,-13795.939,33879.19,3454.2644,-11371.135,44598.348
1300302.179160418,-57968.59,-45771.324,21351.36,-13795.817,33885.945,3459.0251,-11373.739,44792.89
1300302.1831604145,-57972.984,-45782.715,21338.95,-13796.794,33866.902,3447.3472,-11374.634,44244.914
1300302.1871604107,-58010.38,-45816.938,21304.646,-13795.451,33844.32,3436.198,-11373.739,43772.91
1300302.1911604072,-58020.59,-45820.395,21296.55,-13795.939,33854.777,3442.0166,-11371.094,44131.96
1300302.1951604036,-57996.38,-45794.844,21323.61,-13796.306,33882.082,3454.3865,-11368.571,44694.703
1300302.1991603998,-57972.09,-45767.457,21357.992,-13798.422,33894.29,3460.1238,-11369.955,44834.434
1300302.2031603963,-57985.273,-45782.84,21339.844,-13799.643,33866.902,3448.3237,-11377.727,44220.055
1300302.2071603925,-58027.914,-45817.383,21310.059,-13799.927,33845.133,3437.6628,-11381.145,43739.42
1300302.211160389,-58038.902,-45821.492,21304.281,-13799.643,33852.094,3443.441,-11379.191,44129.234
1300302.2151603852,-58006.676,-45800.54,21333.416,-13799.357,33874.555,3457.7637,-11377.035,44711.957
1300302.2191603817,-57978.07,-45783.285,21360.637,-13800.944,33886.72,3462.8093,-11376.221,44898.52
1300302.223160378,-57990.48,-45791.668,21363.975,-13800.375,33868.164,3449.829,-11376.791,44299.645
1300302.2271603744,-58023.97,-45814.78,21322.348,-13800.09,33851.645,3439.2498,-11378.581,43810.06
1300302.2311603709,-58031.25,-45818.77,21303.59,-13799.887,33861.453,3445.6787,-11376.506,44180.95
1300302.235160367,-58000.855,-45795.656,21331.422,-13800.822,33883.79,3456.8687,-11374.431,44723.88
1300302.2391603636,-57973.96,-45774.58,21366.863,-13801.433,33892.863,3460.5308,-11374.35,44877.81
1300302.2431603598,-57992.312,-45790.73,21351.848,-13800.619,33866.05,3447.5913,-11375.244,44263.145
1300302.2471603563,-58032.188,-45826.01,21314.129,-13799.683,33849.49,3435.669,-11376.425,43761.844
1300302.2511603525,-58038.82,-45813.844,21308.146,-13798.096,33864.176,3442.5457,-11373.007,44168.867
1300302.255160349,-58006.348,-45784.914,21340.902,-13796.753,33885.457,3457.6824,-11367.065,44739.016
1300302.2591603452,-57976.035,-45763.836,21377.28,-13795.654,33895.793,3462.2803,-11367.717,44906.535
1300302.2631603417,-57985.68,-45778.242,21365.887,-13796.143,33871.055,3452.4333,-11370.443,44308.23
1300302.2671603381,-58016.035,-45805.543,21327.271,-13796.062,33851.688,3441.732,-11371.013,43871.785
1300302.2711603343,-58023.277,-45805.137,21322.43,-13795.817,33856.57,3445.15,-11371.379,44212.2
1300302.2751603308,-57998.945,-45786.215,21355.795,-13795.532,33885.133,3455.5664,-11371.664,44705.73
1300302.279160327,-57973.066,-45769.734,21387.045,-13795.37,33892.66,3460.083,-11374.268,44859.742
1300302.2831603235,-57986.33,-45780.844,21365.479,-13793.986,33867.88,3450.399,-11376.425,44309.734
1300302.2871603197,-58020.793,-45809.98,21326.13,-13793.417,33845.297,3440.8774,-11377.441,43850.383
1300302.2911603162,-58028.77,-45814.902,21325.725,-13793.62,33854.535,3447.7947,-11376.587,44189.902
1300302.2951603124,-58000.367,-45791.465,21349.406,-13795.41,33884.81,3462.9314,-11374.187,44780.316
1300302.299160309,-57975.465,-45777.67,21382.324,-13796.875,33895.793,3467.57,-11373.739,44921.348
1300302.3031603054,-57989.746,-45792.89,21374.838,-13795.288,33878.906,3456.543,-11375.0,44344.08
1300302.3071603016,-58024.457,-45813.316,21332.723,-13793.254,33861.777,3446.8994,-11376.791,43898.074
1300302.311160298,-58029.707,-45813.64,21322.348,-13792.644,33871.83,3453.125,-11373.535,44263.836
1300302.3151602943,-57997.07,-45787.723,21353.477,-13793.091,33897.664,3467.326,-11370.077,44791.992
1300302.3191602908,-57968.47,-45770.223,21384.238,-13795.451,33900.066,3472.3308,-11371.46,44892.742
1300302.323160287,-57987.55,-45789.062,21367.229,-13794.76,33876.1,3459.6763,-11375.204,44278.89
1300302.3271602835,-58018.555,-45813.438,21336.549,-13792.521,33859.742,3449.0154,-11376.059,43854.74
1300302.3311602797,-58026.492,-45815.676,21330.73,-13791.586,33875.285,3456.7466,-11370.646,44242.312
1300302.3351602762,-57997.97,-45795.086,21361.207,-13791.952,33897.707,3469.808,-11368.815,44805.746
1300302.3391602726,-57967.207,-45772.137,21394.572,-13792.969,33899.457,3474.284,-11367.636,44921.59
1300302.3431602689,-57982.383,-45783.855,21383.18,-13792.196,33875.613,3465.1287,-11368.979,44342.57
1300302.3471602653,-58015.707,-45808.84,21347.738,-13790.487,33854.94,3455.241,-11367.676,43901.33
1300302.3511602615,-58022.098,-45810.426,21332.846,-13788.29,33868.125,3461.5886,-11363.7295,44258.14
1300302.355160258,-57991.7,-45794.434,21364.87,-13789.511,33890.707,3473.6736,-11362.346,44783.203
1300302.3591602542,-57974.082,-45773.97,21395.06,-13790.854,33894.207,3475.2197,-11363.485,44836.47
1300302.3631602507,-57994.47,-45791.992,21372.479,-13789.633,33869.1,3463.786,-11365.805,44263.754
1300302.3671602472,-58025.473,-45819.46,21344.688,-13790.527,33846.598,3453.7354,-11367.961,43841.31
1300302.3711602434,-58033.816,-45822.836,21334.025,-13791.26,33865.277,3459.7168,-11367.392,44179.973
1300302.3751602399,-58004.6,-45802.246,21363.69,-13790.121,33887.574,3473.4294,-11367.595,44751.14
1300302.379160236,-57978.477,-45787.03,21395.508,-13788.615,33898.03,3475.4233,-11373.82,44840.535
1300302.3831602326,-57994.996,-45802.246,21376.994,-13788.94,33873.453,3459.5134,-11379.477,44206.707
1300302.3871602288,-58035.035,-45829.43,21344.768,-13787.68,33848.227,3447.3877,-11383.098,43727.094
1300302.3911602253,-58045.13,-45833.375,21332.846,-13786.703,33851.277,3453.5728,-11380.9,44067.305
1300302.3951602215,-58014.0,-45805.3,21356.242,-13786.377,33877.32,3467.041,-11377.401,44646.324
1300302.399160218,-57988.49,-45789.918,21388.307,-13787.069,33879.11,3469.9302,-11380.981,44772.992
1300302.4031602144,-58003.83,-45801.066,21371.705,-13786.418,33861.656,3459.188,-11384.44,44184.9
1300302.4071602107,-58038.574,-45828.29,21334.799,-13785.563,33847.574,3452.3926,-11382.365,43772.625
1300302.4111602071,-58039.797,-45833.7,21326.13,-13784.994,33858.277,3460.1238,-11376.221,44156.332
1300302.4151602034,-58008.06,-45806.766,21352.05,-13785.971,33882.12,3471.7612,-11372.314,44653.445
1300302.4191601998,-57988.934,-45792.766,21377.035,-13788.005,33887.656,3475.5046,-11371.013,44712.28
1300302.423160196,-58001.63,-45808.637,21366.455,-13788.94,33867.516,3463.9893,-11375.488,44184.938
1300302.4271601925,-58041.953,-45839.805,21333.984,-13787.231,33845.906,3456.1362,-11375.937,43731.73
1300302.4311601887,-58055.625,-45841.23,21329.672,-13784.994,33857.707,3463.6638,-11373.21,44151.246
1300302.4351601852,-58019.37,-45808.555,21352.05,-13784.628,33888.918,3474.3652,-11375.285,44743.938
1300302.4391601817,-57974.12,-45779.258,21386.271,-13783.407,33899.58,3476.7253,-11377.238,44830.77
1300302.443160178,-57988.73,-45788.617,21375.773,-13780.478,33869.14,3467.733,-11375.163,44195.926
1300302.4471601744,-58022.83,-45814.984,21345.541,-13780.192,33850.63,3458.2114,-11369.955,43771.85
1300302.4511601706,-58030.723,-45825.523,21338.014,-13780.355,33866.617,3463.5825,-11367.636,44121.22
1300302.455160167,-58009.848,-45808.72,21353.883,-13782.593,33892.945,3476.4812,-11365.683,44702.84
1300302.4591601633,-57983.562,-45788.984,21385.58,-13783.041,33902.63,3481.5269,-11366.455,44866.375
1300302.4631601598,-57992.883,-45795.492,21382.488,-13782.837,33875.082,3472.0867,-11368.164,44243.734
1300302.467160156,-58027.63,-45822.105,21351.604,-13782.593,33852.906,3464.2742,-11369.101,43825.195
1300302.4711601525,-58030.64,-45824.06,21342.205,-13779.663,33866.78,3472.9004,-11364.99,44223.31
1300302.475160149,-57992.15,-45796.184,21367.27,-13779.826,33896.812,3484.8228,-11361.044,44762.535
1300302.4791601452,-57966.92,-45775.516,21397.746,-13780.437,33901.367,3489.7869,-11360.962,44842.246
1300302.4831601416,-57989.543,-45796.266,21380.25,-13780.518,33876.75,3476.5625,-11362.997,44217.41
1300302.4871601379,-58028.402,-45825.93,21339.031,-13780.355,33863.566,3466.5122,-11360.922,43792.562
1300302.4911601343,-58030.6,-45823.812,21340.902,-13778.564,33878.99,3475.4639,-11356.486,44229.82
1300302.4951601306,-57995.605,-45792.89,21370.688,-13778.931,33898.97,3487.2642,-11354.33,44766.805
1300302.499160127,-57972.863,-45774.984,21401.367,-13781.372,33899.293,3489.8276,-11356.649,44902.06
1300302.5031601232,-57993.613,-45798.992,21381.145,-13782.512,33875.164,3478.353,-11360.962,44277.63
1300302.5071601197,-58032.594,-45827.72,21334.148,-13782.227,33852.176,3470.5405,-11361.898,43828.86
1300302.5111601162,-58037.152,-45823.977,21331.543,-13782.1455,33864.79,3478.7192,-11360.474,44208.133
1300302.5151601124,-58009.93,-45800.215,21365.56,-13782.1045,33885.336,3487.1826,-11363.77,44702.477
1300302.5191601089,-57986.613,-45788.82,21392.945,-13782.675,33893.8,3486.6943,-11369.263,44834.555
1300302.523160105,-58004.316,-45806.844,21375.57,-13783.203,33866.293,3475.2605,-11373.332,44227.215
1300302.5271601016,-58039.55,-45829.67,21341.229,-13782.227,33843.996,3464.1113,-11377.971,43793.62
1300302.5311600978,-58045.617,-45833.62,21340.781,-13781.25,33858.195,3469.8894,-11377.6045,44217.695
1300302.5351600943,-58016.24,-45811.77,21366.375,-13780.518,33886.07,3482.3813,-11381.389,44793.62
1300302.5391600905,-57989.707,-45788.82,21388.713,-13782.756,33888.062,3482.0557,-11384.237,44876.465
1300302.543160087,-58006.066,-45807.09,21373.535,-13784.18,33862.633,3469.4824,-11384.5625,44240.723
1300302.5471600834,-58042.523,-45837.363,21337.525,-13784.343,33841.51,3459.2285,-11383.952,43828.98
1300302.5511600797,-58045.332,-45837.363,21335.41,-13783.651,33852.703,3468.5059,-11381.267,44218.465
1300302.5551600761,-58016.645,-45814.7,21366.537,-13783.203,33886.395,3481.1606,-11379.477,44745.28
1300302.5591600724,-57995.402,-45806.355,21391.928,-13783.366,33890.137,3484.5378,-11378.581,44806.52
1300302.5631600688,-58015.504,-45819.867,21368.531,-13783.203,33858.156,3474.7722,-11376.628,44200.684
1300302.567160065,-58049.48,-45839.316,21342.082,-13782.878,33839.234,3464.8845,-11374.35,43789.227
1300302.5711600615,-58051.598,-45846.56,21337.646,-13782.1455,33855.957,3472.0054,-11374.268,44200.727
1300302.5751600577,-58019.74,-45819.62,21367.88,-13782.593,33881.55,3483.3984,-11373.739,44786.62
1300302.5791600542,-57991.375,-45794.23,21395.264,-13781.413,33895.426,3485.6772,-11374.96,44857.91
1300302.5831600507,-58010.215,-45814.863,21379.03,-13780.3955,33881.55,3473.5923,-11376.547,44222.535
1300302.587160047,-58043.99,-45845.297,21335.246,-13778.769,33864.176,3463.1755,-11376.221,43807.008
1300302.5911600434,-58049.4,-45838.176,21334.107,-13777.954,33874.023,3468.3838,-11373.535,44199.953
1300302.5951600396,-58018.516,-45812.99,21375.326,-13779.013,33891.48,3480.5503,-11370.6875,44750.164
1300302.599160036,-57991.58,-45796.797,21402.1,-13779.582,33894.168,3483.5205,-11369.995,44813.4
1300302.6031600323,-58010.906,-45819.99,21385.824,-13779.826,33870.08,3471.4355,-11374.187,44211.266
1300302.6071600288,-58042.48,-45846.395,21345.012,-13780.762,33847.293,3462.199,-11378.988,43866.457
1300302.611160025,-58041.75,-45843.67,21340.902,-13779.785,33846.68,3469.035,-11378.337,44259.89
1300302.6151600215,-58011.438,-45815.105,21364.91,-13778.564,33877.727,3482.5034,-11374.228,44774.05
1300302.619160018,-57989.055,-45802.86,21397.137,-13780.111,33894.695,3484.66,-11372.437,44832.277
1300302.6231600142,-58009.44,-45815.31,21378.623,-13780.192,33870.484,3471.1914,-11374.39,44200.887
1300302.6271600106,-58041.016,-45837.402,21345.988,-13778.524,33855.715,3464.03,-11372.925,43834.516
1300302.6311600069,-58042.035,-45839.4,21338.664,-13777.1,33873.7,3471.9238,-11369.751,44268.555
1300302.6351600033,-58012.207,-45812.34,21365.805,-13777.385,33892.254,3482.8289,-11369.101,44793.66
1300302.6391599996,-57989.016,-45798.016,21405.396,-13778.158,33895.266,3486.491,-11370.402,44942.02
1300302.643159996,-58008.914,-45811.08,21387.656,-13778.809,33874.473,3474.691,-11374.309,44388.594
1300302.6471599923,-58040.977,-45831.668,21345.256,-13777.344,33865.316,3465.2507,-11375.692,44036.582
1300302.6511599887,-58044.19,-45833.58,21339.885,-13778.076,33872.4,3472.046,-11372.925,44495.73
1300302.6551599852,-58014.0,-45813.64,21375.693,-13779.175,33892.945,3486.2468,-11369.873,44988.363
1300302.6591599814,-57989.992,-45795.535,21398.723,-13781.128,33895.914,3488.9324,-11368.734,45025.188
1300302.6631599779,-58012.656,-45813.477,21380.982,-13780.314,33873.375,3475.993,-11370.565,44359.703
1300302.667159974,-58049.684,-45835.86,21347.168,-13778.442,33845.258,3466.7563,-11372.355,43950.117
1300302.6711599706,-58051.516,-45834.555,21339.072,-13779.46,33856.65,3473.5107,-11370.077,44381.758
1300302.6751599668,-58023.156,-45815.227,21370.443,-13779.257,33889.934,3485.433,-11369.426,44845.83
1300302.6791599633,-58002.2,-45805.22,21402.223,-13778.972,33890.055,3486.898,-11373.007,44859.254
1300302.6831599595,-58022.83,-45828.816,21376.344,-13779.704,33863.242,3473.5515,-11378.337,44242.473
1300302.687159956,-58057.09,-45849.773,21348.512,-13780.07,33850.344,3466.8376,-11378.215,43897.79
1300302.6911599524,-58059.043,-45841.92,21346.559,-13779.745,33867.066,3474.7314,-11376.181,44337.688
1300302.6951599487,-58024.824,-45815.715,21373.17,-13778.239,33889.12,3486.1248,-11375.773,44887.535
1300302.6991599451,-57994.914,-45800.824,21400.352,-13778.524,33894.37,3487.793,-11373.657,44914.55
1300302.7031599414,-58012.25,-45810.344,21382.08,-13778.402,33875.246,3476.644,-11373.739,44287.03
1300302.7071599378,-58044.64,-45829.957,21347.332,-13777.385,33860.72,3470.8252,-11374.309,43890.625
1300302.711159934,-58049.195,-45830.28,21344.523,-13778.036,33870.73,3478.475,-11373.861,44280.03
1300302.7151599305,-58020.387,-45810.957,21374.105,-13777.385,33893.395,3489.746,-11374.96,44829.062
1300302.7191599268,-57998.332,-45799.03,21402.223,-13777.832,33896.242,3488.4033,-11378.622,44908.043
1300302.7231599232,-58020.348,-45821.332,21381.592,-13778.158,33872.64,3475.83,-11379.232,44248.414
1300302.7271599197,-58050.78,-45843.184,21342.285,-13777.67,33856.04,3469.4011,-11379.436,43888.51
1300302.731159916,-58049.805,-45840.09,21341.594,-13778.32,33869.223,3476.4404,-11378.256,44314.863
1300302.7351599124,-58019.125,-45814.7,21377.402,-13778.442,33887.574,3489.909,-11376.953,44844.89
1300302.7391599086,-57998.945,-45799.277,21389.283,-13779.582,33886.11,3492.5132,-11377.808,44876.63
1300302.743159905,-58025.27,-45828.047,21365.275,-13779.989,33855.227,3478.068,-11380.453,44187.582
1300302.7471599013,-58059.164,-45846.234,21340.861,-13778.442,33843.953,3471.1914,-11379.069,43875.0
1300302.7511598978,-58060.875,-45839.234,21340.252,-13779.826,33863.242,3480.1433,-11376.709,44341.758
1300302.7551598942,-58031.13,-45821.7,21367.96,-13780.681,33888.387,3491.0483,-11376.75,44851.156
1300302.7591598905,-58011.56,-45812.297,21388.957,-13781.901,33889.406,3491.862,-11376.831,44868.246
1300302.763159887,-58031.21,-45832.766,21370.77,-13781.82,33857.707,3476.644,-11381.063,44195.64
1300302.7671598832,-58058.15,-45856.445,21337.932,-13780.762,33847.332,3467.2852,-11385.336,43802.938
1300302.7711598796,-58050.17,-45851.117,21350.668,-13778.891,33859.215,3475.3826,-11384.074,44268.312
1300302.7751598759,-58024.945,-45826.66,21374.432,-13778.728,33876.426,3488.2407,-11381.836,44825.684
1300302.7791598723,-58005.496,-45812.95,21399.455,-13781.088,33884.727,3491.862,-11381.918,44837.04
1300302.7831598686,-58026.246,-45830.0,21378.338,-13782.187,33861.207,3482.3813,-11378.947,44188.6
1300302.787159865,-58059.125,-45852.5,21345.338,-13781.738,33846.76,3475.9521,-11373.901,43858.113
1300302.7911598615,-58061.117,-45852.094,21344.523,-13780.478,33857.18,3485.1482,-11366.74,44324.87
1300302.7951598577,-58030.723,-45827.516,21374.023,-13780.681,33882.812,3496.989,-11365.112,44799.36
1300302.7991598542,-58006.27,-45808.676,21399.375,-13780.273,33892.863,3498.6167,-11364.99,44831.258
1300302.8031598504,-58023.848,-45827.434,21387.777,-13781.169,33866.984,3485.3923,-11367.147,44211.957
1300302.8071598469,-58056.4,-45850.02,21358.48,-13779.867,33853.152,3476.6033,-11371.582,43859.418
1300302.811159843,-58058.312,-45846.113,21355.307,-13780.681,33864.664,3485.6365,-11372.152,44374.105
1300302.8151598396,-58028.28,-45826.5,21387.574,-13781.616,33884.848,3497.274,-11373.129,44857.504
1300302.8191598358,-58004.844,-45822.266,21404.785,-13784.75,33883.79,3498.4539,-11375.448,44851.523
1300302.8231598323,-58025.27,-45834.84,21378.379,-13784.587,33857.547,3486.5317,-11376.587,44189.902
1300302.8271598287,-58063.438,-45855.594,21350.75,-13782.837,33849.57,3481.2827,-11376.018,43848.836
1300302.831159825,-58062.094,-45850.3,21349.936,-13783.813,33859.418,3489.38,-11375.204,44324.06
1300302.8351598214,-58029.707,-45827.84,21385.865,-13783.407,33879.52,3501.0986,-11374.35,44829.957
1300302.8391598177,-58010.38,-45814.25,21414.023,-13784.058,33882.203,3500.7732,-11374.919,44811.77
1300302.8431598141,-58034.223,-45837.445,21387.574,-13784.058,33857.75,3485.2703,-11379.436,44130.414
1300302.8471598104,-58066.895,-45867.15,21351.115,-13782.471,33843.14,3476.8066,-11379.761,43850.63
1300302.8511598068,-58068.93,-45857.832,21354.209,-13782.797,33857.668,3485.4736,-11379.761,44367.23
1300302.855159803,-58039.836,-45829.793,21386.15,-13782.593,33883.79,3495.809,-11381.755,44883.098
1300302.8591597995,-58018.92,-45814.008,21407.309,-13782.227,33882.895,3492.7166,-11385.864,44843.67
1300302.863159796,-58044.76,-45835.41,21387.33,-13782.023,33851.89,3477.4578,-11390.097,44187.137
1300302.8671597922,-58073.57,-45868.816,21353.027,-13782.593,33845.01,3470.2964,-11388.51,43899.21
1300302.8711597887,-58065.594,-45861.613,21355.469,-13782.023,33863.445,3480.1433,-11385.58,44347.332
1300302.875159785,-58036.785,-45833.54,21389.404,-13783.529,33881.105,3493.4082,-11382.202,44826.785
1300302.8791597814,-58018.35,-45817.098,21401.734,-13784.343,33884.81,3495.6055,-11381.47,44847.74
1300302.8831597776,-58038.82,-45835.246,21381.633,-13784.221,33859.906,3482.9917,-11383.627,44188.4
1300302.887159774,-58069.297,-45859.457,21352.459,-13782.1045,33843.344,3474.813,-11383.098,43877.32
1300302.8911597703,-58067.26,-45852.418,21352.174,-13781.901,33858.6,3482.5847,-11379.477,44402.793
1300302.8951597668,-58036.785,-45828.207,21379.844,-13782.715,33882.57,3493.0015,-11380.941,44905.6
1300302.8991597632,-58017.215,-45816.49,21402.508,-13783.732,33886.598,3492.7979,-11381.999,44909.305
1300302.9031597595,-58040.0,-45838.055,21386.475,-13783.936,33860.23,3479.8179,-11383.83,44269.125
1300302.907159756,-58074.63,-45859.742,21351.115,-13783.61,33841.227,3472.1274,-11384.44,43916.14
1300302.9111597522,-58078.777,-45859.09,21345.215,-13782.634,33867.23,3483.3171,-11381.552,44340.58
1300302.9151597486,-58053.145,-45839.195,21380.576,-13783.8545,33887.492,3494.2222,-11379.965,44876.547
1300302.9191597449,-58028.73,-45830.363,21401.043,-13786.906,33884.848,3495.7683,-11381.592,45049.6
1300302.9231597413,-58056.152,-45851.32,21378.541,-13787.802,33857.3,3482.544,-11385.742,44480.105
1300302.9271597376,-58088.176,-45873.863,21345.338,-13787.272,33837.527,3475.9521,-11384.766,44179.12
1300302.931159734,-58083.05,-45869.1,21348.268,-13786.743,33855.67,3487.5896,-11381.511,44669.965
1300302.9351597305,-58046.55,-45843.832,21383.953,-13786.215,33882.773,3499.105,-11382.568,45188.723
1300302.9391597267,-58020.1,-45820.438,21403.2,-13786.174,33887.574,3496.7449,-11387.655,45160.117
1300302.9431597232,-58045.13,-45848.348,21386.027,-13785.767,33861.734,3481.1606,-11395.102,44503.867
1300302.9471597194,-58078.29,-45874.92,21353.924,-13785.156,33844.44,3473.5515,-11396.606,44208.133
1300302.951159716,-58076.336,-45865.848,21350.83,-13784.912,33851.605,3481.5269,-11393.148,44665.082
1300302.9551597121,-58047.445,-45844.605,21382.691,-13786.499,33889.812,3493.2048,-11392.904,45177.86
1300302.9591597086,-58029.46,-45833.742,21407.838,-13787.639,33893.598,3494.1814,-11397.827,45173.992
1300302.9631597048,-58053.754,-45855.88,21382.691,-13787.761,33862.348,3480.5503,-11399.577,44506.51
1300302.9671597013,-58085.207,-45882.203,21348.389,-13787.313,33846.926,3475.0571,-11395.468,44197.348
1300302.9711596977,-58080.0,-45868.492,21355.104,-13785.441,33866.457,3486.6538,-11389.242,44723.227
1300302.975159694,-58047.65,-45843.426,21387.695,-13785.482,33885.457,3496.0125,-11388.916,45194.01
1300302.9791596904,-58026.043,-45832.645,21403.361,-13785.849,33885.336,3494.6697,-11393.759,45174.887
1300302.9831596867,-58051.598,-45856.977,21384.604,-13786.662,33858.684,3480.3875,-11396.444,44503.34
1300302.9871596831,-58086.996,-45883.223,21353.76,-13785.767,33840.7,3472.453,-11396.281,44151.45
1300302.9911596794,-58085.086,-45877.484,21358.277,-13785.441,33861.37,3483.1543,-11395.752,44686.85
1300302.9951596758,-58049.562,-45845.703,21392.66,-13785.116,33883.26,3493.164,-11399.699,45211.71
1300302.999159672,-58027.305,-45831.18,21414.307,-13785.278,33881.227,3493.6523,-11401.53,45159.223
1300303.0031596685,-58048.42,-45849.652,21394.207,-13784.953,33857.42,3480.062,-11400.554,44559.9
1300303.007159665,-58075.195,-45871.258,21363.893,-13782.227,33845.95,3471.7205,-11399.414,44253.664
1300303.0111596612,-58066.652,-45866.78,21370.361,-13781.291,33859.418,3479.0447,-11397.868,44735.883
1300303.0151596577,-58037.56,-45841.31,21396.607,-13782.634,33874.105,3489.4207,-11397.624,45203.695
1300303.019159654,-58020.062,-45824.79,21415.527,-13783.569,33884.36,3489.4207,-11398.234,45149.05
1300303.0231596504,-58046.836,-45845.582,21395.63,-13782.593,33862.47,3476.8882,-11399.414,44492.027
1300303.0271596466,-58075.117,-45877.24,21368.37,-13779.948,33842.082,3469.0757,-11400.31,44168.742
1300303.031159643,-58065.88,-45873.047,21369.305,-13779.257,33858.195,3476.644,-11399.699,44618.695
1300303.0351596393,-58039.836,-45855.145,21401.693,-13780.3955,33880.574,3487.0605,-11400.595,45094.85
1300303.0391596358,-58030.887,-45842.53,21411.744,-13783.122,33877.402,3486.898,-11401.652,45082.156
1300303.0431596322,-58053.47,-45849.406,21397.258,-13782.309,33846.64,3475.0571,-11403.972,44403.2
1300303.0471596285,-58080.73,-45868.086,21363.12,-13780.925,33844.605,3468.1804,-11402.67,44117.516
1300303.051159625,-58073.04,-45860.477,21365.887,-13780.273,33862.348,3480.7537,-11396.973,44661.543
1300303.0551596212,-58040.246,-45836.223,21396.729,-13780.518,33880.74,3490.6006,-11395.712,45130.535
1300303.0591596176,-58021.324,-45825.93,21422.12,-13780.151,33880.008,3490.316,-11394.328,45090.82
1300303.0631596139,-58047.082,-45850.383,21400.025,-13779.46,33856.977,3479.5737,-11393.515,44455.242
1300303.0671596103,-58076.824,-45874.188,21366.904,-13778.687,33843.02,3474.8943,-11389.73,44237.59
1300303.0711596066,-58075.684,-45872.438,21368.652,-13779.053,33861.41,3482.7476,-11389.201,44711.793
1300303.075159603,-58049.887,-45850.26,21394.41,-13781.535,33883.016,3492.4724,-11391.968,45202.8
1300303.0791595995,-58029.746,-45837.28,21414.186,-13781.372,33887.168,3491.1704,-11394.938,45136.11
1300303.0831595957,-58052.613,-45861.168,21392.375,-13779.013,33863.65,3480.3467,-11396.973,44417.074
1300303.0871595922,-58081.91,-45885.945,21357.178,-13778.564,33856.527,3477.295,-11393.2705,44177.9
1300303.0911595884,-58075.44,-45872.273,21362.754,-13778.972,33879.11,3489.8276,-11387.37,44703.207
1300303.095159585,-58039.105,-45842.125,21400.066,-13778.036,33897.543,3501.0173,-11386.963,45223.715
1300303.0991595811,-58019.25,-45830.977,21421.672,-13778.158,33889.61,3500.4883,-11390.137,45184.773
1300303.1031595776,-58041.668,-45845.99,21398.072,-13777.344,33861.168,3486.5723,-11393.718,44500.125
1300303.1071595738,-58072.55,-45867.96,21363.73,-13776.001,33849.324,3481.364,-11394.328,44180.79
1300303.1111595703,-58075.36,-45868.613,21369.955,-13777.548,33860.598,3491.0483,-11395.142,44664.062
1300303.1151595667,-58047.285,-45845.703,21402.14,-13778.728,33883.79,3501.5464,-11399.577,45166.914
1300303.119159563,-58029.055,-45830.65,21421.062,-13779.663,33890.953,3500.407,-11402.751,45143.15
1300303.1231595594,-58052.695,-45849.0,21397.746,-13778.117,33864.707,3487.142,-11403.442,44489.22
1300303.1271595557,-58081.26,-45867.23,21367.84,-13776.123,33851.277,3482.1777,-11399.943,44228.355
1300303.1311595521,-58070.312,-45859.66,21373.658,-13775.554,33872.684,3494.9546,-11394.287,44723.758
1300303.1351595484,-58034.508,-45829.957,21400.676,-13774.862,33894.613,3505.0457,-11392.131,45193.605
1300303.1391595448,-58017.945,-45817.75,21422.975,-13775.635,33894.41,3503.54,-11394.125,45144.086
1300303.1431595413,-58040.855,-45841.39,21400.92,-13774.78,33869.754,3489.0137,-11399.618,44493.855
1300303.1471595375,-58073.203,-45871.34,21366.09,-13773.479,33858.684,3482.1372,-11398.682,44185.793
1300303.151159534,-58067.426,-45864.586,21371.787,-13772.136,33878.418,3492.391,-11395.142,44706.586
1300303.1551595302,-58034.344,-45833.09,21408.447,-13772.136,33898.074,3504.9644,-11394.003,45246.38
1300303.1591595267,-58021.12,-45825.81,21425.01,-13772.421,33888.957,3502.9297,-11395.142,45155.965
1300303.163159523,-58046.836,-45846.316,21402.182,-13771.078,33868.734,3489.8276,-11396.159,44521.324
1300303.1671595194,-58075.24,-45869.957,21372.111,-13769.775,33858.562,3483.5205,-11397.461,44262.37
1300303.1711595156,-58068.523,-45863.61,21374.473,-13770.996,33875.69,3496.4194,-11395.752,44785.117
1300303.175159512,-58038.7,-45835.45,21402.67,-13772.827,33893.8,3508.2603,-11395.224,45217.45
1300303.1791595086,-58024.742,-45821.37,21420.207,-13773.479,33887.74,3506.7139,-11397.583,45129.723
1300303.1831595048,-58055.746,-45850.508,21397.666,-13774.536,33856.12,3494.5068,-11399.658,44452.434
1300303.1871595012,-58086.914,-45879.926,21363.078,-13775.1875,33839.805,3489.0544,-11399.414,44181.277
1300303.1911594975,-58079.023,-45868.53,21371.787,-13773.601,33863.85,3499.5933,-11395.59,44713.582
1300303.195159494,-58045.98,-45842.855,21408.855,-13773.4375,33891.074,3508.8706,-11395.915,45167.523
1300303.1991594902,-58027.957,-45832.195,21427.94,-13772.868,33897.016,3505.4526,-11399.048,45078.695
1300303.2031594866,-58052.656,-45858.44,21404.053,-13772.217,33867.72,3493.3677,-11400.513,44470.785
1300303.2071594829,-58086.67,-45890.79,21372.438,-13771.851,33854.13,3487.5896,-11401.733,44213.625
1300303.2111594793,-58079.633,-45880.656,21375.488,-13771.322,33873.453,3495.8904,-11400.92,44698.652
1300303.2151594758,-58048.75,-45849.652,21406.617,-13772.461,33898.6,3506.185,-11402.954,45130.047
1300303.219159472,-58039.43,-45846.52,21421.225,-13775.065,33891.766,3504.8423,-11406.535,45012.332
1300303.2231594685,-58069.703,-45868.613,21393.107,-13774.455,33872.4,3494.1406,-11407.1455,44358.277
1300303.2271594647,-58093.71,-45884.035,21374.838,-13772.258,33867.15,3490.7634,-11401.774,44118.33
1300303.2311594612,-58087.402,-45877.77,21374.797,-13771.688,33888.266,3501.7498,-11396.444,44655.316
1300303.2351594574,-58051.883,-45851.117,21405.844,-13770.834,33905.965,3513.5498,-11395.712,45205.566
1300303.239159454,-58030.438,-45838.055,21418.498,-13770.468,33912.723,3510.9863,-11397.868,45109.945
1300303.2431594501,-58054.363,-45862.227,21398.438,-13769.247,33888.47,3495.565,-11401.53,44442.914
1300303.2471594466,-58083.215,-45880.86,21369.67,-13768.352,33875.613,3489.5427,-11402.832,44196.21
1300303.251159443,-58076.785,-45871.582,21380.168,-13768.596,33893.19,3499.7966,-11401.286,44715.902
1300303.2551594393,-58048.625,-45849.53,21415.406,-13768.393,33916.344,3510.498,-11400.065,45223.758
1300303.2591594358,-58029.625,-45831.79,21430.299,-13767.782,33920.207,3510.4575,-11398.642,45152.14
1300303.263159432,-58054.973,-45854.37,21403.932,-13766.806,33892.008,3496.867,-11397.624,44504.11
1300303.2671594284,-58087.527,-45883.586,21370.85,-13767.863,33877.688,3489.9497,-11399.17,44238.73
1300303.2711594247,-58083.05,-45881.633,21374.838,-13766.032,33896.973,3499.2676,-11398.193,44726.277
1300303.2751594211,-58048.79,-45851.156,21409.018,-13763.957,33921.266,3510.7017,-11397.461,45214.684
1300303.2791594174,-58026.367,-45833.78,21429.404,-13763.957,33924.684,3510.498,-11399.536,45154.34
1300303.2831594138,-58053.02,-45858.848,21406.129,-13763.672,33893.27,3493.6523,-11405.518,44474.324
1300303.2871594103,-58085.9,-45881.51,21377.197,-13763.144,33885.215,3485.189,-11407.959,44269.98
1300303.2911594065,-58078.125,-45869.914,21375.45,-13763.51,33904.42,3495.0767,-11407.878,44809.98
1300303.295159403,-58045.004,-45841.758,21410.605,-13762.126,33928.14,3506.7546,-11406.982,45271.16
1300303.2991593992,-58033.0,-45835.86,21431.396,-13763.388,33920.125,3503.9878,-11410.441,45144.777
1300303.3031593957,-58063.6,-45866.133,21402.385,-13763.021,33894.816,3488.8103,-11412.964,44465.78
1300303.307159392,-58095.95,-45888.062,21374.188,-13760.986,33881.633,3482.3406,-11412.517,44167.523
1300303.3111593884,-58085.492,-45879.152,21387.004,-13759.074,33909.305,3492.8386,-11409.221,44737.957
1300303.3151593846,-58049.562,-45842.41,21422.445,-13758.667,33931.195,3501.9531,-11407.919,45227.01
1300303.319159381,-58035.605,-45832.6,21431.396,-13759.604,33915.652,3498.0876,-11411.662,45093.63
1300303.3231593776,-58060.63,-45860.965,21411.297,-13758.505,33888.875,3486.735,-11416.545,44417.035
1300303.3271593738,-58090.496,-45888.266,21376.588,-13757.487,33886.273,3482.0151,-11416.22,44178.633
1300303.3311593703,-58082.36,-45881.633,21374.879,-13758.423,33905.355,3491.333,-11415.69,44671.387
1300303.3351593665,-58050.05,-45855.55,21413.209,-13759.644,33918.99,3503.1738,-11414.958,45128.34
1300303.339159363,-58037.07,-45844.035,21431.805,-13761.271,33904.176,3501.7905,-11414.226,44952.23
1300303.3431593592,-58064.17,-45867.598,21407.512,-13760.417,33885.133,3489.624,-11414.592,44304.242
1300303.3471593556,-58098.555,-45889.363,21373.332,-13760.417,33880.984,3484.5378,-11413.208,44125.69
1300303.3511593519,-58085.53,-45875.41,21383.18,-13761.638,33902.1,3494.995,-11412.436,44680.79
1300303.3551593483,-58050.09,-45850.26,21413.006,-13761.882,33921.957,3506.1443,-11413.696,45181.64
1300303.3591593448,-58035.93,-45849.652,21431.682,-13762.573,33913.004,3504.069,-11415.8125,45045.86
1300303.363159341,-58065.227,-45864.18,21413.33,-13760.905,33887.613,3490.3972,-11417.399,44378.418
1300303.3671593375,-58092.004,-45883.223,21387.29,-13759.726,33882.49,3484.7007,-11416.057,44143.84
1300303.3711593337,-58080.16,-45868.652,21389.527,-13757.69,33908.69,3494.4255,-11414.0625,44636.273
1300303.3751593302,-58047.324,-45845.785,21419.719,-13758.301,33924.36,3503.9062,-11414.836,45140.668
1300303.3791593264,-58035.156,-45834.555,21436.89,-13759.196,33917.848,3502.8892,-11414.673,45021.242
1300303.383159323,-58065.555,-45859.375,21410.564,-13760.742,33884.035,3488.6475,-11414.348,44336.184
1300303.3871593191,-58100.02,-45880.414,21376.994,-13762.045,33873.617,3483.6426,-11411.906,44084.84
1300303.3911593156,-58092.164,-45869.02,21387.451,-13762.085,33901.695,3494.1814,-11406.901,44660.727
1300303.395159312,-58056.562,-45838.38,21426.23,-13759.44,33920.613,3506.1035,-11403.32,45127.566
1300303.3991593083,-58040.0,-45825.887,21438.152,-13760.173,33914.797,3505.4119,-11404.582,44990.52
1300303.4031593048,-58061.605,-45855.266,21406.658,-13761.068,33892.375,3490.3972,-11406.901,44349.406
1300303.407159301,-58086.145,-45877.727,21374.879,-13759.766,33883.06,3483.8462,-11408.203,44146.973
1300303.4111592975,-58078.656,-45856.57,21388.104,-13757.04,33909.87,3493.7744,-11409.424,44678.914
1300303.4151592937,-58051.516,-45833.66,21425.986,-13758.789,33927.043,3501.587,-11412.109,45158.0
1300303.4191592901,-58042.97,-45830.04,21436.605,-13759.97,33912.68,3498.6572,-11413.33,44999.35
1300303.4231592864,-58071.902,-45857.707,21410.686,-13759.685,33883.914,3483.2764,-11417.196,44317.793
1300303.4271592828,-58096.68,-45882.855,21390.545,-13756.022,33878.785,3479.6143,-11418.742,44143.637
1300303.4311592793,-58084.15,-45870.527,21395.549,-13755.656,33900.88,3491.455,-11416.586,44710.86
1300303.4351592755,-58050.66,-45841.92,21425.822,-13756.552,33924.156,3503.9878,-11415.568,45233.074
1300303.439159272,-58040.246,-45837.117,21441.611,-13757.935,33916.707,3499.9187,-11418.539,45107.06
1300303.4431592682,-58069.336,-45859.99,21413.006,-13758.383,33886.56,3484.4565,-11420.126,44440.473
1300303.4471592647,-58097.168,-45886.72,21385.783,-13756.836,33875.816,3478.9226,-11420.166,44231.49
1300303.451159261,-58094.363,-45883.832,21391.195,-13758.017,33891.316,3489.4207,-11416.504,44742.758
1300303.4551592574,-58063.965,-45860.68,21421.348,-13758.708,33910.074,3500.6511,-11413.778,45256.676
1300303.4591592536,-58049.523,-45844.363,21442.424,-13758.789,33913.492,3497.9248,-11413.534,45144.043
1300303.46315925,-58074.63,-45865.36,21416.26,-13756.958,33891.48,3484.8228,-11415.243,44492.92
1300303.4671592466,-58102.297,-45883.914,21384.238,-13756.796,33877.36,3481.5674,-11415.121,44326.457
1300303.4711592428,-58087.85,-45870.242,21394.166,-13759.074,33903.24,3493.164,-11412.476,44849.812
1300303.4751592393,-58054.363,-45852.215,21430.38,-13759.44,33925.66,3501.9126,-11412.395,45292.035
1300303.4791592355,-58039.43,-45841.15,21441.285,-13758.179,33918.5,3496.989,-11415.039,45132.855
1300303.483159232,-58067.508,-45869.266,21404.99,-13757.162,33884.605,3481.6082,-11416.342,44477.46
1300303.4871592282,-58099.12,-45895.47,21374.676,-13755.331,33875.57,3476.8882,-11416.504,44288.777
1300303.4911592246,-58091.27,-45885.254,21392.578,-13756.267,33900.39,3487.5083,-11416.504,44829.67
1300303.4951592209,-58059.246,-45851.074,21431.113,-13757.935,33919.68,3497.0703,-11419.475,45293.01
1300303.4991592173,-58043.906,-45841.31,21443.156,-13758.586,33916.668,3495.036,-11419.719,45132.69
1300303.5031592138,-58073.242,-45866.336,21405.803,-13757.202,33885.54,3483.0322,-11417.685,44441.043
1300303.50715921,-58099.895,-45889.445,21381.43,-13757.568,33875.855,3477.946,-11415.8125,44248.58
1300303.5111592065,-58089.438,-45876.344,21397.422,-13756.592,33904.746,3490.438,-11408.163,44840.66
1300303.5151592027,-58051.598,-45845.625,21426.148,-13757.895,33923.465,3501.4648,-11403.239,45332.4
1300303.5191591992,-58037.234,-45839.4,21440.064,-13760.01,33916.06,3498.8608,-11403.809,45197.797
1300303.5231591954,-58065.473,-45864.42,21411.947,-13760.661,33885.336,3485.962,-11404.582,44524.17
1300303.527159192,-58097.168,-45877.035,21387.615,-13760.01,33878.543,3479.655,-11404.582,44319.62
1300303.5311591884,-58088.137,-45864.46,21394.572,-13760.214,33900.473,3487.671,-11405.681,44831.383
1300303.5351591846,-58056.316,-45848.188,21425.822,-13760.254,33921.227,3497.1924,-11405.192,45246.297
1300303.539159181,-58047.85,-45844.688,21435.914,-13761.557,33917.562,3496.0532,-11407.634,45131.145
1300303.5431591773,-58073.773,-45868.9,21407.268,-13761.027,33890.83,3484.375,-11409.628,44508.383
1300303.5471591738,-58103.027,-45883.547,21383.18,-13760.824,33878.746,3479.7363,-11410.6045,44333.824
1300303.55115917,-58091.797,-45864.83,21400.352,-13761.435,33907.145,3488.729,-11410.686,44898.887
1300303.5551591665,-58056.438,-45838.46,21421.592,-13760.458,33929.402,3496.0532,-11413.493,45339.438
1300303.5591591627,-58045.98,-45832.887,21445.883,-13759.033,33929.89,3491.9841,-11418.01,45140.953
1300303.5631591592,-58077.434,-45855.31,21421.225,-13757.446,33902.875,3479.777,-11422.812,44431.723
1300303.5671591556,-58112.023,-45883.63,21386.516,-13758.952,33880.94,3474.691,-11424.724,44253.664
1300303.5711591518,-58101.402,-45872.07,21394.898,-13759.399,33902.793,3485.4736,-11421.062,44849.082
1300303.5751591483,-58066.0,-45841.188,21430.46,-13758.545,33920.656,3497.6807,-11418.051,45309.652
1300303.5791591445,-58050.215,-45832.723,21441.488,-13758.83,33921.47,3495.2393,-11417.318,45140.3
1300303.583159141,-58082.97,-45864.95,21413.209,-13759.44,33893.68,3482.8289,-11416.87,44442.508
1300303.5871591372,-58113.08,-45886.965,21378.744,-13758.586,33886.56,3479.94,-11414.592,44241.54
1300303.5911591337,-58095.543,-45877.523,21394.451,-13758.993,33908.043,3491.9434,-11413.9,44818.93
1300303.59515913,-58063.64,-45853.598,21428.59,-13761.027,33923.465,3499.7153,-11416.748,45190.188
1300303.5991591264,-58057.617,-45844.566,21443.848,-13761.394,33914.39,3495.6055,-11416.667,44957.316
1300303.6031591229,-58083.78,-45872.76,21414.512,-13760.58,33883.3,3483.602,-11413.656,44333.742
1300303.607159119,-58111.86,-45890.465,21382.895,-13760.864,33871.176,3479.777,-11414.917,44144.574
1300303.6111591156,-58099.53,-45877.973,21397.502,-13759.033,33898.438,3490.031,-11416.301,44640.547
1300303.6151591118,-58068.117,-45856.977,21433.229,-13760.58,33922.895,3499.3896,-11417.685,45067.305
1300303.6191591083,-58062.42,-45845.137,21441.895,-13762.085,33909.14,3495.036,-11419.556,44876.75
1300303.6231591045,-58094.16,-45870.2,21412.11,-13762.573,33881.96,3480.2654,-11423.178,44189.09
1300303.627159101,-58117.72,-45893.883,21387.168,-13763.144,33880.535,3476.115,-11422.893,44038.414
1300303.6311590972,-58102.094,-45879.438,21392.498,-13762.695,33899.254,3488.8916,-11422.282,44626.305
1300303.6351590937,-58069.46,-45851.523,21430.99,-13763.021,33918.418,3500.8953,-11423.056,45062.5
1300303.6391590901,-58062.297,-45848.105,21439.25,-13765.137,33909.793,3498.8608,-11421.265,44859.457
1300303.6431590864,-58090.82,-45874.188,21411.662,-13763.672,33880.008,3485.433,-11418.335,44259.32
1300303.6471590828,-58115.766,-45890.668,21384.4,-13761.23,33869.914,3480.713,-11416.179,44077.883
1300303.651159079,-58100.586,-45872.76,21397.625,-13760.62,33893.516,3489.909,-11415.08,44624.473
1300303.6551590755,-58067.465,-45848.797,21434.043,-13762.736,33910.24,3497.8435,-11413.452,45038.414
1300303.6591590717,-58057.902,-45848.473,21448.121,-13763.184,33901.734,3492.391,-11416.504,44800.906
1300303.6631590682,-58088.746,-45881.145,21418.05,-13761.3125,33879.68,3479.5737,-11418.091,44199.3
1300303.6671590644,-58117.312,-45889.61,21390.83,-13761.679,33875.164,3475.8708,-11417.318,44085.004
1300303.671159061,-58103.273,-45871.055,21403.2,-13761.597,33900.31,3486.2876,-11417.48,44651.53
1300303.6751590574,-58068.28,-45844.484,21434.938,-13760.132,33921.47,3498.6167,-11414.429,45119.71
1300303.6791590536,-58060.793,-45840.008,21443.36,-13759.196,33913.414,3496.338,-11414.0625,44882.57
1300303.68315905,-58087.12,-45867.555,21410.035,-13758.017,33892.78,3480.8757,-11415.568,44222.984
1300303.6871590463,-58111.207,-45884.24,21389.201,-13758.179,33886.883,3475.7896,-11416.016,44083.496
1300303.6911590428,-58099.45,-45871.83,21407.064,-13758.911,33901.125,3483.8462,-11416.016,44631.797
1300303.695159039,-58064.09,-45847.86,21441.773,-13759.237,33913.86,3493.8965,-11416.748,45088.582
1300303.6991590355,-58054.242,-45843.508,21453.29,-13760.051,33908.043,3490.7634,-11416.138,44873.008
1300303.7031590317,-58086.266,-45870.32,21420.818,-13760.458,33884.36,3477.0916,-11417.033,44232.06
1300303.7071590282,-58107.832,-45886.273,21392.742,-13759.196,33880.984,3472.046,-11418.335,44143.84
1300303.7111590246,-58095.258,-45871.176,21407.105,-13759.359,33899.78,3482.788,-11419.067,44687.094
1300303.7151590209,-58060.996,-45848.145,21443.93,-13757.609,33917.684,3492.025,-11419.516,45132.164
1300303.7191590173,-58051.11,-45846.844,21449.83,-13756.877,33915.934,3487.671,-11420.654,44902.426
1300303.7231590135,-58087.61,-45870.2,21424.684,-13756.674,33890.18,3472.5342,-11423.91,44233.48
1300303.72715901,-58116.58,-45888.266,21399.62,-13755.819,33884.402,3469.442,-11423.178,44116.17
1300303.7311590062,-58098.39,-45867.188,21405.152,-13754.761,33921.43,3480.713,-11422.812,44704.55
1300303.7351590027,-58062.297,-45840.902,21436.32,-13756.267,33945.152,3490.56,-11420.817,45096.19
1300303.739158999,-58057.945,-45839.805,21448.283,-13757.446,33925.906,3489.746,-11421.997,44841.84
1300303.7431589954,-58091.797,-45874.27,21420.695,-13758.098,33885.703,3477.4985,-11421.835,44201.66
1300303.7471589919,-58116.375,-45892.742,21397.543,-13756.47,33877.523,3477.5798,-11417.48,44105.47
1300303.751158988,-58102.703,-45879.56,21405.967,-13756.918,33902.914,3487.3047,-11416.626,44677.656
1300303.7551589846,-58068.035,-45851.484,21435.467,-13757.406,33917.523,3495.6055,-11413.208,45158.816
1300303.7591589808,-58057.414,-45846.03,21449.545,-13757.406,33914.594,3489.0952,-11411.296,44911.055
1300303.7631589773,-58090.902,-45874.676,21417.848,-13757.202,33887.98,3476.9287,-11409.262,44254.234
1300303.7671589735,-58115.6,-45889.363,21394.207,-13754.761,33876.87,3475.2197,-11407.1045,44110.066
1300303.77115897,-58103.598,-45870.934,21410.441,-13755.9,33907.594,3485.433,-11407.064,44600.3
1300303.7751589662,-58074.18,-45848.633,21439.982,-13757.487,33930.707,3494.3848,-11411.174,45034.996
1300303.7791589627,-58070.52,-45840.945,21452.068,-13756.755,33917.4,3489.7056,-11414.958,44834.11
1300303.7831589591,-58093.71,-45869.1,21424.113,-13755.819,33891.195,3477.3765,-11418.579,44208.133
1300303.7871589554,-58113.566,-45890.625,21398.193,-13755.656,33880.74,3475.3826,-11415.976,44075.074
1300303.7911589518,-58092.9,-45871.707,21417.197,-13754.639,33903.08,3485.433,-11415.039,44680.543
1300303.795158948,-58057.336,-45840.617,21444.418,-13754.883,33919.477,3493.6118,-11414.145,45091.188
1300303.7991589445,-58053.1,-45838.543,21447.998,-13755.331,33912.8,3486.5723,-11415.446,44827.92
1300303.8031589407,-58087.77,-45871.055,21423.178,-13754.68,33888.387,3471.9646,-11416.667,44201.785
1300303.8071589372,-58114.586,-45893.516,21396.893,-13755.859,33881.633,3469.4011,-11415.161,44040.082
1300303.8111589334,-58095.867,-45877.44,21415.812,-13755.493,33901.734,3484.5378,-11409.14,44632.734
1300303.81515893,-58063.03,-45855.957,21449.951,-13755.737,33921.55,3494.4255,-11407.919,45094.363
1300303.8191589264,-58056.6,-45850.098,21462.646,-13756.552,33913.535,3490.56,-11408.407,44887.41
1300303.8231589226,-58090.7,-45871.42,21431.438,-13757.446,33893.35,3478.0273,-11412.313,44253.664
1300303.827158919,-58113.73,-45888.43,21405.273,-13756.267,33883.79,3473.4294,-11412.883,44163.21
1300303.8311589153,-58095.582,-45873.13,21411.338,-13755.453,33904.582,3480.3467,-11413.412,44728.56
1300303.8351589118,-58066.043,-45846.723,21444.824,-13756.267,33921.55,3485.8398,-11415.976,45100.832
1300303.839158908,-58057.902,-45843.305,21453.574,-13756.796,33909.465,3479.655,-11421.143,44861.37
1300303.8431589045,-58091.23,-45879.152,21426.555,-13755.737,33881.88,3466.6748,-11423.218,44193.848
1300303.8471589007,-58120.566,-45903.28,21402.1,-13755.575,33870.523,3465.9424,-11422.323,44084.637
1300303.8511588972,-58107.668,-45875.125,21414.674,-13755.656,33896.688,3479.533,-11421.265,44650.105
1300303.8551588936,-58079.387,-45851.89,21438.314,-13758.098,33916.707,3489.909,-11418.213,45043.785
1300303.8591588899,-58073.082,-45856.977,21443.36,-13758.911,33904.055,3483.8462,-11420.248,44757.285
1300303.8631588863,-58103.312,-45880.656,21412.924,-13758.017,33873.82,3470.0522,-11424.316,44126.305
1300303.8671588826,-58128.543,-45899.336,21394.613,-13755.9,33877.605,3465.2915,-11428.305,44050.54
1300303.871158879,-58106.977,-45886.027,21415.0,-13754.15,33901.53,3472.7378,-11428.996,44641.766
1300303.8751588752,-58070.965,-45853.152,21442.791,-13755.371,33919.92,3480.957,-11431.519,45056.926
1300303.8791588717,-58069.543,-45851.766,21452.963,-13756.918,33907.84,3477.3357,-11434.814,44778.363
1300303.883158868,-58106.367,-45882.203,21425.498,-13755.737,33880.332,3467.0818,-11435.181,44135.664
1300303.8871588644,-58125.246,-45898.926,21403.646,-13756.145,33876.02,3467.6921,-11432.129,44061.117
1300303.8911588609,-58106.57,-45886.11,21415.771,-13755.778,33895.996,3480.3062,-11427.531,44593.465
1300303.895158857,-58075.645,-45856.934,21447.062,-13755.778,33915.49,3492.5537,-11426.311,45032.31
1300303.8991588536,-58076.215,-45852.824,21448.73,-13757.446,33903.484,3486.0435,-11430.583,44857.75
1300303.9031588498,-58107.992,-45881.023,21425.904,-13757.609,33877.484,3472.4937,-11432.048,44343.387
1300303.9071588463,-58124.758,-45901.164,21400.635,-13755.453,33880.453,3468.0176,-11429.037,44318.484
1300303.9111588425,-58104.902,-45881.023,21412.03,-13753.866,33910.28,3476.1963,-11424.438,44905.844
1300303.915158839,-58068.523,-45854.82,21447.104,-13753.784,33918.824,3483.8054,-11424.235,45332.44
1300303.9191588354,-58064.047,-45856.977,21462.24,-13754.272,33899.863,3479.8584,-11426.555,45029.99
1300303.9231588317,-58101.28,-45882.0,21435.264,-13753.622,33872.56,3468.5874,-11425.781,44411.746
1300303.9271588281,-58128.094,-45903.77,21416.098,-13751.75,33865.4,3469.8894,-11422.607,44321.82
1300303.9311588244,-58106.527,-45894.574,21424.602,-13750.773,33889.73,3482.0964,-11419.149,44884.24
1300303.9351588208,-58070.598,-45864.137,21455.04,-13751.628,33907.594,3491.1704,-11422.485,45312.664
1300303.939158817,-58065.27,-45858.074,21456.543,-13751.506,33895.387,3484.1716,-11426.025,45079.47
1300303.9431588135,-58099.57,-45887.574,21434.246,-13751.872,33872.234,3470.9067,-11427.775,44464.195
1300303.9471588098,-58120.85,-45898.805,21414.55,-13749.228,33871.99,3469.9707,-11426.025,44353.72
1300303.9511588062,-58100.668,-45877.156,21428.06,-13748.739,33898.03,3481.8115,-11421.713,44895.957
1300303.9551588027,-58067.63,-45846.113,21459.922,-13749.1455,33918.62,3492.147,-11419.963,45286.215
1300303.959158799,-58066.773,-45845.906,21465.17,-13749.756,33904.543,3487.6304,-11424.887,44988.812
1300303.9631587954,-58098.594,-45879.965,21432.943,-13750.529,33874.918,3474.7722,-11429.199,44312.543
1300303.9671587916,-58122.97,-45898.6,21409.75,-13749.431,33870.605,3472.29,-11431.396,44268.92
1300303.971158788,-58098.066,-45876.547,21425.416,-13749.064,33894.816,3485.1074,-11429.118,44882.773
1300303.9751587843,-58063.113,-45851.848,21463.46,-13749.797,33912.723,3496.2566,-11426.27,45260.215
1300303.9791587808,-58064.66,-45854.94,21459.473,-13750.326,33899.902,3491.1296,-11427.043,44930.22
1300303.983158777,-58092.695,-45881.188,21431.967,-13750.244,33867.92,3479.1667,-11428.386,44376.305
1300303.9871587735,-58116.008,-45898.97,21409.465,-13747.192,33874.797,3478.3936,-11428.589,44297.61
1300303.99115877,-58101.484,-45890.137,21423.057,-13747.396,33905.68,3489.3394,-11430.014,44871.95
1300303.9951587662,-58066.203,-45859.254,21456.951,-13748.251,33917.887,3498.576,-11430.868,45318.81
1300303.9991587626,-58063.273,-45850.465,21466.553,-13748.739,33903.363,3492.269,-11433.554,45017.133
1300304.0031587589,-58095.83,-45879.395,21440.35,-13745.81,33874.88,3480.3467,-11434.855,44404.258
1300304.0071587553,-58120.363,-45902.344,21420.777,-13743.734,33869.996,3476.1963,-11432.739,44294.92
1300304.0111587516,-58100.63,-45886.516,21432.252,-13744.06,33891.93,3486.0027,-11431.152,44835.816
1300304.015158748,-58067.71,-45859.58,21460.37,-13745.769,33911.38,3497.274,-11430.908,45302.125
1300304.0191587443,-58066.855,-45862.305,21466.35,-13746.989,33893.758,3493.327,-11434.082,45024.617
1300304.0231587407,-58103.152,-45890.992,21435.426,-13747.478,33863.363,3480.7537,-11437.175,44408.246
1300304.0271587372,-58122.926,-45905.6,21409.547,-13747.6,33865.6,3479.94,-11433.757,44339.316
1300304.0311587334,-58104.74,-45887.777,21430.99,-13747.437,33886.19,3491.74,-11429.647,44902.14
1300304.0351587299,-58071.453,-45865.645,21468.75,-13747.396,33906.656,3498.4946,-11431.193,45244.71
1300304.039158726,-58066.45,-45866.58,21472.9,-13746.42,33898.074,3489.746,-11431.356,44938.234
1300304.0431587226,-58101.117,-45892.05,21445.15,-13745.81,33874.676,3476.9287,-11432.373,44362.47
1300304.0471587188,-58127.44,-45910.117,21421.021,-13745.972,33866.293,3476.3591,-11430.502,44316.855
1300304.0511587153,-58113.04,-45890.465,21435.588,-13744.67,33890.3,3488.078,-11427.45,44921.184
1300304.0551587115,-58076.418,-45862.633,21465.82,-13742.839,33906.7,3497.2332,-11429.24,45338.992
1300304.059158708,-58066.45,-45859.457,21471.518,-13744.385,33889.895,3487.7117,-11434.123,45021.812
1300304.0631587044,-58101.44,-45884.688,21437.135,-13744.304,33854.41,3475.1792,-11435.954,44401.41
1300304.0671587007,-58128.01,-45907.918,21414.227,-13744.507,33852.703,3473.3887,-11437.378,44314.008
1300304.0711586971,-58108.605,-45894.613,21437.012,-13744.223,33874.15,3484.7412,-11437.826,44862.062
1300304.0751586934,-58073.69,-45864.34,21467.855,-13744.182,33898.887,3495.158,-11436.687,45274.21
1300304.0791586898,-58071.168,-45863.324,21469.768,-13743.124,33891.24,3489.6648,-11434.489,45004.438
1300304.083158686,-58106.164,-45889.082,21434.49,-13742.432,33872.52,3476.6846,-11434.57,44395.918
1300304.0871586825,-58125.773,-45905.4,21411.662,-13742.147,33873.78,3476.8882,-11433.757,44360.516
1300304.0911586788,-58104.25,-45882.938,21436.158,-13742.676,33894.9,3488.8103,-11432.333,44926.312
1300304.0951586752,-58074.79,-45862.184,21463.217,-13744.345,33904.543,3493.4897,-11434.367,45283.53
1300304.0991586717,-58076.336,-45866.62,21471.559,-13742.758,33890.668,3487.4675,-11436.6455,44966.27
1300304.103158668,-58110.68,-45890.465,21436.89,-13742.514,33858.195,3475.6267,-11438.3955,44366.945
1300304.1071586644,-58132.61,-45902.223,21417.645,-13743.734,33859.906,3473.1853,-11439.494,44260.215
1300304.1111586606,-58114.586,-45881.836,21442.912,-13743.652,33885.418,3486.2468,-11437.744,44883.953
1300304.115158657,-58081.465,-45860.965,21477.256,-13742.961,33907.797,3494.9546,-11433.716,45286.176
1300304.1191586533,-58077.965,-45860.965,21467.938,-13743.042,33897.46,3489.2173,-11433.676,44974.0
1300304.1231586498,-58107.18,-45886.92,21436.932,-13742.798,33872.195,3479.126,-11435.385,44395.71
1300304.127158646,-58128.543,-45903.445,21419.516,-13743.164,33866.17,3478.109,-11435.385,44347.37
1300304.1311586425,-58114.016,-45887.695,21438.518,-13742.758,33891.645,3489.0952,-11434.774,44925.62
1300304.135158639,-58085.98,-45865.277,21464.56,-13742.839,33901.855,3495.28,-11436.157,45246.504
1300304.1391586352,-58087.402,-45868.207,21467.734,-13744.06,33883.79,3486.6943,-11439.25,44880.414
1300304.1431586316,-58118.734,-45898.562,21438.926,-13743.042,33857.06,3474.6501,-11441.203,44339.355
1300304.1471586279,-58139.73,-45916.75,21421.836,-13741.943,33857.87,3476.1963,-11439.128,44357.06
1300304.1511586243,-58125.652,-45893.637,21436.32,-13742.432,33883.383,3486.8164,-11439.494,44901.695
1300304.1551586206,-58089.64,-45872.887,21454.346,-13746.908,33896.445,3495.1987,-11441.528,45281.617
1300304.159158617,-58086.426,-45874.555,21473.838,-13747.03,33879.11,3490.031,-11441.895,44992.598
1300304.1631586133,-58115.6,-45896.688,21442.303,-13744.751,33856.242,3476.0742,-11439.982,44373.008
1300304.1671586097,-58131.676,-45906.453,21419.15,-13743.571,33863.77,3476.1558,-11438.3545,44335.695
1300304.1711586062,-58114.383,-45890.3,21435.873,-13744.914,33887.004,3488.6882,-11437.541,44898.277
1300304.1751586024,-58087.04,-45873.25,21463.46,-13745.728,33896.73,3497.0703,-11438.681,45243.086
1300304.1791585989,-58090.78,-45873.457,21467.002,-13745.769,33880.94,3489.3394,-11439.372,44943.89
1300304.183158595,-58126.59,-45902.547,21437.541,-13744.507,33856.16,3476.8066,-11438.681,44358.848
1300304.1871585916,-58146.12,-45919.56,21419.516,-13745.483,33854.168,3474.528,-11442.017,44367.555
1300304.1911585878,-58130.7,-45905.316,21439.941,-13744.019,33878.95,3486.4502,-11443.563,44949.79
1300304.1951585843,-58095.785,-45882.12,21470.826,-13742.065,33898.723,3493.571,-11444.662,45328.33
1300304.1991585805,-58090.742,-45882.734,21467.326,-13742.554,33882.203,3484.5378,-11448.08,44981.0
1300304.203158577,-58126.547,-45906.74,21433.188,-13743.408,33852.38,3470.7031,-11451.05,44377.156
1300304.2071585734,-58149.008,-45915.977,21409.018,-13742.798,33853.72,3471.395,-11449.667,44350.06
1300304.2111585697,-58129.395,-45899.05,21433.432,-13740.805,33883.707,3480.4688,-11446.452,44903.117
1300304.2151585661,-58098.39,-45879.395,21467.326,-13741.496,33893.96,3486.084,-11449.138,45233.93
1300304.2191585624,-58099.406,-45877.93,21470.42,-13742.31,33878.543,3478.8005,-11450.236,44940.227
1300304.2231585588,-58127.402,-45905.6,21439.047,-13740.927,33854.535,3466.7563,-11447.51,44344.2
1300304.227158555,-58144.207,-45918.867,21416.748,-13739.096,33856.65,3468.0583,-11444.58,44344.2
1300304.2311585515,-58125.285,-45901.29,21445.354,-13738.933,33880.453,3479.37,-11443.645,44961.63
1300304.2351585478,-58091.84,-45871.95,21478.72,-13739.502,33892.984,3487.1826,-11444.255,45353.19
1300304.2391585442,-58096.887,-45877.117,21478.598,-13741.618,33881.266,3480.1025,-11448.446,44967.53
1300304.2431585407,-58128.418,-45902.832,21444.744,-13742.106,33864.34,3467.733,-11451.457,44359.297
1300304.247158537,-58148.562,-45916.426,21424.766,-13740.52,33863.65,3467.57,-11448.324,44334.027
1300304.2511585334,-58131.758,-45908.285,21440.959,-13741.943,33888.31,3476.7253,-11445.19,44901.043
1300304.2551585296,-58102.336,-45880.332,21469.443,-13741.659,33904.867,3485.3516,-11444.784,45303.184
1300304.259158526,-58097.58,-45870.32,21476.074,-13740.438,33891.316,3478.353,-11445.19,44981.12
1300304.2631585223,-58126.184,-45896.16,21448.527,-13738.647,33860.15,3467.326,-11445.068,44392.375
1300304.2671585188,-58144.574,-45910.848,21424.766,-13738.119,33858.316,3466.8784,-11446.615,44387.13
1300304.271158515,-58125.652,-45896.16,21441.488,-13738.119,33884.81,3476.644,-11447.47,44996.504
1300304.2751585115,-58095.258,-45875.285,21475.627,-13740.356,33898.277,3483.724,-11445.231,45336.1
1300304.279158508,-58097.414,-45871.95,21478.477,-13742.147,33876.06,3478.1902,-11446.33,44959.27
1300304.2831585042,-58128.418,-45903.973,21445.068,-13741.211,33848.227,3464.1929,-11450.603,44357.75
1300304.2871585006,-58143.72,-45918.99,21435.059,-13738.7295,33851.24,3463.908,-11452.556,44335.246
1300304.2911584969,-58123.13,-45901.246,21458.049,-13737.875,33877.81,3477.946,-11449.748,44924.645
1300304.2951584933,-58091.27,-45873.414,21489.096,-13740.275,33896.484,3486.613,-11445.476,45304.445
1300304.2991584896,-58086.1,-45873.09,21497.52,-13739.624,33883.426,3479.37,-11444.54,44997.805
1300304.303158486,-58115.277,-45900.066,21462.525,-13736.898,33861.086,3467.1226,-11445.476,44401.855
1300304.3071584825,-58137.453,-45917.81,21437.217,-13736.816,33851.93,3466.5122,-11447.226,44385.54
1300304.3111584787,-58117.758,-45898.113,21456.666,-13737.59,33876.996,3477.3765,-11448.608,44920.82
1300304.3151584752,-58086.305,-45880.617,21481.162,-13739.096,33892.824,3483.724,-11448.405,45277.02
1300304.3191584714,-58094.65,-45888.836,21478.271,-13739.909,33875.367,3477.824,-11450.236,44925.496
1300304.323158468,-58132.082,-45911.95,21452.598,-13740.397,33848.594,3465.1694,-11453.735,44326.336
1300304.3271584641,-58146.85,-45921.348,21434.855,-13740.072,33848.836,3465.9424,-11452.067,44339.52
1300304.3311584606,-58129.152,-45903.688,21453.857,-13739.38,33871.297,3478.2715,-11452.148,44920.37
1300304.3351584568,-58097.863,-45884.766,21484.416,-13738.403,33889.895,3481.893,-11454.55,45248.984
1300304.3391584533,-58092.613,-45879.56,21484.904,-13737.509,33874.715,3473.3481,-11455.241,44927.816
1300304.3431584497,-58126.184,-45906.863,21452.678,-13736.532,33851.277,3464.6812,-11453.817,44338.055
1300304.347158446,-58148.97,-45923.543,21437.42,-13738.363,33852.703,3465.4949,-11454.062,44335.695
1300304.3511584424,-58128.176,-45907.31,21446.25,-13740.275,33877.973,3476.9287,-11452.2705,44923.137
1300304.3551584387,-58099.0,-45883.87,21480.957,-13740.194,33896.324,3481.5674,-11452.678,45302.9
1300304.3591584351,-58099.773,-45880.008,21482.422,-13738.933,33881.55,3473.0225,-11456.543,44965.945
1300304.3631584314,-58131.145,-45902.996,21445.762,-13739.055,33856.12,3461.792,-11460.327,44378.215
1300304.3671584278,-58151.043,-45918.215,21428.184,-13738.933,33864.95,3462.8906,-11460.002,44343.14
1300304.371158424,-58128.906,-45902.71,21446.494,-13740.316,33885.54,3475.83,-11457.886,44922.49
1300304.3751584205,-58095.582,-45872.07,21476.482,-13739.99,33896.242,3483.5205,-11456.421,45286.543
1300304.379158417,-58099.367,-45871.22,21477.744,-13739.502,33883.75,3474.3247,-11456.462,44938.477
1300304.3831584132,-58135.215,-45902.59,21443.28,-13739.99,33858.805,3459.7168,-11457.072,44394.574
1300304.3871584097,-58146.527,-45916.504,21430.908,-13738.607,33860.434,3460.4492,-11455.119,44415.855
1300304.391158406,-58124.758,-45895.71,21452.475,-13738.037,33882.977,3473.8364,-11454.0205,45012.13
1300304.3951584024,-58094.81,-45874.066,21479.492,-13740.194,33890.543,3479.533,-11453.166,45395.02
1300304.3991583986,-58092.246,-45871.504,21484.498,-13739.462,33874.15,3471.273,-11454.55,45057.54
1300304.403158395,-58123.21,-45895.266,21454.834,-13736.816,33854.695,3459.7168,-11455.933,44464.07
1300304.4071583913,-58145.715,-45911.906,21437.826,-13736.735,33859.78,3459.1064,-11453.735,44460.695
1300304.4111583878,-58121.504,-45900.23,21460.002,-13737.0205,33885.62,3470.744,-11449.992,45010.99
1300304.4151583842,-58087.973,-45872.316,21489.299,-13737.712,33897.543,3477.9868,-11448.039,45353.72
1300304.4191583805,-58095.5,-45875.0,21487.875,-13739.299,33879.56,3470.1743,-11448.935,45020.062
1300304.423158377,-58128.34,-45902.305,21453.777,-13739.136,33853.76,3459.5947,-11449.423,44456.3
1300304.4271583732,-58136.64,-45912.477,21433.432,-13737.346,33854.29,3458.1707,-11450.928,44531.008
1300304.4311583696,-58112.43,-45889.324,21456.951,-13737.468,33878.094,3468.1804,-11450.358,45071.902
1300304.4351583659,-58087.934,-45868.29,21492.473,-13739.706,33890.83,3474.691,-11452.026,45365.926
1300304.4391583623,-58095.34,-45871.83,21490.113,-13742.065,33863.973,3467.448,-11453.939,44982.992
1300304.4431583586,-58130.74,-45899.293,21457.154,-13740.316,33843.508,3457.9673,-11453.451,44394.656
1300304.447158355,-58144.777,-45910.28,21441.447,-13738.159,33851.848,3459.7168,-11450.806,44431.4
1300304.4511583515,-58122.234,-45895.184,21461.143,-13738.485,33878.703,3470.866,-11447.551,45000.652
1300304.4551583477,-58091.92,-45875.33,21497.275,-13739.177,33896.324,3478.1902,-11446.452,45336.914
1300304.4591583442,-58092.98,-45880.617,21502.441,-13737.509,33876.26,3470.6218,-11450.969,44928.55
1300304.4631583404,-58128.543,-45908.49,21465.414,-13737.956,33851.645,3456.2583,-11456.34,44392.742
1300304.467158337,-58150.516,-45928.387,21433.31,-13738.241,33852.906,3455.9326,-11461.996,44456.91
1300304.4711583331,-58124.676,-45911.336,21466.064,-13738.241,33883.63,3469.8486,-11462.484,45009.81
1300304.4751583296,-58089.6,-45874.96,21496.338,-13739.218,33900.473,3476.115,-11463.379,45360.84
1300304.4791583258,-58095.95,-45877.32,21491.252,-13739.868,33885.99,3467.163,-11461.63,44958.984
1300304.4831583223,-58132.164,-45902.793,21463.055,-13739.665,33859.293,3455.8513,-11458.659,44423.137
1300304.4871583187,-58146.934,-45913.496,21444.418,-13736.735,33859.99,3456.787,-11453.898,44469.035
1300304.491158315,-58123.457,-45894.004,21462.77,-13737.753,33885.17,3469.3604,-11449.951,45035.36
1300304.4951583114,-58094.85,-45875.734,21498.535,-13739.096,33897.504,3477.7832,-11449.463,45353.598
1300304.4991583077,-58100.63,-45885.418,21495.2,-13740.683,33882.61,3472.1274,-11450.48,44981.0
1300304.5031583041,-58134.074,-45909.668,21458.457,-13740.275,33855.266,3461.4258,-11453.41,44441.53
1300304.5071583004,-58147.46,-45918.945,21441.406,-13739.746,33855.43,3462.0361,-11459.025,44492.027
1300304.5111582968,-58122.723,-45900.516,21463.705,-13740.52,33881.754,3471.1914,-11460.612,45122.273
1300304.515158293,-58091.15,-45879.844,21492.148,-13740.927,33891.48,3475.8708,-11461.06,45417.074
1300304.5191582895,-58100.06,-45890.547,21493.652,-13740.397,33871.34,3468.6687,-11463.949,44988.406
1300304.523158286,-58136.152,-45923.18,21460.002,-13741.455,33839.926,3457.1128,-11461.752,44409.953
1300304.5271582822,-58151.98,-45933.188,21444.336,-13742.025,33845.5,3458.0078,-11460.409,44466.27
1300304.5311582787,-58123.047,-45907.715,21475.059,-13740.886,33877.44,3471.3135,-11456.462,45162.395
1300304.535158275,-58090.496,-45877.2,21503.947,-13740.194,33895.348,3480.6724,-11451.457,45572.88
1300304.5391582714,-58096.56,-45882.246,21506.715,-13740.927,33870.89,3471.4355,-11453.451,45193.727
1300304.5431582676,-58129.926,-45904.297,21475.791,-13741.008,33841.88,3457.1533,-11458.7,44633.016
1300304.547158264,-58146.973,-45923.26,21442.18,-13741.049,33843.832,3456.8687,-11463.217,44682.945
1300304.5511582603,-58126.67,-45905.965,21469.361,-13739.787,33869.832,3467.977,-11465.617,45242.637
1300304.5551582568,-58097.496,-45879.965,21500.773,-13739.096,33879.844,3474.691,-11463.42,45533.406
1300304.5591582533,-58103.152,-45889.73,21494.996,-13739.421,33866.984,3466.3494,-11464.315,45099.367
1300304.5631582495,-58142.215,-45923.668,21465.537,-13739.99,33844.645,3455.241,-11463.989,44574.707
1300304.567158246,-58153.73,-45934.855,21449.748,-13741.415,33845.62,3459.2285,-11457.805,44616.824
1300304.5711582422,-58128.297,-45913.94,21469.443,-13741.333,33870.484,3472.046,-11453.329,45158.082
1300304.5751582386,-58096.477,-45889.285,21502.768,-13739.462,33890.098,3477.5798,-11453.085,45501.02
1300304.5791582349,-58104.37,-45899.336,21509.238,-13739.34,33869.547,3467.8142,-11455.974,45087.363
1300304.5831582313,-58140.06,-45926.72,21469.768,-13739.177,33849.406,3455.0781,-11456.869,44538.332
1300304.5871582276,-58149.133,-45933.027,21449.83,-13738.607,33855.227,3455.9326,-11457.397,44652.67
1300304.591158224,-58125.33,-45913.047,21473.35,-13739.746,33872.03,3464.8032,-11458.496,45201.824
1300304.5951582205,-58099.734,-45885.824,21504.395,-13741.537,33884.195,3470.3777,-11461.792,45464.07
1300304.5991582167,-58110.516,-45898.03,21495.281,-13741.74,33872.56,3462.85,-11462.484,45028.16
1300304.6031582132,-58142.54,-45926.598,21463.379,-13739.706,33850.914,3452.5962,-11462.443,44490.6
1300304.6071582094,-58152.55,-45932.617,21450.44,-13738.403,33861.656,3457.3975,-11460.124,44607.547
1300304.611158206,-58127.973,-45908.855,21474.53,-13736.613,33889.12,3466.8376,-11460.653,45177.37
1300304.6151582021,-58097.984,-45883.668,21500.855,-13736.369,33892.984,3471.273,-11461.182,45460.125
1300304.6191581986,-58100.87,-45892.54,21501.873,-13736.125,33877.32,3462.077,-11461.06,45041.586
1300304.6231581948,-58132.203,-45915.652,21473.105,-13733.195,33858.074,3450.7651,-11458.293,44495.04
1300304.6271581913,-58147.707,-45925.58,21456.625,-13735.2705,33859.375,3451.416,-11456.787,44538.086
1300304.6311581878,-58123.66,-45906.414,21481.365,-13737.427,33883.016,3464.9253,-11456.625,45090.984
1300304.635158184,-58101.156,-45889.773,21509.521,-13739.502,33894.9,3470.744,-11457.764,45346.19
1300304.6391581804,-58105.47,-45897.91,21500.326,-13738.037,33880.37,3463.501,-11455.322,44992.84
1300304.6431581767,-58130.047,-45918.215,21471.68,-13736.735,33862.43,3453.532,-11455.322,44461.426
1300304.6471581731,-58140.75,-45927.53,21457.44,-13735.922,33869.508,3454.061,-11457.235,44536.582
1300304.6511581694,-58119.754,-45899.293,21472.617,-13735.067,33893.11,3466.5935,-11457.4795,45136.92
1300304.6551581658,-58090.742,-45877.402,21508.912,-13735.352,33902.14,3473.1853,-11456.991,45432.008
1300304.6591581623,-58094.605,-45885.418,21509.93,-13734.823,33877.93,3465.739,-11454.062,45035.2
1300304.6631581585,-58130.168,-45911.215,21476.604,-13734.823,33856.0,3454.9968,-11451.701,44511.027
1300304.667158155,-58144.207,-45920.695,21459.473,-13735.107,33863.28,3454.4678,-11454.102,44549.52
1300304.6711581512,-58122.6,-45903.16,21478.477,-13735.922,33884.605,3465.739,-11454.224,45105.105
1300304.6751581477,-58098.594,-45876.953,21511.271,-13736.044,33897.22,3473.0225,-11453.532,45374.27
1300304.679158144,-58106.773,-45888.67,21500.408,-13736.532,33880.7,3465.332,-11453.41,44988.16
1300304.6831581404,-58134.562,-45915.527,21466.432,-13735.596,33857.547,3451.3755,-11457.316,44433.92
1300304.6871581366,-58144.53,-45923.137,21461.02,-13733.969,33866.7,3452.2705,-11460.653,44539.715
1300304.691158133,-58122.64,-45902.67,21483.236,-13734.497,33891.24,3464.7217,-11464.6,45121.867
