timestamp,Fp1,Fp2,F3,Fz,F4,Cz,Pz,Oz
1300820.8946885795,-66126.1,-50387.047,42315.797,-4424.8457,39561.035,9251.547,2373.6572,72061.445
1300820.898688576,-66134.89,-50385.703,42280.6,-4426.351,39553.875,9244.629,2367.4724,71400.31
1300820.9026885724,-66120.61,-50376.06,42317.508,-4426.7173,39588.34,9277.873,2365.031,71842.66
1300820.9066885686,-66106.37,-50366.336,42376.02,-4426.758,39610.72,9310.019,2365.9668,72696.29
1300820.910688565,-66110.68,-50370.85,42361.004,-4426.107,39589.805,9292.44,2366.74,72731.41
1300820.9146885613,-66125.33,-50392.906,42296.43,-4424.154,39556.355,9255.005,2367.0654,72005.375
1300820.9186885578,-66132.2,-50381.105,42280.6,-4422.038,39551.84,9248.901,2369.3035,71455.24
1300820.922688554,-66114.75,-50355.797,42331.098,-4422.0786,39582.234,9284.668,2373.983,71956.914
1300820.9266885505,-66094.56,-50353.355,42384.074,-4425.293,39607.547,9321.411,2379.9644,73026.086
1300820.9306885467,-66108.85,-50375.043,42371.46,-4426.677,39584.312,9298.747,2376.709,73020.76
1300820.9346885432,-66129.84,-50390.668,42302.29,-4427.3276,39555.3,9250.204,2371.989,72116.945
1300820.9386885397,-66130.945,-50390.707,42273.723,-4427.4497,39545.453,9241.089,2372.4773,71484.01
1300820.942688536,-66116.74,-50367.84,42316.49,-4427.6533,39568.074,9279.257,2376.709,71904.83
1300820.9466885324,-66098.19,-50356.324,42377.566,-4426.0254,39588.094,9315.227,2381.958,72894.53
1300820.9506885286,-66102.79,-50360.84,42368.53,-4426.351,39568.2,9290.283,2379.7202,72841.35
1300820.954688525,-66125.98,-50375.652,42311.81,-4425.985,39555.582,9248.861,2381.7954,72075.12
1300820.9586885213,-66135.78,-50381.31,42280.887,-4423.9097,39557.945,9237.712,2383.7485,71600.47
1300820.9626885178,-66125.45,-50385.5,42309.816,-4424.1133,39578.086,9273.4375,2389.852,71948.85
1300820.966688514,-66102.74,-50379.598,42371.34,-4424.6826,39600.953,9312.948,2392.8223,72956.22
1300820.9706885105,-66106.734,-50372.48,42371.137,-4426.758,39586.426,9294.149,2391.2354,72986.86
1300820.974688507,-66128.54,-50379.234,42322.715,-4428.182,39555.38,9255.493,2390.2588,72191.94
1300820.9786885031,-66132.49,-50396.812,42286.297,-4426.107,39559.0,9242.473,2387.1257,71602.58
1300820.9826884996,-66114.95,-50385.785,42322.633,-4423.462,39592.45,9272.746,2388.9568,71984.91
1300820.9866884958,-66097.25,-50365.438,42378.38,-4422.2007,39609.17,9305.949,2391.2354,72850.14
1300820.9906884923,-66096.48,-50371.055,42369.957,-4420.9395,39584.473,9284.018,2389.038,72721.16
1300820.9946884885,-66120.12,-50376.14,42315.676,-4419.922,39565.473,9244.548,2385.2947,71946.49
1300820.998688485,-66134.93,-50384.277,42286.5,-4417.7246,39566.164,9238.444,2386.9224,71490.234
1300821.0026884812,-66124.31,-50376.547,42325.156,-4419.1895,39591.92,9273.967,2390.2588,72008.22
1300821.0066884777,-66103.766,-50363.445,42388.633,-4421.55,39604.695,9314.413,2393.2292,73113.57
1300821.0106884742,-66106.85,-50374.84,42376.832,-4421.3867,39583.09,9297.567,2393.2292,73158.81
1300821.0146884704,-66124.516,-50384.688,42310.465,-4421.4277,39553.71,9254.313,2389.4043,72257.94
1300821.0186884669,-66132.445,-50393.27,42282.27,-4420.736,39552.652,9239.99,2386.8816,71600.99
1300821.022688463,-66116.09,-50393.27,42322.754,-4420.532,39583.09,9267.7,2387.2478,71936.56
1300821.0266884596,-66097.695,-50379.844,42378.95,-4420.329,39613.77,9305.583,2391.439,72871.87
1300821.0306884558,-66109.664,-50377.688,42375.33,-4420.9395,39585.816,9286.947,2391.7236,72929.32
1300821.0346884523,-66134.4,-50393.758,42309.57,-4420.7764,39571.168,9249.716,2392.3748,72055.055
1300821.0386884487,-66145.34,-50408.69,42270.996,-4421.9565,39576.66,9242.1875,2394.572,71432.336
1300821.042688445,-66132.49,-50397.79,42309.285,-4423.991,39592.652,9273.601,2397.705,71802.01
1300821.0466884414,-66111.984,-50369.832,42367.72,-4424.6016,39614.79,9311.442,2400.0652,72973.76
1300821.0506884377,-66110.15,-50372.805,42360.92,-4423.9097,39582.156,9292.074,2394.6128,73104.375
1300821.0546884341,-66128.5,-50392.62,42310.75,-4423.869,39549.48,9251.587,2389.0789,72168.984
1300821.0586884303,-66146.2,-50412.03,42282.633,-4425.415,39549.52,9243.571,2385.0098,71542.4
1300821.0626884268,-66139.125,-50409.832,42327.15,-4424.886,39574.3,9276.327,2385.4167,71977.09
1300821.066688423,-66122.195,-50375.773,42380.535,-4424.276,39600.63,9307.577,2387.0444,72835.0
1300821.0706884195,-66124.92,-50376.547,42369.02,-4424.3164,39588.176,9283.977,2384.1553,72803.8
1300821.074688416,-66144.9,-50397.664,42310.67,-4422.7705,39556.195,9247.111,2382.8533,72018.234
1300821.0786884122,-66147.95,-50395.184,42278.688,-4420.736,39550.008,9238.7295,2381.958,71423.26
1300821.0826884087,-66125.98,-50390.953,42311.89,-4422.241,39570.76,9270.061,2384.9692,71878.3
1300821.086688405,-66113.08,-50382.855,42374.555,-4424.3164,39596.805,9307.983,2384.6843,72969.12
1300821.0906884014,-66115.52,-50382.895,42365.48,-4425.578,39585.086,9284.75,2379.354,73037.84
1300821.0946883976,-66134.195,-50388.918,42299.48,-4424.8047,39551.312,9241.699,2376.6277,72137.125
1300821.098688394,-66145.875,-50400.555,42277.875,-4422.9736,39542.195,9235.2295,2375.0815,71432.945
1300821.1026883903,-66134.6,-50390.06,42328.492,-4423.991,39567.914,9266.276,2375.8953,71709.8
1300821.1066883868,-66114.34,-50378.176,42379.723,-4424.276,39590.17,9303.833,2378.0518,72824.34
1300821.1106883832,-66120.2,-50390.22,42360.555,-4422.811,39567.547,9279.948,2376.2207,72917.4
1300821.1146883795,-66135.016,-50406.25,42318.89,-4419.5967,39552.246,9235.067,2369.3848,72199.22
1300821.118688376,-66138.76,-50393.84,42278.973,-4418.091,39567.586,9225.302,2369.629,71637.45
1300821.1226883722,-66135.26,-50392.54,42320.027,-4419.5967,39585.734,9262.451,2370.6462,72085.57
1300821.1266883686,-66120.0,-50381.31,42380.086,-4417.6025,39612.754,9298.503,2372.274,73086.39
1300821.1306883649,-66108.65,-50374.51,42363.73,-4417.7656,39588.785,9277.141,2378.0518,72943.65
1300821.1346883613,-66126.99,-50383.953,42305.46,-4418.376,39550.133,9241.13,2379.7202,72046.875
1300821.1386883575,-66136.88,-50400.676,42278.77,-4418.091,39556.926,9235.759,2383.1382,71497.68
1300821.142688354,-66128.09,-50395.062,42321.74,-4419.271,39589.07,9274.008,2387.3699,71969.484
1300821.1466883505,-66119.63,-50398.4,42383.14,-4421.8345,39609.215,9311.483,2389.8926,72958.46
1300821.1506883467,-66118.77,-50392.17,42368.367,-4423.462,39590.332,9290.283,2385.4575,73019.78
1300821.1546883432,-66127.81,-50382.812,42302.37,-4422.7295,39556.03,9243.612,2377.0752,72149.25
1300821.1586883394,-66133.1,-50385.01,42276.613,-4420.451,39553.996,9232.788,2373.291,71421.35
1300821.1626883359,-66123.01,-50380.086,42319.785,-4419.393,39582.887,9270.386,2378.0925,71824.625
1300821.166688332,-66115.73,-50380.902,42380.902,-4420.2476,39607.098,9306.967,2384.5623,72801.88
1300821.1706883286,-66119.63,-50388.43,42382.773,-4419.5557,39588.992,9282.268,2380.8188,72853.64
1300821.1746883248,-66141.64,-50407.39,42324.26,-4418.742,39571.695,9237.834,2380.2898,72013.19
1300821.1786883213,-66155.234,-50419.965,42281.09,-4420.41,39569.62,9232.016,2385.1726,71501.914
1300821.1826883177,-66141.12,-50401.98,42313.03,-4421.55,39593.465,9265.585,2391.561,71915.2
1300821.186688314,-66128.42,-50393.23,42378.055,-4421.55,39608.93,9298.625,2396.9727,72882.2
1300821.1906883104,-66132.695,-50402.63,42364.625,-4423.1772,39591.023,9282.593,2394.572,72958.46
1300821.1946883067,-66140.1,-50402.996,42305.867,-4422.811,39565.594,9247.803,2392.985,72145.305
1300821.1986883031,-66139.69,-50386.477,42282.35,-4422.567,39560.387,9240.234,2393.1885,71467.81
1300821.2026882994,-66129.6,-50370.81,42323.73,-4421.672,39593.63,9273.193,2389.974,71988.32
1300821.2066882958,-66112.02,-50368.816,42384.81,-4420.9395,39610.35,9307.455,2391.7236,72990.93
1300821.210688292,-66122.6,-50369.1,42382.45,-4421.0615,39583.254,9285.238,2390.6658,72931.52
1300821.2146882885,-66132.0,-50385.582,42312.867,-4420.532,39556.234,9245.361,2389.3638,72037.92
1300821.218688285,-66140.34,-50398.52,42268.96,-4420.044,39553.754,9239.177,2391.154,71367.76
1300821.2226882812,-66137.49,-50395.387,42319.99,-4419.3115,39590.78,9271.811,2389.974,71801.96
1300821.2266882777,-66122.44,-50381.51,42368.29,-4417.5215,39619.02,9304.484,2392.7002,72848.15
1300821.230688274,-66111.086,-50377.566,42357.83,-4420.044,39579.387,9287.883,2396.7693,72968.18
1300821.2346882704,-66127.56,-50388.023,42304.04,-4423.055,39554.08,9255.087,2398.519,72179.69
1300821.2386882666,-66142.62,-50401.855,42270.223,-4424.0317,39549.277,9245.199,2396.81,71511.555
1300821.242688263,-66136.76,-50397.34,42307.58,-4426.8394,39582.52,9275.146,2392.0898,71887.62
1300821.2466882593,-66113.734,-50376.953,42371.094,-4428.9146,39584.92,9309.855,2396.281,72751.016
1300821.2506882558,-66115.766,-50397.79,42364.22,-4428.63,39564.13,9288.859,2395.9556,72728.44
1300821.2546882522,-66138.76,-50405.113,42301.72,-4427.246,39544.965,9246.786,2395.7927,72017.336
1300821.2586882485,-66151.82,-50400.15,42294.273,-4423.4214,39561.16,9239.177,2391.9272,71419.35
1300821.262688245,-66133.79,-50396.688,42316.812,-4424.276,39581.055,9273.804,2395.752,71874.516
1300821.2666882412,-66112.836,-50379.234,42379.273,-4424.4385,39606.49,9307.821,2398.9258,72918.01
1300821.2706882376,-66118.2,-50387.617,42364.383,-4424.642,39586.02,9285.767,2400.35,72832.766
1300821.2746882339,-66131.875,-50390.547,42295.29,-4420.8174,39560.26,9251.262,2400.4722,72099.125
1300821.2786882303,-66134.195,-50393.434,42266.24,-4421.346,39557.254,9245.239,2399.699,71605.8
1300821.2826882266,-66124.96,-50383.06,42320.926,-4420.8174,39581.46,9275.839,2404.5005,72020.8
1300821.286688223,-66105.555,-50365.645,42377.156,-4422.3633,39610.758,9315.349,2410.197,72982.875
1300821.2906882195,-66100.79,-50366.66,42356.406,-4425.2524,39588.34,9294.189,2410.5632,72976.73
1300821.2946882157,-66125.86,-50387.168,42306.152,-4428.4263,39548.098,9255.412,2411.3364,72055.914
1300821.2986882122,-66138.266,-50400.758,42276.98,-4430.5015,39550.496,9247.559,2410.9294,71392.26
1300821.3026882084,-66128.336,-50407.227,42317.383,-4430.461,39580.16,9277.629,2416.626,71732.055
1300821.3066882049,-66112.51,-50392.742,42378.867,-4432.0884,39605.43,9314.738,2422.567,72694.13
1300821.310688201,-66121.34,-50393.965,42382.45,-4433.716,39576.336,9293.661,2415.324,72849.0
1300821.3146881976,-66157.15,-50414.594,42307.008,-4433.6753,39552.207,9251.628,2409.6274,71994.47
1300821.3186881938,-66165.125,-50414.023,42261.19,-4432.4546,39545.74,9241.699,2410.2378,71364.18
1300821.3226881903,-66129.4,-50390.06,42314.37,-4429.891,39574.91,9269.938,2404.7446,71892.54
1300821.3266881867,-66090.78,-50365.438,42385.99,-4426.3916,39599.652,9299.316,2403.8901,72967.81
1300821.330688183,-66101.24,-50383.26,42368.29,-4427.6533,39573.203,9279.704,2402.6694,72986.086
1300821.3346881794,-66125.77,-50394.246,42297.566,-4427.938,39544.84,9248.169,2404.663,72087.65
1300821.3386881757,-66141.805,-50410.402,42279.582,-4429.8096,39532.84,9241.252,2405.355,71343.95
1300821.3426881721,-66134.73,-50408.203,42305.83,-4430.827,39576.54,9274.048,2407.3894,71804.57
1300821.3466881684,-66124.19,-50405.926,42373.984,-4434.896,39594.89,9313.803,2414.3066,72904.625
1300821.3506881648,-66123.5,-50411.133,42375.246,-4436.6865,39573.934,9294.678,2415.975,72963.586
1300821.354688161,-66136.6,-50415.73,42313.477,-4435.6284,39551.395,9252.849,2410.319,72189.17
1300821.3586881575,-66137.9,-50410.035,42289.715,-4429.891,39550.254,9240.967,2405.599,71643.96
1300821.362688154,-66135.22,-50419.07,42321.207,-4428.996,39575.24,9275.757,2405.477,72028.85
1300821.3666881502,-66120.08,-50409.426,42388.55,-4428.589,39606.082,9308.472,2404.0122,73014.85
1300821.3706881467,-66124.11,-50404.46,42377.566,-4429.4434,39575.32,9291.098,2404.7446,72943.97
1300821.374688143,-66148.16,-50416.75,42316.203,-4427.8564,39551.312,9254.517,2403.7273,72186.69
1300821.3786881394,-66144.66,-50423.465,42274.82,-4425.537,39565.473,9243.246,2403.239,71525.59
1300821.3826881356,-66129.68,-50416.75,42318.277,-4426.107,39588.992,9275.757,2405.3955,71931.48
1300821.386688132,-66113.57,-50390.465,42364.79,-4426.7173,39614.137,9315.1455,2411.0515,72845.95
1300821.3906881283,-66119.836,-50409.223,42365.438,-4429.3623,39581.34,9298.95,2409.017,72853.31
1300821.3946881248,-66135.22,-50419.56,42307.496,-4429.3623,39566.203,9263.876,2407.7148,72160.28
1300821.3986881212,-66146.81,-50431.6,42283.285,-4432.7803,39568.277,9256.714,2409.8716,71585.734
1300821.4026881175,-66141.73,-50431.438,42318.688,-4436.5234,39587.28,9288.412,2411.0923,71903.65
1300821.406688114,-66120.2,-50396.28,42372.113,-4433.5127,39618.082,9324.87,2411.377,72968.1
1300821.4106881102,-66124.31,-50392.703,42371.258,-4433.716,39581.95,9304.565,2408.773,73044.35
1300821.4146881066,-66148.36,-50404.91,42322.715,-4435.018,39543.094,9261.3125,2407.3894,72148.93
1300821.4186881029,-66157.15,-50411.46,42287.926,-4432.821,39551.92,9251.506,2410.1157,71504.88
1300821.4226880993,-66151.77,-50424.684,42335.695,-4432.536,39583.133,9282.959,2410.319,71826.625
1300821.4266880958,-66125.94,-50398.848,42374.023,-4433.065,39597.293,9321.859,2417.44,72860.35
1300821.430688092,-66135.055,-50399.13,42377.44,-4433.0244,39579.305,9300.456,2413.2488,72931.84
1300821.4346880885,-66158.66,-50416.953,42311.77,-4434.774,39553.184,9265.463,2411.8652,72095.26
1300821.4386880847,-66164.02,-50432.496,42296.59,-4433.5938,39560.914,9258.342,2410.5632,71553.1
1300821.4426880812,-66149.54,-50431.113,42336.305,-4434.367,39585.695,9291.911,2410.9702,72061.484
1300821.4466880774,-66130.13,-50400.027,42371.99,-4435.3843,39597.94,9323.649,2418.9453,72918.22
1300821.4506880739,-66137.17,-50400.27,42367.027,-4433.4717,39572.88,9300.253,2417.3179,72810.18
1300821.45468807,-66146.484,-50403.28,42315.51,-4431.6816,39547.0,9260.742,2409.2205,71822.67
1300821.4586880666,-66155.27,-50422.406,42294.395,-4432.414,39549.074,9253.784,2406.1687,71252.97
1300821.462688063,-66147.79,-50411.133,42329.47,-4430.217,39594.363,9282.39,2408.8135,71803.96
1300821.4666880593,-66124.72,-50385.215,42383.098,-4431.234,39599.49,9317.668,2415.8123,72857.95
1300821.4706880557,-66123.5,-50401.367,42366.617,-4430.176,39586.1,9308.1875,2416.7075,72988.24
1300821.474688052,-66149.58,-50424.93,42322.754,-4428.6704,39557.496,9265.585,2409.5054,71993.94
1300821.4786880484,-66166.22,-50442.87,42296.023,-4427.368,39560.508,9254.028,2411.3364,71262.125
1300821.4826880447,-66156.7,-50436.28,42336.832,-4428.06,39574.22,9284.506,2417.5212,71781.336
1300821.4866880411,-66134.805,-50411.38,42382.367,-4428.63,39606.85,9322.226,2423.2585,72775.88
1300821.4906880374,-66137.66,-50413.25,42374.35,-4431.234,39585.043,9307.414,2420.2068,72828.53
1300821.4946880338,-66144.66,-50423.18,42315.797,-4426.6357,39547.49,9269.165,2416.7075,72067.06
1300821.4986880303,-66160.89,-50441.043,42287.926,-4424.398,39559.652,9255.737,2411.4585,71524.91
1300821.5026880265,-66154.5,-50421.227,42327.027,-4426.1475,39585.207,9290.731,2417.2363,72009.16
1300821.506688023,-66130.66,-50397.504,42383.016,-4425.456,39593.832,9326.823,2421.3867,72926.35
1300821.5106880192,-66131.516,-50405.113,42384.605,-4426.758,39570.883,9304.118,2416.748,73001.71
1300821.5146880157,-66160.56,-50412.68,42323.12,-4425.09,39559.53,9259.44,2414.8357,72029.91
1300821.518688012,-66165.81,-50422.445,42284.02,-4425.9443,39547.04,9252.768,2417.8062,71372.03
1300821.5226880084,-66146.94,-50412.68,42312.38,-4428.0195,39579.918,9294.434,2429.24,72025.48
1300821.5266880046,-66131.15,-50405.844,42375.977,-4426.9614,39604.94,9329.997,2432.9834,73057.21
1300821.530688001,-66130.78,-50395.59,42380.086,-4426.0254,39583.254,9303.142,2425.415,72768.07
1300821.5346879975,-66142.62,-50397.383,42313.723,-4426.5547,39556.6,9258.871,2421.4275,71777.47
1300821.5386879938,-66154.46,-50414.918,42286.38,-4422.038,39567.223,9249.472,2416.4226,71116.91
1300821.5426879902,-66152.305,-50404.867,42318.973,-4424.1943,39587.73,9286.459,2420.4102,71695.03
1300821.5466879865,-66127.08,-50407.88,42373.984,-4426.473,39594.117,9320.923,2423.3398,72931.36
1300821.550687983,-66141.4,-50417.523,42373.82,-4427.5312,39586.14,9299.968,2416.3413,72980.51
1300821.5546879792,-66165.53,-50417.727,42322.836,-4425.7,39559.49,9262.37,2410.5225,72161.42
1300821.5586879756,-66167.766,-50434.164,42296.51,-4426.677,39547.242,9251.669,2410.0342,71508.305
1300821.5626879719,-66144.82,-50424.156,42311.24,-4427.368,39579.715,9282.064,2412.1501,71915.65
1300821.5666879683,-66134.28,-50410.484,42372.03,-4429.1587,39595.38,9315.227,2412.8826,72846.234
1300821.5706879648,-66149.74,-50409.832,42381.31,-4428.3447,39572.918,9297.607,2406.8604,72829.43
1300821.574687961,-66148.766,-50411.906,42309.938,-4425.3745,39548.79,9257.202,2404.1343,72096.44
1300821.5786879575,-66167.16,-50430.79,42274.945,-4424.6826,39551.27,9244.711,2402.588,71531.54
1300821.5826879537,-66160.93,-50427.734,42320.8,-4422.8926,39581.098,9273.601,2398.0713,71937.664
1300821.5866879502,-66133.83,-50406.13,42368.777,-4427.368,39584.188,9310.913,2404.0122,72944.26
1300821.5906879464,-66129.44,-50401.98,42360.965,-4427.4497,39576.133,9292.5625,2403.9307,73114.95
1300821.5946879429,-66160.89,-50410.523,42318.973,-4426.758,39555.38,9252.686,2398.397,72476.4
1300821.598687939,-66179.28,-50434.125,42286.582,-4428.996,39545.207,9243.652,2396.403,71796.71
1300821.6026879356,-66169.03,-50433.676,42309.9,-4427.246,39576.254,9271.566,2389.445,72103.48
1300821.606687932,-66150.43,-50425.703,42366.863,-4428.06,39598.55,9301.799,2388.6719,72948.125
1300821.6106879283,-66150.27,-50434.98,42359.254,-4428.955,39577.637,9283.163,2390.0554,73034.914
1300821.6146879247,-66172.85,-50435.305,42305.176,-4428.589,39556.195,9239.95,2382.6091,72214.88
1300821.618687921,-66167.08,-50432.7,42265.055,-4428.874,39537.027,9231.12,2383.0974,71552.414
1300821.6226879174,-66154.55,-50436.2,42328.453,-4427.816,39572.51,9266.846,2381.836,72087.77
1300821.6266879137,-66138.51,-50424.277,42372.887,-4426.6357,39604.86,9301.555,2386.963,73144.45
1300821.6306879101,-66139.9,-50416.914,42366.617,-4429.24,39569.133,9282.756,2390.5845,72976.4
1300821.6346879064,-66156.05,-50425.66,42314.37,-4427.7344,39532.96,9246.379,2391.439,72110.31
1300821.6386879028,-66170.29,-50436.566,42284.547,-4426.3916,39542.97,9234.172,2388.6719,71510.17
1300821.6426878993,-66155.88,-50421.1,42311.16,-4426.88,39582.03,9264.975,2388.8755,71930.7
1300821.6466878955,-66133.18,-50404.83,42369.63,-4425.9443,39610.92,9298.91,2387.2478,73061.08
1300821.650687892,-66135.54,-50412.64,42364.42,-4425.537,39589.926,9278.402,2384.2773,73058.02
1300821.6546878882,-66152.1,-50433.188,42304.85,-4427.246,39532.023,9238.525,2381.958,71977.055
1300821.6586878847,-66172.0,-50437.34,42277.47,-4425.2524,39540.12,9227.946,2377.2788,71261.27
1300821.662687881,-66161.99,-50440.51,42294.84,-4426.9614,39589.438,9262.858,2380.2085,71762.21
1300821.6666878774,-66132.695,-50418.62,42378.664,-4427.5312,39593.305,9303.549,2384.9285,72897.5
1300821.6706878736,-66130.21,-50410.035,42367.516,-4425.334,39569.742,9282.593,2383.0566,73039.1
1300821.67468787,-66157.31,-50436.934,42314.58,-4424.886,39545.33,9237.793,2381.5513,72117.07
1300821.6786878665,-66170.9,-50444.867,42277.508,-4426.9614,39559.164,9233.195,2380.6152,71513.67
1300821.6826878628,-66164.266,-50435.914,42327.434,-4428.3857,39568.32,9266.113,2384.2773,71944.79
1300821.6866878592,-66144.9,-50414.51,42379.844,-4427.165,39590.008,9300.456,2385.5388,72970.91
1300821.6906878555,-66151.53,-50435.387,42373.008,-4428.874,39576.133,9281.454,2377.5635,72972.375
1300821.694687852,-66169.88,-50453.74,42307.457,-4429.199,39543.785,9237.549,2379.3132,71953.49
1300821.6986878482,-66171.06,-50438.926,42271.812,-4429.199,39517.05,9229.655,2382.365,71355.72
1300821.7026878446,-66155.97,-50429.2,42307.008,-4429.403,39564.047,9265.015,2385.2947,71898.03
1300821.7066878409,-66147.22,-50418.742,42363.895,-4428.589,39608.727,9302.287,2392.4968,72970.7
1300821.7106878373,-66137.414,-50416.22,42356.445,-4427.4497,39598.51,9283.325,2390.0554,73170.21
1300821.7146878338,-66145.51,-50424.156,42316.12,-4425.7,39536.336,9244.833,2390.1775,72394.164
1300821.71868783,-66159.875,-50437.176,42291.707,-4425.537,39539.47,9236.288,2394.979,71632.29
1300821.7226878265,-66148.234,-50430.137,42317.14,-4424.927,39569.01,9267.09,2396.6064,71975.71
1300821.7266878227,-66139.04,-50428.67,42375.164,-4422.119,39620.934,9295.37,2388.6313,72874.39
1300821.7306878192,-66136.805,-50428.836,42356.812,-4421.3867,39578.656,9279.785,2394.5312,72942.34
1300821.7346878154,-66158.57,-50435.63,42305.746,-4423.6655,39549.52,9241.659,2383.0974,72040.445
1300821.738687812,-66164.72,-50436.523,42282.43,-4425.334,39545.29,9234.497,2380.6152,71350.42
1300821.7426878081,-66136.516,-50418.785,42320.8,-4423.2993,39578.656,9269.165,2383.789,71900.23
1300821.7466878046,-66128.13,-50421.227,42384.195,-4423.584,39610.92,9309.652,2384.359,72956.46
1300821.750687801,-66128.016,-50425.05,42381.51,-4424.0723,39571.98,9287.436,2382.894,72970.625
1300821.7546877973,-66162.84,-50446.7,42324.137,-4426.758,39547.28,9232.748,2380.941,72094.36
1300821.7586877937,-66178.96,-50443.074,42285.727,-4428.0195,39552.492,9227.214,2382.9346,71444.625
1300821.76268779,-66147.26,-50413.777,42316.367,-4426.4326,39583.496,9270.956,2385.4167,71901.77
1300821.7666877864,-66119.875,-50400.35,42382.04,-4425.8223,39608.316,9300.985,2381.7546,72965.25
1300821.7706877827,-66132.53,-50411.38,42364.016,-4426.9614,39594.605,9275.065,2380.6968,72967.164
1300821.7746877791,-66152.63,-50427.9,42299.684,-4426.5137,39545.574,9239.584,2381.5918,72055.09
1300821.7786877754,-66161.26,-50422.73,42287.598,-4424.2354,39539.266,9228.231,2376.0173,71335.57
1300821.7826877718,-66161.664,-50420.492,42327.066,-4426.5547,39569.46,9263.388,2372.8435,71840.66
1300821.7866877683,-66136.6,-50402.184,42387.9,-4425.4966,39592.613,9299.846,2377.767,72918.336
1300821.7906877645,-66150.92,-50407.797,42363.08,-4425.8223,39591.188,9278.931,2378.1333,72933.11
1300821.794687761,-66156.45,-50418.66,42311.363,-4423.0146,39554.605,9238.647,2374.8374,72094.445
1300821.7986877572,-66162.31,-50413.656,42290.49,-4423.9097,39532.145,9234.335,2370.7275,71445.03
1300821.8026877537,-66159.43,-50424.97,42329.305,-4421.4277,39593.305,9269.369,2370.3208,71833.01
1300821.80668775,-66135.7,-50422.0,42363.61,-4425.09,39606.285,9315.796,2378.2554,72914.266
1300821.8106877464,-66129.72,-50408.773,42343.793,-4426.8394,39552.652,9295.37,2375.936,72897.18
1300821.8146877429,-66161.3,-50434.125,42299.97,-4427.4497,39520.02,9249.309,2371.46,71973.11
1300821.818687739,-66173.55,-50432.984,42285.727,-4423.34,39543.824,9236.288,2366.9841,71397.016
1300821.8226877355,-66151.62,-50428.305,42311.77,-4423.381,39577.066,9270.508,2370.3613,71883.47
1300821.8266877318,-66130.21,-50411.46,42368.777,-4423.1772,39599.938,9307.211,2376.7905,72969.2
1300821.8306877282,-66136.234,-50424.684,42374.797,-4423.6655,39551.758,9288.778,2374.5933,73055.99
1300821.8346877245,-66155.73,-50434.164,42310.465,-4423.055,39555.504,9245.443,2368.449,72174.195
1300821.838687721,-66156.17,-50426.473,42266.562,-4423.95,39540.082,9239.34,2372.1924,71492.39
1300821.8426877172,-66155.48,-50433.594,42312.582,-4427.2056,39557.742,9272.014,2370.6462,71777.266
1300821.8466877136,-66132.61,-50415.895,42383.22,-4426.4326,39598.023,9309.692,2370.1172,72740.4
1300821.85068771,-66145.06,-50409.75,42363.324,-4427.124,39600.383,9296.713,2371.5007,72832.07
1300821.8546877063,-66164.836,-50428.223,42309.207,-4428.5483,39551.11,9258.301,2371.3787,72052.37
1300821.8586877028,-66168.984,-50439.047,42279.094,-4428.3447,39558.92,9248.088,2371.46,71418.78
1300821.862687699,-66151.164,-50413.535,42312.5,-4427.572,39586.266,9288.696,2375.692,71951.336
1300821.8666876955,-66126.79,-50397.79,42370.035,-4429.7285,39586.223,9329.712,2386.9224,73042.445
1300821.8706876917,-66139.2,-50417.035,42352.01,-4433.309,39575.97,9308.798,2384.3994,72991.3
1300821.8746876882,-66154.016,-50427.246,42302.613,-4432.2104,39538.535,9266.5205,2376.7905,72060.55
1300821.8786876844,-66162.44,-50435.508,42289.43,-4430.2573,39550.863,9259.929,2374.5933,71520.305
1300821.882687681,-66156.25,-50419.355,42310.547,-4430.42,39584.11,9292.358,2381.1443,72043.78
1300821.8866876774,-66143.27,-50409.832,42351.24,-4434.6113,39587.81,9329.956,2385.0098,73079.914
1300821.8906876736,-66138.836,-50410.645,42367.676,-4431.3965,39564.535,9308.879,2377.5635,73010.09
1300821.89468767,-66152.75,-50421.348,42297.363,-4429.9727,39540.527,9266.5205,2378.5808,71942.75
1300821.8986876663,-66169.31,-50438.723,42276.855,-4430.705,39563.723,9256.674,2372.4773,71289.72
1300821.9026876627,-66151.57,-50425.703,42304.527,-4430.664,39584.598,9292.44,2377.5635,71796.914
1300821.906687659,-66127.85,-50426.883,42362.996,-4434.4077,39583.58,9328.9795,2379.2725,72856.695
1300821.9106876554,-66140.055,-50421.184,42362.633,-4437.3374,39563.844,9311.768,2374.8374,73071.33
1300821.9146876517,-66159.43,-50426.19,42294.516,-4434.6113,39551.96,9274.252,2373.4946,72269.45
1300821.9186876481,-66170.78,-50438.926,42267.824,-4434.8145,39540.57,9262.126,2369.995,71550.3
1300821.9226876446,-66165.61,-50438.234,42315.27,-4436.198,39554.73,9293.864,2369.995,71974.57
1300821.9266876408,-66130.45,-50404.42,42362.305,-4432.4546,39582.03,9326.701,2373.7388,72941.445
1300821.9306876373,-66132.94,-50410.848,42345.297,-4429.7285,39559.855,9304.118,2372.7214,72953.86
1300821.9346876335,-66148.93,-50440.27,42293.785,-4429.891,39535.89,9264.486,2367.147,72118.66
1300821.93868763,-66157.68,-50452.027,42276.57,-4430.0947,39525.27,9254.395,2366.2925,71503.87
1300821.9426876262,-66140.71,-50433.23,42310.63,-4427.938,39565.105,9288.371,2368.571,71863.24
1300821.9466876227,-66122.56,-50403.73,42362.223,-4428.06,39595.703,9329.916,2363.3628,72898.44
1300821.950687619,-66121.18,-50403.08,42358.523,-4425.8223,39561.89,9309.245,2363.851,72960.45
1300821.9546876154,-66116.375,-50405.234,42301.188,-4420.6543,39537.516,9263.591,2365.153,72101.97
1300821.9586876119,-66146.89,-50416.22,42266.195,-4423.1772,39555.22,9253.174,2360.8806,71386.84
1300821.962687608,-66135.78,-50399.742,42306.438,-4423.0146,39583.336,9284.465,2359.0088,71817.18
1300821.9666876046,-66109.375,-50392.09,42378.46,-4420.288,39597.94,9315.634,2357.4219,72772.5
1300821.9706876008,-66091.31,-50387.41,42366.58,-4418.132,39558.15,9298.869,2357.8289,72845.7
1300821.9746875972,-66120.04,-50404.137,42298.668,-4417.3584,39543.215,9262.533,2356.893,71946.984
1300821.9786875935,-66104.29,-50379.273,42284.586,-4410.482,39540.527,9257.324,2359.5378,71326.984
1300821.98268759,-66094.65,-50372.316,42309.695,-4411.377,39577.15,9291.22,2365.438,71828.94
1300821.9866875862,-66065.72,-50347.168,42380.047,-4411.8247,39594.645,9328.776,2367.6758,72993.414
1300821.9906875826,-66059.82,-50327.76,42365.234,-4409.546,39584.72,9309.652,2366.3738,72984.3
1300821.994687579,-66061.65,-50325.035,42306.766,-4409.2207,39553.63,9268.188,2363.9324,72015.016
1300821.9986875753,-66046.47,-50306.234,42278.523,-4406.8604,39555.79,9262.98,2359.782,71365.84
1300822.0026875718,-66023.12,-50281.82,42337.77,-4406.82,39581.83,9294.556,2357.9917,71764.08
1300822.006687568,-65995.52,-50257.977,42385.336,-4401.9775,39637.695,9325.195,2356.1606,72724.77
1300822.0106875645,-65990.484,-50249.594,42372.6,-4402.181,39606.73,9303.752,2355.9165,72685.1
1300822.0146875607,-66018.11,-50271.973,42322.43,-4402.5474,39572.227,9260.905,2348.7957,71714.64
1300822.0186875572,-66000.2,-50248.457,42279.867,-4398.1123,39565.066,9256.918,2351.2778,71179.12
1300822.0226875534,-65977.74,-50253.746,42318.766,-4398.5596,39597.332,9296.672,2357.6255,71626.266
1300822.02668755,-65955.41,-50231.406,42392.496,-4396.0776,39638.754,9330.933,2352.4985,72670.086
1300822.0306875464,-65982.95,-50252.32,42401.45,-4400.0244,39608.277,9312.5,2348.2666,72807.375
1300822.0346875426,-66005.695,-50282.27,42329.062,-4401.7744,39546.47,9276.571,2356.771,71978.03
1300822.038687539,-66019.57,-50269.125,42291.504,-4401.3267,39559.773,9268.026,2352.0103,71323.41
1300822.0426875353,-66005.945,-50251.63,42362.508,-4397.7866,39600.465,9294.882,2353.353,71680.14
1300822.0466875318,-65979.414,-50251.465,42384.89,-4398.2344,39626.87,9329.428,2360.6365,72595.87
1300822.050687528,-65979.86,-50250.9,42356.363,-4396.037,39605.633,9310.263,2349.935,72728.4
1300822.0546875244,-66010.375,-50276.855,42323.12,-4399.536,39571.004,9272.909,2346.9646,71892.945
1300822.0586875207,-66033.49,-50299.03,42305.95,-4403.3613,39566.895,9269.45,2355.5095,71106.0
1300822.0626875171,-66026.49,-50283.773,42339.6,-4406.372,39574.22,9298.34,2355.3062,71584.96
1300822.0666875136,-66000.04,-50272.055,42370.363,-4402.9136,39639.445,9329.509,2353.8413,72623.66
1300822.0706875098,-66000.61,-50282.31,42354.695,-4404.0527,39604.047,9312.582,2357.7068,72595.54
1300822.0746875063,-66020.06,-50287.07,42317.832,-4404.0938,39542.277,9264.893,2352.6206,71657.15
1300822.0786875025,-66029.22,-50294.516,42268.066,-4405.599,39544.72,9255.615,2352.9868,70987.836
1300822.082687499,-66025.07,-50302.492,42325.81,-4405.0293,39590.21,9289.389,2352.9053,71562.5
1300822.0866874952,-66029.055,-50304.61,42401.57,-4407.634,39602.703,9326.701,2355.3875,72585.414
1300822.0906874917,-66028.89,-50303.1,42385.582,-4405.599,39610.434,9309.774,2348.1853,72731.484
1300822.094687488,-66065.96,-50333.09,42284.914,-4412.313,39587.04,9274.374,2351.3184,71904.22
1300822.0986874844,-66036.83,-50326.5,42261.312,-4411.255,39526.125,9271.811,2367.6353,71245.16
1300822.1026874809,-66033.24,-50308.23,42317.79,-4408.081,39584.516,9293.945,2359.8228,71624.02
1300822.106687477,-66040.41,-50307.58,42390.18,-4407.1045,39637.25,9325.399,2346.1914,72589.805
1300822.1106874736,-66032.15,-50308.473,42364.91,-4408.8545,39607.26,9315.1045,2352.946,72679.24
1300822.1146874698,-66049.03,-50322.836,42305.258,-4410.7666,39566.895,9272.827,2356.2012,71713.91
1300822.1186874663,-66067.75,-50349.938,42293.863,-4413.9,39546.754,9262.207,2358.3171,71064.25
1300822.1226874625,-66049.36,-50323.242,42308.84,-4410.36,39607.504,9296.835,2359.1309,71549.16
1300822.126687459,-66040.734,-50309.9,42380.13,-4410.1973,39622.438,9329.468,2357.0151,72562.18
1300822.1306874552,-66047.94,-50316.53,42364.746,-4410.848,39573.203,9310.547,2355.713,72444.016
1300822.1346874516,-66080.61,-50348.555,42304.2,-4409.668,39575.44,9273.356,2343.7908,71640.875
1300822.138687448,-66094.445,-50357.016,42291.22,-4409.831,39564.617,9265.585,2345.5405,71089.6
1300822.1426874443,-66084.72,-50367.676,42327.35,-4411.4585,39602.906,9302.938,2352.3357,71658.61
1300822.1466874408,-66043.17,-50337.324,42374.066,-4409.0986,39616.414,9342.367,2357.7068,72794.516
1300822.150687437,-66063.73,-50328.29,42355.266,-4409.79,39617.39,9322.0625,2357.3813,72736.125
1300822.1546874335,-66075.32,-50338.83,42314.656,-4411.947,39565.43,9282.1455,2362.02,71788.45
1300822.1586874297,-66094.04,-50364.746,42278.484,-4412.1094,39587.117,9276.53,2374.3083,71049.08
1300822.1626874262,-66073.81,-50355.47,42335.492,-4410.2783,39593.223,9313.11,2372.3552,71559.2
1300822.1666874224,-66063.73,-50347.94,42388.55,-4412.5977,39623.82,9354.492,2375.936,72665.94
1300822.170687419,-66074.586,-50346.56,42368.004,-4415.5684,39591.105,9333.537,2372.3552,72706.055
1300822.1746874154,-66116.414,-50373.008,42317.18,-4414.673,39579.305,9290.405,2368.8152,71978.97
1300822.1786874116,-66101.484,-50365.156,42279.094,-4411.784,39557.293,9279.948,2377.4822,71397.95
1300822.182687408,-66113.04,-50380.78,42315.633,-4411.255,39612.47,9310.019,2366.3738,71653.61
1300822.1866874043,-66107.625,-50385.38,42371.785,-4413.8184,39639.242,9353.842,2369.8325,72644.414
1300822.1906874008,-66089.64,-50356.324,42369.957,-4415.324,39576.05,9336.589,2383.3416,72697.19
1300822.194687397,-66127.97,-50391.727,42316.12,-4419.027,39543.418,9300.009,2383.789,71805.95
1300822.1986873935,-66120.98,-50388.797,42295.29,-4415.08,39541.22,9289.389,2378.0925,71150.76
1300822.20268739,-66100.586,-50378.867,42290.367,-4413.086,39574.3,9324.748,2394.857,71610.88
1300822.2066873861,-66097.695,-50374.51,42368.695,-4415.283,39599.855,9364.584,2396.281,72796.266
1300822.2106873826,-66105.836,-50384.402,42371.543,-4415.324,39603.312,9343.994,2396.159,72869.67
1300822.2146873788,-66104.01,-50385.54,42317.996,-4412.3945,39535.523,9304.362,2400.35,71944.055
1300822.2186873753,-66125.57,-50398.4,42263.184,-4412.5166,39573.203,9292.847,2399.6582,71276.37
1300822.2226873715,-66139.04,-50413.902,42324.992,-4418.091,39587.934,9327.026,2401.286,71606.41
1300822.226687368,-66101.73,-50378.34,42372.03,-4414.7544,39591.797,9367.554,2408.244,72638.555
1300822.2306873642,-66096.93,-50387.13,42363.04,-4409.7495,39598.676,9347.25,2405.355,72753.945
1300822.2346873607,-66137.45,-50421.387,42312.746,-4412.7197,39581.46,9309.123,2407.4707,71901.57
1300822.2386873572,-66150.02,-50417.24,42289.836,-4416.3413,39536.38,9305.176,2413.208,71186.24
1300822.2426873534,-66138.8,-50400.434,42293.703,-4417.6025,39577.23,9342.082,2419.5151,71624.06
1300822.2466873499,-66118.2,-50389.16,42384.402,-4415.487,39579.184,9372.111,2413.2488,72554.164
1300822.250687346,-66130.414,-50404.785,42390.383,-4415.4463,39560.508,9352.011,2410.1157,72598.47
1300822.2546873426,-66140.34,-50412.355,42285.688,-4410.1562,39593.953,9308.635,2409.1392,71823.445
1300822.2586873388,-66139.94,-50411.5,42268.883,-4407.7964,39572.062,9303.63,2419.8406,71287.36
1300822.2626873353,-66118.734,-50392.62,42321.617,-4406.535,39581.79,9335.775,2413.3708,71776.62
1300822.2666873315,-66124.39,-50399.824,42373.375,-4412.2725,39613.688,9372.274,2423.2585,72797.61
1300822.270687328,-66124.39,-50401.652,42359.99,-4409.831,39584.88,9354.736,2425.3745,72832.28
1300822.2746873244,-66132.164,-50399.09,42309.977,-4404.338,39540.895,9306.356,2413.0454,71764.57
1300822.2786873206,-66156.45,-50422.49,42293.418,-4406.494,39551.758,9297.852,2414.4695,70975.55
1300822.282687317,-66145.02,-50406.293,42329.387,-4406.616,39579.875,9330.933,2416.911,71505.82
1300822.2866873133,-66121.016,-50387.656,42380.94,-4402.954,39612.348,9362.834,2416.8296,72679.57
1300822.2906873098,-66112.76,-50388.062,42368.082,-4402.5474,39595.176,9343.181,2419.7998,72730.72
1300822.294687306,-66138.836,-50402.71,42319.38,-4406.3315,39559.367,9309.204,2422.8923,71995.37
1300822.2986873025,-66137.78,-50396.566,42278.65,-4403.076,39569.05,9301.636,2420.4102,71373.62
1300822.3026872987,-66133.67,-50403.08,42352.703,-4404.582,39564.13,9337.973,2418.7012,71728.805
1300822.3066872952,-66122.64,-50392.293,42367.84,-4402.629,39612.266,9368.896,2419.149,72559.164
1300822.3106872917,-66130.45,-50407.188,42348.31,-4404.7446,39583.21,9344.36,2418.742,72420.66
1300822.314687288,-66147.09,-50412.68,42318.93,-4403.28,39533.61,9304.606,2415.5273,71652.34
1300822.3186872844,-66166.016,-50424.03,42272.016,-4402.0996,39559.246,9302.084,2419.0674,71131.76
1300822.3226872806,-66141.36,-50394.246,42315.555,-4399.333,39587.363,9332.805,2423.3398,71639.77
1300822.326687277,-66120.61,-50395.47,42381.023,-4403.4834,39603.355,9367.392,2430.8677,72766.89
1300822.3306872733,-66100.06,-50372.887,42363.08,-4399.17,39576.17,9341.35,2435.6284,72843.38
1300822.3346872698,-66144.05,-50410.566,42302.33,-4400.7163,39587.32,9298.259,2433.4312,71985.31
1300822.338687266,-66150.59,-50416.586,42304.73,-4400.8384,39561.93,9291.179,2432.1697,71344.16
1300822.3426872625,-66146.61,-50410.93,42324.465,-4403.0356,39572.062,9329.265,2435.6284,71752.97
1300822.346687259,-66095.5,-50373.17,42388.062,-4399.2515,39594.2,9365.112,2429.1587,72972.86
1300822.3506872552,-66116.5,-50388.918,42372.6,-4402.3438,39566.57,9342.611,2433.1462,72980.19
1300822.3546872516,-66180.42,-50434.695,42306.355,-4406.535,39561.402,9309.408,2428.2227,71977.7
1300822.3586872478,-66151.25,-50411.824,42272.625,-4398.153,39574.75,9296.835,2427.3276,71267.78
1300822.3626872443,-66124.43,-50399.824,42315.633,-4396.932,39597.7,9323.283,2423.1365,71513.02
1300822.3666872405,-66137.984,-50422.363,42379.844,-4402.3438,39610.84,9355.957,2428.5076,72368.86
1300822.370687237,-66124.23,-50410.605,42362.223,-4402.588,39569.418,9348.063,2449.5444,72558.39
1300822.3746872332,-66127.61,-50398.887,42310.426,-4395.752,39539.227,9300.659,2435.4248,71890.71
1300822.3786872297,-66167.36,-50429.12,42287.723,-4397.4204,39550.133,9295.98,2430.542,71265.95
1300822.3826872262,-66142.7,-50423.668,42318.117,-4395.793,39605.918,9332.602,2430.949,71838.79
1300822.3866872224,-66116.17,-50384.97,42376.668,-4397.1357,39593.426,9367.92,2438.5173,72849.77
1300822.3906872189,-66110.88,-50383.668,42381.918,-4395.427,39573.285,9346.232,2435.2214,72817.18
1300822.394687215,-66150.64,-50428.836,42335.652,-4395.3047,39558.637,9296.265,2425.171,71946.375
1300822.3986872116,-66173.71,-50448.895,42286.99,-4395.874,39568.523,9286.906,2432.0884,71236.125
1300822.4026872078,-66160.69,-50425.742,42316.203,-4398.031,39599.367,9324.301,2434.1228,71647.586
1300822.4066872043,-66131.02,-50399.902,42390.668,-4400.0654,39581.016,9360.474,2435.2214,72713.34
1300822.4106872005,-66140.38,-50419.56,42362.387,-4396.6475,39600.87,9331.991,2421.9158,72712.32
1300822.414687197,-66150.48,-50408.082,42301.395,-4393.1885,39561.035,9296.997,2433.5125,71962.65
1300822.4186871934,-66172.53,-50435.957,42272.258,-4395.508,39552.37,9292.114,2435.3435,71358.73
1300822.4226871897,-66151.37,-50415.49,42311.77,-4391.8457,39572.797,9320.19,2443.6035,71762.414
1300822.4266871861,-66124.48,-50399.21,42363.12,-4392.131,39578.574,9353.476,2443.156,72574.18
1300822.4306871824,-66154.95,-50448.895,42346.477,-4397.4204,39591.594,9333.781,2428.1414,72500.81
1300822.4346871788,-66172.37,-50462.16,42315.96,-4396.322,39552.246,9295.166,2422.0378,71784.71
1300822.438687175,-66158.0,-50436.484,42297.324,-4392.334,39539.145,9286.133,2426.6357,71272.18
1300822.4426871715,-66156.86,-50422.363,42328.86,-4394.165,39553.875,9321.574,2429.0366,71817.99
1300822.4466871677,-66137.734,-50416.22,42398.438,-4395.996,39572.266,9359.863,2430.542,72900.31
1300822.4506871642,-66147.664,-50419.883,42340.617,-4396.0776,39594.156,9340.373,2437.8662,72932.375
1300822.4546871607,-66179.164,-50444.297,42282.715,-4397.0137,39577.76,9295.41,2432.0884,72016.28
1300822.458687157,-66192.51,-50461.508,42264.04,-4399.4956,39551.23,9287.639,2432.0068,71372.234
1300822.4626871534,-66168.87,-50435.1,42323.324,-4398.6006,39549.316,9318.604,2436.5642,71671.19
1300822.4666871496,-66161.945,-50435.344,42389.527,-4400.35,39584.758,9354.777,2431.8035,72731.33
1300822.470687146,-66155.44,-50435.75,42353.68,-4398.8447,39568.523,9336.67,2434.8552,72847.17
1300822.4746871423,-66168.5,-50432.58,42315.43,-4396.8506,39523.926,9292.603,2421.3054,72026.05
1300822.4786871388,-66174.4,-50456.098,42265.465,-4398.519,39530.19,9286.703,2423.9502,71284.55
1300822.482687135,-66174.36,-50463.016,42300.09,-4401.286,39580.445,9324.097,2425.0896,71592.125
1300822.4866871315,-66155.234,-50444.62,42367.105,-4403.5645,39586.47,9361.044,2433.4717,72713.09
1300822.490687128,-66145.1,-50438.4,42362.754,-4398.6816,39571.492,9333.944,2430.827,72701.336
1300822.4946871242,-66174.36,-50463.46,42307.254,-4397.746,39546.023,9290.935,2432.78,71698.695
1300822.4986871206,-66184.37,-50465.047,42263.1,-4398.3564,39545.656,9283.244,2434.8552,71181.68
1300822.5026871169,-66182.414,-50470.625,42305.504,-4402.2217,39575.766,9319.54,2440.5518,71694.375
1300822.5066871133,-66157.72,-50430.867,42365.64,-4402.2217,39577.965,9353.598,2439.5347,72785.41
1300822.5106871095,-66140.99,-50410.32,42352.54,-4398.763,39548.91,9335.571,2439.738,72815.72
1300822.514687106,-66176.27,-50444.824,42311.973,-4401.5303,39537.8,9303.02,2441.569,71980.875
1300822.5186871022,-66181.44,-50452.11,42269.816,-4401.815,39532.676,9293.905,2443.4001,71198.445
1300822.5226870987,-66166.625,-50443.156,42311.16,-4399.658,39571.902,9324.911,2441.854,71674.4
1300822.5266870952,-66167.484,-50453.047,42372.4,-4400.7163,39608.523,9361.084,2445.1091,72701.09
1300822.5306870914,-66163.49,-50449.26,42365.887,-4405.3955,39535.36,9346.151,2453.939,72678.8
1300822.5346870879,-66161.99,-50430.79,42299.848,-4398.6816,39528.16,9300.09,2450.2769,71930.09
1300822.538687084,-66202.68,-50472.13,42281.13,-4399.984,39550.293,9289.755,2440.5112,71358.28
1300822.5426870806,-66172.37,-50447.676,42310.75,-4397.827,39562.664,9323.568,2445.394,71742.31
1300822.5466870768,-66127.61,-50405.6,42362.43,-4396.932,39592.613,9358.806,2453.7354,72891.08
1300822.5506870733,-66165.53,-50443.117,42345.133,-4404.419,39575.36,9336.264,2448.0388,72972.54
1300822.5546870695,-66179.37,-50459.188,42312.215,-4401.245,39538.94,9296.428,2439.5347,72031.05
1300822.558687066,-66193.32,-50472.453,42271.77,-4403.646,39541.87,9288.574,2437.7036,71336.914
1300822.5626870624,-66193.93,-50480.266,42306.52,-4405.111,39576.375,9323.69,2439.5752,71657.48
1300822.5666870587,-66168.984,-50457.805,42374.27,-4404.1343,39582.277,9357.382,2439.616,72757.57
1300822.5706870551,-66171.43,-50464.355,42358.035,-4404.582,39556.152,9338.298,2443.0747,72907.15
1300822.5746870514,-66185.14,-50453.125,42282.35,-4405.8027,39530.844,9303.386,2447.5913,72020.63
1300822.5786870478,-66203.82,-50461.062,42275.84,-4406.372,39541.22,9296.794,2445.3533,71375.086
1300822.582687044,-66171.63,-50441.53,42322.43,-4401.7334,39561.727,9326.823,2445.0684,71844.65
1300822.5866870405,-66147.016,-50429.402,42364.137,-4403.4424,39572.594,9361.084,2446.2485,72917.445
1300822.590687037,-66150.8,-50439.293,42361.207,-4403.2393,39565.066,9334.27,2440.023,72920.86
1300822.5946870332,-66190.35,-50469.117,42293.863,-4402.588,39559.164,9290.854,2434.5703,72013.67
1300822.5986870297,-66198.08,-50471.234,42261.23,-4402.629,39538.047,9285.075,2438.7207,71371.3
1300822.602687026,-66174.12,-50440.715,42312.99,-4402.303,39540.445,9315.1045,2437.5815,71731.734
1300822.6066870224,-66156.086,-50448.242,42372.887,-4402.751,39568.81,9352.987,2438.4766,72751.23
1300822.6106870186,-66171.1,-50461.387,42370.484,-4404.1343,39550.7,9336.874,2439.0464,72840.74
1300822.614687015,-66188.64,-50466.594,42306.152,-4403.9307,39530.152,9296.794,2437.622,71958.05
1300822.6186870113,-66205.12,-50477.215,42272.664,-4403.5645,39547.28,9283.936,2433.1055,71296.02
1300822.6226870078,-66191.41,-50471.273,42314.414,-4403.3203,39578.37,9318.156,2437.5408,71888.02
1300822.6266870042,-66167.52,-50459.84,42375.0,-4404.7446,39592.734,9355.225,2438.3953,72933.59
1300822.6306870005,-66166.95,-50448.855,42359.457,-4405.884,39571.74,9334.473,2437.4595,72847.21
1300822.634686997,-66183.02,-50448.57,42306.64,-4405.111,39542.645,9288.859,2434.082,71920.375
1300822.6386869932,-66200.93,-50467.855,42275.105,-4403.8496,39545.004,9278.442,2432.9429,71185.55
1300822.6426869896,-66188.84,-50462.934,42303.875,-4404.8667,39578.53,9311.809,2436.8896,71706.75
1300822.6466869859,-66164.15,-50457.316,42364.22,-4406.372,39594.77,9346.273,2443.034,72896.164
1300822.6506869823,-66161.74,-50457.234,42350.668,-4402.954,39569.742,9323.894,2437.4595,72961.95
1300822.6546869786,-66183.88,-50469.81,42300.293,-4404.3784,39545.816,9280.925,2439.0056,72219.65
1300822.658686975,-66202.15,-50476.688,42277.67,-4404.582,39545.37,9271.811,2437.9883,71498.375
1300822.6626869715,-66183.15,-50462.65,42313.52,-4404.0527,39572.633,9303.549,2432.8613,71852.91
1300822.6666869677,-66161.38,-50442.06,42363.12,-4406.6978,39580.445,9343.628,2440.145,72899.58
1300822.6706869642,-66172.125,-50460.043,42360.883,-4407.9185,39568.484,9321.615,2439.9414,72846.6
1300822.6746869604,-66188.31,-50471.395,42306.684,-4406.0874,39539.47,9282.064,2435.9946,72041.79
1300822.6786869569,-66201.74,-50471.438,42272.258,-4405.884,39551.92,9277.995,2433.1055,71439.01
1300822.682686953,-66192.51,-50453.98,42327.76,-4403.9717,39582.562,9314.128,2430.949,71863.12
1300822.6866869496,-66162.4,-50442.18,42375.613,-4404.6226,39610.19,9349.65,2432.0068,73023.195
1300822.6906869458,-66154.336,-50440.35,42358.36,-4407.634,39566.45,9326.294,2429.525,73145.96
1300822.6946869423,-66171.914,-50444.297,42305.3,-4405.111,39543.457,9279.745,2424.3572,72206.46
1300822.6986869387,-66190.836,-50460.043,42280.68,-4405.9653,39549.805,9274.048,2427.7344,71526.53
1300822.702686935,-66190.68,-50455.65,42322.594,-4409.261,39585.816,9312.175,2429.4841,72004.72
1300822.7066869314,-66169.72,-50448.12,42373.902,-4410.97,39592.41,9350.749,2433.4312,73038.086
1300822.7106869277,-66173.79,-50450.727,42352.54,-4411.743,39561.402,9333.74,2434.1636,73085.25
1300822.7146869241,-66191.33,-50467.816,42298.098,-4411.052,39534.668,9291.586,2429.1587,72167.6
1300822.7186869204,-66197.875,-50479.086,42277.305,-4408.529,39544.477,9278.117,2430.2166,71416.266
1300822.7226869168,-66188.6,-50455.895,42317.098,-4406.9824,39562.297,9309.53,2428.9958,71606.484
1300822.726686913,-66160.52,-50437.297,42376.953,-4406.169,39598.55,9346.232,2429.8096,72658.24
1300822.7306869095,-66177.82,-50450.766,42375.33,-4405.884,39573.73,9324.301,2427.7344,72794.516
1300822.734686906,-66199.79,-50465.617,42315.594,-4406.9824,39546.67,9281.332,2425.9033,72037.03
1300822.7386869022,-66195.44,-50472.535,42280.19,-4406.372,39550.496,9278.28,2427.124,71502.97
1300822.7426868987,-66186.36,-50454.55,42307.457,-4410.8076,39581.625,9314.535,2432.373,71959.39
1300822.746686895,-66161.7,-50428.71,42376.26,-4411.052,39608.316,9349.936,2434.204,72993.82
1300822.7506868914,-66168.09,-50432.414,42368.125,-4411.9062,39577.15,9330.363,2432.0068,72999.72
1300822.7546868876,-66186.98,-50448.57,42297.527,-4411.296,39542.684,9289.755,2434.8145,71971.805
1300822.758686884,-66202.234,-50472.58,42267.215,-4410.5225,39548.098,9283.977,2435.1807,71311.56
1300822.7626868803,-66179.28,-50462.934,42323.527,-4409.953,39575.523,9319.946,2433.4717,71838.14
1300822.7666868768,-66152.63,-50438.113,42367.88,-4410.5225,39597.496,9355.144,2435.3435,72905.68
1300822.7706868732,-66160.36,-50446.492,42377.484,-4410.8887,39597.086,9337.199,2428.5889,73052.21
1300822.7746868695,-66182.82,-50469.605,42315.31,-4412.069,39554.445,9295.817,2429.769,72131.06
1300822.778686866,-66191.086,-50458.78,42269.816,-4408.7324,39558.594,9283.732,2429.7283,71395.1
1300822.7826868622,-66181.12,-50456.098,42316.203,-4409.424,39576.133,9315.43,2430.542,71734.664
1300822.7866868586,-66164.35,-50442.508,42379.844,-4408.529,39590.008,9353.638,2440.145,72722.82
1300822.7906868549,-66161.664,-50428.223,42371.42,-4407.3896,39566.367,9337.932,2442.9526,72805.625
1300822.7946868513,-66202.92,-50463.3,42303.1,-4409.017,39547.363,9299.154,2439.901,72039.836
1300822.7986868476,-66194.54,-50481.0,42281.535,-4407.3486,39553.836,9287.68,2441.2842,71407.19
1300822.802686844,-66167.12,-50465.008,42322.918,-4404.704,39586.426,9322.348,2442.1387,71905.48
1300822.8066868405,-66158.53,-50446.74,42374.39,-4409.3833,39602.38,9359.091,2442.3423,72947.39
1300822.8106868367,-66152.95,-50440.594,42362.43,-4410.36,39575.727,9331.787,2440.4297,72926.68
1300822.8146868332,-66174.195,-50455.895,42307.496,-4411.174,39545.656,9285.6045,2437.0933,72040.29
1300822.8186868294,-66191.29,-50463.95,42293.215,-4409.465,39548.465,9277.873,2430.2573,71397.26
1300822.8226868259,-66175.58,-50462.65,42331.383,-4411.4585,39571.574,9313.884,2429.769,71908.9
1300822.826686822,-66171.1,-50456.098,42383.18,-4411.662,39600.914,9349.691,2430.949,72952.805
1300822.8306868186,-66169.27,-50451.824,42371.176,-4409.261,39567.547,9327.678,2427.6123,73024.05
1300822.8346868148,-66185.8,-50459.758,42311.727,-4408.244,39542.887,9288.29,2424.6826,72197.39
1300822.8386868113,-66192.266,-50472.496,42283.12,-4405.925,39542.766,9277.426,2422.3633,71507.65
1300822.8426868077,-66194.91,-50476.562,42319.99,-4408.1626,39581.258,9309.286,2425.6592,71893.48
1300822.846686804,-66164.836,-50435.832,42380.984,-4407.715,39604.98,9346.191,2428.5889,72929.04
1300822.8506868004,-66150.68,-50424.48,42375.33,-4403.0356,39590.58,9325.439,2427.124,72965.62
1300822.8546867967,-66164.76,-50437.99,42309.125,-4403.5645,39549.562,9291.342,2428.955,72153.08
1300822.8586867931,-66189.17,-50460.37,42286.95,-4405.1514,39558.555,9280.844,2420.0847,71539.836
1300822.8626867894,-66177.82,-50454.348,42317.586,-4407.9185,39572.31,9313.925,2424.6826,71916.625
1300822.8666867858,-66158.61,-50448.285,42382.164,-4407.9185,39603.516,9352.173,2422.933,72881.516
1300822.870686782,-66170.086,-50457.805,42372.723,-4410.2783,39569.5,9331.991,2424.8862,72836.914
1300822.8746867785,-66185.586,-50465.78,42320.152,-4407.7964,39560.387,9291.83,2423.869,71937.664
1300822.878686775,-66190.23,-50466.31,42296.836,-4408.8545,39569.664,9289.999,2426.8394,71407.555
1300822.8826867712,-66171.71,-50454.754,42332.4,-4407.837,39588.137,9327.759,2435.2622,71799.28
1300822.8866867677,-66159.305,-50459.434,42396.08,-4408.081,39619.71,9362.712,2437.1746,72852.17
1300822.890686764,-66163.21,-50439.293,42393.555,-4409.1797,39584.312,9340.292,2429.9316,72921.59
1300822.8946867604,-66176.92,-50442.426,42320.477,-4409.302,39551.23,9304.647,2432.5767,72009.73
1300822.8986867566,-66197.19,-50461.996,42293.336,-4412.3945,39536.176,9298.422,2437.2153,71330.28
1300822.902686753,-66182.414,-50462.402,42327.76,-4412.3945,39563.844,9328.451,2437.0117,71582.28
1300822.9066867493,-66162.27,-50463.707,42384.93,-4411.784,39587.08,9368.002,2435.5469,72623.414
1300822.9106867458,-66164.96,-50456.098,42382.203,-4412.842,39567.63,9346.558,2431.356,72705.08
1300822.9146867422,-66186.0,-50456.83,42329.145,-4412.5166,39561.24,9306.315,2429.9724,71906.66
1300822.9186867385,-66198.98,-50474.53,42299.645,-4411.662,39563.68,9296.591,2426.5544,71361.86
1300822.922686735,-66185.266,-50463.83,42327.965,-4410.7666,39581.79,9334.188,2429.647,71870.81
1300822.9266867312,-66165.24,-50448.61,42389.203,-4412.2725,39585.207,9371.42,2434.3262,72847.54
1300822.9306867276,-66160.484,-50456.586,42377.44,-4408.7324,39578.125,9343.669,2434.9365,72802.25
1300822.9346867239,-66189.17,-50466.15,42310.75,-4407.1045,39556.195,9303.223,2433.4717,71740.766
1300822.9386867203,-66199.83,-50461.184,42287.56,-4405.925,39550.09,9299.4795,2438.2732,71124.11
1300822.9426867166,-66193.73,-50459.312,42337.484,-4408.122,39573.406,9334.677,2440.3484,71692.75
1300822.946686713,-66159.22,-50444.094,42385.215,-4405.884,39604.656,9368.815,2445.516,72846.11
1300822.9506867095,-66165.77,-50449.707,42385.99,-4404.8667,39578.004,9347.9,2440.5112,72998.3
1300822.9546867057,-66190.92,-50465.21,42314.902,-4402.385,39567.586,9305.38,2438.7207,72070.84
1300822.9586867022,-66208.26,-50464.926,42287.844,-4401.937,39560.875,9299.643,2440.5112,71230.836
1300822.9626866984,-66192.79,-50455.977,42325.81,-4403.0356,39572.145,9330.282,2440.7554,71581.664
1300822.9666866949,-66170.9,-50447.062,42383.18,-4402.954,39602.176,9362.143,2439.2905,72567.875
1300822.970686691,-66180.5,-50451.418,42371.137,-4404.297,39588.95,9347.86,2444.1326,72639.81
1300822.9746866876,-66193.65,-50458.17,42322.227,-4403.524,39553.1,9308.228,2444.1326,71819.3
1300822.978686684,-66209.35,-50466.39,42301.35,-4403.6865,39558.23,9302.287,2443.278,71212.484
1300822.9826866803,-66197.266,-50464.234,42328.656,-4403.2393,39593.387,9338.257,2448.161,71765.664
1300822.9866866767,-66185.51,-50462.934,42376.59,-4405.1924,39613.566,9369.751,2450.114,72814.01
1300822.990686673,-66187.79,-50455.04,42362.266,-4405.884,39587.85,9350.139,2448.3643,72863.41
1300822.9946866694,-66193.484,-50455.406,42322.145,-4402.0996,39563.03,9306.274,2442.7898,71974.086
1300822.9986866657,-66193.89,-50455.49,42303.996,-4400.5537,39550.945,9297.567,2444.7021,71260.09
1300823.0026866621,-66184.695,-50450.93,42323.934,-4400.0654,39589.316,9330.2,2449.0562,71580.24
1300823.0066866584,-66165.0,-50430.34,42379.926,-4398.763,39597.617,9365.927,2451.0093,72548.71
1300823.0106866548,-66173.1,-50439.78,42376.87,-4400.635,39580.12,9347.331,2448.0388,72691.0
1300823.0146866513,-66196.9,-50462.402,42323.527,-4400.106,39550.008,9307.699,2450.521,71851.93
1300823.0186866475,-66212.65,-50471.64,42292.562,-4400.228,39549.074,9298.991,2450.4802,71237.8
1300823.022686644,-66192.47,-50461.387,42334.312,-4400.5127,39571.168,9332.805,2454.8748,71650.23
1300823.0266866402,-66168.54,-50450.887,42384.727,-4400.798,39598.31,9369.141,2458.252,72743.53
1300823.0306866367,-66178.47,-50456.992,42388.023,-4400.35,39585.164,9345.663,2454.3457,72820.766
1300823.034686633,-66206.14,-50473.27,42333.945,-4398.519,39555.625,9302.287,2453.654,71894.734
1300823.0386866294,-66213.87,-50493.33,42280.03,-4397.1763,39559.41,9291.382,2451.7417,71013.92
1300823.0426866256,-66207.64,-50483.074,42322.51,-4400.0244,39583.984,9331.015,2451.2126,71485.96
1300823.046686622,-66192.99,-50480.348,42375.613,-4404.1343,39611.98,9372.478,2454.712,72649.05
1300823.0506866185,-66188.84,-50484.254,42386.434,-4405.5586,39550.54,9357.178,2454.5493,72803.14
1300823.0546866148,-66196.05,-50463.137,42325.4,-4404.338,39523.234,9319.174,2457.9265,72046.06
1300823.0586866112,-66215.25,-50471.477,42291.75,-4402.629,39534.914,9305.542,2460.4492,71326.83
1300823.0626866075,-66207.64,-50476.562,42327.92,-4404.948,39569.215,9337.402,2461.3037,71606.53
1300823.066686604,-66183.35,-50463.016,42377.117,-4406.413,39585.53,9369.629,2462.199,72623.21
1300823.0706866002,-66188.73,-50472.37,42357.707,-4404.826,39559.285,9349.203,2459.5542,72679.0
1300823.0746865966,-66219.36,-50487.754,42301.516,-4403.117,39543.17,9307.007,2457.2349,71699.26
1300823.0786865929,-66233.32,-50498.74,42286.62,-4403.3203,39539.31,9302.206,2455.485,71023.12
1300823.0826865893,-66217.53,-50480.062,42328.33,-4402.507,39562.664,9339.315,2456.6245,71556.48
1300823.0866865858,-66193.61,-50467.855,42378.01,-4400.92,39588.46,9375.488,2465.7798,72685.47
1300823.090686582,-66205.484,-50487.43,42379.64,-4399.7803,39569.824,9355.754,2462.443,72845.18
1300823.0946865785,-66215.25,-50504.52,42309.41,-4397.746,39542.645,9315.552,2464.437,72035.36
1300823.0986865747,-66219.69,-50493.086,42274.7,-4398.2344,39535.77,9305.176,2461.9956,71331.87
1300823.1026865712,-66207.4,-50478.598,42314.984,-4397.6646,39559.367,9336.345,2462.4023,71622.73
1300823.1066865674,-66193.69,-50461.71,42368.695,-4399.292,39583.902,9369.304,2463.8672,72440.266
1300823.110686564,-66202.68,-50477.742,42375.406,-4400.4316,39564.168,9347.534,2459.5542,72587.04
1300823.1146865601,-66226.28,-50495.973,42314.37,-4398.6816,39547.77,9308.594,2457.194,71861.01
1300823.1186865566,-66228.4,-50490.438,42288.37,-4398.2344,39528.16,9301.799,2463.4197,71161.42
1300823.122686553,-66212.57,-50476.81,42338.055,-4397.1357,39548.79,9337.524,2463.908,71650.19
1300823.1266865493,-66190.63,-50465.66,42377.28,-4394.8164,39586.02,9376.384,2467.57,72683.15
1300823.1306865457,-66202.68,-50473.797,42357.383,-4398.6816,39571.453,9356.405,2465.5356,72610.64
1300823.134686542,-66221.27,-50488.85,42312.543,-4396.81,39543.215,9308.594,2454.8748,71714.36
1300823.1386865384,-66229.086,-50499.434,42291.22,-4393.392,39552.652,9295.288,2450.4802,70961.63
1300823.1426865347,-66212.65,-50485.027,42317.832,-4395.3857,39570.64,9332.927,2457.479,71423.914
1300823.1466865311,-66191.77,-50465.09,42381.062,-4393.5957,39588.95,9371.298,2461.4666,72533.94
1300823.1506865274,-66201.09,-50459.84,42372.273,-4393.5547,39571.25,9348.022,2458.5369,72573.445
1300823.1546865238,-66223.72,-50470.215,42323.445,-4391.3984,39545.207,9305.827,2456.7466,71839.73
1300823.1586865203,-66229.45,-50488.363,42293.66,-4384.3994,39549.4,9302.206,2458.9438,71183.96
1300823.1626865165,-66216.72,-50473.227,42328.695,-4382.365,39574.547,9339.722,2461.67,71512.29
1300823.166686513,-66200.56,-50470.258,42367.473,-4382.5684,39605.145,9372.885,2462.6873,72563.73
1300823.1706865092,-66209.19,-50479.777,42365.4,-4383.2197,39563.926,9346.68,2459.2693,72563.234
1300823.1746865057,-66235.31,-50496.055,42297.0,-4386.7188,39538.7,9312.785,2457.8452,71791.83
1300823.178686502,-66232.71,-50486.41,42283.895,-4383.0977,39529.297,9305.868,2457.8044,71260.74
1300823.1826864984,-66219.24,-50483.156,42306.766,-4382.202,39578.207,9338.257,2462.728,71654.46
1300823.1866864946,-66196.62,-50465.742,42367.96,-4379.7607,39600.383,9373.088,2459.8389,72796.555
1300823.190686491,-66189.62,-50465.008,42364.22,-4378.418,39579.508,9347.697,2456.5024,72919.03
1300823.1946864875,-66205.53,-50478.516,42317.914,-4376.994,39536.01,9307.089,2455.9326,71977.99
1300823.1986864838,-66224.57,-50484.297,42273.684,-4376.18,39547.527,9300.578,2459.7168,71256.875
1300823.2026864802,-66216.07,-50480.836,42313.965,-4377.3193,39567.832,9334.677,2465.5762,71535.08
1300823.2066864765,-66195.84,-50459.473,42390.18,-4377.8486,39583.496,9372.152,2466.5527,72642.17
1300823.210686473,-66197.67,-50453.25,42374.227,-4379.5576,39566.246,9354.289,2472.0867,72773.48
1300823.2146864692,-66215.58,-50475.832,42323.082,-4380.493,39544.027,9316.936,2470.1743,71870.16
1300823.2186864656,-66227.17,-50484.05,42300.375,-4380.4526,39545.37,9308.716,2471.6392,71277.305
1300823.2226864619,-66215.01,-50489.543,42307.17,-4377.8076,39598.836,9339.844,2475.0977,71710.164
1300823.2266864583,-66201.42,-50481.367,42378.543,-4379.354,39618.734,9374.35,2468.3025,72677.33
1300823.2306864548,-66186.28,-50467.41,42365.97,-4381.2666,39552.41,9355.957,2479.4922,72579.19
1300823.234686451,-66213.38,-50476.117,42316.324,-4384.1963,39523.97,9318.319,2480.1433,71704.555
1300823.2386864475,-66207.766,-50470.99,42288.047,-4380.5747,39538.332,9313.477,2478.0273,71203.125
1300823.2426864437,-66206.51,-50469.566,42325.684,-4381.5513,39559.695,9348.186,2481.8115,71634.24
1300823.2466864402,-66194.336,-50448.773,42370.242,-4385.01,39588.42,9381.145,2481.079,72602.5
1300823.2506864364,-66190.35,-50469.24,42377.44,-4385.62,39579.1,9356.527,2475.7896,72629.805
1300823.254686433,-66203.9,-50482.465,42314.008,-4385.2134,39555.95,9315.959,2470.7847,71824.83
1300823.2586864291,-66211.8,-50474.812,42283.734,-4383.586,39545.453,9311.931,2474.2432,71351.445
1300823.2626864256,-66185.1,-50453.74,42334.473,-4381.3477,39566.324,9345.175,2479.655,71886.64
1300823.266686422,-66177.62,-50448.977,42395.59,-4383.301,39595.664,9380.331,2479.1667,72861.164
1300823.2706864183,-66181.6,-50455.977,42371.95,-4387.899,39554.08,9361.003,2479.4922,72716.43
1300823.2746864147,-66210.66,-50471.56,42297.895,-4388.0615,39531.008,9315.918,2472.4937,71595.22
1300823.278686411,-66226.73,-50487.348,42268.15,-4385.417,39547.363,9306.601,2468.7095,70987.305
1300823.2826864074,-66224.61,-50495.566,42300.457,-4385.0913,39605.348,9341.391,2466.146,71571.984
1300823.2866864037,-66177.414,-50440.797,42388.348,-4382.894,39587.04,9377.89,2476.0337,72791.914
1300823.2906864001,-66178.875,-50436.363,42378.258,-4383.9927,39566.082,9354.574,2472.3716,72869.836
1300823.2946863964,-66193.195,-50469.44,42319.742,-4384.359,39541.75,9308.757,2465.6577,71956.42
1300823.2986863928,-66208.664,-50462.402,42276.043,-4378.418,39587.688,9301.147,2462.606,71316.57
1300823.3026863893,-66186.0,-50440.145,42328.41,-4379.1504,39565.797,9334.839,2469.686,71821.54
1300823.3066863855,-66154.3,-50420.9,42392.496,-4378.4995,39586.387,9374.797,2478.231,72876.43
1300823.310686382,-66151.164,-50418.17,42384.035,-4377.0347,39588.785,9354.086,2465.21,72782.555
1300823.3146863782,-66164.47,-50428.914,42322.918,-4377.2383,39555.543,9307.577,2465.739,71765.46
1300823.3186863747,-66161.79,-50420.168,42266.36,-4375.8545,39547.85,9302.531,2469.1978,71251.75
1300823.322686371,-66155.195,-50407.797,42316.812,-4373.088,39607.75,9334.595,2469.3198,71642.375
1300823.3266863674,-66110.96,-50381.715,42409.586,-4372.8438,39584.92,9380.209,2479.411,72661.13
1300823.3306863639,-66107.914,-50371.46,42397.016,-4373.657,39583.09,9354.452,2474.2026,72764.0
1300823.33468636,-66121.09,-50390.75,42334.92,-4374.4307,39576.01,9305.42,2464.8032,71860.31
1300823.3386863566,-66110.44,-50367.312,42307.13,-4375.6514,39540.49,9299.643,2466.5935,71281.375
1300823.3426863528,-66069.016,-50334.188,42354.9,-4367.2285,39586.223,9328.451,2463.1755,71645.14
1300823.3466863493,-66054.65,-50326.297,42417.684,-4366.618,39626.63,9368.083,2459.961,72578.29
1300823.3506863455,-66073.695,-50309.33,42391.727,-4370.7686,39613.12,9345.012,2458.4556,72680.22
1300823.354686342,-66062.664,-50320.883,42326.375,-4369.751,39571.86,9303.549,2459.7983,71838.87
1300823.3586863382,-66066.29,-50328.74,42294.965,-4366.781,39603.273,9294.678,2454.2644,71266.73
1300823.3626863346,-66049.32,-50310.1,42352.906,-4367.717,39596.723,9328.329,2458.6997,71757.2
1300823.366686331,-66055.95,-50311.445,42402.26,-4370.6465,39640.625,9364.909,2468.872,72683.27
1300823.3706863273,-66030.73,-50295.25,42414.918,-4368.734,39573.49,9336.426,2467.2039,72674.16
1300823.3746863238,-66048.016,-50312.703,42340.008,-4369.222,39553.223,9293.986,2458.0078,71703.375
1300823.37868632,-66053.06,-50308.797,42311.727,-4370.4834,39551.434,9290.487,2466.268,71091.68
1300823.3826863165,-66023.69,-50281.008,42333.984,-4371.0938,39560.75,9330.7705,2473.9585,71651.77
1300823.3866863127,-66016.16,-50274.496,42404.5,-4369.344,39623.58,9359.579,2463.4197,72707.56
1300823.3906863092,-66015.14,-50274.336,42385.17,-4373.576,39594.77,9346.64,2468.1804,72744.875
1300823.3946863054,-66019.49,-50282.39,42332.36,-4371.704,39567.02,9301.514,2459.7576,71866.78
1300823.398686302,-66030.11,-50299.887,42328.453,-4374.0234,39546.227,9291.301,2458.659,71223.23
1300823.4026862984,-66019.66,-50274.824,42347.82,-4372.1924,39598.96,9327.8,2467.7734,71607.95
1300823.4066862946,-65964.73,-50228.312,42429.85,-4366.8623,39598.51,9359.945,2470.7847,72485.48
1300823.410686291,-65967.49,-50234.5,42378.95,-4365.072,39625.773,9349.284,2473.999,72633.016
1300823.4146862873,-65986.695,-50252.566,42335.33,-4364.8276,39559.938,9304.24,2463.1348,71729.58
1300823.4186862838,-65988.81,-50247.684,42306.64,-4362.793,39581.42,9291.87,2453.4507,71083.664
1300823.42268628,-65962.164,-50219.605,42367.27,-4363.037,39583.824,9329.102,2455.526,71755.29
1300823.4266862764,-65937.38,-50202.23,42430.258,-4363.2,39599.61,9360.637,2459.5134,72802.49
1300823.4306862727,-65947.15,-50214.805,42416.06,-4361.206,39590.293,9337.932,2453.3691,72658.164
1300823.4346862691,-65955.04,-50230.062,42339.684,-4360.5146,39564.617,9294.189,2452.23,71717.53
1300823.4386862656,-65960.25,-50201.094,42306.684,-4357.951,39591.227,9282.756,2450.8464,70941.9
1300823.4426862618,-65944.664,-50188.926,42359.54,-4358.9683,39602.418,9319.336,2456.2175,71368.86
1300823.4466862583,-65919.07,-50180.098,42427.004,-4359.0903,39605.227,9358.48,2464.2334,72550.17
1300823.4506862545,-65923.016,-50179.402,42433.105,-4357.829,39607.18,9334.677,2457.5195,72618.164
1300823.454686251,-65940.19,-50201.297,42369.47,-4357.341,39609.703,9294.434,2453.1658,71886.84
1300823.4586862472,-65919.44,-50177.004,42313.6,-4357.015,39586.508,9291.22,2464.3555,71340.17
1300823.4626862437,-65917.03,-50159.06,42349.164,-4359.3345,39615.195,9324.301,2463.5417,71696.54
1300823.46668624,-65900.68,-50158.043,42427.938,-4357.6255,39620.08,9358.358,2463.908,72649.78
1300823.4706862364,-65902.1,-50153.08,42411.62,-4356.405,39613.566,9332.805,2457.2349,72642.78
1300823.4746862329,-65925.74,-50189.863,42353.68,-4359.172,39585.33,9294.189,2453.532,71832.32
1300823.478686229,-65927.77,-50193.727,42318.93,-4355.5503,39601.89,9283.977,2453.1658,71243.66
1300823.4826862256,-65942.305,-50186.363,42370.242,-4355.51,39663.98,9314.941,2444.2546,71644.414
1300823.4866862218,-65899.414,-50144.043,42445.8,-4355.754,39634.035,9356.975,2450.5615,72754.805
1300823.4906862183,-65888.19,-50139.16,42421.715,-4355.7944,39586.426,9337.932,2456.7466,72882.445
1300823.4946862145,-65911.5,-50180.34,42352.945,-4358.48,39549.6,9296.957,2456.8687,72057.25
1300823.498686211,-65925.54,-50192.75,42304.566,-4358.6836,39568.035,9282.797,2456.0955,71348.19
1300823.5026862072,-65929.37,-50192.305,42368.043,-4355.5503,39597.008,9308.798,2449.8699,71591.02
1300823.5066862036,-65925.414,-50213.22,42416.832,-4358.8867,39617.027,9348.063,2454.5493,72623.86
1300823.5106862,-65943.04,-50207.074,42406.78,-4363.363,39606.324,9329.794,2451.945,72803.67
1300823.5146861963,-65973.35,-50225.914,42348.88,-4363.363,39606.49,9293.335,2448.527,72043.54
1300823.5186861928,-66010.09,-50250.734,42322.754,-4361.003,39621.5,9283.407,2446.289,71395.47
1300823.522686189,-65991.7,-50243.164,42370.566,-4359.945,39601.523,9312.216,2451.2534,71795.29
1300823.5266861855,-65957.52,-50221.234,42426.066,-4360.5146,39614.95,9351.522,2455.8513,72731.734
1300823.5306861817,-65963.016,-50233.848,42395.754,-4361.5723,39605.67,9334.066,2458.6182,72758.22
1300823.5346861782,-66006.11,-50268.72,42345.543,-4365.1123,39572.062,9296.509,2454.8748,71868.414
1300823.5386861744,-66022.71,-50273.6,42313.395,-4365.6416,39566.285,9288.656,2456.5024,71250.734
1300823.542686171,-66013.266,-50264.977,42355.67,-4360.9214,39585.164,9321.859,2455.892,71699.83
1300823.5466861674,-66011.84,-50283.125,42422.28,-4362.8745,39619.832,9352.987,2455.363,72682.82
1300823.5506861636,-66028.41,-50293.867,42402.305,-4365.438,39601.36,9333.944,2454.2644,72691.66
1300823.55468616,-66029.87,-50285.523,42347.902,-4360.5957,39565.555,9296.631,2455.3223,71899.3
1300823.5586861563,-66052.53,-50305.34,42325.684,-4361.5317,39569.418,9291.748,2454.9155,71317.06
1300823.5626861528,-66058.23,-50320.11,42356.527,-4365.6416,39599.12,9325.766,2456.9092,71685.875
1300823.566686149,-66029.42,-50312.95,42402.14,-4364.502,39610.883,9360.759,2461.7107,72640.79
1300823.5706861455,-66047.734,-50325.277,42392.496,-4364.421,39594.156,9343.222,2456.6245,72664.39
1300823.5746861417,-66078.82,-50334.23,42332.887,-4363.6885,39576.742,9306.601,2454.183,71863.57
1300823.5786861381,-66084.19,-50338.83,42306.316,-4364.0137,39575.32,9303.589,2458.4148,71393.805
1300823.5826861346,-66070.97,-50331.22,42357.79,-4363.078,39585.41,9333.781,2456.787,71850.016
1300823.5866861308,-66074.99,-50344.973,42404.91,-4364.868,39598.715,9367.798,2458.8218,72754.48
1300823.5906861273,-66094.61,-50375.125,42391.805,-4364.177,39605.875,9344.401,2461.141,72548.71
1300823.5946861235,-66113.445,-50386.92,42335.207,-4363.2,39577.555,9307.577,2467.977,71727.016
1300823.59868612,-66110.234,-50361.043,42304.73,-4363.3223,39565.715,9303.508,2471.273,71163.49
1300823.6026861162,-66100.266,-50369.1,42355.594,-4362.549,39596.07,9338.827,2468.3433,71612.836
1300823.6066861127,-66082.84,-50356.812,42396.812,-4365.438,39599.734,9377.441,2479.4922,72698.695
1300823.610686109,-66093.914,-50377.93,42396.566,-4364.1357,39591.92,9361.898,2477.4578,72898.48
1300823.6146861054,-66110.92,-50400.066,42343.793,-4365.316,39553.957,9317.099,2472.8599,71999.48
1300823.6186861019,-66123.01,-50402.793,42305.42,-4364.1357,39556.926,9307.089,2474.935,71288.984
1300823.622686098,-66135.78,-50402.508,42352.254,-4364.9497,39603.19,9336.955,2472.6157,71666.586
1300823.6266860946,-66114.79,-50386.395,42418.863,-4368.856,39594.566,9374.228,2477.5798,72622.27
1300823.6306860908,-66132.24,-50404.91,42387.086,-4369.67,39581.258,9355.144,2476.0337,72583.54
1300823.6346860873,-66142.414,-50414.594,42336.47,-4365.8857,39557.617,9317.383,2477.3357,71892.83
1300823.6386860835,-66151.086,-50436.523,42313.395,-4365.8857,39559.9,9312.053,2483.4392,71274.984
1300823.64268608,-66142.375,-50400.066,42337.527,-4367.025,39585.29,9348.552,2486.6943,71750.41
1300823.6466860762,-66123.66,-50384.81,42408.773,-4368.734,39595.46,9386.923,2495.28,72896.04
1300823.6506860727,-66118.695,-50387.41,42385.01,-4368.2456,39571.13,9365.479,2496.0532,72928.59
1300823.654686069,-66145.59,-50415.527,42324.79,-4368.5713,39537.56,9323.771,2491.3738,71967.57
1300823.6586860653,-66166.22,-50436.605,42292.605,-4367.2285,39567.3,9314.901,2490.8855,71311.41
1300823.6626860618,-66150.555,-50418.66,42341.27,-4366.089,39575.44,9352.458,2498.169,71776.45
1300823.666686058,-66127.97,-50403.117,42402.67,-4365.682,39594.28,9385.092,2502.3193,72679.12
1300823.6706860545,-66131.836,-50424.48,42386.312,-4369.385,39577.883,9366.415,2502.3193,72730.555
1300823.6746860507,-66155.56,-50429.973,42327.516,-4365.0312,39574.668,9323.242,2495.687,71959.31
1300823.6786860472,-66175.17,-50442.305,42296.715,-4364.99,39567.71,9317.831,2496.9077,71333.664
1300823.6826860434,-66168.664,-50436.24,42333.902,-4369.344,39569.664,9352.092,2499.1863,71778.61
1300823.68668604,-66134.97,-50410.605,42395.062,-4366.74,39607.707,9388.469,2502.0347,72920.29
1300823.6906860364,-66128.945,-50413.94,42388.715,-4366.577,39586.67,9369.141,2501.709,73014.164
1300823.6946860326,-66157.11,-50446.453,42316.203,-4366.9434,39546.227,9324.26,2503.9878,72082.36
1300823.698686029,-66179.89,-50454.184,42293.336,-4364.787,39560.26,9312.297,2501.994,71410.61
1300823.7026860253,-66171.71,-50439.984,42330.445,-4364.421,39588.297,9344.809,2502.6855,71742.27
1300823.7066860218,-66154.46,-50440.555,42402.508,-4367.5947,39597.902,9386.19,2509.318,72678.55
1300823.710686018,-66151.66,-50427.246,42386.11,-4366.6587,39595.176,9366.577,2508.3008,72720.74
1300823.7146860145,-66176.03,-50440.676,42332.926,-4366.252,39566.164,9326.376,2499.1863,72048.305
1300823.718686011,-66189.86,-50460.37,42295.574,-4366.618,39541.91,9319.377,2505.249,71498.984
1300823.7226860072,-66177.57,-50443.93,42347.168,-4365.6006,39553.71,9350.424,2503.703,71880.17
1300823.7266860036,-66144.695,-50413.902,42388.875,-4364.38,39582.48,9383.139,2506.1443,72875.77
1300823.7306859998,-66166.42,-50437.176,42369.508,-4364.99,39576.133,9357.91,2503.6216,72855.35
1300823.7346859963,-66184.2,-50462.363,42321.492,-4363.5664,39541.383,9318.686,2498.698,71939.86
1300823.7386859925,-66190.23,-50453.777,42294.84,-4361.5317,39538.617,9313.518,2497.8843,71330.41
1300823.742685989,-66186.61,-50450.562,42320.516,-4363.485,39573.0,9348.186,2503.296,71765.51
1300823.7466859852,-66173.42,-50455.0,42394.777,-4366.8623,39593.832,9382.976,2507.2837,72791.586
1300823.7506859817,-66186.16,-50451.336,42394.45,-4365.682,39585.695,9361.9795,2501.6277,72795.66
1300823.7546859782,-66209.19,-50456.625,42319.703,-4362.02,39561.44,9326.376,2497.396,72034.016
1300823.7586859744,-66218.71,-50463.95,42294.312,-4362.8745,39533.895,9316.691,2494.995,71488.37
1300823.7626859709,-66201.46,-50463.34,42330.324,-4364.177,39563.152,9348.511,2494.3442,71830.69
1300823.766685967,-66178.06,-50445.883,42379.477,-4365.316,39585.29,9380.575,2495.8904,72823.61
1300823.7706859636,-66187.016,-50460.33,42371.5,-4367.4316,39561.2,9361.735,2499.3083,72882.24
1300823.7746859598,-66202.44,-50476.484,42321.695,-4364.868,39539.676,9322.51,2500.2036,72017.74
1300823.7786859563,-66221.88,-50485.516,42297.445,-4362.142,39566.57,9313.273,2494.629,71367.31
1300823.7826859525,-66219.08,-50486.816,42338.22,-4366.211,39564.25,9345.419,2496.2974,71728.766
1300823.786685949,-66191.53,-50471.68,42386.477,-4366.2925,39583.78,9376.994,2500.3257,72647.055
1300823.7906859454,-66194.26,-50471.68,42375.0,-4364.868,39559.41,9359.497,2497.3145,72785.36
1300823.7946859417,-66211.914,-50470.418,42317.547,-4364.8276,39538.94,9320.231,2498.8608,72026.49
1300823.7986859381,-66215.984,-50472.21,42295.047,-4362.834,39553.062,9314.697,2496.582,71555.664
1300823.8026859344,-66193.4,-50475.71,42330.242,-4363.485,39564.453,9350.79,2499.8374,72099.9
1300823.8066859308,-66182.336,-50471.723,42381.266,-4366.9844,39600.547,9381.267,2499.1863,73017.01
1300823.810685927,-66186.65,-50448.04,42363.363,-4365.967,39572.105,9355.591,2496.582,72914.15
1300823.8146859235,-66208.46,-50465.535,42310.426,-4362.264,39533.33,9313.151,2493.8152,71895.02
1300823.8186859197,-66222.66,-50490.36,42278.16,-4362.671,39551.027,9309.001,2495.8904,71320.766
1300823.8226859162,-66218.1,-50481.406,42329.43,-4363.6475,39575.848,9343.344,2498.576,71884.12
1300823.8266859127,-66206.016,-50465.863,42389.977,-4365.072,39579.02,9378.012,2502.645,72966.48
1300823.830685909,-66187.13,-50462.445,42371.785,-4363.6885,39566.61,9359.66,2502.8892,73009.52
1300823.8346859054,-66194.22,-50487.43,42311.2,-4363.078,39540.773,9317.343,2498.4946,72106.28
1300823.8386859016,-66215.5,-50504.355,42284.914,-4366.496,39530.965,9311.279,2496.704,71441.57
1300823.842685898,-66209.96,-50487.145,42328.25,-4364.909,39574.625,9344.89,2497.9656,71840.21
1300823.8466858943,-66181.97,-50463.016,42385.824,-4363.485,39599.082,9375.448,2505.4526,72775.31
1300823.8506858908,-66187.91,-50471.844,42375.895,-4364.0547,39572.348,9355.429,2503.3774,72856.08
1300823.854685887,-66214.44,-50493.855,42306.97,-4365.5195,39516.44,9317.871,2504.8015,72085.57
1300823.8586858835,-66225.75,-50491.742,42277.26,-4363.2812,39517.66,9311.687,2503.3367,71379.16
1300823.86268588,-66208.5,-50480.43,42324.465,-4363.973,39553.266,9345.825,2504.3945,71831.83
1300823.8666858762,-66186.77,-50476.2,42387.004,-4365.2754,39584.39,9375.61,2501.2615,72757.0
1300823.8706858726,-66193.04,-50473.27,42376.18,-4364.665,39567.586,9355.591,2505.0457,72848.23
1300823.8746858689,-66221.11,-50483.97,42318.89,-4364.7056,39526.125,9316.569,2505.7373,72017.13
1300823.8786858653,-66235.6,-50500.734,42287.11,-4365.0312,39525.96,9304.565,2501.058,71339.64
1300823.8826858616,-66224.53,-50493.53,42333.457,-4364.787,39558.27,9344.035,2501.2615,71916.016
1300823.886685858,-66210.695,-50496.176,42384.684,-4364.421,39583.58,9377.89,2504.9236,72839.195
1300823.8906858542,-66211.14,-50491.293,42369.754,-4361.6943,39569.54,9354.411,2502.238,72734.5
1300823.8946858507,-66219.24,-50487.754,42314.58,-4359.294,39535.645,9315.634,2499.1455,71948.28
1300823.8986858472,-66232.38,-50498.13,42278.85,-4360.2705,39534.465,9304.647,2499.878,71257.98
1300823.9026858434,-66234.91,-50499.023,42308.758,-4363.159,39564.984,9333.537,2494.0186,71650.84
1300823.9066858399,-66219.41,-50494.02,42376.14,-4363.1187,39570.926,9371.46,2492.92,72843.79
1300823.910685836,-66216.59,-50495.688,42377.156,-4362.427,39561.28,9349.284,2492.0654,72874.23
1300823.9146858326,-66231.94,-50498.13,42308.51,-4360.7993,39553.47,9309.937,2493.6118,72027.06
1300823.9186858288,-66245.41,-50504.64,42279.867,-4360.718,39565.797,9300.944,2492.025,71406.86
1300823.9226858253,-66222.13,-50477.785,42336.55,-4356.7305,39570.844,9333.049,2493.449,71855.63
1300823.9266858215,-66199.305,-50465.863,42385.418,-4358.602,39572.918,9375.651,2503.4995,72834.11
1300823.930685818,-66209.84,-50480.957,42359.293,-4358.032,39560.26,9351.685,2502.1567,72823.33
1300823.9346858144,-66232.75,-50501.914,42301.395,-4355.876,39543.297,9309.855,2493.978,72005.74
1300823.9386858107,-66242.555,-50526.004,42283.246,-4356.8525,39551.516,9306.356,2491.3738,71488.2
1300823.9426858071,-66238.12,-50509.523,42328.492,-4359.253,39559.367,9336.548,2491.211,71734.01
1300823.9466858034,-66214.64,-50479.168,42379.598,-4359.497,39590.984,9372.396,2497.5994,72794.15
1300823.9506857998,-66217.05,-50489.95,42381.715,-4360.759,39561.81,9352.214,2497.6807,72961.836
1300823.954685796,-66231.33,-50502.81,42318.117,-4361.6943,39534.344,9313.884,2498.5352,72217.53
1300823.9586857925,-66237.59,-50506.27,42283.938,-4360.555,39533.855,9306.682,2500.8545,71600.42
1300823.9626857887,-66224.98,-50496.094,42339.195,-4359.172,39552.734,9341.309,2502.5635,71987.63
1300823.9666857852,-66212.41,-50496.664,42382.242,-4359.497,39579.145,9370.605,2502.767,72814.414
1300823.9706857817,-66223.836,-50503.582,42359.457,-4358.2764,39576.62,9347.982,2504.3132,72803.96
1300823.974685778,-66234.945,-50499.105,42311.77,-4358.1543,39553.14,9307.089,2501.2615,72050.46
1300823.9786857744,-66241.54,-50505.21,42289.594,-4359.2124,39543.906,9301.433,2498.9014,71454.96
1300823.9826857706,-66213.87,-50483.97,42336.63,-4357.544,39572.266,9341.472,2505.4526,72001.51
1300823.986685767,-66195.64,-50469.81,42390.383,-4358.073,39593.426,9376.384,2511.5967,73216.555
1300823.9906857633,-66208.414,-50480.633,42370.035,-4356.7305,39577.35,9356.486,2511.1084,73179.65
1300823.9946857598,-66221.07,-50501.387,42314.78,-4354.4517,39545.656,9321.127,2512.8174,72251.95
1300823.998685756,-66229.74,-50518.066,42285.117,-4353.3936,39547.934,9310.263,2509.359,71741.62
1300824.0026857525,-66218.02,-50499.637,42328.207,-4352.173,39577.027,9338.176,2510.5388,72141.28
1300824.006685749,-66188.03,-50481.65,42379.56,-4352.539,39588.258,9369.833,2512.329,73087.04
1300824.0106857452,-66192.836,-50488.934,42368.33,-4352.539,39568.688,9344.931,2507.4463,73092.9
1300824.0146857416,-66218.95,-50496.95,42314.13,-4352.824,39539.836,9308.594,2503.296,72166.266
1300824.0186857379,-66246.99,-50518.15,42292.195,-4354.533,39565.918,9303.793,2500.0815,71388.47
1300824.0226857343,-66222.375,-50491.414,42342.285,-4351.6846,39571.82,9337.6875,2505.8188,71748.54
1300824.0266857306,-66188.234,-50469.81,42397.098,-4349.121,39588.992,9372.641,2505.656,72918.3
1300824.030685727,-66194.54,-50476.973,42388.957,-4351.7256,39579.02,9351.929,2505.5747,73003.09
1300824.0346857233,-66207.36,-50489.055,42324.465,-4351.074,39555.79,9315.959,2507.7312,72198.04
1300824.0386857197,-66213.99,-50487.996,42277.793,-4349.8535,39557.375,9310.019,2507.894,71668.664
1300824.0426857162,-66204.1,-50481.977,42321.74,-4350.871,39575.4,9340.942,2508.7078,72057.7
1300824.0466857124,-66185.43,-50477.99,42376.508,-4351.766,39595.99,9371.094,2506.2256,72938.97
1300824.0506857089,-66193.81,-50477.254,42377.605,-4353.3936,39561.363,9349.284,2508.4636,72794.72
1300824.054685705,-66221.195,-50499.92,42316.12,-4354.3296,39541.63,9311.972,2505.8188,71894.66
1300824.0586857016,-66233.805,-50506.27,42287.234,-4354.5737,39557.09,9305.949,2501.3428,71381.72
1300824.0626856978,-66227.664,-50492.84,42326.254,-4354.167,39594.363,9337.891,2498.9421,71808.15
1300824.0666856943,-66193.4,-50478.273,42383.75,-4353.6787,39606.773,9372.641,2501.1802,73029.55
1300824.0706856905,-66189.01,-50474.203,42367.39,-4353.4346,39584.676,9349.813,2501.587,73218.34
1300824.074685687,-66206.625,-50485.19,42317.26,-4354.4517,39533.367,9310.629,2499.5117,72209.8
1300824.0786856834,-66216.27,-50495.566,42297.406,-4355.1436,39539.47,9303.508,2499.9595,71432.3
1300824.0826856797,-66200.195,-50479.047,42341.227,-4354.8994,39576.336,9333.944,2503.296,71770.55
1300824.0866856761,-66182.01,-50467.285,42395.67,-4352.661,39608.523,9374.553,2510.254,72848.19
1300824.0906856724,-66184.695,-50476.89,42385.05,-4354.167,39587.81,9355.835,2509.481,72954.47
1300824.0946856688,-66203.414,-50495.85,42322.43,-4356.242,39552.086,9318.645,2506.4292,72116.5
1300824.098685665,-66222.695,-50507.61,42301.516,-4356.5674,39550.7,9312.378,2502.0752,71583.375
1300824.1026856615,-66209.92,-50484.742,42348.676,-4357.0557,39584.066,9341.96,2500.407,72119.914
1300824.106685658,-66182.45,-50462.117,42396.363,-4358.1953,39595.055,9375.692,2501.3835,73054.98
1300824.1106856542,-66195.766,-50473.105,42387.25,-4360.5957,39586.71,9350.708,2499.6338,72919.44
1300824.1146856507,-66224.94,-50505.78,42326.17,-4361.4097,39560.305,9308.105,2501.994,71929.164
1300824.118685647,-66225.016,-50510.254,42300.293,-4357.137,39552.164,9303.63,2502.8484,71329.35
1300824.1226856434,-66198.77,-50501.1,42321.13,-4356.12,39568.2,9342.8955,2510.4167,71929.94
1300824.1266856396,-66182.62,-50497.113,42379.07,-4358.48,39602.38,9382.609,2516.154,73065.31
1300824.130685636,-66181.73,-50492.84,42383.79,-4360.962,39577.92,9361.694,2514.7705,73077.4
1300824.1346856323,-66204.51,-50480.39,42329.47,-4359.172,39531.902,9324.341,2510.0913,72245.98
1300824.1386856288,-66221.56,-50500.652,42295.004,-4360.6772,39530.52,9317.343,2507.894,71499.06
1300824.1426856252,-66214.27,-50505.332,42336.47,-4361.6943,39561.08,9345.825,2506.9175,71782.48
1300824.1466856215,-66188.03,-50483.887,42390.992,-4361.247,39606.16,9379.761,2511.3933,72917.52
1300824.150685618,-66194.625,-50486.37,42386.844,-4361.6133,39601.523,9356.853,2505.656,72967.98
1300824.1546856142,-66221.68,-50506.676,42327.477,-4360.3516,39585.777,9318.075,2503.4995,72196.25
1300824.1586856106,-66234.46,-50504.477,42298.586,-4359.619,39591.88,9311.809,2506.5513,71597.62
1300824.1626856069,-66195.6,-50470.543,42326.58,-4359.619,39609.01,9348.837,2513.4685,72042.195
1300824.1666856033,-66167.89,-50451.418,42393.473,-4358.7646,39608.035,9383.057,2517.9443,73071.66
1300824.1706855996,-66183.88,-50486.41,42385.01,-4362.3457,39572.31,9358.806,2514.974,73088.95
1300824.174685596,-66205.81,-50493.043,42322.836,-4363.2407,39549.6,9321.371,2508.8298,72205.41
1300824.1786855925,-66220.38,-50495.484,42300.21,-4362.0605,39552.004,9312.338,2509.2773,71479.29
1300824.1826855887,-66204.71,-50481.406,42334.758,-4362.3457,39592.855,9347.331,2510.9458,71908.66
1300824.1866855852,-66182.05,-50476.766,42398.03,-4361.6133,39614.91,9384.481,2514.038,73027.02
1300824.1906855814,-66180.914,-50480.227,42393.35,-4360.7993,39577.516,9361.816,2511.1084,73001.95
1300824.1946855779,-66207.36,-50501.387,42331.586,-4363.078,39558.555,9323.853,2512.5732,72228.555
1300824.198685574,-66224.734,-50519.207,42281.82,-4364.4614,39558.473,9318.97,2514.0789,71658.24
1300824.2026855706,-66213.75,-50484.785,42335.043,-4362.915,39580.61,9345.419,2510.905,72069.42
1300824.2066855668,-66184.29,-50459.066,42386.027,-4363.037,39607.953,9384.726,2506.958,73059.66
1300824.2106855633,-66203.29,-50477.254,42371.95,-4365.9263,39575.277,9361.166,2503.7842,72858.16
1300824.2146855597,-66226.04,-50488.406,42319.824,-4366.211,39540.12,9319.214,2503.703,72036.336
1300824.218685556,-66232.55,-50490.316,42291.18,-4365.072,39538.82,9313.64,2499.7153,71500.53
1300824.2226855524,-66215.336,-50487.348,42317.79,-4365.8857,39567.426,9345.744,2505.127,72004.68
1300824.2266855487,-66192.38,-50482.586,42378.867,-4364.8276,39599.164,9383.871,2510.1726,73115.89
1300824.2306855451,-66191.41,-50492.676,42376.06,-4365.072,39583.336,9362.305,2509.318,73160.85
1300824.2346855414,-66213.75,-50497.6,42329.305,-4364.095,39561.89,9322.592,2504.6387,72319.336
1300824.2386855378,-66231.37,-50505.82,42295.777,-4364.299,39556.113,9313.518,2504.354,71669.15
1300824.242685534,-66221.4,-50499.105,42333.54,-4364.0547,39583.336,9345.378,2500.6511,72099.86
1300824.2466855305,-66197.92,-50469.81,42392.457,-4361.7354,39613.566,9380.046,2501.7498,73077.72
1300824.250685527,-66195.805,-50462.363,42383.504,-4362.468,39571.37,9360.8,2505.6968,73053.14
1300824.2546855232,-66218.305,-50477.38,42318.277,-4360.3926,39548.668,9317.993,2503.0925,72107.95
1300824.2586855197,-66227.3,-50489.016,42294.637,-4356.3643,39562.137,9311.076,2500.3257,71529.016
1300824.262685516,-66204.47,-50473.023,42340.78,-4354.8994,39588.055,9349.162,2503.0925,72165.164
1300824.2666855124,-66185.95,-50458.09,42404.703,-4355.5503,39617.555,9377.075,2506.2256,73019.45
1300824.2706855086,-66183.8,-50476.645,42396.61,-4355.2656,39604.86,9356.853,2506.7954,73005.086
1300824.274685505,-66195.72,-50496.38,42329.062,-4353.1904,39572.39,9323.446,2510.2947,72027.75
1300824.2786855013,-66210.125,-50487.59,42308.31,-4353.0273,39567.914,9319.946,2511.1492,71536.7
1300824.2826854978,-66197.67,-50471.76,42343.875,-4356.5674,39594.363,9352.865,2514.445,72007.49
1300824.2866854942,-66178.75,-50457.562,42401.043,-4358.3174,39613.08,9387.289,2516.439,72962.69
1300824.2906854905,-66189.414,-50466.023,42393.027,-4357.544,39589.64,9362.956,2514.201,72915.61
1300824.294685487,-66213.09,-50492.8,42345.95,-4356.323,39557.21,9319.377,2509.5215,72097.62
1300824.2986854832,-66220.74,-50506.27,42318.156,-4355.713,39565.88,9313.07,2509.0332,71535.36
1300824.3026854796,-66204.305,-50473.473,42347.37,-4353.231,39604.047,9349.65,2511.7188,71973.19
1300824.3066854759,-66178.47,-50450.605,42397.176,-4353.2715,39620.035,9390.747,2514.852,73141.4
1300824.3106854723,-66182.7,-50450.44,42409.383,-4354.94,39604.98,9369.792,2517.2527,73165.61
1300824.3146854686,-66193.85,-50467.49,42337.527,-4353.2715,39579.793,9326.742,2518.392,72256.15
1300824.318685465,-66200.73,-50478.8,42311.93,-4350.5454,39584.027,9322.632,2516.9678,71676.555
1300824.3226854615,-66190.96,-50461.67,42366.54,-4352.783,39599.324,9353.271,2517.863,71989.625
1300824.3266854577,-66177.984,-50453.74,42407.105,-4355.2246,39626.223,9394.491,2522.5425,73082.73
1300824.3306854542,-66182.62,-50468.387,42390.22,-4355.3877,39597.984,9375.937,2519.694,73084.19
1300824.3346854504,-66206.75,-50500.164,42326.336,-4354.3296,39567.914,9332.357,2515.91,72175.62
1300824.338685447,-66222.82,-50503.258,42309.367,-4351.4404,39571.535,9325.317,2516.032,71677.21
1300824.342685443,-66202.07,-50477.05,42349.285,-4351.766,39598.633,9357.829,2520.4673,72175.74
1300824.3466854396,-66184.57,-50461.184,42394.41,-4354.126,39616.617,9389.242,2520.0195,73112.96
1300824.3506854358,-66183.63,-50471.844,42387.74,-4355.3467,39583.58,9368.815,2517.619,73078.125
1300824.3546854323,-66203.45,-50490.36,42330.28,-4355.428,39550.62,9326.864,2516.6016,72283.45
1300824.3586854287,-66222.21,-50503.01,42306.844,-4354.818,39565.227,9321.452,2516.317,71652.55
1300824.362685425,-66210.164,-50487.508,42347.86,-4355.2246,39596.598,9355.185,2517.5376,72097.17
1300824.3666854214,-66188.516,-50474.203,42394.492,-4354.3296,39613.2,9390.869,2518.392,73149.87
1300824.3706854177,-66195.97,-50470.703,42383.586,-4354.045,39593.75,9371.542,2516.1133,73076.5
1300824.3746854141,-66219.65,-50484.99,42328.453,-4356.649,39561.363,9331.991,2512.2478,72033.86
1300824.3786854104,-66235.31,-50489.746,42287.027,-4353.882,39564.94,9321.655,2510.0098,71306.48
1300824.3826854068,-66221.72,-50490.36,42331.46,-4355.306,39594.44,9355.388,2509.603,71851.445
1300824.386685403,-66213.99,-50491.414,42387.613,-4358.9683,39620.85,9388.998,2511.6375,72893.72
1300824.3906853995,-66213.55,-50483.24,42389.363,-4358.3984,39588.38,9370.891,2512.1665,73094.24
1300824.394685396,-66221.56,-50494.55,42326.703,-4357.951,39543.66,9330.2,2510.5388,72258.75
1300824.3986853922,-66231.65,-50502.973,42292.97,-4355.876,39545.453,9319.987,2508.5857,71558.96
1300824.4026853887,-66218.43,-50492.516,42326.906,-4354.8994,39588.582,9352.133,2511.9224,71931.44
1300824.406685385,-66210.05,-50488.65,42385.17,-4354.004,39618.53,9385.295,2512.6953,72869.1
1300824.4106853814,-66214.36,-50493.043,42377.566,-4353.5156,39601.523,9369.345,2511.9224,72883.22
1300824.4146853776,-66230.63,-50497.48,42321.29,-4353.3936,39573.082,9327.393,2509.318,72098.47
1300824.418685374,-66238.24,-50501.71,42288.98,-4353.719,39567.996,9315.756,2503.6216,71624.19
1300824.4226853703,-66224.86,-50488.85,42338.42,-4353.3936,39588.867,9352.865,2504.9644,72188.88
1300824.4266853668,-66212.24,-50489.746,42376.223,-4354.248,39618.816,9387.492,2509.5215,73173.914
1300824.4306853632,-66204.96,-50473.31,42380.21,-4352.4985,39581.83,9363.892,2511.4746,73107.26
1300824.4346853595,-66224.41,-50477.99,42335.938,-4352.051,39541.098,9322.348,2514.201,72225.51
1300824.438685356,-66239.22,-50485.598,42293.742,-4350.993,39547.977,9312.582,2512.6548,71532.19
1300824.4426853522,-66223.43,-50489.258,42339.64,-4350.057,39590.293,9350.586,2514.3638,71892.74
1300824.4466853486,-66196.78,-50479.168,42392.496,-4349.121,39614.016,9388.591,2519.6533,72840.86
1300824.4506853449,-66201.74,-50475.953,42385.17,-4348.2666,39591.594,9364.38,2520.3452,72843.875
1300824.4546853413,-66222.62,-50492.92,42331.992,-4348.1445,39564.86,9324.911,2521.4844,72154.87
1300824.4586853376,-66226.6,-50490.277,42304.605,-4347.6973,39562.01,9316.895,2525.4722,71628.664
1300824.462685334,-66210.98,-50469.16,42335.574,-4346.3545,39594.89,9349.081,2525.7568,72032.68
1300824.4666853305,-66189.13,-50477.824,42399.496,-4346.517,39622.684,9383.667,2526.3672,73032.43
1300824.4706853267,-66201.664,-50481.285,42386.19,-4350.2197,39598.105,9363.7295,2524.414,73078.94
1300824.4746853232,-66214.68,-50477.5,42330.973,-4347.6562,39562.01,9323.649,2522.7458,72246.7
1300824.4786853194,-66232.42,-50486.29,42300.984,-4347.0054,39576.5,9315.1045,2524.577,71636.31
1300824.482685316,-66220.055,-50475.02,42348.594,-4349.4062,39597.617,9351.318,2527.0996,72078.58
1300824.4866853121,-66194.83,-50466.35,42396.484,-4349.569,39623.047,9387.736,2529.2563,73041.51
1300824.4906853086,-66197.06,-50471.152,42385.906,-4349.284,39600.992,9362.753,2529.2156,73004.44
1300824.494685305,-66211.19,-50500.33,42331.668,-4346.4766,39571.207,9321.045,2532.4302,72057.54
1300824.4986853013,-66220.26,-50503.297,42304.812,-4346.0693,39575.848,9313.07,2533.895,71505.78
1300824.5026852977,-66213.46,-50482.547,42340.375,-4347.412,39611.734,9352.336,2537.0688,71995.16
1300824.506685294,-66194.7,-50477.01,42398.277,-4348.5107,39627.402,9389.7705,2539.3066,73008.71
1300824.5106852904,-66190.516,-50474.895,42391.562,-4346.5576,39604.004,9365.275,2535.5225,73059.734
1300824.5146852867,-66217.53,-50484.09,42335.33,-4346.5986,39573.406,9321.859,2530.8838,72251.71
1300824.5186852831,-66224.734,-50494.914,42305.992,-4344.32,39579.55,9315.837,2530.9653,71663.984
1300824.5226852794,-66210.98,-50486.656,42341.023,-4344.2383,39599.734,9346.3545,2526.123,72020.34
1300824.5266852758,-66189.82,-50478.76,42385.99,-4346.965,39599.367,9379.924,2528.768,72923.14
1300824.5306852723,-66192.95,-50482.016,42387.453,-4347.209,39591.27,9358.765,2527.71,72928.875
1300824.5346852685,-66205.94,-50487.59,42327.23,-4346.273,39563.723,9316.8545,2529.663,72123.21
1300824.538685265,-66221.44,-50495.527,42291.14,-4347.4937,39568.727,9310.344,2528.4424,71593.836
1300824.5426852612,-66216.11,-50493.777,42331.79,-4350.464,39602.38,9348.796,2533.8542,72104.984
1300824.5466852577,-66200.766,-50479.98,42395.184,-4350.5454,39620.484,9382.65,2530.1921,73130.414
1300824.550685254,-66208.58,-50480.797,42386.11,-4349.5283,39592.773,9357.951,2526.001,73082.12
1300824.5546852504,-66235.805,-50496.42,42315.88,-4349.365,39570.844,9318.441,2523.0308,72177.66
1300824.5586852466,-66252.24,-50511.23,42295.047,-4349.8535,39565.555,9312.338,2521.4844,71489.914
1300824.562685243,-66225.47,-50498.617,42328.816,-4348.226,39588.016,9349.854,2527.588,72022.99
1300824.5666852396,-66188.73,-50485.027,42394.816,-4350.952,39613.363,9389.934,2535.0342,73091.27
1300824.5706852358,-66193.97,-50478.438,42383.992,-4350.2197,39594.24,9368.002,2537.3535,73125.33
1300824.5746852322,-66213.83,-50493.734,42323.324,-4348.5923,39560.305,9327.067,2538.493,72359.54
1300824.5786852285,-66220.95,-50501.305,42291.18,-4347.331,39571.37,9318.4,2537.5571,71696.82
1300824.582685225,-66215.05,-50504.883,42329.508,-4349.447,39600.547,9354.818,2537.8826,72075.16
1300824.5866852212,-66200.69,-50477.01,42393.11,-4353.0684,39605.51,9392.456,2541.9517,73044.27
1300824.5906852176,-66205.734,-50471.883,42377.156,-4352.2544,39591.105,9369.263,2543.2944,73001.266
1300824.5946852139,-66226.195,-50496.46,42321.25,-4352.702,39572.957,9327.556,2539.1846,72144.33
1300824.5986852103,-66238.77,-50517.215,42296.266,-4352.9463,39579.1,9321.289,2533.61,71576.83
1300824.6026852068,-66214.234,-50500.285,42349.203,-4353.1904,39597.13,9353.3125,2532.7148,72009.24
1300824.606685203,-66202.07,-50487.836,42396.527,-4354.8994,39607.3,9384.399,2534.4646,72960.25
1300824.6106851995,-66209.59,-50496.867,42370.65,-4356.0386,39596.395,9358.806,2533.773,72832.03
1300824.6146851957,-66226.445,-50503.34,42318.156,-4354.696,39580.566,9321.615,2530.8838,71969.65
1300824.6186851922,-66230.836,-50509.605,42284.914,-4353.719,39572.594,9321.452,2536.499,71514.81
1300824.6226851884,-66219.56,-50505.25,42334.598,-4354.7773,39583.496,9352.499,2537.191,72033.53
1300824.626685185,-66204.266,-50497.07,42387.94,-4354.492,39599.773,9385.824,2541.2598,73052.734
1300824.6306851811,-66208.58,-50483.44,42371.83,-4353.5156,39576.133,9368.164,2541.748,73120.04
1300824.6346851776,-66227.83,-50495.77,42312.95,-4355.1436,39554.688,9328.573,2538.208,72330.98
1300824.638685174,-66235.11,-50508.668,42283.938,-4355.632,39570.477,9320.3125,2537.1501,71623.82
1300824.6426851703,-66230.39,-50504.355,42335.734,-4359.416,39583.78,9354.777,2535.1157,71962.484
1300824.6466851668,-66213.87,-50493.246,42395.184,-4360.718,39598.062,9386.394,2537.1501,72832.36
1300824.650685163,-66214.56,-50500.773,42382.203,-4360.2295,39579.715,9366.171,2538.2896,72924.12
1300824.6546851594,-66226.28,-50507.69,42306.56,-4358.3984,39544.15,9323.486,2534.017,72235.68
1300824.6586851557,-66228.92,-50503.62,42286.133,-4356.3643,39558.676,9319.255,2536.621,71698.53
1300824.6626851521,-66213.14,-50498.82,42338.91,-4354.9805,39595.133,9359.05,2540.1206,72212.164
1300824.6666851484,-66196.17,-50491.457,42398.355,-4357.9917,39604.86,9394.735,2539.0625,73235.03
1300824.6706851448,-66211.34,-50496.055,42385.785,-4358.1543,39586.223,9370.402,2532.6743,73208.414
1300824.6746851413,-66229.82,-50507.527,42320.76,-4358.1543,39563.844,9322.429,2532.7964,72298.71
1300824.6786851375,-66232.305,-50514.977,42289.47,-4356.771,39574.137,9318.604,2535.1562,71626.63
1300824.682685134,-66223.02,-50506.348,42337.484,-4358.8867,39594.605,9353.923,2534.1797,72005.695
1300824.6866851302,-66206.305,-50491.78,42396.89,-4359.66,39612.55,9388.754,2533.9355,73003.09
1300824.6906851267,-66217.125,-50500.367,42386.312,-4359.294,39592.246,9366.415,2528.9714,73021.98
1300824.694685123,-66239.71,-50511.92,42313.68,-4359.172,39565.758,9330.16,2529.419,72233.805
1300824.6986851194,-66244.55,-50516.523,42293.945,-4358.1543,39574.22,9323.039,2526.1638,71650.92
1300824.7026851156,-66228.07,-50496.543,42331.098,-4358.5615,39589.316,9357.26,2530.2734,72112.34
1300824.706685112,-66206.42,-50493.043,42391.195,-4358.8057,39602.54,9387.126,2532.7964,73145.71
1300824.7106851086,-66218.06,-50516.074,42371.38,-4363.037,39583.742,9362.712,2534.546,73104.9
1300824.7146851048,-66225.95,-50509.688,42315.023,-4362.1826,39564.168,9324.585,2531.779,72145.39
1300824.7186851013,-66223.31,-50493.004,42295.37,-4358.3984,39569.254,9322.876,2531.9011,71641.85
1300824.7226850975,-66213.75,-50490.074,42340.008,-4356.771,39597.414,9361.532,2533.5288,72128.13
1300824.726685094,-66199.22,-50472.86,42388.145,-4357.463,39621.625,9392.7,2535.8481,73010.58
1300824.7306850902,-66211.95,-50484.785,42382.977,-4357.7476,39599.164,9365.601,2531.8604,72811.89
1300824.7346850866,-66238.32,-50500.652,42312.785,-4355.835,39575.523,9326.66,2529.2563,71946.086
1300824.7386850829,-66252.41,-50515.504,42290.49,-4357.5034,39566.977,9323.853,2528.4424,71471.72
1300824.7426850793,-66242.92,-50506.836,42326.99,-4358.2764,39603.72,9355.388,2526.4893,71979.125
1300824.7466850758,-66220.87,-50487.387,42382.324,-4358.602,39627.402,9397.217,2532.5928,73045.414
1300824.750685072,-66231.08,-50494.223,42375.33,-4359.131,39600.79,9377.6045,2531.779,73020.875
1300824.7546850685,-66238.53,-50490.805,42324.75,-4359.05,39570.8,9327.312,2530.6804,72192.34
1300824.7586850647,-66250.77,-50503.785,42291.383,-4359.294,39562.055,9318.93,2527.0183,71527.67
1300824.7626850612,-66243.45,-50504.19,42320.027,-4357.585,39594.81,9352.539,2526.8962,71868.49
1300824.7666850574,-66223.266,-50499.15,42375.977,-4359.0903,39615.36,9389.567,2530.6396,73003.87
1300824.770685054,-66230.43,-50505.414,42362.793,-4359.375,39607.87,9366.862,2526.3267,73033.77
1300824.7746850501,-66252.32,-50511.152,42305.83,-4359.619,39578.33,9324.829,2523.112,72321.62
1300824.7786850466,-66259.805,-50508.26,42294.11,-4357.585,39577.395,9321.045,2522.2983,71760.016
1300824.782685043,-66247.6,-50516.113,42334.92,-4358.8057,39604.535,9354.289,2523.8445,72029.26
1300824.7866850393,-66221.88,-50479.25,42399.82,-4359.8228,39616.54,9389.608,2524.1294,72915.9
1300824.7906850358,-66227.87,-50484.863,42375.895,-4360.9214,39593.914,9363.7295,2522.2983,72796.1
1300824.794685032,-66247.6,-50506.062,42317.953,-4360.6772,39571.617,9320.923,2519.857,72050.46
1300824.7986850285,-66260.664,-50495.973,42299.113,-4358.5205,39584.676,9319.58,2522.8271,71621.055
1300824.8026850247,-66237.39,-50484.742,42337.688,-4358.3174,39602.785,9357.3,2529.0935,72122.03
1300824.8066850211,-66210.49,-50477.05,42391.277,-4359.5786,39618.57,9394.287,2533.1218,73157.31
1300824.8106850174,-66215.82,-50476.2,42379.312,-4361.0435,39607.547,9371.704,2532.4302,73117.44
1300824.8146850138,-66240.97,-50491.254,42317.832,-4361.003,39580.77,9330.7705,2531.657,72139.61
1300824.8186850103,-66253.91,-50512.004,42281.13,-4362.142,39581.746,9326.091,2531.0059,71701.664
1300824.8226850065,-66243.49,-50504.03,42325.6,-4361.898,39603.434,9360.8,2535.2378,72202.84
1300824.826685003,-66229.58,-50490.234,42382.324,-4362.386,39617.676,9396.159,2545.4917,73121.664
1300824.8306849992,-66230.39,-50490.926,42370.77,-4363.6885,39599.773,9371.176,2543.6199,73017.5
1300824.8346849957,-66237.76,-50507.367,42309.0,-4361.4097,39579.59,9332.235,2540.2427,72125.2
1300824.838684992,-66248.414,-50514.527,42284.914,-4360.0264,39588.543,9331.177,2539.7136,71544.35
1300824.8426849884,-66236.58,-50498.535,42336.47,-4359.5786,39617.35,9364.055,2540.731,72110.6
1300824.8466849846,-66223.266,-50488.08,42390.383,-4360.1484,39624.758,9391.928,2541.504,73005.74
1300824.850684981,-66226.28,-50499.637,42380.21,-4361.2876,39596.355,9368.774,2538.7778,72812.586
1300824.8546849776,-66238.53,-50505.21,42312.746,-4360.1074,39571.74,9332.805,2542.8875,72135.58
1300824.8586849738,-66249.02,-50505.047,42294.965,-4359.7007,39565.145,9329.55,2544.7593,71683.27
1300824.8626849703,-66231.65,-50495.28,42328.816,-4358.8867,39599.12,9360.881,2546.3462,72149.45
1300824.8666849665,-66214.88,-50491.58,42381.918,-4358.5615,39621.297,9393.515,2549.9675,73190.76
1300824.870684963,-66219.73,-50489.992,42379.477,-4358.358,39596.805,9372.274,2547.16,73190.555
1300824.8746849592,-66240.07,-50495.77,42322.754,-4357.585,39579.348,9329.834,2541.5447,72276.33
1300824.8786849556,-66234.984,-50497.805,42290.04,-4354.94,39592.33,9313.64,2535.9702,71596.03
1300824.882684952,-66220.95,-50490.195,42323.773,-4355.957,39612.184,9354.208,2540.1206,71991.82
1300824.8866849483,-66213.625,-50487.918,42379.723,-4357.1777,39638.836,9390.097,2545.8171,72937.87
1300824.8906849448,-66219.28,-50484.375,42375.367,-4357.3,39607.79,9366.415,2542.1958,72976.93
1300824.894684941,-66235.44,-50484.62,42324.383,-4353.6787,39575.523,9320.964,2538.8184,72051.64
1300824.8986849375,-66250.164,-50501.63,42294.56,-4350.871,39591.96,9315.959,2541.8296,71587.69
1300824.9026849337,-66252.52,-50510.01,42335.33,-4354.8994,39610.027,9354.818,2544.6777,72194.79
1300824.9066849302,-66231.37,-50491.902,42388.266,-4356.8115,39612.996,9392.416,2545.7358,73269.9
1300824.9106849264,-66219.484,-50479.86,42367.88,-4354.533,39596.598,9365.642,2546.4275,73274.336
1300824.914684923,-66234.58,-50484.99,42328.53,-4352.9053,39574.42,9322.388,2544.393,72367.555
1300824.9186849194,-66246.34,-50496.055,42290.773,-4354.411,39585.33,9315.837,2543.986,71697.72
1300824.9226849156,-66238.484,-50500.125,42330.08,-4354.004,39603.355,9348.674,2545.573,71979.82
1300824.926684912,-66226.195,-50493.816,42393.96,-4353.923,39624.96,9384.685,2552.1648,72993.414
1300824.9306849083,-66234.46,-50498.13,42378.867,-4353.801,39617.473,9365.479,2552.3682,73003.055
1300824.9346849048,-66238.98,-50502.81,42320.273,-4353.882,39579.996,9326.66,2549.7642,72192.67
1300824.938684901,-66246.055,-50515.18,42295.535,-4355.0215,39585.695,9321.208,2551.9207,71714.93
1300824.9426848975,-66235.19,-50514.16,42334.312,-4355.7944,39610.598,9356.894,2558.0242,72136.97
1300824.9466848937,-66215.13,-50504.19,42395.387,-4354.6143,39634.44,9392.944,2563.3545,73066.2
1300824.9506848902,-66204.67,-50477.582,42383.26,-4354.6143,39608.24,9372.966,2563.8022,73047.98
1300824.9546848866,-66229.86,-50492.35,42319.906,-4354.94,39578.94,9333.415,2560.1807,72218.38
1300824.9586848828,-66243.05,-50497.887,42302.777,-4353.2715,39591.594,9325.358,2557.5767,71633.75
1300824.9626848793,-66230.555,-50496.707,42342.53,-4353.2715,39616.414,9356.445,2557.0068,71996.91
1300824.9666848755,-66214.93,-50499.35,42394.37,-4354.7773,39617.105,9390.869,2558.065,72875.33
1300824.970684872,-66224.29,-50503.176,42383.668,-4356.242,39596.273,9374.878,2557.4138,72946.414
1300824.9746848682,-66250.98,-50513.875,42317.914,-4356.5674,39575.645,9335.124,2553.9146,72134.805
1300824.9786848647,-66261.6,-50526.57,42303.387,-4356.4453,39577.11,9324.707,2551.351,71577.96
1300824.982684861,-66237.555,-50508.016,42336.63,-4354.7773,39605.754,9359.294,2555.3794,72096.11
1300824.9866848574,-66217.695,-50484.5,42398.195,-4354.7773,39622.965,9397.177,2559.6924,73205.94
1300824.9906848539,-66223.72,-50498.617,42378.336,-4358.114,39605.348,9373.332,2554.9724,73203.25
1300824.99468485,-66242.516,-50513.227,42331.668,-4358.8057,39563.844,9331.584,2547.8923,72324.67
1300824.9986848466,-66255.78,-50512.13,42297.566,-4358.7646,39561.28,9327.026,2549.3164,71658.734
1300825.0026848428,-66243.57,-50505.86,42335.652,-4357.8696,39590.25,9357.26,2548.0144,71960.57
1300825.0066848393,-66229.01,-50505.13,42391.074,-4360.433,39614.3,9393.677,2550.415,72896.24
1300825.0106848355,-66233.56,-50509.81,42384.195,-4361.0435,39607.465,9371.42,2552.246,72921.875
1300825.014684832,-66254.36,-50530.52,42317.87,-4360.881,39577.35,9330.282,2547.8516,72222.74
1300825.0186848282,-66265.55,-50543.703,42303.47,-4357.422,39581.34,9325.358,2548.462,71699.67
1300825.0226848247,-66250.49,-50513.797,42354.047,-4357.2593,39600.87,9357.992,2553.2634,72056.234
1300825.0266848211,-66225.51,-50482.953,42395.996,-4356.2827,39614.46,9393.066,2557.251,73023.6
1300825.0306848173,-66230.67,-50489.34,42385.418,-4355.2246,39588.016,9369.263,2555.5828,72884.04
1300825.0346848138,-66258.38,-50515.504,42326.17,-4354.4517,39566.53,9331.421,2554.3213,72088.99
1300825.03868481,-66264.734,-50524.375,42298.586,-4357.9917,39557.375,9328.898,2555.0132,71618.94
1300825.0426848065,-66249.76,-50514.895,42346.926,-4357.788,39583.293,9362.305,2555.3794,72113.734
1300825.0466848027,-66224.9,-50503.99,42398.152,-4356.323,39619.426,9401.693,2559.0007,73245.85
1300825.0506847992,-66234.7,-50511.11,42381.715,-4357.3813,39595.746,9377.808,2558.3496,73240.97
1300825.0546847954,-66265.51,-50530.805,42323.12,-4356.3643,39574.098,9333.659,2557.8613,72309.9
1300825.058684792,-66278.16,-50522.098,42298.016,-4355.835,39570.68,9330.038,2558.2683,71671.43
1300825.0626847884,-66260.74,-50501.305,42344.605,-4355.754,39590.047,9369.141,2564.2498,72088.016
1300825.0666847846,-66235.6,-50491.21,42404.094,-4354.7773,39605.145,9402.1,2565.9587,73058.27
1300825.070684781,-66240.4,-50512.25,42385.62,-4354.94,39580.934,9377.6455,2561.605,72963.5
1300825.0746847773,-66251.47,-50529.91,42322.39,-4355.835,39554.117,9338.745,2563.5986,72090.17
1300825.0786847738,-66263.43,-50540.773,42299.03,-4356.1606,39565.594,9334.311,2560.9539,71558.88
1300825.08268477,-66255.45,-50534.223,42342.45,-4356.527,39596.316,9367.595,2562.622,71948.0
1300825.0866847665,-66239.83,-50516.684,42403.28,-4356.893,39615.03,9399.618,2566.162,72957.07
1300825.0906847627,-66252.52,-50523.52,42393.8,-4356.8525,39575.195,9377.116,2563.8022,72962.89
1300825.0946847592,-66255.984,-50538.13,42327.72,-4354.004,39552.938,9340.942,2567.7898,72089.4
1300825.0986847556,-66261.44,-50527.426,42293.742,-4353.3936,39565.555,9332.397,2572.5098,71428.63
1300825.1026847519,-66252.61,-50511.23,42347.047,-4354.7363,39589.76,9371.094,2574.0967,72053.75
1300825.1066847483,-66228.68,-50499.92,42397.137,-4354.533,39601.156,9406.372,2573.4863,73166.875
1300825.1106847445,-66231.445,-50511.8,42382.242,-4354.0854,39583.457,9380.412,2572.8354,73108.97
1300825.114684741,-66249.48,-50530.684,42328.492,-4351.4,39560.914,9339.682,2570.4753,72111.734
1300825.1186847372,-66256.47,-50531.496,42308.066,-4349.935,39566.53,9332.805,2569.0918,71445.97
1300825.1226847337,-66253.18,-50536.133,42341.15,-4347.575,39602.742,9369.833,2572.754,71974.57
1300825.12668473,-66231.85,-50506.145,42395.47,-4348.226,39618.492,9407.064,2574.7886,73092.086
1300825.1306847264,-66231.33,-50494.387,42387.9,-4348.4297,39581.543,9381.145,2576.1313,73163.9
1300825.1346847229,-66252.41,-50517.215,42342.69,-4348.104,39553.426,9334.311,2572.754,72454.51
1300825.138684719,-66257.41,-50530.355,42316.53,-4347.3716,39566.49,9328.9795,2569.2139,71811.93
1300825.1426847156,-66250.37,-50516.805,42355.266,-4346.6797,39584.027,9364.218,2570.3125,72047.65
1300825.1466847118,-66238.08,-50510.742,42396.89,-4346.0693,39604.617,9397.461,2572.4285,72981.37
1300825.1506847083,-66246.625,-50516.97,42389.69,-4346.802,39582.074,9371.501,2571.045,72903.41
1300825.1546847045,-66249.59,-50528.445,42333.414,-4344.6455,39557.21,9337.606,2573.283,72153.04
1300825.158684701,-66255.414,-50539.473,42307.78,-4342.326,39573.527,9330.526,2575.114,71639.04
1300825.1626846972,-66245.98,-50528.973,42341.31,-4341.1055,39590.375,9364.34,2572.998,72010.945
1300825.1666846937,-66232.14,-50516.277,42407.35,-4340.9834,39607.625,9399.089,2574.4224,72992.59
1300825.1706846901,-66236.82,-50522.016,42402.996,-4340.8203,39585.33,9378.703,2572.6726,72965.86
1300825.1746846864,-66247.52,-50519.37,42335.004,-4340.495,39568.484,9345.419,2574.4224,72303.02
1300825.1786846828,-66255.945,-50521.973,42315.39,-4340.0474,39570.68,9336.63,2574.5444,71724.61
1300825.182684679,-66252.12,-50524.254,42350.098,-4339.4775,39611.53,9367.595,2572.7947,72160.56
1300825.1866846755,-66233.12,-50510.215,42406.168,-4342.3667,39623.984,9402.019,2571.167,73137.734
1300825.1906846717,-66235.234,-50508.586,42391.4,-4343.913,39590.58,9378.296,2568.1152,73016.52
1300825.1946846682,-66252.04,-50525.473,42333.336,-4342.407,39566.367,9333.74,2567.5457,72085.125
1300825.1986846644,-66272.18,-50531.535,42318.117,-4339.5996,39579.59,9321.167,2568.6443,71472.25
1300825.202684661,-66259.4,-50524.66,42357.75,-4339.681,39595.867,9349.691,2567.3828,71869.75
1300825.2066846574,-66236.125,-50511.516,42402.26,-4341.4717,39609.945,9385.051,2565.7554,72978.766
1300825.2106846536,-66236.125,-50514.242,42389.895,-4341.8784,39585.164,9364.218,2564.616,73069.586
1300825.21468465,-66237.63,-50531.74,42329.348,-4341.512,39564.21,9325.888,2563.192,72224.37
1300825.2186846463,-66250.695,-50524.13,42305.95,-4340.495,39566.406,9318.197,2561.0352,71569.336
1300825.2226846428,-66244.1,-50519.125,42343.914,-4339.803,39604.617,9352.458,2557.536,72057.336
1300825.226684639,-66225.55,-50507.855,42409.344,-4339.193,39615.723,9389.16,2565.7146,73045.414
1300825.2306846355,-66231.57,-50509.81,42404.38,-4340.9424,39598.43,9365.397,2565.023,73131.96
1300825.2346846317,-66253.42,-50520.305,42336.957,-4339.3965,39568.727,9324.585,2562.2153,72313.766
1300825.2386846282,-66265.18,-50511.965,42315.105,-4337.036,39566.652,9318.686,2558.7566,71679.85
1300825.2426846246,-66253.22,-50507.246,42346.965,-4337.606,39601.277,9349.609,2562.4595,72108.195
1300825.2466846209,-66232.46,-50503.664,42403.688,-4338.664,39617.758,9381.552,2567.8306,73121.91
1300825.2506846173,-66231.37,-50512.695,42396.242,-4339.1113,39597.414,9357.382,2569.9058,73156.336
1300825.2546846136,-66251.586,-50532.51,42333.7,-4340.4136,39565.715,9322.021,2565.267,72231.695
1300825.25868461,-66267.58,-50534.465,42308.35,-4341.024,39571.414,9316.569,2564.5347,71600.99
1300825.2626846062,-66251.06,-50524.05,42360.312,-4339.4775,39608.156,9354.289,2565.8774,72145.34
1300825.2666846027,-66222.29,-50495.77,42408.164,-4337.9316,39630.74,9390.503,2571.574,73187.26
1300825.2706845992,-66220.99,-50495.28,42386.598,-4338.094,39602.824,9367.432,2573.405,73078.21
1300825.2746845954,-66239.95,-50518.72,42327.273,-4337.972,39582.36,9325.114,2568.441,72168.78
1300825.2786845919,-66256.266,-50541.668,42303.59,-4339.2744,39583.66,9313.273,2561.0352,71473.96
1300825.282684588,-66244.47,-50527.793,42343.387,-4340.454,39597.13,9346.762,2562.5,71963.22
1300825.2866845846,-66230.67,-50505.94,42406.21,-4339.6406,39614.3,9382.202,2559.4482,73045.82
1300825.2906845808,-66234.78,-50493.53,42391.195,-4338.42,39602.62,9355.673,2555.0945,73023.64
1300825.2946845773,-66250.086,-50513.51,42339.4,-4338.4604,39576.457,9320.923,2557.0068,72246.34
1300825.2986845735,-66265.95,-50522.543,42320.395,-4339.5186,39570.395,9317.953,2556.234,71705.04
1300825.30268457,-66248.25,-50509.605,42359.54,-4339.966,39605.062,9346.3955,2559.6924,72190.31
1300825.3066845664,-66222.086,-50488.445,42393.15,-4339.966,39621.258,9379.761,2564.331,73161.3
1300825.3106845627,-66227.22,-50483.727,42381.918,-4340.21,39590.902,9354.899,2561.2388,73120.98
1300825.3146845591,-66244.59,-50500.938,42333.54,-4336.8735,39573.812,9312.175,2554.891,72338.91
1300825.3186845554,-66249.27,-50509.688,42310.71,-4333.3335,39576.863,9308.31,2556.1118,71721.4
1300825.3226845518,-66239.51,-50511.312,42349.812,-4333.659,39602.215,9342.978,2555.7861,72043.78
1300825.326684548,-66221.44,-50501.26,42395.67,-4336.3037,39632.69,9378.418,2556.6,73001.016
1300825.3306845445,-66219.56,-50501.344,42375.203,-4336.5073,39613.484,9354.452,2553.06,72911.42
1300825.3346845408,-66245.37,-50519.734,42328.53,-4335.6123,39572.062,9316.122,2549.235,72179.484
1300825.3386845372,-66249.02,-50517.66,42300.58,-4334.961,39572.39,9313.518,2550.0896,71689.25
1300825.3426845337,-66235.88,-50499.35,42346.965,-4332.7637,39607.18,9346.721,2549.398,72065.47
1300825.34668453,-66224.2,-50477.742,42410.484,-4333.049,39617.105,9376.628,2553.7517,72956.664
1300825.3506845264,-66230.23,-50490.36,42400.105,-4332.6416,39591.27,9351.685,2551.7578,72914.39
1300825.3546845226,-66239.55,-50505.78,42328.33,-4332.845,39577.516,9314.413,2553.955,72115.805
1300825.358684519,-66242.23,-50505.21,42306.277,-4332.0312,39582.234,9314.087,2556.9663,71683.48
1300825.3626845153,-66239.016,-50496.176,42346.64,-4331.0957,39611.695,9346.273,2559.1636,72213.055
1300825.3666845118,-66214.64,-50485.76,42404.055,-4332.5605,39629.395,9378.174,2561.9304,73166.42
1300825.370684508,-66212.04,-50501.305,42397.746,-4334.758,39615.4,9358.643,2556.7627,73121.016
1300825.3746845045,-66237.836,-50516.36,42329.875,-4333.9844,39601.074,9319.377,2555.5828,72233.4
1300825.378684501,-66244.95,-50519.086,42309.285,-4331.584,39585.53,9312.297,2560.791,71685.51
1300825.3826844972,-66238.57,-50514.977,42362.1,-4330.4443,39611.492,9345.459,2560.2622,72178.23
1300825.3866844936,-66230.23,-50486.086,42405.68,-4334.188,39623.58,9372.478,2557.7393,73028.93
1300825.3906844899,-66229.9,-50477.703,42387.047,-4337.1177,39608.113,9349.243,2554.769,73006.31
1300825.3946844863,-66240.52,-50504.19,42333.21,-4338.745,39585.125,9316.447,2557.9429,72249.8
1300825.3986844826,-66250.98,-50523.113,42314.82,-4338.9893,39572.594,9317.343,2564.5347,71697.92
1300825.402684479,-66244.914,-50516.035,42347.453,-4339.3965,39593.63,9356.405,2569.987,72230.76
1300825.4066844753,-66224.41,-50508.71,42406.78,-4341.6343,39624.96,9386.23,2567.1794,73271.61
1300825.4106844717,-66226.484,-50500.652,42390.26,-4342.082,39598.43,9359.213,2565.023,73143.516
1300825.4146844682,-66251.18,-50525.39,42335.9,-4341.8784,39569.133,9319.296,2566.854,72217.25
1300825.4186844644,-66265.586,-50552.492,42308.39,-4341.2275,39575.523,9315.227,2565.023,71676.8
1300825.4226844609,-66254.766,-50527.06,42341.434,-4340.8613,39599.367,9351.237,2565.023,72099.29
1300825.426684457,-66231.9,-50479.004,42398.316,-4340.902,39615.234,9386.76,2569.2546,73033.77
1300825.4306844536,-66235.39,-50485.68,42384.44,-4341.5938,39581.95,9366.984,2570.6787,72945.72
1300825.4346844498,-66251.875,-50513.348,42325.848,-4340.8613,39559.164,9326.742,2572.5505,72106.37
1300825.4386844463,-66261.84,-50526.164,42308.51,-4340.902,39572.67,9318.481,2569.7837,71491.74
1300825.4426844425,-66252.61,-50525.066,42347.168,-4341.5527,39603.027,9352.702,2567.1794,72033.94
1300825.446684439,-66238.32,-50514.69,42398.438,-4343.9536,39622.64,9389.853,2567.5864,73186.81
1300825.4506844354,-66237.8,-50526.734,42386.883,-4345.1743,39589.355,9363.363,2562.0933,73095.22
1300825.4546844317,-66256.59,-50539.88,42323.773,-4345.0522,39564.09,9319.255,2560.669,72307.91
1300825.4586844281,-66266.56,-50525.758,42304.566,-4343.913,39568.035,9312.012,2557.658,71774.17
1300825.4626844244,-66255.17,-50511.92,42352.742,-4344.5234,39592.125,9347.453,2559.7332,72133.34
1300825.4666844208,-66239.664,-50515.383,42406.74,-4344.7676,39616.254,9383.708,2566.162,73056.03
1300825.470684417,-66247.195,-50515.137,42379.64,-4344.8486,39586.914,9361.125,2571.452,72883.95
1300825.4746844135,-66274.09,-50534.59,42325.645,-4346.7207,39558.15,9325.114,2573.9746,72015.51
1300825.4786844098,-66283.53,-50537.273,42306.152,-4347.6562,39574.625,9322.917,2572.998,71618.414
1300825.4826844062,-66263.59,-50519.613,42349.367,-4346.1914,39617.758,9357.544,2573.12,72194.13
1300825.4866844027,-66244.34,-50521.08,42400.066,-4347.3716,39623.332,9391.195,2571.859,73156.54
1300825.490684399,-66245.61,-50529.34,42384.195,-4348.0225,39595.703,9371.298,2570.7195,73194.586
1300825.4946843954,-66266.234,-50539.227,42328.41,-4347.331,39569.297,9330.7295,2566.3657,72355.72
1300825.4986843916,-66275.88,-50539.348,42308.15,-4348.3076,39580.242,9321.533,2567.4644,71718.34
1300825.502684388,-66265.75,-50537.273,42346.926,-4348.877,39600.953,9356.486,2570.272,72152.75
1300825.5066843843,-66256.47,-50540.812,42399.05,-4350.2197,39618.41,9387.573,2568.278,72963.95
1300825.5106843808,-66262.86,-50532.715,42385.05,-4350.5454,39585.086,9361.654,2562.6628,72936.56
1300825.514684377,-66278.41,-50534.71,42325.766,-4349.813,39567.26,9327.2705,2563.1104,72167.805
1300825.5186843735,-66292.16,-50542.684,42298.22,-4349.6094,39567.508,9323.364,2560.9946,71587.89
1300825.52268437,-66277.51,-50545.656,42333.21,-4349.4062,39589.152,9351.359,2562.8257,71930.586
1300825.5266843662,-66254.07,-50523.234,42394.33,-4350.0166,39606.445,9385.946,2568.3594,72990.27
1300825.5306843626,-66251.305,-50508.75,42381.31,-4349.2026,39595.664,9368.002,2573.3643,73119.39
1300825.5346843589,-66265.586,-50523.64,42332.36,-4349.121,39577.555,9329.062,2573.0388,72363.24
1300825.5386843553,-66275.15,-50534.953,42301.516,-4350.1387,39573.527,9323.73,2573.9746,71773.07
1300825.5426843516,-66263.67,-50532.96,42342.203,-4351.3594,39602.457,9362.265,2577.7996,72199.055
1300825.546684348,-66243.33,-50528.08,42405.68,-4352.295,39619.184,9395.956,2579.3865,73192.42
1300825.5506843443,-66242.96,-50511.11,42380.332,-4353.597,39598.633,9375.244,2584.5542,73051.31
1300825.5546843407,-66262.17,-50522.34,42325.93,-4351.644,39583.254,9332.724,2583.496,72151.695
1300825.5586843372,-66272.586,-50527.426,42305.055,-4350.586,39578.613,9326.823,2586.1816,71557.984
1300825.5626843334,-66254.805,-50512.9,42357.34,-4351.278,39599.895,9366.171,2591.5527,72112.51
1300825.5666843299,-66239.664,-50506.023,42408.895,-4349.6504,39619.754,9401.042,2594.9707,73119.14
1300825.570684326,-66236.58,-50505.496,42401.043,-4348.3887,39603.92,9376.994,2594.0757,73067.55
1300825.5746843226,-66252.41,-50514.082,42341.758,-4345.459,39579.43,9338.745,2594.7673,72366.375
1300825.5786843188,-66253.09,-50524.375,42311.44,-4344.2383,39586.67,9333.13,2593.628,71900.27
1300825.5826843153,-66235.39,-50505.086,42348.594,-4344.116,39607.75,9361.938,2591.8784,72315.63
1300825.5866843115,-66219.98,-50503.01,42402.508,-4347.087,39625.082,9395.183,2593.3433,73134.6
1300825.590684308,-66229.45,-50511.477,42384.89,-4350.952,39596.03,9369.182,2590.21,72879.16
1300825.5946843044,-66253.016,-50513.957,42335.043,-4350.0166,39570.477,9337.077,2585.6934,72041.875
1300825.5986843007,-66256.39,-50513.55,42316.895,-4349.691,39571.86,9332.805,2587.0361,71663.9
1300825.6026842971,-66246.38,-50513.47,42348.473,-4352.8647,39612.55,9368.612,2590.739,72300.3
1300825.6066842934,-66230.266,-50509.035,42398.844,-4354.37,39641.562,9403.239,2592.1226,73326.46
1300825.6106842898,-66235.44,-50508.953,42383.14,-4355.754,39611.777,9379.313,2588.4604,73029.625
1300825.614684286,-66257.49,-50519.816,42328.043,-4355.184,39570.23,9339.56,2585.083,72052.25
1300825.6186842825,-66271.24,-50549.48,42309.207,-4355.062,39581.055,9327.475,2582.5195,71464.766
1300825.6226842788,-66266.44,-50546.43,42353.07,-4355.957,39614.707,9362.468,2582.8452,72106.445
1300825.6266842752,-66239.38,-50515.992,42409.02,-4356.405,39624.84,9395.793,2583.0486,73172.65
1300825.6306842717,-66236.53,-50527.793,42389.16,-4358.9277,39592.57,9369.141,2581.9907,72988.164
1300825.634684268,-66251.51,-50537.395,42334.598,-4358.8867,39573.855,9329.306,2579.9155,72148.56
1300825.6386842644,-66259.32,-50528.402,42307.047,-4357.9917,39583.902,9326.172,2576.4976,71679.08
1300825.6426842606,-66248.45,-50514.57,42342.977,-4357.707,39608.156,9362.509,2577.7588,72188.88
1300825.646684257,-66236.29,-50509.605,42399.902,-4358.8057,39630.86,9389.364,2579.7935,73154.664
1300825.6506842533,-66240.44,-50517.62,42388.633,-4359.253,39599.324,9367.351,2577.0671,73032.48
1300825.6546842498,-66259.766,-50533.53,42331.668,-4358.1543,39565.51,9328.939,2572.0623,72135.375
1300825.6586842462,-66268.27,-50536.906,42309.938,-4358.48,39574.79,9325.725,2570.4346,71621.38
1300825.6626842425,-66252.81,-50525.96,42347.535,-4359.8228,39595.99,9359.904,2573.69,72171.67
1300825.666684239,-66236.33,-50508.3,42397.46,-4359.2124,39612.348,9391.398,2574.7478,73161.664
1300825.6706842352,-66237.59,-50518.72,42387.29,-4355.062,39605.31,9364.258,2573.161,73001.23
1300825.6746842316,-66256.47,-50532.31,42329.47,-4352.6206,39581.668,9322.348,2569.9058,72005.29
1300825.6786842279,-66267.336,-50523.074,42312.34,-4351.522,39582.887,9322.632,2567.9526,71578.695
1300825.6826842243,-66243.0,-50507.082,42349.773,-4350.2197,39614.707,9360.556,2571.859,72132.2
1300825.6866842206,-66213.22,-50491.17,42404.258,-4349.6504,39640.83,9395.956,2577.8403,73133.914
1300825.690684217,-66220.664,-50498.984,42390.668,-4350.871,39609.5,9373.739,2576.1313,73015.38
1300825.6946842135,-66242.72,-50514.12,42337.2,-4349.7314,39567.26,9332.235,2572.2656,72155.97
1300825.6986842097,-66254.97,-50526.53,42306.234,-4350.2197,39589.234,9326.66,2573.405,71708.46
1300825.7026842062,-66238.57,-50514.285,42353.8,-4349.121,39621.137,9356.812,2574.2595,72165.164
1300825.7066842024,-66219.73,-50501.465,42418.66,-4350.4233,39639.445,9390.178,2574.5037,73146.164
1300825.710684199,-66232.71,-50511.965,42407.188,-4350.627,39605.062,9365.886,2571.981,72944.83
1300825.7146841951,-66253.5,-50526.004,42341.637,-4349.04,39595.906,9328.125,2569.2139,72042.16
1300825.7186841916,-66267.83,-50525.92,42316.57,-4348.3076,39601.2,9329.387,2572.0215,71659.55
1300825.7226841878,-66247.4,-50510.336,42356.12,-4348.226,39605.47,9365.967,2575.9685,72121.75
1300825.7266841843,-66219.766,-50489.87,42417.156,-4349.5283,39621.543,9397.746,2577.7183,73076.83
1300825.7306841807,-66219.56,-50491.863,42404.34,-4347.9004,39594.973,9374.228,2576.1313,72960.86
1300825.734684177,-66237.34,-50519.29,42349.773,-4345.215,39572.594,9333.944,2571.045,72092.37
1300825.7386841734,-66248.62,-50524.54,42330.65,-4344.9707,39584.11,9334.311,2569.58,71689.17
1300825.7426841697,-66241.82,-50499.715,42376.996,-4345.0117,39598.51,9367.106,2571.7368,72177.086
1300825.7466841661,-66223.88,-50482.91,42430.992,-4347.6562,39607.79,9398.153,2576.6602,73024.945
1300825.7506841624,-66224.445,-50485.477,42414.105,-4346.0693,39603.8,9371.867,2579.183,72999.39
1300825.7546841588,-66245.69,-50514.406,42349.49,-4343.628,39582.848,9331.299,2577.2705,72258.99
1300825.758684155,-66244.34,-50527.59,42315.758,-4343.3027,39572.51,9330.2,2576.6196,71703.375
1300825.7626841515,-66238.2,-50509.645,42349.977,-4345.6626,39597.453,9369.223,2582.601,72201.78
1300825.766684148,-66222.01,-50501.465,42409.426,-4346.5986,39628.824,9403.28,2587.9314,73223.43
1300825.7706841442,-66219.89,-50503.38,42400.066,-4346.3135,39604.74,9379.599,2589.6404,73116.414
1300825.7746841407,-66227.91,-50502.035,42345.418,-4342.204,39584.96,9342.814,2591.7563,72248.414
1300825.778684137,-66238.04,-50508.426,42324.06,-4341.919,39589.113,9339.763,2594.7266,71693.766
1300825.7826841334,-66228.92,-50509.645,42360.27,-4345.2964,39615.03,9375.448,2595.2556,72210.05
1300825.7866841296,-66211.47,-50494.754,42416.344,-4344.3604,39637.37,9404.907,2594.6453,73161.13
1300825.790684126,-66216.39,-50511.19,42398.113,-4341.8784,39616.902,9374.756,2589.4775,73027.914
1300825.7946841223,-66244.34,-50529.46,42346.805,-4342.1226,39587.08,9333.74,2588.0535,72080.445
1300825.7986841188,-66258.18,-50530.76,42326.703,-4342.8955,39584.676,9332.764,2587.2397,71662.27
1300825.8026841152,-66235.84,-50509.97,42362.145,-4341.716,39600.344,9367.106,2588.6638,72215.05
1300825.8066841115,-66222.414,-50481.242,42417.81,-4342.3667,39623.535,9402.507,2592.0005,73179.04
1300825.810684108,-66226.65,-50496.258,42385.418,-4341.4717,39609.254,9383.139,2594.3198,73063.27
1300825.8146841042,-66233.16,-50507.49,42328.94,-4340.454,39588.867,9347.331,2593.75,72294.96
1300825.8186841006,-66245.41,-50515.992,42305.625,-4339.966,39583.7,9343.425,2588.8672,71769.94
1300825.8226840969,-66234.83,-50506.918,42356.445,-4341.512,39597.008,9376.953,2592.0005,72131.92
1300825.8266840933,-66216.11,-50494.062,42415.934,-4342.204,39622.438,9405.844,2595.988,73059.695
1300825.8306840896,-66228.97,-50507.203,42389.65,-4342.163,39597.293,9381.958,2595.744,72879.766
1300825.834684086,-66254.44,-50524.293,42330.484,-4342.204,39567.75,9345.053,2591.7156,72092.33
1300825.8386840825,-66265.75,-50529.664,42312.99,-4341.512,39574.832,9340.048,2588.4197,71695.56
1300825.8426840787,-66248.7,-50527.184,42355.266,-4339.7217,39609.01,9372.07,2592.0005,72126.18
