timestamp,Fp1,Fp2,F3,Fz,F4,Cz,Pz,Oz
1300356.1111113601,-59390.016,-46756.188,25130.494,-12013.225,35116.293,4274.211,-11543.335,48551.72
1300356.1151113564,-59358.605,-46722.94,25201.58,-12011.841,35106.242,4285.1973,-11551.962,49329.836
1300356.1191113528,-59323.977,-46695.234,25208.049,-12010.742,35177.734,4293.7827,-11557.658,49884.93
1300356.123111349,-59283.33,-46654.297,25195.232,-12009.155,35162.598,4287.557,-11553.223,49638.67
1300356.1271113455,-59295.047,-46662.03,25185.385,-12007.568,35124.023,4270.874,-11560.547,48674.03
1300356.1311113418,-59321.86,-46682.414,25194.865,-12006.104,35101.035,4266.561,-11559.733,48554.242
1300356.1351113382,-59287.234,-46640.668,25191.162,-12002.93,35125.977,4275.1465,-11560.507,49281.453
1300356.1391113345,-59248.945,-46626.02,25209.799,-12003.378,35151.816,4283.1626,-11559.937,49801.72
1300356.143111331,-59232.06,-46628.38,25243.734,-12002.727,35155.316,4279.2563,-11566.122,49514.324
1300356.1471113274,-59276.29,-46659.305,25210.613,-12006.43,35142.984,4265.91,-11570.15,48595.5
1300356.1511113236,-59283.613,-46647.016,25175.945,-12006.755,35101.688,4268.962,-11556.152,48549.52
1300356.15511132,-59234.945,-46612.387,25199.545,-12000.407,35126.508,4272.1357,-11566.895,49365.03
1300356.1591113163,-59207.727,-46581.746,25205.73,-12002.401,35162.76,4280.3145,-11567.668,49915.04
1300356.1631113128,-59211.59,-46590.58,25226.035,-12003.5,35165.04,4276.2046,-11568.359,49586.387
1300356.167111309,-59245.973,-46618.41,25215.576,-12000.61,35137.86,4256.9175,-11576.701,48617.676
1300356.1711113055,-59242.312,-46612.1,25183.188,-11999.268,35099.12,4254.0283,-11564.982,48559.082
1300356.1751113017,-59231.12,-46611.613,25188.559,-11999.634,35142.66,4262.9395,-11565.715,49313.152
1300356.1791112982,-59212.242,-46595.785,25223.838,-12000.8545,35155.887,4272.705,-11567.465,49883.098
1300356.1831112946,-59209.15,-46598.348,25237.469,-12000.773,35171.875,4266.317,-11576.05,49569.906
1300356.1871112909,-59237.59,-46615.234,25189.006,-12001.059,35149.254,4252.889,-11572.266,48564.58
1300356.1911112873,-59267.863,-46640.016,25176.719,-12003.744,35116.008,4251.9126,-11568.197,48516.277
1300356.1951112836,-59258.18,-46637.86,25184.734,-12003.093,35141.727,4265.0557,-11563.437,49369.63
1300356.19911128,-59231.61,-46611.74,25224.814,-12002.523,35163.535,4273.031,-11562.094,49906.09
1300356.2031112763,-59228.56,-46616.375,25230.469,-12005.656,35159.098,4268.636,-11560.832,49567.305
1300356.2071112727,-59254.234,-46639.61,25209.025,-12004.232,35141.24,4247.8843,-11574.911,48658.285
1300356.211111269,-59277.305,-46663.37,25167.318,-12003.134,35146.61,4243.612,-11576.66,48584.27
1300356.2151112654,-59253.215,-46630.293,25193.4,-11998.942,35148.316,4251.5464,-11576.823,49337.324
1300356.219111262,-59241.17,-46631.27,25229.941,-12003.134,35173.055,4258.789,-11582.805,49842.57
1300356.2231112581,-59222.496,-46615.156,25229.656,-12005.737,35141.277,4255.7783,-11582.52,49429.973
1300356.2271112546,-59261.11,-46640.75,25209.31,-12004.639,35121.46,4243.0015,-11585.734,48537.273
1300356.2311112508,-59281.902,-46645.348,25176.84,-12000.326,35130.168,4238.2,-11584.147,48539.676
1300356.2351112473,-59270.836,-46631.88,25166.342,-12000.814,35158.246,4248.3726,-11580.038,49310.223
1300356.2391112435,-59254.52,-46623.58,25212.89,-12004.477,35172.65,4259.725,-11575.399,49923.137
1300356.24311124,-59241.496,-46619.63,25236.736,-12005.656,35164.88,4255.3306,-11573.161,49559.45
1300356.2471112362,-59250.41,-46637.41,25201.824,-12000.773,35136.56,4237.712,-11581.991,48592.246
1300356.2511112327,-59276.574,-46641.277,25159.547,-11999.634,35119.305,4239.1357,-11571.94,48563.56
1300356.2551112291,-59280.805,-46640.465,25172.04,-12002.238,35146.527,4250.244,-11569.133,49285.402
1300356.2591112254,-59254.03,-46625.0,25214.56,-12000.0,35182.13,4255.615,-11577.23,49839.805
1300356.2631112218,-59245.65,-46608.97,25244.467,-12002.197,35150.105,4254.72,-11580.7705,49512.98
1300356.267111218,-59263.266,-46636.395,25205.201,-12003.54,35123.008,4242.269,-11580.2,48573.57
1300356.2711112145,-59282.594,-46656.25,25175.904,-12001.913,35126.87,4238.8105,-11579.753,48563.19
1300356.2751112108,-59278.402,-46660.81,25190.879,-12002.6455,35157.715,4250.0,-11574.26,49378.99
1300356.2791112072,-59251.59,-46643.15,25212.89,-12003.134,35191.082,4256.633,-11579.916,49847.902
1300356.2831112035,-59233.44,-46628.176,25234.701,-12003.744,35157.105,4248.698,-11585.327,49477.742
1300356.2871112,-59260.094,-46643.27,25211.63,-12002.197,35125.57,4233.114,-11590.129,48516.887
1300356.2911111964,-59292.48,-46667.32,25182.537,-12003.378,35123.21,4231.2827,-11588.176,48506.188
1300356.2951111926,-59298.18,-46669.312,25172.852,-12006.348,35165.527,4244.67,-11584.636,49315.227
1300356.299111189,-59242.637,-46632.57,25213.34,-12003.622,35156.74,4254.883,-11582.113,49892.5
1300356.3031111853,-59233.24,-46625.57,25228.11,-12005.209,35145.836,4250.6514,-11584.188,49504.64
1300356.3071111818,-59281.293,-46657.676,25190.186,-12006.714,35134.93,4236.491,-11586.426,48490.723
1300356.311111178,-59311.523,-46682.008,25167.604,-12005.168,35138.797,4237.1016,-11580.404,48482.22
1300356.3151111745,-59274.375,-46651.33,25188.152,-12002.197,35144.246,4245.931,-11576.091,49393.395
1300356.3191111707,-59252.28,-46633.79,25226.197,-12004.069,35163.37,4251.2207,-11582.275,49875.938
1300356.3231111672,-59250.855,-46630.008,25236.94,-12006.877,35146.89,4245.7686,-11587.769,49524.824
1300356.3271111636,-59272.016,-46657.27,25201.904,-12003.988,35123.13,4230.3467,-11588.786,48523.152
1300356.3311111599,-59296.105,-46680.016,25174.316,-12004.395,35122.926,4231.8525,-11584.595,48498.617
1300356.3351111563,-59287.805,-46658.977,25185.182,-12005.778,35138.875,4245.9717,-11581.909,49315.51
1300356.3391111526,-59262.332,-46635.582,25221.314,-12006.47,35156.902,4255.3306,-11584.229,49886.92
1300356.343111149,-59254.926,-46634.156,25228.842,-12008.098,35155.6,4248.698,-11587.6875,49526.695
1300356.3471111453,-59278.934,-46662.234,25200.928,-12008.261,35124.066,4231.4863,-11588.379,48592.613
1300356.3511111417,-59321.453,-46698.082,25163.086,-12009.521,35138.387,4229.5737,-11583.862,48482.383
1300356.355111138,-59301.516,-46670.41,25205.975,-12004.924,35143.473,4240.3975,-11581.503,49229.902
1300356.3591111344,-59248.863,-46619.508,25226.768,-12001.669,35161.5,4245.9717,-11587.036,49814.453
1300356.363111131,-59241.336,-46630.21,25226.604,-12004.028,35169.19,4242.391,-11585.083,49458.336
1300356.3671111271,-59269.168,-46642.05,25209.84,-12002.768,35122.965,4230.306,-11580.688,48510.582
1300356.3711111236,-59291.63,-46660.605,25192.709,-12001.831,35124.105,4231.242,-11576.986,48481.367
1300356.3751111198,-59273.97,-46640.383,25189.291,-12001.872,35168.742,4243.1235,-11577.2705,49338.79
1300356.3791111163,-59236.41,-46610.35,25237.957,-12002.686,35172.49,4250.8545,-11579.672,49898.926
1300356.3831111125,-59232.26,-46615.926,25246.908,-12002.6045,35172.324,4244.792,-11584.555,49524.375
1300356.387111109,-59282.96,-46654.707,25207.602,-12004.15,35141.4,4231.893,-11582.52,48450.48
1300356.3911111052,-59300.09,-46674.805,25174.928,-11999.878,35147.34,4223.755,-11588.379,48351.973
1300356.3951111017,-59287.926,-46658.082,25192.262,-12001.343,35162.19,4237.9966,-11587.851,49286.95
1300356.3991110981,-59243.816,-46616.984,25233.766,-12001.099,35171.67,4249.471,-11586.996,49867.96
1300356.4031110944,-59239.055,-46614.22,25243.979,-12001.791,35153.934,4246.7856,-11585.002,49533.0
1300356.4071110908,-59270.062,-46644.53,25212.484,-12000.0,35129.723,4231.405,-11583.903,48550.984
1300356.411111087,-59298.953,-46655.438,25186.28,-12001.628,35120.89,4231.6895,-11581.625,48553.02
1300356.4151110835,-59297.082,-46655.965,25194.865,-12005.819,35141.277,4246.0127,-11576.66,49376.387
1300356.4191110798,-59261.355,-46635.703,25228.72,-12005.697,35174.645,4252.523,-11576.823,49941.938
1300356.4231110762,-59251.875,-46621.38,25247.764,-12002.727,35168.094,4243.734,-11579.224,49472.25
1300356.4271110725,-59285.156,-46648.848,25208.252,-12003.256,35145.754,4229.533,-11577.922,48501.832
1300356.431111069,-59316.367,-46671.51,25192.303,-12005.453,35123.863,4229.3296,-11578.41,48553.426
1300356.4351110654,-59296.31,-46657.35,25200.969,-12004.11,35151.285,4242.3096,-11581.015,49391.6
1300356.4391110616,-59262.332,-46632.938,25233.236,-12003.744,35177.613,4253.459,-11580.526,49987.715
1300356.443111058,-59257.61,-46630.78,25249.838,-12006.836,35165.04,4250.7324,-11579.753,49562.258
1300356.4471110543,-59304.688,-46668.54,25213.42,-12008.708,35133.426,4234.5786,-11581.462,48500.043
1300356.4511110508,-59332.24,-46691.977,25181.602,-12006.308,35127.605,4232.7476,-11581.584,48487.67
1300356.455111047,-59316.816,-46678.145,25204.346,-12003.906,35141.727,4247.396,-11576.579,49274.58
1300356.4591110435,-59291.547,-46660.117,25234.295,-12006.918,35174.277,4258.1787,-11577.678,49850.547
1300356.46311104,-59277.387,-46651.043,25241.943,-12006.755,35173.055,4253.3774,-11579.0205,49483.562
1300356.4671110362,-59310.266,-46670.695,25212.607,-12004.843,35151.816,4240.0312,-11580.404,48525.434
1300356.4711110326,-59331.543,-46684.45,25181.764,-12005.005,35138.957,4241.781,-11570.598,48575.195
1300356.4751110289,-59320.598,-46668.215,25213.299,-12006.389,35162.477,4253.174,-11573.527,49409.305
1300356.4791110253,-59280.56,-46640.586,25237.957,-12008.423,35175.824,4266.0728,-11568.686,49929.566
1300356.4831110216,-59272.258,-46641.6,25245.281,-12009.318,35149.008,4258.789,-11571.33,49460.086
1300356.487111018,-59320.03,-46672.0,25212.037,-12009.521,35117.637,4244.4663,-11575.603,48441.895
1300356.4911110143,-59336.184,-46687.95,25180.42,-12008.057,35122.113,4245.6465,-11569.987,48513.836
1300356.4951110107,-59309.9,-46668.38,25198.121,-12005.981,35145.508,4260.62,-11564.006,49403.89
1300356.4991110072,-59282.88,-46647.79,25243.37,-12006.104,35178.957,4268.1074,-11566.203,50005.74
1300356.5031110034,-59275.92,-46651.33,25235.963,-12008.505,35173.465,4260.7017,-11568.563,49553.1
1300356.507111,-59311.89,-46678.957,25201.172,-12008.749,35144.98,4245.158,-11571.208,48492.598
1300356.5111109961,-59329.062,-46686.28,25187.135,-12007.528,35134.44,4243.0015,-11569.092,48557.09
1300356.5151109926,-59311.402,-46683.027,25197.266,-12006.836,35164.023,4255.819,-11559.692,49377.605
1300356.5191109888,-59288.78,-46660.2,25233.318,-12008.586,35167.156,4266.8867,-11555.583,49911.094
1300356.5231109853,-59290.45,-46659.465,25233.318,-12010.214,35170.33,4262.004,-11558.798,49556.64
1300356.5271109815,-59318.2,-46679.12,25215.332,-12009.237,35119.996,4246.948,-11558.513,48595.34
1300356.531110978,-59327.23,-46681.887,25184.531,-12006.633,35122.64,4246.501,-11551.718,48648.277
1300356.5351109745,-59320.64,-46676.516,25200.562,-12006.592,35156.375,4257.894,-11550.578,49448.04
1300356.5391109707,-59291.26,-46652.344,25227.092,-12007.935,35186.93,4262.8584,-11556.071,49965.496
1300356.5431109671,-59290.246,-46652.06,25245.361,-12007.65,35169.637,4257.6094,-11558.472,49463.016
1300356.5471109634,-59319.664,-46677.004,25211.955,-12005.615,35132.938,4240.967,-11563.681,48487.1
1300356.5511109598,-59343.957,-46699.14,25191.57,-12004.558,35126.305,4239.0137,-11563.884,48582.4
1300356.555110956,-59323.203,-46689.047,25208.822,-12005.046,35159.02,4252.4824,-11561.931,49449.3
1300356.5591109525,-59285.156,-46657.473,25245.77,-12004.517,35190.27,4260.051,-11565.43,50024.54
1300356.5631109488,-59282.434,-46647.91,25251.385,-12004.558,35169.434,4257.5684,-11566.122,49540.895
1300356.5671109452,-59307.902,-46666.426,25216.838,-12001.587,35139.65,4243.9375,-11566.813,48529.38
1300356.5711109417,-59330.324,-46677.574,25198.527,-12001.221,35117.676,4245.7686,-11563.11,48535.727
1300356.575110938,-59320.926,-46674.562,25219.402,-12000.488,35149.17,4256.958,-11565.268,49421.754
1300356.5791109344,-59289.918,-46656.293,25248.17,-12002.6045,35169.598,4266.4795,-11566.691,49953.98
1300356.5831109306,-59279.95,-46645.918,25259.441,-12002.075,35157.105,4262.207,-11566.406,49505.047
1300356.587110927,-59304.04,-46662.844,25226.36,-11999.594,35131.062,4244.9546,-11569.743,48590.82
1300356.5911109233,-59327.355,-46680.543,25204.021,-11999.594,35130.574,4245.2393,-11567.627,48592.45
1300356.5951109198,-59315.51,-46674.887,25220.297,-12001.994,35160.973,4258.6265,-11562.46,49444.746
1300356.599110916,-59292.605,-46653.688,25254.191,-12002.523,35189.656,4267.7817,-11563.07,49945.438
1300356.6031109125,-59286.95,-46649.54,25260.215,-12001.791,35172.49,4267.1714,-11560.263,49426.883
1300356.607110909,-59310.793,-46665.652,25222.982,-12001.587,35139.285,4258.9927,-11556.967,48509.36
1300356.6111109052,-59328.777,-46675.336,25216.309,-11999.472,35139.69,4258.8706,-11553.508,48560.223
1300356.6151109017,-59311.73,-46661.824,25236.451,-11998.739,35169.11,4272.1763,-11551.188,49490.4
1300356.6191108979,-59274.824,-46640.34,25260.54,-11999.309,35182.21,4282.064,-11550.171,50012.332
1300356.6231108943,-59268.19,-46642.05,25267.863,-11999.756,35173.746,4274.211,-11551.758,49520.875
1300356.6271108906,-59300.09,-46672.0,25234.375,-11998.942,35138.797,4257.772,-11554.81,48584.516
1300356.631110887,-59328.695,-46687.46,25212.77,-11998.617,35133.992,4258.342,-11553.305,48564.656
1300356.6351108833,-59312.99,-46672.65,25229.045,-11998.088,35162.883,4272.7866,-11555.786,49356.367
1300356.6391108797,-59279.664,-46643.27,25265.342,-11998.657,35172.977,4281.82,-11561.6455,49987.43
1300356.6431108762,-59275.434,-46639.242,25268.19,-11999.187,35162.395,4278.0356,-11562.541,49521.85
1300356.6471108724,-59306.805,-46662.56,25245.729,-11998.373,35128.336,4267.009,-11558.676,48544.516
1300356.651110869,-59320.76,-46662.11,25212.646,-11993.979,35124.43,4269.084,-11551.88,48590.78
1300356.6551108651,-59304.688,-46647.504,25225.871,-11992.554,35162.926,4280.6396,-11551.188,49469.32
1300356.6591108616,-59276.9,-46634.688,25265.79,-11993.612,35188.965,4290.487,-11547.282,49985.027
1300356.6631108578,-59277.184,-46636.07,25269.084,-11994.955,35189.168,4283.203,-11547.485,49430.867
1300356.6671108543,-59302.613,-46657.758,25235.434,-11993.124,35143.15,4269.3687,-11551.596,48484.01
1300356.6711108505,-59323.812,-46678.508,25204.998,-11993.083,35143.555,4265.5845,-11554.892,48570.598
1300356.675110847,-59310.47,-46670.695,25224.61,-11994.67,35170.207,4277.6694,-11554.851,49486.86
1300356.6791108435,-59278.77,-46648.316,25255.168,-11997.192,35185.793,4287.679,-11555.583,50010.824
1300356.6831108397,-59277.184,-46637.047,25267.334,-11995.769,35173.383,4283.6104,-11556.479,49477.582
1300356.6871108362,-59314.25,-46674.277,25234.54,-11996.582,35138.266,4270.4673,-11556.152,48504.598
1300356.6911108324,-59342.246,-46697.348,25212.566,-11995.891,35132.242,4269.0024,-11555.339,48539.96
1300356.6951108288,-59326.38,-46679.04,25217.326,-11995.117,35146.28,4283.529,-11548.625,49438.03
1300356.699110825,-59288.7,-46644.043,25251.1,-11994.792,35179.688,4291.992,-11547.934,49998.047
1300356.7031108215,-59275.8,-46628.34,25255.941,-11994.589,35185.305,4280.3145,-11553.02,49498.863
1300356.7071108178,-59317.426,-46670.168,25214.072,-11995.158,35157.105,4264.5674,-11554.362,48484.05
1300356.7111108142,-59346.6,-46692.953,25193.035,-11995.605,35146.61,4264.079,-11555.258,48607.91
1300356.7151108107,-59329.957,-46670.613,25216.594,-11996.094,35174.562,4277.303,-11554.851,49545.492
1300356.719110807,-59300.17,-46648.03,25255.088,-11996.338,35202.19,4287.5977,-11556.519,50034.75
1300356.7231108034,-59295.207,-46646.973,25257.324,-11997.681,35174.6,4284.0986,-11558.1875,49498.17
1300356.7271107996,-59330.73,-46676.35,25223.877,-11995.769,35143.8,4269.45,-11560.344,48512.98
1300356.731110796,-59358.36,-46689.414,25197.795,-11993.979,35150.96,4268.148,-11558.1875,48536.5
1300356.7351107923,-59326.457,-46664.43,25217.734,-11992.31,35171.633,4281.169,-11556.396,49490.316
1300356.7391107888,-59303.223,-46652.06,25248.455,-11994.914,35189.535,4287.4756,-11559.001,49946.617
1300356.743110785,-59305.098,-46656.13,25252.035,-11994.67,35186.484,4278.3613,-11562.785,49439.25
1300356.7471107815,-59324.75,-46672.08,25223.918,-11991.008,35148.234,4263.55,-11559.652,48501.508
1300356.751110778,-59341.188,-46672.324,25202.678,-11988.403,35141.074,4266.5205,-11553.061,48623.293
1300356.7551107742,-59321.086,-46657.15,25216.025,-11990.723,35172.0,4281.128,-11549.072,49526.004
1300356.7591107707,-59293.457,-46646.04,25243.693,-11994.385,35198.0,4291.1787,-11547.485,50040.12
1300356.763110767,-59299.277,-46651.9,25246.258,-11996.582,35189.13,4283.9766,-11549.765,49503.176
1300356.7671107634,-59325.93,-46671.387,25209.107,-11996.542,35149.58,4271.81,-11545.695,48510.418
1300356.7711107596,-59347.496,-46685.547,25189.453,-11994.914,35134.36,4273.4375,-11542.277,48588.625
1300356.775110756,-59330.203,-46666.707,25214.072,-11995.199,35169.35,4284.017,-11546.428,49482.06
1300356.7791107523,-59306.562,-46650.84,25253.744,-11995.524,35195.965,4291.545,-11550.212,49907.188
1300356.7831107487,-59302.86,-46647.383,25259.645,-11993.612,35183.27,4284.546,-11551.2295,49423.543
1300356.7871107452,-59333.133,-46679.973,25223.959,-11993.042,35145.266,4271.037,-11548.259,48513.594
1300356.7911107414,-59359.945,-46704.348,25200.807,-11993.9375,35141.44,4274.1294,-11539.999,48618.492
1300356.795110738,-59340.496,-46677.656,25202.271,-11994.101,35181.4,4286.743,-11542.5625,49517.254
1300356.7991107341,-59308.72,-46652.184,25245.322,-11994.792,35194.54,4297.282,-11537.313,50046.023
1300356.8031107306,-59303.02,-46643.27,25250.488,-11994.955,35184.773,4289.4697,-11538.452,49511.477
1300356.8071107268,-59338.22,-46670.574,25217.611,-11994.914,35147.137,4276.4893,-11536.337,48529.83
1300356.8111107233,-59359.094,-46694.906,25185.182,-11995.932,35137.41,4276.6523,-11534.262,48626.14
1300356.8151107195,-59340.82,-46682.54,25212.566,-11995.361,35161.46,4285.1562,-11533.041,49446.047
1300356.819110716,-59312.258,-46658.773,25245.688,-11994.141,35187.34,4290.8125,-11540.69,50007.734
1300356.8231107125,-59312.38,-46656.58,25249.635,-11994.792,35172.527,4285.5225,-11543.661,49520.266
1300356.8271107087,-59339.684,-46680.95,25221.803,-11994.711,35133.914,4273.8447,-11540.771,48537.273
1300356.8311107052,-59354.82,-46686.65,25199.219,-11993.49,35141.766,4276.123,-11537.272,48691.164
1300356.8351107014,-59337.89,-46663.656,25210.693,-11993.571,35182.008,4289.022,-11534.058,49560.59
1300356.8391106979,-59309.164,-46640.953,25243.328,-11994.345,35197.594,4295.6543,-11534.262,50022.34
1300356.843110694,-59302.33,-46639.85,25258.912,-11993.164,35177.164,4287.679,-11532.878,49454.348
1300356.8471106905,-59332.52,-46667.684,25225.098,-11992.595,35150.676,4274.048,-11529.623,48419.273
1300356.851110687,-59355.266,-46683.188,25197.266,-11992.88,35144.613,4275.0654,-11527.548,48576.17
1300356.8551106832,-59327.56,-46654.625,25214.885,-11990.234,35176.92,4287.0283,-11527.466,49523.848
1300356.8591106797,-59295.492,-46633.87,25252.523,-11992.025,35199.3,4296.4277,-11529.216,50065.676
1300356.863110676,-59300.62,-46642.215,25255.127,-11995.321,35181.52,4289.795,-11534.546,49517.293
1300356.8671106724,-59329.062,-46666.18,25207.928,-11994.467,35148.355,4274.862,-11534.506,48538.13
1300356.8711106686,-59344.363,-46680.95,25195.232,-11991.659,35147.95,4276.367,-11526.896,48666.18
1300356.875110665,-59319.62,-46657.15,25218.426,-11990.479,35179.484,4288.249,-11524.333,49579.715
1300356.8791106613,-59287.883,-46632.164,25251.629,-11991.577,35208.496,4292.7246,-11531.25,50071.777
1300356.8831106578,-59295.777,-46645.875,25251.14,-11993.042,35192.508,4285.1157,-11533.285,49506.55
1300356.8871106543,-59323.367,-46678.633,25220.459,-11993.164,35154.785,4269.328,-11533.407,48545.125
1300356.8911106505,-59348.227,-46681.766,25203.37,-11993.002,35159.508,4271.2812,-11531.21,48687.582
1300356.895110647,-59331.3,-46663.168,25219.688,-11992.432,35199.3,4281.047,-11530.3955,49515.06
1300356.8991106432,-59303.633,-46649.742,25248.576,-11993.449,35202.19,4288.9814,-11528.769,49946.656
1300356.9031106397,-59295.004,-46648.195,25257.488,-11994.263,35188.19,4282.4707,-11529.989,49487.793
1300356.907110636,-59323.895,-46668.62,25235.557,-11993.408,35162.723,4269.3687,-11530.762,48568.645
1300356.9111106324,-59345.867,-46675.215,25216.35,-11990.397,35163.535,4272.1357,-11527.182,48696.004
1300356.9151106286,-59334.395,-46663.37,25218.791,-11993.774,35193.36,4284.424,-11527.141,49629.64
1300356.919110625,-59290.734,-46634.48,25257.244,-11996.054,35198.49,4294.1895,-11525.065,50099.773
1300356.9231106215,-59296.43,-46655.723,25262.412,-11996.379,35188.03,4283.9766,-11529.989,49470.95
1300356.9271106177,-59332.562,-46690.715,25227.744,-11997.641,35147.664,4268.026,-11532.309,48485.883
1300356.9311106142,-59355.348,-46697.715,25205.771,-11995.6875,35149.496,4265.3403,-11533.366,48554.73
1300356.9351106104,-59344.28,-46682.945,25217.246,-11995.402,35185.71,4275.2686,-11533.041,49529.746
1300356.939110607,-59313.438,-46652.957,25260.865,-11995.524,35199.992,4282.7964,-11534.424,50030.438
1300356.9431106031,-59306.52,-46655.805,25259.4,-11995.321,35188.52,4280.0293,-11532.634,49525.188
1300356.9471105996,-59335.086,-46677.33,25221.477,-11994.792,35161.38,4268.514,-11528.564,48557.863
1300356.9511105958,-59356.773,-46676.637,25200.928,-11992.554,35160.81,4268.1074,-11527.873,48637.332
1300356.9551105923,-59342.98,-46663.7,25220.988,-11992.1875,35191.285,4279.1343,-11529.297,49492.35
1300356.9591105888,-59308.39,-46640.87,25250.814,-11995.891,35199.953,4288.656,-11530.6,50031.375
1300356.963110585,-59299.562,-46642.418,25249.838,-11998.291,35175.418,4280.233,-11534.506,49495.08
1300356.9671105815,-59341.188,-46667.81,25227.418,-11996.135,35154.703,4265.788,-11537.476,48486.74
1300356.9711105777,-59362.348,-46680.867,25205.69,-11993.083,35155.805,4264.608,-11530.6,48637.492
1300356.9751105742,-59341.797,-46670.37,25229.941,-11992.554,35173.055,4276.245,-11529.989,49468.344
1300356.9791105704,-59311.688,-46650.8,25266.236,-11991.943,35198.367,4285.4004,-11529.379,49990.438
1300356.9831105669,-59308.027,-46651.777,25265.748,-11994.385,35191.164,4278.7275,-11526.774,49486.53
1300356.987110563,-59333.008,-46667.32,25228.72,-11993.368,35159.71,4264.038,-11526.123,48533.53
1300356.9911105596,-59352.824,-46678.67,25205.771,-11993.246,35152.02,4266.2354,-11525.635,48715.17
1300356.995110556,-59336.348,-46650.96,25223.918,-11995.605,35181.195,4275.35,-11530.233,49551.883
1300356.9991105522,-59300.99,-46624.39,25263.672,-11994.751,35197.88,4282.5117,-11533.8955,49986.9
1300357.0031105487,-59303.145,-46641.316,25262.98,-11995.81,35184.043,4276.286,-11533.285,49399.336
1300357.007110545,-59344.363,-46676.516,25225.383,-11996.135,35157.758,4264.974,-11530.478,48448.324
1300357.0111105414,-59367.555,-46687.543,25196.777,-11996.623,35154.785,4266.2764,-11529.013,48612.1
1300357.0151105376,-59362.55,-46675.215,25212.688,-11996.501,35188.76,4278.8086,-11526.652,49439.94
1300357.019110534,-59320.598,-46649.457,25259.521,-11997.152,35195.926,4284.668,-11528.402,49923.383
1300357.0231105303,-59297.16,-46644.207,25254.68,-11994.792,35191.164,4272.461,-11534.587,49386.92
1300357.0271105268,-59315.88,-46659.305,25239.99,-11990.194,35166.18,4256.3477,-11536.377,48423.707
1300357.0311105233,-59340.375,-46673.22,25216.188,-11988.566,35166.22,4259.603,-11534.831,48596.965
1300357.0351105195,-59326.418,-46660.727,25238.69,-11990.112,35187.418,4271.8506,-11538.249,49541.14
1300357.039110516,-59297.773,-46637.695,25269.898,-11992.392,35198.082,4282.756,-11535.075,50005.984
1300357.0431105122,-59300.375,-46648.766,25269.98,-11994.629,35189.008,4273.4375,-11537.802,49358.32
1300357.0471105087,-59333.66,-46679.12,25234.742,-11993.083,35157.35,4259.074,-11536.987,48406.78
1300357.051110505,-59352.54,-46692.344,25215.414,-11991.821,35159.953,4258.0566,-11533.732,48577.84
1300357.0551105014,-59337.934,-46673.992,25242.229,-11992.636,35202.965,4268.1074,-11537.028,49557.54
1300357.0591104976,-59299.523,-46646.973,25268.596,-11992.88,35212.08,4274.0073,-11537.761,50006.348
1300357.063110494,-59298.992,-46647.34,25278.77,-11991.781,35181.234,4264.6895,-11540.527,49330.08
1300357.0671104905,-59339.277,-46679.527,25243.775,-11992.392,35154.785,4250.6514,-11545.939,48388.31
1300357.0711104868,-59357.79,-46685.547,25210.084,-11990.845,35161.824,4252.645,-11547.852,48534.426
1300357.0751104832,-59344.16,-46669.965,25241.904,-11991.862,35185.875,4267.009,-11546.225,49503.543
1300357.0791104794,-59311.16,-46645.633,25273.805,-11992.758,35201.457,4276.4487,-11542.196,49970.215
1300357.083110476,-59305.91,-46642.742,25283.53,-11991.008,35190.348,4267.5376,-11542.685,49314.09
1300357.0871104721,-59346.273,-46677.37,25233.807,-11990.031,35165.73,4252.1567,-11543.335,48302.938
1300357.0911104686,-59365.234,-46693.562,25216.39,-11989.299,35172.65,4252.889,-11542.114,48501.14
1300357.0951104648,-59344.28,-46674.684,25237.021,-11990.723,35200.727,4268.514,-11539.551,49517.254
1300357.0991104613,-59310.305,-46645.59,25281.902,-11990.356,35209.312,4275.594,-11536.621,49955.406
1300357.1031104578,-59319.746,-46657.023,25278.32,-11991.496,35200.97,4268.2295,-11535.808,49412.52
1300357.107110454,-59351.848,-46685.832,25235.637,-11993.49,35166.22,4256.755,-11532.756,48468.184
1300357.1111104505,-59368.043,-46698.324,25223.877,-11993.164,35165.285,4261.3525,-11530.314,48655.64
1300357.1151104467,-59352.867,-46679.08,25237.672,-11994.67,35190.31,4275.5537,-11527.426,49550.984
1300357.1191104432,-59322.473,-46657.594,25271.404,-11995.483,35202.15,4282.959,-11527.344,49991.008
1300357.1231104394,-59324.383,-46664.105,25267.334,-11996.135,35189.293,4276.286,-11529.175,49406.09
1300357.1271104359,-59362.957,-46690.39,25231.365,-11995.402,35168.094,4263.4277,-11527.67,48488.363
1300357.131110432,-59373.13,-46696.168,25218.1,-11992.473,35170.41,4265.4624,-11525.513,48606.203
1300357.1351104286,-59338.586,-46661.46,25244.549,-11990.723,35205.69,4277.2217,-11524.862,49498.863
1300357.139110425,-59298.953,-46633.098,25282.512,-11991.943,35226.277,4280.2734,-11532.553,49987.793
1300357.1431104213,-59283.125,-46619.63,25276.531,-11991.821,35205.77,4268.3516,-11535.278,49359.785
1300357.1471104177,-59305.42,-46635.62,25249.309,-11989.746,35168.17,4255.29,-11539.145,48405.07
1300357.151110414,-59299.562,-46637.41,25222.412,-11988.852,35171.875,4259.1553,-11535.522,48684.734
1300357.1551104104,-59273.438,-46616.293,25242.31,-11989.584,35200.074,4270.8335,-11540.771,49635.99
1300357.1591104066,-59245.89,-46599.082,25286.906,-11991.415,35218.668,4278.4424,-11545.288,50072.062
1300357.163110403,-59246.176,-46599.45,25289.756,-11990.438,35206.625,4268.7583,-11548.95,49395.387
1300357.1671103993,-59277.55,-46617.598,25234.05,-11987.753,35171.957,4252.075,-11546.184,48421.957
1300357.1711103958,-59291.832,-46628.133,25219.158,-11984.335,35175.54,4253.459,-11540.771,48606.65
1300357.1751103923,-59266.562,-46605.797,25249.229,-11982.097,35206.055,4264.364,-11537.72,49601.727
1300357.1791103885,-59238.242,-46584.23,25285.482,-11982.3,35212.566,4269.3687,-11539.145,50044.19
1300357.183110385,-59248.414,-46592.652,25284.018,-11983.684,35199.547,4260.8237,-11544.312,49381.39
1300357.1871103812,-59288.902,-46625.816,25252.28,-11985.026,35164.918,4249.2676,-11548.625,48485.555
1300357.1911103777,-59307.742,-46642.09,25221.6,-11987.631,35159.63,4254.3135,-11545.98,48715.293
1300357.195110374,-59281.496,-46619.344,25240.805,-11989.218,35193.156,4269.409,-11546.713,49623.82
1300357.1991103704,-59256.43,-46598.633,25278.688,-11990.601,35208.414,4276.286,-11555.542,50004.723
1300357.2031103666,-59270.55,-46617.188,25276.855,-11991.415,35191.57,4265.869,-11560.832,49268.15
1300357.207110363,-59309.9,-46651.082,25236.451,-11991.049,35167.645,4251.343,-11559.57,48352.05
1300357.2111103595,-59319.01,-46649.824,25221.885,-11991.008,35161.5,4252.889,-11555.461,48683.555
1300357.2151103558,-59292.688,-46631.27,25245.688,-11988.607,35204.59,4263.4277,-11554.525,49697.88
1300357.2191103522,-59263.55,-46620.04,25280.762,-11989.787,35215.863,4270.2637,-11553.142,50102.54
1300357.2231103485,-59267.05,-46623.008,25267.783,-11991.984,35195.438,4262.0444,-11554.321,49400.8
1300357.227110345,-59299.848,-46649.254,25231.771,-11990.438,35166.016,4250.366,-11552.124,48437.543
1300357.2311103411,-59313.07,-46656.7,25224.406,-11988.77,35169.84,4253.6216,-11547.689,48679.527
1300357.2351103376,-59290.652,-46639.082,25248.373,-11989.502,35191.977,4268.392,-11538.656,49661.824
1300357.239110334,-59267.945,-46625.246,25278.484,-11990.805,35211.914,4275.879,-11534.14,50091.758
1300357.2431103303,-59268.19,-46627.645,25286.703,-11992.31,35195.76,4270.4673,-11531.982,49387.777
1300357.2471103268,-59302.453,-46645.387,25252.809,-11990.438,35164.55,4256.5107,-11532.634,48459.15
1300357.251110323,-59324.344,-46652.47,25236.777,-11986.125,35167.523,4254.9644,-11531.25,48701.582
1300357.2551103195,-59296.957,-46627.156,25257.773,-11984.904,35200.195,4267.009,-11527.67,49641.156
1300357.2591103157,-59254.76,-46599.57,25285.605,-11987.753,35223.43,4276.2046,-11524.333,50105.715
1300357.2631103122,-59258.996,-46605.55,25276.246,-11988.403,35200.156,4270.671,-11524.252,49453.816
1300357.2671103084,-59296.51,-46631.676,25248.496,-11987.427,35172.85,4260.9863,-11523.886,48453.125
1300357.2711103049,-59313.355,-46641.805,25234.945,-11986.166,35175.906,4267.9854,-11519.572,48720.703
1300357.2751103013,-59284.953,-46626.875,25254.03,-11985.312,35213.22,4282.959,-11519.206,49711.47
1300357.2791102976,-59255.21,-46606.203,25295.98,-11986.735,35230.55,4289.144,-11522.258,50129.395
1300357.283110294,-59259.117,-46606.812,25300.13,-11988.281,35209.434,4278.9307,-11524.292,49452.07
1300357.2871102903,-59299.195,-46631.227,25263.795,-11985.922,35187.01,4264.852,-11525.717,48449.26
1300357.2911102867,-59310.06,-46650.637,25244.467,-11983.806,35186.2,4268.3516,-11525.146,48653.16
1300357.295110283,-59282.637,-46611.9,25262.29,-11983.358,35211.59,4281.9824,-11525.229,49672.527
1300357.2991102794,-59258.344,-46588.42,25300.13,-11984.213,35234.457,4287.3945,-11528.483,50151.53
1300357.3031102757,-59263.957,-46602.785,25295.004,-11985.312,35215.496,4278.117,-11531.657,49446.535
1300357.307110272,-59295.574,-46636.434,25258.709,-11984.985,35182.66,4267.8223,-11528.28,48561.973
1300357.3111102686,-59307.824,-46646.812,25244.385,-11984.538,35186.605,4272.9087,-11520.549,48819.297
1300357.3151102648,-59280.48,-46614.055,25276.734,-11983.847,35215.535,4288.4116,-11515.585,49707.97
1300357.3191102613,-59256.43,-46583.21,25309.611,-11982.87,35226.48,4295.8984,-11518.433,50130.453
1300357.3231102575,-59259.81,-46596.113,25296.184,-11983.114,35205.73,4283.1626,-11522.583,49418.703
1300357.327110254,-59291.63,-46629.926,25263.428,-11981.975,35178.875,4269.857,-11521.484,48455.12
1300357.3311102502,-59311.973,-46639.65,25247.111,-11980.876,35187.297,4275.9604,-11518.026,48788.656
1300357.3351102467,-59284.832,-46616.824,25266.887,-11980.266,35211.426,4289.7544,-11517.578,49766.195
1300357.339110243,-59255.453,-46589.926,25293.295,-11983.032,35219.85,4295.207,-11522.258,50210.816
1300357.3431102394,-59271.61,-46604.574,25294.434,-11983.928,35204.387,4284.302,-11532.064,49486.043
1300357.3471102358,-59310.426,-46647.79,25260.05,-11984.131,35170.41,4269.165,-11532.593,48517.5
1300357.351110232,-59324.707,-46654.094,25241.74,-11982.463,35169.516,4275.594,-11527.1,48747.723
1300357.3551102285,-59292.48,-46627.566,25261.598,-11982.748,35204.227,4287.2314,-11524.618,49763.836
1300357.3591102248,-59266.195,-46602.95,25292.197,-11983.317,35237.754,4293.7827,-11525.473,50208.66
1300357.3631102212,-59279.22,-46610.35,25297.568,-11981.445,35213.582,4286.133,-11528.769,49480.227
1300357.3671102175,-59314.74,-46640.383,25254.314,-11981.853,35175.496,4273.2344,-11525.391,48506.51
1300357.371110214,-59330.85,-46650.758,25236.248,-11980.144,35181.97,4275.635,-11524.374,48747.03
1300357.3751102102,-59309.98,-46633.426,25259.238,-11983.5205,35210.613,4291.1787,-11524.455,49716.88
1300357.3791102066,-59274.66,-46605.266,25292.521,-11984.294,35229.047,4298.95,-11525.31,50216.84
1300357.383110203,-59280.355,-46612.875,25292.521,-11983.5205,35210.207,4288.8184,-11528.198,49463.625
1300357.3871101993,-59319.824,-46640.3,25252.768,-11982.992,35183.84,4277.6694,-11525.839,48515.79
1300357.3911101958,-59333.293,-46644.168,25230.836,-11980.591,35192.668,4281.494,-11522.868,48818.81
1300357.395110192,-59307.414,-46619.793,25266.643,-11982.016,35225.14,4294.149,-11522.827,49798.098
1300357.3991101885,-59274.05,-46600.508,25295.33,-11981.649,35239.383,4299.886,-11526.083,50220.746
1300357.4031101847,-59287.355,-46608.44,25290.04,-11980.591,35214.4,4288.0454,-11533.081,49463.83
1300357.4071101812,-59320.152,-46634.605,25244.264,-11979.858,35191.61,4273.926,-11533.325,48535.523
1300357.4111101774,-59334.68,-46650.35,25236.37,-11977.499,35190.39,4274.0073,-11535.93,48742.11
1300357.4151101739,-59305.22,-46620.445,25269.207,-11976.481,35213.867,4288.371,-11531.413,49725.87
1300357.4191101703,-59272.746,-46596.316,25299.398,-11978.516,35229.453,4296.509,-11531.982,50224.812
1300357.4231101666,-59284.75,-46611.086,25288.738,-11980.429,35219.24,4284.7495,-11536.906,49457.44
1300357.427110163,-59317.305,-46639.61,25250.938,-11979.248,35186.32,4270.793,-11537.069,48510.176
1300357.4311101593,-59336.223,-46656.58,25238.607,-11977.824,35188.723,4274.577,-11536.133,48813.965
1300357.4351101557,-59311.16,-46626.875,25261.883,-11978.638,35219.156,4291.26,-11533.651,49821.004
1300357.439110152,-59265.832,-46592.695,25296.021,-11978.231,35233.562,4299.642,-11530.884,50221.113
1300357.4431101484,-59275.598,-46606.855,25294.11,-11978.638,35222.617,4289.6323,-11530.6,49450.32
1300357.4471101447,-59316.246,-46636.844,25249.35,-11977.661,35197.594,4279.541,-11529.297,48510.664
1300357.4511101411,-59326.824,-46645.754,25238.648,-11977.499,35196.492,4283.366,-11527.182,48777.63
1300357.4551101376,-59306.52,-46628.5,25259.562,-11979.208,35228.312,4296.3057,-11526.245,49718.67
1300357.4591101338,-59284.02,-46615.03,25284.059,-11980.0625,35245.32,4304.5654,-11525.146,50176.555
1300357.4631101303,-59293.094,-46624.555,25297.16,-11981.323,35209.516,4296.916,-11528.32,49442.383
1300357.4671101265,-59312.746,-46633.06,25250.896,-11979.533,35175.62,4283.6104,-11528.32,48557.902
1300357.471110123,-59330.73,-46642.01,25225.994,-11980.185,35189.453,4286.3364,-11525.229,48887.492
1300357.4751101192,-59301.11,-46617.516,25255.332,-11978.476,35225.3,4298.34,-11523.153,49805.746
1300357.4791101157,-59275.637,-46598.758,25290.895,-11980.0625,35229.9,4304.9316,-11521.688,50217.125
1300357.483110112,-59293.336,-46615.438,25285.686,-11982.666,35211.55,4293.9863,-11528.524,49458.17
1300357.4871101084,-59329.145,-46654.01,25249.268,-11981.283,35186.688,4280.7617,-11529.623,48467.33
1300357.4911101048,-59341.797,-46652.508,25237.875,-11979.492,35187.703,4285.9297,-11527.263,48795.574
1300357.495110101,-59319.703,-46629.56,25256.512,-11982.016,35211.02,4301.107,-11524.821,49864.22
1300357.4991100975,-59290.203,-46612.02,25289.55,-11984.619,35230.266,4306.234,-11527.182,50196.086
1300357.5031100938,-59291.26,-46617.11,25291.3,-11984.823,35211.344,4296.3057,-11528.361,49485.76
1300357.5071100902,-59324.016,-46643.066,25251.22,-11982.626,35181.684,4285.6445,-11525.31,48604.98
1300357.5111100865,-59332.766,-46645.387,25235.107,-11979.858,35182.66,4290.08,-11520.874,48943.44
1300357.515110083,-59306.03,-46625.164,25260.336,-11980.51,35208.457,4298.0957,-11522.787,49831.586
1300357.5191100792,-59278.77,-46611.41,25295.41,-11982.056,35223.55,4302.368,-11526.286,50162.234
1300357.5231100756,-59290.246,-46617.188,25287.965,-11982.097,35199.016,4290.6904,-11529.297,49352.05
1300357.527110072,-59330.0,-46648.316,25247.152,-11982.3,35175.742,4278.3203,-11529.704,48546.797
1300357.5311100683,-59341.066,-46654.5,25234.54,-11983.48,35164.348,4282.064,-11528.198,48955.242
1300357.5351100648,-59322.105,-46639.65,25259.766,-11983.562,35209.27,4296.224,-11528.483,49908.69
1300357.539110061,-59290.0,-46609.58,25287.03,-11984.009,35215.82,4303.4263,-11525.432,50232.586
1300357.5431100575,-59294.07,-46616.58,25283.367,-11982.951,35193.035,4290.8936,-11529.257,49440.227
1300357.5471100537,-59330.406,-46642.215,25246.258,-11980.673,35172.08,4274.089,-11532.023,48551.516
1300357.5511100502,-59343.344,-46651.855,25234.904,-11980.144,35175.824,4277.3438,-11532.959,48786.746
1300357.5551100464,-59323.0,-46635.99,25258.79,-11981.649,35213.504,4288.0454,-11533.447,49745.65
1300357.5591100429,-59290.855,-46605.184,25293.174,-11980.144,35225.344,4292.44,-11532.349,50202.598
1300357.5631100393,-59293.582,-46609.785,25283.123,-11979.736,35211.344,4279.8667,-11536.499,49413.008
1300357.5671100356,-59315.227,-46626.387,25250.855,-11977.051,35184.977,4268.2295,-11537.069,48578.94
1300357.571110032,-59305.383,-46614.625,25239.707,-11973.552,35187.5,4271.037,-11538.005,48907.39
1300357.5751100283,-59277.793,-46591.758,25263.145,-11973.552,35223.31,4282.186,-11542.277,49833.05
1300357.5791100247,-59250.246,-46567.223,25294.354,-11974.854,35234.945,4287.2314,-11544.23,50222.617
1300357.583110021,-59235.516,-46547.324,25295.98,-11972.168,35213.785,4274.8213,-11546.225,49451.54
1300357.5871100174,-59257.246,-46560.957,25260.377,-11970.012,35192.098,4261.068,-11548.381,48554.934
1300357.5911100137,-59261.56,-46569.703,25241.375,-11967.448,35202.92,4262.207,-11547.893,48934.164
1300357.5951100101,-59216.066,-46527.387,25269.248,-11964.396,35241.336,4271.6475,-11549.113,49862.957
1300357.5991100066,-59176.312,-46493.246,25310.914,-11962.606,35266.48,4271.9727,-11553.386,50210.53
1300357.6031100028,-59173.625,-46490.6,25301.637,-11961.67,35240.723,4259.074,-11554.077,49391.848
1300357.6071099993,-59195.723,-46504.07,25266.074,-11959.351,35195.76,4249.3086,-11550.171,48452.72
1300357.6111099955,-59188.07,-46496.34,25261.15,-11955.7295,35214.113,4253.703,-11548.259,48862.266
1300357.615109992,-59147.504,-46463.867,25286.174,-11954.102,35257.242,4269.613,-11544.353,49895.223
1300357.6191099882,-59117.84,-46431.562,25315.309,-11957.031,35271.85,4275.4316,-11548.91,50227.62
1300357.6231099847,-59119.996,-46428.67,25310.182,-11957.683,35249.15,4265.3403,-11552.084,49496.42
1300357.6271099811,-59155.234,-46455.16,25278.525,-11956.95,35207.03,4252.9707,-11551.84,48567.383
1300357.6311099774,-59165.246,-46462.89,25256.918,-11956.95,35223.633,4258.1787,-11548.422,48936.24
1300357.6351099738,-59133.14,-46429.484,25291.748,-11955.444,35262.656,4271.932,-11546.103,49842.9
1300357.63910997,-59096.723,-46405.234,25334.19,-11955.038,35263.43,4274.8213,-11547.485,50169.8
1300357.6431099665,-59110.477,-46412.438,25315.797,-11955.363,35246.543,4262.2886,-11550.293,49395.875
1300357.6471099628,-59146.812,-46442.75,25266.48,-11953.817,35228.027,4250.244,-11547.7295,48528.08
1300357.6511099592,-59165.246,-46447.023,25268.678,-11952.353,35232.87,4254.11,-11543.132,48949.832
1300357.6551099555,-59141.4,-46429.16,25299.725,-11954.0205,35266.074,4265.869,-11544.556,49914.062
1300357.659109952,-59107.91,-46410.402,25325.562,-11955.038,35274.17,4272.624,-11543.254,50278.65
1300357.6631099484,-59125.367,-46421.062,25318.238,-11956.137,35249.31,4263.3467,-11546.509,49438.723
1300357.6671099446,-59174.766,-46461.1,25288.738,-11957.235,35213.34,4251.058,-11550.375,48520.348
1300357.671109941,-59194.418,-46480.145,25273.846,-11956.015,35218.1,4257.6904,-11545.817,48809.57
1300357.6751099373,-59170.207,-46464.6,25285.4,-11956.055,35253.95,4274.7803,-11541.992,49785.08
1300357.6791099338,-59144.86,-46456.625,25321.209,-11957.927,35273.355,4278.3203,-11544.678,50225.71
1300357.68310993,-59152.957,-46470.867,25314.861,-11960.327,35250.082,4261.2715,-11548.34,49402.914
1300357.6871099265,-59193.156,-46503.664,25275.635,-11958.944,35212.445,4245.443,-11546.0205,48517.906
1300357.6911099227,-59212.484,-46519.086,25273.602,-11956.869,35223.105,4249.919,-11540.487,48932.13
1300357.6951099192,-59193.973,-46495.85,25297.771,-11959.188,35250.125,4266.7646,-11533.773,49888.875
1300357.6991099156,-59170.535,-46482.707,25317.1,-11961.304,35264.85,4273.2344,-11531.332,50240.684
1300357.7031099119,-59185.63,-46498.496,25314.17,-11962.158,35243.492,4265.3,-11533.773,49409.71
1300357.7071099083,-59223.066,-46530.844,25273.357,-11960.693,35211.754,4253.093,-11533.8545,48535.28
1300357.7111099046,-59231.49,-46541.79,25257.365,-11960.083,35210.777,4258.8706,-11529.826,48956.504
1300357.715109901,-59207.44,-46523.4,25287.924,-11963.054,35232.668,4275.3096,-11530.884,49898.926
1300357.7191098973,-59189.94,-46507.938,25319.785,-11964.641,35247.316,4278.7275,-11536.255,50253.418
1300357.7231098937,-59208.62,-46519.125,25309.043,-11964.233,35224.812,4262.451,-11541.789,49414.227
1300357.72710989,-59245.324,-46555.055,25267.863,-11962.077,35201.99,4247.8843,-11543.986,48483.24
1300357.7311098864,-59261.312,-46568.562,25257.854,-11961.345,35213.34,4253.9473,-11541.016,48928.184
1300357.735109883,-59237.67,-46547.773,25288.535,-11963.501,35248.13,4270.345,-11535.563,49902.06
1300357.7391098791,-59213.746,-46522.258,25323.812,-11963.095,35257.367,4279.297,-11531.169,50247.03
1300357.7431098756,-59232.26,-46544.395,25309.57,-11964.885,35237.184,4270.63,-11529.704,49453.98
1300357.7471098718,-59258.75,-46569.703,25267.578,-11965.007,35205.973,4258.708,-11525.391,48577.07
1300357.7511098683,-59272.543,-46577.92,25262.98,-11964.966,35217.41,4264.4453,-11524.455,48991.21
1300357.7551098645,-59254.6,-46560.914,25286.582,-11966.635,35250.57,4275.7163,-11525.351,49903.484
1300357.759109861,-59236.33,-46556.234,25315.064,-11968.872,35244.1,4277.2627,-11529.826,50178.062
1300357.7631098572,-59250.613,-46571.535,25309.775,-11969.971,35215.617,4264.7705,-11538.168,49370.688
1300357.7671098537,-59285.77,-46598.51,25264.648,-11968.628,35200.645,4250.8545,-11541.423,48550.496
1300357.7711098501,-59293.176,-46603.64,25255.576,-11967.123,35205.77,4256.185,-11538.33,48979.535
1300357.7751098464,-59277.266,-46582.156,25276.246,-11968.628,35241.254,4271.5254,-11530.844,49994.63
1300357.7791098428,-59251.02,-46564.09,25316.773,-11970.785,35247.316,4277.507,-11526.571,50287.19
1300357.783109839,-59263.184,-46576.5,25311.2,-11970.825,35222.74,4267.4155,-11524.536,49414.633
1300357.7871098355,-59302.33,-46605.348,25267.172,-11970.297,35195.8,4258.789,-11520.346,48534.14
1300357.7911098318,-59309.33,-46606.12,25260.498,-11968.913,35201.457,4267.09,-11513.957,48943.36
1300357.7951098282,-59285.32,-46584.758,25286.174,-11969.768,35238.934,4279.0527,-11511.516,49932.496
1300357.7991098245,-59260.742,-46565.188,25311.402,-11971.884,35253.336,4282.634,-11511.963,50327.312
1300357.803109821,-59272.746,-46574.953,25296.713,-11973.267,35227.582,4271.159,-11516.643,49472.902
1300357.8071098174,-59310.508,-46602.54,25258.994,-11972.453,35203.086,4259.1553,-11522.339,48610.637
1300357.8111098136,-59324.016,-46617.92,25248.576,-11972.9,35210.53,4265.4624,-11521.403,49011.355
1300357.81510981,-59301.23,-46598.715,25274.496,-11974.121,35246.137,4278.524,-11520.264,49960.574
1300357.8191098063,-59274.17,-46563.56,25307.455,-11976.685,35258.3,4285.4004,-11516.317,50316.367
1300357.8231098028,-59285.523,-46576.17,25297.201,-11977.011,35236.777,4274.292,-11514.567,49458.496
1300357.827109799,-59321.047,-46609.133,25267.66,-11975.993,35196.98,4261.882,-11515.951,48581.504
1300357.8311097955,-59326.094,-46612.67,25255.088,-11974.406,35210.53,4267.619,-11512.126,49014.61
1300357.8351097917,-59299.44,-46594.08,25284.994,-11975.627,35237.062,4279.3784,-11513.55,49971.805
1300357.8391097882,-59280.844,-46579.305,25307.049,-11979.736,35243.53,4284.0986,-11516.562,50252.605
1300357.8431097846,-59296.715,-46605.594,25299.277,-11981.079,35223.145,4270.996,-11520.305,49369.59
1300357.8471097809,-59336.793,-46633.426,25265.463,-11980.469,35198.406,4259.074,-11522.624,48533.45
1300357.8511097773,-59345.055,-46632.04,25249.268,-11981.079,35210.41,4268.718,-11514.364,49037.234
1300357.8551097736,-59317.508,-46601.89,25272.666,-11981.812,35237.145,4284.79,-11510.905,49984.05
1300357.85910977,-59289.715,-46587.566,25306.846,-11981.894,35250.855,4288.4116,-11514.567,50338.055
1300357.8631097663,-59310.67,-46609.945,25296.021,-11982.463,35224.652,4274.3735,-11516.398,49515.75
1300357.8671097627,-59354.617,-46641.6,25254.639,-11982.097,35194.176,4258.423,-11520.956,48626.26
1300357.871109759,-59359.215,-46643.68,25235.963,-11982.097,35204.47,4261.2305,-11519.125,49021.12
1300357.8751097554,-59333.78,-46626.832,25264.08,-11982.341,35234.09,4272.258,-11520.834,49924.074
1300357.879109752,-59306.723,-46603.8,25311.117,-11983.114,35240.074,4277.0186,-11521.77,50297.08
1300357.8831097481,-59311.81,-46609.418,25296.266,-11983.276,35218.387,4266.2764,-11523.642,49431.6
1300357.8871097446,-59349.49,-46643.066,25259.97,-11982.91,35195.395,4257.406,-11522.38,48554.65
1300357.8911097408,-59353.926,-46645.508,25250.57,-11981.364,35202.598,4265.7065,-11517.294,49072.188
1300357.8951097373,-59320.395,-46608.156,25281.088,-11980.876,35229.453,4281.657,-11513.062,50029.95
1300357.8991097335,-59298.383,-46596.152,25314.291,-11981.771,35241.617,4287.1504,-11510.01,50315.473
1300357.90310973,-59313.965,-46618.53,25298.219,-11981.689,35225.75,4275.106,-11512.939,49415.12
1300357.9071097262,-59344.523,-46637.82,25260.621,-11980.429,35203.29,4257.9346,-11516.724,48505.332
1300357.9111097227,-59346.6,-46633.18,25250.488,-11978.882,35200.36,4260.8237,-11516.113,48940.066
1300357.9151097191,-59321.168,-46608.523,25278.402,-11977.661,35240.6,4272.502,-11521.362,49908.613
1300357.9191097154,-59297.73,-46593.305,25314.902,-11979.33,35245.688,4278.4834,-11523.071,50235.19
1300357.9231097118,-59305.707,-46603.56,25301.555,-11979.248,35225.586,4266.6016,-11524.374,49420.41
1300357.927109708,-59344.32,-46631.105,25259.521,-11979.574,35192.63,4254.72,-11524.211,48559.082
1300357.9311097045,-59359.133,-46640.83,25251.14,-11981.12,35209.598,4261.9224,-11520.264,48967.855
1300357.9351097008,-59330.285,-46618.777,25279.338,-11981.364,35240.926,4278.117,-11516.724,49956.504
1300357.9391096972,-59306.723,-46607.547,25318.28,-11982.463,35253.094,4283.0,-11518.2295,50265.504
1300357.9431096935,-59323.652,-46621.746,25309.367,-11983.358,35214.97,4269.328,-11521.973,49356.977
1300357.94710969,-59350.223,-46643.8,25253.379,-11980.266,35186.035,4256.3477,-11520.59,48572.918
1300357.9511096864,-59359.582,-46652.344,25252.28,-11976.4,35207.848,4258.667,-11522.014,49056.6
1300357.9551096826,-59332.52,-46627.32,25286.703,-11978.72,35241.66,4269.3687,-11524.374,49962.605
1300357.959109679,-59295.086,-46598.27,25315.879,-11979.614,35256.836,4274.536,-11524.902,50236.168
1300357.9631096753,-59313.844,-46623.047,25301.758,-11979.655,35224.45,4262.573,-11528.076,49328.816
1300357.9671096718,-59354.94,-46655.07,25272.746,-11979.289,35186.85,4249.9595,-11529.501,48541.63
1300357.971109668,-59361.535,-46659.1,25253.5,-11976.97,35197.51,4257.9756,-11524.699,49028.32
1300357.9751096645,-59335.98,-46639.65,25278.564,-11978.72,35225.992,4270.671,-11526.815,49957.316
1300357.9791096607,-59305.543,-46618.164,25308.758,-11982.056,35237.387,4273.1934,-11529.379,50251.305
1300357.9831096572,-59322.023,-46629.926,25301.352,-11983.439,35224.61,4259.1147,-11529.094,49443.117
1300357.9871096537,-59362.227,-46666.426,25277.223,-11980.225,35200.93,4246.6636,-11528.076,48606.73
1300357.9911096499,-59363.85,-46668.582,25260.092,-11977.946,35210.695,4252.279,-11526.042,48987.43
1300357.9951096463,-59331.707,-46638.957,25289.43,-11977.661,35233.97,4267.1714,-11523.601,49906.13
1300357.9991096426,-59308.637,-46617.312,25316.57,-11979.411,35240.723,4271.688,-11525.513,50203.777
1300358.003109639,-59323.73,-46630.13,25302.816,-11978.72,35219.77,4262.6143,-11526.327,49358.645
1300358.0071096353,-59355.31,-46661.62,25273.479,-11977.905,35195.56,4252.9707,-11528.076,48547.0
1300358.0111096317,-59364.668,-46658.246,25259.848,-11978.76,35204.305,4259.3184,-11526.571,48999.797
1300358.0151096282,-59335.37,-46625.53,25293.295,-11978.679,35235.516,4273.519,-11520.956,50002.688
1300358.0191096244,-59298.547,-46601.484,25329.916,-11977.987,35248.13,4276.286,-11521.647,50333.05
1300358.023109621,-59315.715,-46623.21,25308.514,-11979.33,35219.28,4264.7705,-11522.665,49401.33
1300358.0271096171,-59361.94,-46661.336,25263.225,-11979.37,35188.07,4254.4355,-11522.299,48529.83
1300358.0311096136,-59370.402,-46662.312,25260.174,-11978.72,35196.25,4262.451,-11517.131,49021.65
1300358.0351096098,-59336.71,-46636.76,25294.963,-11977.295,35236.043,4277.629,-11518.393,50060.1
1300358.0391096063,-59310.832,-46621.055,25327.068,-11979.492,35243.367,4285.075,-11522.583,50347.332
1300358.0431096025,-59323.61,-46634.035,25317.344,-11980.469,35213.137,4274.2515,-11524.78,49416.63
1300358.047109599,-59358.562,-46649.863,25278.443,-11977.214,35193.117,4262.9395,-11525.717,48625.285
1300358.0511095955,-59368.53,-46648.03,25274.008,-11974.65,35209.72,4268.718,-11524.252,49078.086
1300358.0551095917,-59336.836,-46622.6,25286.662,-11974.569,35244.06,4282.6743,-11520.427,49989.668
1300358.0591095882,-59309.9,-46595.703,25324.748,-11975.546,35255.168,4287.6387,-11519.938,50298.055
1300358.0631095844,-59319.62,-46603.965,25312.664,-11973.633,35230.184,4275.1465,-11515.91,49443.402
1300358.0671095809,-59353.07,-46635.906,25280.803,-11970.053,35203.86,4261.312,-11515.707,48585.86
1300358.071109577,-59356.445,-46644.53,25278.158,-11968.791,35218.547,4268.3105,-11514.364,49082.48
1300358.0751095735,-59332.44,-46625.33,25301.514,-11969.971,35252.484,4282.1455,-11514.445,50010.215
1300358.0791095698,-59307.09,-46606.61,25333.62,-11971.029,35248.535,4283.895,-11517.538,50233.93
1300358.0831095662,-59320.152,-46620.688,25314.861,-11969.931,35219.645,4270.671,-11523.193,49359.254
1300358.0871095627,-59361.047,-46658.203,25271.484,-11970.785,35195.64,4259.1147,-11523.193,48553.59
1300358.091109559,-59365.93,-46660.93,25260.58,-11971.802,35211.426,4263.7534,-11521.078,49051.27
1300358.0951095554,-59335.37,-46638.184,25295.29,-11971.477,35240.03,4278.076,-11519.938,50077.965
1300358.0991095516,-59307.17,-46618.29,25324.668,-11972.412,35242.88,4283.0,-11522.705,50364.42
1300358.103109548,-59323.73,-46627.77,25315.309,-11972.616,35203.492,4271.688,-11523.804,49418.336
1300358.1071095443,-59364.137,-46657.676,25271.363,-11971.884,35182.008,4258.545,-11526.571,48584.11
1300358.1111095408,-59372.277,-46656.902,25264.893,-11969.482,35194.582,4265.91,-11521.444,49027.63
1300358.115109537,-59347.496,-46637.004,25294.11,-11969.6455,35227.01,4278.3203,-11519.45,49983.766
1300358.1191095335,-59319.62,-46614.46,25325.195,-11970.866,35247.03,4283.9766,-11519.735,50324.14
1300358.12310953,-59340.09,-46636.07,25312.176,-11972.738,35218.387,4270.8335,-11523.804,49396.812
1300358.1271095262,-59376.223,-46667.48,25263.754,-11971.273,35189.13,4258.789,-11521.281,48578.33
1300358.1311095227,-59366.54,-46666.832,25265.178,-11968.994,35203.207,4266.1133,-11519.857,49142.09
1300358.135109519,-59323.812,-46626.465,25297.08,-11967.855,35234.703,4279.297,-11521.24,50075.36
1300358.1391095154,-59305.055,-46612.996,25325.604,-11969.6045,35242.72,4283.9766,-11522.665,50322.188
1300358.1431095116,-59323.652,-46628.5,25308.758,-11969.076,35216.715,4268.7583,-11527.466,49324.586
1300358.147109508,-59366.133,-46652.996,25266.398,-11967.041,35184.613,4256.307,-11528.076,48473.555
1300358.1511095043,-59374.758,-46651.613,25266.074,-11965.17,35197.836,4264.038,-11521.973,49116.54
1300358.1551095007,-59343.184,-46627.77,25288.738,-11964.274,35241.05,4276.2046,-11520.346,50108.195
1300358.1591094972,-59309.9,-46616.254,25319.5,-11967.407,35240.152,4278.198,-11524.699,50398.6
1300358.1631094934,-59326.54,-46647.176,25316.0,-11969.809,35205.363,4262.899,-11528.85,49451.945
1300358.16710949,-59364.83,-46669.92,25274.09,-11967.57,35195.598,4250.6514,-11527.426,48603.76
1300358.1711094861,-59373.047,-46664.633,25259.727,-11967.204,35211.305,4259.074,-11523.601,49107.504
1300358.1751094826,-59341.594,-46627.688,25289.348,-11968.018,35232.586,4272.99,-11519.653,50068.605
1300358.1791094788,-59310.266,-46609.215,25313.762,-11966.635,35246.297,4275.8384,-11522.583,50332.277
1300358.1831094753,-59329.797,-46623.78,25307.902,-11967.041,35216.637,4262.085,-11524.536,49395.305
1300358.1871094715,-59374.84,-46657.105,25262.818,-11967.651,35196.13,4249.1865,-11524.943,48610.19
1300358.191109468,-59382.246,-46659.344,25257.895,-11966.797,35205.85,4256.958,-11523.886,49133.75
1300358.1951094645,-59346.965,-46627.81,25288.006,-11966.635,35232.22,4270.7114,-11524.821,50019.98
1300358.1991094607,-59324.098,-46615.156,25313.682,-11967.814,35245.85,4274.048,-11527.67,50243.043
1300358.2031094572,-59337.85,-46628.99,25309.123,-11965.373,35234.336,4262.126,-11528.891,49364.95
1300358.2071094534,-59371.707,-46651.9,25273.316,-11963.745,35204.348,4247.762,-11529.216,48596.805
1300358.2111094499,-59379.355,-46656.58,25260.906,-11962.118,35216.555,4253.2554,-11527.914,49120.242
1300358.215109446,-59343.1,-46632.12,25291.098,-11961.548,35254.355,4266.5205,-11527.548,50131.473
1300358.2191094426,-59320.152,-46617.39,25326.621,-11964.274,35256.188,4270.101,-11526.571,50375.57
1300358.2231094388,-59333.215,-46626.914,25306.438,-11963.867,35224.04,4258.5044,-11524.74,49354.492
1300358.2271094352,-59372.766,-46662.8,25261.312,-11961.264,35204.875,4247.925,-11523.682,48538.535
1300358.2311094317,-59383.02,-46662.152,25255.656,-11960.693,35217.855,4256.0225,-11521.77,49050.863
1300358.235109428,-59352.703,-46634.81,25292.848,-11963.461,35239.79,4269.735,-11521.403,50061.08
1300358.2391094244,-59321.86,-46613.61,25321.412,-11965.658,35246.137,4273.4375,-11523.804,50336.387
1300358.2431094206,-59337.77,-46629.723,25302.49,-11967.489,35222.902,4257.4463,-11529.785,49373.535
1300358.247109417,-59373.254,-46660.44,25275.879,-11966.105,35199.098,4244.751,-11527.588,48588.91
1300358.2511094133,-59382.12,-46666.098,25269.207,-11962.484,35234.133,4251.709,-11526.571,49127.727
1300358.2551094098,-59349.895,-46638.957,25295.127,-11961.833,35260.582,4265.4624,-11524.13,50055.176
1300358.259109406,-59324.75,-46617.434,25320.436,-11964.926,35271.16,4266.561,-11524.008,50270.184
1300358.2631094025,-59343.75,-46631.27,25306.357,-11965.942,35232.3,4250.4478,-11527.873,49249.227
1300358.267109399,-59381.39,-46659.14,25271.934,-11963.42,35208.902,4240.4785,-11527.141,48497.4
1300358.2711093952,-59381.473,-46662.56,25268.637,-11961.833,35224.324,4249.8374,-11521.403,49114.95
1300358.2751093917,-59350.465,-46634.688,25301.23,-11961.711,35250.57,4263.265,-11524.008,50113.08
1300358.279109388,-59315.918,-46610.965,25323.73,-11963.583,35267.17,4264.6484,-11526.855,50370.32
1300358.2831093844,-59330.69,-46626.426,25308.799,-11962.891,35242.23,4249.919,-11526.367,49360.19
1300358.2871093806,-59370.08,-46659.63,25283.732,-11959.595,35221.883,4238.729,-11524.699,48545.047
1300358.291109377,-59376.06,-46657.918,25282.023,-11959.799,35229.453,4243.978,-11519.694,49066.12
1300358.2951093733,-59340.984,-46629.19,25300.62,-11958.578,35249.758,4256.1035,-11522.055,50021.688
1300358.2991093697,-59316.734,-46610.8,25324.748,-11960.205,35264.242,4262.004,-11525.676,50307.332
1300358.3031093662,-59335.207,-46627.363,25300.537,-11962.6875,35239.83,4248.1284,-11529.257,49396.527
1300358.3071093624,-59368.86,-46653.934,25278.564,-11959.88,35207.316,4234.945,-11528.524,48592.082
1300358.311109359,-59373.496,-46653.28,25273.234,-11959.311,35224.324,4242.5537,-11527.995,49155.152
1300358.3151093551,-59349.285,-46630.656,25303.63,-11960.979,35255.168,4257.0396,-11528.769,50027.793
1300358.3191093516,-59325.44,-46618.734,25326.701,-11961.914,35267.09,4259.1553,-11526.449,50222.86
1300358.3231093478,-59339.03,-46633.016,25304.566,-11962.524,35243.207,4245.6465,-11526.774,49294.355
1300358.3271093443,-59374.473,-46656.78,25267.213,-11961.63,35220.5,4234.66,-11528.728,48566.652
1300358.3311093405,-59375.695,-46655.64,25271.729,-11959.514,35232.586,4241.903,-11529.419,49185.67
1300358.335109337,-59354.617,-46633.914,25304.852,-11960.571,35265.465,4252.5635,-11532.756,50073.406
1300358.3391093335,-59332.97,-46616.54,25326.254,-11964.763,35269.29,4257.5684,-11533.122,50315.27
1300358.3431093297,-59343.47,-46627.81,25312.217,-11964.355,35233.035,4244.751,-11535.6045,49309.652
1300358.3471093262,-59379.76,-46662.883,25275.229,-11962.932,35206.34,4232.0557,-11538.859,48471.723
1300358.3511093224,-59383.3,-46663.168,25275.96,-11962.973,35226.688,4240.3564,-11534.709,49106.61
1300358.3551093189,-59353.64,-46637.047,25295.777,-11964.804,35256.39,4253.011,-11533.569,50088.867
1300358.359109315,-59323.164,-46620.16,25329.957,-11965.902,35264.49,4255.2085,-11534.872,50348.145
1300358.3631093116,-59339.355,-46636.11,25318.523,-11965.414,35229.74,4240.8857,-11537.68,49332.887
1300358.3671093078,-59381.594,-46668.824,25271.24,-11964.885,35202.68,4229.248,-11541.22,48547.65
1300358.3711093043,-59390.504,-46673.22,25264.121,-11962.81,35229.207,4236.4097,-11541.504,49127.523
1300358.3751093007,-59359.418,-46646.406,25295.98,-11963.42,35261.598,4249.8374,-11541.382,49997.113
1300358.379109297,-59340.008,-46633.75,25327.678,-11966.391,35267.254,4254.883,-11544.23,50228.926
1300358.3831092934,-59358.035,-46656.332,25312.256,-11967.407,35239.46,4240.316,-11549.032,49323.04
1300358.3871092896,-59389.812,-46684.082,25276.531,-11966.635,35207.684,4228.5566,-11547.567,48565.188
1300358.391109286,-59395.59,-46685.67,25265.91,-11965.292,35217.816,4235.1484,-11542.114,49097.008
1300358.3951092823,-59365.44,-46659.18,25298.992,-11966.024,35254.395,4249.634,-11541.789,50072.023
1300358.3991092788,-59341.066,-46634.2,25329.957,-11967.651,35261.598,4251.2207,-11546.713,50349.734
1300358.4031092753,-59354.086,-46648.6,25313.273,-11967.937,35218.953,4236.776,-11547.038,49314.008
1300358.4071092715,-59383.914,-46674.97,25280.682,-11964.966,35194.254,4226.4404,-11543.905,48517.418
1300358.411109268,-59384.44,-46672.61,25271.852,-11962.6875,35209.312,4235.5957,-11540.161,49135.38
1300358.4151092642,-59353.516,-46650.473,25306.805,-11963.745,35246.99,4247.1924,-11542.358,50101.605
1300358.4191092607,-59333.906,-46633.18,25338.787,-11965.576,35258.953,4248.332,-11546.062,50317.914
1300358.423109257,-59360.56,-46653.035,25316.041,-11966.024,35223.023,4233.5615,-11552.45,49283.285
1300358.4271092534,-59398.03,-46684.652,25272.99,-11963.949,35195.68,4221.029,-11554.892,48519.492
1300358.4311092496,-59402.184,-46689.863,25272.46,-11962.973,35217.613,4227.702,-11554.077,49085.98
1300358.435109246,-59375.977,-46671.1,25307.537,-11963.379,35253.543,4240.072,-11554.81,49947.266
1300358.4391092425,-59344.363,-46649.05,25336.752,-11965.373,35257.855,4245.8906,-11551.677,50251.996
1300358.4431092388,-59354.656,-46656.09,25321.412,-11963.135,35221.805,4234.131,-11548.625,49295.777
1300358.4471092352,-59395.1,-46691.61,25279.258,-11961.63,35204.1,4222.738,-11545.654,48527.914
1300358.4511092314,-59390.098,-46678.793,25274.13,-11959.799,35226.688,4230.713,-11543.986,49167.93
1300358.455109228,-59348.84,-46633.832,25302.166,-11958.781,35259.562,4244.548,-11542.725,50075.277
1300358.4591092241,-59328.574,-46617.555,25344.646,-11959.961,35280.887,4246.582,-11543.498,50292.684
1300358.4631092206,-59356.082,-46646.566,25324.83,-11961.752,35242.676,4231.0386,-11546.672,49272.176
1300358.4671092168,-59402.832,-46685.71,25278.076,-11960.449,35210.492,4220.1743,-11547.934,48440.633
1300358.4711092133,-59407.676,-46687.42,25278.32,-11961.345,35230.875,4229.94,-11547.7295,49100.547
1300358.4751092098,-59367.027,-46652.1,25312.867,-11963.542,35262.98,4244.629,-11549.032,50118.938
1300358.479109206,-59338.22,-46631.918,25340.576,-11964.56,35273.195,4249.1455,-11545.085,50388.023
1300358.4831092025,-59356.242,-46655.195,25323.406,-11962.036,35247.4,4237.834,-11540.976,49377.24
1300358.4871091987,-59383.098,-46675.17,25286.459,-11957.52,35215.008,4224.4873,-11539.145,48562.543
1300358.4911091952,-59378.746,-46670.207,25294.719,-11955.404,35243.164,4232.137,-11534.302,49131.31
1300358.4951091914,-59352.46,-46650.15,25327.76,-11956.015,35275.027,4246.745,-11531.942,49991.293
1300358.4991091879,-59325.81,-46628.746,25355.713,-11954.794,35275.758,4250.366,-11531.21,50281.94
1300358.503109184,-59333.78,-46632.246,25337.852,-11952.8,35254.76,4236.2876,-11530.925,49334.312
1300358.5071091806,-59367.92,-46664.797,25295.98,-11954.712,35227.215,4223.918,-11532.187,48545.004
1300358.511109177,-59375.734,-46666.668,25288.371,-11956.055,35244.426,4233.4395,-11532.431,49178.914
1300358.5151091733,-59348.88,-46642.05,25329.875,-11958.415,35273.355,4247.396,-11532.227,50122.4
1300358.5191091697,-59324.098,-46623.74,25357.342,-11959.799,35270.836,4252.1973,-11533.447,50344.77
1300358.523109166,-59347.617,-46647.586,25336.426,-11960.571,35239.664,4237.386,-11535.522,49329.348
1300358.5271091624,-59383.547,-46674.97,25303.549,-11959.433,35226.48,4224.284,-11537.231,48550.293
1300358.5311091586,-59377.81,-46664.473,25296.307,-11958.456,35241.984,4233.032,-11535.116,49208.008
1300358.535109155,-59347.168,-46622.56,25328.207,-11955.16,35271.12,4248.698,-11532.919,50146.973
1300358.5391091513,-59325.402,-46602.95,25358.928,-11956.909,35282.918,4251.628,-11532.756,50306.926
1300358.5431091478,-59344.566,-46632.938,25340.496,-11957.52,35253.258,4237.2236,-11533.122,49281.13
1300358.5471091443,-59380.984,-46670.41,25302.898,-11956.421,35227.38,4226.115,-11533.122,48544.965
1300358.5511091405,-59386.516,-46676.15,25302.857,-11956.584,35241.21,4233.358,-11533.529,49105.55
1300358.555109137,-59351.484,-46648.805,25331.828,-11956.421,35265.79,4245.443,-11534.14,50023.766
1300358.5591091332,-59328.168,-46624.797,25369.385,-11956.503,35267.336,4247.5996,-11537.802,50302.98
1300358.5631091297,-59348.39,-46645.508,25350.668,-11955.648,35251.996,4230.754,-11543.457,49247.684
1300358.567109126,-59378.83,-46671.387,25311.117,-11954.997,35228.516,4220.9067,-11542.644,48509.035
1300358.5711091224,-59380.414,-46668.54,25311.932,-11952.556,35250.082,4229.0854,-11541.016,49188.68
1300358.5751091186,-59352.297,-46639.69,25347.738,-11952.597,35283.33,4244.995,-11540.976,50127.89
1300358.579109115,-59323.367,-46622.887,25376.262,-11953.898,35290.203,4250.7324,-11537.883,50348.348
1300358.5831091115,-59338.992,-46638.754,25358.848,-11955.322,35256.754,4236.125,-11536.255,49315.023
1300358.5871091078,-59373.457,-46658.285,25319.58,-11953.085,35232.465,4225.7896,-11533.651,48574.992
1300358.5911091042,-59375.652,-46656.375,25314.697,-11953.695,35253.336,4233.846,-11531.128,49212.363
1300358.5951091005,-59350.953,-46636.027,25353.598,-11955.688,35278.445,4246.0938,-11535.686,50064.82
1300358.599109097,-59330.73,-46626.75,25385.865,-11957.153,35282.473,4246.948,-11541.708,50297.812
1300358.6031090932,-59341.88,-46639.49,25364.99,-11955.038,35253.418,4233.032,-11540.568,49310.426
1300358.6071090896,-59375.9,-46670.82,25323.324,-11954.224,35240.926,4223.348,-11537.72,48581.055
1300358.6111090858,-59378.625,-46669.07,25318.97,-11955.282,35262.332,4232.0557,-11537.964,49189.902
1300358.6151090823,-59346.723,-46635.906,25354.818,-11955.2,35286.176,4244.5884,-11537.231,50137.047
1300358.6191090788,-59324.06,-46618.492,25389.242,-11955.526,35291.992,4247.5586,-11538.778,50362.918
1300358.623109075,-59345.91,-46632.12,25366.375,-11955.2,35260.457,4232.8696,-11539.429,49310.1
1300358.6271090715,-59377.44,-46655.723,25329.387,-11954.916,35237.59,4225.342,-11536.825,48587.934
1300358.6311090677,-59376.387,-46646.28,25335.613,-11952.841,35257.324,4235.7993,-11534.872,49203.613
1300358.6351090642,-59349.0,-46632.082,25365.234,-11954.956,35282.633,4247.0703,-11533.732,50016.035
1300358.6391090604,-59323.285,-46624.96,25395.469,-11955.933,35296.43,4250.8955,-11532.227,50275.92
1300358.6431090569,-59338.46,-46638.145,25379.395,-11954.916,35266.113,4238.5664,-11530.803,49319.215
1300358.647109053,-59370.117,-46662.965,25346.03,-11953.003,35242.84,4227.458,-11531.616,48628.867
1300358.6511090496,-59371.38,-46655.887,25344.932,-11952.556,35261.8,4237.712,-11527.141,49270.67
1300358.655109046,-59340.66,-46629.723,25377.809,-11954.0205,35301.84,4254.1914,-11524.292,50154.176
1300358.6591090423,-59317.14,-46613.406,25406.7,-11955.282,35298.586,4255.493,-11524.414,50276.29
1300358.6631090387,-59340.05,-46633.14,25385.742,-11955.688,35258.668,4240.8447,-11526.245,49244.1
1300358.667109035,-59378.34,-46664.145,25357.098,-11954.387,35231.203,4228.9634,-11528.809,48515.465
1300358.6711090314,-59383.098,-46667.36,25349.936,-11954.224,35251.223,4236.084,-11527.792,49161.62
1300358.6751090277,-59351.117,-46643.84,25387.248,-11955.485,35278.445,4250.4478,-11527.466,50174.727
1300358.6791090241,-59327.434,-46629.19,25415.162,-11956.543,35287.598,4250.407,-11532.512,50307.7
1300358.6831090203,-59348.84,-46645.71,25393.84,-11957.072,35262.207,4232.0557,-11537.109,49247.97
1300358.6871090168,-59387.168,-46672.69,25352.703,-11954.428,35243.164,4221.4355,-11538.249,48586.793
1300358.6911090133,-59386.477,-46671.836,25363.486,-11954.428,35258.18,4232.544,-11533.285,49249.15
1300358.6951090095,-59351.727,-46654.01,25406.21,-11955.2,35292.93,4248.4946,-11528.483,50140.016
1300358.699109006,-59331.016,-46643.92,25433.799,-11957.4795,35291.586,4249.634,-11525.554,50276.125
1300358.7031090022,-59364.3,-46661.38,25413.615,-11957.764,35253.99,4234.009,-11529.013,49216.84
1300358.7071089987,-59401.652,-46691.734,25374.717,-11957.52,35235.758,4224.162,-11531.657,48526.938
1300358.711108995,-59383.223,-46681.234,25379.03,-11953.939,35262.9,4231.893,-11530.314,49241.496
1300358.7151089914,-59343.02,-46646.406,25421.672,-11952.8,35294.027,4245.9717,-11533.936,50234.703
1300358.7191089876,-59315.15,-46623.617,25453.004,-11954.753,35291.992,4245.8496,-11539.145,50364.91
1300358.723108984,-59329.062,-46639.082,25433.025,-11954.0205,35264.65,4229.6143,-11540.365,49260.254
1300358.7271089805,-59368.164,-46664.062,25395.469,-11952.189,35249.39,4220.9067,-11536.947,48545.777
1300358.7311089768,-59363.242,-46659.71,25400.31,-11952.719,35254.52,4232.6255,-11529.704,49224.49
1300358.7351089732,-59332.195,-46629.56,25446.777,-11952.515,35286.5,4247.3555,-11527.873,50173.707
1300358.7391089695,-59311.484,-46611.613,25470.947,-11952.8,35295.74,4247.4775,-11531.413,50324.22
1300358.743108966,-59339.113,-46636.19,25459.229,-11952.8,35265.42,4232.3,-11537.476,49248.66
1300358.7471089622,-59368.86,-46670.695,25417.848,-11950.847,35249.27,4224.5283,-11537.639,48594.566
1300358.7511089586,-59366.418,-46664.836,25418.05,-11951.62,35272.137,4232.137,-11539.104,49275.555
1300358.755108955,-59335.9,-46629.11,25454.875,-11952.393,35297.324,4242.513,-11540.935,50186.934
1300358.7591089513,-59313.03,-46610.434,25499.229,-11952.189,35298.79,4243.856,-11541.057,50260.38
1300358.7631089478,-59334.96,-46635.906,25482.707,-11951.091,35269.492,4231.527,-11538.859,49209.312
1300358.767108944,-59369.793,-46659.71,25436.688,-11952.353,35254.07,4225.057,-11532.634,48594.77
1300358.7711089405,-59366.133,-46643.637,25440.959,-11952.108,35268.473,4238.973,-11523.601,49288.535
1300358.7751089367,-59335.168,-46617.473,25481.812,-11951.132,35293.094,4255.9814,-11520.427,50182.742
1300358.7791089332,-59306.723,-46604.82,25506.715,-11950.603,35297.49,4258.911,-11520.427,50254.844
1300358.7831089294,-59332.645,-46635.457,25490.44,-11949.951,35261.56,4241.8623,-11525.961,49199.26
1300358.7871089259,-59375.613,-46674.97,25457.072,-11950.114,35234.62,4230.51,-11528.972,48416.668
1300358.7911089223,-59374.758,-46668.785,25460.979,-11948.486,35260.336,4240.2344,-11528.076,49187.664
1300358.7951089186,-59340.58,-46640.465,25497.234,-11948.935,35298.3,4252.889,-11530.314,50200.562
1300358.799108915,-59317.465,-46625.816,25525.39,-11951.864,35303.062,4254.3945,-11532.919,50341.35
1300358.8031089113,-59336.223,-46644.168,25508.953,-11951.457,35267.375,4239.3394,-11537.842,49346.965
1300358.8071089077,-59373.984,-46665.527,25472.168,-11950.562,35242.8,4229.492,-11537.842,48639.61
1300358.811108904,-59378.543,-46670.41,25471.762,-11952.067,35267.945,4243.286,-11531.169,49297.445
1300358.8151089004,-59343.02,-46643.23,25514.568,-11952.841,35299.723,4259.2773,-11530.518,50214.805
1300358.8191088967,-59325.684,-46632.406,25543.621,-11954.794,35303.266,4262.8174,-11531.982,50264.445
1300358.8231088931,-59344.85,-46645.387,25517.986,-11954.428,35272.016,4252.1567,-11527.792,49207.36
1300358.8271088896,-59377.32,-46667.645,25479.453,-11952.759,35247.07,4247.03,-11519.45,48579.918
1300358.8311088858,-59375.164,-46663.984,25479.656,-11952.353,35262.207,4256.836,-11514.812,49281.902
1300358.8351088823,-59343.508,-46639.61,25521.404,-11950.644,35288.656,4271.7285,-11513.632,50266.316
1300358.8391088785,-59327.355,-46624.188,25546.51,-11950.766,35293.945,4270.5894,-11518.637,50350.87
1300358.843108875,-59355.797,-46644.98,25519.37,-11949.301,35267.496,4253.784,-11525.635,49253.664
1300358.8471088712,-59389.12,-46674.277,25482.627,-11946.899,35254.355,4242.92,-11527.182,48561.32
1300358.8511088677,-59384.848,-46677.004,25485.107,-11945.435,35268.516,4250.407,-11524.374,49257.45
1300358.855108864,-59359.582,-46643.27,25510.986,-11947.0625,35300.742,4263.0615,-11524.13,50219.363
1300358.8591088604,-59333.984,-46622.97,25542.115,-11948.894,35302.492,4265.7065,-11524.333,50345.785
1300358.8631088568,-59356.242,-46643.637,25527.914,-11949.748,35265.953,4251.953,-11526.123,49259.97
1300358.867108853,-59389.0,-46676.11,25488.893,-11949.341,35240.277,4243.6523,-11525.473,48655.887
1300358.8711088495,-59386.68,-46669.68,25491.172,-11949.504,35256.31,4254.1504,-11525.635,49350.914
1300358.8751088458,-59352.094,-46639.04,25521.973,-11949.423,35298.22,4269.4907,-11522.868,50241.09
1300358.8791088422,-59336.914,-46630.82,25544.963,-11950.725,35302.086,4268.962,-11523.845,50319.258
1300358.8831088385,-59368.29,-46660.08,25525.84,-11950.277,35255.25,4252.9297,-11525.839,49160.32
1300358.887108835,-59395.996,-46683.35,25489.463,-11948.69,35234.945,4243.042,-11525.513,48564.21
1300358.8911088312,-59382.164,-46667.48,25491.62,-11945.761,35260.254,4253.1333,-11523.723,49386.355
1300358.8951088276,-59352.336,-46643.434,25520.875,-11946.167,35302.652,4263.55,-11528.564,50324.75
1300358.899108824,-59326.418,-46631.105,25545.615,-11946.289,35296.875,4263.713,-11526.855,50372.355
1300358.9031088203,-59349.938,-46650.637,25525.146,-11946.086,35256.266,4250.0815,-11530.3955,49244.996
1300358.9071088168,-59386.19,-46682.82,25496.217,-11945.517,35241.293,4240.2344,-11531.535,48536.46
1300358.911108813,-59385.418,-46677.492,25485.88,-11944.865,35260.01,4250.244,-11529.094,49247.97
1300358.9151088095,-59349.734,-46643.11,25524.049,-11943.726,35292.727,4263.4688,-11532.471,50216.637
1300358.9191088057,-59321.94,-46627.44,25553.549,-11945.639,35297.566,4263.143,-11535.441,50308.27
1300358.9231088022,-59344.727,-46653.484,25522.422,-11945.068,35270.508,4249.919,-11533.732,49173.83
1300358.9271087984,-59383.71,-46682.7,25483.236,-11942.587,35250.33,4245.443,-11524.821,48535.32
1300358.9311087949,-59376.06,-46661.746,25485.76,-11943.034,35271.973,4258.545,-11517.497,49332.4
1300358.9351087913,-59346.844,-46631.918,25519.207,-11944.255,35298.543,4270.8335,-11515.869,50264.0
1300358.9391087876,-59323.773,-46617.516,25544.475,-11944.662,35305.664,4272.38,-11516.887,50417.89
1300358.943108784,-59347.453,-46640.3,25518.637,-11945.028,35268.68,4256.2256,-11518.474,49297.527
1300358.9471087803,-59385.867,-46673.137,25482.504,-11944.052,35249.066,4246.053,-11519.125,48605.67
1300358.9511087767,-59391.24,-46677.004,25477.256,-11943.848,35267.133,4255.7783,-11519.775,49314.902
1300358.955108773,-59366.293,-46658.285,25511.271,-11944.662,35293.54,4267.009,-11524.862,50190.023
1300358.9591087694,-59345.99,-46646.406,25541.871,-11945.801,35286.297,4269.165,-11526.001,50312.83
1300358.9631087657,-59372.03,-46673.668,25517.13,-11946.981,35258.547,4254.5166,-11526.571,49238.527
1300358.9671087621,-59405.76,-46695.926,25484.742,-11944.865,35237.59,4247.5996,-11523.926,48626.26
1300358.9711087586,-59402.266,-46690.715,25485.107,-11945.15,35256.797,4259.8066,-11517.985,49372.195
1300358.9751087548,-59369.957,-46663.86,25519.043,-11946.249,35288.37,4273.641,-11515.503,50211.1
1300358.9791087513,-59344.77,-46647.83,25542.725,-11947.429,35288.902,4276.4487,-11511.882,50331.668
1300358.9831087475,-59369.062,-46672.406,25518.719,-11946.127,35261.598,4262.004,-11510.254,49247.97
1300358.987108744,-59402.71,-46694.01,25478.354,-11943.075,35248.496,4253.54,-11507.935,48642.01
1300358.9911087402,-59393.555,-46675.945,25477.621,-11940.39,35266.848,4261.5156,-11508.993,49356.812
1300358.9951087367,-59360.395,-46646.406,25512.533,-11942.017,35297.566,4275.4316,-11508.383,50161.582
1300358.999108733,-59336.59,-46635.215,25537.803,-11944.255,35306.56,4277.7915,-11512.004,50308.39
1300359.0031087294,-59366.375,-46659.02,25502.646,-11946.94,35274.254,4260.2134,-11520.305,49262.13
1300359.0071087258,-59400.72,-46675.05,25466.676,-11944.987,35244.1,4248.413,-11520.549,48595.95
1300359.011108722,-59393.312,-46664.31,25473.268,-11941.936,35260.38,4258.667,-11519.206,49381.023
1300359.0151087185,-59361.047,-46642.09,25514.486,-11943.645,35293.54,4270.7114,-11520.712,50236.207
1300359.0191087148,-59337.812,-46621.137,25538.78,-11942.993,35290.04,4273.4375,-11516.968,50335.613
1300359.0231087112,-59367.35,-46643.68,25510.336,-11941.406,35268.312,4260.0913,-11512.817,49164.88
1300359.0271087075,-59404.543,-46672.65,25475.709,-11942.627,35261.965,4254.3945,-11506.714,48585.98
1300359.031108704,-59398.074,-46665.527,25478.76,-11944.336,35284.793,4266.3574,-11501.343,49377.973
1300359.0351087002,-59357.42,-46634.48,25516.725,-11942.831,35312.094,4278.6055,-11497.478,50273.277
1300359.0391086966,-59336.957,-46615.766,25538.006,-11941.406,35317.14,4277.588,-11495.321,50387.492
1300359.043108693,-59360.477,-46635.38,25517.54,-11939.453,35283.12,4261.882,-11497.722,49309.53
1300359.0471086893,-59392.54,-46662.598,25479.33,-11940.837,35263.387,4251.058,-11500.814,48621.176
1300359.0511086858,-59387.695,-46663.496,25477.744,-11938.721,35290.977,4260.01,-11501.14,49363.973
1300359.055108682,-59359.297,-46640.26,25515.26,-11941.244,35317.586,4273.397,-11502.279,50211.63
1300359.0591086785,-59341.72,-46625.33,25538.371,-11943.319,35318.562,4274.699,-11504.191,50311.605
1300359.0631086747,-59367.555,-46650.27,25516.684,-11944.255,35285.81,4258.464,-11509.155,49241.7
1300359.0671086712,-59402.1,-46677.938,25480.957,-11944.458,35259.035,4251.343,-11505.656,48627.08
1300359.0711086674,-59399.05,-46669.273,25480.795,-11943.726,35285.2,4262.7363,-11500.285,49405.273
1300359.0751086639,-59363.445,-46639.812,25514.08,-11944.377,35313.152,4277.4253,-11496.948,50240.723
1300359.0791086603,-59340.78,-46624.066,25541.18,-11945.639,35314.414,4279.0938,-11499.797,50347.008
1300359.0831086566,-59362.227,-46650.066,25511.963,-11944.296,35285.605,4262.329,-11502.6455,49278.934
1300359.087108653,-59396.527,-46684.613,25475.18,-11941.895,35262.207,4252.0347,-11506.47,48581.953
1300359.0911086493,-59392.297,-46677.086,25482.016,-11941.366,35286.5,4262.5327,-11507.568,49304.85
1300359.0951086457,-59366.21,-46648.4,25512.818,-11941.895,35312.99,4274.1294,-11509.318,50160.117
1300359.099108642,-59350.14,-46636.516,25537.07,-11943.767,35304.363,4272.624,-11513.428,50235.066
1300359.1031086384,-59377.32,-46662.76,25515.3,-11942.221,35276.816,4258.3823,-11515.503,49195.516
1300359.1071086347,-59406.008,-46679.934,25472.576,-11939.657,35267.254,4251.6685,-11512.207,48603.152
1300359.1111086311,-59387.453,-46663.574,25481.04,-11938.029,35296.793,4263.8755,-11504.11,49441.61
1300359.1151086276,-59355.39,-46636.11,25516.033,-11940.023,35318.117,4277.1406,-11500.814,50304.08
1300359.1191086238,-59339.234,-46630.535,25537.803,-11942.79,35313.723,4275.4316,-11503.906,50349.45
1300359.1231086203,-59364.3,-46654.746,25503.826,-11944.743,35283.53,4260.5796,-11503.784,49257.246
1300359.1271086165,-59398.438,-46683.758,25474.121,-11944.987,35254.395,4254.5166,-11501.425,48662.64
1300359.131108613,-59392.418,-46671.836,25481.283,-11945.231,35282.758,4269.8164,-11497.966,49428.02
1300359.1351086092,-59353.965,-46637.98,25521.525,-11946.005,35313.477,4283.5693,-11496.46,50274.617
1300359.1391086057,-59337.85,-46630.086,25539.307,-11947.592,35306.316,4280.3145,-11499.228,50275.35
1300359.1431086021,-59372.234,-46659.87,25502.441,-11946.33,35270.957,4262.5327,-11503.581,49139.12
1300359.1471085984,-59407.39,-46682.13,25469.605,-11942.058,35264.85,4254.883,-11504.313,48569.418
1300359.1511085948,-59398.113,-46671.227,25476.686,-11941.895,35282.43,4266.1543,-11498.088,49373.09
1300359.155108591,-59359.945,-46636.395,25515.137,-11943.115,35310.02,4282.3896,-11493.164,50267.62
1300359.1591085875,-59334.35,-46616.863,25540.895,-11943.808,35316.734,4285.9297,-11493.205,50327.68
1300359.1631085838,-59357.06,-46643.027,25518.799,-11942.912,35284.87,4270.508,-11495.646,49227.867
1300359.1671085802,-59390.547,-46668.785,25484.62,-11941.61,35268.68,4262.573,-11494.873,48615.887
1300359.1711085765,-59385.785,-46663.777,25485.475,-11941.895,35296.918,4271.81,-11493.327,49359.375
1300359.175108573,-59357.63,-46640.137,25514.242,-11942.424,35315.594,4282.7964,-11497.803,50202.395
1300359.1791085694,-59338.258,-46632.49,25539.592,-11943.604,35315.348,4280.5586,-11502.238,50238.566
1300359.1831085656,-59361.41,-46658.45,25517.66,-11943.97,35280.965,4263.794,-11502.563,49152.67
1300359.187108562,-59398.074,-46681.766,25479.86,-11941.813,35263.633,4252.6045,-11509.399,48524.008
1300359.1911085583,-59390.344,-46666.832,25478.842,-11939.169,35294.516,4262.899,-11509.848,49386.11
1300359.1951085548,-59353.965,-46643.11,25517.986,-11940.593,35324.625,4278.8496,-11506.389,50367.676
1300359.199108551,-59340.09,-46635.01,25542.766,-11943.197,35322.43,4278.198,-11509.644,50321.29
1300359.2031085475,-59369.67,-46656.7,25512.818,-11942.383,35284.953,4262.085,-11512.614,49164.348
1300359.2071085437,-59401.043,-46684.45,25471.355,-11941.772,35260.457,4252.1567,-11511.679,48530.03
1300359.2111085402,-59392.17,-46673.383,25477.336,-11940.1455,35280.477,4261.5156,-11508.22,49265.91
1300359.2151085366,-59359.863,-46643.35,25522.178,-11939.738,35313.56,4273.926,-11507.324,50236.574
1300359.2191085329,-59342.33,-46632.734,25538.615,-11941.284,35320.76,4273.8447,-11508.423,50274.254
1300359.2231085293,-59367.598,-46661.99,25507.121,-11941.895,35289.227,4259.8066,-11510.051,49132.812
1300359.2271085256,-59402.508,-46687.46,25475.342,-11940.186,35271.85,4255.941,-11508.423,48625.613
1300359.231108522,-59390.42,-46671.836,25486.654,-11938.192,35299.36,4269.45,-11502.971,49443.402
1300359.2351085183,-59355.105,-46646.895,25523.031,-11939.128,35324.137,4278.2393,-11505.29,50278.08
1300359.2391085147,-59337.812,-46634.645,25543.58,-11941.895,35316.12,4273.967,-11507.609,50282.918
1300359.243108511,-59366.824,-46658.125,25510.092,-11943.359,35282.676,4259.1553,-11507.243,49177.613
1300359.2471085074,-59397.95,-46682.293,25483.154,-11939.453,35268.15,4252.1567,-11506.836,48592.367
1300359.251108504,-59387.617,-46669.273,25489.299,-11940.023,35295.613,4265.5845,-11505.29,49418.05
1300359.2551085001,-59352.785,-46641.113,25525.717,-11939.738,35321.902,4277.873,-11505.737,50271.324
1300359.2591084966,-59331.016,-46625.33,25553.916,-11940.674,35312.746,4278.117,-11505.453,50171.47
1300359.2631084928,-59363.08,-46652.184,25522.38,-11940.268,35282.594,4262.0444,-11506.226,49089.723
1300359.2671084893,-59398.684,-46676.473,25487.59,-11937.988,35275.88,4252.3193,-11505.412,48553.305
1300359.2711084855,-59388.39,-46669.883,25494.467,-11938.314,35301.27,4262.8584,-11505.697,49357.75
1300359.275108482,-59350.668,-46638.43,25527.588,-11938.11,35325.848,4273.519,-11507.04,50314.617
1300359.2791084782,-59332.766,-46624.27,25543.824,-11938.029,35324.22,4269.084,-11512.492,50265.953
1300359.2831084747,-59359.703,-46651.043,25506.797,-11938.64,35293.17,4252.889,-11515.747,49121.46
1300359.2871084712,-59394.168,-46681.152,25484.62,-11938.762,35275.637,4246.0938,-11513.957,48632.0
1300359.2911084674,-59389.0,-46658.49,25495.89,-11939.738,35295.125,4257.528,-11512.411,49444.46
1300359.2951084638,-59351.484,-46628.094,25526.979,-11939.494,35323.49,4272.583,-11512.939,50244.266
1300359.29910846,-59334.066,-46621.664,25552.287,-11939.372,35331.707,4271.4844,-11513.103,50180.867
1300359.3031084565,-59359.742,-46656.293,25521.852,-11938.803,35297.242,4255.534,-11516.357,49036.418
1300359.3071084528,-59388.797,-46677.33,25493.45,-11937.744,35280.965,4247.7217,-11517.416,48500.9
1300359.3111084492,-59385.703,-46668.133,25502.361,-11937.948,35304.973,4257.5684,-11514.526,49397.625
1300359.3151084455,-59359.62,-46649.09,25526.693,-11939.209,35329.43,4268.636,-11516.887,50331.18
1300359.319108442,-59343.875,-46638.594,25549.44,-11943.237,35325.727,4267.09,-11517.7,50293.297
1300359.3231084384,-59363.445,-46654.582,25525.025,-11943.441,35284.668,4252.8486,-11516.806,49176.27
1300359.3271084346,-59397.383,-46681.64,25488.893,-11941.203,35264.242,4247.762,-11514.364,48626.1
1300359.331108431,-59396.69,-46673.137,25497.152,-11939.535,35304.812,4260.8237,-11511.068,49429.04
1300359.3351084273,-59365.6,-46644.613,25530.844,-11941.203,35333.902,4271.81,-11513.021,50245.566
1300359.3391084238,-59345.055,-46631.348,25556.602,-11942.261,35334.27,4270.9556,-11513.225,50226.44
1300359.34310842,-59368.574,-46651.45,25524.62,-11941.0,35298.543,4254.3945,-11515.178,49164.55
1300359.3471084165,-59399.133,-46668.457,25490.56,-11939.25,35276.938,4246.379,-11516.765,48679.445
1300359.3511084127,-59386.965,-46659.18,25496.135,-11937.541,35306.152,4258.667,-11515.747,49542.89
1300359.3551084092,-59356.57,-46635.457,25537.191,-11939.657,35329.633,4269.043,-11517.172,50352.5
1300359.3591084057,-59341.637,-46623.78,25561.24,-11941.406,35324.098,4264.201,-11522.421,50276.004
1300359.363108402,-59370.934,-46651.777,25529.867,-11941.325,35283.895,4249.5933,-11523.886,49115.926
1300359.3671083983,-59402.957,-46680.137,25489.951,-11940.063,35262.37,4241.9844,-11525.595,48569.5
1300359.3711083946,-59395.062,-46662.152,25505.82,-11940.063,35287.395,4253.296,-11525.513,49419.477
1300359.375108391,-59359.133,-46638.023,25529.42,-11942.099,35312.01,4266.317,-11523.479,50316.57
1300359.3791083873,-59343.305,-46626.02,25550.578,-11942.261,35313.19,4267.8633,-11519.125,50243.777
1300359.3831083837,-59372.48,-46652.71,25527.67,-11941.61,35282.35,4252.889,-11515.341,49063.234
1300359.38710838,-59406.17,-46673.3,25490.846,-11939.453,35280.234,4245.4834,-11516.073,48517.09
1300359.3911083764,-59391.44,-46657.473,25502.482,-11935.791,35307.78,4255.493,-11514.486,49387.168
1300359.395108373,-59347.7,-46627.89,25528.361,-11936.523,35340.82,4268.1074,-11510.702,50314.82
1300359.3991083691,-59331.137,-46619.63,25557.7,-11938.477,35329.184,4265.0557,-11512.167,50274.78
1300359.4031083656,-59360.68,-46640.79,25526.979,-11938.029,35285.688,4246.5415,-11517.294,49190.918
1300359.4071083618,-59394.207,-46663.656,25497.723,-11936.076,35269.125,4236.9795,-11524.292,48625.49
1300359.4111083583,-59389.04,-46668.05,25501.67,-11935.995,35289.836,4246.9893,-11525.879,49425.66
1300359.4151083545,-59359.824,-46647.992,25542.4,-11936.728,35323.242,4258.667,-11527.385,50264.773
1300359.419108351,-59340.254,-46630.74,25558.799,-11939.453,35324.504,4260.8237,-11525.635,50230.754
1300359.4231083472,-59367.637,-46653.117,25537.15,-11940.43,35291.586,4245.5244,-11524.211,49122.97
1300359.4271083437,-59399.54,-46674.97,25494.629,-11938.07,35276.164,4238.485,-11520.102,48608.074
1300359.4311083402,-59388.105,-46661.906,25501.344,-11938.437,35309.207,4251.4243,-11513.428,49506.55
1300359.4351083364,-59354.047,-46631.836,25543.54,-11939.779,35341.84,4264.5674,-11511.108,50404.34
1300359.4391083329,-59339.926,-46624.105,25561.932,-11941.081,35324.87,4261.3525,-11512.248,50287.52
1300359.443108329,-59370.445,-46658.816,25527.426,-11939.128,35286.133,4247.0703,-11509.359,49095.99
1300359.4471083255,-59402.184,-46686.035,25493.084,-11936.442,35263.918,4239.8276,-11509.644,48546.023
1300359.4511083218,-59395.184,-46679.445,25504.477,-11934.082,35298.383,4249.5117,-11512.492,49434.043
1300359.4551083182,-59356.855,-46647.83,25533.814,-11935.263,35321.617,4261.434,-11515.097,50317.344
1300359.4591083145,-59335.41,-46628.703,25557.822,-11935.588,35319.95,4255.493,-11521.281,50276.367
1300359.463108311,-59362.67,-46646.363,25530.03,-11934.855,35291.63,4237.427,-11530.722,49152.59
1300359.4671083074,-59398.766,-46677.37,25497.479,-11934.164,35275.797,4227.987,-11535.727,48587.566
1300359.4711083036,-59391.766,-46669.883,25504.15,-11931.723,35296.715,4238.5254,-11536.459,49414.836
1300359.4751083,-59359.133,-46646.12,25544.11,-11934.042,35328.53,4250.3257,-11536.54,50266.93
1300359.4791082963,-59339.97,-46641.6,25564.941,-11936.931,35334.39,4248.983,-11533.936,50201.05
1300359.4831082928,-59365.52,-46666.14,25538.982,-11935.751,35293.5,4236.084,-11531.576,49084.434
1300359.487108289,-59396.61,-46680.992,25498.78,-11931.804,35275.188,4231.323,-11527.954,48590.457
1300359.4911082855,-59388.797,-46674.766,25512.33,-11930.298,35312.055,4243.327,-11525.513,49480.31
1300359.4951082817,-59351.24,-46650.88,25545.371,-11931.396,35332.97,4255.005,-11526.815,50295.453
1300359.4991082782,-59339.113,-46628.34,25557.861,-11932.536,35325.523,4255.6562,-11527.06,50181.6
1300359.5031082747,-59372.684,-46659.06,25533.203,-11932.739,35299.234,4239.2173,-11526.245,49132.895
1300359.507108271,-59406.293,-46691.0,25501.018,-11931.356,35283.082,4232.829,-11525.757,48617.8
1300359.5111082674,-59396.242,-46677.004,25513.021,-11932.414,35303.266,4247.396,-11522.421,49481.977
1300359.5151082636,-59359.01,-46649.617,25541.748,-11933.96,35330.973,4261.6377,-11522.787,50413.86
1300359.51910826,-59340.902,-46637.86,25565.309,-11933.757,35336.184,4262.126,-11525.432,50321.004
1300359.5231082563,-59370.402,-46665.242,25533.652,-11933.554,35300.54,4245.9717,-11528.769,49136.516
1300359.5271082527,-59405.316,-46693.81,25497.07,-11931.4375,35281.293,4237.1016,-11531.698,48577.516
1300359.5311082492,-59397.055,-46678.836,25507.244,-11931.112,35306.97,4247.4775,-11535.36,49370.484
1300359.5351082454,-59369.793,-46654.83,25541.992,-11932.211,35336.914,4258.952,-11539.999,50294.965
1300359.539108242,-59348.797,-46645.47,25560.955,-11933.31,35331.016,4257.1616,-11538.371,50243.53
1300359.5431082381,-59377.605,-46663.74,25534.629,-11930.664,35298.504,4242.676,-11537.109,49116.824
1300359.5471082346,-59411.83,-46691.45,25509.766,-11929.443,35284.996,4237.956,-11535.482,48606.445
1300359.5511082308,-59396.65,-46674.36,25508.586,-11928.508,35304.85,4251.953,-11529.826,49486.086
1300359.5551082273,-59349.043,-46633.26,25544.027,-11928.549,35331.668,4266.561,-11526.53,50322.918
1300359.5591082235,-59337.566,-46627.035,25565.959,-11929.281,35333.254,4265.1777,-11525.635,50142.418
1300359.56310822,-59370.04,-46655.56,25539.918,-11929.729,35301.555,4251.4243,-11526.896,49064.82
1300359.5671082165,-59402.47,-46682.17,25501.709,-11928.671,35284.668,4245.321,-11525.676,48622.887
1300359.5711082127,-59391.32,-46668.99,25511.598,-11926.921,35313.03,4255.534,-11523.926,49480.145
1300359.5751082092,-59352.46,-46634.156,25548.016,-11927.328,35342.53,4266.9272,-11521.078,50377.85
1300359.5791082054,-59338.746,-46628.543,25565.186,-11928.02,35333.945,4265.3,-11520.346,50280.316
1300359.5831082019,-59369.875,-46650.23,25528.443,-11929.159,35301.473,4251.9126,-11519.613,49163.168
1300359.587108198,-59404.34,-46680.992,25493.125,-11929.159,35285.77,4247.1924,-11516.4795,48634.402
1300359.5911081946,-59393.92,-46675.375,25502.441,-11930.339,35320.312,4260.783,-11517.782,49492.23
1300359.5951081908,-59363.895,-46644.004,25541.016,-11930.42,35356.73,4270.63,-11519.043,50400.637
1300359.5991081872,-59350.87,-46635.824,25559.123,-11929.281,35336.062,4266.5205,-11518.188,50190.066
1300359.6031081837,-59375.977,-46660.2,25537.883,-11928.101,35301.15,4251.6685,-11519.613,49130.453
1300359.60710818,-59403.934,-46680.83,25492.393,-11925.009,35296.023,4245.117,-11518.188,48684.33
1300359.6111081764,-59394.9,-46664.836,25503.459,-11923.3,35320.152,4259.5625,-11515.951,49541.547
1300359.6151081726,-59357.79,-46632.324,25552.654,-11923.544,35344.81,4270.1416,-11517.985,50442.14
1300359.619108169,-59339.48,-46624.105,25567.383,-11924.194,35335.652,4265.381,-11519.206,50281.332
1300359.6231081653,-59370.445,-46657.066,25534.994,-11922.648,35309.49,4247.762,-11523.031,49098.188
1300359.6271081618,-59403.16,-46679.484,25505.494,-11921.713,35294.8,4242.2285,-11524.008,48613.61
1300359.631108158,-59399.62,-46680.258,25501.709,-11925.741,35310.508,4257.528,-11522.787,49462.2
1300359.6351081545,-59367.8,-46647.098,25537.762,-11927.572,35334.434,4270.223,-11524.699,50359.215
1300359.639108151,-59347.375,-46628.543,25558.35,-11926.107,35332.723,4265.991,-11525.554,50231.773
1300359.6431081472,-59381.918,-46652.793,25529.705,-11922.934,35305.707,4247.396,-11528.117,49081.668
1300359.6471081437,-59410.85,-46678.957,25499.023,-11919.638,35286.906,4244.67,-11527.751,48651.98
1300359.65110814,-59393.8,-46666.586,25512.127,-11918.417,35313.844,4256.0225,-11526.9375,49553.184
1300359.6551081364,-59358.44,-46645.1,25545.898,-11919.882,35353.273,4265.096,-11527.466,50382.527
1300359.6591081326,-59357.586,-46643.516,25558.635,-11921.265,35336.55,4263.3467,-11530.355,50182.863
1300359.663108129,-59393.312,-46666.547,25527.1,-11921.143,35305.91,4247.5996,-11533.529,49012.492
1300359.6671081253,-59418.133,-46691.043,25493.938,-11920.654,35287.965,4240.8857,-11528.076,48634.24
1300359.6711081218,-59403.117,-46679.445,25508.342,-11918.986,35317.547,4253.174,-11526.205,49536.055
1300359.6751081182,-59366.742,-46647.992,25547.283,-11918.498,35339.56,4267.741,-11522.502,50358.44
1300359.6791081144,-59357.87,-46636.8,25568.441,-11919.922,35333.21,4266.2764,-11521.159,50247.926
1300359.683108111,-59386.19,-46663.332,25535.28,-11919.638,35296.1,4252.0347,-11519.653,49121.95
1300359.6871081071,-59415.04,-46681.97,25498.617,-11918.905,35287.11,4245.7275,-11520.549,48648.926
1300359.6911081036,-59402.426,-46666.22,25509.889,-11918.091,35325.36,4257.4873,-11516.643,49582.156
1300359.6951080998,-59363.28,-46635.5,25547.527,-11916.708,35348.676,4267.334,-11517.782,50363.363
1300359.6991080963,-59353.477,-46635.945,25560.059,-11917.929,35341.715,4260.8643,-11521.037,50113.16
1300359.7031080925,-59385.742,-46670.9,25525.025,-11917.033,35307.66,4244.5884,-11523.193,49079.1
1300359.707108089,-59418.418,-46691.043,25500.896,-11915.649,35289.023,4238.3223,-11524.74,48643.35
1300359.7111080855,-59402.832,-46670.777,25515.545,-11916.423,35324.06,4250.814,-11528.036,49571.414
1300359.7151080817,-59363.28,-46645.387,25550.701,-11918.864,35346.19,4261.7188,-11532.227,50407.88
1300359.7191080782,-59357.668,-46640.465,25554.607,-11920.695,35333.863,4257.9756,-11532.268,50247.152
1300359.7231080744,-59389.406,-46668.133,25528.076,-11919.394,35298.707,4243.6523,-11531.332,49117.676
1300359.7271080709,-59423.625,-46703.535,25495.85,-11919.027,35287.883,4239.7056,-11527.995,48663.984
1300359.731108067,-59411.664,-46683.797,25509.4,-11917.5625,35321.902,4251.7905,-11523.926,49536.094
1300359.7351080636,-59372.4,-46644.53,25545.615,-11915.8125,35347.7,4261.7188,-11523.031,50363.69
1300359.7391080598,-59355.51,-46632.406,25564.291,-11917.5625,35341.676,4259.3184,-11522.502,50228.8
1300359.7431080563,-59395.793,-46665.203,25533.57,-11919.108,35316.406,4243.9375,-11524.292,49069.01
1300359.7471080527,-59423.3,-46690.51,25500.082,-11918.579,35301.23,4237.142,-11521.566,48638.184
1300359.751108049,-59405.152,-46675.09,25510.377,-11918.986,35324.992,4250.407,-11518.799,49604.98
1300359.7551080454,-59373.17,-46647.42,25543.377,-11919.638,35352.62,4263.265,-11517.009,50407.637
1300359.7591080416,-59357.992,-46638.105,25560.67,-11920.207,35336.062,4258.301,-11518.799,50190.39
1300359.763108038,-59388.754,-46662.273,25530.396,-11920.654,35298.383,4240.072,-11524.984,49021.445
1300359.7671080343,-59425.54,-46686.77,25502.768,-11917.766,35287.926,4236.6133,-11523.642,48567.06
1300359.7711080308,-59408.203,-46675.984,25516.928,-11918.091,35323.773,4252.3604,-11519.531,49513.31
1300359.775108027,-59367.395,-46645.996,25551.31,-11917.603,35345.418,4264.5674,-11516.562,50415.49
1300359.7791080235,-59358.48,-46642.09,25568.809,-11917.48,35344.44,4258.5044,-11518.026,50175.215
1300359.78310802,-59383.79,-46655.52,25537.68,-11916.667,35314.86,4243.327,-11516.5205,49074.3
1300359.7871080162,-59409.465,-46663.574,25500.53,-11913.29,35307.78,4239.299,-11512.451,48675.05
1300359.7911080127,-59394.41,-46656.984,25515.951,-11914.022,35327.15,4251.1396,-11510.905,49586.426
1300359.795108009,-59360.19,-46632.04,25558.96,-11917.521,35343.547,4262.5327,-11511.841,50372.76
1300359.7991080054,-59359.945,-46629.11,25569.092,-11920.41,35339.07,4259.481,-11514.079,50178.55
1300359.8031080016,-59397.18,-46657.188,25538.78,-11920.573,35303.062,4244.751,-11515.463,49068.035
1300359.807107998,-59426.23,-46685.59,25493.408,-11919.597,35293.297,4239.502,-11517.619,48616.09
1300359.8111079943,-59404.867,-46670.004,25503.379,-11918.62,35321.25,4252.8076,-11514.364,49529.176
1300359.8151079908,-59367.11,-46641.113,25553.71,-11918.091,35360.434,4262.5327,-11515.056,50390.625
1300359.8191079872,-59359.17,-46636.23,25574.26,-11917.685,35352.133,4255.7373,-11520.264,50253.867
1300359.8231079835,-59388.39,-46666.63,25539.023,-11916.301,35316.734,4237.915,-11522.461,49119.223
1300359.82710798,-59410.85,-46683.105,25504.111,-11914.348,35306.152,4232.585,-11519.409,48682.58
1300359.8311079761,-59390.137,-46665.938,25517.498,-11914.592,35330.12,4246.46,-11515.951,49558.15
1300359.8351079726,-59359.824,-46636.72,25561.564,-11915.365,35353.11,4258.667,-11515.463,50357.383
1300359.8391079688,-59351.645,-46626.344,25574.098,-11916.748,35353.07,4254.476,-11520.102,50161.5
1300359.8431079653,-59386.273,-46654.95,25538.453,-11915.161,35321.168,4237.59,-11524.292,49047.61
1300359.8471079615,-59412.355,-46673.34,25512.86,-11912.598,35296.836,4229.248,-11524.414,48617.027
1300359.851107958,-59400.15,-46667.848,25528.605,-11911.947,35322.266,4239.4614,-11521.281,49490.316
1300359.8551079545,-59365.36,-46637.453,25572.959,-11911.947,35345.95,4250.9766,-11522.665,50325.074
1300359.8591079507,-59347.78,-46625.652,25573.486,-11913.574,35337.688,4248.983,-11521.444,50200.156
1300359.8631079472,-59384.81,-46654.46,25541.016,-11915.324,35307.21,4233.3984,-11519.125,49111.9
1300359.8671079434,-59412.926,-46668.785,25513.428,-11911.703,35308.797,4229.5737,-11513.225,48705.12
1300359.8711079399,-59397.746,-46654.99,25530.559,-11911.581,35323.895,4244.548,-11512.085,49610.965
1300359.875107936,-59356.69,-46632.61,25570.273,-11913.086,35344.035,4256.714,-11514.16,50509.2
1300359.8791079326,-59348.31,-46622.64,25585.084,-11913.29,35343.59,4253.4995,-11519.328,50268.883
1300359.8831079288,-59384.645,-46649.66,25551.066,-11913.859,35310.387,4237.386,-11520.671,49121.867
1300359.8871079253,-59412.926,-46678.508,25513.55,-11914.877,35297.566,4230.1025,-11521.24,48665.203
1300359.8911079217,-59401.41,-46670.9,25524.943,-11913.696,35324.992,4240.6416,-11523.234,49525.88
1300359.895107918,-59367.883,-46643.883,25577.23,-11915.324,35344.44,4254.802,-11523.397,50442.87
1300359.8991079144,-59356.49,-46634.156,25592.734,-11914.714,35336.832,4247.966,-11524.943,50211.305
1300359.9031079106,-59386.965,-46661.746,25544.598,-11913.005,35319.54,4232.5034,-11523.071,49096.113
1300359.907107907,-59419.23,-46686.973,25517.295,-11911.459,35306.4,4228.3125,-11521.24,48743.33
1300359.9111079033,-59399.7,-46671.387,25534.344,-11911.296,35336.957,4241.6587,-11517.619,49715.21
1300359.9151078998,-59365.074,-46640.586,25568.238,-11913.046,35360.27,4253.052,-11520.956,50468.75
1300359.9191078963,-59360.56,-46633.992,25579.754,-11915.161,35344.81,4249.0234,-11527.995,50179.61
1300359.9231078925,-59397.746,-46662.598,25545.818,-11914.104,35301.35,4231.405,-11531.535,49025.188
1300359.927107889,-59426.637,-46694.99,25512.818,-11912.517,35291.06,4225.952,-11529.541,48561.77
1300359.9311078852,-59406.7,-46673.543,25527.264,-11911.54,35324.42,4241.008,-11524.496,49570.438
1300359.9351078817,-59371.258,-46638.266,25569.174,-11911.093,35352.133,4251.6685,-11525.065,50413.984
1300359.939107878,-59367.11,-46635.824,25581.992,-11912.109,35344.81,4245.7275,-11530.722,50146.04
1300359.9431078744,-59395.47,-46660.89,25543.133,-11911.987,35310.996,4229.5737,-11532.1455,49054.566
1300359.9471078706,-59417.97,-46675.336,25508.994,-11910.645,35297.16,4224.8535,-11530.844,48741.742
1300359.951107867,-59406.008,-46661.95,25522.828,-11910.889,35329.062,4237.468,-11526.571,49649.824
1300359.9551078635,-59375.043,-46645.55,25567.465,-11912.109,35361.9,4249.5933,-11522.055,50407.227
1300359.9591078598,-59362.918,-46645.793,25582.236,-11914.755,35354.574,4247.762,-11522.583,50153.73
1300359.9631078562,-59385.133,-46659.59,25553.752,-11913.168,35316.0,4230.591,-11523.275,49038.535
1300359.9671078525,-59408.53,-46673.992,25522.87,-11909.587,35303.1,4224.8945,-11522.502,48619.508
1300359.971107849,-59400.39,-46666.504,25539.227,-11910.075,35331.87,4239.2173,-11523.723,49552.004
1300359.9751078452,-59369.387,-46644.574,25574.707,-11912.761,35345.297,4250.814,-11526.205,50368.938
1300359.9791078416,-59357.75,-46632.812,25592.979,-11913.29,35342.855,4246.053,-11528.809,50132.69
1300359.9831078378,-59393.395,-46660.605,25560.02,-11913.94,35318.973,4230.591,-11527.1,49012.574
1300359.9871078343,-59419.8,-46681.152,25526.572,-11912.395,35310.223,4229.9805,-11520.752,48722.25
1300359.9911078308,-59394.86,-46655.56,25539.47,-11912.028,35338.867,4244.751,-11517.09,49689.496
1300359.995107827,-59362.55,-46627.973,25583.62,-11913.29,35364.34,4257.6904,-11512.289,50462.566
1300359.9991078235,-59352.094,-46623.375,25594.85,-11913.127,35356.69,4252.767,-11511.19,50176.395
1300360.0031078197,-59380.86,-46650.637,25552.166,-11911.621,35324.26,4236.8164,-11512.533,49013.43
1300360.0071078162,-59407.15,-46673.3,25523.56,-11911.703,35322.55,4232.3,-11511.516,48735.516
1300360.0111078124,-59397.46,-46661.543,25544.475,-11911.662,35339.52,4244.1816,-11510.905,49594.566
1300360.0151078089,-59364.543,-46634.97,25588.46,-11910.93,35362.836,4257.324,-11513.428,50410.81
1300360.019107805,-59350.18,-46625.203,25597.982,-11910.767,35362.1,4251.953,-11516.562,50181.277
1300360.0231078016,-59385.62,-46654.22,25563.762,-11910.36,35341.066,4235.962,-11517.7,49090.742
1300360.027107798,-59411.258,-46673.953,25531.047,-11910.563,35334.8,4232.585,-11513.998,48766.727
1300360.0311077943,-59393.72,-46648.4,25547.934,-11909.872,35357.707,4248.0063,-11508.22,49672.85
1300360.0351077907,-59356.164,-46618.004,25590.984,-11909.546,35377.36,4260.0913,-11506.308,50415.324
1300360.039107787,-59350.18,-46615.113,25592.205,-11910.808,35357.3,4254.354,-11509.359,50089.766
1300360.0431077834,-59383.668,-46647.176,25566.855,-11909.668,35313.355,4238.729,-11512.207,48952.027
1300360.0471077797,-59406.863,-46664.31,25539.307,-11908.122,35308.473,4236.084,-11510.092,48643.758
1300360.0511077761,-59390.098,-46648.766,25552.695,-11907.227,35349.977,4248.983,-11509.644,49608.48
1300360.0551077724,-59357.87,-46619.996,25589.64,-11910.034,35377.523,4258.952,-11509.766,50443.605
1300360.0591077688,-59351.89,-46610.883,25605.754,-11912.109,35359.336,4253.6216,-11511.475,50190.88
1300360.0631077653,-59383.63,-46648.684,25566.244,-11912.72,35325.645,4235.067,-11515.585,49049.645
1300360.0671077615,-59403.81,-46671.918,25526.084,-11908.813,35329.43,4232.3,-11512.533,48743.938
1300360.071107758,-59388.062,-46652.06,25549.44,-11908.529,35356.0,4248.4946,-11506.836,49693.93
1300360.0751077542,-59358.4,-46620.04,25587.729,-11911.011,35377.566,4257.6904,-11507.772,50508.547
1300360.0791077507,-59348.105,-46632.57,25600.75,-11913.086,35361.574,4251.831,-11509.726,50215.617
1300360.083107747,-59385.742,-46671.633,25562.785,-11912.354,35327.92,4237.3047,-11510.498,49086.47
1300360.0871077434,-59417.2,-46689.82,25532.594,-11910.808,35310.184,4232.707,-11510.051,48677.9
1300360.0911077396,-59407.434,-46678.754,25546.795,-11910.034,35342.69,4246.7856,-11509.848,49671.062
1300360.095107736,-59371.34,-46645.55,25585.166,-11912.476,35367.066,4258.8706,-11511.475,50491.58
1300360.0991077325,-59360.965,-46633.71,25599.977,-11913.615,35359.54,4255.046,-11513.632,50140.992
1300360.1031077288,-59392.62,-46659.63,25563.03,-11913.29,35327.312,4238.037,-11514.201,49085.45
1300360.1071077252,-59414.023,-46678.1,25526.164,-11910.36,35326.62,4232.2188,-11512.289,48789.188
1300360.1111077215,-59396.12,-46662.598,25543.336,-11908.651,35355.875,4242.2285,-11514.7705,49713.95
1300360.115107718,-59362.59,-46637.695,25586.264,-11909.465,35378.46,4252.3604,-11515.137,50475.18
1300360.1191077142,-59355.957,-46639.242,25603.557,-11910.4,35364.707,4248.535,-11514.648,50123.7
1300360.1231077106,-59397.098,-46678.426,25567.344,-11911.784,35332.684,4233.8867,-11517.619,48959.637
1300360.1271077069,-59424.156,-46694.99,25530.926,-11910.238,35319.46,4230.1436,-11519.409,48658.734
1300360.1311077033,-59401.938,-46666.426,25543.945,-11910.522,35353.92,4243.612,-11517.375,49649.05
1300360.1351076998,-59366.05,-46637.74,25588.135,-11910.686,35385.785,4257.121,-11515.422,50486.29
1300360.139107696,-59356.57,-46635.215,25606.04,-11911.621,35364.746,4254.3135,-11513.632,50162.19
1300360.1431076925,-59386.07,-46659.18,25563.965,-11910.686,35333.78,4237.264,-11510.742,49054.484
1300360.1471076887,-59412.355,-46688.477,25541.504,-11908.529,35327.68,4230.306,-11509.237,48724.082
1300360.1511076852,-59398.48,-46663.82,25556.357,-11906.942,35354.86,4239.868,-11511.475,49616.62
1300360.1551076814,-59365.52,-46633.223,25587.852,-11907.39,35384.562,4249.797,-11511.516,50453.74
1300360.1591076779,-59359.01,-46632.04,25601.768,-11907.919,35381.43,4243.7744,-11512.777,50179.16
1300360.163107674,-59395.918,-46663.574,25567.871,-11908.651,35340.58,4228.9634,-11513.713,49074.42
1300360.1671076706,-59422.16,-46682.902,25543.254,-11908.203,35319.133,4227.417,-11513.632,48759.81
1300360.171107667,-59405.56,-46671.227,25561.646,-11909.099,35351.89,4241.74,-11513.144,49722.617
1300360.1751076633,-59370.934,-46641.277,25600.709,-11911.784,35363.934,4254.1504,-11510.783,50459.883
1300360.1791076597,-59359.582,-46638.31,25613.975,-11911.011,35355.754,4249.634,-11511.679,50106.65
1300360.183107656,-59394.53,-46669.312,25576.01,-11908.732,35318.562,4232.0557,-11516.154,49000.816
1300360.1871076524,-59414.715,-46673.87,25537.518,-11905.844,35307.902,4229.167,-11514.486,48726.645
1300360.1911076487,-59392.418,-46643.23,25559.326,-11903.646,35349.938,4240.5195,-11515.585,49670.74
1300360.1951076451,-59363.04,-46616.7,25601.727,-11902.751,35379.07,4249.1865,-11514.853,50456.098
1300360.1991076414,-59354.535,-46615.4,25609.66,-11903.442,35373.13,4243.1235,-11513.428,50104.25
1300360.2031076378,-59387.617,-46645.59,25568.28,-11903.402,35345.133,4228.109,-11514.404,48980.957
1300360.2071076343,-59415.164,-46677.41,25546.469,-11903.076,35328.74,4224.569,-11516.602,48654.543
1300360.2111076305,-59399.58,-46662.965,25565.43,-11903.728,35357.016,4240.3975,-11513.713,49648.805
1300360.215107627,-59366.375,-46637.207,25599.65,-11904.053,35380.902,4252.2383,-11511.108,50425.742
1300360.2191076232,-59352.133,-46628.62,25614.99,-11904.867,35363.2,4249.5527,-11512.085,50139.527
1300360.2231076197,-59384.645,-46660.77,25579.387,-11905.355,35332.4,4233.1543,-11514.853,49042.36
1300360.227107616,-59408.246,-46680.22,25551.678,-11901.896,35330.527,4227.458,-11513.469,48780.887
1300360.2311076124,-59392.297,-46658.164,25572.877,-11899.496,35355.875,4239.299,-11511.475,49691.043
1300360.2351076086,-59360.477,-46635.824,25610.922,-11901.205,35378.785,4248.3726,-11515.625,50352.824
1300360.239107605,-59355.31,-46632.367,25621.787,-11903.931,35364.664,4244.629,-11516.724,50084.11
1300360.2431076015,-59391.074,-46659.02,25590.781,-11902.344,35334.027,4231.9336,-11516.4795,49087.402
1300360.2471075978,-59413.414,-46674.03,25564.78,-11902.751,35331.383,4229.37,-11514.648,48740.156
1300360.2511075942,-59394.656,-46662.477,25572.754,-11902.222,35354.332,4243.408,-11511.394,49703.207
1300360.2551075905,-59357.344,-46630.535,25614.299,-11900.676,35371.543,4258.708,-11507.854,50532.758
1300360.259107587,-59350.305,-46617.84,25620.078,-11900.92,35360.434,4251.1396,-11511.068,50153.117
1300360.2631075832,-59390.75,-46647.3,25587.281,-11902.222,35330.73,4235.0264,-11512.899,49056.684
1300360.2671075796,-59420.9,-46665.773,25552.816,-11902.1,35316.895,4229.7773,-11514.445,48731.934
1300360.2711075759,-59404.094,-46660.156,25571.738,-11900.676,35350.953,4243.7744,-11515.422,49633.016
1300360.2751075723,-59368.33,-46633.75,25615.154,-11901.652,35375.0,4257.9346,-11517.497,50445.273
1300360.2791075688,-59361.453,-46629.438,25617.025,-11901.611,35369.67,4253.581,-11516.968,50129.273
1300360.283107565,-59392.58,-46652.184,25589.316,-11901.286,35340.09,4239.9497,-11515.3,49011.844
1300360.2871075615,-59410.44,-46669.76,25559.123,-11900.513,35329.67,4240.804,-11510.214,48785.89
1300360.2911075577,-59393.637,-46655.195,25577.678,-11899.699,35358.848,4256.4697,-11507.854,49762.086
1300360.2951075542,-59361.25,-46633.953,25610.8,-11900.757,35381.473,4264.974,-11512.329,50484.66
1300360.2991075504,-59360.027,-46633.992,25614.422,-11901.367,35367.72,4256.0225,-11515.585,50080.73
1300360.3031075469,-59395.67,-46661.906,25584.84,-11899.496,35336.305,4239.095,-11517.456,49030.477
1300360.3071075433,-59418.824,-46672.934,25561.443,-11895.386,35324.625,4236.45,-11513.876,48776.734
1300360.3111075396,-59406.863,-46665.12,25577.88,-11896.159,35354.047,4253.54,-11512.126,49744.223
1300360.315107536,-59378.582,-46636.027,25609.58,-11899.292,35369.426,4266.032,-11511.719,50488.324
1300360.3191075323,-59369.387,-46637.98,25613.201,-11901.123,35362.348,4259.1553,-11512.411,50112.348
1300360.3231075287,-59406.21,-46671.1,25577.637,-11898.642,35325.766,4243.2456,-11513.51,48975.426
1300360.327107525,-59437.95,-46690.633,25548.992,-11897.014,35319.336,4239.1357,-11514.12,48698.49
1300360.3311075214,-59418.38,-46672.812,25567.75,-11896.2,35355.31,4253.9473,-11513.672,49720.38
1300360.3351075177,-59378.703,-46646.324,25602.906,-11897.38,35375.69,4264.974,-11512.207,50493.652
1300360.3391075141,-59373.58,-46640.79,25614.502,-11896.078,35359.58,4255.9004,-11514.526,50082.234
1300360.3431075106,-59401.004,-46667.89,25583.945,-11894.816,35327.598,4241.74,-11512.411,49025.39
1300360.3471075068,-59423.26,-46684.938,25559.164,-11892.05,35330.04,4239.7056,-11505.9,48774.008
1300360.3511075033,-59414.918,-46678.957,25574.057,-11893.596,35352.906,4252.3604,-11506.592,49730.266
1300360.3551074995,-59391.113,-46652.754,25596.844,-11895.915,35373.58,4261.5967,-11511.19,50477.824
1300360.359107496,-59389.812,-46661.01,25607.057,-11897.339,35353.598,4255.412,-11514.934,49992.637
1300360.3631074922,-59425.09,-46688.07,25571.25,-11897.339,35321.74,4242.0654,-11516.276,48945.273
1300360.3671074887,-59445.76,-46701.336,25544.475,-11895.264,35318.973,4241.9434,-11516.073,48749.434
1300360.371107485,-59424.887,-46685.832,25558.879,-11894.775,35353.477,4257.5684,-11513.062,49707.316
1300360.3751074814,-59384.36,-46654.297,25590.17,-11894.043,35373.863,4267.2935,-11514.648,50475.996
1300360.3791074778,-59378.176,-46657.555,25599.691,-11894.653,35359.5,4260.01,-11515.341,50117.312
1300360.383107474,-59410.117,-46692.586,25567.668,-11891.684,35325.195,4245.7686,-11516.276,49019.29
1300360.3871074705,-59439.74,-46705.16,25541.83,-11889.364,35324.547,4239.258,-11514.648,48734.54
1300360.3911074668,-59420.25,-46677.98,25559.287,-11889.323,35353.516,4252.116,-11512.492,49641.074
1300360.3951074632,-59385.742,-46649.824,25593.873,-11889.689,35379.52,4262.126,-11514.567,50464.277
1300360.3991074595,-59381.227,-46645.266,25607.707,-11889.567,35368.777,4256.185,-11516.846,50119.875
1300360.403107456,-59413.86,-46676.8,25564.129,-11890.503,35335.492,4245.6465,-11515.747,49073.082
1300360.4071074522,-59440.758,-46701.094,25537.842,-11892.334,35321.535,4243.4897,-11516.928,48828.656
1300360.4111074486,-59423.26,-46679.85,25559.611,-11892.904,35344.2,4258.138,-11518.311,49754.598
1300360.415107445,-59390.707,-46655.56,25599.814,-11892.944,35376.953,4271.2812,-11515.625,50512.617
1300360.4191074413,-59380.535,-46652.793,25605.633,-11891.073,35370.77,4266.4795,-11514.201,50116.78
1300360.4231074378,-59414.51,-46681.684,25575.44,-11890.3,35332.36,4251.506,-11514.567,49019.004
1300360.427107434,-59439.453,-46702.23,25549.48,-11887.451,35328.29,4248.332,-11514.282,48739.992
1300360.4311074305,-59407.84,-46671.715,25570.518,-11887.167,35358.727,4264.282,-11511.3125,49707.684
1300360.4351074267,-59371.42,-46633.504,25606.162,-11887.777,35388.348,4272.5425,-11511.271,50471.883
1300360.4391074232,-59373.742,-46636.027,25617.84,-11888.713,35364.625,4264.7705,-11512.126,50049.074
1300360.4431074194,-59409.223,-46671.1,25584.555,-11884.807,35331.668,4246.338,-11514.12,48918.703
1300360.4471074159,-59436.363,-46689.496,25547.73,-11883.179,35332.766,4245.687,-11511.638,48744.55
1300360.4511074123,-59418.62,-46668.418,25565.756,-11884.604,35361.453,4263.021,-11511.557,49765.668
1300360.4551074086,-59385.38,-46641.316,25607.26,-11886.19,35378.582,4276.0825,-11512.817,50481.0
1300360.459107405,-59375.938,-46635.664,25614.584,-11885.01,35372.684,4272.583,-11510.458,50123.375
1300360.4631074013,-59402.957,-46652.71,25583.293,-11885.336,35339.316,4257.772,-11511.027,49048.42
1300360.4671073977,-59426.19,-46672.73,25558.066,-11884.644,35333.254,4255.493,-11507.8125,48772.664
1300360.471107394,-59407.35,-46673.504,25571.127,-11884.726,35362.793,4268.2295,-11506.348,49688.926
1300360.4751073904,-59376.387,-46656.332,25612.346,-11885.092,35379.355,4275.5537,-11506.796,50406.7
1300360.4791073867,-59374.35,-46643.516,25621.908,-11884.033,35373.25,4267.497,-11506.796,50027.67
1300360.4831073831,-59399.66,-46665.69,25586.467,-11882.568,35343.875,4253.174,-11506.592,48994.266
1300360.4871073796,-59422.57,-46681.684,25561.809,-11881.999,35336.67,4250.6514,-11504.68,48768.84
1300360.4911073758,-59406.66,-46669.637,25572.145,-11883.017,35368.695,4263.4688,-11503.947,49793.05
1300360.4951073723,-59377.2,-46649.414,25610.475,-11886.353,35384.562,4275.5537,-11504.313,50520.062
1300360.4991073685,-59376.06,-46646.61,25617.473,-11886.557,35362.71,4271.159,-11506.47,50092.734
1300360.503107365,-59414.758,-46681.316,25580.16,-11886.638,35328.004,4256.7954,-11508.22,48955.08
1300360.5071073612,-59443.523,-46703.492,25551.107,-11886.353,35322.43,4253.581,-11509.97,48714.723
1300360.5111073577,-59422.61,-46678.1,25572.877,-11887.167,35348.145,4264.6484,-11511.108,49715.984
1300360.515107354,-59385.54,-46645.793,25614.99,-11886.271,35374.105,4273.3564,-11511.516,50496.664
1300360.5191073504,-59382.895,-46647.992,25617.066,-11887.899,35362.348,4264.282,-11514.934,50048.22
1300360.5231073468,-59419.23,-46682.414,25580.607,-11888.306,35331.055,4248.454,-11516.276,49017.58
1300360.527107343,-59441.285,-46702.965,25551.393,-11886.679,35312.094,4249.5117,-11514.445,48828.574
1300360.5311073395,-59422.242,-46686.117,25568.889,-11887.126,35344.2,4260.7017,-11516.032,49730.227
1300360.5351073358,-59390.75,-46657.676,25606.812,-11887.492,35368.816,4269.3687,-11515.137,50457.277
1300360.5391073322,-59389.61,-46652.1,25616.008,-11887.655,35360.965,4259.8066,-11519.735,50050.984
1300360.5431073285,-59416.75,-46676.066,25578.37,-11885.58,35322.31,4242.676,-11523.397,48963.016
1300360.547107325,-59441.367,-46697.55,25550.701,-11883.667,35319.867,4239.665,-11526.327,48760.418
1300360.5511073212,-59422.977,-46679.812,25572.715,-11886.149,35346.883,4254.6387,-11525.554,49761.477
1300360.5551073176,-59389.934,-46651.613,25606.771,-11886.882,35371.867,4265.8286,-11524.414,50443.484
1300360.559107314,-59391.93,-46656.13,25609.457,-11888.184,35355.957,4257.6904,-11526.205,49902.47
1300360.5631073103,-59429.566,-46686.688,25578.654,-11887.899,35319.01,4241.9434,-11528.85,48903.566
1300360.5671073068,-59451.38,-46705.812,25560.508,-11885.01,35316.61,4239.4614,-11527.954,48789.918
1300360.571107303,-59429.2,-46690.188,25569.418,-11885.58,35345.055,4252.8486,-11527.019,49749.797
1300360.5751072995,-59393.434,-46655.438,25616.334,-11887.207,35367.758,4263.5093,-11526.123,50495.527
1300360.5791072957,-59386.438,-46650.637,25622.559,-11886.394,35364.543,4254.7607,-11526.693,50062.215
1300360.5831072922,-59421.43,-46682.293,25579.387,-11885.132,35332.805,4239.624,-11524.74,48968.75
1300360.5871072884,-59441.203,-46690.555,25550.09,-11883.871,35326.297,4238.4033,-11520.671,48779.137
1300360.5911072849,-59423.383,-46679.566,25581.055,-11884.074,35353.56,4254.9644,-11516.765,49682.008
1300360.5951072813,-59388.105,-46653.28,25620.729,-11883.627,35373.863,4268.392,-11512.736,50439.21
1300360.5991072776,-59383.508,-46656.293,25625.896,-11883.098,35358.4,4258.586,-11514.73,50035.81
1300360.603107274,-59416.87,-46682.414,25584.352,-11882.854,35331.586,4239.8276,-11515.829,49007.61
1300360.6071072703,-59436.73,-46691.164,25558.432,-11879.965,35322.67,4237.793,-11512.126,48833.742
1300360.6111072667,-59410.973,-46671.715,25583.008,-11877.482,35356.12,4250.163,-11509.848,49827.273
1300360.615107263,-59371.3,-46636.07,25621.705,-11876.262,35381.88,4259.7656,-11509.155,50548.34
1300360.6191072594,-59370.77,-46637.13,25630.127,-11874.675,35362.996,4252.889,-11509.277,50088.094
1300360.6231072557,-59412.07,-46674.156,25593.75,-11874.268,35329.633,4239.665,-11507.365,48975.18
1300360.6271072521,-59434.246,-46695.8,25569.174,-11873.495,35323.04,4237.9966,-11505.127,48765.91
1300360.6311072486,-59409.223,-46666.016,25589.723,-11872.722,35354.535,4253.215,-11501.547,49804.73
1300360.6351072448,-59378.664,-46635.906,25625.53,-11874.512,35380.37,4263.7534,-11501.831,50545.777
1300360.6391072413,-59381.066,-46647.383,25631.227,-11876.547,35367.84,4254.232,-11506.958,50055.176
1300360.6431072375,-59417.97,-46670.777,25596.885,-11873.413,35333.293,4237.5083,-11509.888,49042.93
1300360.647107234,-59432.375,-46678.145,25571.533,-11873.251,35332.36,4235.718,-11509.5625,48861.53
1300360.6511072302,-59405.07,-46660.484,25596.232,-11874.797,35360.312,4251.2207,-11507.854,49846.805
1300360.6551072267,-59370.324,-46632.164,25631.47,-11876.994,35379.8,4261.434,-11505.371,50557.457
1300360.659107223,-59365.97,-46625.816,25631.47,-11877.197,35360.72,4252.0347,-11512.492,50037.76
1300360.6631072194,-59403.117,-46659.793,25589.967,-11876.994,35328.086,4241.252,-11512.207,48986.777
1300360.6671072158,-59429.73,-46684.613,25562.46,-11875.814,35335.33,4240.1533,-11508.667,48845.746
1300360.671107212,-59409.344,-46667.117,25586.59,-11875.8545,35370.32,4253.581,-11510.254,49842.367
1300360.6751072085,-59372.926,-46630.414,25623.291,-11876.425,35389.363,4262.1665,-11508.667,50496.785
1300360.6791072048,-59376.426,-46637.617,25624.594,-11876.303,35373.7,4250.285,-11510.58,49926.395
1300360.6831072012,-59409.387,-46666.547,25590.781,-11875.285,35335.574,4234.5786,-11513.469,49008.832
1300360.6871071975,-59433.88,-46677.86,25573.568,-11873.657,35337.08,4234.497,-11512.817,48911.258
1300360.691107194,-59418.38,-46659.02,25592.205,-11874.228,35374.023,4246.9893,-11514.12,49815.39
1300360.6951071904,-59383.586,-46636.19,25628.906,-11875.977,35385.254,4255.8594,-11513.55,50559.734
1300360.6991071866,-59379.52,-46634.402,25636.598,-11876.953,35363.85,4250.7324,-11513.591,50082.113
1300360.703107183,-59411.906,-46666.426,25602.947,-11874.675,35338.746,4235.881,-11512.817,49010.133
1300360.7071071793,-59428.387,-46686.523,25575.645,-11873.657,35343.1,4232.9917,-11512.329,48835.37
1300360.7111071758,-59409.793,-46663.086,25593.791,-11874.431,35364.42,4248.535,-11508.952,49748.496
1300360.715107172,-59382.367,-46632.652,25630.656,-11874.064,35387.29,4258.0977,-11508.22,50508.547
1300360.7191071685,-59382.12,-46636.07,25639.08,-11875.732,35378.703,4248.0063,-11510.295,50023.152
1300360.7231071647,-59417.562,-46665.0,25595.826,-11875.0,35349.57,4234.009,-11510.986,48977.785
1300360.7271071612,-59437.46,-46674.645,25569.297,-11874.553,35347.656,4235.067,-11507.854,48898.277
1300360.7311071577,-59412.598,-46661.01,25594.727,-11875.244,35377.2,4248.9014,-11507.446,49862.1
1300360.735107154,-59376.914,-46632.977,25630.088,-11877.075,35395.793,4255.29,-11510.58,50537.68
1300360.7391071504,-59377.484,-46638.348,25635.377,-11876.913,35371.176,4246.379,-11514.282,50000.082
1300360.7431071466,-59421.47,-46668.906,25599.326,-11876.709,35334.598,4231.771,-11516.439,48873.945
1300360.747107143,-59440.676,-46684.938,25576.295,-11875.366,35336.02,4232.7476,-11512.451,48828.613
1300360.7511071393,-59413.78,-46663.777,25595.947,-11874.268,35364.746,4248.413,-11508.057,49839.97
1300360.7551071357,-59378.418,-46637.82,25628.5,-11874.634,35395.02,4257.1616,-11506.552,50562.99
1300360.759107132,-59378.418,-46642.945,25635.133,-11875.8545,35374.84,4249.349,-11508.545,50092.207
1300360.7631071284,-59417.277,-46675.863,25593.791,-11875.8955,35340.902,4234.294,-11508.098,49001.875
1300360.767107125,-59435.875,-46689.293,25566.773,-11873.454,35341.31,4233.1953,-11506.308,48850.953
1300360.7711071211,-59415.773,-46668.785,25596.273,-11875.488,35363.527,4247.3555,-11507.243,49748.7
1300360.7751071176,-59387.25,-46643.92,25635.215,-11878.093,35384.277,4257.9346,-11510.173,50436.28
1300360.7791071138,-59387.25,-46648.195,25640.178,-11876.669,35367.27,4248.0063,-11516.195,49998.82
1300360.7831071103,-59413.94,-46671.145,25601.482,-11875.448,35341.39,4233.602,-11516.887,49034.87
1300360.7871071065,-59438.887,-46694.906,25565.309,-11875.57,35335.613,4235.067,-11515.259,48915.04
1300360.791107103,-59413.13,-46673.016,25591.92,-11875.407,35362.145,4249.919,-11512.614,49870.16
1300360.7951070992,-59386.68,-46647.91,25627.97,-11877.563,35378.99,4259.1553,-11512.817,50477.418
1300360.7991070957,-59393.434,-46661.746,25632.285,-11880.412,35353.07,4251.75,-11513.55,49965.17
1300360.8031070922,-59425.17,-46693.156,25597.047,-11879.639,35321.98,4237.9966,-11514.364,49001.63
1300360.8071070884,-59445.844,-46702.027,25573.04,-11880.29,35333.09,4236.084,-11513.144,48929.973
1300360.8111070849,-59422.285,-46678.145,25599.57,-11880.575,35366.945,4250.7734,-11512.289,49911.133
1300360.815107081,-59386.56,-46655.316,25631.836,-11881.999,35380.086,4263.5093,-11512.492,50591.31
1300360.8191070776,-59387.574,-46651.9,25626.547,-11881.145,35368.41,4254.2725,-11515.3,50051.883
1300360.8231070738,-59432.17,-46690.145,25595.135,-11881.552,35340.902,4238.4033,-11520.793,49029.297
1300360.8271070702,-59447.31,-46706.91,25571.615,-11879.028,35336.71,4235.189,-11522.543,48843.1
1300360.8311070665,-59423.992,-46685.26,25595.135,-11879.11,35368.082,4246.745,-11520.224,49747.438
1300360.835107063,-59400.676,-46660.484,25630.656,-11881.552,35387.125,4255.819,-11518.2295,50487.184
1300360.8391070594,-59393.19,-46656.902,25636.23,-11880.371,35366.496,4249.675,-11519.857,50003.01
1300360.8431070556,-59424.523,-46686.363,25600.83,-11877.075,35344.117,4234.172,-11522.909,48955.895
1300360.847107052,-59445.03,-46706.3,25579.713,-11878.744,35333.336,4232.585,-11521.688,48860.19
1300360.8511070483,-59421.836,-46678.996,25603.312,-11877.89,35365.562,4245.6055,-11519.531,49852.664
1300360.8551070448,-59387.004,-46648.152,25637.86,-11876.384,35392.824,4256.185,-11517.619,50590.742
1300360.859107041,-59390.06,-46655.438,25639.04,-11878.703,35371.95,4246.338,-11520.346,50044.72
1300360.8631070375,-59422.895,-46688.477,25587.2,-11878.744,35345.582,4231.201,-11521.362,49057.617
1300360.8671070337,-59447.31,-46707.684,25574.3,-11877.686,35343.793,4233.358,-11518.718,48921.43
1300360.8711070302,-59427.98,-46692.465,25601.035,-11877.727,35365.316,4248.7793,-11515.056,49774.008
1300360.8751070267,-59395.348,-46661.258,25639.934,-11879.15,35384.074,4257.65,-11512.736,50489.46
1300360.879107023,-59392.336,-46655.844,25642.62,-11879.3545,35369.957,4247.64,-11513.957,50027.508
1300360.8831070194,-59427.53,-46688.926,25597.941,-11878.134,35339.76,4231.6895,-11515.259,49024.375
1300360.8871070156,-59444.01,-46698.242,25581.87,-11874.838,35336.184,4231.2827,-11514.73,48919.07
1300360.891107012,-59418.215,-46664.88,25608.236,-11873.007,35378.46,4244.3037,-11516.154,49910.89
1300360.8951070083,-59383.71,-46638.184,25640.219,-11875.8545,35401.164,4251.4243,-11521.078,50563.887
1300360.8991070047,-59385.418,-46654.22,25641.766,-11877.157,35373.453,4240.6416,-11522.299,50003.5
