timestamp,Fp1,Fp2,F3,Fz,F4,Cz,Pz,Oz
1317577.4808169098,-82481.24,-85349.125,-57813.52,-45273.848,-23402.996,-33516.645,-6841.797,-14993.896
1317577.4848169049,-82489.87,-85357.67,-57816.125,-45304.61,-23409.18,-33529.42,-6841.5527,-14987.671
1317577.4888168997,-82493.9,-85364.55,-57814.09,-45314.414,-23409.506,-33532.39,-6842.204,-14984.904
1317577.4928168948,-82488.0,-85362.02,-57806.36,-45293.215,-23404.502,-33524.863,-6848.7144,-14992.676
1317577.4968168898,-82479.74,-85353.15,-57796.105,-45267.17,-23400.229,-33517.742,-6857.544,-15006.063
1317577.5008168847,-82480.555,-85353.07,-57799.48,-45270.145,-23408.244,-33523.684,-6861.0435,-15008.993
1317577.5048168798,-82488.57,-85362.71,-57806.48,-45300.66,-23412.436,-33536.01,-6855.428,-15003.052
1317577.5088168746,-82492.72,-85366.01,-57805.34,-45307.375,-23405.518,-33536.258,-6850.0977,-14999.512
1317577.5128168697,-82490.89,-85361.58,-57806.36,-45287.52,-23398.072,-33528.2,-6851.8066,-15000.488
1317577.5168168647,-82484.21,-85352.7,-57806.48,-45266.93,-23392.945,-33521.73,-6856.8525,-15004.761
1317577.5208168596,-82482.55,-85347.86,-57806.48,-45269.86,-23400.635,-33523.355,-6854.0854,-15004.599
1317577.5248168546,-82484.91,-85350.18,-57811.363,-45298.465,-23408.367,-33532.188,-6847.0054,-14998.454
1317577.5288168495,-82488.85,-85356.9,-57813.52,-45309.773,-23404.582,-33534.223,-6844.1978,-14995.28
1317577.5328168445,-82490.03,-85356.41,-57810.1,-45292.97,-23397.299,-33526.004,-6845.337,-14996.013
1317577.5368168394,-82483.766,-85348.68,-57807.457,-45269.453,-23393.066,-33516.645,-6849.8945,-15001.262
1317577.5408168344,-82483.4,-85345.016,-57810.223,-45272.504,-23400.717,-33521.363,-6854.7363,-15007.609
1317577.5448168295,-82492.88,-85356.04,-57818.32,-45302.777,-23407.227,-33535.605,-6853.353,-15008.22
1317577.5488168243,-82498.13,-85362.51,-57816.164,-45316.33,-23410.117,-33538.492,-6851.644,-15005.209
1317577.5528168194,-82497.234,-85360.68,-57812.99,-45297.445,-23407.268,-33531.168,-6855.3467,-15009.848
1317577.5568168142,-82496.016,-85356.33,-57812.582,-45274.742,-23400.514,-33524.008,-6861.45,-15018.393
1317577.5608168093,-82497.195,-85352.5,-57816.246,-45278.32,-23404.99,-33526.164,-6862.834,-15018.148
1317577.5648168044,-82501.18,-85359.375,-57820.598,-45306.234,-23408.57,-33534.508,-6856.4453,-15009.44
1317577.5688167992,-82505.01,-85368.49,-57824.06,-45319.05,-23406.455,-33536.99,-6852.6206,-14998.739
1317577.5728167943,-82504.68,-85366.7,-57820.438,-45300.133,-23400.758,-33532.188,-6859.2124,-15007.772
1317577.576816789,-82512.086,-85365.08,-57824.547,-45277.223,-23402.385,-33521.934,-6864.4614,-15017.212
1317577.5808167842,-82518.805,-85374.02,-57829.67,-45281.13,-23409.506,-33522.543,-6862.427,-15014.567
1317577.584816779,-82498.82,-85366.87,-57821.74,-45306.887,-23416.016,-33534.098,-6858.073,-15011.068
1317577.588816774,-82481.445,-85357.266,-57811.2,-45315.797,-23415.65,-33536.418,-6859.0903,-15015.707
1317577.5928167691,-82480.875,-85358.36,-57807.293,-45297.324,-23411.338,-33527.957,-6859.009,-15003.215
1317577.596816764,-82480.836,-85356.65,-57806.234,-45278.32,-23410.197,-33519.45,-6864.299,-15013.998
1317577.600816759,-82489.87,-85367.76,-57812.664,-45285.93,-23420.533,-33520.266,-6863.6475,-15018.433
1317577.6048167539,-82495.85,-85377.36,-57820.11,-45316.734,-23430.664,-33532.633,-6861.0435,-15006.877
1317577.608816749,-82500.25,-85384.56,-57820.395,-45328.613,-23432.455,-33535.848,-6859.172,-15004.11
1317577.612816744,-82499.76,-85386.07,-57810.832,-45308.84,-23425.62,-33526.9,-6861.8574,-15013.266
1317577.6168167389,-82486.33,-85374.88,-57802.41,-45280.07,-23421.55,-33519.574,-6864.9497,-15011.027
1317577.620816734,-82484.83,-85372.32,-57803.59,-45284.06,-23427.002,-33522.95,-6862.712,-15007.854
1317577.6248167288,-82492.02,-85384.08,-57806.03,-45312.83,-23434.082,-33532.84,-6852.783,-14996.257
1317577.6288167238,-82494.19,-85394.82,-57804.2,-45325.93,-23437.908,-33536.258,-6848.5923,-14991.496
1317577.6328167187,-82495.32,-85394.94,-57798.547,-45307.863,-23429.525,-33527.47,-6849.691,-14990.845
1317577.6368167137,-82492.19,-85388.76,-57797.285,-45281.902,-23426.148,-33521.28,-6852.417,-14990.194
1317577.6408167088,-82486.695,-85381.96,-57800.66,-45282.797,-23428.346,-33524.54,-6852.458,-14992.392
1317577.6448167036,-82486.62,-85386.4,-57802.168,-45308.473,-23432.537,-33533.855,-6849.243,-14993.164
1317577.6488166987,-82488.61,-85389.0,-57801.84,-45322.105,-23433.025,-33536.785,-6851.278,-14989.624
1317577.6528166935,-82488.57,-85386.92,-57798.3,-45302.574,-23430.787,-33529.38,-6860.1484,-14997.152
1317577.6568166886,-82487.555,-85381.836,-57797.812,-45279.707,-23423.584,-33522.34,-6863.4443,-14999.553
1317577.6608166837,-82489.34,-85379.68,-57803.43,-45283.367,-23425.537,-33522.79,-6861.9795,-14999.675
1317577.6648166785,-82495.61,-85388.59,-57812.582,-45313.355,-23431.234,-33531.863,-6859.05,-15001.506
1317577.6688166736,-82503.74,-85397.87,-57814.375,-45325.035,-23436.605,-33534.223,-6857.6255,-15000.814
1317577.6728166684,-82497.16,-85391.805,-57807.21,-45305.22,-23429.404,-33525.797,-6863.6475,-15006.918
1317577.6768166635,-82490.6,-85386.4,-57804.445,-45282.96,-23423.016,-33522.707,-6870.158,-15013.469
1317577.6808166585,-82492.516,-85386.516,-57807.945,-45287.152,-23429.2,-33524.54,-6868.6934,-15010.051
1317577.6848166534,-82499.43,-85392.625,-57811.035,-45313.438,-23436.158,-33533.773,-6862.9966,-15002.768
1317577.6888166484,-82505.62,-85402.836,-57810.508,-45327.11,-23440.064,-33535.523,-6859.009,-14995.361
1317577.6928166433,-82501.23,-85396.41,-57801.68,-45308.676,-23431.805,-33527.914,-6861.4097,-15001.913
1317577.6968166383,-82492.02,-85383.34,-57795.047,-45280.438,-23425.537,-33518.066,-6862.02,-15002.768
1317577.7008166332,-82491.3,-85382.445,-57799.035,-45285.727,-23432.252,-33518.555,-6858.3984,-15001.75
1317577.7048166282,-82499.76,-85396.445,-57809.53,-45319.336,-23444.785,-33528.605,-6848.3076,-14985.678
1317577.7088166233,-82505.414,-85405.03,-57811.77,-45331.87,-23445.842,-33532.023,-6843.3027,-14982.626
1317577.7128166182,-82504.6,-85402.67,-57806.97,-45318.074,-23437.135,-33525.31,-6847.046,-14984.985
1317577.7168166132,-82496.99,-85392.945,-57802.816,-45294.23,-23431.56,-33517.945,-6853.475,-14984.619
1317577.720816608,-82493.37,-85385.83,-57805.098,-45291.426,-23430.746,-33518.8,-6853.923,-14987.224
1317577.7248166031,-82504.97,-85396.33,-57815.27,-45320.883,-23436.932,-33530.76,-6851.7256,-14988.037
1317577.7288165982,-82509.766,-85405.766,-57816.082,-45332.723,-23439.576,-33530.723,-6850.057,-14984.294
1317577.732816593,-82501.305,-85399.05,-57807.457,-45311.65,-23430.46,-33522.664,-6852.1323,-14991.862
1317577.736816588,-82494.34,-85392.83,-57804.73,-45287.312,-23428.102,-33513.875,-6856.8525,-14999.512
1317577.740816583,-82495.08,-85396.08,-57813.152,-45293.38,-23433.27,-33515.383,-6855.754,-14999.023
1317577.744816578,-82506.266,-85408.61,-57822.88,-45325.97,-23444.174,-33526.285,-6848.8364,-14990.723
1317577.7488165728,-82511.27,-85414.266,-57820.312,-45336.062,-23443.482,-33529.95,-6848.8364,-14993.124
1317577.752816568,-82507.086,-85408.94,-57814.21,-45313.355,-23431.723,-33524.496,-6856.771,-14998.332
1317577.756816563,-82505.78,-85403.73,-57812.176,-45286.95,-23428.102,-33520.266,-6866.008,-15004.11
1317577.7608165578,-82512.9,-85408.2,-57816.57,-45292.402,-23433.799,-33523.355,-6870.3613,-15015.829
1317577.7648165529,-82526.62,-85421.8,-57822.96,-45322.957,-23447.633,-33531.21,-6866.577,-15013.51
1317577.7688165477,-82508.914,-85411.54,-57813.684,-45331.504,-23446.412,-33533.367,-6864.909,-15005.127
1317577.7728165428,-82493.37,-85394.82,-57804.04,-45312.664,-23438.355,-33528.402,-6867.92,-15006.022
1317577.7768165378,-82501.266,-85399.664,-57803.266,-45291.098,-23437.053,-33517.984,-6866.699,-15002.727
1317577.7808165327,-82510.016,-85407.59,-57809.246,-45293.54,-23442.344,-33518.72,-6862.956,-14998.373
1317577.7848165277,-82517.46,-85413.82,-57821.21,-45324.18,-23447.998,-33530.113,-6857.951,-14992.065
1317577.7888165226,-82522.34,-85420.86,-57822.96,-45341.473,-23445.436,-33533.57,-6854.3296,-14985.434
1317577.7928165176,-82521.32,-85423.22,-57818.523,-45325.766,-23437.297,-33525.027,-6855.5503,-14984.294
1317577.7968165125,-82518.44,-85417.12,-57816.816,-45301.19,-23433.229,-33516.48,-6860.433,-14991.252
1317577.8008165075,-82514.57,-85411.91,-57819.703,-45300.58,-23438.6,-33516.727,-6861.247,-14994.141
1317577.8048165026,-82519.29,-85419.84,-57821.7,-45328.047,-23442.506,-33525.066,-6851.278,-14982.951
1317577.8088164974,-82524.13,-85426.07,-57821.535,-45339.6,-23438.682,-33527.75,-6847.575,-14977.255
1317577.8128164925,-82526.0,-85423.55,-57818.727,-45317.75,-23434.531,-33519.86,-6851.4,-14982.951
1317577.8168164873,-82520.266,-85414.19,-57815.15,-45291.586,-23432.902,-33512.535,-6857.951,-14989.299
1317577.8208164824,-82515.83,-85408.98,-57815.39,-45294.434,-23435.467,-33513.47,-6854.289,-14979.086
1317577.8248164775,-82519.984,-85417.12,-57818.93,-45324.383,-23441.977,-33522.83,-6844.9707,-14961.955
1317577.8288164723,-82525.44,-85425.91,-57818.727,-45341.637,-23445.191,-33530.03,-6845.744,-14968.1
1317577.8328164674,-82523.484,-85421.92,-57813.64,-45323.324,-23438.152,-33523.03,-6849.447,-14968.14
1317577.8368164622,-82512.78,-85407.68,-57810.71,-45293.336,-23431.072,-33515.465,-6856.649,-14981.323
1317577.8408164573,-82507.77,-85400.64,-57813.4,-45295.37,-23434.814,-33519.168,-6857.9917,-14985.8
1317577.8448164521,-82515.016,-85411.38,-57817.793,-45326.17,-23441.123,-33528.28,-6848.918,-14969.768
1317577.8488164472,-82518.88,-85418.74,-57815.84,-45338.42,-23439.088,-33527.996,-6844.7266,-14964.6
1317577.8528164423,-82514.9,-85415.695,-57811.2,-45317.87,-23432.7,-33521.688,-6849.5283,-14965.088
1317577.856816437,-82509.24,-85404.91,-57806.766,-45292.117,-23431.234,-33513.918,-6854.2075,-14968.466
1317577.8608164322,-82510.336,-85403.93,-57810.1,-45297.773,-23439.373,-33513.062,-6849.8535,-14968.14
1317577.864816427,-82528.61,-85425.26,-57820.598,-45331.3,-23450.766,-33520.754,-6840.9834,-14968.018
1317577.868816422,-82538.336,-85437.7,-57820.355,-45340.7,-23454.713,-33521.688,-6837.728,-14967.8955
1317577.8728164171,-82520.06,-85419.555,-57810.305,-45318.848,-23440.309,-33517.336,-6844.6455,-14967.8955
1317577.876816412,-82501.79,-85396.57,-57803.55,-45292.97,-23430.096,-33511.23,-6851.6846,-14970.581
1317577.880816407,-82512.58,-85404.625,-57809.855,-45294.883,-23435.547,-33512.82,-6848.7144,-14972.575
1317577.8848164019,-82531.45,-85425.375,-57818.2,-45328.29,-23448.121,-33524.21,-6842.5703,-14963.257
1317577.888816397,-82541.18,-85438.27,-57823.367,-45346.76,-23451.701,-33528.402,-6841.268,-14961.142
1317577.8928163918,-82538.414,-85439.086,-57820.11,-45324.75,-23447.715,-33521.89,-6849.04,-14970.703
1317577.8968163868,-82533.2,-85434.25,-57818.973,-45296.67,-23443.28,-33517.133,-6858.5615,-14984.253
1317577.900816382,-82531.62,-85432.984,-57821.7,-45302.53,-23450.115,-33520.47,-6861.1655,-14991.659
1317577.9048163767,-82536.09,-85438.07,-57827.598,-45331.18,-23454.55,-33531.453,-6857.341,-14987.549
1317577.9088163718,-82538.29,-85438.52,-57829.348,-45341.434,-23455.283,-33533.12,-6853.597,-14978.068
1317577.9128163666,-82539.76,-85438.195,-57828.25,-45325.887,-23450.807,-33528.727,-6856.6895,-14981.323
1317577.9168163617,-82535.16,-85431.97,-57827.477,-45302.492,-23449.707,-33522.137,-6866.008,-14995.036
1317577.9208163568,-82531.45,-85428.67,-57826.824,-45302.37,-23451.01,-33519.37,-6861.9385,-14984.782
1317577.9248163516,-82543.016,-85441.37,-57833.703,-45333.742,-23460.287,-33530.438,-6852.092,-14962.81
1317577.9288163467,-82549.766,-85447.06,-57832.03,-45348.594,-23456.748,-33534.14,-6851.156,-14961.508
1317577.9328163415,-82545.33,-85443.12,-57824.953,-45329.227,-23446.818,-33526.285,-6857.2593,-14967.855
1317577.9368163366,-82539.23,-85437.87,-57821.13,-45302.168,-23443.482,-33519.33,-6866.2925,-14978.3125
1317577.9408163317,-82539.836,-85434.49,-57824.18,-45303.184,-23451.05,-33523.64,-6869.344,-14983.276
1317577.9448163265,-82545.125,-85439.086,-57834.395,-45334.312,-23457.275,-33537.516,-6866.211,-14982.178
1317577.9488163216,-82547.9,-85444.5,-57831.098,-45345.418,-23455.934,-33539.47,-6861.9385,-14978.882
1317577.9528163164,-82543.625,-85438.68,-57825.074,-45322.715,-23449.586,-33530.52,-6863.4443,-14980.551
1317577.9568163115,-82536.46,-85428.96,-57818.566,-45294.965,-23441.814,-33520.957,-6863.7695,-14983.806
1317577.9608163063,-82534.266,-85424.93,-57819.99,-45297.08,-23445.557,-33521.89,-6860.555,-14980.632
1317577.9648163014,-82538.78,-85433.64,-57827.395,-45329.715,-23454.59,-33529.42,-6853.3125,-14966.919
1317577.9688162964,-82544.84,-85442.875,-57829.062,-45347.21,-23455.445,-33531.58,-6847.6562,-14959.27
1317577.9728162913,-82544.195,-85442.51,-57824.992,-45329.387,-23451.54,-33528.117,-6850.6675,-14962.524
1317577.9768162863,-82538.9,-85435.59,-57824.22,-45308.31,-23444.906,-33521.688,-6854.94,-14964.804
1317577.9808162812,-82538.17,-85431.93,-57828.613,-45309.33,-23448.447,-33521.324,-6855.184,-14968.832
1317577.9848162762,-82542.805,-85439.01,-57834.96,-45335.164,-23455.486,-33531.7,-6849.447,-14963.013
1317577.9888162713,-82546.875,-85446.21,-57831.22,-45344.973,-23454.957,-33533.773,-6847.0054,-14960.043
1317577.9928162661,-82544.516,-85441.61,-57828.29,-45330.242,-23448.936,-33527.508,-6853.3936,-14968.791
1317577.9968162612,-82538.336,-85432.7,-57827.19,-45308.72,-23444.297,-33520.387,-6858.8057,-14973.511
1317578.000816256,-82537.27,-85430.34,-57828.332,-45311.566,-23448.771,-33521.812,-6859.0903,-14976.889
1317578.004816251,-82545.21,-85438.36,-57832.48,-45342.613,-23457.602,-33530.844,-6852.2544,-14966.269
1317578.008816246,-82547.61,-85441.61,-57831.87,-45351.32,-23453.94,-33532.88,-6847.4937,-14958.862
1317578.012816241,-82544.11,-85437.91,-57826.297,-45332.93,-23447.021,-33526.57,-6851.074,-14966.391
1317578.016816236,-82536.46,-85430.55,-57822.88,-45310.547,-23443.93,-33518.92,-6854.9805,-14969.564
1317578.020816231,-82534.875,-85430.586,-57829.43,-45313.19,-23450.684,-33518.84,-6856.7305,-14972.168
1317578.024816226,-82540.37,-85437.26,-57833.906,-45341.35,-23456.34,-33526.004,-6847.29,-14962.646
1317578.0288162208,-82546.555,-85440.76,-57832.805,-45353.68,-23454.795,-33529.625,-6842.041,-14956.584
1317578.032816216,-82552.78,-85441.77,-57828.29,-45336.836,-23450.928,-33524.78,-6845.134,-14958.862
1317578.036816211,-82545.53,-85435.305,-57824.79,-45311.934,-23445.762,-33518.516,-6850.9116,-14963.623
1317578.0408162058,-82530.68,-85422.94,-57822.51,-45314.617,-23447.918,-33522.504,-6855.306,-14965.454
1317578.0448162009,-82529.18,-85422.98,-57825.156,-45345.34,-23455.242,-33531.535,-6855.306,-14964.152
1317578.0488161957,-82542.69,-85437.75,-57829.145,-45358.113,-23458.822,-33536.46,-6854.004,-14960.734
1317578.0528161908,-82539.15,-85436.93,-57824.3,-45338.176,-23451.172,-33530.234,-6858.5615,-14967.001
1317578.0568161856,-82531.91,-85427.9,-57819.785,-45311.566,-23448.527,-33521.812,-6863.6475,-14977.173
1317578.0608161807,-82534.1,-85429.12,-57823.324,-45312.297,-23453.736,-33520.793,-6861.5723,-14977.499
1317578.0648161757,-82540.734,-85436.89,-57830.69,-45342.734,-23458.781,-33531.617,-6856.1606,-14967.651
1317578.0688161706,-82543.3,-85443.65,-57833.293,-45358.113,-23459.229,-33533.895,-6854.9805,-14964.478
1317578.0728161656,-82539.11,-85438.4,-57827.844,-45338.22,-23451.986,-33526.082,-6855.2246,-14965.129
1317578.0768161605,-82531.25,-85425.58,-57822.39,-45310.957,-23447.754,-33517.984,-6855.9165,-14966.105
1317578.0808161555,-82526.2,-85420.49,-57821.777,-45312.746,-23449.26,-33517.254,-6853.1904,-14963.705
1317578.0848161506,-82532.31,-85429.37,-57825.074,-45345.906,-23459.473,-33528.89,-6847.9004,-14957.072
1317578.0888161454,-82537.68,-85439.86,-57825.402,-45359.99,-23459.066,-33533.61,-6844.8896,-14951.742
1317578.0928161405,-82534.836,-85434.57,-57823.324,-45338.504,-23450.277,-33525.473,-6849.4062,-14950.033
1317578.0968161353,-82526.62,-85425.3,-57819.5,-45311.81,-23444.256,-33518.637,-6858.8057,-14964.396
1317578.1008161304,-82525.92,-85424.234,-57824.3,-45315.145,-23446.25,-33521.484,-6857.6255,-14962.362
1317578.1048161252,-82533.37,-85433.07,-57832.4,-45347.656,-23454.428,-33532.96,-6851.9697,-14954.672
1317578.1088161203,-82537.03,-85438.11,-57832.97,-45362.47,-23456.584,-33535.035,-6854.818,-14958.781
1317578.1128161154,-82535.28,-85433.8,-57827.434,-45343.465,-23450.115,-33527.344,-6859.8228,-14964.926
1317578.1168161102,-82530.36,-85426.84,-57826.17,-45318.074,-23445.273,-33516.156,-6858.4395,-14958.252
1317578.1208161053,-82528.37,-85420.414,-57827.027,-45318.484,-23448.975,-33518.312,-6855.876,-14955.648
1317578.1248161,-82534.43,-85429.69,-57829.023,-45343.793,-23452.271,-33528.08,-6850.342,-14956.665
1317578.1288160952,-82535.445,-85434.53,-57825.97,-45355.184,-23452.678,-33529.746,-6843.384,-14947.104
1317578.1328160902,-82530.6,-85429.89,-57818.44,-45336.55,-23448.895,-33523.64,-6845.866,-14952.759
1317578.136816085,-82521.445,-85418.375,-57812.055,-45309.9,-23441.773,-33518.066,-6848.1445,-14958.293
1317578.1408160802,-82520.47,-85412.766,-57814.047,-45309.98,-23444.5,-33519.043,-6846.5986,-14954.794
1317578.144816075,-82531.5,-85423.625,-57823.938,-45338.22,-23455.201,-33532.797,-6847.6562,-14955.363
1317578.14881607,-82539.63,-85433.88,-57828.41,-45354.004,-23456.137,-33538.98,-6849.04,-14953.695
1317578.152816065,-82539.31,-85434.25,-57824.992,-45337.688,-23449.951,-33532.676,-6852.661,-14958.252
1317578.15681606,-82530.195,-85429.12,-57818.44,-45310.1,-23446.697,-33522.83,-6852.336,-14953.654
1317578.160816055,-82525.72,-85422.41,-57822.145,-45312.38,-23448.73,-33523.316,-6848.5923,-14954.428
1317578.1648160499,-82531.62,-85426.11,-57827.355,-45341.23,-23457.643,-33533.49,-6842.6514,-14954.062
1317578.168816045,-82533.086,-85424.12,-57824.87,-45352.582,-23454.754,-33535.2,-6842.082,-14951.945
1317578.1728160398,-82530.68,-85422.53,-57820.883,-45335.734,-23448.04,-33528.85,-6847.534,-14959.555
1317578.1768160348,-82527.95,-85416.51,-57820.273,-45313.03,-23445.72,-33522.098,-6852.8647,-14963.298
1317578.18081603,-82525.96,-85412.64,-57824.668,-45316.0,-23447.104,-33522.91,-6853.719,-14965.088
1317578.1848160247,-82535.65,-85426.76,-57832.52,-45346.316,-23455.078,-33533.53,-6848.0225,-14958.862
1317578.1888160198,-82543.336,-85437.83,-57836.062,-45358.523,-23457.154,-33535.645,-6845.256,-14951.538
1317578.1928160146,-82538.49,-85430.38,-57824.992,-45337.812,-23449.463,-33529.297,-6850.5454,-14955.974
1317578.1968160097,-82526.57,-85412.516,-57815.918,-45312.38,-23441.082,-33522.746,-6858.073,-14966.879
1317578.2008160048,-82519.05,-85403.0,-57814.984,-45311.035,-23442.506,-33525.473,-6857.788,-14964.274
1317578.2048159996,-82520.305,-85413.336,-57817.1,-45336.996,-23448.406,-33536.582,-6855.1025,-14957.683
1317578.2088159947,-82524.25,-85421.96,-57817.87,-45352.01,-23448.242,-33539.023,-6852.9463,-14955.485
1317578.2128159895,-82525.76,-85422.08,-57818.44,-45337.242,-23442.953,-33530.76,-6857.544,-14961.589
1317578.2168159846,-82523.805,-85417.766,-57818.28,-45311.934,-23438.64,-33522.176,-6862.7524,-14971.802
1317578.2208159794,-82526.164,-85418.336,-57819.5,-45316.406,-23448.975,-33523.4,-6861.247,-14972.86
1317578.2248159745,-82536.625,-85426.84,-57827.76,-45349.0,-23459.107,-33535.523,-6859.172,-14970.093
1317578.2288159695,-82536.91,-85429.04,-57828.86,-45360.434,-23456.787,-33537.027,-6857.015,-14966.309
1317578.2328159644,-82532.516,-85426.19,-57823.242,-45339.56,-23451.945,-33529.42,-6859.294,-14964.4375
1317578.2368159594,-82523.89,-85416.305,-57815.96,-45311.727,-23446.697,-33523.113,-6862.3457,-14965.861
1317578.2408159543,-82513.47,-85409.875,-57814.375,-45312.176,-23447.389,-33525.473,-6860.2705,-14964.274
1317578.2448159494,-82516.93,-85415.94,-57816.613,-45340.13,-23454.428,-33538.656,-6853.597,-14953.044
1317578.2488159444,-82519.984,-85417.93,-57813.887,-45349.246,-23447.633,-33542.645,-6848.3076,-14947.348
1317578.2528159393,-82513.836,-85408.734,-57807.17,-45325.97,-23434.326,-33534.02,-6852.3765,-14958.74
1317578.2568159343,-82507.164,-85401.086,-57805.543,-45304.324,-23431.234,-33524.54,-6855.9165,-14964.722
1317578.2608159292,-82509.4,-85404.75,-57811.605,-45307.863,-23439.902,-33523.562,-6856.1606,-14962.321
1317578.2648159242,-82515.1,-85412.516,-57818.156,-45337.688,-23448.527,-33531.58,-6851.4,-14956.95
1317578.268815919,-82523.16,-85419.6,-57821.617,-45353.027,-23447.754,-33535.402,-6847.9004,-14956.869
1317578.2728159141,-82522.75,-85415.04,-57815.31,-45330.977,-23439.006,-33527.996,-6849.4062,-14956.421
1317578.2768159092,-82514.98,-85405.64,-57810.957,-45304.73,-23435.303,-33520.71,-6854.492,-14963.461
1317578.280815904,-82510.42,-85401.695,-57816.45,-45309.367,-23435.182,-33522.38,-6852.3765,-14960.49
1317578.284815899,-82512.45,-85407.96,-57820.965,-45336.062,-23439.494,-33531.414,-6845.9883,-14952.678
1317578.288815894,-82518.805,-85414.67,-57819.38,-45349.977,-23439.861,-33535.77,-6844.157,-14947.795
1317578.292815889,-82516.32,-85410.65,-57814.21,-45333.824,-23435.14,-33531.25,-6852.1323,-14955.282
1317578.296815884,-82511.88,-85405.64,-57811.566,-45311.688,-23434.531,-33527.184,-6861.125,-14962.199
1317578.300815879,-82509.16,-85403.85,-57815.555,-45311.934,-23440.797,-33530.316,-6860.6367,-14960.327
1317578.304815874,-82510.91,-85409.02,-57819.133,-45337.688,-23446.738,-33539.88,-6854.7363,-14953.654
1317578.3088158688,-82516.766,-85415.41,-57822.918,-45351.688,-23448.771,-33543.66,-6855.3877,-14956.299
1317578.3128158639,-82510.09,-85406.91,-57815.023,-45331.504,-23437.95,-33533.938,-6855.7944,-14961.182
1317578.3168158587,-82498.13,-85391.36,-57807.863,-45301.027,-23432.373,-33524.09,-6858.1953,-14966.187
1317578.3208158538,-82496.99,-85388.47,-57811.688,-45302.41,-23437.256,-33523.926,-6855.2246,-14959.677
1317578.3248158488,-82507.98,-85399.13,-57818.848,-45332.562,-23446.982,-33531.863,-6845.9473,-14951.213
1317578.3288158437,-82515.625,-85408.9,-57820.273,-45348.473,-23446.412,-33531.535,-6842.8145,-14948.039
1317578.3328158387,-82515.18,-85410.93,-57815.023,-45331.18,-23444.5,-33521.89,-6846.0693,-14955.322
1317578.3368158336,-82510.664,-85408.98,-57814.25,-45305.543,-23438.6,-33513.67,-6850.2607,-14963.176
1317578.3408158286,-82512.25,-85409.914,-57819.906,-45309.695,-23443.28,-33518.92,-6853.882,-14964.763
1317578.3448158237,-82524.25,-85418.09,-57828.086,-45338.582,-23449.748,-33532.758,-6852.987,-14962.932
1317578.3488158186,-82526.82,-85420.21,-57828.9,-45353.516,-23451.58,-33536.215,-6854.8994,-14958.171
1317578.3528158136,-82521.734,-85413.25,-57822.836,-45336.957,-23443.238,-33531.74,-6860.6367,-14955.363
1317578.3568158085,-82513.15,-85402.8,-57818.24,-45311.117,-23436.402,-33523.64,-6864.177,-14960.979
1317578.3608158035,-82507.37,-85398.195,-57819.99,-45310.223,-23436.564,-33525.15,-6861.8574,-14965.902
1317578.3648157984,-82506.8,-85398.44,-57822.188,-45336.55,-23438.438,-33533.45,-6850.2607,-14951.742
1317578.3688157934,-82510.664,-85403.69,-57822.145,-45349.57,-23437.176,-33535.36,-6845.5,-14947.144
1317578.3728157885,-82508.625,-85402.43,-57818.24,-45333.496,-23432.943,-33528.402,-6852.214,-14959.717
1317578.3768157833,-82505.49,-85397.055,-57816.57,-45311.24,-23430.014,-33519.043,-6858.8867,-14967.326
1317578.3808157784,-82511.516,-85401.0,-57824.426,-45314.168,-23439.209,-33519.246,-6858.114,-14967.367
1317578.3848157732,-82523.6,-85414.31,-57833.215,-45347.414,-23455.445,-33531.74,-6854.533,-14966.675
1317578.3888157683,-82530.195,-85422.24,-57832.766,-45360.477,-23455.648,-33537.152,-6854.411,-14966.96
1317578.3928157634,-82526.86,-85418.336,-57825.562,-45338.664,-23448.975,-33528.85,-6857.137,-14970.337
1317578.3968157582,-82523.89,-85418.87,-57818.973,-45312.46,-23447.918,-33522.83,-6861.125,-14972.86
1317578.4008157533,-82522.664,-85419.27,-57818.688,-45311.934,-23451.783,-33521.934,-6856.9746,-14963.501
1317578.404815748,-82521.12,-85416.14,-57819.867,-45338.992,-23455.771,-33531.58,-6847.6157,-14949.87
1317578.4088157432,-82515.71,-85406.21,-57817.14,-45351.44,-23451.295,-33535.32,-6843.669,-14944.946
1317578.412815738,-82507.164,-85397.79,-57811.16,-45332.48,-23438.518,-33528.445,-6845.744,-14944.621
1317578.416815733,-82498.984,-85391.195,-57808.188,-45306.4,-23431.275,-33524.008,-6850.505,-14951.335
1317578.4208157281,-82499.31,-85388.96,-57811.605,-45308.35,-23437.705,-33525.84,-6851.156,-14953.857
1317578.424815723,-82508.99,-85399.09,-57820.11,-45341.066,-23447.47,-33536.215,-6845.093,-14948.08
1317578.428815718,-82516.97,-85409.63,-57821.74,-45356.367,-23450.277,-33539.51,-6841.268,-14941.04
1317578.4328157129,-82518.6,-85412.68,-57820.56,-45339.56,-23446.33,-33532.797,-6848.226,-14945.842
1317578.436815708,-82513.67,-85406.336,-57820.723,-45314.168,-23441.447,-33528.85,-6857.422,-14958.13
1317578.440815703,-82511.44,-85402.51,-57820.883,-45314.168,-23447.47,-33529.5,-6857.3813,-14957.927
1317578.4448156978,-82516.08,-85406.945,-57821.94,-45343.223,-23458.008,-33537.56,-6851.6846,-14954.55
1317578.448815693,-82523.805,-85416.95,-57823.367,-45358.523,-23458.701,-33537.926,-6848.7144,-14951.132
1317578.4528156877,-82519.984,-85415.57,-57816.043,-45339.152,-23446.738,-33529.01,-6851.3594,-14956.421
1317578.4568156828,-82512.78,-85409.43,-57813.56,-45313.6,-23441.326,-33521.242,-6855.7944,-14958.374
1317578.460815678,-82512.25,-85406.984,-57818.77,-45311.445,-23441.814,-33522.83,-6860.3926,-14963.664
1317578.4648156727,-82519.164,-85412.766,-57824.87,-45340.742,-23450.277,-33534.914,-6857.341,-14952.963
1317578.4688156678,-82521.24,-85415.695,-57825.36,-45353.027,-23447.348,-33541.383,-6855.713,-14953.288
1317578.4728156626,-82512.74,-85409.266,-57819.785,-45331.383,-23441.977,-33536.215,-6856.9336,-14953.451
1317578.4768156577,-82501.586,-85393.6,-57811.035,-45303.59,-23436.729,-33526.207,-6856.7305,-14947.266
1317578.4808156525,-82498.66,-85386.07,-57812.38,-45305.664,-23437.176,-33526.41,-6853.3936,-14939.128
1317578.4848156476,-82501.305,-85394.9,-57817.14,-45333.336,-23443.28,-33538.453,-6847.087,-14930.908
1317578.4888156427,-82506.15,-85404.91,-57815.84,-45347.86,-23442.344,-33542.645,-6843.0176,-14924.561
1317578.4928156375,-82504.36,-85399.58,-57808.594,-45328.613,-23436.2,-33533.49,-6845.5,-14926.025
1317578.4968156326,-82498.86,-85393.555,-57806.848,-45301.68,-23433.27,-33523.766,-6848.796,-14930.502
1317578.5008156274,-82502.0,-85394.125,-57814.21,-45308.39,-23438.193,-33523.97,-6853.0684,-14942.709
1317578.5048156225,-82515.26,-85408.57,-57822.023,-45343.67,-23451.945,-33532.145,-6848.2666,-14935.873
1317578.5088156175,-82524.13,-85416.67,-57827.027,-45358.848,-23454.875,-33534.71,-6850.505,-14945.72
1317578.5128156124,-82523.484,-85415.9,-57826.01,-45339.64,-23449.586,-33529.01,-6858.3984,-14955.404
1317578.5168156074,-82518.84,-85412.03,-57825.93,-45314.375,-23447.186,-33523.234,-6866.5366,-14964.233
1317578.5208156023,-82516.85,-85409.23,-57829.797,-45315.105,-23449.424,-33523.52,-6863.8916,-14966.797
1317578.5248155973,-82524.5,-85422.57,-57835.45,-45345.297,-23459.107,-33528.402,-6853.0273,-14956.665
1317578.5288155922,-82533.81,-85432.664,-57833.58,-45359.99,-23461.06,-33528.32,-6844.3604,-14946.533
1317578.5328155872,-82522.586,-85411.18,-57827.598,-45337.77,-23442.018,-33524.414,-6848.4297,-14948.935
1317578.5368155823,-82503.91,-85391.4,-57820.312,-45307.7,-23431.152,-33520.223,-6857.585,-14956.421
1317578.5408155771,-82506.88,-85392.945,-57823.164,-45308.676,-23436.484,-33521.445,-6855.428,-14951.66
1317578.5448155722,-82514.2,-85399.375,-57831.383,-45338.625,-23445.068,-33533.285,-6849.569,-14945.028
1317578.548815567,-82520.96,-85408.66,-57832.03,-45355.88,-23448.527,-33538.574,-6846.843,-14945.028
1317578.552815562,-82523.36,-85408.2,-57828.82,-45338.992,-23446.086,-33530.723,-6851.074,-14947.754
1317578.5568155572,-82511.97,-85395.266,-57823.324,-45314.047,-23444.256,-33520.387,-6857.0557,-14951.62
1317578.560815552,-82511.88,-85392.54,-57827.23,-45315.188,-23449.668,-33520.957,-6857.422,-14952.759
1317578.564815547,-82522.55,-85405.16,-57833.824,-45351.2,-23455.078,-33533.082,-6856.1606,-14948.975
1317578.568815542,-82525.72,-85411.13,-57836.67,-45367.188,-23455.363,-33537.926,-6856.405,-14950.439
1317578.572815537,-82526.86,-85412.234,-57832.848,-45350.63,-23448.283,-33531.332,-6858.358,-14951.01
1317578.5768155318,-82524.375,-85407.59,-57831.137,-45325.035,-23441.895,-33522.586,-6864.095,-14961.508
1317578.580815527,-82522.79,-85406.21,-57834.92,-45324.42,-23446.615,-33523.355,-6865.194,-14963.095
1317578.584815522,-82525.68,-85410.41,-57838.992,-45353.516,-23455.893,-33534.63,-6862.0605,-14958.09
1317578.5888155168,-82525.59,-85414.47,-57835.246,-45364.87,-23458.334,-33537.273,-6859.9043,-14953.532
1317578.5928155119,-82521.85,-85409.02,-57828.453,-45346.395,-23452.11,-33529.83,-6864.0137,-14952.637
1317578.5968155067,-82515.83,-85398.07,-57824.465,-45315.066,-23445.883,-33521.566,-6870.2803,-14955.119
1317578.6008155018,-82514.77,-85394.78,-57828.004,-45317.547,-23446.494,-33522.91,-6872.7217,-14961.752
1317578.6048154968,-82521.41,-85405.16,-57833.54,-45348.348,-23451.865,-33534.426,-6868.042,-14960.49
1317578.6088154917,-82525.59,-85415.98,-57831.707,-45365.562,-23455.527,-33538.37,-6861.8574,-14948.12
1317578.6128154867,-82524.375,-85415.24,-57826.133,-45347.332,-23450.44,-33530.52,-6863.2812,-14951.701
1317578.6168154816,-82520.914,-85405.16,-57826.17,-45320.8,-23446.29,-33519.656,-6866.5366,-14957.886
1317578.6208154766,-82520.555,-85404.14,-57834.598,-45323.812,-23450.969,-33519.53,-6862.468,-14948.486
1317578.6248154715,-82528.52,-85415.61,-57842.41,-45356.242,-23461.955,-33530.355,-6853.882,-14935.791
1317578.6288154665,-82533.86,-85422.85,-57843.71,-45370.04,-23463.217,-33532.715,-6849.5283,-14927.409
1317578.6328154616,-82531.086,-85416.75,-57838.22,-45349.895,-23455.283,-33525.594,-6851.4404,-14933.838
1317578.6368154564,-82523.93,-85409.38,-57837.445,-45323.69,-23451.213,-33517.375,-6854.289,-14939.86
1317578.6408154515,-82521.24,-85408.77,-57837.973,-45322.957,-23451.742,-33515.098,-6852.336,-14937.866
1317578.6448154463,-82526.33,-85417.24,-57842.164,-45352.742,-23461.06,-33525.676,-6845.703,-14931.804
1317578.6488154414,-82528.52,-85420.695,-57843.914,-45366.984,-23463.908,-33532.35,-6845.7847,-14940.837
1317578.6528154365,-82524.46,-85415.53,-57837.688,-45348.51,-23456.096,-33524.375,-6849.0806,-14943.726
1317578.6568154313,-82516.52,-85403.0,-57833.984,-45322.227,-23450.562,-33514.16,-6849.7314,-14945.028
1317578.6608154264,-82512.33,-85398.03,-57833.09,-45320.8,-23451.824,-33514.12,-6849.162,-14949.585
1317578.6648154212,-82519.414,-85408.81,-57837.973,-45354.29,-23460.205,-33524.66,-6844.9707,-14943.808
1317578.6688154163,-82528.52,-85418.13,-57837.16,-45371.95,-23464.234,-33526.57,-6844.4824,-14940.471
1317578.6728154111,-82529.625,-85417.04,-57832.52,-45354.695,-23459.107,-33521.812,-6853.719,-14948.324
1317578.6768154062,-82521.0,-85405.93,-57830.08,-45327.92,-23451.05,-33514.242,-6863.7695,-14956.747
1317578.6808154013,-82517.26,-85402.23,-57833.62,-45330.28,-23453.777,-33517.54,-6864.258,-14954.55
1317578.684815396,-82527.1,-85412.64,-57844.08,-45360.555,-23463.502,-33528.65,-6855.428,-14941.284
1317578.6888153912,-82535.04,-85421.72,-57845.215,-45375.53,-23464.885,-33533.61,-6854.533,-14940.268
1317578.692815386,-82531.45,-85418.42,-57840.414,-45351.81,-23455.363,-33525.066,-6859.497,-14950.603
1317578.696815381,-82527.875,-85408.37,-57838.746,-45324.22,-23448.73,-33516.562,-6863.973,-14955.7295
1317578.7008153761,-82526.82,-85407.15,-57843.71,-45326.336,-23454.672,-33517.703,-6866.74,-14958.659
1317578.704815371,-82532.8,-85416.914,-57851.688,-45356.812,-23461.102,-33528.65,-6863.2407,-14956.096
1317578.708815366,-82538.82,-85425.375,-57853.11,-45371.746,-23461.387,-33536.258,-6860.4736,-14955.404
1317578.7128153609,-82535.41,-85423.34,-57844.2,-45351.2,-23455.242,-33526.938,-6861.6943,-14959.27
1317578.716815356,-82525.88,-85412.64,-57836.266,-45324.91,-23448.936,-33513.957,-6862.5083,-14964.4375
1317578.7208153508,-82522.83,-85412.4,-57838.38,-45327.23,-23451.621,-33509.848,-6857.8696,-14961.508
1317578.7248153458,-82526.53,-85420.45,-57844.727,-45357.098,-23463.176,-33522.3,-6850.5454,-14950.358
1317578.728815341,-82527.23,-85421.39,-57841.555,-45369.062,-23461.467,-33526.367,-6845.5,-14941.528
1317578.7328153357,-82523.97,-85421.1,-57833.418,-45347.94,-23452.842,-33519.125,-6849.7725,-14948.161
1317578.7368153308,-82522.95,-85417.89,-57829.145,-45321.7,-23450.115,-33511.11,-6856.242,-14953.003
1317578.7408153256,-82519.01,-85408.86,-57831.22,-45322.918,-23450.36,-33513.387,-6858.724,-14958.212
1317578.7448153207,-82520.39,-85412.234,-57838.016,-45351.117,-23459.19,-33524.54,-6857.463,-14956.259
1317578.7488153158,-82530.07,-85424.08,-57842.57,-45367.39,-23463.014,-33529.83,-6855.9165,-14948.69
1317578.7528153106,-82528.89,-85420.695,-57840.332,-45350.3,-23455.73,-33523.234,-6861.776,-14958.252
1317578.7568153057,-82519.49,-85409.79,-57834.72,-45323.57,-23448.771,-33512.047,-6864.299,-14958.659
1317578.7608153005,-82515.67,-85409.38,-57839.074,-45323.934,-23453.94,-33511.477,-6861.206,-14953.044
1317578.7648152956,-82518.27,-85412.64,-57846.64,-45355.105,-23464.396,-33521.89,-6852.58,-14941.732
1317578.7688152906,-82523.07,-85417.32,-57845.137,-45372.887,-23461.06,-33525.72,-6850.2607,-14943.034
1317578.7728152855,-82524.87,-85418.99,-57842.33,-45355.67,-23454.062,-33518.23,-6850.2607,-14940.349
1317578.7768152806,-82517.5,-85407.96,-57836.793,-45326.215,-23442.709,-33509.117,-6852.58,-14943.808
1317578.7808152754,-82513.92,-85402.51,-57838.83,-45325.074,-23447.104,-33513.51,-6855.428,-14949.382
1317578.7848152705,-82515.1,-85404.055,-57841.797,-45351.523,-23451.295,-33522.22,-6847.0054,-14935.751
1317578.7888152653,-82520.59,-85411.79,-57839.805,-45367.555,-23452.434,-33526.246,-6845.459,-14934.937
1317578.7928152604,-82521.81,-85412.234,-57832.887,-45351.688,-23447.227,-33519.29,-6853.0684,-14942.221
1317578.7968152554,-82515.95,-85404.83,-57831.586,-45326.742,-23444.906,-33513.47,-6865.2754,-14957.235
1317578.8008152503,-82516.766,-85404.95,-57835.574,-45326.906,-23450.156,-33513.67,-6864.787,-14953.857
1317578.8048152453,-82522.55,-85411.7,-57841.35,-45359.863,-23459.19,-33524.617,-6858.114,-14948.8125
1317578.8088152402,-82529.055,-85419.766,-57841.96,-45375.246,-23462.973,-33530.316,-6853.9634,-14945.842
1317578.8128152352,-82530.07,-85418.3,-57836.348,-45357.098,-23457.072,-33526.207,-6855.2246,-14945.354
1317578.8168152303,-82522.09,-85410.41,-57832.848,-45328.74,-23452.23,-33516.36,-6858.602,-14942.668
1317578.8208152251,-82515.14,-85403.164,-57835.656,-45330.242,-23449.79,-33515.87,-6857.0557,-14939.779
1317578.8248152202,-82515.305,-85407.63,-57839.926,-45359.05,-23454.346,-33525.96,-6849.284,-14936.239
1317578.828815215,-82517.78,-85408.9,-57835.98,-45370.32,-23452.19,-33529.258,-6843.0176,-14932.333
1317578.83281521,-82514.28,-85402.51,-57832.113,-45352.664,-23443.686,-33522.137,-6844.5234,-14931.071
1317578.836815205,-82503.7,-85392.625,-57828.86,-45326.703,-23436.564,-33510.867,-6848.226,-14932.821
1317578.8408152,-82502.93,-85385.945,-57829.266,-45324.91,-23440.594,-33509.766,-6846.151,-14925.578
1317578.844815195,-82514.53,-85396.2,-57838.098,-45357.18,-23451.133,-33518.758,-6836.019,-14914.999
1317578.84881519,-82521.12,-85405.195,-57841.39,-45375.246,-23456.26,-33523.316,-6834.432,-14915.935
1317578.852815185,-82519.9,-85402.14,-57836.67,-45356.285,-23447.754,-33520.184,-6843.4653,-14926.636
1317578.8568151798,-82526.2,-85401.164,-57838.586,-45331.258,-23446.045,-33514.85,-6852.2544,-14937.216
1317578.8608151749,-82533.125,-85406.74,-57844.484,-45334.35,-23455.975,-33516.727,-6854.696,-14939.901
1317578.86481517,-82527.875,-85412.516,-57845.5,-45361.695,-23464.031,-33528.08,-6852.051,-14936.157
1317578.8688151648,-82511.805,-85402.51,-57838.992,-45372.97,-23456.178,-33533.12,-6852.3765,-14937.46
1317578.8728151598,-82508.305,-85393.72,-57833.78,-45355.55,-23444.865,-33525.434,-6854.126,-14936.361
1317578.8768151547,-82509.85,-85395.35,-57830.895,-45331.137,-23444.865,-33514.324,-6853.923,-14936.728
1317578.8808151498,-82497.93,-85386.56,-57828.82,-45327.598,-23445.11,-33515.668,-6850.383,-14935.181
1317578.8848151446,-82506.06,-85393.96,-57835.98,-45357.18,-23456.463,-33526.043,-6843.506,-14925.578
1317578.8888151397,-82513.836,-85403.89,-57838.098,-45376.26,-23464.764,-33531.13,-6844.3604,-14926.677
1317578.8928151347,-82510.74,-85402.914,-57831.383,-45359.05,-23460.734,-33526.938,-6851.8066,-14935.669
1317578.8968151296,-82505.25,-85396.37,-57825.93,-45332.52,-23456.463,-33518.15,-6856.4863,-14942.709
1317578.9008151246,-82501.47,-85393.555,-57831.18,-45333.62,-23459.025,-33519.98,-6856.8525,-14942.099
1317578.9048151195,-82506.516,-85399.74,-57838.707,-45363.73,-23467.164,-33530.844,-6850.342,-14931.601
1317578.9088151145,-82510.945,-85406.984,-57838.016,-45376.875,-23470.053,-33535.24,-6849.2026,-14934.367
1317578.9128151096,-82505.695,-85398.805,-57829.31,-45355.88,-23460.45,-33528.523,-6853.0684,-14937.297
1317578.9168151044,-82499.23,-85389.695,-57824.098,-45327.395,-23448.04,-33518.434,-6854.37,-14938.721
1317578.9208150995,-82495.2,-85387.05,-57828.047,-45326.297,-23445.8,-33517.215,-6851.6846,-14933.105
1317578.9248150943,-82495.81,-85389.445,-57835.734,-45359.05,-23450.521,-33527.47,-6846.151,-14928.264
1317578.9288150894,-82498.45,-85393.15,-57837.688,-45372.684,-23448.406,-33531.902,-6842.5293,-14922.241
1317578.9328150842,-82499.39,-85390.914,-57833.418,-45357.668,-23438.477,-33523.64,-6846.0693,-14924.316
1317578.9368150793,-82498.54,-85382.164,-57831.87,-45333.984,-23434.652,-33517.496,-6855.713,-14935.385
1317578.9408150744,-82499.27,-85386.56,-57836.67,-45332.316,-23445.924,-33521.973,-6859.497,-14938.681
1317578.9448150692,-82508.836,-85405.73,-57843.832,-45361.777,-23457.928,-33529.746,-6854.6143,-14935.547
1317578.9488150643,-82517.74,-85418.336,-57843.832,-45378.99,-23463.42,-33530.76,-6852.3765,-14932.048
1317578.952815059,-82514.08,-85414.96,-57836.836,-45362.02,-23458.09,-33525.434,-6858.1953,-14939.738
1317578.9568150542,-82507.086,-85404.26,-57832.52,-45335.574,-23451.986,-33516.316,-6861.206,-14943.481
1317578.9608150492,-82505.05,-85397.83,-57834.555,-45331.22,-23455.527,-33515.26,-6855.3877,-14935.547
1317578.964815044,-82508.914,-85404.586,-57839.926,-45361.695,-23463.135,-33527.387,-6850.5454,-14931.926
1317578.9688150391,-82509.97,-85407.19,-57839.926,-45377.688,-23462.12,-33532.43,-6849.2026,-14925.619
1317578.972815034,-82505.58,-85401.414,-57837.566,-45359.375,-23452.598,-33527.47,-6852.458,-14932.658
1317578.976815029,-82500.25,-85395.43,-57835.816,-45333.62,-23444.418,-33519.41,-6853.8413,-14935.547
1317578.9808150239,-82499.35,-85394.29,-57838.586,-45334.395,-23450.36,-33517.863,-6851.278,-14932.333
1317578.984815019,-82509.484,-85405.97,-57844.605,-45363.527,-23463.217,-33525.15,-6844.5234,-14926.474
1317578.988815014,-82520.43,-85417.97,-57847.453,-45380.902,-23468.791,-33527.996,-6844.2383,-14930.583
1317578.9928150089,-82522.75,-85416.42,-57841.35,-45362.793,-23465.049,-33522.22,-6854.533,-14944.377
1317578.996815004,-82517.09,-85407.96,-57837.566,-45335.816,-23460.775,-33517.008,-6865.9263,-14957.113
1317579.0008149988,-82516.12,-85407.92,-57838.3,-45335.938,-23464.723,-33519.45,-6870.158,-14965.007
1317579.0048149938,-82520.39,-85415.0,-57842.695,-45365.074,-23470.744,-33531.94,-6862.8745,-14954.387
1317579.008814989,-82520.51,-85414.19,-57841.88,-45379.76,-23468.75,-33536.703,-6858.236,-14950.684
1317579.0128149837,-82519.78,-85409.23,-57834.72,-45362.715,-23457.602,-33529.215,-6857.6255,-14952.556
1317579.0168149788,-82509.16,-85396.94,-57831.586,-45335.33,-23449.748,-33519.98,-6861.003,-14955.119
1317579.0208149736,-82505.945,-85395.76,-57836.59,-45333.05,-23455.771,-33520.184,-6859.05,-14951.376
1317579.0248149687,-82512.375,-85402.305,-57844.08,-45360.965,-23460.857,-33527.875,-6850.586,-14944.58
1317579.0288149638,-82515.71,-85408.0,-57843.832,-45375.9,-23461.996,-33530.07,-6845.0522,-14937.907
1317579.0328149586,-82514.33,-85408.2,-57841.434,-45358.766,-23456.137,-33523.03,-6850.464,-14945.679
1317579.0368149537,-82511.27,-85401.086,-57838.098,-45332.4,-23453.898,-33514.65,-6856.8525,-14952.353
1317579.0408149485,-82508.266,-85399.46,-57836.754,-45333.906,-23461.793,-33516.805,-6857.5034,-14947.185
1317579.0448149436,-82517.375,-85408.41,-57844.934,-45363.566,-23470.623,-33529.91,-6856.9336,-14948.975
1317579.0488149384,-82523.36,-85416.75,-57846.52,-45379.11,-23471.355,-33537.598,-6859.945,-14950.195
1317579.0528149335,-82520.63,-85413.86,-57842.164,-45362.508,-23462.729,-33531.496,-6864.2173,-14950.847
1317579.0568149285,-82508.75,-85400.555,-57836.754,-45338.22,-23458.945,-33522.586,-6868.164,-14949.626
1317579.0608149234,-82504.48,-85397.625,-57834.8,-45334.434,-23464.152,-33520.387,-6867.269,-14948.08
1317579.0648149184,-82508.79,-85404.5,-57839.234,-45361.695,-23474.203,-33530.805,-6862.2236,-14943.237
1317579.0688149133,-82508.22,-85404.5,-57837.363,-45376.75,-23470.338,-33534.63,-6856.893,-14941.162
1317579.0728149083,-82509.12,-85402.19,-57832.887,-45360.477,-23464.234,-33525.758,-6856.9336,-14944.458
1317579.0768149034,-82503.18,-85393.31,-57830.69,-45336.508,-23456.625,-33513.184,-6854.6553,-14943.767
1317579.0808148982,-82503.7,-85395.39,-57836.145,-45340.047,-23463.502,-33512.004,-6852.987,-14942.261
1317579.0848148933,-82515.34,-85407.27,-57845.137,-45370.605,-23476.848,-33523.64,-6846.1104,-14935.669
1317579.0888148881,-82522.22,-85415.086,-57845.582,-45387.086,-23479.29,-33527.67,-6843.547,-14930.664
1317579.0928148832,-82520.836,-85411.22,-57841.15,-45371.22,-23470.664,-33519.33,-6847.3716,-14936.361
1317579.096814878,-82515.51,-85406.336,-57835.86,-45340.17,-23466.432,-33510.215,-6852.092,-14941.528
1317579.1008148731,-82514.04,-85405.84,-57839.97,-45342.043,-23469.727,-33512.41,-6853.1904,-14943.645
1317579.1048148682,-82516.6,-85408.05,-57842.816,-45371.137,-23475.424,-33519.695,-6845.215,-14930.38
1317579.108814863,-82513.875,-85410.41,-57839.64,-45385.254,-23474.0,-33523.723,-6840.617,-14920.532
1317579.112814858,-82505.695,-85402.14,-57833.863,-45364.504,-23461.102,-33518.35,-6843.669,-14922.038
1317579.116814853,-82496.91,-85390.586,-57830.242,-45334.473,-23446.697,-33510.38,-6848.796,-14929.362
1317579.120814848,-82490.12,-85382.24,-57828.29,-45332.074,-23450.969,-33511.07,-6846.761,-14929.159
1317579.124814843,-82493.33,-85388.76,-57830.566,-45360.15,-23465.252,-33520.67,-6837.8096,-14916.26
1317579.128814838,-82496.87,-85397.34,-57831.098,-45375.53,-23463.176,-33526.164,-6833.9844,-14910.238
1317579.132814833,-82493.05,-85393.76,-57826.01,-45355.266,-23454.51,-33521.08,-6842.6924,-14923.218
1317579.1368148278,-82495.484,-85394.45,-57827.516,-45332.156,-23456.504,-33513.062,-6851.6035,-14925.212
1317579.1408148229,-82500.9,-85396.85,-57833.17,-45334.23,-23465.74,-33514.566,-6857.666,-14932.089
1317579.1448148177,-82509.85,-85407.516,-57842.246,-45365.277,-23476.28,-33525.676,-6858.3174,-14934.814
1317579.1488148128,-82516.484,-85416.55,-57845.746,-45383.383,-23475.912,-33531.375,-6859.9043,-14941.691
1317579.1528148078,-82519.53,-85415.695,-57846.234,-45369.344,-23468.873,-33525.88,-6865.5195,-14945.354
1317579.1568148027,-82515.016,-85410.28,-57845.215,-45344.727,-23470.459,-33518.35,-6868.327,-14946.411
1317579.1608147977,-82512.086,-85406.375,-57849.0,-45343.508,-23473.715,-33518.23,-6865.6006,-14948.853
1317579.1648147926,-82519.29,-85411.664,-57855.105,-45370.04,-23479.168,-33530.723,-6858.48,-14943.319
1317579.1688147876,-82522.42,-85419.97,-57854.98,-45382.895,-23479.412,-33534.793,-6855.4688,-14939.413
1317579.1728147827,-82516.28,-85414.72,-57848.43,-45364.87,-23469.32,-33525.066,-6857.7476,-14941.732
1317579.1768147775,-82505.414,-85399.664,-57842.125,-45338.016,-23460.775,-33515.18,-6860.2295,-14945.557
1317579.1808147726,-82504.4,-85397.055,-57843.06,-45340.13,-23464.56,-33515.953,-6860.3926,-14946.005
1317579.1848147674,-82514.164,-85408.86,-57848.066,-45370.32,-23478.15,-33527.508,-6856.649,-14941.528
1317579.1888147625,-82522.3,-85420.984,-57849.406,-45386.273,-23482.707,-33531.94,-6859.05,-14949.382
1317579.1928147573,-82517.54,-85419.07,-57843.26,-45368.004,-23472.78,-33527.875,-6867.147,-14961.63
1317579.1968147524,-82513.47,-85413.66,-57843.1,-45341.15,-23470.053,-33520.996,-6873.8203,-14969.971
1317579.2008147475,-82511.31,-85412.4,-57847.863,-45341.066,-23474.773,-33523.4,-6874.5117,-14969.6455
1317579.2048147423,-82515.625,-85419.35,-57853.723,-45369.832,-23479.574,-33533.977,-6870.1987,-14963.542
1317579.2088147374,-82518.88,-85423.95,-57851.523,-45381.918,-23478.027,-33537.07,-6867.2285,-14958.618
1317579.2128147322,-82518.68,-85421.47,-57847.332,-45366.7,-23473.512,-33531.25,-6870.3613,-14962.729
1317579.2168147273,-82513.266,-85409.1,-57844.2,-45341.27,-23465.576,-33520.062,-6871.9077,-14964.071
1317579.2208147224,-82508.875,-85403.32,-57844.08,-45339.926,-23470.908,-33517.215,-6869.385,-14961.06
1317579.2248147172,-82515.83,-85412.07,-57849.12,-45371.055,-23479.697,-33527.67,-6862.549,-14953.776
1317579.2288147123,-82521.32,-85423.83,-57845.297,-45387.004,-23481.365,-33532.27,-6858.1543,-14947.795
1317579.232814707,-82526.086,-85429.61,-57841.516,-45373.902,-23475.709,-33526.855,-6860.9214,-14948.8125
1317579.2368147022,-82515.42,-85411.26,-57840.13,-45346.805,-23467.979,-33520.754,-6869.1406,-14956.584
1317579.240814697,-82500.37,-85394.05,-57838.83,-45342.164,-23468.385,-33522.016,-6874.8374,-14963.786
1317579.244814692,-82510.13,-85402.51,-57847.984,-45368.734,-23478.883,-33532.39,-6865.804,-14954.916
1317579.2488146871,-82521.65,-85411.79,-57854.37,-45384.156,-23480.145,-33536.133,-6862.8745,-14955.607
1317579.252814682,-82517.17,-85407.63,-57850.832,-45371.95,-23470.215,-33529.91,-6869.2627,-14968.059
1317579.256814677,-82508.75,-85397.18,-57845.664,-45346.316,-23462.607,-33516.156,-6871.4194,-14969.809
1317579.2608146719,-82512.78,-85396.98,-57850.508,-45347.74,-23467.938,-33513.184,-6866.455,-14961.914
1317579.264814667,-82520.23,-85403.484,-57863.16,-45378.46,-23478.76,-33523.723,-6859.8228,-14961.67
1317579.268814662,-82522.75,-85411.22,-57868.164,-45394.656,-23480.186,-33525.676,-6853.8413,-14957.397
1317579.2728146568,-82523.56,-85414.11,-57861.453,-45379.68,-23469.809,-33518.312,-6855.713,-14957.561
1317579.276814652,-82516.16,-85405.97,-57853.355,-45352.133,-23463.705,-33509.766,-6860.5146,-14959.311
1317579.2808146467,-82512.74,-85398.4,-57857.016,-45347.78,-23466.473,-33509.156,-6859.416,-14953.776
1317579.2848146418,-82520.23,-85405.766,-57863.0,-45376.875,-23469.727,-33518.35,-6852.8647,-14944.418
1317579.2888146369,-82523.16,-85412.16,-57861.25,-45389.73,-23467.53,-33524.21,-6851.8477,-14944.011
1317579.2928146317,-82517.055,-85406.984,-57854.656,-45367.96,-23458.984,-33521.445,-6857.544,-14953.044
1317579.2968146268,-82509.484,-85397.586,-57850.996,-45342.164,-23456.543,-33512.74,-6863.6885,-14957.357
1317579.3008146216,-82509.65,-85398.32,-57849.367,-45344.24,-23463.096,-33512.41,-6865.5195,-14959.147
1317579.3048146167,-82516.73,-85409.34,-57855.715,-45375.33,-23471.191,-33523.113,-6858.6836,-14952.637
1317579.3088146115,-82524.17,-85415.65,-57860.8,-45391.24,-23470.947,-33528.24,-6858.3984,-14953.003
1317579.3128146066,-82522.99,-85411.664,-57852.664,-45372.76,-23461.182,-33519.695,-6862.2236,-14952.026
1317579.3168146017,-82518.19,-85404.016,-57847.82,-45344.688,-23455.12,-33509.562,-6864.4614,-14944.784
1317579.3208145965,-82514.0,-85398.89,-57850.098,-45339.438,-23461.143,-33504.723,-6860.5146,-14935.141
1317579.3248145916,-82521.04,-85408.53,-57857.547,-45369.71,-23468.385,-33517.133,-6855.3877,-14932.129
1317579.3288145864,-82525.19,-85417.04,-57856.61,-45386.965,-23468.1,-33521.812,-6853.6787,-14932.292
1317579.3328145815,-82526.05,-85416.305,-57852.824,-45372.926,-23463.42,-33518.516,-6855.876,-14937.338
1317579.3368145765,-82517.414,-85405.234,-57846.316,-45346.113,-23455.893,-33509.97,-6859.0903,-14946.208
1317579.3408145714,-82513.266,-85400.555,-57848.39,-45345.137,-23458.822,-33506.633,-6857.8696,-14949.504
1317579.3448145664,-82523.6,-85411.18,-57857.953,-45372.07,-23471.965,-33516.52,-6850.871,-14944.824
1317579.3488145613,-82526.37,-85417.24,-57858.727,-45386.64,-23477.621,-33518.066,-6847.6562,-14948.202
1317579.3528145563,-82522.914,-85418.055,-57856.445,-45371.543,-23475.018,-33510.703,-6856.242,-14963.095
1317579.3568145512,-82518.19,-85409.71,-57854.574,-45347.008,-23474.488,-33504.19,-6866.8213,-14975.464
1317579.3608145462,-82515.875,-85405.84,-57854.902,-45345.746,-23478.842,-33504.76,-6868.1235,-14976.767
1317579.3648145413,-82526.734,-85414.96,-57863.445,-45378.176,-23486.98,-33517.496,-6861.8164,-14966.635
1317579.3688145361,-82529.91,-85421.51,-57863.65,-45393.35,-23480.633,-33519.777,-6859.375,-14963.745
1317579.3728145312,-82525.02,-85419.4,-57856.49,-45374.51,-23470.623,-33509.89,-6862.02,-14966.024
1317579.376814526,-82516.234,-85409.836,-57848.473,-45345.01,-23463.705,-33500.082,-6866.089,-14968.506
1317579.380814521,-82515.875,-85405.68,-57849.977,-45345.785,-23465.088,-33499.84,-6863.2812,-14962.362
1317579.3848145162,-82526.05,-85413.05,-57858.766,-45375.613,-23473.268,-33508.668,-6856.9746,-14956.096
1317579.388814511,-82530.6,-85420.33,-57860.883,-45391.113,-23472.129,-33510.418,-6853.109,-14950.928
1317579.392814506,-82522.46,-85414.47,-57852.824,-45374.023,-23465.332,-33504.883,-6857.544,-14952.881
1317579.396814501,-82511.03,-85400.88,-57849.082,-45346.03,-23460.654,-33497.887,-6864.909,-14959.636
1317579.400814496,-82509.484,-85399.336,-57852.336,-45348.27,-23463.95,-33500.652,-6867.7573,-14961.101
1317579.4048144908,-82512.25,-85404.26,-57857.14,-45373.617,-23471.477,-33509.89,-6859.0903,-14950.521
1317579.4088144859,-82515.22,-85409.67,-57858.81,-45388.227,-23472.088,-33512.125,-6854.3296,-14949.179
1317579.412814481,-82510.3,-85403.0,-57853.723,-45369.957,-23461.63,-33503.38,-6855.632,-14952.393
1317579.4168144758,-82503.83,-85392.91,-57849.652,-45343.875,-23454.225,-33494.387,-6858.4395,-14955.7295
1317579.4208144709,-82503.22,-85391.484,-57852.824,-45342.9,-23456.87,-33491.496,-6857.707,-14955.241
1317579.4248144657,-82507.695,-85398.766,-57858.887,-45369.71,-23464.805,-33501.87,-6855.835,-14954.753
1317579.4288144608,-82517.78,-85410.65,-57860.11,-45388.55,-23471.436,-33507.242,-6857.544,-14956.95
1317579.4328144558,-82518.64,-85411.74,-57852.582,-45370.2,-23468.71,-33498.66,-6860.759,-14960.124
1317579.4368144507,-82513.72,-85403.12,-57848.43,-45344.117,-23464.438,-33487.184,-6863.973,-14961.914
1317579.4408144457,-82513.35,-85401.86,-57853.56,-45346.234,-23470.338,-33484.703,-6863.159,-14964.478
1317579.4448144406,-82521.98,-85413.17,-57861.74,-45380.453,-23485.271,-33492.23,-6855.51,-14955.7705
1317579.4488144356,-82527.34,-85419.88,-57862.836,-45398.848,-23481.527,-33499.84,-6849.6094,-14945.028
1317579.4528144305,-82520.19,-85411.54,-57855.145,-45378.582,-23470.703,-33491.414,-6854.411,-14955.893
1317579.4568144255,-82514.695,-85404.95,-57852.258,-45353.395,-23465.008,-33482.06,-6857.707,-14958.456
1317579.4608144206,-82515.42,-85405.88,-57855.348,-45350.383,-23461.346,-33483.645,-6855.998,-14958.659
1317579.4648144154,-82523.93,-85413.01,-57864.465,-45379.883,-23469.158,-33495.605,-6852.58,-14956.218
1317579.4688144105,-82526.414,-85419.15,-57863.977,-45393.11,-23469.2,-33499.555,-6854.2075,-14954.997
1317579.4728144053,-82525.76,-85418.055,-57861.94,-45379.883,-23462.89,-33492.637,-6858.8057,-14954.916
1317579.4768144004,-82520.96,-85408.0,-57859.66,-45353.312,-23463.135,-33485.758,-6866.699,-14967.204
1317579.4808143955,-82517.78,-85403.81,-57861.37,-45352.215,-23470.379,-33486.656,-6862.9966,-14957.968
1317579.4848143903,-82521.445,-85410.0,-57865.52,-45381.105,-23477.256,-33495.566,-6852.661,-14940.227
1317579.4888143854,-82529.3,-85416.836,-57864.79,-45398.848,-23474.57,-33501.63,-6851.6846,-14940.063
1317579.4928143802,-82525.88,-85411.13,-57857.344,-45379.234,-23466.432,-33493.57,-6856.6895,-14951.254
1317579.4968143753,-82515.625,-85401.57,-57852.746,-45350.832,-23462.363,-33485.395,-6862.3457,-14954.712
1317579.50081437,-82510.055,-85394.164,-57853.027,-45348.676,-23462.281,-33488.527,-6862.3457,-14952.067
1317579.5048143652,-82511.44,-85398.73,-57858.32,-45378.094,-23466.797,-33496.746,-6855.3467,-14942.831
1317579.5088143602,-82513.67,-85403.93,-57856.812,-45394.656,-23462.281,-33500.652,-6851.2373,-14937.988
1317579.512814355,-82513.305,-85404.79,-57852.46,-45376.75,-23455.81,-33495.363,-6853.1494,-14939.616
1317579.5168143502,-82507.57,-85398.64,-57849.895,-45350.26,-23451.824,-33486.695,-6858.5615,-14946.574
1317579.520814345,-82503.38,-85394.78,-57850.832,-45349.406,-23453.451,-33487.266,-6862.956,-14954.672
1317579.52481434,-82510.664,-85403.81,-57858.117,-45379.152,-23467.082,-33495.77,-6860.1074,-14949.463
1317579.5288143351,-82517.26,-85411.83,-57859.05,-45395.875,-23471.762,-33499.51,-6859.8228,-14951.66
1317579.53281433,-82518.03,-85410.16,-57854.21,-45378.703,-23465.129,-33493.53,-6865.072,-14959.229
1317579.536814325,-82515.67,-85404.99,-57850.18,-45353.477,-23463.055,-33486.004,-6871.0127,-14966.064
1317579.5408143199,-82514.734,-85402.71,-57852.824,-45355.023,-23466.188,-33488.363,-6867.92,-14959.799
1317579.544814315,-82520.14,-85410.61,-57858.156,-45384.117,-23476.197,-33502.24,-6861.247,-14951.579
1317579.5488143098,-82524.58,-85415.9,-57856.527,-45394.33,-23475.83,-33505.29,-6856.893,-14948.8125
1317579.5528143048,-82517.3,-85408.98,-57850.383,-45374.797,-23465.414,-33498.25,-6860.189,-14956.015
1317579.5568143,-82507.734,-85398.89,-57848.023,-45347.86,-23460.084,-33491.7,-6864.5835,-14961.264
1317579.5608142947,-82505.01,-85390.34,-57846.19,-45343.75,-23459.96,-33490.113,-6861.8574,-14956.503
1317579.5648142898,-82506.8,-85393.4,-57847.09,-45369.1,-23465.902,-33496.785,-6849.7314,-14943.278
1317579.5688142846,-82512.01,-85402.914,-57846.723,-45387.332,-23462.525,-33499.758,-6842.082,-14934.652
1317579.5728142797,-82512.17,-85400.72,-57844.16,-45371.46,-23452.88,-33493.082,-6848.7144,-14941.325
1317579.5768142748,-82509.65,-85391.97,-57843.387,-45345.258,-23452.8,-33486.41,-6858.8867,-14954.794
1317579.5808142696,-82510.5,-85393.68,-57848.555,-45345.34,-23461.387,-33486.29,-6863.2812,-14961.711
1317579.5848142647,-82515.83,-85399.336,-57857.953,-45373.945,-23472.494,-33494.754,-6858.9683,-14953.085
1317579.5888142595,-82518.48,-85403.445,-57855.062,-45390.504,-23472.82,-33498.7,-6854.2075,-14943.075
1317579.5928142546,-82513.92,-85399.05,-57847.25,-45375.49,-23468.506,-33491.863,-6856.9746,-14945.801
1317579.5968142496,-82508.47,-85390.34,-57842.57,-45346.965,-23461.387,-33483.523,-6863.7695,-14957.438
1317579.6008142445,-82509.04,-85388.02,-57845.137,-45349.773,-23460.816,-33484.62,-6864.7056,-14960.775
1317579.6048142395,-82516.4,-85396.41,-57854.25,-45378.703,-23468.506,-33496.258,-6861.328,-14951.62
1317579.6088142344,-82522.14,-85404.3,-57858.562,-45394.168,-23471.68,-33502.93,-6861.654,-14950.521
1317579.6128142294,-82516.56,-85399.58,-57851.81,-45374.105,-23465.252,-33496.625,-6868.286,-14960.327
1317579.6168142243,-82509.93,-85385.586,-57848.594,-45348.27,-23455.201,-33486.9,-6869.426,-14961.182
1317579.6208142193,-82506.47,-85380.54,-57849.895,-45346.273,-23457.154,-33483.645,-6863.4443,-14958.944
1317579.6248142144,-82510.13,-85390.26,-57853.11,-45374.84,-23468.588,-33492.8,-6852.6206,-14944.011
1317579.6288142093,-82514.484,-85394.01,-57851.81,-45391.848,-23469.727,-33498.984,-6849.6094,-14942.343
1317579.6328142043,-82512.125,-85391.52,-57846.926,-45373.78,-23460.857,-33492.92,-6853.5566,-14953.044
1317579.6368141992,-82506.59,-85387.33,-57844.402,-45347.902,-23455.486,-33484.01,-6859.7007,-14957.52
1317579.6408141942,-82510.42,-85386.4,-57850.75,-45350.465,-23461.63,-33483.035,-6861.003,-14959.27
1317579.6448141893,-82520.305,-85394.25,-57858.32,-45379.805,-23470.623,-33493.41,-6857.9917,-14954.184
1317579.6488141841,-82523.805,-85402.39,-57858.32,-45396.2,-23473.877,-33496.746,-6856.649,-14951.416
1317579.6528141792,-82528.484,-85404.79,-57855.31,-45382.04,-23468.182,-33489.055,-6860.718,-14955.607
1317579.656814174,-82523.234,-85398.89,-57853.883,-45353.965,-23464.193,-33480.957,-6866.089,-14958.984
1317579.660814169,-82504.56,-85380.91,-57848.676,-45348.96,-23462.973,-33482.707,-6867.5537,-14960.124
1317579.664814164,-82503.95,-85382.0,-57852.133,-45377.156,-23472.088,-33492.72,-6860.433,-14955.485
1317579.668814159,-82513.47,-85394.66,-57857.098,-45395.062,-23473.756,-33495.117,-6851.644,-14947.266
1317579.672814154,-82510.17,-85390.71,-57850.914,-45378.906,-23464.64,-33486.98,-6854.5737,-14953.044
1317579.676814149,-82503.5,-85382.61,-57845.91,-45351.44,-23457.805,-33478.64,-6858.7646,-14954.672
1317579.680814144,-82503.13,-85379.64,-57846.316,-45352.582,-23461.346,-33477.785,-6855.184,-14945.517
1317579.6848141388,-82510.54,-85389.65,-57854.74,-45387.207,-23471.232,-33486.33,-6847.8193,-14936.972
1317579.6888141339,-82515.305,-85397.99,-57857.547,-45398.64,-23471.03,-33492.15,-6850.2607,-14945.557
1317579.692814129,-82509.73,-85396.77,-57855.023,-45378.418,-23465.781,-33484.945,-6859.2124,-14958.171
1317579.6968141238,-82509.32,-85392.945,-57852.746,-45353.312,-23461.182,-33475.098,-6867.025,-14965.698
1317579.7008141188,-82508.42,-85385.375,-57854.13,-45351.32,-23463.096,-33477.457,-6868.8154,-14964.478
1317579.7048141137,-82510.664,-85390.99,-57855.39,-45379.07,-23472.047,-33486.777,-6862.142,-14953.166
1317579.7088141087,-82514.08,-85395.266,-57856.082,-45394.656,-23473.145,-33491.54,-6861.206,-14953.9795
1317579.7128141036,-82508.95,-85391.4,-57850.18,-45376.953,-23463.705,-33485.066,-6867.3506,-14963.623
1317579.7168140986,-82502.766,-85383.34,-57847.78,-45349.773,-23461.63,-33475.832,-6870.2803,-14964.763
1317579.7208140937,-82505.336,-85385.375,-57853.312,-45350.426,-23467.002,-33474.773,-6864.868,-14959.27
1317579.7248140885,-82509.56,-85389.98,-57857.383,-45379.438,-23466.025,-33483.36,-6856.771,-14953.166
1317579.7288140836,-82511.234,-85391.69,-57857.504,-45393.35,-23466.35,-33485.598,-6853.5566,-14950.073
1317579.7328140785,-82509.97,-85394.29,-57852.746,-45376.387,-23459.96,-33477.5,-6857.7476,-14953.898
1317579.7368140735,-82503.625,-85381.96,-57850.223,-45349.49,-23453.492,-33468.71,-6862.7524,-14957.846
1317579.7408140686,-82501.38,-85377.65,-57852.133,-45348.633,-23457.195,-33469.08,-6862.386,-14954.265
1317579.7448140634,-82505.54,-85385.17,-57856.934,-45378.99,-23471.152,-33478.76,-6853.597,-14938.843
1317579.7488140585,-82511.27,-85396.41,-57858.44,-45398.195,-23473.145,-33484.5,-6850.871,-14937.663
1317579.7528140533,-82510.336,-85391.93,-57855.023,-45382.734,-23463.42,-33477.867,-6855.754,-14944.906
1317579.7568140484,-82506.47,-85382.86,-57851.77,-45354.86,-23459.922,-33468.344,-6861.8164,-14947.673
1317579.7608140432,-82502.89,-85380.54,-57851.93,-45350.71,-23465.74,-33469.28,-6863.8105,-14948.608
1317579.7648140383,-82508.38,-85385.586,-57859.254,-45380.332,-23472.656,-33481.49,-6861.125,-14951.498
1317579.7688140334,-82514.98,-85395.63,-57863.69,-45397.42,-23472.453,-33486.53,-6857.463,-14947.592
1317579.7728140282,-82511.766,-85391.28,-57859.863,-45378.01,-23461.914,-33477.824,-6857.9917,-14945.109
1317579.7768140233,-82506.31,-85381.63,-57856.527,-45353.844,-23454.469,-33468.668,-6860.067,-14946.452
1317579.780814018,-82502.61,-85378.5,-57854.574,-45353.516,-23455.771,-33468.465,-6855.9165,-14948.364
1317579.7848140132,-82504.195,-85384.4,-57856.69,-45380.332,-23462.158,-33476.2,-6845.581,-14935.873
1317579.7888140082,-82506.39,-85390.51,-57856.773,-45396.85,-23465.617,-33477.906,-6839.2744,-14929.281
1317579.792814003,-82503.586,-85388.555,-57853.64,-45384.766,-23463.055,-33472.86,-6845.9883,-14942.261
1317579.7968139981,-82499.48,-85383.016,-57851.605,-45362.387,-23461.752,-33465.535,-6858.48,-14961.223
1317579.800813993,-82505.54,-85385.625,-57860.477,-45359.945,-23469.809,-33467.734,-6861.0435,-14958.456
1317579.804813988,-82518.516,-85395.59,-57867.312,-45386.883,-23482.383,-33478.434,-6856.9336,-14947.917
1317579.8088139829,-82526.25,-85403.0,-57870.402,-45403.73,-23480.469,-33485.555,-6859.009,-14952.23
1317579.812813978,-82522.99,-85403.93,-57864.42,-45383.344,-23469.238,-33479.74,-6864.4614,-14963.949
1317579.816813973,-82512.29,-85391.52,-57860.395,-45356.0,-23462.852,-33468.26,-6866.455,-14961.182
1317579.8208139678,-82508.1,-85384.36,-57860.477,-45353.76,-23465.576,-33463.664,-6862.5083,-14962.646
1317579.824813963,-82510.46,-85385.016,-57864.83,-45383.426,-23471.436,-33474.082,-6852.173,-14953.776
1317579.8288139577,-82513.06,-85390.22,-57863.61,-45399.375,-23472.78,-33478.516,-6845.337,-14943.604
1317579.8328139528,-82515.46,-85392.336,-57859.336,-45383.63,-23468.914,-33474.406,-6850.3013,-14949.789
1317579.836813948,-82506.8,-85382.94,-57853.395,-45354.168,-23464.723,-33464.03,-6855.632,-14955.811
1317579.8408139427,-82503.26,-85379.16,-57853.273,-45353.477,-23470.094,-33464.03,-6859.0903,-14957.438
1317579.8448139378,-82514.164,-85394.33,-57861.98,-45383.953,-23477.256,-33475.223,-6858.9683,-14956.543
1317579.8488139326,-82522.75,-85402.67,-57865.52,-45400.555,-23476.604,-33480.51,-6861.369,-14959.106
1317579.8528139277,-82517.91,-85397.22,-57861.574,-45385.5,-23467.123,-33474.406,-6869.548,-14964.885
1317579.8568139228,-82511.92,-85388.39,-57860.23,-45361.168,-23460.002,-33466.023,-6875.122,-14968.913
1317579.8608139176,-82509.52,-85382.164,-57861.492,-45356.69,-23461.264,-33464.64,-6873.169,-14965.536
1317579.8648139127,-82513.19,-85387.86,-57863.73,-45384.688,-23468.223,-33474.367,-6863.159,-14952.23
1317579.8688139075,-82516.16,-85392.945,-57862.023,-45398.926,-23469.076,-33480.51,-6859.8633,-14948.8125
1317579.8728139026,-82511.234,-85388.875,-57855.836,-45379.68,-23462.607,-33470.297,-6859.9043,-14947.47
1317579.8768138974,-82504.84,-85381.02,-57850.547,-45353.027,-23457.887,-33457.887,-6861.4097,-14948.486
1317579.8808138925,-82503.74,-85379.805,-57856.12,-45352.176,-23462.77,-33458.62,-6865.2754,-14951.742
1317579.8848138875,-82512.86,-85391.65,-57864.746,-45382.12,-23474.082,-33471.316,-6864.868,-14955.282
1317579.8888138824,-82520.96,-85401.0,-57866.17,-45399.78,-23478.477,-33475.586,-6864.868,-14961.304
1317579.8928138774,-82520.34,-85399.54,-57860.76,-45384.36,-23472.168,-33467.246,-6869.3037,-14967.082
1317579.8968138723,-82514.41,-85396.2,-57858.523,-45361.25,-23466.025,-33458.742,-6873.983,-14971.029
1317579.9008138673,-82508.71,-85388.63,-57857.91,-45357.06,-23467.164,-33456.586,-6871.0127,-14969.238
1317579.9048138624,-82516.32,-85394.414,-57864.746,-45384.81,-23476.197,-33468.668,-6865.6006,-14960.979
1317579.9088138572,-82519.29,-85400.234,-57863.566,-45398.6,-23475.424,-33472.74,-6859.294,-14950.439
1317579.9128138523,-82509.69,-85393.76,-57854.29,-45378.543,-23466.717,-33465.332,-6859.253,-14951.254
1317579.9168138471,-82500.98,-85382.66,-57850.87,-45352.05,-23460.328,-33456.586,-6864.095,-14959.27
1317579.9208138422,-82501.06,-85382.49,-57856.367,-45353.355,-23463.99,-33458.008,-6863.2407,-14958.171
1317579.924813837,-82505.82,-85387.945,-57862.1,-45380.414,-23467.246,-33465.496,-6854.492,-14947.754
1317579.928813832,-82511.234,-85391.65,-57859.66,-45393.23,-23467.367,-33467.773,-6852.661,-14948.202
1317579.9328138272,-82511.11,-85391.484,-57856.49,-45377.605,-23464.926,-33463.094,-6860.3926,-14955.974
1317579.936813822,-82505.945,-85383.34,-57854.94,-45353.23,-23460.734,-33455.566,-6867.147,-14960.612
1317579.940813817,-82506.23,-85381.72,-57857.707,-45351.44,-23468.426,-33455.566,-6868.7744,-14961.182
1317579.944813812,-82515.22,-85396.41,-57866.742,-45381.758,-23480.307,-33467.49,-6864.543,-14959.147
1317579.948813807,-82519.125,-85400.8,-57865.44,-45393.516,-23478.232,-33469.117,-6862.1016,-14959.392
1317579.952813802,-82515.18,-85393.76,-57858.93,-45377.81,-23467.57,-33460.367,-6864.5835,-14962.158
1317579.956813797,-82511.516,-85386.48,-57856.934,-45352.215,-23461.67,-33449.707,-6864.99,-14958.293
1317579.960813792,-82508.38,-85383.875,-57861.816,-45352.824,-23469.2,-33451.297,-6867.6353,-14965.698
1317579.9648137868,-82516.16,-85392.91,-57872.277,-45385.01,-23479.248,-33462.973,-6862.427,-14960.287
1317579.9688137819,-82527.51,-85404.55,-57873.902,-45404.625,-23477.783,-33465.25,-6859.782,-14957.357
1317579.9728137767,-82528.77,-85404.22,-57869.223,-45387.535,-23471.396,-33458.414,-6867.1064,-14969.6455
1317579.9768137718,-82521.89,-85395.35,-57865.766,-45360.35,-23467.041,-33449.465,-6871.826,-14975.261
1317579.9808137668,-82522.26,-85395.19,-57866.984,-45361.695,-23476.28,-33447.105,-6871.501,-14981.689
1317579.9848137617,-82533.37,-85410.08,-57874.31,-45390.504,-23489.463,-33455.363,-6864.095,-14969.564
1317579.9888137567,-82538.086,-85413.82,-57873.332,-45410.402,-23489.951,-33460.492,-6862.427,-14972.697
1317579.9928137516,-82524.25,-85395.19,-57864.953,-45391.156,-23476.074,-33455.934,-6868.2456,-14979.492
1317579.9968137466,-82515.34,-85388.43,-57862.023,-45362.836,-23466.879,-33445.72,-6869.7104,-14978.354
1317580.0008137417,-82517.58,-85392.74,-57867.11,-45362.145,-23467.693,-33444.297,-6864.299,-14969.727
1317580.0048137365,-82522.09,-85400.07,-57875.0,-45391.277,-23480.266,-33454.957,-6857.91,-14963.461
1317580.0088137316,-82525.64,-85402.8,-57873.496,-45407.35,-23483.562,-33453.613,-6848.755,-14949.992
1317580.0128137264,-82525.19,-85402.305,-57867.84,-45389.57,-23478.883,-33445.926,-6850.1387,-14953.573
1317580.0168137215,-82520.19,-85397.87,-57865.887,-45363.08,-23474.814,-33438.03,-6859.05,-14961.304
1317580.0208137163,-82523.32,-85402.914,-57869.996,-45365.156,-23477.215,-33438.19,-6862.793,-14960.815
1317580.0248137114,-82530.03,-85410.28,-57875.33,-45394.125,-23485.068,-33450.156,-6857.8696,-14949.911
1317580.0288137065,-82532.19,-85415.0,-57872.6,-45409.02,-23485.88,-33455.363,-6854.004,-14941.162
1317580.0328137013,-82529.586,-85407.15,-57865.277,-45391.44,-23472.088,-33449.383,-6857.341,-14951.782
1317580.0368136964,-82524.46,-85393.234,-57862.387,-45365.074,-23461.67,-33441.53,-6862.834,-14961.426
1317580.0408136912,-82522.46,-85392.664,-57866.66,-45365.6,-23468.262,-33442.87,-6864.8276,-14963.095
1317580.0448136863,-82528.08,-85400.84,-57875.246,-45393.92,-23474.854,-33451.418,-6859.416,-14959.188
1317580.0488136814,-82536.99,-85407.96,-57879.926,-45410.32,-23474.285,-33453.37,-6857.9917,-14962.443
1317580.0528136762,-82538.336,-85409.305,-57878.664,-45394.574,-23472.861,-33448.367,-6867.6353,-14973.918
1317580.0568136713,-82527.43,-85399.21,-57874.023,-45365.887,-23468.467,-33439.82,-6876.75,-14982.829
1317580.060813666,-82524.74,-85395.71,-57875.45,-45362.387,-23474.691,-33437.34,-6876.7905,-14980.429
1317580.0648136612,-82529.75,-85404.625,-57878.664,-45389.16,-23487.021,-33448.12,-6866.0483,-14965.983
1317580.068813656,-82531.21,-85409.63,-57873.17,-45404.5,-23485.596,-33454.754,-6859.782,-14955.16
1317580.072813651,-82526.9,-85406.58,-57865.4,-45386.027,-23476.441,-33449.668,-6864.095,-14957.357
1317580.0768136461,-82519.414,-85397.38,-57859.62,-45358.81,-23471.965,-33441.652,-6866.699,-14956.34
1317580.080813641,-82514.04,-85389.41,-57858.277,-45353.965,-23469.932,-33439.78,-6862.427,-14949.87
1317580.084813636,-82517.13,-85393.35,-57865.93,-45380.82,-23474.773,-33448.203,-6857.91,-14949.748
1317580.0888136309,-82526.086,-85402.39,-57872.52,-45399.008,-23473.389,-33450.727,-6856.5674,-14951.457
1317580.092813626,-82525.19,-85399.54,-57871.91,-45384.2,-23466.96,-33443.074,-6862.671,-14961.792
1317580.096813621,-82524.375,-85391.93,-57872.152,-45361.613,-23463.096,-33432.7,-6869.385,-14966.024
1317580.1008136158,-82527.1,-85392.42,-57875.53,-45361.574,-23470.623,-33430.83,-6871.1753,-14967.733
1317580.104813611,-82535.28,-85403.89,-57883.996,-45391.4,-23481.406,-33443.766,-6867.5947,-14970.012
1317580.1088136057,-82540.33,-85410.93,-57880.94,-45408.816,-23484.986,-33451.297,-6868.0015,-14972.006
1317580.1128136008,-82534.016,-85407.76,-57869.426,-45388.55,-23481.201,-33444.297,-6871.379,-14972.656
1317580.1168135959,-82524.09,-85397.51,-57862.51,-45359.945,-23471.965,-33434.695,-6872.3145,-14970.459
1317580.1208135907,-82517.26,-85389.04,-57861.74,-45356.082,-23473.227,-33431.4,-6866.2925,-14962.158
1317580.1248135858,-82519.125,-85392.83,-57868.086,-45383.668,-23480.186,-33439.293,-6855.51,-14953.817
1317580.1288135806,-82518.39,-85398.56,-57866.21,-45400.35,-23479.777,-33440.105,-6845.378,-14943.115
1317580.1328135757,-82512.66,-85393.19,-57860.35,-45383.098,-23467.123,-33433.23,-6847.087,-14944.824
1317580.1368135705,-82509.04,-85382.77,-57860.477,-45354.777,-23456.91,-33425.78,-6854.411,-14958.781
1317580.1408135656,-82512.9,-85386.88,-57866.54,-45357.016,-23464.031,-33424.766,-6857.666,-14959.758
1317580.1448135606,-82523.03,-85398.52,-57875.41,-45388.145,-23480.021,-33434.45,-6854.004,-14949.626
1317580.1488135555,-82532.8,-85406.45,-57878.543,-45404.543,-23484.172,-33439.902,-6854.492,-14954.55
1317580.1528135506,-82532.88,-85406.74,-57873.902,-45388.918,-23478.191,-33431.887,-6862.468,-14964.763
1317580.1568135454,-82528.52,-85399.05,-57870.85,-45363.203,-23475.506,-33422.04,-6869.385,-14969.971
1317580.1608135405,-82524.78,-85397.55,-57871.46,-45359.17,-23475.83,-33420.453,-6869.792,-14969.198
1317580.1648135355,-82527.34,-85401.9,-57874.637,-45384.402,-23479.248,-33432.047,-6866.4146,-14969.482
1317580.1688135304,-82531.17,-85407.19,-57876.26,-45400.555,-23480.307,-33439.656,-6862.3047,-14961.914
1317580.1728135254,-82521.734,-85394.78,-57864.79,-45381.715,-23469.402,-33430.707,-6861.003,-14959.392
1317580.1768135203,-82513.35,-85379.56,-57857.586,-45352.133,-23458.62,-33421.1,-6862.3457,-14962.891
1317580.1808135153,-82507.0,-85369.14,-57858.562,-45347.13,-23456.584,-33420.29,-6860.5146,-14961.589
1317580.1848135102,-82512.17,-85375.2,-57865.645,-45377.89,-23466.188,-33429.566,-6853.3936,-14951.091
1317580.1888135052,-82518.84,-85385.46,-57864.137,-45395.223,-23467.896,-33432.293,-6851.6846,-14953.573
1317580.1928135003,-82525.72,-85392.625,-57863.04,-45383.75,-23465.861,-33426.555,-6858.6426,-14963.217
1317580.1968134951,-82529.18,-85392.3,-57864.22,-45358.195,-23462.89,-33417.727,-6863.7695,-14965.576
1317580.2008134902,-82526.98,-85390.67,-57870.973,-45358.727,-23472.25,-33418.336,-6865.4785,-14965.942
1317580.204813485,-82531.01,-85396.24,-57876.832,-45387.13,-23480.186,-33431.113,-6861.9795,-14963.217
1317580.20881348,-82533.81,-85402.47,-57871.055,-45399.78,-23478.477,-33435.344,-6858.8867,-14958.171
1317580.2128134752,-82528.89,-85396.37,-57861.207,-45383.953,-23470.012,-33431.152,-6861.206,-14960.49
1317580.21681347,-82525.35,-85389.57,-57860.07,-45360.15,-23465.82,-33423.42,-6865.2754,-14965.658
1317580.220813465,-82522.71,-85386.44,-57867.027,-45359.336,-23472.82,-33424.766,-6865.2344,-14969.035
1317580.22481346,-82529.664,-85393.96,-57875.33,-45388.023,-23480.51,-33436.523,-6856.242,-14957.438
1317580.228813455,-82532.72,-85398.234,-57873.535,-45401.246,-23477.418,-33439.09,-6849.813,-14952.2705
1317580.2328134498,-82524.91,-85389.81,-57863.28,-45377.645,-23461.264,-33428.1,-6849.162,-14955.2
1317580.2368134449,-82515.625,-85376.34,-57859.05,-45350.547,-23453.98,-33418.863,-6853.1904,-14959.392
1317580.24081344,-82510.336,-85369.14,-57860.516,-45350.914,-23459.107,-33417.074,-6849.813,-14954.265
1317580.2448134348,-82518.35,-85379.31,-57866.78,-45382.895,-23470.5,-33426.35,-6842.733,-14949.992
1317580.2488134298,-82529.75,-85393.68,-57871.055,-45404.055,-23476.889,-33431.195,-6841.3496,-14948.283
1317580.2528134247,-82529.016,-85398.195,-57869.387,-45390.91,-23477.621,-33424.93,-6849.6504,-14951.01
1317580.2568134197,-82521.81,-85392.09,-57865.6,-45364.83,-23474.977,-33419.11,-6863.7695,-14965.861
1317580.2608134148,-82522.016,-85386.92,-57867.676,-45364.3,-23478.271,-33420.86,-6869.873,-14973.227
1317580.2648134097,-82528.93,-85395.47,-57875.816,-45392.418,-23486.045,-33432.293,-6867.961,-14969.035
1317580.2688134047,-82534.67,-85402.8,-57875.207,-45408.33,-23486.41,-33436.523,-6865.1533,-14963.298
1317580.2728133996,-82533.61,-85398.52,-57871.3,-45392.09,-23478.027,-33429.73,-6864.909,-14957.52
1317580.2768133946,-82524.87,-85390.1,-57867.35,-45363.973,-23468.467,-33422.324,-6867.147,-14963.827
1317580.2808133895,-82521.445,-85388.516,-57869.55,-45361.816,-23469.809,-33420.777,-6863.037,-14961.304
1317580.2848133845,-82520.914,-85392.01,-57871.746,-45386.965,-23478.72,-33427.086,-6853.1494,-14951.782
1317580.2888133796,-82521.77,-85394.53,-57867.92,-45402.793,-23477.459,-33429.77,-6848.3076,-14948.364
1317580.2928133744,-82517.945,-85389.57,-57861.453,-45387.047,-23471.559,-33422.363,-6847.7783,-14953.369
1317580.2968133695,-82508.79,-85379.48,-57855.47,-45355.918,-23467.45,-33410.89,-6851.6846,-14962.769
1317580.3008133643,-82507.04,-85376.43,-57860.72,-45354.37,-23470.541,-33411.54,-6850.2607,-14962.524
1317580.3048133594,-82515.55,-85386.15,-57866.78,-45385.867,-23479.818,-33423.79,-6845.703,-14955.933
1317580.3088133545,-82526.53,-85397.46,-57873.21,-45404.055,-23486.777,-33429.363,-6846.4766,-14957.4795
1317580.3128133493,-82528.52,-85396.164,-57868.125,-45390.06,-23479.248,-33424.03,-6853.5156,-14963.542
1317580.3168133444,-82525.07,-85388.43,-57865.848,-45363.242,-23471.844,-33416.383,-6860.962,-14971.436
1317580.3208133392,-82518.88,-85382.24,-57867.27,-45360.395,-23469.809,-33415.49,-6859.66,-14968.954
1317580.3248133343,-82521.484,-85387.414,-57872.56,-45388.105,-23474.082,-33424.97,-6850.4233,-14954.0205
1317580.328813329,-82521.484,-85391.56,-57870.16,-45403.363,-23475.791,-33428.184,-6848.796,-14956.421
1317580.3328133242,-82517.664,-85386.4,-57864.137,-45385.62,-23469.688,-33422.16,-6852.783,-14959.961
1317580.3368133192,-82515.016,-85377.484,-57863.203,-45357.91,-23462.24,-33413.453,-6858.2764,-14965.292
1317580.340813314,-82516.97,-85374.68,-57869.14,-45359.66,-23470.094,-33412.598,-6858.7646,-14967.407
1317580.3448133091,-82521.2,-85380.984,-57874.27,-45388.43,-23480.674,-33425.008,-6853.1494,-14963.867
1317580.348813304,-82520.836,-85386.35,-57871.625,-45401.652,-23483.033,-33428.387,-6847.8193,-14956.096
1317580.352813299,-82516.85,-85384.81,-57866.254,-45383.504,-23475.303,-33420.37,-6849.243,-14957.357
1317580.356813294,-82509.93,-85377.08,-57860.76,-45354.902,-23466.676,-33412.312,-6853.1904,-14962.973
1317580.360813289,-82507.164,-85375.125,-57864.34,-45355.836,-23470.42,-33412.64,-6847.7783,-14958.74
1317580.364813284,-82511.44,-85381.23,-57868.938,-45385.418,-23479.209,-33418.824,-6836.426,-14943.97
1317580.3688132789,-82519.45,-85388.02,-57868.164,-45403.566,-23481.121,-33420.86,-6829.753,-14932.861
1317580.372813274,-82519.33,-85387.86,-57864.746,-45386.76,-23477.5,-33410.2,-6830.5664,-14935.873
1317580.376813269,-82510.664,-85378.38,-57862.062,-45362.918,-23476.074,-33401.125,-6837.158,-14947.673
1317580.3808132638,-82509.484,-85375.49,-57863.895,-45364.83,-23479.574,-33400.35,-6837.3213,-14944.214
1317580.384813259,-82516.44,-85381.06,-57868.125,-45393.637,-23485.434,-33410.605,-6830.526,-14934.652
1317580.3888132537,-82525.48,-85388.266,-57871.867,-45411.258,-23486.98,-33417.4,-6831.909,-14933.838
1317580.3928132488,-82527.75,-85389.85,-57867.598,-45395.754,-23480.266,-33414.266,-6840.902,-14945.15
1317580.3968132436,-82520.305,-85383.266,-57861.9,-45366.78,-23473.105,-33404.5,-6848.918,-14960.897
1317580.4008132387,-82516.12,-85380.7,-57865.36,-45365.074,-23476.848,-33403.85,-6848.1855,-14963.42
1317580.4048132338,-82518.555,-85385.016,-57867.96,-45394.53,-23485.678,-33412.438,-6841.0645,-14957.764
1317580.4088132286,-82524.3,-85392.01,-57866.984,-45408.49,-23487.184,-33416.91,-6836.8735,-14952.8
1317580.4128132237,-82522.14,-85388.875,-57862.51,-45389.977,-23479.656,-33408.773,-6838.176,-14955.933
1317580.4168132185,-82516.766,-85377.85,-57862.227,-45363.406,-23470.541,-33395.836,-6840.088,-14957.724
1317580.4208132136,-82514.33,-85376.63,-57864.953,-45364.258,-23474.65,-33393.516,-6835.775,-14953.369
1317580.4248132086,-82519.94,-85385.13,-57871.055,-45395.145,-23485.271,-33402.344,-6827.0674,-14942.871
1317580.4288132035,-82530.234,-85397.586,-57877.85,-45412.68,-23491.293,-33409.305,-6829.3867,-14944.377
1317580.4328131985,-82532.516,-85397.664,-57875.49,-45397.543,-23482.83,-33404.38,-6840.8613,-14959.27
1317580.4368131934,-82527.67,-85391.03,-57875.0,-45370.16,-23477.621,-33395.754,-6849.935,-14968.71
1317580.4408131884,-82525.84,-85389.9,-57876.465,-45366.902,-23480.186,-33397.46,-6851.888,-14971.68
1317580.4448131833,-82528.57,-85393.88,-57877.77,-45392.17,-23486.41,-33409.26,-6846.8833,-14965.292
1317580.4488131783,-82533.164,-85403.28,-57876.63,-45407.188,-23489.666,-33416.586,-6843.669,-14961.304
1317580.4528131734,-82533.98,-85401.734,-57871.42,-45392.293,-23479.168,-33411.824,-6845.744,-14963.013
1317580.4568131682,-82526.62,-85389.49,-57867.637,-45365.848,-23472.738,-33399.78,-6850.0977,-14968.913
1317580.4608131633,-82522.3,-85385.055,-57870.934,-45364.504,-23478.68,-33396.688,-6849.243,-14970.785
1317580.4648131581,-82528.65,-85390.67,-57877.688,-45391.93,-23486.166,-33403.566,-6837.5244,-14954.956
1317580.4688131532,-82530.44,-85393.234,-57874.637,-45406.902,-23481.08,-33403.117,-6829.712,-14949.382
1317580.4728131483,-82527.34,-85391.65,-57867.84,-45393.15,-23474.285,-33396.2,-6834.554,-14952.353
1317580.4768131431,-82520.8,-85385.3,-57864.42,-45366.984,-23468.506,-33387.004,-6843.9536,-14959.066
1317580.4808131382,-82519.45,-85381.88,-57868.45,-45365.645,-23475.424,-33388.023,-6851.888,-14976.767
1317580.484813133,-82528.69,-85390.67,-57877.81,-45397.46,-23489.828,-33402.63,-6850.0166,-14971.965
1317580.488813128,-82533.53,-85400.19,-57877.402,-45413.25,-23490.113,-33411.01,-6848.8364,-14970.175
1317580.492813123,-82530.4,-85399.62,-57871.016,-45393.312,-23482.951,-33405.4,-6855.632,-14976.5625
1317580.496813118,-82520.555,-85384.73,-57866.54,-45362.227,-23475.018,-33393.84,-6862.8745,-14981.975
1317580.500813113,-82510.54,-85375.125,-57866.824,-45358.562,-23476.604,-33394.45,-6863.159,-14983.317
1317580.504813108,-82514.9,-85381.836,-57872.97,-45386.64,-23485.027,-33405.438,-6854.004,-14973.471
1317580.508813103,-82520.34,-85386.6,-57874.188,-45401.855,-23485.352,-33409.832,-6848.5107,-14969.482
1317580.5128130978,-82520.1,-85384.484,-57870.934,-45387.656,-23477.662,-33401.938,-6851.4404,-14974.121
1317580.5168130929,-82513.1,-85375.41,-57867.883,-45361.004,-23469.688,-33388.1,-6853.353,-14972.9
1317580.520813088,-82509.32,-85374.27,-57868.492,-45362.754,-23473.145,-33386.07,-6848.4297,-14965.048
1317580.5248130828,-82516.85,-85388.63,-57872.97,-45394.043,-23483.115,-33395.223,-6838.298,-14955.566
1317580.5288130778,-82521.0,-85397.305,-57875.164,-45409.953,-23485.148,-33398.074,-6833.7812,-14953.898
1317580.5328130727,-82518.39,-85392.945,-57869.55,-45396.08,-23480.754,-33391.48,-6837.606,-14959.351
1317580.5368130677,-82513.59,-85383.63,-57865.887,-45369.67,-23475.994,-33383.75,-6844.1978,-14966.553
1317580.5408130626,-82511.48,-85382.125,-57871.34,-45368.695,-23478.354,-33385.457,-6844.1978,-14963.664
1317580.5448130576,-82516.97,-85387.74,-57877.28,-45393.965,-23487.549,-33395.914,-6840.373,-14958.374
1317580.5488130527,-82523.89,-85392.055,-57878.99,-45408.734,-23485.88,-33399.984,-6837.2397,-14957.194
1317580.5528130475,-82520.43,-85388.06,-57874.39,-45391.4,-23477.256,-33392.78,-6842.204,-14961.996
1317580.5568130426,-82510.87,-85376.55,-57870.324,-45361.043,-23471.232,-33381.96,-6845.215,-14964.682
1317580.5608130374,-82508.18,-85371.83,-57871.504,-45360.965,-23475.83,-33379.723,-6843.994,-14965.495
1317580.5648130325,-82514.28,-85381.96,-57877.727,-45392.906,-23485.678,-33387.74,-6836.1816,-14955.526
1317580.5688130276,-82523.12,-85392.91,-57877.16,-45411.418,-23487.63,-33392.906,-6833.0894,-14949.789
1317580.5728130224,-82522.71,-85391.03,-57871.258,-45396.812,-23480.998,-33388.31,-6839.2744,-14956.055
1317580.5768130175,-82515.83,-85383.586,-57866.863,-45370.32,-23475.871,-33380.21,-6848.226,-14965.983
1317580.5808130123,-82517.21,-85383.836,-57869.71,-45369.67,-23478.068,-33382.57,-6849.4062,-14966.513
1317580.5848130074,-82521.69,-85391.195,-57876.344,-45397.055,-23486.613,-33390.016,-6839.315,-14952.556
1317580.5888130022,-82526.82,-85398.32,-57875.855,-45415.0,-23490.234,-33394.86,-6836.1816,-14951.05
1317580.5928129973,-82526.29,-85397.22,-57872.56,-45399.496,-23484.457,-33388.023,-6841.8784,-14964.274
1317580.5968129924,-82524.945,-85390.914,-57873.09,-45372.56,-23478.598,-33378.543,-6846.029,-14969.727
1317580.6008129872,-82527.266,-85393.516,-57880.332,-45374.35,-23481.486,-33379.19,-6843.628,-14969.523
1317580.6048129823,-82532.43,-85404.7,-57885.824,-45402.1,-23492.066,-33390.79,-6835.9375,-14960.612
1317580.608812977,-82535.12,-85407.76,-57882.977,-45417.727,-23490.072,-33394.98,-6833.944,-14958.171
1317580.6128129722,-82529.09,-85398.64,-57876.953,-45399.05,-23484.58,-33387.004,-6837.3213,-14963.461
1317580.6168129672,-82520.63,-85386.64,-57871.176,-45371.297,-23478.68,-33379.395,-6843.221,-14967.651
1317580.620812962,-82515.55,-85383.586,-57869.957,-45367.72,-23482.871,-33379.926,-6844.32,-14964.6
1317580.6248129571,-82520.19,-85392.54,-57876.508,-45395.348,-23493.125,-33387.613,-6842.489,-14964.966
1317580.628812952,-82528.65,-85401.05,-57876.02,-45412.926,-23492.92,-33392.824,-6842.489,-14966.146
1317580.632812947,-82528.65,-85400.27,-57872.316,-45399.58,-23485.596,-33389.16,-6849.04,-14970.337
1317580.636812942,-82524.62,-85394.984,-57875.41,-45374.555,-23476.318,-33383.098,-6855.3467,-14971.191
1317580.640812937,-82521.94,-85388.875,-57880.09,-45369.914,-23475.342,-33382.12,-6855.7944,-14976.278
1317580.644812932,-82526.05,-85395.14,-57884.035,-45396.688,-23484.213,-33389.406,-6848.4297,-14972.128
1317580.6488129268,-82529.34,-85399.13,-57882.324,-45411.62,-23482.26,-33391.6,-6844.0757,-14970.785
1317580.652812922,-82522.75,-85390.875,-57873.535,-45392.703,-23474.691,-33384.645,-6843.7095,-14973.755
1317580.6568129167,-82515.016,-85381.266,-57867.8,-45365.074,-23467.326,-33374.797,-6847.6973,-14975.83
1317580.6608129118,-82511.97,-85377.77,-57870.445,-45363.934,-23471.64,-33375.53,-6850.2607,-14974.447
1317580.6648129069,-82517.625,-85388.47,-57874.15,-45390.992,-23480.998,-33386.883,-6845.378,-14964.641
1317580.6688129017,-82525.39,-85399.54,-57875.246,-45409.223,-23483.725,-33392.58,-6845.5405,-14963.623
1317580.6728128968,-82526.62,-85397.99,-57874.434,-45395.184,-23481.73,-33388.227,-6853.76,-14976.359
1317580.6768128916,-82520.96,-85390.625,-57873.17,-45367.312,-23476.523,-33379.273,-6861.4097,-14984.172
1317580.6808128867,-82521.37,-85392.42,-57878.01,-45366.54,-23483.154,-33377.645,-6864.095,-14982.992
1317580.6848128818,-82528.73,-85401.45,-57885.99,-45396.445,-23490.357,-33386.72,-6856.8115,-14975.952
1317580.6888128766,-82536.18,-85408.695,-57888.797,-45416.344,-23491.62,-33393.11,-6852.661,-14974.936
1317580.6928128717,-82535.41,-85405.44,-57886.312,-45399.05,-23483.969,-33384.645,-6855.876,-14983.603
1317580.6968128665,-82532.63,-85397.99,-57883.06,-45371.83,-23478.11,-33376.02,-6861.6133,-14992.92
1317580.7008128616,-82531.62,-85395.51,-57884.2,-45371.992,-23481.934,-33376.547,-6858.236,-14988.607
1317580.7048128564,-82535.484,-85401.49,-57890.06,-45399.78,-23491.66,-33383.832,-6847.9414,-14973.227
1317580.7088128515,-82539.43,-85407.15,-57889.895,-45418.62,-23492.352,-33383.06,-6841.716,-14967.937
1317580.7128128465,-82535.93,-85402.55,-57883.26,-45399.254,-23483.848,-33376.75,-6847.2495,-14976.156
1317580.7168128414,-82526.66,-85395.76,-57877.85,-45369.02,-23478.516,-33367.35,-6852.2544,-14978.271
1317580.7208128364,-82522.625,-85391.195,-57878.46,-45369.266,-23478.232,-33368.53,-6854.533,-14981.283
1317580.7248128313,-82526.9,-85395.47,-57882.855,-45398.562,-23488.73,-33380.496,-6849.8535,-14978.679
1317580.7288128263,-82532.836,-85403.32,-57883.914,-45416.75,-23495.484,-33386.56,-6848.226,-14979.533
1317580.7328128214,-82529.46,-85400.19,-57875.33,-45397.42,-23488.445,-33377.605,-6851.3184,-14981.323
1317580.7368128162,-82520.43,-85388.555,-57872.03,-45369.996,-23476.4,-33365.438,-6854.2075,-14977.173
1317580.7408128113,-82520.1,-85382.94,-57875.164,-45368.164,-23475.994,-33362.387,-6854.126,-14972.616
1317580.7448128061,-82531.414,-85392.01,-57883.14,-45397.383,-23485.352,-33373.984,-6845.459,-14953.247
1317580.7488128012,-82540.41,-85401.37,-57884.44,-45416.3,-23488.852,-33381.594,-6843.506,-14952.841
1317580.752812796,-82535.08,-85396.85,-57878.785,-45400.434,-23479.371,-33375.0,-6850.749,-14967.489
1317580.756812791,-82525.19,-85385.17,-57875.695,-45372.684,-23466.025,-33364.016,-6855.2246,-14974.65
1317580.7608127862,-82519.9,-85380.086,-57876.996,-45366.457,-23466.473,-33363.812,-6853.5566,-14974.325
1317580.764812781,-82525.59,-85386.31,-57884.035,-45395.67,-23475.586,-33373.94,-6846.639,-14971.599
1317580.768812776,-82527.71,-85389.445,-57883.26,-45411.01,-23476.4,-33376.305,-6840.495,-14965.414
1317580.772812771,-82524.74,-85388.67,-57876.305,-45395.145,-23468.914,-33368.33,-6844.116,-14970.378
1317580.776812766,-82522.055,-85383.79,-57874.473,-45371.582,-23465.943,-33363.2,-6853.1494,-14979.655
1317580.780812761,-82524.46,-85384.97,-57881.023,-45373.293,-23474.814,-33364.46,-6857.788,-14981.608
1317580.7848127559,-82534.914,-85399.54,-57889.69,-45402.67,-23491.455,-33375.043,-6854.411,-14980.917
1317580.788812751,-82544.234,-85411.625,-57891.24,-45421.023,-23496.217,-33379.438,-6854.7363,-14982.544
1317580.7928127458,-82542.69,-85410.24,-57885.418,-45404.785,-23492.596,-33371.785,-6856.8525,-14985.474
1317580.7968127409,-82533.61,-85399.46,-57879.883,-45376.59,-23484.863,-33362.918,-6859.8228,-14993.246
1317580.8008127357,-82529.22,-85393.31,-57879.926,-45371.664,-23485.107,-33360.68,-6856.3643,-14990.194
1317580.8048127308,-82529.586,-85394.25,-57886.273,-45400.27,-23491.537,-33369.996,-6847.7783,-14979.452
1317580.8088127258,-82532.06,-85398.234,-57885.418,-45417.44,-23491.334,-33374.105,-6842.733,-14969.442
1317580.8128127207,-82529.95,-85397.46,-57879.6,-45400.188,-23481.324,-33366.05,-6842.5293,-14965.861
1317580.8168127157,-82522.71,-85390.67,-57878.297,-45372.234,-23474.326,-33355.266,-6846.4355,-14974.528
1317580.8208127106,-82523.6,-85392.74,-57879.6,-45373.902,-23481.73,-33353.92,-6847.29,-14978.068
1317580.8248127056,-82529.625,-85400.96,-57885.01,-45402.02,-23491.74,-33363.61,-6843.1807,-14969.32
1317580.8288127007,-82537.84,-85406.45,-57886.76,-45418.297,-23493.652,-33368.29,-6844.32,-14973.715
1317580.8328126955,-82543.91,-85408.695,-57883.547,-45403.28,-23487.387,-33364.055,-6850.871,-14981.608
1317580.8368126906,-82538.74,-85403.2,-57885.62,-45378.38,-23482.383,-33355.67,-6857.7476,-14987.305
1317580.8408126854,-82533.9,-85398.07,-57886.273,-45374.023,-23482.057,-33354.207,-6857.463,-14986.206
1317580.8448126805,-82536.79,-85403.0,-57890.465,-45406.09,-23489.055,-33365.074,-6850.0166,-14975.708
1317580.8488126753,-82539.59,-85405.44,-57890.26,-45423.098,-23490.764,-33369.71,-6847.982,-14968.384
1317580.8528126704,-82535.81,-85401.86,-57883.668,-45401.164,-23482.871,-33365.438,-6853.882,-14974.406
1317580.8568126655,-82523.84,-85390.71,-57878.215,-45372.438,-23475.303,-33356.812,-6861.247,-14991.293
1317580.8608126603,-82520.14,-85386.6,-57876.953,-45371.34,-23477.744,-33353.027,-6856.9336,-14986.41
1317580.8648126554,-82529.3,-85395.266,-57883.547,-45402.875,-23487.834,-33362.47,-6847.29,-14976.929
1317580.8688126502,-82539.76,-85408.25,-57888.145,-45424.6,-23493.408,-33365.766,-6843.669,-14975.139
1317580.8728126453,-82538.695,-85410.0,-57886.07,-45410.848,-23491.375,-33356.895,-6848.8364,-14982.463
1317580.8768126403,-82536.055,-85403.2,-57884.727,-45385.254,-23483.318,-33347.008,-6857.91,-14992.554
1317580.8808126352,-82534.836,-85396.484,-57887.332,-45381.39,-23483.725,-33346.19,-6857.666,-14992.025
1317580.8848126302,-82535.85,-85398.97,-57891.4,-45405.52,-23493.693,-33359.375,-6854.289,-14983.48
1317580.888812625,-82536.664,-85403.73,-57890.06,-45422.812,-23495.525,-33363.934,-6849.691,-14974.731
1317580.8928126201,-82539.516,-85403.445,-57888.348,-45407.35,-23484.13,-33357.586,-6852.173,-14975.505
1317580.896812615,-82533.33,-85396.28,-57882.49,-45378.176,-23475.139,-33350.465,-6856.771,-14980.957
1317580.90081261,-82531.414,-85391.32,-57884.074,-45376.426,-23480.795,-33350.3,-6854.9805,-14979.33
1317580.9048126051,-82538.336,-85398.195,-57890.668,-45405.438,-23492.92,-33363.28,-6848.633,-14970.541
1317580.9088126,-82546.15,-85408.37,-57891.32,-45424.48,-23495.605,-33367.594,-6844.8896,-14963.664
1317580.912812595,-82540.65,-85403.61,-57884.81,-45407.15,-23486.207,-33359.254,-6847.6973,-14975.342
1317580.9168125899,-82529.95,-85391.36,-57879.723,-45379.68,-23478.72,-33347.902,-6853.353,-14980.795
1317580.920812585,-82525.31,-85383.79,-57882.0,-45379.883,-23481.365,-33345.99,-6852.2544,-14976.156
1317580.92481258,-82531.3,-85389.2,-57889.324,-45408.57,-23491.496,-33354.98,-6845.459,-14969.035
1317580.9288125748,-82537.68,-85401.53,-57891.195,-45426.883,-23493.816,-33361.695,-6846.2324,-14974.203
1317580.93281257,-82538.01,-85403.73,-57887.047,-45413.086,-23484.213,-33356.203,-6848.5923,-14976.318
1317580.9368125647,-82531.01,-85394.53,-57883.18,-45385.703,-23478.15,-33348.31,-6853.2715,-14981.12
1317580.9408125598,-82530.11,-85388.47,-57884.44,-45383.14,-23482.139,-33347.535,-6853.882,-14977.702
1317580.9448125549,-82536.586,-85393.92,-57890.016,-45408.895,-23491.904,-33358.035,-6846.965,-14965.129
1317580.9488125497,-82537.36,-85399.26,-57889.527,-45421.836,-23489.258,-33363.445,-6845.134,-14968.832
1317580.9528125448,-82533.94,-85399.82,-57882.69,-45402.875,-23480.674,-33356.57,-6846.3135,-14971.273
1317580.9568125396,-82528.12,-85391.6,-57879.6,-45377.85,-23474.895,-33348.473,-6852.9463,-14978.027
1317580.9608125347,-82525.39,-85386.64,-57881.918,-45373.82,-23481.121,-33347.78,-6850.83,-14973.837
1317580.9648125295,-82530.93,-85395.51,-57889.895,-45401.207,-23492.717,-33357.383,-6847.982,-14977.092
1317580.9688125246,-82538.945,-85402.39,-57889.61,-45421.51,-23492.799,-33361.53,-6848.3076,-14977.783
1317580.9728125196,-82540.445,-85400.39,-57884.277,-45409.832,-23489.828,-33357.75,-6855.306,-14987.305
1317580.9768125145,-82533.41,-85395.875,-57883.465,-45384.44,-23489.055,-33348.27,-6859.2124,-14988.892
1317580.9808125095,-82529.13,-85392.21,-57883.63,-45380.94,-23488.975,-33346.56,-6858.3984,-14986.003
1317580.9848125044,-82533.45,-85398.07,-57891.523,-45409.63,-23493.613,-33356.73,-6851.644,-14978.882
1317580.9888124994,-82539.15,-85401.49,-57889.49,-45427.734,-23495.646,-33362.184,-6844.8486,-14972.372
1317580.9928124945,-82538.66,-85395.35,-57882.69,-45410.645,-23486.004,-33355.387,-6847.7783,-14978.19
1317580.9968124893,-82531.78,-85386.805,-57878.99,-45382.855,-23480.55,-33347.293,-6853.2715,-14981.649
1317581.0008124844,-82528.32,-85386.234,-57880.902,-45380.7,-23486.125,-33343.75,-6852.3765,-14978.516
1317581.0048124793,-82535.81,-85394.086,-57886.883,-45409.668,-23496.623,-33354.37,-6847.3716,-14971.518
1317581.0088124743,-82539.836,-85403.81,-57885.742,-45424.48,-23496.908,-33359.62,-6846.5986,-14971.599
1317581.0128124692,-82536.38,-85402.59,-57882.203,-45408.816,-23490.846,-33352.785,-6854.8584,-14985.026
1317581.0168124642,-82528.77,-85393.72,-57878.664,-45381.715,-23482.871,-33344.08,-6862.1016,-14994.873
1317581.0208124593,-82526.125,-85390.38,-57879.03,-45378.34,-23486.613,-33343.508,-6857.015,-14987.0205
1317581.0248124541,-82530.68,-85395.51,-57883.586,-45409.426,-23492.676,-33356.082,-6845.744,-14973.145
1317581.0288124492,-82535.04,-85399.13,-57885.215,-45423.22,-23488.934,-33358.727,-6840.576,-14969.035
1317581.032812444,-82532.31,-85396.2,-57877.77,-45404.5,-23480.713,-33351.074,-6844.442,-14974.691
1317581.036812439,-82524.46,-85388.15,-57874.066,-45379.883,-23479.86,-33343.996,-6852.336,-14979.818
1317581.0408124342,-82519.25,-85382.77,-57874.676,-45376.223,-23480.389,-33340.82,-6851.4,-14976.645
1317581.044812429,-82524.46,-85387.945,-57878.094,-45406.375,-23488.037,-33350.992,-6847.453,-14975.22
1317581.048812424,-82531.086,-85398.805,-57877.363,-45426.8,-23493.328,-33355.387,-6844.2383,-14970.215
1317581.052812419,-82527.914,-85397.51,-57870.445,-45412.11,-23486.572,-33348.797,-6845.378,-14967.529
1317581.056812414,-82519.37,-85385.42,-57866.418,-45384.605,-23478.76,-33337.363,-6846.6797,-14966.146
1317581.0608124088,-82515.875,-85380.17,-57870.363,-45381.594,-23481.73,-33339.234,-6849.569,-14974.854
1317581.0648124039,-82521.2,-85387.05,-57876.465,-45408.895,-23491.172,-33349.49,-6844.035,-14969.931
1317581.068812399,-82525.92,-85396.445,-57877.89,-45425.58,-23493.734,-33352.62,-6842.1226,-14969.279
1317581.0728123938,-82521.445,-85391.12,-57873.293,-45408.53,-23486.125,-33347.168,-6847.087,-14979.94
1317581.0768123888,-82514.81,-85378.42,-57868.004,-45379.11,-23479.9,-33337.566,-6850.3013,-14979.33
1317581.0808123837,-82515.914,-85380.29,-57869.63,-45377.727,-23483.969,-33338.176,-6850.342,-14977.702
1317581.0848123787,-82524.3,-85393.07,-57877.65,-45404.95,-23496.014,-33350.26,-6847.412,-14972.128
1317581.0888123738,-82528.484,-85399.82,-57877.484,-45419.965,-23494.955,-33354.004,-6847.6157,-14974.162
1317581.0928123686,-82527.06,-85396.53,-57875.125,-45406.78,-23488.201,-33345.785,-6851.8066,-14978.801
1317581.0968123637,-82520.63,-85386.516,-57871.95,-45380.7,-23483.848,-33334.27,-6854.4517,-14982.544
1317581.1008123585,-82519.414,-85383.18,-57878.137,-45381.39,-23488.81,-33333.21,-6854.126,-14981.812
1317581.1048123536,-82530.32,-85394.94,-57887.656,-45412.152,-23500.488,-33344.81,-6848.5923,-14974.121
1317581.1088123485,-82538.54,-85402.1,-57887.98,-45430.91,-23502.646,-33347.21,-6845.581,-14972.006
1317581.1128123435,-82538.21,-85401.164,-57881.594,-45416.992,-23492.799,-33341.023,-6848.47,-14973.471
1317581.1168123386,-82526.37,-85392.664,-57876.06,-45387.535,-23485.271,-33331.992,-6854.004,-14988.037
1317581.1208123334,-82520.47,-85387.74,-57879.883,-45384.97,-23488.81,-33331.87,-6853.0684,-14986.938
1317581.1248123285,-82522.18,-85387.54,-57881.43,-45408.49,-23493.531,-33340.7,-6845.4185,-14976.889
1317581.1288123233,-82526.57,-85392.01,-57878.582,-45424.4,-23493.408,-33342.977,-6837.8096,-14965.576
1317581.1328123184,-82523.484,-85393.07,-57874.594,-45408.816,-23489.055,-33335.53,-6839.966,-14968.059
1317581.1368123135,-82514.125,-85383.06,-57872.438,-45382.69,-23483.562,-33327.477,-6845.9883,-14978.027
1317581.1408123083,-82511.516,-85379.31,-57875.695,-45380.7,-23488.281,-33327.23,-6844.4824,-14977.702
1317581.1448123034,-82520.39,-85387.984,-57881.555,-45408.367,-23492.92,-33334.8,-6836.1816,-14964.193
1317581.1488122982,-82524.664,-85392.46,-57882.938,-45428.1,-23489.707,-33340.13,-6835.205,-14966.105
1317581.1528122933,-82525.68,-85392.336,-57878.83,-45411.664,-23482.422,-33336.55,-6839.2334,-14971.191
1317581.156812288,-82517.78,-85384.4,-57871.016,-45383.18,-23476.074,-33323.812,-6840.6577,-14968.832
1317581.1608122832,-82512.49,-85377.98,-57872.97,-45379.152,-23477.865,-33320.56,-6842.5293,-14976.156
1317581.1648122782,-82518.19,-85387.82,-57882.12,-45407.31,-23493.125,-33330.08,-6838.542,-14973.511
1317581.168812273,-82525.96,-85396.69,-57881.227,-45427.695,-23500.896,-33334.434,-6833.822,-14964.885
1317581.1728122681,-82520.39,-85390.26,-57874.594,-45412.395,-23493.572,-33328.043,-6835.653,-14967.204
1317581.176812263,-82513.43,-85381.59,-57874.637,-45386.92,-23484.783,-33320.355,-6839.315,-14973.796
1317581.180812258,-82512.05,-85378.13,-57877.93,-45383.832,-23487.916,-33318.848,-6836.5073,-14967.611
1317581.184812253,-82516.03,-85384.56,-57881.227,-45411.582,-23496.746,-33329.918,-6830.8105,-14960.083
1317581.188812248,-82520.63,-85393.4,-57880.984,-45430.46,-23497.6,-33336.996,-6831.7466,-14958.008
1317581.192812243,-82518.27,-85388.59,-57879.19,-45415.406,-23487.713,-33331.34,-6836.711,-14961.101
1317581.1968122378,-82508.18,-85373.7,-57872.113,-45387.37,-23484.213,-33318.93,-6842.977,-14965.292
1317581.200812233,-82509.445,-85370.94,-57875.855,-45388.387,-23491.252,-33319.62,-6845.581,-14965.658
1317581.204812228,-82513.47,-85377.484,-57879.438,-45418.785,-23498.984,-33332.926,-6840.78,-14961.426
1317581.2088122228,-82517.984,-85386.516,-57878.5,-45435.547,-23501.75,-33336.67,-6834.5947,-14952.434
1317581.212812218,-82516.85,-85386.805,-57871.42,-45419.637,-23495.729,-33329.348,-6836.141,-14956.503
1317581.2168122127,-82513.1,-85379.6,-57871.664,-45391.36,-23489.38,-33321.82,-6842.285,-14969.564
1317581.2208122078,-82509.32,-85375.33,-57879.477,-45390.91,-23490.479,-33321.37,-6841.716,-14973.552
1317581.2248122026,-82513.836,-85382.41,-57888.227,-45422.812,-23499.756,-33331.992,-6836.3853,-14969.035
1317581.2288121977,-82519.58,-85391.805,-57887.414,-45437.176,-23498.984,-33336.305,-6834.4727,-14970.175
1317581.2328121928,-82515.914,-85387.62,-57880.293,-45418.945,-23489.666,-33330.77,-6840.454,-14974.487
1317581.2368121876,-82507.2,-85376.914,-57873.375,-45390.79,-23487.957,-33323.69,-6845.9067,-14977.051
1317581.2408121827,-82509.12,-85375.9,-57876.914,-45389.363,-23490.357,-33322.227,-6844.5234,-14968.1
1317581.2448121775,-82517.78,-85381.31,-57883.586,-45418.99,-23497.926,-33332.6,-6842.163,-14969.523
1317581.2488121726,-82524.945,-85392.09,-57884.156,-45438.926,-23503.541,-33339.03,-6840.576,-14976.685
1317581.2528121676,-82523.07,-85393.96,-57879.273,-45426.312,-23496.826,-33333.293,-6843.628,-14978.882
1317581.2568121625,-82513.92,-85382.98,-57875.613,-45400.066,-23489.34,-33323.69,-6848.2666,-14982.341
1317581.2608121575,-82511.15,-85378.7,-57878.176,-45394.98,-23492.393,-33322.023,-6847.168,-14978.638
1317581.2648121524,-82515.42,-85385.375,-57884.605,-45421.062,-23501.465,-33330.812,-6838.8267,-14968.384
1317581.2688121474,-82518.19,-85388.8,-57884.277,-45437.094,-23499.432,-33335.98,-6834.7983,-14962.28
1317581.2728121423,-82516.44,-85384.93,-57876.184,-45418.824,-23490.031,-33327.11,-6836.426,-14961.874
1317581.2768121373,-82507.086,-85373.984,-57871.83,-45387.94,-23479.941,-33316.12,-6840.78,-14970.459
1317581.2808121324,-82503.664,-85370.37,-57871.664,-45386.395,-23485.271,-33316.246,-6842.6924,-14970.744
1317581.2848121272,-82514.24,-85382.57,-57879.76,-45419.72,-23500.326,-33329.1,-6841.39,-14969.36
1317581.2888121223,-82523.195,-85392.3,-57883.586,-45438.07,-23502.89,-33334.027,-6840.6577,-14968.954
1317581.2928121171,-82522.625,-85386.6,-57879.477,-45420.86,-23494.914,-33325.766,-6843.3027,-14976.685
1317581.2968121122,-82517.7,-85382.86,-57877.605,-45394.53,-23488.81,-33314.82,-6846.6797,-14981.364
1317581.3008121073,-82515.016,-85381.92,-57880.008,-45391.36,-23495.646,-33312.137,-6843.384,-14975.83
1317581.304812102,-82519.33,-85386.15,-57887.535,-45420.777,-23504.314,-33321.207,-6835.5713,-14969.198
1317581.3088120972,-82522.26,-85391.93,-57886.027,-45439.293,-23503.297,-33327.11,-6833.74,-14970.785
1317581.312812092,-82519.29,-85389.445,-57880.453,-45422.527,-23495.117,-33322.67,-6836.589,-14972.006
1317581.316812087,-82513.02,-85380.25,-57877.523,-45394.41,-23488.486,-33310.63,-6840.251,-14970.5
1317581.320812082,-82511.88,-85378.5,-57882.324,-45393.027,-23491.21,-33308.676,-6842.2446,-14978.516
1317581.324812077,-82516.97,-85388.02,-57890.91,-45423.75,-23498.617,-33320.19,-6839.1523,-14975.912
1317581.328812072,-82521.445,-85395.19,-57892.945,-45443.77,-23500.123,-33328.613,-6842.3667,-14986.247
1317581.332812067,-82522.99,-85392.46,-57889.49,-45427.777,-23497.031,-33324.3,-6850.2197,-14993.368
1317581.336812062,-82517.21,-85385.42,-57886.11,-45399.742,-23492.717,-33316.082,-6853.882,-14990.601
1317581.3408120568,-82514.125,-85385.83,-57888.88,-45397.176,-23493.531,-33313.64,-6849.8535,-14986.125
1317581.3448120519,-82517.54,-85392.625,-57892.906,-45425.54,-23499.064,-33322.227,-6843.3027,-14979.696
1317581.348812047,-82525.31,-85400.8,-57893.68,-45443.688,-23502.402,-33326.906,-6840.0474,-14974.487
1317581.3528120418,-82520.555,-85397.586,-57887.414,-45422.65,-23495.322,-33318.156,-6841.919,-14976.645
1317581.3568120368,-82513.19,-85383.75,-57881.758,-45393.72,-23489.87,-33309.613,-6847.8193,-14985.026
1317581.3608120317,-82511.48,-85377.04,-57886.598,-45393.395,-23492.025,-33308.555,-6848.5107,-14986.816
1317581.3648120267,-82519.086,-85386.72,-57896.28,-45426.312,-23502.361,-33317.914,-6842.489,-14978.149
1317581.3688120216,-82530.93,-85400.234,-57899.336,-45448.855,-23508.953,-33324.91,-6843.221,-14979.126
1317581.3728120166,-82532.516,-85399.21,-57896.73,-45433.027,-23501.1,-33320.477,-6852.58,-14991.415
1317581.3768120117,-82527.71,-85390.875,-57896.69,-45404.746,-23498.617,-33309.53,-6861.7354,-15002.849
1317581.3808120065,-82527.06,-85390.47,-57895.996,-45402.547,-23502.035,-33307.617,-6859.619,-14994.141
1317581.3848120016,-82533.33,-85397.99,-57899.133,-45429.324,-23512.492,-33319.05,-6852.458,-14987.143
1317581.3888119964,-82535.36,-85403.81,-57899.62,-45446.453,-23510.498,-33324.832,-6847.087,-14982.138
1317581.3928119915,-82528.37,-85397.38,-57891.523,-45429.934,-23501.832,-33317.75,-6848.796,-14984.823
1317581.3968119866,-82521.28,-85389.445,-57883.87,-45402.67,-23498.576,-33305.22,-6849.8945,-14984.416
1317581.4008119814,-82518.44,-85387.62,-57886.598,-45399.945,-23503.053,-33306.316,-6850.464,-14983.806
1317581.4048119765,-82520.23,-85391.52,-57892.824,-45427.53,-23511.516,-33316.49,-6846.273,-14978.638
1317581.4088119713,-82524.664,-85393.516,-57895.55,-45445.965,-23507.61,-33319.99,-6842.0005,-14972.9
1317581.4128119664,-82525.35,-85389.57,-57892.54,-45431.48,-23498.252,-33314.008,-6843.7095,-14973.715
1317581.4168119612,-82519.734,-85381.8,-57888.023,-45402.59,-23494.14,-33301.555,-6847.0054,-14979.004
1317581.4208119563,-82519.66,-85381.02,-57889.855,-45398.6,-23497.234,-33298.707,-6847.168,-14982.788
1317581.4248119514,-82524.46,-85388.67,-57895.348,-45425.254,-23505.656,-33308.88,-6840.8613,-14974.854
1317581.4288119462,-82527.914,-85396.28,-57897.098,-45448.04,-23505.941,-33316.53,-6838.908,-14972.209
1317581.4328119413,-82530.03,-85397.18,-57893.11,-45436.16,-23500.938,-33311.85,-6844.0757,-14976.034
1317581.436811936,-82521.81,-85386.48,-57887.086,-45401.855,-23496.867,-33301.066,-6851.4404,-14984.904
1317581.4408119312,-82517.46,-85382.24,-57887.82,-45396.73,-23496.055,-33297.406,-6848.796,-14981.242
1317581.4448119262,-82522.26,-85388.72,-57893.35,-45426.92,-23501.709,-33306.723,-6839.966,-14971.884
1317581.448811921,-82522.664,-85394.58,-57893.92,-45446.656,-23500.938,-33311.727,-6838.786,-14971.68
1317581.4528119161,-82523.766,-85393.44,-57892.863,-45432.496,-23495.443,-33309.125,-6845.744,-14978.72
1317581.456811911,-82521.85,-85390.34,-57888.184,-45404.543,-23490.805,-33300.58,-6852.0103,-14984.782
1317581.460811906,-82522.79,-85391.08,-57891.113,-45401.246,-23496.46,-33299.113,-6851.278,-14978.271
1317581.464811901,-82527.75,-85396.08,-57896.973,-45427.41,-23507.53,-33307.457,-6844.9707,-14973.552
1317581.468811896,-82535.12,-85401.29,-57897.625,-45445.355,-23511.475,-33312.258,-6841.5527,-14976.156
1317581.472811891,-82534.836,-85398.97,-57891.4,-45430.664,-23506.592,-33305.094,-6844.442,-14982.26
1317581.4768118858,-82526.695,-85393.15,-57886.027,-45405.684,-23502.97,-33295.574,-6848.552,-14987.793
1317581.480811881,-82520.8,-85391.97,-57887.82,-45402.793,-23506.959,-33294.516,-6846.2324,-14986.694
1317581.4848118757,-82529.7,-85397.99,-57896.406,-45430.664,-23512.412,-33308.023,-6839.8438,-14979.777
1317581.4888118708,-82535.766,-85405.93,-57899.336,-45448.49,-23514.69,-33311.727,-6837.1177,-14973.877
1317581.4928118659,-82529.7,-85402.914,-57891.074,-45435.59,-23505.941,-33305.867,-6844.116,-14990.031
1317581.4968118607,-82524.91,-85395.06,-57888.715,-45409.953,-23497.682,-33297.324,-6850.1387,-15000.57
1317581.5008118558,-82524.375,-85389.33,-57894.695,-45405.477,-23499.432,-33295.656,-6849.935,-14993.042
1317581.5048118506,-82532.15,-85396.28,-57904.137,-45431.4,-23508.871,-33305.746,-6842.733,-14977.255
1317581.5088118457,-82541.75,-85406.86,-57906.82,-45451.418,-23513.225,-33308.96,-6836.019,-14966.391
1317581.5128118407,-82541.67,-85405.93,-57903.402,-45437.5,-23502.85,-33301.516,-6836.589,-14967.611
1317581.5168118356,-82536.3,-85396.164,-57898.97,-45408.773,-23493.816,-33294.883,-6844.442,-14978.923
1317581.5208118306,-82532.63,-85394.164,-57901.652,-45406.535,-23494.67,-33294.07,-6846.517,-14982.016
1317581.5248118255,-82533.734,-85399.984,-57906.17,-45433.676,-23503.906,-33303.1,-6840.454,-14977.295
1317581.5288118205,-82536.016,-85403.61,-57905.64,-45452.15,-23508.262,-33307.332,-6835.8154,-14974.243
1317581.5328118154,-82530.64,-85394.86,-57899.133,-45434.652,-23500.45,-33298.992,-6840.617,-14979.614
1317581.5368118105,-82521.61,-85382.445,-57892.54,-45404.46,-23492.393,-33290.082,-6847.9414,-14985.718
1317581.5408118055,-82519.29,-85381.88,-57894.98,-45403.363,-23496.787,-33291.016,-6850.464,-14988.2
1317581.5448118004,-82528.32,-85393.27,-57901.043,-45435.223,-23510.377,-33300.375,-6844.0757,-14977.865
1317581.5488117954,-82532.39,-85399.01,-57899.62,-45455.203,-23512.412,-33306.113,-6839.966,-14972.778
1317581.5528117903,-82533.41,-85396.08,-57894.25,-45437.582,-23505.453,-33300.09,-6843.0586,-14975.342
1317581.5568117853,-82526.33,-85386.44,-57887.13,-45406.332,-23497.07,-33288.004,-6847.3716,-14979.94
1317581.5608117804,-82521.65,-85380.375,-57889.69,-45404.137,-23498.21,-33285.156,-6844.6455,-14976.44
1317581.5648117752,-82529.3,-85388.67,-57897.098,-45436.363,-23507.61,-33296.266,-6840.21,-14975.586
1317581.5688117703,-82535.16,-85399.05,-57898.926,-45455.61,-23510.418,-33303.062,-6837.484,-14976.726
1317581.5728117651,-82533.164,-85400.92,-57892.824,-45441.12,-23501.22,-33298.504,-6842.326,-14982.178
1317581.5768117602,-82527.02,-85393.96,-57885.824,-45411.867,-23494.02,-33284.668,-6846.843,-14981.934
1317581.580811755,-82524.78,-85390.305,-57887.492,-45406.58,-23496.664,-33282.676,-6847.6562,-14982.788
1317581.58481175,-82531.05,-85394.984,-57896.445,-45436.65,-23507.936,-33295.047,-6847.453,-14983.969
1317581.5888117452,-82536.38,-85401.21,-57899.58,-45455.895,-23508.139,-33299.113,-6844.6045,-14979.818
1317581.59281174,-82533.9,-85402.1,-57896.406,-45437.42,-23502.441,-33290.445,-6846.1914,-14980.103
1317581.596811735,-82528.98,-85396.81,-57894.695,-45410.36,-23499.229,-33281.7,-6852.092,-14988.566
1317581.60081173,-82528.41,-85391.97,-57900.027,-45408.773,-23500.773,-33283.246,-6855.1436,-14991.293
1317581.604811725,-82534.75,-85401.57,-57908.0,-45439.168,-23508.668,-33296.062,-6849.8535,-14986.166
1317581.60881172,-82539.516,-85411.13,-57908.0,-45457.234,-23508.545,-33299.684,-6843.628,-14973.999
1317581.6128117149,-82535.41,-85408.734,-57900.188,-45438.4,-23499.635,-33289.88,-6843.7095,-14973.837
1317581.61681171,-82528.04,-85401.29,-57895.508,-45410.24,-23495.322,-33281.375,-6852.173,-14991.089
1317581.6208117048,-82527.836,-85400.555,-57897.098,-45406.375,-23500.244,-33281.21,-6855.998,-15004.15
1317581.6248116998,-82534.14,-85406.54,-57902.14,-45434.246,-23507.977,-33288.25,-6846.5576,-14992.758
1317581.6288116947,-82537.64,-85413.86,-57905.273,-45452.84,-23509.441,-33291.707,-6842.041,-14991.049
1317581.6328116897,-82537.6,-85414.92,-57899.742,-45438.273,-23502.89,-33286.62,-6846.639,-14991.943
1317581.6368116848,-82533.0,-85407.43,-57896.934,-45410.117,-23495.973,-33280.805,-6855.632,-14996.826
1317581.6408116797,-82529.664,-85402.63,-57898.48,-45407.758,-23498.008,-33281.617,-6858.2764,-14999.187
1317581.6448116747,-82538.01,-85410.445,-57905.926,-45435.75,-23508.057,-33293.01,-6854.533,-14995.769
1317581.6488116696,-82542.195,-85415.9,-57907.15,-45455.49,-23510.336,-33298.055,-6852.458,-14994.263
1317581.6528116646,-82539.96,-85414.59,-57904.094,-45442.223,-23501.791,-33292.684,-6859.294,-15001.669
1317581.6568116597,-82534.305,-85407.15,-57902.875,-45412.598,-23496.95,-33281.58,-6866.577,-15009.155
1317581.6608116545,-82534.016,-85407.555,-57905.4,-45408.043,-23502.768,-33279.582,-6867.961,-15010.62
1317581.6648116496,-82540.53,-85418.664,-57911.867,-45438.07,-23513.062,-33288.21,-6858.9683,-14999.472
1317581.6688116444,-82543.055,-85424.85,-57912.965,-45457.848,-23513.957,-33294.273,-6852.783,-14991.252
1317581.6728116395,-82537.07,-85416.875,-57906.82,-45441.367,-23503.703,-33286.867,-6852.214,-14997.641
1317581.6768116343,-82534.875,-85408.49,-57899.375,-45413.25,-23499.756,-33278.117,-6855.428,-15008.911
1317581.6808116294,-82533.2,-85403.85,-57901.492,-45411.094,-23503.012,-33277.14,-6854.248,-15003.988
1317581.6848116245,-82535.484,-85410.24,-57907.676,-45439.13,-23511.23,-33286.258,-6848.0635,-14992.961
1317581.6888116193,-82535.69,-85413.49,-57909.18,-45455.406,-23511.598,-33292.848,-6845.581,-14991.13
1317581.6928116144,-82535.69,-85412.84,-57906.332,-45443.44,-23506.389,-33289.676,-6848.796,-14989.584
1317581.6968116092,-82532.39,-85406.54,-57901.29,-45415.73,-23500.041,-33281.21,-6854.0854,-14992.839
1317581.7008116043,-82529.016,-85402.71,-57903.566,-45411.215,-23505.209,-33282.145,-6856.9336,-14996.013
1317581.7048115993,-82533.33,-85408.45,-57907.555,-45438.844,-23515.178,-33288.74,-6849.569,-14987.143
1317581.7088115942,-82535.16,-85410.65,-57905.355,-45453.453,-23508.383,-33290.895,-6843.425,-14981.486
1317581.7128115892,-82528.52,-85404.055,-57898.562,-45435.26,-23498.82,-33284.71,-6844.1978,-14985.434
1317581.716811584,-82518.72,-85393.92,-57890.91,-45407.594,-23490.723,-33274.82,-6845.4185,-14988.852
1317581.7208115791,-82512.86,-85390.67,-57894.574,-45403.934,-23492.92,-33272.46,-6842.8145,-14983.684
1317581.7248115742,-82520.02,-85400.234,-57901.086,-45435.14,-23505.006,-33282.633,-6837.5654,-14973.145
1317581.728811569,-82522.42,-85406.414,-57896.973,-45453.453,-23505.9,-33289.023,-6835.9375,-14970.378
1317581.732811564,-82520.8,-85402.34,-57892.99,-45438.273,-23500.53,-33281.94,-6841.6343,-14979.37
1317581.736811559,-82515.914,-85394.94,-57892.824,-45413.25,-23499.309,-33273.4,-6849.3247,-14987.956
1317581.740811554,-82513.266,-85390.55,-57895.715,-45408.164,-23503.053,-33272.176,-6849.7314,-14987.834
1317581.7448115489,-82519.125,-85395.06,-57901.004,-45438.68,-23511.76,-33280.07,-6838.7046,-14974.04
1317581.748811544,-82525.15,-85399.78,-57903.117,-45458.293,-23510.01,-33283.977,-6828.9795,-14960.775
1317581.752811539,-82522.625,-85398.4,-57896.203,-45442.465,-23505.82,-33279.055,-6830.7295,-14967.814
1317581.7568115338,-82512.25,-85387.01,-57887.332,-45414.676,-23500.408,-33269.41,-6837.85,-14979.208
1317581.760811529,-82506.67,-85378.7,-57884.36,-45408.0,-23501.262,-33265.953,-6835.9785,-14975.464
1317581.7648115237,-82510.7,-85383.016,-57888.145,-45434.33,-23507.162,-33274.414,-6827.759,-14968.547
1317581.7688115188,-82516.6,-85391.805,-57888.836,-45452.68,-23507.691,-33281.332,-6827.6367,-14971.64
1317581.7728115139,-82516.03,-85392.5,-57884.688,-45439.25,-23501.22,-33275.516,-6832.723,-14975.342
1317581.7768115087,-82513.8,-85387.25,-57883.87,-45414.39,-23495.525,-33266.4,-6838.257,-14980.307
1317581.7808115038,-82512.375,-85385.945,-57888.023,-45411.336,-23500.773,-33266.03,-6843.913,-14987.875
1317581.7848114986,-82517.055,-85391.28,-57897.016,-45442.18,-23508.383,-33278.605,-6841.4307,-14983.887
1317581.7888114937,-82522.586,-85398.69,-57895.062,-45459.72,-23508.586,-33282.555,-6837.85,-14977.417
1317581.7928114885,-82520.63,-85397.305,-57888.957,-45443.81,-23503.174,-33274.008,-6840.7393,-14976.522
1317581.7968114836,-82514.734,-85391.12,-57887.004,-45417.766,-23497.193,-33263.51,-6844.157,-14983.969
1317581.8008114786,-82508.79,-85387.21,-57886.19,-45411.215,-23500.408,-33263.47,-6844.4014,-14983.073
1317581.8048114735,-82511.48,-85390.875,-57890.383,-45437.99,-23509.074,-33271.12,-6834.188,-14971.558
1317581.8088114685,-82521.32,-85402.1,-57892.703,-45459.23,-23511.475,-33274.984,-6829.7935,-14973.145
1317581.8128114634,-82522.664,-85405.64,-57891.81,-45447.836,-23503.867,-33272.34,-6836.792,-14984.497
1317581.8168114584,-82517.984,-85397.99,-57888.348,-45420.168,-23498.455,-33264.203,-6845.703,-14992.351
1317581.8208114535,-82516.4,-85396.69,-57892.5,-45415.285,-23505.86,-33265.137,-6849.121,-14995.85
1317581.8248114483,-82522.87,-85401.05,-57898.03,-45442.14,-23516.195,-33273.355,-6840.7393,-14981.161
1317581.8288114434,-82528.484,-85406.66,-57900.23,-45459.066,-23517.904,-33278.035,-6836.7515,-14978.882
1317581.8328114382,-82527.39,-85405.6,-57895.59,-45446.29,-23511.11,-33272.867,-6840.088,-14986.044
1317581.8368114333,-82521.24,-85395.555,-57888.184,-45417.848,-23503.988,-33262.41,-6842.8955,-14989.909
1317581.8408114281,-82516.08,-85386.805,-57886.477,-45414.594,-23506.227,-33260.5,-6839.5186,-14986.613
1317581.8448114232,-82519.53,-85393.516,-57891.81,-45444.824,-23512.818,-33269.37,-6832.479,-14983.5205
1317581.8488114183,-82525.84,-85402.59,-57892.99,-45462.89,-23514.61,-33272.3,-6827.2705,-14977.702
1317581.8528114131,-82528.16,-85405.93,-57890.586,-45448.61,-23514.04,-33265.79,-6831.421,-14982.138
1317581.8568114082,-82518.68,-85393.72,-57885.742,-45417.562,-23502.727,-33254.11,-6840.454,-14995.158
1317581.860811403,-82514.53,-85389.0,-57889.082,-45412.64,-23502.402,-33253.824,-6841.512,-14993.856
1317581.864811398,-82520.914,-85396.65,-57894.94,-45441.652,-23513.225,-33267.336,-6834.4727,-14985.84
1317581.8688113932,-82527.02,-85403.484,-57896.973,-45462.363,-23519.736,-33275.23,-6831.5024,-14979.086
1317581.872811388,-82530.73,-85406.984,-57893.965,-45450.48,-23517.13,-33267.09,-6833.537,-14978.476
1317581.876811383,-82520.47,-85397.586,-57887.004,-45421.266,-23504.395,-33255.574,-6839.2334,-14989.299
1317581.880811378,-82514.61,-85391.6,-57888.43,-45415.082,-23505.615,-33255.25,-6841.797,-14993.042
1317581.884811373,-82524.375,-85401.62,-57896.04,-45442.71,-23513.998,-33266.684,-6836.792,-14987.753
1317581.8888113678,-82529.75,-85408.2,-57896.65,-45460.29,-23513.184,-33270.508,-6833.171,-14983.847
1317581.8928113629,-82524.945,-85406.984,-57892.66,-45444.258,-23505.78,-33263.918,-6836.1006,-14985.556
1317581.896811358,-82520.8,-85401.98,-57892.336,-45420.004,-23505.006,-33254.438,-6843.872,-14995.036
1317581.9008113528,-82520.43,-85399.87,-57896.16,-45415.61,-23510.498,-33253.824,-6843.221,-14996.623
1317581.9048113478,-82526.2,-85406.945,-57900.35,-45445.438,-23519.248,-33261.273,-6832.5195,-14986.125
1317581.9088113427,-82534.18,-85416.1,-57903.2,-45468.63,-23521.525,-33265.625,-6828.5728,-14980.144
1317581.9128113377,-82528.73,-85410.04,-57895.633,-45452.434,-23513.795,-33257.49,-6831.706,-14982.788
1317581.9168113328,-82517.74,-85398.07,-57887.332,-45420.574,-23510.662,-33243.57,-6835.002,-14985.107
1317581.9208113276,-82514.28,-85392.5,-57890.504,-45416.06,-23513.104,-33241.617,-6835.368,-14987.712
1317581.9248113227,-82519.734,-85399.87,-57896.566,-45443.074,-23519.898,-33253.582,-6828.4507,-14979.655
1317581.9288113175,-82529.18,-85413.29,-57898.645,-45466.594,-23525.31,-33262.492,-6824.0156,-14973.837
1317581.9328113126,-82530.52,-85413.91,-57895.062,-45455.977,-23515.992,-33257.324,-6829.59,-14986.45
1317581.9368113074,-82523.484,-85405.766,-57890.668,-45425.703,-23509.156,-33247.76,-6835.897,-14992.839
1317581.9408113025,-82522.95,-85403.484,-57892.58,-45420.9,-23515.016,-33248.13,-6834.961,-14990.316
1317581.9448112976,-82528.12,-85403.0,-57899.62,-45447.145,-23521.81,-33256.55,-6827.5146,-14980.429
1317581.9488112924,-82526.94,-85402.8,-57896.566,-45465.535,-23518.84,-33260.05,-6822.3877,-14973.837
1317581.9528112875,-82524.46,-85400.92,-57890.79,-45456.83,-23510.54,-33253.746,-6823.69,-14972.412
1317581.9568112823,-82521.24,-85396.445,-57886.68,-45429.16,-23506.836,-33244.06,-6828.532,-14972.982
1317581.9608112774,-82519.21,-85398.07,-57890.22,-45421.836,-23506.797,-33244.754,-6832.4385,-14980.144
1317581.9648112725,-82526.9,-85404.79,-57898.277,-45447.797,-23514.365,-33253.664,-6828.7354,-14977.295
1317581.9688112673,-82531.58,-85409.305,-57899.254,-45466.39,-23516.074,-33256.633,-6826.66,-14976.848
1317581.9728112624,-82526.414,-85403.2,-57889.65,-45447.754,-23511.027,-33250.53,-6830.241,-14982.666
1317581.9768112572,-82521.94,-85399.945,-57887.74,-45425.09,-23507.61,-33243.45,-6836.5073,-14987.875
1317581.9808112523,-82518.92,-85395.14,-57891.93,-45422.61,-23510.133,-33242.473,-6837.158,-14987.427
1317581.984811247,-82518.84,-85397.46,-57897.3,-45450.605,-23516.113,-33251.914,-6830.8105,-14981.853
1317581.9888112422,-82524.664,-85408.125,-57900.598,-45470.137,-23520.06,-33258.426,-6826.823,-14977.011
1317581.9928112372,-82525.19,-85409.55,-57897.22,-45453.086,-23514.771,-33253.867,-6829.9155,-14977.783
1317581.996811232,-82517.336,-85399.46,-57890.547,-45423.87,-23505.088,-33244.914,-6838.2163,-14989.99
1317582.0008112271,-82511.64,-85391.234,-57889.895,-45418.457,-23503.256,-33242.555,-6835.775,-14986.328
1317582.004811222,-82517.3,-85395.06,-57897.137,-45445.598,-23513.348,-33248.94,-6827.474,-14974.528
1317582.008811217,-82521.04,-85402.51,-57899.58,-45464.316,-23517.945,-33250.53,-6822.632,-14969.279
1317582.012811212,-82516.69,-85399.26,-57894.695,-45451.99,-23509.482,-33245.523,-6825.643,-14972.168
1317582.016811207,-82513.59,-85393.11,-57891.93,-45423.75,-23503.662,-33237.43,-6829.997,-14978.76
1317582.020811202,-82513.23,-85392.945,-57897.22,-45418.336,-23506.756,-33237.957,-6830.526,-14977.499
1317582.0248111968,-82521.164,-85405.44,-57906.74,-45446.086,-23516.887,-33248.375,-6827.4336,-14971.477
1317582.028811192,-82528.12,-85410.93,-57908.246,-45464.844,-23516.807,-33252.402,-6829.1016,-14980.266
1317582.032811187,-82528.37,-85407.48,-57901.086,-45451.62,-23509.033,-33246.094,-6831.421,-14980.429
1317582.0368111818,-82521.61,-85398.44,-57895.227,-45423.016,-23502.117,-33236.816,-6836.2227,-14985.2295
1317582.0408111769,-82518.48,-85396.41,-57897.504,-45419.76,-23506.023,-33237.1,-6835.449,-14980.673
1317582.0448111717,-82523.234,-85403.61,-57903.77,-45449.14,-23517.416,-33248.78,-6831.5024,-14979.411
1317582.0488111668,-82528.93,-85415.2,-57905.03,-45471.6,-23520.875,-33254.355,-6830.892,-14982.138
1317582.0528111616,-82529.34,-85412.56,-57899.66,-45455.324,-23513.633,-33246.34,-6835.531,-14989.584
1317582.0568111567,-82523.6,-85405.27,-57894.94,-45425.863,-23506.348,-33237.43,-6842.163,-14995.443
1317582.0608111518,-82518.555,-85401.695,-57894.86,-45419.965,-23506.836,-33236.86,-6844.5234,-14997.233
1317582.0648111466,-82525.88,-85407.76,-57903.117,-45449.383,-23515.26,-33247.355,-6837.9316,-14990.072
1317582.0688111417,-82531.82,-85415.125,-57901.53,-45468.63,-23518.027,-33251.465,-6834.066,-14987.753
1317582.0728111365,-82534.016,-85416.95,-57895.875,-45455.0,-23512.33,-33244.875,-6834.188,-14982.585
1317582.0768111316,-82530.03,-85411.95,-57892.133,-45428.754,-23507.08,-33233.848,-6836.3447,-14986.206
1317582.0808111266,-82523.16,-85403.0,-57895.47,-45427.168,-23508.342,-33230.43,-6839.071,-14992.106
1317582.0848111215,-82526.086,-85406.74,-57902.67,-45452.965,-23516.074,-33240.723,-6834.188,-14983.398
1317582.0888111165,-82530.68,-85411.38,-57902.63,-45469.035,-23517.13,-33246.34,-6833.0894,-14984.172
1317582.0928111114,-82524.17,-85406.375,-57896.973,-45456.586,-23509.889,-33241.824,-6838.0127,-14992.025
1317582.0968111064,-82519.164,-85401.164,-57893.598,-45428.914,-23505.738,-33232.504,-6842.082,-14996.135
1317582.1008111013,-82518.27,-85401.53,-57896.934,-45424.156,-23509.97,-33230.227,-6840.332,-14986.735
1317582.1048110963,-82525.15,-85409.63,-57904.297,-45455.406,-23516.074,-33241.742,-6831.299,-14972.006
1317582.1088110914,-82532.35,-85413.86,-57907.15,-45473.715,-23519.736,-33247.56,-6828.3286,-14969.442
1317582.1128110862,-82532.39,-85409.71,-57902.344,-45460.816,-23512.451,-33239.91,-6830.8105,-14972.697
1317582.1168110813,-82523.03,-85401.164,-57896.203,-45433.39,-23507.854,-33230.43,-6836.1006,-14980.795
1317582.1208110761,-82517.055,-85399.7,-57896.934,-45426.11,-23506.836,-33226.81,-6834.7983,-14980.185
1317582.1248110712,-82523.27,-85405.12,-57902.875,-45452.312,-23514.893,-33235.15,-6828.125,-14974.447
1317582.1288110663,-82529.38,-85411.664,-57904.83,-45472.09,-23517.822,-33240.64,-6822.5913,-14966.797
1317582.132811061,-82523.84,-85409.23,-57899.58,-45458.58,-23510.986,-33237.59,-6832.0312,-14978.598
1317582.1368110562,-82517.78,-85401.734,-57894.816,-45432.617,-23505.78,-33231.082,-6840.2915,-14989.99
