timestamp,Fp1,Fp2,F3,Fz,F4,Cz,Pz,Oz
1316872.6617030469,-50169.312,-85240.28,-38773.355,-21909.588,-9717.407,-28611.857,-18184.082,-21308.064
1316872.6657030417,-50172.934,-85250.41,-38773.562,-21918.05,-9717.855,-28609.295,-18180.176,-21301.678
1316872.6697030368,-50174.316,-85236.01,-38775.188,-21903.77,-9708.944,-28610.8,-18178.467,-21304.566
1316872.6737030318,-50171.51,-85216.31,-38776.043,-21883.262,-9699.789,-28611.492,-18174.805,-21300.049
1316872.6777030267,-50166.63,-85216.92,-38778.566,-21888.389,-9708.09,-28612.51,-18172.852,-21292.604
1316872.6817030217,-50175.496,-85245.65,-38780.805,-21914.47,-9722.372,-28611.084,-18169.8,-21288.656
1316872.6857030166,-50187.215,-85268.805,-38780.76,-21926.148,-9726.156,-28613.648,-18171.266,-21287.11
1316872.6897030117,-50187.01,-85250.81,-38777.63,-21906.7,-9715.21,-28616.334,-18176.148,-21287.883
1316872.6937030067,-50176.555,-85218.34,-38772.83,-21885.459,-9709.066,-28619.346,-18179.24,-21294.516
1316872.6977030016,-50177.695,-85221.36,-38776.125,-21892.66,-9720.5,-28620.688,-18181.275,-21292.807
1316872.7017029966,-50191.203,-85255.21,-38780.965,-21920.207,-9735.84,-28622.031,-18181.438,-21287.72
1316872.7057029915,-50196.492,-85267.83,-38780.805,-21928.184,-9734.335,-28622.6,-18184.002,-21290.406
1316872.7097029865,-50187.746,-85245.41,-38778.566,-21909.629,-9722.697,-28625.611,-18189.982,-21298.625
1316872.7137029814,-50180.38,-85222.66,-38777.957,-21890.951,-9716.635,-28631.43,-18197.998,-21308.35
1316872.7177029764,-50186.89,-85227.016,-38782.31,-21896.852,-9726.115,-28630.371,-18196.412,-21306.031
1316872.7217029715,-50194.176,-85251.51,-38787.477,-21923.3,-9738.892,-28628.988,-18190.594,-21296.346
1316872.7257029663,-50196.574,-85263.67,-38786.906,-21933.473,-9735.637,-28630.82,-18190.715,-21295.207
1316872.7297029614,-50190.555,-85246.625,-38780.965,-21916.79,-9723.755,-28633.668,-18194.012,-21298.666
1316872.7337029562,-50186.934,-85223.266,-38779.543,-21896.973,-9717.814,-28637.045,-18199.383,-21301.31
1316872.7377029513,-50188.887,-85227.91,-38787.234,-21904.785,-9726.889,-28638.754,-18200.318,-21304.402
1316872.7417029464,-50197.43,-85256.8,-38791.344,-21930.055,-9741.211,-28636.719,-18195.883,-21300.13
1316872.7457029412,-50203.41,-85273.27,-38789.47,-21938.314,-9740.479,-28636.15,-18195.027,-21301.148
1316872.7497029363,-50202.84,-85259.445,-38786.785,-21921.469,-9733.276,-28640.748,-18201.13,-21311.605
1316872.753702931,-50193.605,-85231.125,-38783.33,-21900.146,-9727.255,-28644.492,-18206.422,-21319.54
1316872.7577029262,-50194.54,-85234.83,-38787.11,-21904.867,-9737.59,-28645.672,-18204.998,-21314.576
1316872.7617029212,-50203.816,-85263.06,-38793.906,-21929.81,-9748.983,-28643.84,-18198.895,-21304.158
1316872.765702916,-50211.71,-85275.39,-38796.754,-21938.314,-9746.501,-28642.66,-18192.465,-21293.092
1316872.7697029111,-50210.652,-85264.65,-38793.336,-21923.057,-9738.607,-28643.352,-18190.674,-21287.598
1316872.773702906,-50199.098,-85238.484,-38788.74,-21903.117,-9732.463,-28643.88,-18189.982,-21284.871
1316872.777702901,-50204.348,-85243.21,-38796.957,-21910.97,-9743.571,-28642.742,-18189.738,-21283.57
1316872.7817028959,-50217.45,-85276.86,-38802.938,-21937.012,-9760.092,-28642.62,-18188.885,-21285.32
1316872.785702891,-50220.094,-85290.61,-38802.125,-21945.477,-9758.667,-28643.434,-18188.559,-21282.023
1316872.789702886,-50216.92,-85272.664,-38799.52,-21927.002,-9746.501,-28645.59,-18191.936,-21284.139
1316872.7937028809,-50211.305,-85244.8,-38800.945,-21906.78,-9738.322,-28649.537,-18200.766,-21294.475
1316872.797702876,-50211.14,-85240.766,-38802.37,-21911.906,-9747.6,-28650.473,-18200.725,-21289.633
1316872.8017028708,-50220.867,-85267.984,-38802.734,-21936.28,-9760.824,-28648.723,-18197.186,-21282.186
1316872.8057028658,-50229.574,-85283.86,-38802.125,-21945.557,-9762.167,-28649.62,-18198.527,-21281.25
1316872.809702861,-50223.633,-85265.586,-38794.395,-21926.514,-9752.727,-28654.664,-18205.078,-21288.209
1316872.8137028557,-50220.543,-85242.68,-38794.15,-21908.0,-9745.361,-28658.977,-18210.49,-21295.41
1316872.8177028508,-50226.645,-85247.52,-38802.938,-21913.291,-9751.709,-28658.123,-18207.275,-21290.162
1316872.8217028456,-50231.0,-85272.914,-38806.64,-21937.867,-9761.557,-28655.07,-18201.62,-21279.744
1316872.8257028407,-50230.797,-85282.27,-38802.9,-21944.215,-9757.935,-28655.234,-18198.854,-21270.428
1316872.8297028355,-50230.105,-85267.01,-38800.906,-21926.637,-9749.716,-28657.838,-18204.184,-21272.258
1316872.8337028306,-50227.46,-85242.555,-38800.66,-21903.973,-9743.693,-28659.873,-18211.508,-21280.03
1316872.8377028257,-50228.64,-85238.53,-38806.316,-21909.262,-9749.878,-28660.32,-18215.252,-21287.03
1316872.8417028205,-50240.562,-85267.09,-38813.723,-21936.28,-9763.144,-28659.506,-18217.0,-21293.824
1316872.8457028156,-50245.77,-85287.516,-38811.727,-21945.842,-9763.672,-28660.197,-18218.832,-21299.684
1316872.8497028104,-50236.777,-85274.01,-38805.992,-21927.207,-9756.104,-28660.117,-18219.441,-21305.379
1316872.8537028055,-50231.49,-85249.11,-38805.79,-21907.227,-9752.157,-28659.262,-18218.832,-21311.117
1316872.8577028005,-50235.312,-85248.05,-38812.01,-21915.0,-9753.866,-28658.652,-18216.838,-21312.908
1316872.8617027954,-50244.062,-85272.75,-38816.734,-21940.146,-9762.085,-28657.594,-18213.867,-21309.246
1316872.8657027904,-50247.152,-85283.57,-38810.67,-21946.86,-9761.23,-28657.47,-18212.646,-21304.89
1316872.8697027853,-50240.03,-85266.69,-38801.637,-21925.822,-9754.477,-28658.57,-18213.543,-21304.24
1316872.8737027803,-50235.68,-85249.92,-38797.49,-21906.7,-9750.692,-28659.75,-18214.355,-21302.043
1316872.8777027752,-50236.695,-85255.17,-38802.574,-21914.307,-9756.43,-28659.424,-18211.549,-21291.79
1316872.8817027702,-50246.094,-85280.11,-38806.64,-21941.123,-9768.148,-28657.92,-18205.934,-21278.932
1316872.8857027653,-50251.953,-85293.055,-38802.37,-21950.4,-9768.026,-28655.885,-18202.963,-21271.363
1316872.8897027601,-50246.055,-85275.84,-38796.1,-21933.146,-9753.866,-28657.309,-18205.12,-21269.002
1316872.8937027552,-50235.68,-85250.61,-38794.477,-21910.28,-9743.9375,-28660.564,-18209.676,-21267.375
1316872.89770275,-50230.55,-85245.85,-38799.93,-21913.941,-9750.448,-28663.78,-18213.99,-21265.707
1316872.9017027451,-50235.516,-85267.13,-38803.387,-21937.217,-9757.772,-28660.156,-18211.508,-21257.0
1316872.9057027402,-50240.926,-85279.87,-38803.754,-21944.785,-9757.8125,-28659.424,-18211.223,-21253.377
1316872.909702735,-50236.656,-85266.766,-38797.85,-21925.62,-9747.274,-28659.22,-18210.652,-21255.697
1316872.91370273,-50233.113,-85249.19,-38798.22,-21906.414,-9741.089,-28661.012,-18211.834,-21258.83
1316872.917702725,-50235.68,-85251.43,-38805.137,-21913.535,-9750.57,-28658.896,-18208.172,-21257.04
1316872.92170272,-50243.734,-85277.75,-38811.688,-21940.023,-9766.398,-28654.217,-18201.54,-21252.035
1316872.9257027148,-50246.016,-85292.484,-38807.984,-21949.707,-9765.788,-28653.117,-18198.283,-21251.506
1316872.92970271,-50241.05,-85277.266,-38802.45,-21931.113,-9754.558,-28655.07,-18200.154,-21256.47
1316872.933702705,-50237.227,-85258.914,-38802.938,-21912.639,-9747.681,-28656.25,-18200.725,-21261.842
1316872.9377026998,-50239.016,-85263.23,-38809.0,-21919.434,-9754.069,-28655.355,-18199.219,-21261.11
1316872.9417026949,-50253.01,-85295.53,-38816.855,-21948.527,-9768.921,-28652.467,-18193.523,-21257.977
1316872.9457026897,-50259.44,-85312.5,-38814.58,-21959.88,-9771.2,-28650.229,-18189.006,-21256.389
1316872.9497026848,-50252.117,-85292.6,-38808.23,-21942.018,-9763.55,-28650.188,-18189.941,-21257.121
1316872.9537026798,-50244.426,-85265.71,-38807.13,-21921.592,-9756.877,-28650.596,-18191.365,-21259.318
1316872.9577026747,-50246.016,-85269.86,-38811.688,-21926.148,-9760.58,-28649.049,-18189.738,-21256.47
1316872.9617026697,-50255.86,-85294.31,-38818.32,-21949.951,-9770.671,-28645.305,-18183.635,-21248.982
1316872.9657026646,-50263.145,-85311.08,-38817.14,-21961.996,-9773.112,-28644.816,-18182.252,-21244.629
1316872.9697026596,-50255.414,-85299.234,-38810.344,-21946.006,-9761.679,-28645.713,-18183.146,-21242.066
1316872.9737026545,-50240.48,-85270.43,-38805.543,-21925.09,-9750.937,-28647.217,-18183.146,-21236.451
1316872.9777026495,-50237.145,-85264.04,-38808.15,-21926.719,-9753.988,-28644.166,-18176.434,-21221.924
1316872.9817026446,-50246.91,-85291.1,-38812.95,-21949.383,-9762.411,-28642.701,-18173.543,-21214.234
1316872.9857026394,-50248.09,-85307.91,-38806.926,-21957.684,-9761.149,-28641.602,-18175.496,-21213.135
1316872.9897026345,-50239.707,-85296.875,-38802.29,-21941.977,-9750.773,-28644.492,-18183.025,-21220.947
1316872.9937026293,-50232.137,-85267.375,-38802.45,-21920.451,-9742.351,-28648.805,-18190.797,-21231.975
1316872.9977026244,-50232.547,-85262.33,-38807.17,-21922.16,-9748.82,-28647.91,-18191.0,-21242.025
1316873.0017026195,-50241.945,-85292.89,-38812.34,-21947.348,-9765.788,-28645.916,-18189.006,-21240.234
1316873.0057026143,-50244.387,-85306.32,-38809.9,-21959.678,-9766.195,-28645.02,-18190.838,-21240.275
1316873.0097026094,-50240.645,-85289.39,-38808.15,-21941.814,-9754.883,-28646.648,-18194.865,-21244.385
1316873.0137026042,-50235.76,-85269.25,-38808.023,-21923.504,-9749.35,-28649.984,-18201.58,-21252.97
1316873.0177025993,-50237.062,-85271.32,-38813.76,-21929.2,-9756.918,-28650.473,-18201.295,-21250.041
1316873.0217025944,-50248.008,-85297.445,-38818.32,-21953.004,-9767.294,-28648.602,-18194.012,-21240.887
1316873.0257025892,-50256.227,-85314.01,-38816.49,-21961.223,-9766.439,-28647.746,-18190.389,-21233.725
1316873.0297025843,-50252.24,-85294.15,-38811.32,-21942.668,-9755.453,-28650.555,-18192.586,-21238.445
1316873.033702579,-50246.016,-85272.664,-38810.02,-21923.26,-9748.088,-28653.85,-18196.656,-21243.164
1316873.0377025742,-50247.48,-85273.07,-38815.188,-21928.996,-9758.871,-28653.646,-18196.168,-21241.578
1316873.041702569,-50261.273,-85302.984,-38820.477,-21956.016,-9775.1875,-28649.293,-18188.152,-21230.957
1316873.045702564,-50270.59,-85317.47,-38819.336,-21966.432,-9774.17,-28647.096,-18184.285,-21225.22
1316873.0497025591,-50263.31,-85297.125,-38813.844,-21947.715,-9761.841,-28649.781,-18188.07,-21227.703
1316873.053702554,-50248.902,-85270.63,-38806.97,-21926.596,-9754.883,-28654.338,-18192.994,-21229.777
1316873.057702549,-50243.004,-85264.445,-38810.387,-21930.584,-9758.586,-28658.082,-18195.436,-21228.639
1316873.0617025439,-50251.996,-85289.06,-38815.555,-21953.695,-9767.944,-28655.355,-18190.877,-21217.977
1316873.065702539,-50259.688,-85307.945,-38815.066,-21964.967,-9770.793,-28653.605,-18188.111,-21212.729
1316873.069702534,-50256.473,-85290.29,-38808.023,-21946.453,-9760.295,-28657.188,-18191.814,-21216.635
1316873.0737025288,-50253.746,-85268.72,-38806.64,-21925.822,-9754.843,-28660.076,-18192.912,-21217.285
1316873.077702524,-50255.496,-85272.09,-38808.84,-21931.396,-9764.079,-28659.018,-18192.059,-21215.658
1316873.0817025187,-50264.895,-85299.12,-38811.484,-21957.684,-9777.182,-28658.203,-18190.186,-21211.873
1316873.0857025138,-50274.414,-85317.18,-38813.273,-21967.652,-9777.466,-28660.523,-18191.936,-21212.2
1316873.0897025086,-50274.414,-85306.69,-38812.055,-21951.254,-9767.456,-28664.104,-18196.615,-21218.1
1316873.0937025037,-50262.207,-85282.27,-38808.15,-21929.12,-9758.871,-28666.748,-18200.318,-21221.844
1316873.0977024988,-50256.31,-85277.14,-38809.043,-21931.64,-9767.7,-28667.969,-18199.383,-21218.832
1316873.1017024936,-50266.93,-85300.54,-38816.406,-21958.334,-9781.169,-28668.742,-18196.9,-21214.07
1316873.1057024887,-50275.72,-85314.13,-38817.832,-21968.75,-9782.227,-28669.271,-18198.324,-21215.984
1316873.1097024835,-50276.57,-85304.734,-38818.2,-21955.648,-9776.164,-28670.898,-18202.271,-21223.47
1316873.1137024786,-50270.633,-85283.86,-38818.562,-21936.89,-9771.973,-28673.951,-18204.793,-21225.424
1316873.1177024737,-50273.4,-85287.16,-38822.51,-21944.621,-9779.948,-28673.016,-18204.102,-21223.797
1316873.1217024685,-50285.117,-85318.24,-38827.637,-21969.523,-9795.329,-28673.057,-18201.701,-21222.25
1316873.1257024636,-50288.656,-85333.46,-38827.72,-21980.918,-9796.835,-28674.398,-18201.295,-21223.592
1316873.1297024584,-50279.582,-85314.58,-38823.082,-21964.764,-9784.343,-28677.002,-18204.549,-21229.086
1316873.1337024535,-50274.21,-85290.33,-38823.934,-21941.691,-9779.907,-28681.396,-18210.693,-21236.248
1316873.1377024483,-50279.746,-85297.28,-38830.484,-21947.145,-9790.8125,-28684.57,-18211.223,-21236.775
1316873.1417024434,-50292.89,-85329.63,-38836.59,-21971.72,-9807.211,-28683.066,-18208.455,-21230.104
1316873.1457024384,-50295.695,-85347.66,-38833.7,-21981.568,-9808.1875,-28682.334,-18206.666,-21224.041
1316873.1497024333,-50286.133,-85326.83,-38826.58,-21963.299,-9791.098,-28685.303,-18210.938,-21225.465
1316873.1537024283,-50278.445,-85296.266,-38824.3,-21943.32,-9782.553,-28688.193,-18213.908,-21226.686
1316873.1577024232,-50281.74,-85295.21,-38831.34,-21947.918,-9791.667,-28686.28,-18211.102,-21223.715
1316873.1617024182,-50297.527,-85326.01,-38842.082,-21976.807,-9806.274,-28684.123,-18207.846,-21217.896
1316873.1657024133,-50302.98,-85341.88,-38842.043,-21987.998,-9805.258,-28684.531,-18209.393,-21214.844
1316873.1697024081,-50291.63,-85328.82,-38836.02,-21969.158,-9793.905,-28686.523,-18215.414,-21218.506
1316873.1737024032,-50283.45,-85309.05,-38833.863,-21950.969,-9787.558,-28689.617,-18221.844,-21223.918
1316873.177702398,-50286.176,-85315.92,-38839.6,-21957.398,-9799.846,-28690.186,-18223.47,-21223.43
1316873.181702393,-50306.234,-85347.984,-38848.96,-21984.092,-9815.43,-28687.379,-18216.064,-21211.508
1316873.185702388,-50313.355,-85358.805,-38849.938,-21991.66,-9814.128,-28686.076,-18209.88,-21205.12
1316873.189702383,-50308.27,-85346.766,-38845.746,-21978.312,-9808.105,-28691.123,-18211.102,-21208.334
1316873.193702378,-50300.457,-85324.95,-38844.156,-21962.158,-9800.497,-28693.115,-18210.857,-21207.846
1316873.197702373,-50302.492,-85321.9,-38849.652,-21966.92,-9807.048,-28691.773,-18208.863,-21203.29
1316873.201702368,-50313.52,-85353.84,-38854.82,-21992.84,-9823.242,-28689.941,-18203.492,-21198.121
1316873.2057023628,-50319.664,-85375.41,-38855.145,-22002.85,-9829.997,-28690.553,-18203.004,-21200.643
1316873.2097023579,-50315.35,-85359.984,-38852.824,-21987.346,-9821.33,-28693.441,-18208.172,-21208.13
1316873.213702353,-50307.742,-85335.57,-38853.68,-21966.594,-9814.291,-28696.574,-18212.973,-21215.984
1316873.2177023478,-50311.89,-85340.01,-38861.734,-21973.35,-9824.219,-28696.045,-18214.682,-21220.744
1316873.2217023429,-50325.44,-85369.8,-38871.34,-21999.023,-9839.111,-28695.273,-18215.74,-21222.82
1316873.2257023377,-50336.914,-85393.64,-38873.535,-22010.865,-9842.978,-28694.174,-18217.53,-21227.58
1316873.2297023328,-50340.58,-85384.445,-38871.5,-21995.605,-9834.066,-28697.754,-18222.127,-21233.766
1316873.2337023276,-50328.41,-85350.79,-38868.45,-21974.326,-9818.237,-28702.637,-18229.207,-21236.451
1316873.2377023227,-50314.047,-85339.12,-38866.09,-21976.97,-9819.214,-28703.33,-18231.242,-21231.242
1316873.2417023177,-50320.926,-85367.59,-38869.266,-22002.605,-9830.7295,-28700.4,-18228.395,-21224.162
1316873.2457023126,-50335.33,-85395.305,-38871.22,-22016.928,-9834.88,-28700.195,-18227.703,-21220.012
1316873.2497023076,-50344.688,-85392.09,-38873.58,-22005.494,-9828.451,-28703.045,-18230.145,-21218.018
1316873.2537023025,-50345.83,-85375.57,-38876.75,-21988.607,-9825.399,-28706.951,-18233.277,-21217.408
1316873.2577022975,-50339.438,-85371.016,-38878.215,-21989.258,-9832.072,-28706.584,-18232.098,-21210.205
1316873.2617022926,-50347.453,-85396.89,-38881.51,-22011.8,-9842.57,-28703.37,-18226.604,-21203.572
1316873.2657022874,-50355.348,-85415.53,-38879.68,-22023.193,-9848.186,-28701.133,-18223.715,-21202.352
1316873.2697022825,-50358.44,-85409.38,-38878.094,-22009.562,-9843.832,-28702.434,-18227.05,-21209.799
1316873.2737022773,-50358.766,-85397.42,-38876.71,-21992.96,-9839.193,-28703.98,-18227.621,-21210.37
1316873.2777022724,-50358.035,-85398.32,-38879.355,-21998.252,-9845.947,-28703.898,-18224.773,-21205.525
1316873.2817022672,-50378.094,-85435.266,-38886.965,-22025.799,-9862.305,-28701.58,-18219.361,-21198.812
1316873.2857022623,-50389.242,-85453.05,-38889.406,-22035.889,-9861.572,-28701.742,-18219.076,-21197.348
1316873.2897022574,-50384.48,-85435.305,-38887.004,-22020.63,-9850.424,-28706.504,-18223.877,-21202.271
1316873.2937022522,-50386.598,-85418.09,-38889.85,-22002.646,-9844.32,-28709.678,-18226.156,-21204.875
1316873.2977022473,-50392.375,-85421.06,-38896.688,-22005.371,-9850.952,-28708.781,-18223.104,-21201.336
1316873.301702242,-50405.6,-85454.555,-38904.215,-22031.373,-9866.781,-28708.781,-18222.738,-21202.23
1316873.3057022372,-50416.79,-85477.5,-38906.7,-22046.469,-9872.803,-28708.781,-18224.244,-21204.713
1316873.3097022322,-50423.504,-85471.766,-38908.53,-22035.117,-9867.065,-28710.572,-18227.459,-21213.135
1316873.313702227,-50421.184,-85451.58,-38905.4,-22016.236,-9860.2705,-28712.852,-18233.44,-21218.629
1316873.3177022221,-50414.88,-85444.945,-38903.973,-22018.31,-9867.595,-28713.99,-18235.148,-21217.244
1316873.321702217,-50429.85,-85474.94,-38909.668,-22043.824,-9881.267,-28711.752,-18232.586,-21212.566
1316873.325702212,-50441.895,-85497.16,-38910.93,-22055.705,-9881.999,-28710.41,-18230.754,-21206.543
1316873.3297022071,-50441.0,-85492.03,-38908.977,-22042.277,-9871.46,-28714.152,-18234.62,-21205.607
1316873.333702202,-50439.453,-85476.04,-38910.24,-22025.39,-9866.455,-28717.246,-18240.56,-21209.758
1316873.337702197,-50441.203,-85477.26,-38912.438,-22027.752,-9873.373,-28717.611,-18239.91,-21205.12
1316873.3417021919,-50452.11,-85502.41,-38916.586,-22050.578,-9885.702,-28715.984,-18235.88,-21194.947
1316873.345702187,-50462.28,-85520.14,-38916.87,-22061.688,-9890.341,-28715.984,-18234.213,-21188.518
1316873.3497021818,-50459.92,-85506.23,-38912.152,-22045.695,-9881.836,-28718.426,-18235.23,-21185.75
1316873.3537021768,-50456.016,-85486.01,-38910.688,-22027.873,-9874.634,-28720.338,-18234.742,-21184.611
1316873.357702172,-50460.043,-85487.02,-38917.523,-22034.18,-9880.859,-28719.158,-18229.94,-21177.125
1316873.3617021667,-50468.426,-85514.0,-38924.97,-22057.049,-9893.718,-28717.734,-18223.592,-21169.271
1316873.3657021618,-50475.75,-85530.97,-38925.66,-22066.367,-9894.531,-28717.164,-18220.744,-21167.562
1316873.3697021566,-50472.984,-85514.9,-38921.754,-22050.254,-9884.604,-28720.988,-18223.715,-21173.178
1316873.3737021517,-50462.605,-85490.195,-38917.32,-22026.531,-9875.937,-28722.494,-18226.889,-21181.56
1316873.3777021468,-50465.66,-85492.11,-38918.824,-22031.129,-9885.376,-28722.047,-18228.436,-21184.367
1316873.3817021416,-50478.273,-85520.836,-38923.34,-22055.543,-9904.135,-28720.703,-18225.668,-21184.326
1316873.3857021367,-50485.434,-85541.79,-38920.25,-22066.447,-9907.1455,-28717.938,-18220.662,-21182.617
1316873.3897021315,-50485.434,-85531.5,-38915.977,-22052.451,-9898.356,-28718.182,-18221.844,-21185.914
1316873.3937021266,-50484.215,-85509.69,-38916.26,-22033.936,-9894.653,-28721.885,-18226.807,-21192.303
1316873.3977021214,-50486.004,-85505.74,-38922.934,-22035.482,-9901.571,-28724.041,-18228.516,-21196.9
1316873.4017021165,-50499.676,-85534.47,-38931.355,-22059.367,-9914.917,-28722.25,-18227.215,-21194.621
1316873.4057021115,-50508.79,-85554.164,-38933.758,-22070.11,-9917.48,-28721.191,-18229.33,-21197.266
1316873.4097021064,-50505.7,-85542.36,-38931.152,-22054.81,-9908.122,-28724.041,-18236.084,-21199.627
1316873.4137021014,-50502.89,-85520.47,-38931.152,-22036.621,-9899.862,-28728.598,-18241.62,-21201.01
1316873.4177020963,-50502.645,-85515.75,-38934.367,-22038.615,-9904.216,-28727.988,-18241.7,-21194.824
1316873.4217020913,-50509.766,-85540.53,-38937.625,-22059.775,-9915.854,-28727.092,-18238.934,-21184.205
1316873.4257020864,-50514.363,-85554.98,-38935.223,-22069.256,-9916.22,-28725.871,-18236.043,-21172.771
1316873.4297020813,-50510.133,-85541.625,-38930.055,-22056.031,-9906.128,-28727.662,-18236.166,-21167.236
1316873.4337020763,-50500.125,-85517.13,-38925.54,-22037.883,-9898.764,-28729.004,-18232.951,-21159.627
1316873.4377020712,-50498.457,-85513.8,-38927.734,-22039.55,-9902.1,-28728.191,-18228.395,-21155.07
1316873.4417020662,-50507.61,-85539.72,-38932.047,-22064.453,-9914.795,-28725.791,-18222.332,-21147.096
1316873.445702061,-50513.43,-85559.86,-38932.457,-22075.889,-9917.847,-28725.627,-18218.426,-21141.846
1316873.4497020561,-50510.742,-85548.79,-38927.98,-22060.059,-9910.563,-28727.295,-18217.693,-21144.043
1316873.4537020512,-50506.715,-85528.52,-38926.92,-22042.115,-9908.0,-28729.209,-18219.441,-21148.072
1316873.457702046,-50507.246,-85526.66,-38928.508,-22043.092,-9914.185,-28727.459,-18217.977,-21149.17
1316873.461702041,-50522.95,-85562.586,-38935.223,-22066.488,-9931.396,-28724.977,-18214.396,-21150.146
1316873.465702036,-50539.473,-85593.43,-38938.6,-22079.916,-9939.657,-28724.977,-18215.088,-21154.908
1316873.469702031,-50530.07,-85564.336,-38933.96,-22061.729,-9921.794,-28728.395,-18219.85,-21160.889
1316873.473702026,-50514.812,-85527.67,-38933.51,-22042.521,-9909.75,-28731.812,-18226.727,-21170.533
1316873.477702021,-50532.27,-85548.305,-38942.914,-22050.498,-9925.659,-28729.209,-18226.36,-21174.48
1316873.481702016,-50555.137,-85585.62,-38951.418,-22074.871,-9938.11,-28725.709,-18223.348,-21172.975
1316873.4857020108,-50562.703,-85602.74,-38951.05,-22083.74,-9937.46,-28724.447,-18224.447,-21175.293
1316873.4897020059,-50559.855,-85589.97,-38943.848,-22068.482,-9925.212,-28726.035,-18226.156,-21177.654
1316873.4937020007,-50554.688,-85566.41,-38941.043,-22048.3,-9916.26,-28729.168,-18228.11,-21176.434
1316873.4977019958,-50554.89,-85565.59,-38944.336,-22048.096,-9923.178,-28729.492,-18226.889,-21170.207
1316873.5017019908,-50566.855,-85592.41,-38948.203,-22071.494,-9939.413,-28727.05,-18222.494,-21164.389
1316873.5057019857,-50571.535,-85606.49,-38943.89,-22079.346,-9937.948,-28724.53,-18218.22,-21155.965
1316873.5097019807,-50566.773,-85592.98,-38938.883,-22064.535,-9925.375,-28725.139,-18219.28,-21151.082
1316873.5137019756,-50563.19,-85572.23,-38936.605,-22046.428,-9917.847,-28726.441,-18219.768,-21148.316
1316873.5177019706,-50565.676,-85572.96,-38940.88,-22048.422,-9927.612,-28726.035,-18217.0,-21144.166
1316873.5217019657,-50579.47,-85600.38,-38946.414,-22071.533,-9940.43,-28721.273,-18209.432,-21134.686
1316873.5257019605,-50587.85,-85619.19,-38945.395,-22084.107,-9945.883,-28718.791,-18203.451,-21128.094
1316873.5297019556,-50583.78,-85607.875,-38941.406,-22069.58,-9936.687,-28720.256,-18200.969,-21124.309
1316873.5337019505,-50578.168,-85586.19,-38937.418,-22046.836,-9926.514,-28724.041,-18201.213,-21124.797
1316873.5377019455,-50576.17,-85581.46,-38936.89,-22046.836,-9930.339,-28725.262,-18198.854,-21120.77
1316873.5417019404,-50584.395,-85607.18,-38941.406,-22067.139,-9943.522,-28723.594,-18196.004,-21117.39
1316873.5457019354,-50588.055,-85621.99,-38940.27,-22074.748,-9943.848,-28721.396,-18196.492,-21118.123
1316873.5497019305,-50583.17,-85607.71,-38933.23,-22058.146,-9932.902,-28723.35,-18199.91,-21123.658
1316873.5537019253,-50578.535,-85586.43,-38930.504,-22039.104,-9925.415,-28725.342,-18203.207,-21130.168
1316873.5577019204,-50576.785,-85584.92,-38932.047,-22042.115,-9930.095,-28724.326,-18204.875,-21131.959
1316873.5617019152,-50585.777,-85612.23,-38937.137,-22064.047,-9940.593,-28721.64,-18202.23,-21127.361
1316873.5657019103,-50597.7,-85631.35,-38938.844,-22073.854,-9941.528,-28721.03,-18201.863,-21127.156
1316873.5697019054,-50600.06,-85622.73,-38938.926,-22061.117,-9932.089,-28724.406,-18207.723,-21133.668
1316873.5737019002,-50600.953,-85606.53,-38936.402,-22041.992,-9926.514,-28723.594,-18210.652,-21138.143
1316873.5777018953,-50606.69,-85608.28,-38939.78,-22044.23,-9933.838,-28721.803,-18211.426,-21140.504
1316873.58170189,-50614.46,-85628.5,-38946.004,-22064.17,-9945.3125,-28719.32,-18206.787,-21137.777
1316873.5857018852,-50619.875,-85642.26,-38945.19,-22075.033,-9945.842,-28716.879,-18201.13,-21134.441
1316873.5897018802,-50615.277,-85631.15,-38936.605,-22059.043,-9937.094,-28715.781,-18199.748,-21132.936
1316873.593701875,-50605.55,-85607.625,-38932.58,-22040.203,-9929.606,-28716.676,-18199.219,-21127.768
1316873.5977018701,-50609.215,-85607.34,-38936.2,-22043.01,-9937.744,-28716.758,-18196.209,-21119.06
1316873.601701865,-50620.16,-85633.22,-38941.61,-22065.227,-9949.911,-28716.064,-18192.547,-21111.572
1316873.60570186,-50628.543,-85650.234,-38941.49,-22074.707,-9952.8,-28715.293,-18191.162,-21107.91
1316873.6097018549,-50630.574,-85645.96,-38940.51,-22063.64,-9947.592,-28717.408,-18192.22,-21109.13
1316873.61370185,-50629.64,-85632.695,-38938.64,-22046.795,-9942.099,-28719.523,-18192.871,-21109.66
1316873.617701845,-50629.926,-85631.266,-38941.285,-22047.812,-9948.161,-28718.426,-18187.908,-21103.598
1316873.6217018398,-50639.16,-85654.7,-38947.594,-22072.55,-9962.199,-28716.064,-18182.455,-21096.191
1316873.625701835,-50647.79,-85674.4,-38948.73,-22084.799,-9963.461,-28714.56,-18180.258,-21098.186
1316873.6297018297,-50644.574,-85662.766,-38943.156,-22070.557,-9952.841,-28716.635,-18183.146,-21102.133
1316873.6337018248,-50639.527,-85642.42,-38939.293,-22052.857,-9945.923,-28718.426,-18185.75,-21105.225
1316873.63770182,-50642.54,-85643.76,-38943.523,-22057.373,-9954.062,-28718.955,-18186.97,-21106.445
1316873.6417018147,-50651.41,-85671.266,-38949.42,-22078.818,-9968.384,-28719.443,-18187.297,-21106.854
1316873.6457018098,-50659.06,-85694.54,-38947.918,-22091.838,-9972.209,-28717.57,-18187.094,-21107.748
1316873.6497018046,-50657.637,-85687.79,-38942.79,-22079.713,-9963.989,-28718.426,-18189.982,-21113.12
1316873.6537017997,-50651.9,-85666.75,-38940.836,-22058.96,-9955.688,-28720.582,-18193.604,-21119.264
1316873.6577017945,-50652.793,-85661.09,-38945.152,-22058.025,-9961.467,-28722.25,-18196.574,-21123.291
1316873.6617017896,-50663.168,-85685.59,-38952.23,-22081.26,-9974.936,-28722.494,-18196.941,-21125.285
1316873.6657017847,-50671.797,-85705.125,-38954.793,-22090.7,-9976.481,-28722.332,-18197.389,-21126.465
1316873.6697017795,-50671.43,-85694.74,-38952.395,-22077.516,-9968.018,-28723.959,-18200.969,-21130.574
1316873.6737017746,-50665.45,-85670.25,-38949.465,-22060.426,-9960.124,-28726.115,-18202.963,-21130.453
1316873.6777017694,-50666.3,-85670.66,-38952.598,-22065.146,-9966.797,-28725.547,-18198.121,-21121.379
1316873.6817017645,-50677.656,-85699.18,-38958.414,-22088.746,-9982.382,-28722.453,-18192.627,-21110.719
1316873.6857017595,-50680.22,-85712.52,-38957.438,-22098.268,-9982.382,-28719.564,-18187.135,-21101.97
1316873.6897017544,-50677.246,-85699.47,-38953.168,-22081.992,-9970.744,-28720.947,-18189.006,-21101.441
1316873.6937017494,-50673.586,-85678.67,-38950.277,-22060.67,-9961.589,-28723.35,-18190.186,-21100.75
1316873.6977017443,-50674.52,-85677.164,-38954.227,-22061.076,-9968.1,-28722.617,-18186.523,-21092.896
1316873.7017017393,-50682.902,-85701.17,-38958.945,-22083.172,-9979.492,-28719.443,-18181.6,-21086.346
1316873.7057017342,-50691.285,-85719.73,-38959.92,-22094.85,-9980.021,-28718.467,-18180.623,-21086.14
1316873.7097017292,-50691.895,-85706.83,-38957.277,-22083.904,-9969.442,-28721.762,-18186.482,-21091.146
1316873.7137017243,-50686.89,-85681.84,-38954.145,-22063.152,-9960.856,-28723.797,-18191.65,-21097.941
1316873.7177017191,-50689.168,-85682.945,-38959.555,-22066.936,-9972.209,-28722.168,-18188.355,-21095.215
1316873.7217017142,-50699.465,-85709.48,-38964.6,-22092.326,-9987.631,-28720.867,-18183.797,-21089.479
1316873.725701709,-50703.33,-85727.336,-38962.688,-22101.768,-9984.823,-28717.693,-18179.607,-21087.361
1316873.729701704,-50699.22,-85717.25,-38959.27,-22086.834,-9975.017,-28719.361,-18181.031,-21090.861
1316873.7337016992,-50695.07,-85697.76,-38957.766,-22066.0,-9968.913,-28722.209,-18183.309,-21093.914
1316873.737701694,-50696.777,-85693.65,-38964.52,-22071.494,-9975.912,-28721.72,-18181.885,-21093.1
1316873.741701689,-50701.375,-85717.734,-38969.24,-22094.28,-9987.753,-28717.205,-18176.637,-21089.193
1316873.745701684,-50707.93,-85739.83,-38967.082,-22106.162,-9990.234,-28714.764,-18173.666,-21086.996
1316873.749701679,-50701.05,-85728.11,-38957.36,-22087.281,-9979.614,-28712.607,-18172.486,-21085.857
1316873.7537016738,-50691.652,-85701.375,-38951.703,-22066.488,-9970.825,-28715.293,-18175.09,-21088.746
1316873.757701669,-50695.883,-85700.32,-38956.746,-22071.574,-9977.621,-28717.693,-18177.043,-21091.268
1316873.761701664,-50705.566,-85725.14,-38961.754,-22094.932,-9989.665,-28715.049,-18175.172,-21091.064
1316873.7657016588,-50710.33,-85742.44,-38961.914,-22105.918,-9991.333,-28714.031,-18176.637,-21093.791
1316873.7697016539,-50713.3,-85739.51,-38961.426,-22091.025,-9983.887,-28716.514,-18180.867,-21101.033
1316873.7737016487,-50708.457,-85719.57,-38958.78,-22070.477,-9974.731,-28715.902,-18183.553,-21104.412
1316873.7777016438,-50700.605,-85709.76,-38958.008,-22070.068,-9977.295,-28713.623,-18181.723,-21100.83
1316873.7817016388,-50707.156,-85732.266,-38960.574,-22090.414,-9989.584,-28709.596,-18177.125,-21095.379
1316873.7857016337,-50712.85,-85750.98,-38960.938,-22104.045,-9992.554,-28708.74,-18174.805,-21091.676
1316873.7897016287,-50704.836,-85733.484,-38953.86,-22087.77,-9979.818,-28710.41,-18177.37,-21095.012
1316873.7937016236,-50694.746,-85706.38,-38948.773,-22067.262,-9970.459,-28711.914,-18181.355,-21098.674
1316873.7977016186,-50697.594,-85708.46,-38953.53,-22069.906,-9974.447,-28711.508,-18180.828,-21099.203
1316873.8017016135,-50704.348,-85731.734,-38959.676,-22093.018,-9986.41,-28707.357,-18177.572,-21095.012
1316873.8057016085,-50707.074,-85747.48,-38958.7,-22105.266,-9989.421,-28708.416,-18176.922,-21096.15
1316873.8097016036,-50700.44,-85733.28,-38949.668,-22086.67,-9976.645,-28708.945,-18177.125,-21097.78
1316873.8137015984,-50695.477,-85710.125,-38946.902,-22065.959,-9968.75,-28712.566,-18182.293,-21102.58
1316873.8177015935,-50696.535,-85707.56,-38950.523,-22067.912,-9976.481,-28712.77,-18182.658,-21103.598
1316873.8217015883,-50703.004,-85731.53,-38953.9,-22088.42,-9990.601,-28708.252,-18176.229,-21096.273
1316873.8257015834,-50707.97,-85746.625,-38953.656,-22100.668,-9991.455,-28706.016,-18174.275,-21092.244
1316873.8297015785,-50704.918,-85735.234,-38949.137,-22087.484,-9979.452,-28707.805,-18178.875,-21098.268
1316873.8337015733,-50697.918,-85709.31,-38944.38,-22067.791,-9968.832,-28709.393,-18183.473,-21104.695
1316873.8377015684,-50695.438,-85704.555,-38947.184,-22068.809,-9972.575,-28708.375,-18182.293,-21103.68
1316873.8417015632,-50704.184,-85729.62,-38950.36,-22090.74,-9985.2705,-28703.29,-18173.666,-21093.385
1316873.8457015583,-50710.043,-85747.36,-38950.645,-22100.83,-9985.434,-28702.148,-18170.492,-21091.146
1316873.8497015534,-50700.32,-85727.625,-38944.336,-22081.91,-9970.215,-28702.19,-18172.81,-21093.426
1316873.8537015482,-50681.277,-85687.016,-38938.477,-22060.02,-9957.642,-28706.096,-18176.514,-21097.088
1316873.8577015433,-50678.223,-85681.89,-38941.977,-22060.467,-9962.158,-28706.707,-18177.043,-21096.518
1316873.861701538,-50693.848,-85714.56,-38948.406,-22083.375,-9974.325,-28702.148,-18170.574,-21089.764
1316873.8657015332,-50700.645,-85733.6,-38946.086,-22093.75,-9974.243,-28698.121,-18165.08,-21083.375
1316873.869701528,-50700.156,-85724.24,-38942.383,-22081.748,-9968.466,-28700.033,-18168.092,-21085.572
1316873.873701523,-50691.773,-85701.26,-38938.965,-22059.611,-9958.7,-28700.807,-18169.637,-21087.932
1316873.8777015181,-50688.316,-85694.22,-38940.594,-22056.316,-9960.409,-28700.928,-18167.521,-21084.148
1316873.881701513,-50697.39,-85717.82,-38946.332,-22077.312,-9972.453,-28697.592,-18163.818,-21081.137
1316873.885701508,-50703.168,-85732.18,-38944.5,-22088.664,-9971.965,-28694.336,-18160.238,-21076.904
1316873.8897015029,-50697.188,-85714.36,-38936.605,-22072.389,-9960.571,-28694.703,-18160.4,-21077.88
1316873.893701498,-50690.35,-85688.97,-38935.387,-22052.898,-9951.986,-28696.25,-18161.947,-21080.975
1316873.897701493,-50689.78,-85684.49,-38937.01,-22051.758,-9956.421,-28695.232,-18159.588,-21077.434
1316873.9017014878,-50696.94,-85705.2,-38938.273,-22072.592,-9968.14,-28691.488,-18154.46,-21065.227
1316873.905701483,-50703.086,-85720.91,-38936.77,-22082.154,-9968.832,-28686.076,-18151.408,-21058.39
1316873.9097014777,-50699.42,-85708.945,-38933.23,-22067.139,-9958.578,-28688.559,-18158.57,-21073.162
1316873.9137014728,-50688.113,-85678.836,-38927.574,-22043.092,-9945.272,-28689.535,-18161.053,-21078.94
1316873.9177014676,-50686.445,-85674.89,-38928.55,-22043.295,-9947.348,-28687.988,-18157.512,-21074.139
1316873.9217014627,-50694.05,-85699.22,-38932.414,-22063.477,-9959.473,-28685.508,-18150.27,-21063.518
1316873.9257014578,-50694.258,-85711.71,-38927.207,-22070.15,-9957.438,-28680.705,-18144.002,-21058.473
1316873.9297014526,-50690.35,-85699.51,-38919.273,-22053.184,-9946.94,-28679.77,-18141.072,-21055.299
1316873.9337014477,-50685.02,-85673.75,-38917.97,-22031.535,-9938.029,-28681.275,-18142.62,-21060.426
1316873.9377014425,-50682.54,-85664.67,-38920.125,-22031.414,-9944.621,-28681.885,-18143.066,-21064.494
1316873.9417014376,-50691.45,-85686.16,-38922.28,-22052.084,-9955.078,-28678.06,-18138.428,-21053.71
1316873.9457014326,-50694.664,-85700.08,-38921.266,-22061.523,-9955.282,-28675.578,-18135.01,-21052.328
1316873.9497014275,-50691.285,-85689.945,-38918.336,-22045.615,-9944.377,-28677.125,-18138.836,-21060.873
1316873.9537014225,-50683.676,-85664.06,-38914.105,-22022.666,-9933.31,-28676.434,-18140.545,-21062.826
1316873.9577014174,-50680.83,-85656.7,-38914.023,-22019.98,-9935.385,-28675.742,-18139.69,-21059.611
1316873.9617014125,-50689.13,-85678.59,-38918.62,-22039.55,-9947.429,-28672.975,-18136.354,-21054.932
1316873.9657014073,-50691.69,-85690.76,-38915.0,-22046.957,-9947.47,-28668.621,-18132.771,-21049.969
1316873.9697014024,-50684.855,-85674.08,-38905.6,-22029.338,-9935.425,-28667.686,-18131.43,-21047.566
1316873.9737013974,-50677.777,-85649.26,-38902.14,-22007.65,-9927.734,-28668.662,-18131.023,-21048.91
1316873.9777013923,-50674.645,-85644.78,-38904.137,-22005.006,-9931.723,-28667.48,-18130.78,-21048.38
1316873.9817013873,-50680.625,-85664.76,-38907.633,-22026.816,-9939.372,-28663.615,-18127.768,-21047.445
1316873.9857013822,-50686.77,-85680.18,-38905.07,-22036.215,-9940.39,-28661.094,-18126.1,-21046.55
1316873.9897013772,-50681.195,-85667.195,-38895.914,-22017.701,-9926.718,-28660.564,-18126.668,-21048.543
1316873.9937013723,-50673.016,-85643.76,-38890.098,-21994.834,-9918.254,-28660.93,-18127.523,-21049.113
1316873.9977013671,-50671.023,-85634.73,-38893.473,-21997.275,-9924.398,-28660.238,-18125.855,-21046.834
1316874.0017013622,-50681.355,-85658.086,-38899.09,-22020.225,-9935.995,-28657.35,-18121.094,-21041.707
1316874.005701357,-50685.184,-85674.28,-38893.395,-22027.588,-9936.157,-28653.564,-18118.531,-21040.283
1316874.009701352,-50679.16,-85658.33,-38886.56,-22009.562,-9922.7295,-28651.408,-18117.799,-21041.668
1316874.013701347,-50669.516,-85630.17,-38881.473,-21985.148,-9911.865,-28651.205,-18116.375,-21042.684
1316874.017701342,-50667.48,-85623.25,-38883.06,-21982.992,-9915.69,-28650.799,-18114.46,-21041.18
1316874.021701337,-50675.375,-85647.625,-38886.07,-22002.605,-9924.887,-28647.746,-18110.434,-21034.994
1316874.025701332,-50680.42,-85665.2,-38882.977,-22013.184,-9927.206,-28648.031,-18110.107,-21034.588
1316874.029701327,-50677.125,-85649.7,-38876.1,-21994.102,-9918.091,-28649.09,-18111.94,-21039.021
1316874.0337013218,-50670.86,-85627.445,-38872.438,-21970.012,-9909.79,-28649.902,-18113.037,-21039.021
1316874.0377013169,-50672.242,-85627.08,-38876.305,-21973.633,-9912.761,-28648.113,-18112.06,-21041.26
1316874.041701312,-50677.734,-85646.41,-38881.266,-21997.031,-9924.561,-28645.672,-18107.951,-21038.168
1316874.0457013068,-50681.6,-85663.82,-38879.68,-22006.145,-9924.805,-28643.31,-18105.469,-21031.658
1316874.0497013018,-50676.555,-85651.414,-38872.07,-21986.94,-9911.784,-28641.44,-18103.68,-21030.682
1316874.0537012967,-50667.074,-85623.984,-38867.88,-21963.99,-9901.408,-28642.701,-18104.818,-21031.982
1316874.0577012917,-50666.992,-85616.414,-38871.543,-21964.479,-9905.681,-28641.969,-18105.428,-21032.594
1316874.0617012866,-50676.598,-85638.8,-38876.1,-21986.328,-9917.888,-28638.916,-18100.506,-21026.49
1316874.0657012817,-50683.027,-85658.734,-38873.453,-21996.42,-9923.584,-28637.33,-18097.209,-21025.229
1316874.0697012767,-50678.793,-85645.35,-38869.63,-21980.55,-9913.981,-28639.527,-18099.244,-21029.826
1316874.0737012716,-50672.69,-85621.22,-38867.066,-21958.13,-9902.629,-28638.795,-18100.22,-21033.203
1316874.0777012666,-50676.637,-85618.29,-38870.117,-21957.684,-9906.25,-28636.312,-18100.018,-21031.535
1316874.0817012615,-50676.15,-85636.56,-38870.566,-21977.783,-9919.394,-28635.906,-18097.738,-21026.652
1316874.0857012565,-50669.92,-85644.29,-38865.562,-21986.736,-9915.854,-28635.01,-18097.453,-21025.879
1316874.0897012516,-50672.69,-85637.49,-38864.625,-21973.389,-9905.478,-28635.254,-18097.494,-21026.287
1316874.0937012464,-50670.332,-85614.46,-38862.957,-21953.207,-9897.136,-28635.174,-18096.232,-21026.49
1316874.0977012415,-50669.434,-85606.695,-38865.887,-21952.76,-9898.4375,-28633.994,-18094.117,-21022.217
1316874.1017012363,-50673.707,-85627.28,-38866.984,-21974.326,-9909.546,-28629.924,-18089.479,-21015.584
1316874.1057012314,-50675.008,-85644.66,-38863.812,-21986.533,-9912.15,-28627.686,-18088.258,-21017.213
1316874.1097012265,-50667.523,-85631.06,-38861.33,-21971.518,-9901.652,-28628.053,-18089.926,-21022.176
1316874.1137012213,-50663.21,-85607.266,-38859.66,-21949.219,-9892.294,-28630.82,-18093.426,-21025.35
1316874.1177012164,-50666.098,-85605.92,-38864.543,-21951.092,-9896.566,-28630.697,-18094.482,-21026.57
1316874.1217012112,-50672.566,-85629.97,-38868.367,-21971.232,-9907.593,-28626.953,-18089.844,-21019.125
1316874.1257012063,-50679.61,-85647.51,-38866.863,-21982.422,-9909.628,-28625.0,-18088.258,-21017.416
1316874.129701201,-50678.348,-85639.57,-38862.793,-21968.75,-9902.588,-28628.785,-18092.652,-21023.805
1316874.1337011962,-50671.43,-85613.69,-38860.477,-21948.61,-9894.735,-28630.86,-18096.762,-21027.791
1316874.1377011912,-50668.336,-85602.38,-38860.15,-21945.883,-9897.299,-28626.832,-18093.018,-21021.24
1316874.141701186,-50673.707,-85621.914,-38861.33,-21966.35,-9907.675,-28623.943,-18090.861,-21020.63
1316874.1457011811,-50680.42,-85638.39,-38859.5,-21975.18,-9909.14,-28621.908,-18088.055,-21017.213
1316874.149701176,-50674.24,-85624.35,-38851.688,-21957.684,-9897.502,-28620.361,-18087.2,-21017.01
1316874.153701171,-50664.918,-85597.29,-38846.926,-21937.95,-9889.12,-28620.078,-18085.37,-21014.771
1316874.157701166,-50670.207,-85598.19,-38851.156,-21939.332,-9894.003,-28618.125,-18082.031,-21011.395
1316874.161701161,-50682.496,-85626.586,-38860.72,-21963.502,-9907.309,-28617.596,-18078.37,-21008.668
1316874.165701156,-50689.656,-85646.12,-38861.98,-21973.186,-9907.959,-28617.717,-18075.562,-21005.982
1316874.1697011509,-50684.855,-85635.22,-38857.383,-21957.846,-9895.874,-28618.408,-18075.236,-21005.494
1316874.173701146,-50676.555,-85610.64,-38856.203,-21938.844,-9885.254,-28621.787,-18079.713,-21012.29
1316874.1777011408,-50671.836,-85602.5,-38856.527,-21934.164,-9888.794,-28620.361,-18079.305,-21011.027
1316874.1817011358,-50678.426,-85622.36,-38860.72,-21951.986,-9899.902,-28616.537,-18074.91,-21005.818
1316874.185701131,-50680.992,-85634.04,-38856.69,-21962.281,-9900.229,-28615.113,-18072.713,-21003.094
1316874.1897011257,-50675.54,-85617.88,-38849.406,-21945.762,-9889.16,-28616.7,-18074.178,-21006.227
1316874.1937011208,-50670.453,-85596.97,-38845.543,-21923.096,-9880.371,-28616.416,-18075.318,-21011.068
1316874.1977011156,-50670.004,-85592.41,-38847.94,-21920.654,-9880.737,-28613.486,-18072.877,-21011.271
1316874.2017011107,-50678.71,-85615.89,-38854.207,-21944.215,-9892.7,-28611.045,-18069.621,-21008.465
1316874.2057011058,-50685.875,-85633.016,-38852.418,-21953.777,-9895.468,-28609.172,-18068.523,-21008.3
1316874.2097011006,-50681.52,-85617.516,-38847.617,-21936.729,-9882.568,-28611.166,-18071.453,-21012.248
1316874.2137010957,-50677.777,-85596.195,-38845.785,-21914.918,-9872.03,-28612.713,-18072.062,-21013.266
1316874.2177010905,-50680.625,-85594.32,-38848.51,-21916.79,-9877.768,-28612.793,-18069.947,-21008.424
1316874.2217010856,-50687.094,-85616.414,-38854.047,-21939.332,-9892.253,-28610.475,-18065.756,-21004.07
1316874.2257010804,-50689.94,-85631.63,-38852.906,-21948.61,-9892.619,-28608.154,-18062.459,-21006.512
1316874.2297010755,-50682.66,-85613.77,-38843.06,-21930.176,-9880.168,-28606.69,-18063.111,-21007.65
1316874.2337010705,-50675.293,-85590.984,-38837.117,-21908.0,-9869.792,-28606.812,-18065.186,-21008.098
1316874.2377010654,-50676.15,-85590.25,-38839.48,-21908.041,-9877.768,-28606.201,-18061.768,-21002.28
1316874.2417010604,-50679.363,-85604.336,-38843.832,-21927.451,-9888.144,-28602.662,-18056.682,-21000.285
1316874.2457010553,-50689.25,-85624.27,-38845.46,-21939.17,-9889.975,-28599.732,-18051.434,-20994.793
1316874.2497010503,-50694.824,-85624.63,-38843.426,-21926.148,-9883.789,-28601.562,-18052.49,-20994.955
1316874.2537010454,-50678.957,-85594.98,-38833.21,-21901.531,-9874.472,-28603.354,-18055.096,-20998.902
1316874.2577010402,-50664.266,-85577.6,-38829.957,-21898.275,-9874.431,-28603.8,-18055.664,-21000.814
1316874.2617010353,-50673.91,-85599.41,-38833.863,-21918.742,-9884.155,-28600.83,-18052.775,-20995.809
1316874.2657010301,-50682.496,-85619.14,-38832.766,-21929.893,-9885.295,-28598.268,-18049.684,-20993.123
1316874.2697010252,-50682.82,-85610.03,-38830.406,-21917.686,-9877.441,-28598.512,-18051.025,-20995.117
1316874.27370102,-50675.984,-85588.38,-38827.395,-21896.934,-9871.867,-28599.326,-18053.549,-20998.576
1316874.2777010151,-50673.465,-85582.85,-38828.98,-21895.63,-9873.495,-28597.697,-18051.799,-20998.576
1316874.2817010102,-50681.438,-85601.97,-38833.58,-21917.969,-9883.098,-28595.338,-18044.393,-20985.393
1316874.285701005,-50685.996,-85615.484,-38829.59,-21927.613,-9884.318,-28592.734,-18040.121,-20979.86
1316874.289701,-50683.758,-85599.53,-38823.934,-21910.809,-9872.885,-28593.67,-18042.277,-20985.555
1316874.293700995,-50676.434,-85574.586,-38821.453,-21889.69,-9861.898,-28596.355,-18045.613,-20990.275
1316874.29770099,-50674.562,-85569.83,-38824.832,-21890.098,-9866.374,-28597.982,-18046.875,-20992.758
1316874.301700985,-50683.676,-85591.92,-38831.3,-21911.256,-9880.737,-28596.924,-18044.475,-20986.898
1316874.30570098,-50692.71,-85615.4,-38832.684,-21925.62,-9885.132,-28596.07,-18043.254,-20985.148
1316874.309700975,-50690.31,-85605.516,-38827.027,-21911.703,-9874.756,-28597.412,-18046.021,-20989.055
1316874.3137009698,-50683.676,-85579.23,-38824.098,-21891.643,-9865.112,-28598.674,-18047.975,-20991.822
1316874.3177009649,-50687.01,-85577.4,-38831.34,-21892.986,-9872.519,-28597.861,-18044.393,-20984.13
1316874.3217009597,-50695.883,-85595.625,-38837.605,-21915.283,-9884.359,-28596.03,-18039.104,-20976.36
1316874.3257009548,-50703.98,-85611.62,-38835.938,-21924.846,-9888.144,-28593.629,-18034.871,-20970.867
1316874.3297009498,-50701.62,-85599.45,-38832.97,-21908.652,-9877.279,-28597.25,-18039.021,-20977.54
1316874.3337009447,-50694.95,-85573.37,-38833.293,-21886.924,-9869.345,-28600.547,-18044.271,-20986.166
1316874.3377009397,-50698.082,-85574.71,-38837.81,-21888.957,-9874.594,-28600.098,-18043.172,-20984.172
1316874.3417009346,-50706.87,-85599.734,-38843.223,-21912.232,-9886.679,-28598.105,-18041.463,-20988.078
1316874.3457009296,-50711.387,-85618.25,-38841.473,-21924.643,-9888.998,-28596.436,-18039.998,-20990.316
1316874.3497009247,-50705.12,-85605.96,-38833.742,-21906.902,-9877.401,-28595.988,-18039.186,-20989.543
1316874.3537009195,-50695.723,-85581.71,-38830.406,-21886.15,-9869.589,-28598.47,-18042.725,-20996.582
1316874.3577009146,-50694.01,-85575.766,-38832.36,-21886.924,-9874.309,-28598.918,-18044.11,-20998.047
1316874.3617009094,-50705.977,-85602.26,-38838.83,-21910.889,-9887.248,-28597.047,-18041.627,-20991.252
1316874.3657009045,-50714.52,-85621.99,-38841.758,-21926.148,-9891.113,-28597.291,-18038.9,-20985.107
1316874.3697008993,-50709.473,-85608.69,-38836.426,-21908.123,-9880.371,-28597.576,-18038.045,-20983.154
1316874.3737008944,-50700.523,-85582.234,-38831.95,-21884.156,-9870.077,-28597.25,-18041.219,-20988.852
1316874.3777008895,-50701.215,-85576.055,-38836.996,-21885.215,-9875.041,-28597.453,-18042.562,-20993.205
1316874.3817008843,-50710.41,-85599.125,-38842.773,-21910.32,-9887.451,-28595.744,-18038.168,-20987.387
1316874.3857008794,-50717.207,-85616.984,-38841.51,-21923.666,-9890.951,-28594.768,-18034.953,-20984.578
1316874.3897008742,-50718.06,-85610.68,-38839.6,-21909.791,-9883.708,-28598.35,-18037.598,-20990.602
1316874.3937008693,-50715.457,-85593.34,-38842.0,-21889.404,-9877.89,-28601.768,-18042.562,-20995.281
1316874.3977008644,-50715.945,-85589.766,-38846.926,-21890.342,-9883.22,-28600.994,-18043.133,-20995.973
1316874.4017008592,-50722.09,-85608.36,-38850.06,-21911.377,-9896.362,-28597.861,-18038.818,-20990.926
1316874.4057008543,-50729.617,-85628.22,-38850.953,-21925.822,-9904.379,-28599.285,-18040.73,-20991.21
1316874.409700849,-50727.01,-85617.31,-38846.598,-21908.652,-9895.142,-28601.36,-18044.598,-20994.264
1316874.4137008442,-50723.31,-85594.85,-38845.418,-21887.818,-9885.336,-28603.191,-18045.451,-20996.014
1316874.4177008392,-50727.38,-85592.05,-38851.035,-21889.527,-9891.806,-28604.574,-18046.102,-21001.018
1316874.421700834,-50735.84,-85613.0,-38855.836,-21914.307,-9908.203,-28601.156,-18042.033,-20993.45
1316874.4257008291,-50740.234,-85631.35,-38853.598,-21927.979,-9909.424,-28598.47,-18039.674,-20995.973
1316874.429700824,-50739.83,-85625.695,-38851.562,-21914.918,-9896.403,-28601.115,-18042.766,-20999.594
1316874.433700819,-50736.37,-85603.195,-38851.117,-21894.41,-9888.754,-28606.121,-18047.322,-21005.412
1316874.4377008139,-50734.418,-85596.805,-38854.004,-21891.725,-9893.393,-28606.406,-18045.166,-21002.32
1316874.441700809,-50740.48,-85618.086,-38859.418,-21913.047,-9908.325,-28605.186,-18043.172,-21005.656
1316874.445700804,-50746.625,-85638.23,-38860.555,-21925.498,-9911.499,-28603.965,-18040.486,-21004.11
1316874.4497007988,-50741.62,-85621.99,-38855.062,-21909.059,-9900.351,-28605.957,-18041.383,-21002.564
1316874.453700794,-50736.74,-85600.34,-38853.516,-21889.527,-9891.154,-28610.719,-18045.695,-21007.65
1316874.4577007887,-50736.453,-85596.195,-38857.504,-21891.318,-9895.793,-28612.305,-18046.63,-21008.668
1316874.4617007838,-50746.137,-85616.13,-38864.586,-21913.615,-9907.878,-28611.98,-18043.865,-21005.656
1316874.4657007789,-50750.977,-85633.1,-38865.6,-21925.498,-9913.29,-28612.387,-18045.29,-21006.348
1316874.4697007737,-50748.375,-85624.27,-38860.23,-21910.645,-9907.837,-28615.316,-18049.275,-21008.383
1316874.4737007688,-50744.67,-85604.01,-38859.215,-21891.318,-9901.205,-28618.572,-18051.473,-21008.057
1316874.4777007636,-50741.78,-85597.086,-38859.457,-21891.887,-9903.402,-28619.223,-18052.734,-21011.395
1316874.4817007587,-50747.52,-85617.76,-38862.793,-21914.145,-9913.9,-28616.904,-18050.701,-21009.4
1316874.4857007535,-50752.402,-85637.78,-38864.42,-21927.857,-9917.888,-28615.805,-18047.04,-21006.186
1316874.4897007486,-50749.594,-85624.92,-38859.133,-21914.307,-9908.285,-28617.025,-18048.055,-21012.045
1316874.4937007437,-50747.316,-85599.125,-38857.22,-21894.613,-9903.85,-28617.717,-18052.043,-21018.678
1316874.4977007385,-50747.97,-85592.695,-38859.824,-21894.857,-9909.587,-28616.984,-18053.59,-21021.281
1316874.5017007336,-50757.938,-85616.09,-38864.91,-21915.936,-9923.218,-28615.154,-18050.904,-21017.904
1316874.5057007284,-50767.17,-85639.94,-38866.05,-21930.95,-9927.612,-28611.613,-18048.055,-21015.87
1316874.5097007235,-50766.156,-85634.12,-38863.16,-21918.58,-9920.695,-28610.88,-18050.09,-21017.904
1316874.5137007185,-50758.426,-85608.93,-38860.23,-21897.258,-9911.743,-28613.893,-18055.99,-21021.281
1316874.5177007134,-50757.406,-85604.54,-38859.78,-21896.078,-9916.789,-28614.055,-18056.479,-21019.979
1316874.5217007084,-50761.8,-85625.57,-38860.066,-21915.488,-9928.711,-28612.549,-18052.775,-21012.004
1316874.5257007033,-50766.36,-85640.71,-38859.254,-21928.549,-9930.42,-28613.445,-18052.734,-21009.48
1316874.5297006983,-50765.465,-85632.734,-38856.363,-21915.771,-9919.149,-28615.805,-18058.105,-21015.992
1316874.5337006932,-50755.25,-85605.06,-38851.688,-21892.334,-9909.628,-28619.752,-18062.5,-21026.531
1316874.5377006882,-50754.438,-85599.41,-38853.883,-21892.904,-9915.527,-28619.873,-18060.344,-21021.607
1316874.5417006833,-50765.465,-85627.2,-38860.15,-21915.527,-9929.647,-28615.316,-18053.955,-21016.521
1316874.5457006781,-50771.324,-85645.47,-38862.59,-21928.996,-9933.391,-28614.746,-18051.637,-21016.521
1316874.5497006732,-50766.97,-85632.37,-38859.58,-21914.877,-9921.997,-28615.967,-18054.89,-21023.723
1316874.553700668,-50763.51,-85608.4,-38856.69,-21892.457,-9913.615,-28618.45,-18058.146,-21032.39
1316874.557700663,-50761.883,-85600.63,-38857.75,-21891.154,-9917.766,-28617.188,-18057.455,-21031.047
1316874.5617006582,-50768.434,-85625.45,-38860.84,-21913.818,-9933.513,-28615.602,-18054.688,-21026.164
1316874.565700653,-50774.008,-85642.664,-38861.043,-21926.23,-9940.1455,-28613.934,-18053.67,-21027.467
1316874.569700648,-50769.94,-85632.695,-38856.285,-21911.094,-9929.24,-28616.984,-18055.217,-21025.635
1316874.573700643,-50762.047,-85607.18,-38850.344,-21887.736,-9917.48,-28620.322,-18056.111,-21024.658
1316874.577700638,-50759.035,-85596.93,-38851.766,-21885.01,-9916.748,-28620.77,-18057.455,-21031.658
1316874.5817006328,-50769.695,-85619.34,-38857.06,-21907.838,-9929.077,-28618.205,-18054.363,-21028.361
1316874.5857006279,-50774.21,-85638.19,-38852.094,-21919.842,-9930.054,-28614.828,-18050.62,-21024.74
1316874.589700623,-50769.9,-85625.37,-38847.617,-21905.885,-9918.986,-28618.896,-18054.89,-21030.438
1316874.5937006178,-50770.145,-85607.055,-38849.12,-21885.947,-9914.958,-28623.373,-18062.379,-21040.324
1316874.5977006129,-50775.637,-85612.59,-38854.453,-21885.05,-9927.002,-28623.129,-18064.047,-21043.945
1316874.6017006077,-50780.438,-85628.95,-38859.906,-21907.146,-9936.809,-28621.338,-18060.182,-21037.068
1316874.6057006028,-50779.83,-85632.695,-38861.734,-21920.736,-9936.076,-28623.74,-18061.32,-21037.03
1316874.6097005978,-50774.78,-85621.09,-38854.94,-21907.512,-9927.165,-28623.82,-18063.518,-21040.406
1316874.6137005927,-50775.188,-85603.805,-38854.695,-21886.963,-9921.225,-28625.367,-18065.227,-21046.021
1316874.6177005877,-50774.17,-85591.88,-38857.34,-21886.15,-9925.293,-28624.635,-18063.314,-21041.707
1316874.6217005826,-50782.758,-85613.98,-38861.41,-21910.076,-9940.552,-28622.396,-18057.74,-21028.646
1316874.6257005776,-50791.504,-85640.1,-38862.875,-21924.887,-9945.068,-28621.623,-18057.496,-21027.467
1316874.6297005725,-50786.703,-85628.75,-38859.66,-21909.424,-9930.38,-28625.773,-18065.918,-21043.498
1316874.6337005675,-50781.7,-85604.695,-38859.09,-21889.365,-9920.614,-28629.965,-18073.04,-21051.596
1316874.6377005626,-50778.81,-85597.58,-38860.637,-21888.469,-9924.805,-28629.883,-18071.9,-21047.81
1316874.6417005574,-50782.88,-85618.77,-38863.363,-21907.92,-9937.134,-28626.953,-18064.982,-21038.738
1316874.6457005525,-50785.81,-85631.47,-38862.348,-21919.23,-9938.314,-28624.797,-18060.467,-21037.273
1316874.6497005473,-50783.082,-85621.586,-38858.113,-21904.258,-9928.589,-28625.652,-18060.506,-21038.982
1316874.6537005424,-50777.305,-85600.63,-38859.254,-21884.521,-9921.387,-28628.5,-18067.098,-21050.496
1316874.6577005375,-50777.547,-85594.73,-38862.957,-21885.174,-9927.816,-28628.418,-18068.482,-21051.066
1316874.6617005323,-50789.43,-85617.96,-38867.35,-21910.28,-9942.505,-28625.977,-18064.412,-21040.691
1316874.6657005274,-50800.05,-85640.22,-38868.492,-21928.184,-9947.266,-28625.611,-18061.605,-21036.662
1316874.6697005222,-50796.754,-85628.54,-38862.67,-21913.615,-9936.361,-28627.076,-18064.982,-21042.848
1316874.6737005173,-50788.21,-85601.69,-38857.26,-21889.283,-9922.241,-28628.703,-18068.115,-21046.63
1316874.6777005123,-50785.81,-85591.64,-38859.09,-21884.93,-9924.561,-28627.28,-18063.844,-21043.66
1316874.6817005072,-50792.117,-85609.83,-38863.566,-21906.535,-9938.518,-28622.559,-18054.973,-21033.406
1316874.6857005022,-50797.566,-85625.57,-38861.816,-21920.695,-9943.278,-28619.223,-18047.975,-21023.764
1316874.689700497,-50796.51,-85615.03,-38857.91,-21907.756,-9933.594,-28621.299,-18050.822,-21028.605
1316874.6937004921,-50790.73,-85593.305,-38856.49,-21885.174,-9925.578,-28624.188,-18054.852,-21036.053
1316874.697700487,-50789.023,-85590.336,-38858.887,-21881.877,-9928.467,-28623.576,-18053.752,-21034.1
1316874.701700482,-50798.383,-85614.26,-38864.34,-21903.037,-9943.441,-28622.031,-18051.31,-21029.5
1316874.7057004771,-50804.12,-85634.16,-38864.016,-21918.418,-9946.33,-28620.646,-18050.172,-21027.264
1316874.709700472,-50800.66,-85623.45,-38857.016,-21902.305,-9935.059,-28620.484,-18052.002,-21032.715
1316874.713700467,-50794.92,-85599.125,-38853.434,-21879.72,-9925.578,-28622.111,-18054.973,-21037.191
1316874.7177004619,-50794.92,-85594.445,-38855.957,-21879.68,-9928.467,-28623.17,-18054.729,-21034.668
1316874.721700457,-50802.086,-85616.82,-38859.58,-21904.297,-9941.488,-28621.908,-18050.008,-21030.64
1316874.725700452,-50805.707,-85631.23,-38857.586,-21916.22,-9943.075,-28618.328,-18045.533,-21026.814
1316874.7297004468,-50802.574,-85619.71,-38851.97,-21899.863,-9933.146,-28617.188,-18044.068,-21025.514
1316874.733700442,-50800.863,-85597.74,-38851.2,-21877.523,-9928.671,-28620.77,-18049.398,-21030.682
1316874.7377004367,-50799.277,-85592.49,-38855.67,-21877.686,-9935.547,-28621.46,-18053.63,-21035.32
1316874.7417004318,-50809.004,-85616.5,-38863.04,-21903.037,-9947.388,-28619.873,-18050.13,-21032.146
1316874.7457004266,-50820.234,-85638.92,-38866.742,-21918.986,-9950.073,-28620.81,-18047.852,-21030.03
1316874.7497004217,-50816.734,-85626.586,-38858.277,-21904.502,-9935.344,-28622.844,-18051.066,-21033.162
1316874.7537004168,-50809.285,-85601.04,-38856.16,-21881.877,-9925.619,-28626.344,-18059.896,-21046.834
1316874.7577004116,-50807.66,-85594.36,-38860.23,-21881.227,-9928.874,-28625.123,-18059.123,-21045.818
1316874.7617004067,-50811.85,-85612.15,-38862.957,-21900.799,-9937.744,-28620.037,-18052.49,-21038.738
1316874.7657004015,-50816.57,-85633.1,-38863.812,-21914.104,-9945.679,-28617.432,-18049.154,-21037.762
1316874.7697003966,-50813.926,-85624.555,-38860.598,-21901.205,-9935.873,-28617.393,-18049.195,-21042.236
1316874.7737003916,-50806.074,-85601.89,-38856.61,-21878.338,-9925.171,-28618.164,-18050.781,-21045.777
1316874.7777003865,-50805.746,-85599.66,-38858.113,-21876.873,-9930.908,-28618.938,-18050.008,-21044.922
1316874.7817003815,-50815.227,-85620.2,-38863.28,-21901.002,-9943.726,-28616.537,-18044.963,-21039.998
1316874.7857003764,-50824.707,-85639.61,-38864.586,-21915.568,-9947.998,-28613.975,-18040.65,-21036.947
1316874.7897003714,-50824.22,-85630.74,-38863.16,-21902.02,-9940.39,-28616.455,-18044.271,-21041.748
1316874.7937003663,-50812.137,-85600.836,-38858.766,-21879.111,-9929.159,-28619.752,-18048.504,-21044.148
1316874.7977003613,-50808.555,-85592.82,-38860.516,-21877.564,-9932.536,-28620.729,-18048.137,-21039.227
1316874.8017003564,-50812.582,-85612.23,-38866.945,-21899.008,-9942.261,-28618.816,-18042.969,-21029.785
1316874.8057003513,-50815.188,-85629.48,-38867.96,-21914.104,-9946.981,-28617.596,-18039.389,-21025.676
1316874.8097003463,-50816.61,-85624.02,-38866.254,-21904.176,-9939.657,-28618.205,-18040.65,-21029.176
1316874.8137003412,-50812.094,-85600.47,-38866.824,-21882.895,-9932.902,-28618.408,-18044.8,-21034.791
1316874.8177003362,-50810.914,-85593.63,-38869.184,-21882.162,-9934.204,-28618.328,-18044.719,-21035.809
1316874.8217003313,-50817.26,-85616.336,-38874.105,-21905.518,-9945.883,-28615.887,-18040.691,-21029.664
1316874.8257003261,-50826.742,-85639.33,-38875.734,-21924.195,-9953.491,-28615.195,-18039.795,-21028.28
1316874.8297003212,-50825.523,-85629.56,-38871.22,-21911.906,-9946.777,-28618.49,-18045.94,-21037.068
1316874.833700316,-50816.406,-85604.25,-38867.84,-21886.027,-9937.094,-28622.479,-18051.922,-21046.184
1316874.837700311,-50815.227,-85598.72,-38872.6,-21883.709,-9944.784,-28621.99,-18052.734,-21047.607
1316874.841700306,-50824.75,-85620.2,-38879.883,-21910.076,-9957.397,-28618.816,-18048.91,-21041.79
1316874.845700301,-50830.77,-85638.8,-38880.617,-21922.486,-9955.444,-28618.002,-18046.754,-21041.139
1316874.849700296,-50831.258,-85632.86,-38880.496,-21911.094,-9946.493,-28620.77,-18050.945,-21045.492
1316874.853700291,-50824.42,-85610.11,-38880.086,-21889.445,-9936.809,-28624.188,-18057.496,-21055.543
1316874.857700286,-50820.19,-85601.81,-38883.547,-21887.045,-9940.837,-28624.553,-18058.146,-21055.584
1316874.8617002808,-50827.395,-85624.23,-38889.527,-21912.72,-9954.916,-28622.479,-18053.06,-21044.475
1316874.8657002759,-50836.1,-85645.1,-38891.36,-21930.096,-9963.827,-28622.6,-18053.182,-21043.295
1316874.869700271,-50831.137,-85634.16,-38886.56,-21913.656,-9953.044,-28622.031,-18056.885,-21050.457
1316874.8737002658,-50823.242,-85611.414,-38883.06,-21892.66,-9943.481,-28624.023,-18058.797,-21051.393
1316874.8777002608,-50821.004,-85602.13,-38883.79,-21889.445,-9947.998,-28623.576,-18055.867,-21044.557
1316874.8817002557,-50830.977,-85624.27,-38890.504,-21915.283,-9960.897,-28620.729,-18050.334,-21036.377
1316874.8857002507,-50837.566,-85643.72,-38891.316,-21930.137,-9962.443,-28616.049,-18044.23,-21031.861
1316874.8897002456,-50837.16,-85637.45,-38890.465,-21922.648,-9956.665,-28618.734,-18045.533,-21035.4
1316874.8937002406,-50830.16,-85617.15,-38889.812,-21902.02,-9949.057,-28621.46,-18051.19,-21045.654
1316874.8977002357,-50828.168,-85609.984,-38893.27,-21900.596,-9953.451,-28623.414,-18053.63,-21050.172
1316874.9017002305,-50835.45,-85634.85,-38898.887,-21923.096,-9966.716,-28622.844,-18051.434,-21043.254
1316874.9057002256,-50840.66,-85655.64,-38898.355,-21938.07,-9970.541,-28622.275,-18049.969,-21043.701
1316874.9097002205,-50838.625,-85645.836,-38894.086,-21927.451,-9962.036,-28624.96,-18054.973,-21051.473
1316874.9137002155,-50830.324,-85618.66,-38892.05,-21905.479,-9952.597,-28625.977,-18059.041,-21056.438
1316874.9177002106,-50826.457,-85609.5,-38896.242,-21903.361,-9953.857,-28625.732,-18058.514,-21056.275
1316874.9217002054,-50834.395,-85630.45,-38904.5,-21926.84,-9968.222,-28625.45,-18057.861,-21054.973
1316874.9257002005,-50843.547,-85649.87,-38913.82,-21941.814,-9973.022,-28626.832,-18061.89,-21057.7
1316874.9297001953,-50841.23,-85640.1,-38917.195,-21929.12,-9963.217,-28629.15,-18065.064,-21060.344
1316874.9337001904,-50835.734,-85617.64,-38919.19,-21907.432,-9956.015,-28631.268,-18067.059,-21061.402
1316874.9377001855,-50835.86,-85612.51,-38924.36,-21905.885,-9963.949,-28631.268,-18065.553,-21062.256
1316874.9417001803,-50840.332,-85633.586,-38930.707,-21927.654,-9974.243,-28628.174,-18060.71,-21061.361
1316874.9457001754,-50845.99,-85656.09,-38930.055,-21945.762,-9977.865,-28625.0,-18054.973,-21053.467
1316874.9497001702,-50843.59,-85647.625,-38927.086,-21936.564,-9970.175,-28627.361,-18056.479,-21056.56
1316874.9537001653,-50837.242,-85625.94,-38928.348,-21916.016,-9964.56,-28629.355,-18060.059,-21060.14
1316874.95770016,-50840.008,-85621.38,-38935.426,-21914.348,-9971.3545,-28630.047,-18061.89,-21060.344
1316874.9617001552,-50849.49,-85644.21,-38943.484,-21938.803,-9983.765,-28629.844,-18063.273,-21064.332
1316874.9657001502,-50853.355,-85662.44,-38945.07,-21956.219,-9987.549,-28629.273,-18060.506,-21064.209
1316874.969700145,-50851.277,-85656.01,-38941.406,-21941.57,-9977.336,-28631.43,-18062.5,-21069.336
1316874.9737001401,-50845.703,-85634.81,-38941.043,-21920.127,-9968.1,-28635.215,-18069.377,-21073.445
1316874.977700135,-50840.457,-85623.7,-38942.547,-21917.48,-9969.482,-28635.54,-18069.621,-21072.633
1316874.98170013,-50845.137,-85641.03,-38947.39,-21940.553,-9981.527,-28632.244,-18064.617,-21069.133
1316874.985700125,-50852.176,-85657.836,-38951.17,-21957.887,-9987.549,-28632.162,-18064.168,-21071.004
1316874.98970012,-50847.78,-85649.375,-38948.57,-21946.33,-9978.923,-28635.336,-18071.533,-21081.299
1316874.993700115,-50839.805,-85620.65,-38944.703,-21924.521,-9970.988,-28637.533,-18076.213,-21086.914
1316874.9977001098,-50831.79,-85605.63,-38948.285,-21921.836,-9973.511,-28637.574,-18074.422,-21085.45
1316875.001700105,-50836.062,-85625.086,-38954.348,-21943.36,-9988.525,-28637.086,-18070.354,-21081.584
1316875.0057000997,-50839.113,-85646.81,-38949.465,-21958.904,-9991.74,-28636.639,-18068.807,-21079.184
1316875.0097000948,-50824.3,-85628.336,-38941.0,-21943.768,-9976.4,-28639.445,-18072.998,-21085.45
1316875.0137000899,-50819.95,-85605.06,-38943.074,-21921.55,-9971.68,-28643.271,-18077.922,-21090.535
1316875.0177000847,-50823.652,-85602.13,-38948.445,-21920.615,-9977.946,-28645.102,-18079.834,-21088.217
1316875.0217000798,-50804.688,-85593.8,-38947.39,-21937.217,-9980.51,-28645.264,-18080.975,-21085.775
1316875.0257000746,-50785.402,-85586.63,-38943.523,-21944.824,-9976.767,-28647.299,-18084.555,-21095.744
1316875.0297000697,-50778.2,-85575.24,-38942.668,-21935.182,-9967.489,-28649.17,-18090.088,-21107.707
1316875.0337000648,-50762.617,-85547.04,-38939.86,-21912.883,-9958.944,-28651.002,-18096.314,-21115.846
1316875.0377000596,-50738.812,-85517.54,-38939.82,-21908.041,-9960.612,-28653.117,-18100.953,-21120.117
1316875.0417000547,-50734.01,-85522.51,-38944.582,-21929.078,-9969.523,-28654.664,-18100.953,-21121.867
1316875.0457000495,-50727.824,-85523.766,-38940.918,-21939.373,-9967.407,-28655.967,-18100.545,-21122.762
1316875.0497000446,-50708.21,-85497.27,-38933.27,-21925.172,-9954.834,-28659.873,-18105.225,-21127.482
1316875.0537000394,-50682.17,-85459.64,-38925.62,-21902.67,-9946.127,-28664.268,-18111.898,-21134.277
1316875.0577000345,-50674.113,-85449.22,-38925.945,-21899.902,-9952.841,-28663.9,-18113.24,-21138.387
1316875.0617000295,-50682.617,-85464.52,-38934.53,-21923.096,-9962.321,-28665.121,-18112.225,-21137.166
1316875.0657000244,-50670.492,-85460.57,-38931.52,-21932.74,-9957.153,-28665.04,-18111.857,-21130.209
1316875.0697000194,-50661.418,-85445.72,-38925.54,-21917.889,-9946.533,-28667.156,-18116.74,-21140.748
1316875.0737000143,-50652.508,-85416.71,-38923.42,-21896.648,-9938.029,-28671.713,-18124.105,-21150.594
1316875.0777000093,-50644.574,-85403.81,-38925.17,-21894.41,-9942.79,-28672.486,-18124.268,-21146.363
1316875.0817000044,-50642.742,-85416.67,-38929.484,-21914.145,-9954.672,-28671.266,-18121.826,-21143.475
1316875.0856999992,-50652.793,-85433.76,-38933.555,-21929.973,-9955.038,-28671.062,-18122.803,-21146.12
1316875.0896999943,-50652.14,-85423.34,-38930.867,-21919.516,-9942.912,-28676.025,-18132.488,-21161.865
1316875.0936999891,-50639.04,-85395.305,-38927.574,-21896.69,-9936.401,-28680.664,-18138.592,-21171.63
1316875.0976999842,-50626.426,-85379.31,-38927.37,-21892.742,-9942.79,-28680.746,-18139.08,-21174.684
1316875.101699979,-50633.547,-85398.6,-38933.797,-21914.633,-9956.909,-28678.102,-18135.824,-21173.016
1316875.105699974,-50635.01,-85414.92,-38933.88,-21926.434,-9959.106,-28675.537,-18131.389,-21171.59
1316875.1096999692,-50628.746,-85401.82,-38927.043,-21913.006,-9945.72,-28676.23,-18131.959,-21177.775
1316875.113699964,-50623.535,-85377.32,-38924.805,-21890.625,-9933.513,-28677.857,-18136.842,-21183.473
1316875.117699959,-50616.66,-85370.445,-38924.645,-21884.115,-9938.559,-28679.893,-18137.86,-21182.496
1316875.121699954,-50618.777,-85392.375,-38926.35,-21906.617,-9954.184,-28679.16,-18134.4,-21178.182
1316875.125699949,-50628.094,-85407.88,-38928.184,-21920.615,-9955.933,-28675.66,-18127.605,-21172.201
1316875.129699944,-50625.49,-85394.53,-38925.21,-21908.164,-9942.749,-28676.922,-18128.215,-21172.078
1316875.133699939,-50616.293,-85370.98,-38921.348,-21886.76,-9935.71,-28681.193,-18131.592,-21173.666
1316875.137699934,-50605.715,-85356.0,-38919.434,-21880.088,-9937.948,-28682.902,-18133.016,-21177.613
1316875.1416999288,-50607.992,-85373.09,-38921.67,-21901.572,-9950.725,-28682.943,-18131.186,-21175.375
1316875.1456999239,-50613.566,-85394.45,-38923.016,-21917.969,-9956.137,-28680.584,-18128.744,-21172.648
1316875.1496999187,-50605.31,-85384.61,-38917.81,-21906.25,-9946.086,-28681.805,-18132.977,-21174.031
1316875.1536999138,-50599.12,-85360.4,-38917.195,-21884.318,-9936.523,-28684.979,-18138.957,-21179.12
1316875.1576999088,-50597.414,-85350.43,-38920.98,-21879.924,-9936.32,-28684.57,-18139.404,-21181.805
1316875.1616999037,-50603.68,-85368.414,-38927.086,-21901.572,-9945.15,-28680.46,-18132.936,-21173.91
1316875.1656998987,-50611.656,-85390.83,-38928.387,-21919.19,-9949.707,-28678.223,-18126.912,-21167.807
1316875.1696998936,-50608.277,-85384.65,-38922.812,-21906.088,-9940.308,-28676.84,-18125.447,-21167.074
1316875.1736998886,-50600.06,-85360.88,-38919.11,-21883.953,-9932.373,-28678.752,-18129.72,-21173.707
1316875.1776998837,-50599.367,-85351.69,-38922.08,-21882.0,-9935.995,-28680.055,-18134.115,-21178.223
1316875.1816998785,-50607.707,-85373.09,-38927.29,-21906.006,-9949.545,-28678.06,-18131.47,-21175.781
1316875.1856998736,-50610.72,-85392.17,-38925.54,-21920.086,-9956.584,-28676.393,-18130.33,-21174.357
1316875.1896998684,-50600.344,-85382.164,-38917.887,-21906.088,-9950.562,-28678.143,-18132.527,-21180.096
1316875.1936998635,-50593.547,-85357.305,-38916.547,-21882.447,-9938.437,-28679.281,-18135.783,-21184.979
1316875.1976998586,-50592.207,-85346.16,-38919.35,-21876.465,-9940.878,-28680.096,-18138.592,-21187.42
1316875.2016998534,-50602.094,-85367.31,-38926.883,-21897.666,-9953.532,-28682.129,-18139.73,-21187.379
1316875.2056998485,-50608.848,-85382.57,-38928.67,-21914.227,-9952.2705,-28679.363,-18134.4,-21179.973
1316875.2096998433,-50601.562,-85368.9,-38919.68,-21900.84,-9942.831,-28678.549,-18133.098,-21182.008
1316875.2136998384,-50596.395,-85351.766,-38916.707,-21879.762,-9936.564,-28680.217,-18136.271,-21187.379
1316875.2176998332,-50597.21,-85348.96,-38921.67,-21879.314,-9939.535,-28679.932,-18136.76,-21191.732
1316875.2216998283,-50601.32,-85369.34,-38925.05,-21899.943,-9952.026,-28676.719,-18132.283,-21186.361
1316875.2256998233,-50610.23,-85393.07,-38926.23,-21913.738,-9955.607,-28673.79,-18127.156,-21180.99
1316875.2296998182,-50606.69,-85386.03,-38920.86,-21901.205,-9946.899,-28673.463,-18130.535,-21187.338
1316875.2336998133,-50597.414,-85357.51,-38919.273,-21879.15,-9938.925,-28676.514,-18137.86,-21196.371
1316875.237699808,-50591.594,-85342.125,-38918.418,-21873.332,-9937.46,-28676.393,-18137.98,-21195.395
1316875.2416998032,-50591.555,-85359.26,-38918.62,-21892.254,-9946.33,-28674.766,-18134.318,-21190.389
1316875.2456997982,-50596.6,-85376.51,-38919.23,-21907.797,-9947.876,-28672.568,-18130.535,-21186.076
1316875.249699793,-50593.223,-85367.516,-38913.29,-21897.91,-9938.3955,-28669.922,-18126.1,-21179.852
1316875.2536997881,-50585.33,-85343.34,-38914.145,-21875.977,-9927.775,-28671.021,-18123.738,-21174.684
1316875.257699783,-50586.305,-85333.78,-38919.027,-21872.559,-9930.827,-28670.94,-18120.973,-21170.086
1316875.261699778,-50593.953,-85353.88,-38922.69,-21894.816,-9942.546,-28667.848,-18116.658,-21161.662
1316875.2656997729,-50600.953,-85372.56,-38922.49,-21911.215,-9945.761,-28667.236,-18117.27,-21164.918
1316875.269699768,-50591.594,-85362.875,-38913.617,-21897.705,-9938.192,-28667.36,-18120.605,-21173.992
1316875.273699763,-50578.574,-85333.74,-38906.21,-21870.85,-9927.084,-28667.562,-18125.164,-21184.041
1316875.2776997578,-50576.824,-85325.6,-38908.367,-21864.666,-9928.264,-28668.377,-18126.873,-21184.53
1316875.281699753,-50583.09,-85344.08,-38914.633,-21887.371,-9941.081,-28668.05,-18125.53,-21179.81
1316875.2856997477,-50582.97,-85359.78,-38913.98,-21899.334,-9941.813,-28667.36,-18126.506,-21181.111
1316875.2896997428,-50576.17,-85351.24,-38908.816,-21886.271,-9933.146,-28668.783,-18129.191,-21184.53
1316875.2936997379,-50567.18,-85325.766,-38901.938,-21864.178,-9922.404,-28669.434,-18129.232,-21184.855
1316875.2976997327,-50562.215,-85313.11,-38902.14,-21858.887,-9921.428,-28664.836,-18122.64,-21176.84
1316875.3016997278,-50568.28,-85332.93,-38906.902,-21881.104,-9932.983,-28660.85,-18117.84,-21168.865
1316875.3056997226,-50574.707,-85346.68,-38908.367,-21895.225,-9936.768,-28658.408,-18116.13,-21167.156
1316875.3096997177,-50570.027,-85337.0,-38902.508,-21881.348,-9926.311,-28660.32,-18117.555,-21167.4
1316875.3136997125,-50555.746,-85312.055,-38896.61,-21859.701,-9916.423,-28664.104,-18121.502,-21172.934
1316875.3176997076,-50547.445,-85299.766,-38894.816,-21851.482,-9916.789,-28663.209,-18119.832,-21171.834
1316875.3216997026,-50557.457,-85317.586,-38901.613,-21871.867,-9927.409,-28661.133,-18114.258,-21161.215
1316875.3256996975,-50563.965,-85328.86,-38905.19,-21888.672,-9925.822,-28658.123,-18110.31,-21158.244
1316875.3296996925,-50560.426,-85318.41,-38900.72,-21877.28,-9911.581,-28657.715,-18109.13,-21160.115
1316875.3336996874,-50551.883,-85301.76,-38894.938,-21856.04,-9904.257,-28659.709,-18111.207,-21165.406
1316875.3376996825,-50544.434,-85294.234,-38894.246,-21849.53,-9908.732,-28659.506,-18111.328,-21165.73
1316875.3416996775,-50550.62,-85314.7,-38899.008,-21871.379,-9924.032,-28655.885,-18106.121,-21158.123
1316875.3456996724,-50562.582,-85340.54,-38900.594,-21887.574,-9930.99,-28652.629,-18101.441,-21153.523
1316875.3496996674,-50563.03,-85336.875,-38897.22,-21877.197,-9922.689,-28652.955,-18105.713,-21165.975
1316875.3536996623,-50557.82,-85313.97,-38898.6,-21855.225,-9913.696,-28657.268,-18114.787,-21174.154
1316875.3576996573,-50551.758,-85303.76,-38899.7,-21848.959,-9915.487,-28657.064,-18117.39,-21174.44
1316875.3616996522,-50554.65,-85318.61,-38902.26,-21872.234,-9924.235,-28654.338,-18110.393,-21167.604
1316875.3656996472,-50561.605,-85341.92,-38903.65,-21889.324,-9929.606,-28653.24,-18104.533,-21161.377
1316875.3696996423,-50560.184,-85338.14,-38899.496,-21874.756,-9920.166,-28653.402,-18103.598,-21159.953
1316875.3736996371,-50548.953,-85308.48,-38893.312,-21850.547,-9904.826,-28653.77,-18106.365,-21164.998
1316875.3776996322,-50540.527,-85293.26,-38892.254,-21845.256,-9905.722,-28652.588,-18107.83,-21166.83
1316875.381699627,-50550.05,-85313.68,-38899.21,-21869.59,-9919.638,-28650.146,-18104.695,-21160.93
1316875.385699622,-50556.48,-85332.766,-38902.387,-21885.906,-9923.137,-28647.178,-18100.342,-21155.844
1316875.3896996172,-50553.71,-85322.35,-38896.934,-21871.502,-9914.511,-28648.072,-18100.139,-21157.635
1316875.393699612,-50546.062,-85293.945,-38891.48,-21845.256,-9902.304,-28650.107,-18103.068,-21165.121
1316875.397699607,-50541.547,-85286.54,-38892.05,-21839.52,-9902.792,-28650.879,-18105.307,-21170.004
1316875.401699602,-50544.312,-85305.3,-38894.207,-21860.027,-9915.365,-28649.455,-18103.11,-21170.574
1316875.405699597,-50547.16,-85320.6,-38892.336,-21873.74,-9921.306,-28649.008,-18100.953,-21167.725
1316875.4096995918,-50536.95,-85305.18,-38887.125,-21859.783,-9906.901,-28649.13,-18103.395,-21168.377
1316875.4136995869,-50528.28,-85280.84,-38883.465,-21839.56,-9896.525,-28649.984,-18106.73,-21174.52
1316875.417699582,-50532.27,-85281.45,-38888.633,-21839.072,-9901.733,-28650.146,-18108.236,-21175.496
1316875.4216995768,-50539.754,-85309.45,-38891.562,-21859.498,-9915.935,-28648.031,-18103.883,-21167.521
1316875.4256995718,-50542.97,-85322.59,-38891.887,-21874.96,-9917.236,-28646.445,-18100.057,-21160.035
1316875.4296995667,-50538.086,-85306.89,-38889.203,-21864.463,-9905.233,-28649.17,-18100.3,-21156.088
1316875.4336995617,-50531.047,-85284.47,-38885.99,-21840.984,-9895.427,-28650.676,-18101.562,-21155.682
1316875.4376995568,-50534.832,-85280.4,-38888.184,-21837.281,-9902.019,-28650.676,-18100.342,-21151.164
1316875.4416995517,-50541.06,-85293.945,-38893.516,-21857.79,-9912.883,-28647.34,-18095.826,-21144.816
1316875.4456995467,-50544.68,-85310.95,-38891.52,-21871.705,-9915.161,-28645.264,-18093.14,-21144.287
1316875.4496995416,-50543.867,-85309.45,-38888.59,-21861.125,-9909.343,-28647.096,-18096.883,-21151.205
1316875.4536995366,-50541.426,-85288.86,-38889.773,-21841.635,-9898.275,-28647.746,-18100.098,-21157.227
1316875.4576995315,-50541.22,-85278.484,-38893.027,-21837.24,-9899.292,-28646.973,-18098.756,-21159.832
1316875.4616995265,-50550.05,-85301.27,-38899.457,-21857.79,-9910.767,-28644.248,-18097.291,-21164.715
1316875.4656995216,-50554.08,-85320.07,-38898.97,-21869.67,-9911.621,-28641.318,-18096.03,-21165.447
1316875.4696995164,-50551.92,-85313.88,-38896.77,-21858.115,-9902.019,-28644.084,-18103.191,-21175.904
1316875.4736995115,-50544.477,-85284.875,-38893.312,-21834.19,-9891.643,-28646.484,-18111.695,-21190.35
1316875.4776995063,-50543.17,-85272.38,-38897.543,-21831.299,-9894.043,-28647.299,-18116.334,-21197.957
1316875.4816995014,-50556.316,-85299.484,-38906.863,-21855.55,-9911.662,-28647.258,-18114.178,-21193.238
1316875.4856994965,-50560.47,-85324.83,-38907.96,-21873.455,-9922.852,-28645.996,-18112.264,-21189.412
1316875.4896994913,-50551.23,-85314.086,-38898.723,-21861.492,-9913.493,-28645.225,-18112.469,-21186.809
1316875.4936994864,-50547.04,-85291.305,-38896.812,-21839.031,-9904.135,-28645.916,-18111.857,-21183.229
1316875.4976994812,-50548.34,-85282.63,-38899.54,-21835.613,-9907.39,-28643.84,-18108.357,-21176.637
1316875.5016994763,-50552.574,-85301.76,-38903.32,-21857.139,-9919.149,-28643.027,-18103.68,-21165.04
1316875.5056994713,-50561.08,-85325.69,-38905.52,-21873.617,-9921.835,-28643.352,-18098.553,-21153.688
1316875.5096994662,-50555.258,-85315.11,-38900.637,-21861.857,-9907.959,-28643.84,-18098.959,-21156.047
1316875.5136994612,-50545.656,-85286.5,-38895.754,-21838.867,-9896.892,-28645.834,-18098.715,-21156.17
1316875.517699456,-50547.0,-85279.09,-38899.414,-21836.387,-9901.896,-28644.287,-18097.127,-21154.053
1316875.5216994511,-50555.055,-85300.7,-38903.688,-21858.115,-9916.301,-28640.91,-18094.93,-21152.508
1316875.525699446,-50559.246,-85323.125,-38903.445,-21873.455,-9921.631,-28641.357,-18097.78,-21161.336
1316875.529699441,-50553.55,-85315.72,-38898.562,-21863.852,-9913.371,-28641.44,-18099.691,-21168.254
1316875.533699436,-50549.36,-85293.375,-38895.754,-21842.285,-9906.779,-28643.475,-18102.662,-21177.775
1316875.537699431,-50546.31,-85278.08,-38897.867,-21837.402,-9906.576,-28643.434,-18103.883,-21181.316
1316875.541699426,-50555.504,-85298.586,-38906.168,-21853.76,-9915.854,-28639.61,-18101.645,-21177.775
1316875.5456994209,-50565.39,-85327.92,-38910.562,-21868.816,-9921.997,-28638.145,-18102.377,-21186.605
1316875.549699416,-50568.156,-85327.35,-38907.96,-21862.957,-9917.766,-28641.236,-18107.748,-21195.883
1316875.553699411,-50560.47,-85299.93,-38901.207,-21840.373,-9903.402,-28643.027,-18110.027,-21201.336
1316875.5576994058,-50553.55,-85282.27,-38901.613,-21834.717,-9903.442,-28643.434,-18113.484,-21205.078
1316875.561699401,-50558.105,-85299.32,-38908.53,-21855.957,-9916.423,-28642.375,-18114.99,-21202.393
1316875.5656993957,-50564.863,-85322.63,-38906.902,-21870.484,-9924.4795,-28641.318,-18114.299,-21198.65
1316875.5696993908,-50563.887,-85316.33,-38902.832,-21863.486,-9916.626,-28642.254,-18116.252,-21195.436
1316875.5736993856,-50556.6,-85290.086,-38900.516,-21841.146,-9905.233,-28645.996,-18119.914,-21199.504
1316875.5776993807,-50555.586,-85283.04,-38903.08,-21836.305,-9908.773,-28648.479,-18118.775,-21198.445
1316875.5816993758,-50564.25,-85306.36,-38908.246,-21852.865,-9920.614,-28647.137,-18111.695,-21185.75
1316875.5856993706,-50566.33,-85323.53,-38906.008,-21866.822,-9919.882,-28644.043,-18100.83,-21168.621
1316875.5896993657,-50555.992,-85304.69,-38898.277,-21853.477,-9904.541,-28644.857,-18098.715,-21168.904
1316875.5936993605,-50549.316,-85277.266,-38896.688,-21832.48,-9896.933,-28647.99,-18100.057,-21174.236
1316875.5976993556,-50549.727,-85269.05,-38902.67,-21828.654,-9900.635,-28645.305,-18095.947,-21165.283
1316875.6016993506,-50556.113,-85290.29,-38906.332,-21850.383,-9913.818,-28640.79,-18091.92,-21159.018
1316875.6056993455,-50567.465,-85315.31,-38910.562,-21868.164,-9919.189,-28638.389,-18088.746,-21154.338
1316875.6096993405,-50568.93,-85311.04,-38909.02,-21857.627,-9911.296,-28643.148,-18095.826,-21165.365
1316875.6136993354,-50566.49,-85293.664,-38906.656,-21835.979,-9902.832,-28647.91,-18103.516,-21176.596
1316875.6176993304,-50564.617,-85285.24,-38906.94,-21829.428,-9906.901,-28649.455,-18105.795,-21181.355
1316875.6216993253,-50563.4,-85291.75,-38908.082,-21848.105,-9915.568,-28646.934,-18101.441,-21173.584
1316875.6256993203,-50569.01,-85309.086,-38909.14,-21866.13,-9922.119,-28647.34,-18102.092,-21175.822
1316875.6296993154,-50570.234,-85306.32,-38906.047,-21856.445,-9912.069,-28645.469,-18102.947,-21178.834
1316875.6336993102,-50566.12,-85280.195,-38904.5,-21833.74,-9900.554,-28646.69,-18108.154,-21189.332
1316875.6376993053,-50568.117,-85272.38,-38911.54,-21828.451,-9905.844,-28646.404,-18110.637,-21195.8
1316875.6416993001,-50583.133,-85301.07,-38922.242,-21851.97,-9918.417,-28643.066,-18108.154,-21195.068
1316875.6456992952,-50590.7,-85323.445,-38919.637,-21868.043,-9923.788,-28641.643,-18107.422,-21194.744
1316875.6496992903,-50585.37,-85317.43,-38912.477,-21857.83,-9918.173,-28644.125,-18110.76,-21194.336
1316875.6536992851,-50580.203,-85294.72,-38912.965,-21837.078,-9907.919,-28648.072,-18117.146,-21201.13
1316875.6576992802,-50577.07,-85279.34,-38911.703,-21831.666,-9909.221,-28650.555,-18117.555,-21196.33
1316875.661699275,-50576.5,-85289.47,-38909.465,-21848.35,-9917.44,-28649.334,-18110.352,-21188.844
1316875.66569927,-50583.09,-85305.83,-38908.043,-21862.834,-9917.48,-28647.096,-18103.883,-21180.46
1316875.669699265,-50590.984,-85306.234,-38909.344,-21857.83,-9913.696,-28649.049,-18104.818,-21179.443
1316875.67369926,-50585.004,-85280.44,-38910.2,-21836.59,-9901.9375,-28650.146,-18109.172,-21186.97
1316875.677699255,-50577.395,-85264.125,-38913.777,-21829.428,-9899.821,-28646.363,-18104.94,-21180.908
1316875.68169925,-50582.887,-85281.945,-38925.945,-21850.709,-9912.68,-28643.799,-18100.465,-21173.34
1316875.685699245,-50596.56,-85307.7,-38928.223,-21868.328,-9920.248,-28637.736,-18092.732,-21161.744
1316875.6896992398,-50600.953,-85305.055,-38922.04,-21859.66,-9912.069,-28639.04,-18090.617,-21159.059
1316875.6936992349,-50589.277,-85274.01,-38916.953,-21836.182,-9902.019,-28643.76,-18095.174,-21163.818
1316875.69769923,-50590.58,-85268.03,-38918.945,-21829.916,-9904.663,-28645.63,-18097.982,-21165.854
1316875.7016992248,-50598.43,-85288.54,-38923.504,-21851.238,-9913.412,-28646.281,-18098.797,-21165.61
1316875.7056992198,-50610.434,-85311.484,-38926.8,-21868.531,-9916.708,-28650.555,-18104.94,-21173.543
1316875.7096992147,-50611.53,-85306.16,-38923.953,-21856.121,-9910.93,-28655.438,-18112.834,-21183.797
1316875.7136992097,-50605.105,-85278.08,-38919.027,-21829.834,-9901.408,-28654.867,-18114.666,-21189.453
1316875.7176992046,-50603.76,-85267.984,-38921.67,-21828.574,-9903.646,-28654.95,-18115.643,-21197.795
1316875.7216991996,-50612.02,-85284.38,-38928.387,-21851.686,-9915.202,-28651.246,-18114.258,-21198.568
1316875.7256991947,-50619.71,-85305.87,-38932.008,-21870.037,-9917.969,-28648.316,-18112.387,-21197.795
1316875.7296991895,-50622.4,-85306.27,-38931.152,-21861.94,-9909.384,-28645.713,-18109.498,-21195.76
1316875.7336991846,-50621.016,-85286.3,-38931.723,-21840.74,-9899.984,-28645.387,-18110.271,-21196.045
1316875.7376991794,-50619.754,-85274.5,-38937.01,-21837.24,-9905.518,-28646.607,-18109.416,-21188.72
1316875.7416991745,-50629.926,-85296.266,-38941.69,-21860.271,-9916.626,-28646.484,-18107.91,-21184.326
1316875.7456991696,-50637.777,-85316.41,-38939.25,-21874.309,-9918.905,-28645.713,-18106.934,-21186.32
1316875.7496991644,-50635.336,-85309.05,-38933.39,-21861.613,-9910.034,-28649.455,-18109.54,-21190.145
1316875.7536991595,-50630.656,-85290.57,-38929.402,-21839.031,-9900.757,-28653.77,-18113.363,-21193.645
1316875.7576991543,-50631.348,-85282.516,-38931.64,-21831.34,-9903.809,-28656.047,-18111.898,-21189.656
1316875.7616991494,-50639.203,-85299.56,-38937.01,-21850.709,-9918.213,-28654.338,-18105.104,-21180.258
1316875.7656991445,-50647.79,-85320.68,-38938.68,-21867.84,-9928.345,-28651.408,-18098.023,-21170.41
1316875.7696991393,-50646.324,-85312.46,-38933.023,-21856.975,-9918.539,-28650.146,-18094.441,-21168.498
1316875.7736991344,-50640.668,-85288.66,-38932.984,-21835.693,-9908.122,-28651.693,-18094.564,-21170.533
1316875.7776991292,-50642.703,-85283.57,-38940.918,-21836.264,-9912.558,-28652.305,-18096.395,-21174.195
1316875.7816991243,-50660.523,-85311.81,-38949.26,-21862.51,-9925.131,-28647.46,-18093.303,-21174.48
1316875.785699119,-50671.55,-85333.21,-38951.66,-21879.273,-9929.484,-28645.834,-18096.07,-21175.416
1316875.7896991142,-50664.31,-85320.11,-38943.523,-21867.637,-9919.434,-28648.031,-18103.516,-21183.676
1316875.7936991092,-50656.13,-85294.234,-38937.83,-21844.605,-9909.872,-28651.205,-18109.701,-21191.041
1316875.797699104,-50652.47,-85282.88,-38938.355,-21836.346,-9911.459,-28652.629,-18110.027,-21187.703
1316875.8016990991,-50656.21,-85299.12,-38940.348,-21856.527,-9920.614,-28650.188,-18104.29,-21174.398
1316875.805699094,-50659.547,-85314.62,-38940.555,-21871.582,-9922.974,-28647.705,-18101.686,-21174.154
1316875.809699089,-50658.895,-85309.41,-38937.418,-21860.8,-9912.802,-28649.334,-18105.428,-21184.45
1316875.813699084,-50647.098,-85281.05,-38933.15,-21837.688,-9902.385,-28654.338,-18113.973,-21195.15
1316875.817699079,-50648.848,-85274.13,-38938.883,-21832.764,-9906.088,-28656.17,-18115.643,-21199.422
1316875.821699074,-50666.3,-85303.14,-38947.594,-21855.348,-9919.353,-28651.693,-18109.498,-21192.912
1316875.8256990688,-50681.234,-85331.42,-38950.44,-21876.344,-9925.212,-28649.578,-18104.533,-21190.145
1316875.829699064,-50679.89,-85324.18,-38948.12,-21865.316,-9916.952,-28651.693,-18109.54,-21199.016
1316875.8336990587,-50669.844,-85294.76,-38947.633,-21841.797,-9906.169,-28654.623,-18114.055,-21202.84
1316875.8376990538,-50665.367,-85284.1,-38948.242,-21835.246,-9909.302,-28655.967,-18113.281,-21199.178
1316875.8416990489,-50669.312,-85300.336,-38951.906,-21854.533,-9920.126,-28651.775,-18106.365,-21191.977
1316875.8456990437,-50681.4,-85329.51,-38954.387,-21872.803,-9926.88,-28650.555,-18101.766,-21185.955
1316875.8496990388,-50680.016,-85323.94,-38947.51,-21862.305,-9919.394,-28652.06,-18104.207,-21187.215
1316875.8536990336,-50673.707,-85299.766,-38941.203,-21838.95,-9909.831,-28652.1,-18105.104,-21186.2
1316875.8576990287,-50674.6,-85291.266,-38942.63,-21833.416,-9912.191,-28651.49,-18102.498,-21179.81
1316875.8616990237,-50681.926,-85312.13,-38948.082,-21853.395,-9924.561,-28649.334,-18099.285,-21169.393
1316875.8656990186,-50684.164,-85327.48,-38948.895,-21870.281,-9926.392,-28647.705,-18098.43,-21165.242
1316875.8696990137,-50682.13,-85316.98,-38946.82,-21861.207,-9913.005,-28648.926,-18102.092,-21171.143
1316875.8736990085,-50675.336,-85290.125,-38948.242,-21838.787,-9900.879,-28650.066,-18104.818,-21174.928
1316875.8776990036,-50672.527,-85275.15,-38953.37,-21831.422,-9901.408,-28652.588,-18109.375,-21184.652
1316875.8816989984,-50686.363,-85298.22,-38961.63,-21852.703,-9914.592,-28650.555,-18109.822,-21192.098
1316875.8856989935,-50700.32,-85325.766,-38962.484,-21870.77,-9923.584,-28648.154,-18109.213,-21197.389
1316875.8896989885,-50695.516,-85323.164,-38953.656,-21861.736,-9917.277,-28649.902,-18109.09,-21200.807
1316875.8936989834,-50683.23,-85297.28,-38944.336,-21837.525,-9906.982,-28654.338,-18111.816,-21203.29
1316875.8976989784,-50676.35,-85283.9,-38941.855,-21830.852,-9910.238,-28655.967,-18112.713,-21202.148
1316875.9016989733,-50679.73,-85301.76,-38945.273,-21850.627,-9924.846,-28654.46,-18109.66,-21195.516
1316875.9056989683,-50687.5,-85324.47,-38946.004,-21869.264,-9931.682,-28652.182,-18106.73,-21191.041
1316875.9096989634,-50688.64,-85319.79,-38941.812,-21861.207,-9924.398,-28650.473,-18102.824,-21189.535
1316875.9136989582,-50684.285,-85298.71,-38937.582,-21840.17,-9914.226,-28652.182,-18102.783,-21191.162
1316875.9176989533,-50678.59,-85285.73,-38939.74,-21835.043,-9911.784,-28654.46,-18104.127,-21189.006
1316875.9216989481,-50685.914,-85305.22,-38949.3,-21858.154,-9923.178,-28653.85,-18102.986,-21186.076
1316875.9256989432,-50702.15,-85332.32,-38955.04,-21877.28,-9929.443,-28650.879,-18099.61,-21185.832
1316875.929698938,-50708.7,-85337.08,-38956.668,-21870.361,-9927.897,-28652.752,-18100.424,-21185.223
1316875.933698933,-50703.41,-85317.38,-38956.258,-21849.773,-9919.76,-28656.494,-18106.568,-21192.018
1316875.9376989282,-50691.285,-85297.9,-38954.633,-21840.617,-9917.725,-28659.832,-18111.94,-21200.562
1316875.941698923,-50691.61,-85306.44,-38957.805,-21857.504,-9929.159,-28659.629,-18111.898,-21197.754
1316875.945698918,-50702.84,-85329.59,-38956.137,-21874.064,-9935.791,-28659.018,-18111.654,-21196.127
1316875.949698913,-50713.137,-85332.93,-38955.16,-21868.37,-9932.251,-28659.547,-18112.143,-21198.283
1316875.953698908,-50710.53,-85314.17,-38953.816,-21847.412,-9926.921,-28660.93,-18115.316,-21204.305
1316875.957698903,-50703.453,-85303.39,-38953.613,-21841.309,-9929.484,-28661.662,-18114.217,-21199.871
1316875.9616988979,-50702.76,-85315.19,-38956.95,-21862.346,-9936.687,-28658.652,-18106.812,-21191.61
1316875.965698893,-50701.375,-85323.33,-38953.41,-21876.709,-9932.902,-28655.273,-18103.76,-21192.791
1316875.9696988878,-50699.098,-85317.34,-38949.465,-21864.951,-9922.893,-28658.53,-18109.578,-21201.62
1316875.9736988829,-50706.668,-85304.2,-38952.72,-21846.965,-9915.609,-28661.256,-18116.943,-21214.234
1316875.9776988777,-50714.438,-85305.83,-38955.61,-21844.035,-9922.363,-28662.477,-18121.541,-21220.418
1316875.9816988728,-50714.113,-85325.805,-38957.438,-21862.672,-9936.279,-28660.523,-18117.92,-21215.291
1316875.9856988678,-50714.887,-85343.59,-38957.645,-21879.111,-9941.162,-28658.367,-18113.729,-21208.863
1316875.9896988627,-50709.758,-85330.445,-38957.723,-21871.502,-9930.949,-28657.268,-18111.816,-21204.143
1316875.9936988577,-50706.668,-85306.12,-38963.176,-21851.93,-9923.462,-28658.203,-18112.143,-21201.945
1316875.9976988526,-50711.305,-85306.84,-38966.35,-21847.697,-9930.502,-28659.873,-18112.225,-21201.824
1316876.0016988476,-50713.91,-85326.375,-38964.113,-21863.975,-9941.813,-28658.53,-18106.568,-21193.523
1316876.0056988427,-50713.3,-85339.69,-38956.016,-21874.717,-9942.139,-28657.756,-18101.848,-21186.117
1316876.0096988375,-50711.47,-85338.016,-38947.754,-21862.875,-9933.635,-28660.32,-18105.104,-21190.756
1316876.0136988326,-50708.17,-85314.21,-38942.63,-21840.861,-9923.137,-28664.062,-18111.898,-21196.818
1316876.0176988274,-50702.35,-85296.39,-38942.832,-21835.816,-9920.98,-28664.795,-18116.537,-21203.898
1316876.0216988225,-50706.34,-85311.12,-38950.766,-21857.342,-9932.333,-28661.785,-18116.902,-21207.357
1316876.0256988176,-50713.34,-85328.94,-38955.16,-21874.96,-9937.826,-28658.611,-18113.525,-21206.219
1316876.0296988124,-50715.375,-85326.13,-38955.203,-21866.13,-9931.152,-28657.797,-18113.77,-21206.99
1316876.0336988075,-50712.73,-85306.766,-38953.695,-21845.135,-9923.991,-28658.773,-18116.7,-21213.826
1316876.0376988023,-50714.4,-85305.55,-38953.9,-21837.932,-9930.583,-28660.85,-18117.025,-21213.42
1316876.0416987974,-50717.45,-85325.24,-38952.965,-21857.586,-9942.709,-28659.262,-18112.469,-21205.078
1316876.0456987922,-50723.918,-85347.86,-38948.65,-21875.977,-9944.499,-28657.715,-18107.219,-21197.998
1316876.0496987873,-50724.285,-85351.04,-38940.473,-21869.14,-9936.198,-28655.926,-18104.412,-21196.248
1316876.0536987823,-50712.73,-85322.836,-38935.1,-21845.541,-9922.526,-28658.896,-18109.172,-21204.916
1316876.0576987772,-50708.17,-85305.46,-38938.438,-21838.828,-9920.248,-28658.488,-18108.195,-21203.29
1316876.0616987722,-50715.496,-85322.76,-38947.348,-21858.848,-9931.804,-28654.867,-18102.947,-21198.65
1316876.065698767,-50727.336,-85344.73,-38954.305,-21876.426,-9940.837,-28651.693,-18100.139,-21195.68
1316876.0696987621,-50734.742,-85353.88,-38957.52,-21871.258,-9937.907,-28652.832,-18104.695,-21203.125
1316876.0736987572,-50724.043,-85330.2,-38951.66,-21847.982,-9931.804,-28657.146,-18114.422,-21217.693
1316876.077698752,-50714.56,-85315.516,-38947.957,-21841.594,-9932.292,-28655.844,-18114.584,-21217.53
1316876.0816987471,-50726.24,-85338.914,-38951.99,-21863.445,-9945.679,-28651.49,-18107.38,-21206.463
1316876.085698742,-50735.84,-85352.87,-38952.066,-21879.03,-9947.876,-28648.52,-18100.627,-21196.941
1316876.089698737,-50729.414,-85336.96,-38943.36,-21868.246,-9933.146,-28649.334,-18096.883,-21189.82
1316876.0936987319,-50717.45,-85312.55,-38937.01,-21843.914,-9920.939,-28653.525,-18096.518,-21186.076
1316876.097698727,-50712.363,-85301.31,-38935.02,-21834.107,-9920.085,-28653.443,-18094.564,-21180.95
1316876.101698722,-50717.246,-85317.75,-38937.83,-21853.271,-9934.123,-28650.96,-18090.291,-21171.428
1316876.1056987168,-50718.832,-85337.04,-38937.664,-21868.084,-9938.314,-28649.17,-18086.834,-21165.812
1316876.109698712,-50716.84,-85329.1,-38934.246,-21860.393,-9928.915,-28649.943,-18087.85,-21166.219
1316876.1136987067,-50711.47,-85304.65,-38932.902,-21839.316,-9917.644,-28652.426,-18094.158,-21170.125
1316876.1176987018,-50716.51,-85301.48,-38938.844,-21833.375,-9924.194,-28654.258,-18100.22,-21174.764
1316876.1216986969,-50731.61,-85325.08,-38948.242,-21853.516,-9938.925,-28653.158,-18101.156,-21181.275
1316876.1256986917,-50742.676,-85353.766,-38949.465,-21872.438,-9945.964,-28649.902,-18098.918,-21182.21
1316876.1296986868,-50742.23,-85347.945,-38949.06,-21865.723,-9939.006,-28650.066,-18103.963,-21192.506
1316876.1336986816,-50738.812,-85322.47,-38950.848,-21844.2,-9925.903,-28651.979,-18108.154,-21203.492
1316876.1376986767,-50742.312,-85315.836,-38952.72,-21838.258,-9926.84,-28650.432,-18105.633,-21205.607
1316876.1416986715,-50750.082,-85334.03,-38954.348,-21856.65,-9938.803,-28648.357,-18099.53,-21202.068
1316876.1456986666,-50748.66,-85348.43,-38947.633,-21869.873,-9943.808,-28648.56,-18095.135,-21195.395
1316876.1496986616,-50737.1,-85337.65,-38934.695,-21859.416,-9931.885,-28649.781,-18092.896,-21190.674
1316876.1536986565,-50727.703,-85310.51,-38927.816,-21835.775,-9921.428,-28650.555,-18091.229,-21187.908
1316876.1576986515,-50731.73,-85302.37,-38932.863,-21829.875,-9921.55,-28650.555,-18088.908,-21183.229
1316876.1616986464,-50748.047,-85328.01,-38942.832,-21854.33,-9934.978,-28648.438,-18084.188,-21176.96
1316876.1656986414,-50756.918,-85347.62,-38945.598,-21874.268,-9940.837,-28645.916,-18079.59,-21171.021
1316876.1696986365,-50757.367,-85344.73,-38943.32,-21865.44,-9933.554,-28644.857,-18079.916,-21171.957
1316876.1736986313,-50756.96,-85326.91,-38940.594,-21844.158,-9924.846,-28643.88,-18082.764,-21175.213
1316876.1776986264,-50751.387,-85309.9,-38938.68,-21835.084,-9924.398,-28644.287,-18086.834,-21178.223
1316876.1816986213,-50749.88,-85321.945,-38938.19,-21853.068,-9934.286,-28643.066,-18084.393,-21176.596
1316876.1856986163,-50753.5,-85342.2,-38934.773,-21869.752,-9938.925,-28639.812,-18079.102,-21169.88
1316876.1896986112,-50750.45,-85337.32,-38930.055,-21860.19,-9929.565,-28641.357,-18080.16,-21173.625
1316876.1936986062,-50747.113,-85314.78,-38930.543,-21837.443,-9918.986,-28646.484,-18084.107,-21179.77
1316876.1976986013,-50745.2,-85297.61,-38933.39,-21831.096,-9918.905,-28647.502,-18087.322,-21182.902
1316876.2016985961,-50755.047,-85314.945,-38942.465,-21850.627,-9930.176,-28646.69,-18086.59,-21179.443
1316876.2056985912,-50767.863,-85341.64,-38946.332,-21869.14,-9938.273,-28648.398,-18087.117,-21178.834
1316876.209698586,-50767.99,-85341.76,-38941.812,-21862.305,-9928.264,-28649.74,-18089.031,-21180.502
1316876.213698581,-50754.76,-85317.266,-38931.48,-21836.182,-9914.104,-28651.043,-18093.1,-21183.676
1316876.2176985762,-50751.59,-85306.97,-38929.605,-21828.29,-9917.399,-28652.182,-18095.662,-21185.385
1316876.221698571,-50759.156,-85327.516,-38931.195,-21848.186,-9931.274,-28646.934,-18089.355,-21176.758
1316876.225698566,-50767.457,-85346.88,-38932.13,-21865.479,-9937.785,-28645.305,-18086.996,-21171.021
1316876.229698561,-50767.293,-85340.54,-38930.22,-21860.19,-9929.077,-28645.916,-18087.117,-21172.566
1316876.233698556,-50759.97,-85312.87,-38927.086,-21837.037,-9917.48,-28645.63,-18087.24,-21171.346
1316876.2376985508,-50755.13,-85299.52,-38927.41,-21831.096,-9919.271,-28644.451,-18086.549,-21168.377
1316876.2416985459,-50757.61,-85318.81,-38930.91,-21849.732,-9933.432,-28642.701,-18080.322,-21157.268
1316876.245698541,-50762.207,-85339.03,-38930.094,-21867.352,-9938.029,-28642.213,-18076.254,-21153.443
1316876.2496985358,-50756.31,-85325.85,-38922.566,-21854.697,-9927.206,-28641.969,-18072.592,-21152.182
1316876.2536985308,-50748.74,-85298.1,-38917.074,-21830.201,-9915.161,-28641.725,-18072.795,-21154.705
1316876.2576985257,-50749.15,-85288.945,-38924.03,-21825.521,-9916.464,-28641.521,-18073.406,-21155.559
1316876.2616985207,-50763.633,-85310.75,-38934.41,-21846.03,-9931.193,-28640.586,-18072.469,-21154.744
1316876.2656985158,-50779.01,-85334.96,-38940.918,-21864.258,-9938.681,-28639.365,-18073.895,-21160.97
1316876.2696985106,-50785.36,-85333.7,-38939.74,-21858.36,-9932.536,-28639.69,-18077.963,-21167.48
1316876.2736985057,-50791.18,-85317.79,-38935.508,-21838.176,-9926.799,-28642.01,-18083.375,-21176.596
1316876.2776985005,-50792.523,-85308.23,-38932.66,-21832.398,-9929.281,-28643.434,-18085.205,-21175.822
1316876.2816984956,-50802.043,-85325.97,-38934.773,-21853.191,-9940.715,-28641.154,-18079.713,-21169.557
1316876.2856984907,-50812.746,-85348.555,-38933.96,-21869.264,-9944.824,-28639.283,-18074.057,-21166.83
1316876.2896984855,-50807.254,-85336.8,-38928.875,-21861.41,-9937.5,-28639.365,-18076.945,-21171.875
1316876.2936984806,-50799.684,-85308.76,-38926.883,-21838.543,-9925.415,-28640.586,-18080.893,-21173.504
1316876.2976984754,-50798.87,-85302.164,-38929.363,-21832.725,-9923.584,-28642.01,-18084.066,-21172.73
1316876.3016984705,-50801.473,-85320.03,-38931.766,-21850.83,-9938.192,-28640.951,-18085.408,-21170.125
1316876.3056984653,-50799.4,-85337.52,-38930.016,-21866.537,-9942.139,-28640.586,-18087.484,-21172.771
1316876.3096984604,-50795.086,-85332.64,-38925.945,-21859.13,-9935.71,-28642.66,-18092.082,-21174.764
1316876.3136984555,-50784.793,-85306.89,-38920.656,-21833.863,-9924.357,-28642.05,-18091.96,-21173.625
1316876.3176984503,-50783.164,-85296.305,-38926.11,-21828.166,-9922.485,-28641.521,-18089.682,-21167.684
1316876.3216984454,-50791.87,-85314.375,-38935.71,-21848.959,-9933.676,-28640.422,-18086.71,-21162.557
1316876.3256984402,-50803.508,-85338.09,-38941.49,-21866.822,-9941.081,-28641.113,-18082.031,-21158.285
1316876.3296984353,-50802.125,-85335.05,-38938.56,-21860.027,-9931.967,-28640.79,-18076.58,-21153.24
1316876.3336984303,-50795.25,-85313.36,-38934.695,-21837.729,-9921.631,-28640.992,-18074.992,-21155.438
1316876.3376984252,-50791.87,-85302.125,-38932.66,-21829.875,-9922.079,-28639.201,-18069.824,-21150.676
1316876.3416984202,-50795.125,-85321.125,-38933.96,-21850.262,-9939.169,-28636.354,-18063.885,-21143.434
1316876.345698415,-50797.65,-85340.336,-38932.66,-21866.293,-9945.923,-28635.295,-18062.826,-21142.781
1316876.3496984101,-50798.26,-85340.375,-38929.08,-21859.945,-9941.081,-28638.633,-18069.174,-21153.24
1316876.353698405,-50795.82,-85322.63,-38925.945,-21839.805,-9932.617,-28640.422,-18077.19,-21164.389
1316876.3576984,-50792.848,-85313.805,-38927.086,-21830.975,-9932.943,-28642.01,-18081.828,-21170.695
1316876.361698395,-50797.895,-85328.82,-38934.367,-21850.303,-9941.772,-28641.969,-18082.643,-21174.195
1316876.36569839,-50806.152,-85348.8,-38938.19,-21867.84,-9945.842,-28642.457,-18084.92,-21177.002
1316876.369698385,-50800.62,-85339.805,-38929.934,-21853.232,-9931.112,-28641.807,-18082.764,-21174.684
1316876.3736983798,-50793.094,-85314.7,-38926.883,-21831.422,-9917.766,-28643.31,-18080.322,-21171.51
1316876.377698375,-50790.977,-85302.62,-38926.8,-21825.033,-9916.748,-28640.87,-18076.701,-21164.715
1316876.38169837,-50786.785,-85310.23,-38924.44,-21841.635,-9928.345,-28637.86,-18072.469,-21158.203
1316876.3856983648,-50783.773,-85324.305,-38918.62,-21856.162,-9935.832,-28636.11,-18070.11,-21154.256
1316876.3896983599,-50784.668,-85321.9,-38911.785,-21848.105,-9926.188,-28637.004,-18075.236,-21160.523
1316876.3936983547,-50781.902,-85302.125,-38910.77,-21825.969,-9916.138,-28641.643,-18085.979,-21167.4
1316876.3976983498,-50778.363,-85293.22,-38913.74,-21820.762,-9921.225,-28646.607,-18096.762,-21177.734
1316876.4016983446,-50784.87,-85313.4,-38919.516,-21841.879,-9936.401,-28644.98,-18095.785,-21176.229
1316876.4056983397,-50794.516,-85335.94,-38922.16,-21857.748,-9942.871,-28640.79,-18091.268,-21170.004
1316876.4096983348,-50795.047,-85331.26,-38919.15,-21848.145,-9933.513,-28639.404,-18086.873,-21169.19
1316876.4136983296,-50791.18,-85307.664,-38917.24,-21826.621,-9923.381,-28640.91,-18082.113,-21168.986
1316876.4176983247,-50789.43,-85297.125,-38920.98,-21823.406,-9926.718,-28640.707,-18078.572,-21167.969
1316876.4216983195,-50794.844,-85316.0,-38927.695,-21844.727,-9940.634,-28636.963,-18069.215,-21161.377
1316876.4256983146,-50800.008,-85335.21,-38928.996,-21862.346,-9942.261,-28633.3,-18055.787,-21147.746
1316876.4296983096,-50794.56,-85328.29,-38921.793,-21852.215,-9930.502,-28631.186,-18046.63,-21140.422
1316876.4336983045,-50784.26,-85300.664,-38912.395,-21829.59,-9917.277,-28629.762,-18042.48,-21134.93
1316876.4376982995,-50779.094,-85286.09,-38913.414,-21820.965,-9915.935,-28630.047,-18043.457,-21130.494
1316876.4416982944,-50788.617,-85309.125,-38920.98,-21840.088,-9928.061,-28628.418,-18043.986,-21127.197
1316876.4456982894,-50799.44,-85331.1,-38926.11,-21858.074,-9932.617,-28627.646,-18047.648,-21130.006
1316876.4496982843,-50802.613,-85328.66,-38928.47,-21853.395,-9928.549,-28630.168,-18058.432,-21138.184
1316876.4536982793,-50799.113,-85310.34,-38928.836,-21833.375,-9925.131,-28634.889,-18070.11,-21148.072
1316876.4576982744,-50795.207,-85298.51,-38929.89,-21825.195,-9929.037,-28636.963,-18077.475,-21150.879
1316876.4616982692,-50796.387,-85310.75,-38935.223,-21843.955,-9939.331,-28636.842,-18080.037,-21149.455
1316876.4656982643,-50805.543,-85329.266,-38936.65,-21861.533,-9946.045,-28638.877,-18081.584,-21144.979
1316876.4696982591,-50802.938,-85324.51,-38930.094,-21850.953,-9936.687,-28641.928,-18087.443,-21150.188
1316876.4736982542,-50791.22,-85299.52,-38922.28,-21827.148,-9920.898,-28644.531,-18093.832,-21158.611
1316876.4776982493,-50786.867,-85284.586,-38920.86,-21819.092,-9918.295,-28644.695,-18094.076,-21160.97
1316876.481698244,-50794.72,-85303.836,-38926.84,-21838.746,-9928.996,-28645.305,-18088.623,-21153.688
1316876.4856982392,-50800.254,-85327.03,-38923.746,-21855.186,-9934.733,-28642.457,-18079.469,-21149.414
1316876.489698234,-50797.773,-85323.33,-38917.277,-21845.379,-9929.443,-28639.201,-18073.201,-21156.453
1316876.493698229,-50798.34,-85304.04,-38918.17,-21824.098,-9920.532,-28637.168,-18069.824,-21156.697
1316876.497698224,-50802.37,-85299.85,-38929.812,-21821.86,-9925.334,-28638.104,-18072.55,-21161.662
1316876.501698219,-50815.27,-85322.72,-38941.53,-21843.955,-9940.349,-28634.074,-18069.418,-21158.123
1316876.505698214,-50826.05,-85345.3,-38947.266,-21863.12,-9945.923,-28632.568,-18069.256,-21159.424
1316876.509698209,-50827.92,-85345.664,-38948.04,-21857.545,-9946.289,-28635.336,-18074.951,-21165.324
1316876.513698204,-50827.76,-85332.484,-38947.31,-21839.111,-9941.65,-28635.742,-18077.352,-21166.668
1316876.5176981988,-50827.883,-85325.97,-38950.195,-21833.578,-9942.302,-28635.295,-18078.004,-21167.766
1316876.5216981939,-50828.9,-85340.54,-38951.297,-21850.262,-9952.881,-28634.482,-18074.951,-21164.51
1316876.525698189,-50824.504,-85348.39,-38945.19,-21861.572,-9951.091,-28636.598,-18073.08,-21157.594
1316876.5296981838,-50816.49,-85338.09,-38937.01,-21848.715,-9939.494,-28641.602,-18075.604,-21161.418
1316876.5336981788,-50812.42,-85317.06,-38932.7,-21828.857,-9927.938,-28648.357,-18082.113,-21165.812
1316876.5376981737,-50807.17,-85299.36,-38932.66,-21818.32,-9923.584,-28650.879,-18085.816,-21165.568
1316876.5416981687,-50810.426,-85310.836,-38935.344,-21833.984,-9932.333,-28648.764,-18083.537,-21157.35
1316876.5456981636,-50820.477,-85334.234,-38934.33,-21853.027,-9939.331,-28645.305,-18079.428,-21153.361
1316876.5496981586,-50823.445,-85335.9,-38931.723,-21849.0,-9937.744,-28642.945,-18078.736,-21152.752
1316876.5536981537,-50818.117,-85320.11,-38928.957,-21827.557,-9933.269,-28644.775,-18080.607,-21158.65
1316876.5576981485,-50813.273,-85310.18,-38931.723,-21820.03,-9932.699,-28645.957,-18079.916,-21156.17
1316876.5616981436,-50823.61,-85325.65,-38943.156,-21840.7,-9944.906,-28644.451,-18076.295,-21149.334
1316876.5656981384,-50833.62,-85345.75,-38946.004,-21858.48,-9950.806,-28639.283,-18068.115,-21139.324
1316876.5696981335,-50831.465,-85340.62,-38940.715,-21847.82,-9943.075,-28639.61,-18064.373,-21136.23
1316876.5736981286,-50823.977,-85316.94,-38938.438,-21825.521,-9930.705,-28642.416,-18066.041,-21137.86
1316876.5776981234,-50821.13,-85304.41,-38939.496,-21818.076,-9928.101,-28642.66,-18065.633,-21138.713
1316876.5816981185,-50826.703,-85319.79,-38942.508,-21835.979,-9937.582,-28640.38,-18062.459,-21135.418
1316876.5856981133,-50831.953,-85342.82,-38940.715,-21850.953,-9945.231,-28637.9,-18060.955,-21134.725
1316876.5896981084,-50832.316,-85342.45,-38937.83,-21842.896,-9940.674,-28641.846,-18066.895,-21144.166
1316876.5936981034,-50831.586,-85324.99,-38935.914,-21821.982,-9938.3955,-28644.613,-18074.463,-21159.383
1316876.5976980983,-50835.004,-85319.09,-38940.676,-21816.732,-9940.796,-28644.613,-18078.613,-21168.498
1316876.6016980933,-50842.57,-85339.84,-38947.227,-21835.572,-9952.026,-28640.83,-18078.94,-21173.87
1316876.6056980882,-50844.484,-85353.44,-38947.51,-21850.871,-9954.224,-28639.445,-18080.893,-21180.502
1316876.6096980833,-50840.414,-85339.73,-38943.523,-21843.303,-9942.505,-28642.986,-18085.896,-21187.215
1316876.613698078,-50832.074,-85313.88,-38938.68,-21820.762,-9932.577,-28644.37,-18089.64,-21195.354
1316876.6176980732,-50833.742,-85309.25,-38940.594,-21815.797,-9937.338,-28642.416,-18087.688,-21191.814
1316876.6216980682,-50841.35,-85323.49,-38944.5,-21833.049,-9948.039,-28635.662,-18078.777,-21177.043
1316876.625698063,-50845.5,-85338.22,-38943.402,-21846.314,-9951.132,-28631.756,-18073.568,-21166.016
1316876.6296980581,-50845.055,-85335.05,-38937.46,-21839.885,-9944.662,-28633.22,-18076.986,-21168.904
1316876.633698053,-50836.63,-85314.01,-38931.113,-21817.383,-9932.129,-28636.924,-18081.014,-21170.207
1316876.637698048,-50831.953,-85298.664,-38931.64,-21807.822,-9927.572,-28640.098,-18080.445,-21160.645
1316876.641698043,-50836.266,-85311.65,-38934.207,-21824.18,-9936.401,-28642.01,-18075.766,-21148.805
1316876.645698038,-50840.617,-85336.14,-38934.41,-21839.764,-9940.715,-28641.074,-18070.312,-21137.654
1316876.649698033,-50842.652,-85334.76,-38932.535,-21834.27,-9935.019,-28642.457,-18072.836,-21141.521
1316876.6536980278,-50840.617,-85312.91,-38931.926,-21815.146,-9923.34,-28645.469,-18079.875,-21150.594
1316876.657698023,-50844.85,-85308.96,-38938.477,-21808.676,-9927.653,-28647.137,-18082.479,-21151.082
1316876.6616980177,-50855.754,-85331.1,-38949.098,-21827.842,-9943.237,-28643.799,-18076.701,-21148.723
1316876.6656980128,-50867.555,-85353.64,-38956.055,-21848.797,-9950.195,-28638.957,-18066.447,-21144.898
1316876.6696980079,-50874.434,-85356.734,-38955.566,-21846.314,-9944.621,-28635.133,-18057.293,-21140.504
1316876.6736980027,-50872.48,-85338.46,-38953.74,-21827.678,-9938.11,-28634.889,-18052.898,-21140.3
1316876.6776979978,-50865.234,-85322.02,-38951.375,-21817.1,-9937.907,-28632.08,-18046.875,-21135.906
1316876.6816979926,-50865.48,-85332.84,-38951.785,-21831.91,-9945.761,-28631.43,-18039.062,-21124.35
1316876.6856979877,-50867.555,-85348.8,-38948.445,-21848.064,-9949.382,-28633.262,-18039.348,-21123.332
1316876.6896979827,-50859.62,-85342.57,-38941.61,-21838.99,-9943.034,-28635.54,-18045.94,-21130.209
1316876.6936979776,-50853.027,-85322.63,-38938.152,-21816.855,-9935.059,-28637.615,-18051.96,-21134.889
1316876.6976979726,-50854.574,-85312.18,-38943.402,-21809.531,-9937.582,-28638.998,-18060.059,-21139.201
1316876.7016979675,-50861.86,-85327.195,-38949.098,-21825.928,-9952.148,-28638.389,-18068.523,-21143.719
1316876.7056979625,-50867.96,-85349.53,-38948.773,-21844.523,-9959.392,-28639.08,-18076.62,-21147.42
1316876.7096979574,-50868.652,-85349.29,-38944.54,-21838.014,-9952.312,-28643.148,-18087.77,-21156.82
1316876.7136979525,-50859.863,-85325.28,-38938.844,-21812.012,-9937.378,-28646.12,-18097.86,-21169.922
1316876.7176979475,-50856.406,-85311.77,-38939.656,-21804.77,-9934.082,-28650.188,-18104.451,-21174.398
1316876.7216979424,-50865.03,-85329.06,-38946.13,-21822.186,-9940.756,-28649.943,-18104.777,-21171.021
1316876.7256979374,-50872.07,-85343.63,-38946.695,-21838.664,-9938.232,-28648.926,-18101.645,-21167.562
1316876.7296979323,-50866.902,-85333.62,-38940.797,-21827.637,-9923.137,-28646.404,-18095.662,-21163.697
1316876.7336979273,-50862.996,-85309.9,-38942.06,-21806.072,-9911.377,-28644.695,-18091.473,-21166.3
1316876.7376979224,-50869.184,-85303.875,-38953.94,-21802.734,-9916.138,-28643.352,-18084.229,-21164.51
1316876.7416979172,-50879.316,-85320.805,-38965.414,-21821.941,-9931.967,-28639.445,-18074.707,-21158.203
1316876.7456979123,-50889.16,-85346.52,-38967.043,-21841.146,-9944.092,-28635.459,-18065.918,-21153.484
1316876.7496979071,-50886.434,-85346.766,-38960.45,-21834.555,-9943.4,-28632.854,-18061.564,-21153.076
1316876.7536979022,-50876.223,-85324.83,-38953.41,-21812.908,-9935.222,-28634.97,-18061.89,-21156.129
1316876.757697897,-50875.41,-85316.734,-38953.53,-21807.414,-9941.772,-28638.836,-18060.385,-21154.094
1316876.761697892,-50879.76,-85333.62,-38955.527,-21823.365,-9954.062,-28634.727,-18051.637,-21140.016
1316876.7656978872,-50885.01,-85354.695,-38951.54,-21840.984,-9958.822,-28632.53,-18045.086,-21131.55
1316876.769697882,-50882.367,-85352.46,-38946.98,-21834.758,-9951.66,-28635.215,-18047.648,-21130.291
1316876.773697877,-50877.117,-85333.26,-38947.227,-21813.762,-9939.819,-28637.94,-18054.81,-21136.23
1316876.777697872,-50874.31,-85317.875,-38952.066,-21807.008,-9938.437,-28637.777,-18057.537,-21138.387
1316876.781697867,-50879.723,-85332.56,-38960.45,-21827.76,-9948.405,-28635.824,-18056.275,-21129.436
1316876.785697862,-50883.06,-85349.086,-38962.85,-21841.594,-9948.324,-28635.092,-18058.514,-21128.785
1316876.7896978569,-50883.223,-85350.016,-38959.598,-21833.984,-9937.744,-28637.777,-18065.064,-21136.883
1316876.793697852,-50875.367,-85327.03,-38952.8,-21809.775,-9926.107,-28639.486,-18069.906,-21139.363
1316876.7976978468,-50873.293,-85315.92,-38951.785,-21798.91,-9927.612,-28639.404,-18070.271,-21139.404
1316876.8016978418,-50879.477,-85329.67,-38954.59,-21817.059,-9938.925,-28635.092,-18065.959,-21133.586
1316876.8056978367,-50883.547,-85346.766,-38955.406,-21835.572,-9946.655,-28631.47,-18061.688,-21124.023
1316876.8096978317,-50876.668,-85338.99,-38946.168,-21827.475,-9939.453,-28630.332,-18062.826,-21121.379
1316876.8136978268,-50868.53,-85314.086,-38939.535,-21802.613,-9929.403,-28634.115,-18070.068,-21130.453
1316876.8176978217,-50868.695,-85303.59,-38942.383,-21796.916,-9928.996,-28635.295,-18072.592,-21130.047
1316876.8216978167,-50876.63,-85322.35,-38947.797,-21815.43,-9940.552,-28633.3,-18072.592,-21132.365
1316876.8256978116,-50882.49,-85348.35,-38948.445,-21832.643,-9947.0625,-28631.268,-18072.266,-21138.754
1316876.8296978066,-50879.723,-85343.47,-38947.062,-21826.742,-9937.826,-28631.592,-18073.975,-21147.908
1316876.8336978017,-50877.727,-85324.38,-38948.04,-21806.152,-9926.718,-28631.836,-18074.383,-21156.941
1316876.8376977965,-50881.836,-85316.45,-38955.73,-21800.293,-9928.264,-28630.168,-18070.354,-21162.436
1316876.8416977916,-50890.098,-85333.54,-38964.6,-21818.28,-9939.006,-28625.977,-18062.541,-21162.312
1316876.8456977864,-50897.098,-85355.67,-38966.023,-21834.799,-9943.889,-28620.605,-18058.105,-21163.533
1316876.8496977815,-50896.65,-85354.9,-38961.957,-21826.904,-9939.331,-28619.223,-18059.164,-21165.65
1316876.8536977766,-50889.65,-85331.664,-38958.414,-21807.414,-9933.798,-28622.193,-18065.633,-21171.59
1316876.8576977714,-50883.426,-85319.3,-38957.195,-21796.957,-9937.094,-28622.193,-18066.65,-21166.057
1316876.8616977665,-50888.145,-85335.414,-38958.78,-21813.559,-9951.538,-28620.77,-18067.262,-21165.691
1316876.8656977613,-50892.457,-85351.52,-38960.207,-21833.334,-9957.968,-28619.508,-18066.162,-21158.162
1316876.8696977564,-50889.773,-85350.22,-38955.08,-21827.922,-9951.05,-28619.873,-18066.285,-21150.879
1316876.8736977512,-50879.844,-85324.79,-38951.09,-21803.63,-9938.3955,-28622.723,-18070.15,-21150.146
1316876.8776977463,-50877.688,-85311.445,-38954.062,-21793.498,-9936.809,-28626.1,-18072.674,-21149.21
1316876.8816977413,-50887.656,-85329.43,-38961.426,-21812.217,-9947.0625,-28625.977,-18069.377,-21140.951
1316876.8856977362,-50892.457,-85348.555,-38963.543,-21830.283,-9950.806,-28626.629,-18068.645,-21137.94
1316876.8896977312,-50884.93,-85340.13,-38952.477,-21819.621,-9939.047,-28624.635,-18066.121,-21132.488
1316876.893697726,-50878.297,-85321.62,-38947.43,-21797.363,-9928.874,-28623.943,-18063.314,-21131.023
1316876.8976977211,-50880.21,-85313.52,-38951.254,-21790.244,-9931.519,-28621.135,-18053.63,-21119.549
1316876.9016977162,-50886.844,-85327.92,-38959.188,-21811.035,-9944.133,-28616.416,-18039.55,-21107.625
1316876.905697711,-50895.59,-85350.43,-38962.85,-21829.713,-9949.626,-28613.037,-18030.355,-21102.703
1316876.909697706,-50893.395,-85344.0,-38961.67,-21824.707,-9940.349,-28612.143,-18025.39,-21094.646
1316876.913697701,-50884.688,-85320.195,-38958.62,-21803.467,-9929.037,-28612.469,-18024.455,-21094.809
1316876.917697696,-50882.855,-85307.3,-38961.55,-21792.848,-9927.734,-28612.754,-18025.799,-21096.559
1316876.9216976909,-50886.516,-85320.516,-38964.4,-21809.246,-9938.925,-28612.102,-18025.066,-21095.867
1316876.925697686,-50884.36,-85335.57,-38959.312,-21823.975,-9946.045,-28613.16,-18029.094,-21101.238
1316876.929697681,-50882.367,-85330.445,-38953.53,-21818.645,-9940.023,-28616.496,-18037.883,-21111.084
1316876.9336976758,-50879.598,-85315.63,-38950.887,-21797.12,-9933.146,-28620.77,-18045.574,-21124.023
1316876.937697671,-50876.14,-85308.31,-38949.87,-21787.762,-9932.617,-28621.867,-18046.346,-21126.668
1316876.9416976657,-50879.395,-85323.77,-38951.457,-21803.752,-9940.959,-28615.805,-18038.412,-21119.344
1316876.9456976608,-50882.69,-85346.64,-38951.58,-21822.062,-9944.824,-28612.916,-18033.041,-21114.178
1316876.9496976559,-50880.37,-85343.18,-38943.973,-21814.941,-9935.425,-28610.596,-18031.697,-21115.193
1316876.9536976507,-50876.426,-85324.22,-38941.61,-21794.719,-9923.544,-28611.328,-18032.43,-21116.334
1316876.9576976458,-50872.97,-85310.914,-38945.76,-21788.941,-9921.753,-28611.248,-18032.064,-21113.893
1316876.9616976406,-50878.83,-85324.18,-38954.918,-21806.316,-9932.739,-28609.54,-18034.059,-21113.852
1316876.9656976357,-50890.18,-85348.76,-38960.98,-21825.807,-9944.743,-28609.295,-18036.947,-21115.193
1316876.9696976305,-50889.324,-85349.77,-38957.684,-21819.906,-9941.406,-28611.328,-18042.36,-21118.611
1316876.9736976256,-50882.652,-85328.086,-38956.055,-21800.01,-9932.414,-28617.393,-18053.752,-21132.244
1316876.9776976206,-50878.5,-85310.43,-38957.645,-21790.936,-9931.763,-28621.42,-18059.979,-21135.133
1316876.9816976155,-50887.29,-85325.484,-38960.9,-21807.902,-9942.709,-28619.955,-18056.479,-21128.297
1316876.9856976105,-50898.277,-85352.625,-38961.02,-21827.148,-9950.644,-28616.904,-18048.463,-21118.979
1316876.9896976054,-50899.457,-85353.97,-38954.836,-21822.592,-9946.127,-28617.514,-18045.533,-21118.734
1316876.9936976004,-50893.312,-85333.984,-38948.57,-21799.56,-9933.92,-28618.043,-18044.719,-21119.385
1316876.9976975955,-50883.223,-85318.97,-38945.883,-21788.412,-9927.002,-28617.066,-18041.748,-21116.902
1316877.0016975903,-50883.63,-85331.305,-38950.645,-21806.072,-9936.239,-28616.21,-18036.865,-21115.723
1316877.0056975854,-50888.105,-85350.305,-38955.445,-21823.771,-9940.39,-28614.137,-18031.25,-21111.94
1316877.0096975802,-50888.875,-85347.21,-38955.73,-21818.645,-9935.547,-28612.469,-18028.361,-21112.225
1316877.0136975753,-50886.883,-85325.6,-38956.992,-21800.62,-9927.206,-28612.875,-18031.78,-21121.258
1316877.0176975701,-50883.71,-85314.05,-38962.688,-21798.137,-9928.549,-28610.596,-18029.217,-21120.77
1316877.0216975652,-50889.406,-85334.59,-38971.805,-21818.93,-9943.075,-28608.36,-18025.188,-21115.193
1316877.0256975603,-50900.758,-85363.33,-38976.402,-21836.834,-9953.044,-28606.08,-18023.64,-21109.254
1316877.0296975551,-50900.676,-85361.086,-38973.348,-21830.69,-9946.533,-28606.73,-18023.764,-21109.213
1316877.0336975502,-50885.582,-85329.02,-38962.566,-21808.514,-9931.967,-28605.998,-18022.828,-21103.842
1316877.037697545,-50877.85,-85310.34,-38959.758,-21796.754,-9930.908,-28607.666,-18025.35,-21103.191
1316877.04169754,-50885.582,-85324.67,-38962.85,-21811.402,-9948.202,-28608.033,-18028.361,-21102.418
1316877.0456975352,-50893.312,-85345.75,-38961.914,-21827.393,-9952.881,-28608.48,-18029.867,-21104.98
1316877.04969753,-50894.004,-85347.74,-38960.004,-21821.29,-9944.011,-28612.754,-18035.93,-21111.898
1316877.053697525,-50891.523,-85330.77,-38959.027,-21801.025,-9932.007,-28615.195,-18042.848,-21120.89
1316877.05769752,-50887.41,-85315.19,-38960.777,-21792.033,-9928.874,-28615.072,-18046.672,-21129.436
1316877.061697515,-50888.836,-85323.24,-38967.773,-21807.334,-9935.344,-28613.852,-18043.824,-21123.414
1316877.0656975098,-50893.35,-85341.84,-38971.19,-21825.48,-9942.546,-28611.736,-18039.348,-21122.396
1316877.0696975049,-50895.47,-85343.14,-38971.723,-21820.842,-9937.663,-28611.533,-18040.203,-21128.621
1316877.0736975,-50892.17,-85326.91,-38971.11,-21802.125,-9929.403,-28613.648,-18042.562,-21137.86
1316877.0776974948,-50886.883,-85311.484,-38974.49,-21795.045,-9931.682,-28613.648,-18039.186,-21130.453
1316877.0816974898,-50890.18,-85323.61,-38982.3,-21812.217,-9942.465,-28610.475,-18031.738,-21123.78
1316877.0856974847,-50903.28,-85347.62,-38986.94,-21834.799,-9951.05,-28606.69,-18024.578,-21113.24
1316877.0896974797,-50909.59,-85350.63,-38985.598,-21832.684,-9946.167,-28603.15,-18017.781,-21102.662
1316877.0936974748,-50905.887,-85332.93,-38981.977,-21811.688,-9938.029,-28605.104,-18018.27,-21101.848
1316877.0976974696,-50898.074,-85318.16,-38975.953,-21799.072,-9939.779,-28607.219,-18019.531,-21101.848
1316877.1016974647,-50898.48,-85331.87,-38974.855,-21811.564,-9950.033,-28605.186,-18018.148,-21095.988
1316877.1056974595,-50902.754,-85352.26,-38970.5,-21826.621,-9952.678,-28602.947,-18014.893,-21092.896
1316877.1096974546,-50900.555,-85348.31,-38962.363,-21818.727,-9942.668,-28601.36,-18013.387,-21094.727
1316877.1136974497,-50896.16,-85321.945,-38958.133,-21798.463,-9931.926,-28603.271,-18020.184,-21102.662
1316877.1176974445,-50894.777,-85309.41,-38962.566,-21790.61,-9935.019,-28605.998,-18028.89,-21110.475
1316877.1216974396,-50901.004,-85330.125,-38972.047,-21809.652,-9949.016,-28607.178,-18031.129,-21110.719
1316877.1256974344,-50909.914,-85353.234,-38976.277,-21829.346,-9957.357,-28605.225,-18028.605,-21107.3
1316877.1296974295,-50915.938,-85353.84,-38977.297,-21824.383,-9950.847,-28604.086,-18028.035,-21109.13
1316877.1336974243,-50913.453,-85333.7,-38977.5,-21802.41,-9940.349,-28603.395,-18032.146,-21115.56
1316877.1376974194,-50907.105,-85319.91,-38978.844,-21793.05,-9937.785,-28603.027,-18031.25,-21108.725
1316877.1416974145,-50906.25,-85330.53,-38981.0,-21807.09,-9946.94,-28600.018,-18021.525,-21094.402
1316877.1456974093,-50909.996,-85345.95,-38981.445,-21820.598,-9949.911,-28599.406,-18014.568,-21083.943
1316877.1496974044,-50901.695,-85334.84,-38972.574,-21814.494,-9935.751,-28601.523,-18014.283,-21081.625
1316877.1536973992,-50895.02,-85310.836,-38967.41,-21793.54,-9922.526,-28605.633,-18019.166,-21086.67
1316877.1576973943,-50896.61,-85302.695,-38968.63,-21786.5,-9925.293,-28606.812,-18022.705,-21095.867
1316877.1616973893,-50906.332,-85320.48,-38972.574,-21803.875,-9938.029,-28603.557,-18020.71,-21095.338
1316877.1656973842,-50912.11,-85343.1,-38972.453,-21822.998,-9946.737,-28603.191,-18020.875,-21097.78
1316877.1696973792,-50909.547,-85342.25,-38969.035,-21818.523,-9943.278,-28606.975,-18031.658,-21113.69
1316877.173697374,-50905.805,-85321.414,-38968.75,-21795.29,-9934.042,-28609.66,-18038.209,-21125.488
1316877.1776973691,-50910.035,-85313.6,-38975.914,-21788.697,-9936.768,-28607.951,-18036.744,-21128.459
1316877.181697364,-50922.49,-85333.17,-38985.434,-21809.246,-9954.509,-28603.965,-18031.535,-21125.326
1316877.185697359,-50930.664,-85355.47,-38987.793,-21829.469,-9961.63,-28600.303,-18024.334,-21121.42
1316877.189697354,-50931.074,-85355.06,-38982.22,-21824.79,-9955.078,-28599.936,-18021.404,-21118.611
1316877.193697349,-50924.03,-85332.484,-38978.68,-21800.986,-9945.72,-28604.574,-18026.49,-21121.014
1316877.197697344,-50923.3,-85323.125,-38980.754,-21792.969,-9946.94,-28608.969,-18028.729,-21119.508
1316877.2016973388,-50928.223,-85336.266,-38984.375,-21807.7,-9955.078,-28606.934,-18022.502,-21109.54
1316877.205697334,-50929.812,-85349.77,-38982.42,-21821.9,-9952.963,-28603.15,-18016.805,-21104.615
1316877.209697329,-50927.53,-85347.78,-38976.035,-21815.309,-9943.359,-28604.168,-18017.09,-21104.615
1316877.2136973238,-50923.625,-85330.89,-38973.062,-21792.562,-9938.029,-28607.139,-18020.916,-21106.365
1316877.2176973189,-50926.15,-85317.836,-38976.727,-21787.273,-9937.46,-28607.748,-18023.072,-21106.934
1316877.2216973137,-50935.14,-85334.44,-38985.758,-21806.396,-9949.179,-28604.29,-18019.654,-21100.953
1316877.2256973088,-50948.203,-85364.055,-38990.4,-21829.266,-9960.775,-28600.506,-18014.486,-21095.094
1316877.2296973036,-50948.895,-85365.16,-38987.387,-21826.783,-9958.944,-28601.4,-18014.69,-21095.215
1316877.2336972987,-50938.355,-85341.07,-38988.04,-21805.137,-9950.725,-28603.924,-18018.352,-21100.342
1316877.2376972937,-50936.402,-85324.34,-38992.72,-21795.574,-9949.992,-28603.8,-18018.84,-21097.291
1316877.2416972886,-50942.426,-85337.81,-38993.777,-21810.385,-9959.717,-28600.547,-18013.55,-21090.861
1316877.2456972837,-50945.11,-85356.125,-38994.184,-21827.23,-9959.392,-28598.877,-18007.283,-21084.473
1316877.2496972785,-50943.484,-85351.445,-38990.234,-21823.691,-9948.69,-28601.28,-18006.43,-21084.188
1316877.2536972736,-50940.39,-85333.945,-38987.062,-21806.56,-9940.756,-28604.371,-18009.604,-21087.688
1316877.2576972686,-50939.863,-85321.82,-38991.54,-21799.805,-9940.308,-28606.201,-18015.096,-21096.844
1316877.2616972635,-50945.11,-85333.375,-38997.03,-21817.506,-9951.66,-28603.395,-18013.51,-21094.197
1316877.2656972585,-50954.348,-85354.125,-38999.35,-21835.572,-9961.223,-28602.05,-18012.574,-21097.78
1316877.2696972534,-50950.48,-85351.08,-38990.64,-21825.318,-9952.026,-28600.994,-18014.16,-21107.016
1316877.2736972484,-50939.168,-85328.25,-38983.727,-21802.531,-9943.604,-28602.906,-18019.246,-21112.469
1316877.2776972433,-50937.582,-85315.39,-38985.555,-21794.842,-9944.987,-28604.574,-18026.082,-21120.158
1316877.2816972383,-50950.93,-85335.78,-38994.223,-21811.28,-9960.205,-28603.883,-18029.053,-21123.902
1316877.2856972334,-50964.03,-85363.69,-38997.477,-21831.219,-9967.57,-28603.68,-18028.688,-21122.03
1316877.2896972282,-50965.902,-85364.34,-38993.816,-21824.342,-9961.182,-28602.947,-18028.402,-21123.617
1316877.2936972233,-50956.87,-85344.28,-38989.3,-21803.223,-9952.922,-28604.9,-18028.32,-21124.676
1316877.2976972181,-50950.81,-85330.77,-38990.766,-21795.695,-9951.782,-28602.621,-18022.46,-21109.783
1316877.3016972132,-50952.516,-85339.03,-38997.195,-21812.217,-9961.264,-28599.406,-18011.557,-21092.285
1316877.3056972083,-50962.77,-85365.08,-38999.96,-21832.195,-9969.849,-28597.168,-18002.156,-21081.422
1316877.309697203,-50968.06,-85369.71,-38996.664,-21827.475,-9964.56,-28597.25,-17998.129,-21075.887
