timestamp,Fp1,Fp2,F3,Fz,F4,Cz,Pz,Oz
1314681.2112403158,-82251.43,-111376.34,-43202.312,-58604.7,-131915.58,-41907.43,-42976.117,-47492.516
1314681.2152403118,-82225.016,-111351.08,-43177.9,-58582.48,-131896.98,-41884.117,-42952.637,-47463.664
1314681.2192403076,-82229.66,-111353.234,-43180.258,-58583.66,-131902.22,-41883.668,-42953.25,-47461.59
1314681.2232403036,-82260.336,-111384.85,-43204.957,-58608.074,-131922.53,-41904.99,-42977.418,-47491.824
1314681.2272402993,-82269.734,-111397.38,-43215.496,-58620.77,-131933.06,-41916.344,-42988.324,-47505.25
1314681.2312402953,-82240.195,-111371.75,-43193.727,-58603.926,-131908.0,-41900.23,-42965.293,-47481.49
1314681.235240291,-82213.83,-111345.75,-43169.027,-58581.383,-131882.69,-41875.082,-42936.934,-47450.97
1314681.2392402869,-82224.77,-111354.414,-43175.215,-58584.395,-131889.89,-41876.06,-42942.223,-47474.69
1314681.2432402829,-82256.19,-111383.63,-43201.5,-58607.42,-131912.56,-41898.844,-42969.89,-47500.285
1314681.2472402786,-82272.586,-111399.3,-43216.15,-58621.95,-131928.44,-41912.68,-42984.05,-47495.363
1314681.2512402746,-82252.73,-111379.52,-43197.797,-58606.203,-131918.98,-41899.58,-42968.184,-47478.76
1314681.2552402704,-82224.94,-111350.18,-43171.145,-58580.934,-131896.45,-41880.37,-42948.527,-47465.863
1314681.2592402664,-82228.234,-111350.1,-43176.555,-58583.008,-131896.94,-41882.04,-42950.887,-47458.945
1314681.2632402622,-82257.57,-111375.98,-43203.613,-58607.22,-131920.7,-41902.59,-42976.36,-47485.516
1314681.2672402582,-82274.336,-111393.516,-43215.984,-58622.6,-131937.38,-41915.773,-42990.766,-47501.668
1314681.271240254,-82256.23,-111379.234,-43198.406,-58607.992,-131921.47,-41900.92,-42972.414,-47479.004
1314681.2752402497,-82226.195,-111350.51,-43173.055,-58582.6,-131896.73,-41877.566,-42949.383,-47443.89
1314681.2792402457,-82224.2,-111343.71,-43175.05,-58582.848,-131892.55,-41880.86,-42956.055,-47441.652
1314681.2832402415,-82249.59,-111363.61,-43199.953,-58606.406,-131914.14,-41903.32,-42986.695,-47472.414
1314681.2872402375,-82265.875,-111377.2,-43213.543,-58619.996,-131925.98,-41915.934,-43004.11,-47483.48
1314681.2912402332,-82248.62,-111360.03,-43194.664,-58604.74,-131911.67,-41904.543,-42992.637,-47474.49
1314681.2952402292,-82223.02,-111336.02,-43170.332,-58580.49,-131890.55,-41885.01,-42972.902,-47451.375
1314681.299240225,-82221.16,-111332.56,-43172.69,-58580.49,-131888.8,-41886.516,-42981.406,-47461.1
1314681.303240221,-82252.0,-111364.42,-43201.336,-58605.797,-131914.6,-41907.43,-43008.18,-47491.133
1314681.3072402168,-82273.484,-111389.125,-43216.434,-58621.055,-131931.11,-41916.87,-43015.79,-47495.32
1314681.3112402125,-82253.09,-111367.96,-43197.188,-58605.39,-131914.56,-41900.676,-42992.27,-47459.72
1314681.3152402085,-82222.66,-111341.35,-43171.348,-58581.055,-131892.02,-41881.348,-42970.99,-47433.23
1314681.3192402043,-82225.016,-111343.266,-43176.555,-58582.766,-131891.33,-41886.8,-42985.35,-47472.78
1314681.3232402003,-82257.37,-111370.61,-43205.527,-58607.344,-131912.52,-41907.918,-43014.285,-47514.285
1314681.327240196,-82278.69,-111390.14,-43221.477,-58622.4,-131927.53,-41917.605,-43019.453,-47501.996
1314681.331240192,-82259.36,-111373.336,-43201.863,-58607.14,-131916.1,-41903.363,-43000.125,-47484.05
1314681.3352401878,-82224.125,-111343.67,-43172.324,-58582.074,-131894.9,-41883.707,-42981.12,-47471.6
1314681.3392401838,-82227.42,-111345.83,-43177.41,-58583.984,-131897.62,-41887.29,-42984.58,-47468.875
1314681.3432401796,-82262.945,-111378.42,-43208.62,-58609.785,-131921.06,-41909.26,-43006.43,-47481.12
1314681.3472401754,-82275.555,-111388.47,-43221.355,-58623.496,-131930.9,-41921.348,-43019.043,-47505.008
1314681.3512401714,-82253.99,-111364.305,-43201.094,-58608.44,-131911.22,-41903.934,-42995.484,-47478.72
1314681.3552401671,-82228.07,-111339.484,-43177.777,-58586.305,-131876.67,-41880.777,-42966.96,-47440.555
1314681.3592401631,-82233.766,-111347.7,-43183.637,-58590.984,-131879.64,-41884.44,-42971.03,-47450.523
1314681.363240159,-82264.98,-111378.79,-43212.08,-58614.992,-131908.25,-41904.83,-42994.55,-47471.844
1314681.3672401549,-82275.59,-111392.3,-43223.715,-58626.465,-131920.3,-41914.715,-43006.227,-47489.992
1314681.3712401506,-82253.586,-111376.02,-43203.41,-58609.945,-131905.61,-41900.637,-42987.43,-47463.91
1314681.3752401466,-82230.67,-111353.234,-43178.71,-58584.23,-131887.25,-41881.88,-42965.66,-47431.316
1314681.3792401424,-82235.4,-111360.555,-43182.414,-58586.266,-131889.05,-41885.62,-42975.3,-47457.234
1314681.3832401384,-82262.21,-111387.375,-43206.137,-58610.8,-131910.56,-41907.066,-43002.035,-47481.285
1314681.3872401342,-82274.945,-111397.83,-43218.63,-58626.14,-131923.88,-41918.742,-43013.754,-47483.035
1314681.39124013,-82246.3,-111365.6,-43198.527,-58608.32,-131902.75,-41902.426,-42993.734,-47446.86
1314681.395240126,-82222.82,-111338.95,-43176.84,-58586.71,-131887.05,-41881.836,-42969.85,-47402.223
1314681.3992401217,-82231.164,-111345.75,-43183.473,-58590.375,-131895.34,-41885.867,-42984.906,-47443.32
1314681.4032401177,-82256.76,-111369.96,-43208.05,-58611.207,-131909.75,-41908.53,-43017.66,-47499.88
1314681.4072401135,-82269.05,-111382.04,-43218.71,-58622.805,-131919.23,-41920.535,-43029.258,-47496.785
1314681.4112401095,-82242.11,-111357.47,-43195.844,-58604.453,-131902.62,-41905.4,-43006.31,-47470.215
1314681.4152401052,-82215.01,-111330.94,-43173.83,-58582.805,-131883.62,-41885.336,-42979.902,-47438.316
1314681.4192401012,-82223.76,-111338.75,-43180.91,-58587.324,-131894.0,-41888.918,-42988.12,-47452.92
1314681.423240097,-82253.99,-111365.28,-43210.41,-58612.793,-131920.83,-41911.258,-43017.336,-47487.184
1314681.4272400928,-82266.52,-111381.39,-43221.273,-58625.125,-131933.03,-41919.76,-43029.137,-47501.875
1314681.4312400888,-82243.125,-111358.56,-43201.133,-58608.44,-131912.89,-41903.484,-43007.49,-47473.473
1314681.4352400845,-82221.11,-111336.555,-43178.145,-58587.85,-131892.95,-41882.242,-42984.375,-47449.383
1314681.4392400805,-82227.375,-111340.13,-43183.23,-58590.984,-131891.69,-41888.348,-42998.496,-47476.44
1314681.4432400763,-82250.61,-111362.59,-43208.906,-58613.0,-131911.1,-41913.74,-43030.965,-47511.355
1314681.4472400723,-82260.17,-111373.62,-43220.215,-58623.984,-131918.5,-41925.984,-43042.156,-47519.453
1314681.451240068,-82236.414,-111354.086,-43199.504,-58606.285,-131902.11,-41910.89,-43022.91,-47510.742
1314681.455240064,-82205.37,-111325.24,-43171.715,-58581.87,-131879.44,-41889.69,-42994.47,-47464.48
1314681.4592400598,-82213.99,-111330.9,-43177.33,-58586.793,-131884.2,-41892.54,-42995.77,-47458.336
1314681.4632400556,-82250.0,-111361.17,-43205.85,-58610.477,-131905.31,-41913.414,-43024.293,-47504.64
1314681.4672400516,-82265.914,-111375.2,-43218.953,-58622.56,-131912.52,-41924.074,-43038.168,-47517.254
1314681.4712400474,-82243.695,-111354.17,-43197.918,-58608.074,-131898.77,-41908.816,-43021.527,-47487.145
1314681.4752400434,-82218.51,-111332.36,-43175.945,-58587.566,-131882.08,-41890.42,-43004.64,-47468.14
1314681.4792400391,-82221.97,-111334.76,-43181.234,-58589.4,-131884.89,-41894.004,-43015.098,-47484.5
1314681.4832400351,-82248.3,-111360.84,-43207.684,-58612.145,-131905.2,-41914.88,-43038.168,-47499.676
1314681.487240031,-82261.92,-111376.305,-43220.46,-58625.0,-131917.0,-41926.8,-43047.934,-47507.45
1314681.491240027,-82240.84,-111355.76,-43199.3,-58609.99,-131900.67,-41908.043,-43028.73,-47492.92
1314681.4952400227,-82215.414,-111330.28,-43175.824,-58588.176,-131877.4,-41885.703,-43003.906,-47468.426
1314681.4992400184,-82221.766,-111338.79,-43182.945,-58591.676,-131879.52,-41889.285,-43011.312,-47476.645
1314681.5032400144,-82255.414,-111370.08,-43212.242,-58618.207,-131903.16,-41910.93,-43040.61,-47509.97
1314681.5072400102,-82273.12,-111388.31,-43225.223,-58632.938,-131915.28,-41923.098,-43051.555,-47522.22
1314681.5112400062,-82250.61,-111368.05,-43202.92,-58614.746,-131897.06,-41905.355,-43025.92,-47484.62
1314681.515240002,-82222.05,-111340.87,-43175.945,-58591.758,-131880.66,-41883.914,-42996.258,-47449.465
1314681.519239998,-82226.56,-111343.8,-43180.46,-58594.445,-131885.22,-41888.797,-42999.188,-47454.715
1314681.5232399937,-82249.88,-111363.0,-43204.836,-58614.953,-131896.45,-41911.5,-43025.516,-47490.316
1314681.5272399897,-82260.26,-111372.52,-43215.7,-58625.207,-131903.48,-41921.67,-43039.39,-47515.22
1314681.5312399855,-82234.26,-111348.43,-43195.027,-58605.31,-131886.72,-41906.09,-43020.996,-47503.38
1314681.5352399813,-82208.26,-111322.39,-43171.387,-58583.133,-131868.3,-41884.81,-42994.02,-47464.07
1314681.5392399773,-82219.73,-111330.94,-43181.113,-58592.164,-131876.92,-41888.184,-42998.945,-47471.152
1314681.543239973,-82248.82,-111363.77,-43210.164,-58619.47,-131903.36,-41909.996,-43023.6,-47493.98
1314681.547239969,-82259.97,-111374.02,-43222.332,-58632.082,-131909.06,-41920.41,-43031.047,-47501.75
1314681.5512399648,-82237.63,-111355.59,-43201.336,-58613.65,-131893.39,-41901.9,-43004.52,-47462.605
1314681.5552399608,-82213.75,-111334.555,-43180.055,-58590.984,-131871.62,-41880.94,-42979.574,-47436.77
1314681.5592399566,-82220.3,-111338.83,-43188.152,-58595.83,-131872.89,-41886.965,-42992.188,-47457.195
1314681.5632399525,-82252.89,-111371.46,-43218.14,-58622.48,-131895.39,-41912.19,-43024.336,-47490.805
1314681.5672399483,-82268.555,-111387.58,-43228.19,-58632.0,-131909.02,-41920.695,-43033.49,-47495.2
1314681.571239944,-82243.734,-111366.984,-43205.61,-58612.387,-131893.97,-41903.484,-43012.656,-47475.06
1314681.57523994,-82217.695,-111343.02,-43181.844,-58591.473,-131875.38,-41883.344,-42994.426,-47452.07
1314681.5792399358,-82231.81,-111350.79,-43192.668,-58598.594,-131878.83,-41888.67,-43004.438,-47469.2
1314681.5832399318,-82264.695,-111379.64,-43222.86,-58624.35,-131895.27,-41911.176,-43033.0,-47498.74
1314681.5872399276,-82276.9,-111392.016,-43231.977,-58635.297,-131902.62,-41920.535,-43045.9,-47517.05
1314681.5912399236,-82253.3,-111371.34,-43210.37,-58614.668,-131887.58,-41903.973,-43022.176,-47481.65
1314681.5952399194,-82229.945,-111347.5,-43188.438,-58594.85,-131871.8,-41884.402,-42997.316,-47444.5
1314681.5992399154,-82238.94,-111353.516,-43193.645,-58600.63,-131878.62,-41890.504,-43007.812,-47469.44
1314681.6032399111,-82265.51,-111378.34,-43218.26,-58623.375,-131898.23,-41911.215,-43032.188,-47500.043
1314681.607239907,-82276.77,-111390.79,-43227.418,-58633.832,-131908.38,-41921.348,-43040.73,-47509.035
1314681.611239903,-82258.06,-111376.55,-43208.906,-58618.777,-131899.14,-41906.617,-43022.055,-47489.46
1314681.6152398987,-82233.766,-111355.47,-43187.625,-58597.902,-131883.62,-41886.56,-42996.785,-47442.71
1314681.6192398947,-82240.97,-111359.945,-43193.645,-58601.77,-131885.7,-41891.97,-43008.63,-47473.633
1314681.6232398904,-82267.3,-111386.92,-43217.734,-58623.535,-131906.98,-41915.57,-43041.06,-47531.984
1314681.6272398864,-82278.16,-111400.11,-43226.402,-58633.87,-131919.11,-41922.12,-43047.69,-47534.26
1314681.6312398822,-82257.445,-111381.31,-43205.16,-58616.58,-131905.0,-41902.426,-43020.184,-47493.9
1314681.6352398782,-82226.61,-111356.65,-43179.688,-58594.523,-131886.92,-41883.832,-42998.945,-47463.055
1314681.639239874,-82231.81,-111363.61,-43186.77,-58598.188,-131894.38,-41892.863,-43010.133,-47469.32
1314681.6432398697,-82259.28,-111387.25,-43211.348,-58620.04,-131914.52,-41917.766,-43038.984,-47504.76
1314681.6472398657,-82264.164,-111393.48,-43217.855,-58628.83,-131925.17,-41928.47,-43049.97,-47520.508
1314681.6512398615,-82239.34,-111367.805,-43197.266,-58611.41,-131906.12,-41913.086,-43028.035,-47496.094
1314681.6552398575,-82217.94,-111346.68,-43178.266,-58591.027,-131889.94,-41893.96,-43004.52,-47458.418
1314681.6592398533,-82232.42,-111355.8,-43192.832,-58598.066,-131901.1,-41898.684,-43008.914,-47450.24
1314681.6632398493,-82258.06,-111386.56,-43217.773,-58622.723,-131922.98,-41919.312,-43033.57,-47478.355
1314681.667239845,-82258.95,-111389.61,-43221.6,-58628.703,-131926.89,-41927.33,-43042.156,-47489.992
1314681.671239841,-82236.086,-111368.66,-43201.66,-58611.168,-131909.42,-41910.727,-43020.71,-47477.906
1314681.6752398368,-82214.52,-111349.94,-43178.67,-58591.27,-131891.56,-41888.797,-42991.984,-47440.066
1314681.6792398326,-82222.336,-111357.914,-43184.57,-58597.453,-131900.6,-41893.96,-42999.066,-47446.98
1314681.6832398286,-82254.31,-111385.87,-43213.258,-58622.355,-131920.0,-41915.652,-43027.914,-47490.848
1314681.6872398243,-82264.445,-111402.67,-43223.555,-58633.586,-131931.08,-41924.4,-43035.24,-47495.566
1314681.6912398203,-82244.14,-111387.695,-43203.168,-58616.457,-131919.77,-41907.023,-43015.79,-47487.47
1314681.695239816,-82220.664,-111363.24,-43181.723,-58595.42,-131898.0,-41887.86,-42993.207,-47457.316
1314681.699239812,-82228.92,-111371.625,-43190.88,-58602.094,-131902.11,-41893.312,-43000.082,-47454.145
1314681.7032398079,-82266.195,-111404.3,-43221.07,-58626.344,-131925.1,-41914.023,-43024.17,-47472.25
1314681.7072398039,-82281.86,-111416.34,-43232.79,-58636.438,-131933.52,-41922.977,-43034.87,-47488.812
1314681.7112397996,-82259.12,-111395.59,-43210.33,-58617.96,-131917.33,-41906.332,-43013.918,-47467.855
1314681.7152397954,-82239.664,-111374.35,-43188.965,-58597.58,-131898.77,-41888.43,-42990.887,-47439.21
1314681.7192397914,-82253.09,-111385.26,-43198.69,-58604.86,-131902.31,-41894.45,-43002.363,-47455.406
1314681.7232397872,-82283.77,-111411.79,-43225.79,-58629.68,-131929.36,-41915.527,-43029.5,-47485.434
1314681.7272397832,-82295.58,-111421.19,-43234.133,-58639.0,-131934.0,-41921.633,-43031.94,-47487.59
1314681.731239779,-82274.62,-111402.836,-43212.973,-58622.316,-131909.75,-41902.957,-43003.297,-47453.9
1314681.735239775,-82252.56,-111378.87,-43189.09,-58600.71,-131895.23,-41883.383,-42975.71,-47422.363
1314681.7392397707,-82264.37,-111387.01,-43199.42,-58607.586,-131903.77,-41889.363,-42984.05,-47442.793
1314681.7432397667,-82298.586,-111418.055,-43228.07,-58631.836,-131925.38,-41911.05,-43010.99,-47501.914
1314681.7472397625,-82307.7,-111433.516,-43235.11,-58642.133,-131937.7,-41918.945,-43014.203,-47508.992
1314681.7512397582,-82281.54,-111412.36,-43212.65,-58624.96,-131920.38,-41901.125,-42989.586,-47478.395
1314681.7552397542,-82261.6,-111391.24,-43191.57,-58603.355,-131903.73,-41882.61,-42965.293,-47440.676
1314681.75923975,-82274.87,-111401.125,-43201.742,-58609.863,-131913.05,-41891.727,-42977.336,-47454.266
1314681.763239746,-82300.26,-111428.836,-43227.418,-58633.383,-131935.31,-41913.94,-43002.484,-47494.344
1314681.7672397417,-82307.87,-111440.48,-43235.273,-58641.4,-131939.66,-41921.062,-43002.484,-47491.742
1314681.7712397377,-82283.45,-111418.91,-43213.176,-58622.277,-131921.23,-41903.117,-42972.293,-47448.57
1314681.7752397335,-82259.195,-111398.56,-43190.227,-58602.824,-131905.11,-41883.707,-42949.383,-47425.254
1314681.7792397295,-82271.94,-111411.625,-43198.406,-58610.395,-131910.77,-41890.42,-42961.348,-47442.87
1314681.7832397253,-82297.445,-111437.34,-43223.31,-58633.26,-131929.61,-41913.74,-42989.668,-47486.74
1314681.787239721,-82304.85,-111446.62,-43231.0,-58642.254,-131937.34,-41919.637,-42990.723,-47484.906
1314681.791239717,-82280.36,-111421.15,-43208.254,-58623.008,-131919.19,-41899.254,-42962.08,-47448.406
1314681.7952397128,-82259.97,-111395.92,-43187.785,-58603.598,-131898.44,-41879.52,-42941.734,-47433.35
1314681.7992397088,-82275.84,-111409.38,-43199.016,-58613.934,-131907.84,-41887.086,-42953.004,-47449.18
1314681.8032397046,-82308.11,-111441.53,-43226.2,-58639.812,-131930.02,-41907.39,-42975.508,-47454.875
1314681.8072397006,-82314.66,-111451.74,-43229.74,-58647.746,-131933.67,-41915.04,-42983.562,-47465.008
1314681.8112396963,-82289.15,-111430.14,-43205.203,-58627.2,-131916.27,-41897.34,-42964.6,-47447.594
1314681.8152396923,-82268.64,-111405.32,-43185.508,-58606.812,-131896.56,-41878.867,-42945.516,-47428.47
1314681.819239688,-82278.61,-111408.734,-43196.574,-58614.258,-131904.34,-41884.605,-42954.51,-47443.81
1314681.823239684,-82305.71,-111432.984,-43223.145,-58637.13,-131928.06,-41903.32,-42976.848,-47468.02
1314681.8272396799,-82317.586,-111442.18,-43230.43,-58644.98,-131931.44,-41905.273,-42978.438,-47460.98
1314681.8312396756,-82297.445,-111420.125,-43209.883,-58625.695,-131911.02,-41884.93,-42952.23,-47423.465
1314681.8352396716,-82275.48,-111397.26,-43188.07,-58605.062,-131896.86,-41868.816,-42934.207,-47401.367
1314681.8392396674,-82291.625,-111415.61,-43201.742,-58615.36,-131906.9,-41877.77,-42946.98,-47409.223
1314681.8432396634,-82325.28,-111451.54,-43234.5,-58641.81,-131930.02,-41901.53,-42975.832,-47437.297
1314681.8472396592,-82336.305,-111462.89,-43243.086,-58650.312,-131937.7,-41906.7,-42981.812,-47459.027
1314681.8512396552,-82312.016,-111442.1,-43218.426,-58630.13,-131919.03,-41885.945,-42956.137,-47429.688
1314681.855239651,-82291.51,-111422.734,-43199.504,-58612.51,-131902.75,-41866.945,-42935.957,-47411.99
1314681.859239647,-82306.6,-111441.086,-43212.324,-58622.64,-131912.31,-41874.637,-42949.832,-47437.703
1314681.8632396427,-82337.98,-111473.72,-43239.668,-58647.34,-131932.58,-41895.793,-42977.336,-47466.758
1314681.8672396385,-82347.29,-111484.58,-43246.746,-58655.4,-131938.89,-41901.45,-42984.215,-47479.453
1314681.8712396345,-82324.22,-111461.76,-43225.586,-58636.64,-131922.73,-41881.715,-42960.86,-47448.977
1314681.8752396302,-82307.984,-111443.77,-43207.805,-58618.816,-131907.72,-41861.94,-42936.77,-47404.137
1314681.8792396262,-82325.28,-111460.86,-43221.395,-58627.566,-131918.02,-41870.08,-42954.184,-47434.816
1314681.883239622,-82356.445,-111486.78,-43247.316,-58650.88,-131936.12,-41892.457,-42986.74,-47483.766
1314681.887239618,-82364.14,-111493.78,-43253.176,-58659.387,-131942.31,-41899.09,-42992.39,-47485.72
1314681.8912396138,-82339.44,-111473.15,-43228.598,-58638.348,-131926.56,-41877.77,-42960.45,-47435.67
1314681.8952396098,-82316.125,-111452.195,-43207.36,-58617.8,-131909.75,-41857.707,-42937.625,-47406.66
1314681.8992396055,-82326.945,-111459.805,-43220.582,-58625.53,-131916.6,-41866.254,-42948.57,-47415.652
1314681.9032396013,-82360.07,-111488.734,-43249.188,-58651.41,-131941.73,-41887.207,-42974.812,-47437.46
1314681.9072395973,-82374.59,-111502.77,-43257.49,-58661.258,-131955.94,-41893.35,-42980.43,-47438.113
1314681.911239593,-82361.695,-111489.55,-43239.383,-58642.254,-131940.77,-41874.473,-42956.586,-47422.65
1314681.915239589,-82342.33,-111473.555,-43218.26,-58624.15,-131920.62,-41855.348,-42936.77,-47408.33
1314681.9192395848,-82334.68,-111470.42,-43220.664,-58630.535,-131924.69,-41863.77,-42948.61,-47409.953
1314681.9232395808,-82363.2,-111502.12,-43245.445,-58654.746,-131947.19,-41882.773,-42971.03,-47422.85
1314681.9272395766,-82377.69,-111519.58,-43250.0,-58662.11,-131951.17,-41883.3,-42970.785,-47411.055
1314681.9312395726,-82352.7,-111498.5,-43225.02,-58642.09,-131929.36,-41863.445,-42949.016,-47395.223
1314681.9352395684,-82338.914,-111483.24,-43208.254,-58626.223,-131917.12,-41847.617,-42928.957,-47366.457
1314681.9392395641,-82359.26,-111499.59,-43222.7,-58638.062,-131927.33,-41858.277,-42941.285,-47372.152
1314681.9432395601,-82388.67,-111529.22,-43248.984,-58662.68,-131945.77,-41880.168,-42970.137,-47423.055
1314681.947239556,-82396.77,-111536.79,-43254.52,-58668.824,-131948.81,-41884.195,-42973.105,-47431.562
1314681.9512395519,-82371.18,-111514.164,-43231.895,-58648.562,-131932.25,-41865.4,-42945.395,-47386.56
1314681.9552395476,-82350.14,-111493.86,-43211.062,-58626.508,-131909.8,-41847.25,-42924.645,-47351.484
1314681.9592395436,-82367.15,-111507.41,-43222.74,-58633.996,-131914.31,-41857.75,-42943.645,-47388.633
1314681.9632395394,-82395.39,-111534.305,-43249.555,-58658.203,-131934.98,-41878.664,-42972.58,-47423.22
1314681.9672395354,-82404.87,-111543.46,-43255.21,-58665.12,-131941.86,-41881.88,-42972.37,-47409.14
1314681.9712395312,-82380.62,-111519.17,-43229.94,-58644.574,-131923.55,-41864.383,-42950.4,-47388.55
1314681.975239527,-82355.92,-111495.65,-43208.09,-58624.51,-131909.72,-41848.594,-42935.223,-47385.54
1314681.979239523,-82376.18,-111508.34,-43223.918,-58635.742,-131924.73,-41860.15,-42951.215,-47397.016
1314681.9832395187,-82407.06,-111534.06,-43253.215,-58661.543,-131945.03,-41882.242,-42976.117,-47417.035
1314681.9872395147,-82414.47,-111544.56,-43257.895,-58668.99,-131952.23,-41887.695,-42980.266,-47417.48
1314681.9912395105,-82389.9,-111525.11,-43232.953,-58648.113,-131933.67,-41868.98,-42958.496,-47398.52
1314681.9952395065,-82368.62,-111510.46,-43214.887,-58630.21,-131917.97,-41851.36,-42938.07,-47369.55
1314681.9992395022,-82381.76,-111526.164,-43227.62,-58639.445,-131928.39,-41860.027,-42955.812,-47412.03
1314682.0032394982,-82411.87,-111555.625,-43253.83,-58664.31,-131951.55,-41882.977,-42982.87,-47437.297
1314682.007239494,-82420.29,-111560.23,-43256.27,-58669.395,-131955.45,-41884.93,-42980.43,-47417.562
1314682.0112394898,-82398.84,-111537.88,-43234.297,-58650.15,-131940.36,-41865.316,-42955.69,-47389.65
1314682.0152394858,-82379.31,-111521.734,-43215.902,-58632.12,-131928.27,-41849.57,-42935.67,-47375.246
1314682.0192394815,-82393.31,-111533.37,-43227.297,-58641.035,-131933.36,-41859.66,-42951.336,-47408.164
1314682.0232394775,-82428.266,-111564.82,-43257.164,-58668.297,-131956.02,-41878.5,-42974.61,-47426.066
1314682.0272394733,-82437.625,-111574.95,-43264.934,-58674.727,-131962.05,-41880.21,-42970.83,-47402.426
1314682.0312394693,-82410.16,-111549.6,-43242.88,-58653.81,-131943.33,-41861.453,-42941.33,-47358.6
1314682.035239465,-82389.0,-111529.34,-43223.715,-58635.5,-131929.77,-41845.95,-42921.59,-47335.207
1314682.039239461,-82403.16,-111544.36,-43235.516,-58645.062,-131935.92,-41854.492,-42933.676,-47362.348
1314682.0432394568,-82430.914,-111568.77,-43261.883,-58670.207,-131961.64,-41875.977,-42959.27,-47399.13
1314682.0472394526,-82434.05,-111567.38,-43264.04,-58673.18,-131966.31,-41877.973,-42958.418,-47391.805
1314682.0512394486,-82411.87,-111546.63,-43241.58,-58653.527,-131944.95,-41859.01,-42931.438,-47348.594
1314682.0552394444,-82392.055,-111527.67,-43222.86,-58635.254,-131927.86,-41843.18,-42916.06,-47328.574
1314682.0592394404,-82409.016,-111543.26,-43236.53,-58644.656,-131937.06,-41852.176,-42928.55,-47341.473
1314682.0632394361,-82436.2,-111569.54,-43261.273,-58669.434,-131953.7,-41873.13,-42949.504,-47361.53
1314682.0672394321,-82439.01,-111573.86,-43265.668,-58674.562,-131955.16,-41876.953,-42957.03,-47382.203
1314682.071239428,-82416.47,-111552.01,-43242.15,-58654.22,-131933.19,-41860.11,-42942.953,-47378.906
1314682.075239424,-82397.055,-111533.94,-43224.45,-58636.844,-131918.78,-41845.785,-42928.55,-47353.965
1314682.0792394197,-82413.86,-111550.01,-43238.406,-58648.562,-131932.9,-41856.934,-42941.652,-47358.48
1314682.0832394154,-82445.72,-111578.58,-43264.57,-58672.285,-131953.2,-41878.215,-42965.58,-47384.605
1314682.0872394114,-82451.055,-111584.44,-43269.29,-58678.348,-131957.08,-41881.43,-42971.355,-47409.75
1314682.0912394072,-82423.95,-111559.164,-43243.043,-58657.555,-131939.3,-41861.656,-42949.22,-47385.176
1314682.0952394032,-82406.86,-111541.875,-43224.324,-58643.477,-131931.64,-41845.906,-42928.633,-47354.29
1314682.099239399,-82421.19,-111556.36,-43239.383,-58654.95,-131940.88,-41855.43,-42940.88,-47371.664
1314682.103239395,-82445.31,-111581.51,-43263.797,-58675.05,-131953.1,-41874.797,-42963.016,-47386.027
1314682.1072393907,-82448.2,-111586.47,-43264.57,-58678.145,-131954.23,-41879.355,-42964.97,-47392.58
1314682.1112393867,-82422.0,-111563.6,-43240.438,-58656.902,-131935.19,-41860.312,-42943.36,-47372.926
1314682.1152393825,-82404.46,-111542.85,-43224.57,-58639.895,-131916.67,-41845.01,-42924.848,-47339.6
1314682.1192393783,-82421.15,-111557.91,-43238.363,-58649.66,-131923.88,-41854.9,-42939.496,-47357.992
1314682.1232393743,-82450.56,-111586.96,-43265.83,-58674.887,-131949.14,-41876.914,-42964.723,-47392.66
1314682.12723937,-82452.15,-111592.57,-43269.33,-58681.805,-131955.69,-41880.29,-42967.773,-47397.992
1314682.131239366,-82425.46,-111566.9,-43243.734,-58660.08,-131939.45,-41862.55,-42942.87,-47366.21
1314682.1352393618,-82406.86,-111548.51,-43224.812,-58641.645,-131929.2,-41849.12,-42927.574,-47348.43
1314682.1392393578,-82422.08,-111560.19,-43238.85,-58653.04,-131930.42,-41859.09,-42940.105,-47352.95
1314682.1432393536,-82452.88,-111586.266,-43266.035,-58675.824,-131941.4,-41880.13,-42961.266,-47358.766
1314682.1472393495,-82450.32,-111587.98,-43267.58,-58678.957,-131943.77,-41882.367,-42965.66,-47375.613
1314682.1512393453,-82419.11,-111562.95,-43241.742,-58657.227,-131923.39,-41862.957,-42946.453,-47372.684
1314682.155239341,-82402.23,-111549.65,-43225.71,-58640.547,-131907.8,-41847.496,-42934.207,-47362.957
1314682.159239337,-82423.46,-111569.336,-43242.434,-58652.59,-131921.03,-41859.293,-42950.727,-47385.176
1314682.1632393328,-82453.66,-111595.055,-43266.766,-58678.184,-131942.62,-41881.51,-42975.223,-47403.73
1314682.1672393288,-82457.84,-111600.836,-43268.477,-58681.074,-131950.73,-41881.348,-42970.094,-47375.57
1314682.1712393246,-82429.37,-111572.76,-43243.125,-58658.9,-131935.75,-41863.363,-42947.348,-47359.906
1314682.1752393206,-82409.51,-111548.71,-43224.45,-58640.18,-131915.12,-41847.25,-42933.797,-47355.227
1314682.1792393164,-82427.734,-111562.99,-43240.156,-58651.816,-131924.77,-41856.57,-42948.69,-47372.355
1314682.1832393124,-82455.2,-111590.78,-43266.523,-58673.992,-131949.55,-41878.543,-42974.938,-47405.844
1314682.1872393081,-82460.49,-111600.38,-43269.086,-58679.363,-131956.02,-41881.836,-42975.914,-47403.77
1314682.191239304,-82436.81,-111580.695,-43243.855,-58662.477,-131940.88,-41862.184,-42947.88,-47348.676
1314682.1952393,-82418.54,-111563.195,-43227.418,-58647.258,-131932.05,-41845.543,-42931.074,-47338.3
1314682.1992392957,-82433.15,-111574.016,-43242.84,-58655.97,-131938.4,-41855.023,-42949.586,-47385.38
1314682.2032392917,-82462.94,-111599.57,-43269.004,-58679.406,-131954.44,-41876.1,-42973.27,-47401.492
1314682.2072392874,-82468.02,-111606.33,-43271.973,-58684.855,-131955.33,-41880.25,-42976.32,-47396.61
1314682.2112392834,-82438.93,-111578.945,-43244.59,-58663.293,-131932.83,-41858.805,-42948.855,-47357.137
1314682.2152392792,-82415.53,-111558.11,-43224.938,-58645.55,-131921.39,-41843.914,-42929.28,-47330.363
1314682.2192392752,-82431.07,-111566.37,-43241.414,-58657.31,-131932.62,-41855.918,-42949.465,-47360.395
1314682.223239271,-82459.11,-111590.13,-43267.5,-58679.445,-131949.02,-41878.336,-42974.938,-47387.777
1314682.2272392667,-82458.58,-111590.26,-43267.05,-58680.3,-131946.62,-41880.332,-42973.066,-47375.203
1314682.2312392627,-82431.195,-111565.19,-43241.336,-58657.35,-131922.16,-41860.434,-42952.8,-47363.934
1314682.2352392585,-82414.59,-111548.38,-43225.18,-58640.465,-131906.98,-41845.46,-42940.473,-47359.785
1314682.2392392545,-82431.73,-111562.586,-43241.375,-58652.508,-131922.48,-41860.516,-42962.89,-47389.85
1314682.2432392503,-82460.9,-111590.87,-43267.17,-58676.637,-131945.39,-41882.69,-42985.8,-47409.59
1314682.2472392463,-82462.12,-111593.47,-43266.156,-58679.242,-131953.3,-41884.035,-42982.707,-47396.812
1314682.251239242,-82432.336,-111562.87,-43239.79,-58656.21,-131928.6,-41863.484,-42962.04,-47375.652
1314682.255239238,-82414.43,-111547.53,-43225.18,-58640.137,-131912.31,-41849.812,-42946.94,-47362.02
1314682.2592392338,-82427.164,-111563.6,-43240.645,-58653.363,-131922.38,-41862.02,-42961.793,-47372.195
1314682.2632392298,-82452.195,-111586.67,-43263.023,-58676.11,-131937.38,-41882.203,-42981.49,-47384.035
1314682.2672392256,-82450.89,-111584.96,-43263.023,-58679.77,-131933.97,-41885.336,-42979.902,-47384.035
1314682.2712392213,-82421.23,-111554.77,-43235.8,-58656.496,-131916.19,-41864.91,-42956.668,-47369.957
1314682.2752392173,-82401.66,-111536.625,-43217.855,-58639.69,-131908.4,-41849.652,-42937.785,-47341.105
1314682.279239213,-82412.6,-111548.55,-43231.367,-58652.71,-131924.48,-41860.68,-42950.93,-47345.703
1314682.283239209,-82433.96,-111568.56,-43254.926,-58675.133,-131948.2,-41883.586,-42980.797,-47396.16
1314682.2872392049,-82424.89,-111564.5,-43252.85,-58675.215,-131953.12,-41887.453,-42985.965,-47412.598
1314682.2912392009,-82394.695,-111537.64,-43228.312,-58652.793,-131931.72,-41867.594,-42960.207,-47367.92
1314682.2952391966,-82379.07,-111521.53,-43211.426,-58637.695,-131914.92,-41853.516,-42948.04,-47354.695
1314682.2992391926,-82393.15,-111533.86,-43223.594,-58650.23,-131925.95,-41866.863,-42966.758,-47380.535
1314682.3032391884,-82418.09,-111558.234,-43246.95,-58672.12,-131949.22,-41889.242,-42993.125,-47405.195
1314682.3072391842,-82414.96,-111558.72,-43245.81,-58674.684,-131950.23,-41891.562,-42992.92,-47399.09
1314682.3112391802,-82377.61,-111525.72,-43216.555,-58649.66,-131924.53,-41869.63,-42964.97,-47370.85
1314682.315239176,-82357.99,-111506.35,-43201.254,-58632.45,-131911.34,-41856.363,-42948.57,-47353.355
1314682.319239172,-82370.28,-111519.29,-43217.33,-58644.33,-131923.42,-41869.547,-42963.504,-47356.445
1314682.3232391677,-82393.19,-111541.75,-43240.438,-58667.277,-131944.88,-41889.69,-42985.516,-47372.273
1314682.3272391637,-82387.86,-111538.45,-43238.203,-58668.867,-131946.9,-41893.19,-42990.805,-47403.89
1314682.3312391595,-82356.445,-111512.74,-43212.16,-58647.95,-131928.14,-41874.105,-42966.88,-47377.156
1314682.3352391555,-82338.3,-111498.09,-43196.086,-58632.69,-131912.69,-41860.516,-42948.445,-47329.305
1314682.3392391512,-82357.625,-111513.266,-43212.04,-58645.305,-131925.22,-41873.74,-42967.773,-47373.008
1314682.343239147,-82381.67,-111532.84,-43236.37,-58668.703,-131947.23,-41894.734,-42996.785,-47430.79
1314682.347239143,-82383.42,-111534.95,-43237.184,-58670.94,-131949.62,-41893.758,-42989.746,-47402.754
1314682.3512391387,-82361.94,-111516.24,-43215.375,-58650.312,-131929.73,-41874.31,-42959.434,-47356.324
1314682.3552391347,-82343.67,-111498.984,-43199.26,-58636.11,-131916.1,-41860.27,-42943.89,-47334.11
1314682.3592391305,-82362.1,-111515.586,-43215.7,-58651.164,-131927.53,-41870.973,-42963.3,-47375.0
1314682.3632391265,-82390.51,-111540.66,-43242.15,-58674.848,-131949.02,-41891.156,-42989.137,-47412.68
1314682.3672391223,-82391.08,-111543.5,-43241.008,-58676.92,-131953.4,-41889.934,-42984.863,-47404.83
1314682.3712391183,-82366.7,-111519.9,-43215.82,-58655.48,-131932.7,-41867.312,-42958.05,-47369.223
1314682.375239114,-82355.836,-111508.55,-43202.35,-58642.297,-131919.84,-41854.9,-42945.56,-47346.64
1314682.3792391098,-82381.35,-111531.25,-43220.582,-58656.375,-131936.56,-41867.555,-42965.617,-47375.45
1314682.3832391058,-82414.76,-111563.766,-43246.22,-58678.875,-131957.31,-41888.387,-42988.77,-47397.3
1314682.3872391016,-82417.484,-111571.414,-43246.22,-58680.91,-131956.39,-41888.715,-42986.086,-47385.297
1314682.3912390976,-82392.055,-111540.37,-43220.785,-58658.41,-131937.55,-41868.41,-42964.926,-47368.043
1314682.3952390933,-82376.79,-111521.81,-43206.625,-58644.695,-131925.95,-41855.836,-42951.945,-47357.465
1314682.3992390893,-82398.27,-111544.97,-43227.176,-58660.727,-131938.52,-41871.01,-42970.055,-47368.29
1314682.403239085,-82426.805,-111572.11,-43252.727,-58683.027,-131953.83,-41892.336,-42995.08,-47393.35
1314682.407239081,-82429.77,-111573.04,-43250.285,-58683.312,-131954.31,-41891.36,-42992.23,-47401.613
1314682.4112390769,-82403.93,-111546.06,-43224.652,-58660.727,-131930.75,-41870.688,-42970.38,-47389.285
1314682.4152390726,-82393.555,-111538.74,-43210.33,-58647.098,-131913.17,-41856.16,-42951.582,-47360.23
1314682.4192390686,-82416.625,-111562.016,-43227.38,-58662.68,-131934.73,-41870.16,-42966.105,-47380.902
1314682.4232390644,-82436.41,-111576.83,-43249.758,-58684.164,-131955.94,-41890.79,-42992.92,-47416.016
1314682.4272390604,-82431.805,-111574.79,-43248.17,-58684.695,-131958.58,-41891.36,-42989.707,-47408.652
1314682.4312390562,-82408.81,-111555.055,-43224.773,-58663.94,-131940.27,-41871.42,-42959.066,-47370.402
1314682.4352390522,-82395.76,-111543.79,-43211.875,-58650.066,-131930.02,-41857.668,-42940.676,-47348.227
1314682.439239048,-82418.22,-111559.05,-43229.74,-58665.406,-131945.31,-41870.65,-42955.49,-47375.773
1314682.443239044,-82448.695,-111581.914,-43257.45,-58689.74,-131969.61,-41891.36,-42976.973,-47404.137
1314682.4472390397,-82446.54,-111581.305,-43256.145,-58689.94,-131974.48,-41890.383,-42972.902,-47397.098
1314682.4512390355,-82425.414,-111561.41,-43231.977,-58669.844,-131959.27,-41868.45,-42943.035,-47350.75
1314682.4552390315,-82410.41,-111549.93,-43218.996,-58655.273,-131948.33,-41856.85,-42926.96,-47331.83
1314682.4592390272,-82428.43,-111566.29,-43240.562,-58668.05,-131958.05,-41871.176,-42947.266,-47385.01
1314682.4632390232,-82460.37,-111593.59,-43268.68,-58693.523,-131980.27,-41892.17,-42969.402,-47416.953
1314682.467239019,-82460.086,-111592.25,-43265.75,-58694.582,-131982.22,-41891.36,-42960.574,-47400.15
1314682.471239015,-82429.0,-111566.25,-43239.016,-58671.633,-131961.34,-41868.938,-42929.242,-47373.414
1314682.4752390108,-82410.89,-111551.4,-43222.293,-58656.457,-131947.11,-41853.56,-42910.645,-47353.56
1314682.4792390068,-82433.23,-111572.92,-43241.133,-58673.992,-131961.14,-41866.742,-42926.11,-47369.426
1314682.4832390025,-82457.84,-111599.86,-43265.42,-58697.145,-131980.31,-41886.598,-42946.535,-47387.25
1314682.4872389983,-82453.984,-111599.57,-43261.516,-58699.426,-131981.17,-41885.215,-42937.094,-47368.777
1314682.4912389943,-82423.14,-111568.85,-43233.887,-58676.35,-131960.3,-41862.836,-42908.734,-47347.902
1314682.49523899,-82400.35,-111549.65,-43219.2,-58661.867,-131950.64,-41852.254,-42896.85,-47343.426
1314682.499238986,-82422.33,-111566.57,-43238.242,-58675.703,-131959.92,-41867.516,-42915.652,-47370.117
1314682.5032389818,-82452.4,-111592.77,-43263.836,-58699.14,-131981.2,-41886.15,-42938.805,-47400.473
1314682.5072389778,-82443.85,-111586.35,-43260.336,-58697.55,-131978.36,-41884.156,-42936.484,-47392.336
1314682.5112389736,-82410.766,-111554.41,-43233.645,-58672.812,-131955.16,-41861.613,-42910.035,-47356.895
1314682.5152389696,-82393.84,-111544.48,-43219.484,-58661.38,-131942.31,-41851.035,-42897.91,-47340.332
1314682.5192389654,-82407.31,-111563.27,-43238.203,-58678.55,-131960.1,-41866.05,-42921.1,-47372.113
1314682.5232389611,-82423.79,-111579.06,-43259.523,-58698.69,-131977.58,-41886.15,-42947.348,-47403.81
1314682.5272389571,-82416.55,-111570.11,-43255.13,-58696.74,-131970.5,-41884.074,-42942.18,-47391.727
1314682.531238953,-82374.63,-111530.805,-43227.01,-58673.18,-131949.34,-41862.875,-42915.977,-47356.977
1314682.5352389489,-82354.375,-111510.18,-43211.02,-58659.59,-131935.88,-41849.855,-42901.57,-47332.52
1314682.5392389446,-82365.73,-111520.47,-43228.844,-58673.465,-131943.2,-41865.805,-42925.457,-47367.555
1314682.5432389406,-82376.06,-111530.44,-43249.473,-58692.87,-131960.81,-41889.773,-42957.03,-47420.94
1314682.5472389364,-82349.61,-111507.734,-43238.73,-58689.008,-131957.4,-41889.285,-42959.676,-47428.754
1314682.5512389324,-82299.85,-111459.4,-43203.86,-58661.258,-131930.8,-41867.758,-42932.617,-47382.285
1314682.5552389282,-82266.93,-111423.99,-43185.1,-58645.754,-131916.42,-41857.22,-42920.9,-47361.656
1314682.559238924,-82278.77,-111433.39,-43201.906,-58660.035,-131929.97,-41873.78,-42946.656,-47405.07
1314682.56323892,-82298.1,-111453.125,-43224.773,-58680.992,-131943.86,-41893.758,-42970.543,-47415.73
1314682.5672389157,-82287.36,-111441.33,-43219.08,-58678.145,-131938.03,-41893.598,-42971.438,-47422.242
1314682.5712389117,-82260.58,-111410.2,-43195.234,-58656.17,-131916.02,-41874.758,-42948.49,-47395.47
1314682.5752389075,-82251.34,-111402.76,-43185.26,-58644.695,-131910.03,-41863.242,-42937.99,-47383.87
1314682.5792389035,-82281.13,-111430.83,-43207.766,-58662.316,-131927.73,-41876.668,-42956.83,-47401.125
1314682.5832388992,-82314.78,-111459.03,-43236.125,-58685.754,-131944.95,-41895.836,-42978.965,-47425.05
1314682.5872388952,-82316.9,-111461.02,-43233.523,-58685.266,-131942.11,-41891.727,-42972.902,-47419.92
1314682.591238891,-82300.54,-111445.03,-43213.664,-58665.367,-131917.97,-41871.83,-42946.86,-47380.82
1314682.5952388868,-82295.01,-111439.45,-43204.062,-58655.723,-131905.52,-41861.41,-42940.43,-47381.918
1314682.5992388828,-82326.09,-111472.62,-43226.848,-58672.082,-131920.66,-41875.53,-42963.016,-47408.734
1314682.6032388785,-82360.92,-111508.016,-43253.62,-58695.19,-131943.97,-41895.02,-42986.207,-47429.242
1314682.6072388745,-82365.89,-111521.24,-43253.34,-58695.438,-131944.3,-41893.066,-42981.445,-47411.824
1314682.6112388703,-82342.734,-111498.54,-43227.62,-58673.383,-131925.58,-41870.688,-42955.363,-47384.848
1314682.6152388663,-82336.06,-111487.59,-43215.414,-58663.008,-131916.75,-41859.418,-42943.117,-47365.562
1314682.619238862,-82364.34,-111515.47,-43237.836,-58679.61,-131934.7,-41874.27,-42963.055,-47383.504
1314682.623238858,-82398.766,-111547.9,-43265.098,-58703.25,-131957.89,-41892.54,-42985.555,-47399.824
1314682.6272388538,-82396.164,-111546.39,-43261.19,-58703.004,-131958.02,-41889.49,-42982.953,-47413.008
1314682.6312388496,-82370.98,-111522.79,-43235.434,-58679.973,-131935.14,-41864.383,-42954.227,-47386.56
1314682.6352388456,-82367.92,-111522.42,-43225.79,-58670.74,-131926.64,-41854.13,-42941.855,-47364.625
1314682.6392388414,-82392.87,-111547.04,-43246.137,-58686.688,-131946.78,-41867.92,-42959.434,-47382.12
1314682.6432388374,-82419.03,-111573.04,-43269.33,-58708.54,-131964.77,-41887.168,-42985.598,-47414.105
1314682.6472388331,-82420.695,-111577.07,-43265.707,-58709.758,-131965.98,-41885.457,-42979.207,-47390.83
1314682.6512388291,-82398.56,-111554.734,-43241.133,-58687.176,-131944.14,-41863.65,-42952.027,-47365.234
1314682.655238825,-82387.375,-111542.32,-43231.324,-58674.684,-131930.19,-41853.56,-42942.75,-47351.035
1314682.659238821,-82413.086,-111565.59,-43251.75,-58691.246,-131940.39,-41868.734,-42963.094,-47369.832
1314682.6632388167,-82442.71,-111592.695,-43277.305,-58714.113,-131958.86,-41891.277,-42989.746,-47398.438
1314682.6672388124,-82435.8,-111588.55,-43270.71,-58711.59,-131960.9,-41889.324,-42986.207,-47391.156
1314682.6712388084,-82412.97,-111565.59,-43244.996,-58689.66,-131944.22,-41866.336,-42959.15,-47346.273
1314682.6752388042,-82403.0,-111557.5,-43235.35,-58678.508,-131935.06,-41855.957,-42950.848,-47343.184
1314682.6792388002,-82425.375,-111578.33,-43255.86,-58696.008,-131947.8,-41871.95,-42974.45,-47386.11
1314682.683238796,-82456.34,-111604.29,-43281.21,-58719.523,-131970.1,-41891.113,-42996.992,-47408.125
1314682.687238792,-82453.78,-111603.64,-43278.85,-58717.57,-131977.34,-41889.49,-42991.824,-47389.73
1314682.6912387877,-82424.89,-111579.875,-43252.117,-58692.26,-131957.03,-41869.14,-42966.105,-47367.555
1314682.6952387837,-82418.46,-111573.0,-43240.438,-58682.58,-131946.9,-41858.562,-42953.535,-47356.324
1314682.6992387795,-82446.375,-111603.56,-43261.56,-58700.035,-131961.02,-41873.375,-42971.355,-47371.22
1314682.7032387755,-82472.82,-111628.664,-43284.14,-58722.902,-131981.2,-41893.473,-42992.598,-47395.996
1314682.7072387713,-82467.77,-111622.56,-43278.035,-58721.152,-131977.1,-41888.875,-42983.48,-47383.668
1314682.711238767,-82442.266,-111596.07,-43255.414,-58698.69,-131959.48,-41868.695,-42960.37,-47357.465
1314682.715238763,-82435.8,-111585.734,-43245.973,-58687.625,-131955.66,-41859.336,-42950.195,-47340.863
1314682.7192387588,-82458.91,-111604.086,-43267.05,-58704.51,-131967.3,-41875.773,-42974.53,-47381.062
1314682.7232387548,-82485.234,-111629.07,-43292.523,-58727.746,-131979.73,-41896.688,-42997.684,-47399.457
1314682.7272387506,-82481.24,-111627.32,-43289.105,-58725.344,-131982.75,-41893.19,-42992.066,-47376.996
1314682.7312387465,-82452.07,-111597.7,-43260.54,-58700.117,-131961.39,-41871.99,-42969.2,-47360.92
1314682.7352387423,-82440.63,-111584.92,-43248.13,-58688.355,-131951.55,-41862.55,-42956.586,-47346.52
1314682.7392387383,-82464.195,-111607.1,-43269.816,-58705.566,-131971.11,-41876.18,-42971.316,-47358.645
1314682.743238734,-82488.37,-111628.586,-43293.5,-58727.05,-131988.08,-41894.086,-42994.062,-47397.016
1314682.7472387298,-82481.2,-111618.53,-43287.68,-58723.066,-131983.44,-41891.156,-42987.305,-47386.8
1314682.7512387258,-82448.33,-111589.44,-43256.594,-58698.73,-131959.77,-41868.57,-42957.645,-47348.188
1314682.7552387216,-82438.73,-111581.42,-43247.03,-58688.805,-131950.03,-41859.742,-42949.06,-47339.195
1314682.7592387176,-82464.27,-111606.445,-43270.633,-58707.4,-131964.56,-41876.223,-42971.477,-47365.97
1314682.7632387134,-82489.586,-111631.19,-43294.11,-58728.516,-131983.48,-41897.176,-42996.258,-47395.918
1314682.7672387094,-82481.85,-111621.87,-43287.152,-58723.633,-131981.08,-41893.473,-42990.645,-47390.547
1314682.7712387051,-82446.125,-111590.664,-43259.523,-58697.836,-131956.67,-41871.625,-42966.555,-47363.363
1314682.7752387011,-82431.84,-111579.92,-43247.316,-58685.957,-131943.73,-41861.246,-42955.08,-47351.93
1314682.779238697,-82457.234,-111602.79,-43266.074,-58704.184,-131959.6,-41877.566,-42974.082,-47372.4
1314682.7832386927,-82481.94,-111627.37,-43289.023,-58726.035,-131976.2,-41896.527,-42995.688,-47390.016
1314682.7872386887,-82478.68,-111624.07,-43284.344,-58721.6,-131972.22,-41891.195,-42988.16,-47378.664
1314682.7912386844,-82453.17,-111599.9,-43260.215,-58698.895,-131954.84,-41868.41,-42961.67,-47341.35
1314682.7952386804,-82442.55,-111591.19,-43250.164,-58689.25,-131949.5,-41859.215,-42956.87,-47344.93
1314682.7992386762,-82466.07,-111612.8,-43269.94,-58707.24,-131965.38,-41877.36,-42982.465,-47384.117
1314682.8032386722,-82491.82,-111634.24,-43292.523,-58728.8,-131986.66,-41896.16,-43002.566,-47400.555
1314682.807238668,-82485.96,-111628.46,-43286.824,-58725.426,-131981.48,-41889.566,-42992.637,-47387.453
1314682.811238664,-82458.87,-111601.04,-43261.965,-58702.355,-131952.69,-41868.652,-42968.344,-47360.92
1314682.8152386597,-82448.33,-111594.73,-43253.418,-58693.2,-131940.92,-41860.23,-42960.33,-47347.617
1314682.8192386555,-82474.0,-111617.84,-43277.223,-58711.836,-131961.52,-41876.02,-42980.105,-47357.465
1314682.8232386515,-82497.36,-111635.18,-43300.008,-58732.06,-131979.98,-41895.184,-43007.527,-47417.44
1314682.8272386473,-82484.54,-111623.17,-43289.55,-58726.562,-131975.95,-41891.4,-42999.555,-47416.504
1314682.8312386433,-82454.71,-111595.34,-43260.457,-58701.336,-131958.55,-41870.08,-42970.38,-47374.27
1314682.835238639,-82445.03,-111585.29,-43250.285,-58690.96,-131951.55,-41861.695,-42962.16,-47360.477
1314682.839238635,-82472.05,-111610.516,-43273.48,-58711.836,-131967.66,-41880.047,-42983.81,-47369.266
1314682.8432386308,-82496.34,-111632.086,-43296.67,-58731.895,-131988.61,-41899.09,-43004.152,-47385.824
1314682.8472386268,-82483.805,-111622.4,-43288.25,-58725.63,-131982.55,-41895.348,-43004.438,-47410.117
1314682.8512386226,-82450.93,-111592.21,-43260.133,-58700.24,-131954.84,-41873.09,-42979.168,-47381.594
1314682.8552386183,-82439.25,-111583.78,-43248.945,-58689.7,-131944.88,-41864.137,-42968.914,-47364.668
1314682.8592386143,-82461.39,-111606.41,-43269.453,-58706.543,-131964.48,-41879.844,-42987.1,-47375.57
1314682.86323861,-82482.67,-111626.8,-43291.832,-58726.36,-131985.31,-41897.3,-43008.87,-47399.742
1314682.867238606,-82478.88,-111622.805,-43284.14,-58721.965,-131981.78,-41891.113,-43001.63,-47394.246
1314682.8712386019,-82458.26,-111600.75,-43260.01,-58699.832,-131960.9,-41868.45,-42972.86,-47360.637
1314682.8752385979,-82454.06,-111594.52,-43254.56,-58692.59,-131951.98,-41859.17,-42962.605,-47350.223
1314682.8792385936,-82477.016,-111616.5,-43274.617,-58713.22,-131967.2,-41877.484,-42987.387,-47383.3
1314682.8832385896,-82488.164,-111629.6,-43290.895,-58730.023,-131985.48,-41897.46,-43009.36,-47399.863
1314682.8872385854,-82474.66,-111620.2,-43279.176,-58722.008,-131974.38,-41892.05,-42997.6,-47373.09
1314682.8912385812,-82445.64,-111588.51,-43250.49,-58696.535,-131950.36,-41869.754,-42971.64,-47350.668
1314682.8952385772,-82437.79,-111579.875,-43242.15,-58689.13,-131944.1,-41862.754,-42965.332,-47353.965
1314682.899238573,-82466.07,-111604.414,-43265.34,-58709.96,-131965.1,-41880.74,-42989.055,-47386.844
1314682.903238569,-82488.08,-111627.16,-43287.19,-58729.29,-131982.34,-41899.17,-43007.812,-47403.2
1314682.9072385647,-82478.44,-111624.15,-43278.77,-58723.473,-131976.08,-41894.37,-43000.043,-47391.4
1314682.9112385607,-82448.41,-111589.69,-43250.652,-58699.504,-131953.05,-41871.22,-42972.535,-47354.414
1314682.9152385565,-82438.31,-111574.34,-43242.35,-58689.74,-131944.78,-41862.875,-42966.35,-47352.418
1314682.9192385525,-82459.15,-111593.19,-43262.777,-58706.91,-131959.52,-41880.7,-42993.41,-47395.875
1314682.9232385482,-82481.57,-111617.76,-43285.2,-58727.01,-131978.23,-41899.66,-43014.04,-47404.42
1314682.927238544,-82470.42,-111614.71,-43276.855,-58719.445,-131973.64,-41894.86,-43006.88,-47397.098
1314682.93123854,-82440.43,-111587.77,-43247.926,-58695.8,-131946.58,-41872.152,-42974.324,-47340.58
1314682.9352385357,-82428.55,-111574.586,-43236.9,-58685.914,-131933.47,-41861.613,-42960.695,-47332.195
1314682.9392385317,-82451.13,-111591.11,-43257.773,-58704.67,-131958.3,-41879.07,-42987.1,-47385.133
1314682.9432385275,-82475.34,-111611.414,-43281.94,-58726.28,-131983.08,-41897.098,-43006.797,-47399.293
1314682.9472385235,-82467.9,-111607.22,-43276.004,-58720.91,-131981.08,-41891.03,-42998.17,-47387.86
1314682.9512385193,-82441.49,-111583.3,-43250.49,-58699.344,-131962.33,-41870.16,-42972.37,-47360.027
1314682.9552385153,-82436.36,-111574.75,-43242.84,-58691.164,-131955.48,-41862.184,-42963.258,-47344.28
1314682.959238511,-82464.56,-111599.41,-43266.562,-58711.836,-131973.52,-41880.535,-42985.273,-47364.504
1314682.9632385068,-82489.55,-111625.33,-43291.18,-58732.547,-131995.61,-41899.21,-43009.605,-47396.65
1314682.9672385028,-82482.51,-111615.97,-43281.863,-58725.383,-131987.8,-41891.36,-42998.375,-47378.582
1314682.9712384986,-82458.414,-111588.79,-43256.43,-58703.535,-131967.7,-41869.426,-42972.535,-47348.188
1314682.9752384946,-82451.87,-111581.55,-43249.51,-58696.453,-131956.88,-41862.266,-42967.082,-47343.344
1314682.9792384903,-82479.01,-111603.11,-43272.543,-58715.13,-131975.92,-41877.08,-42985.555,-47359.62
1314682.9832384863,-82499.48,-111622.97,-43292.36,-58732.504,-131995.81,-41892.54,-43005.047,-47397.504
1314682.987238482,-82489.09,-111614.016,-43282.715,-58725.996,-131993.45,-41885.824,-42992.23,-47375.043
1314682.991238478,-82459.07,-111590.54,-43256.31,-58703.98,-131980.03,-41866.66,-42966.473,-47341.15
1314682.9952384739,-82449.625,-111584.15,-43249.066,-58694.95,-131972.9,-41859.336,-42955.895,-47324.016
1314682.9992384696,-82476.97,-111605.02,-43272.79,-58712.527,-131989.1,-41876.508,-42976.32,-47346.844
1314683.0032384656,-82493.33,-111620.57,-43290.652,-58731.242,-132002.2,-41896.324,-43008.26,-47424.113
1314683.0072384614,-82482.625,-111612.92,-43280.56,-58725.668,-131995.0,-41891.156,-43000.45,-47408.0
1314683.0112384574,-82453.29,-111584.84,-43253.746,-58700.402,-131974.38,-41868.734,-42970.95,-47356.527
1314683.0152384532,-82440.43,-111572.92,-43244.062,-58689.78,-131964.36,-41861.94,-42962.812,-47344.24
1314683.0192384492,-82463.625,-111593.1,-43264.12,-58708.457,-131978.11,-41878.746,-42984.703,-47370.89
1314683.023238445,-82487.875,-111615.44,-43284.793,-58729.777,-131997.31,-41894.53,-42999.51,-47382.49
1314683.027238441,-82477.375,-111606.0,-43274.375,-58723.594,-131990.03,-41887.37,-42984.863,-47365.195
1314683.0312384367,-82449.22,-111579.836,-43248.78,-58700.36,-131969.08,-41864.91,-42960.043,-47351.688
1314683.0352384325,-82448.49,-111578.25,-43244.305,-58694.094,-131965.58,-41857.79,-42953.656,-47344.523
1314683.0392384285,-82481.65,-111608.32,-43271.688,-58717.33,-131991.25,-41876.1,-42979.414,-47369.47
1314683.0432384242,-82502.73,-111630.74,-43292.117,-58736.94,-132012.58,-41893.758,-43000.57,-47385.094
1314683.0472384202,-82487.914,-111620.89,-43280.887,-58729.332,-132002.77,-41886.56,-42993.652,-47378.176
1314683.051238416,-82458.17,-111588.38,-43252.85,-58703.94,-131977.22,-41864.664,-42964.438,-47346.883
1314683.055238412,-82448.164,-111576.42,-43244.387,-58695.723,-131956.8,-41858.684,-42956.016,-47338.867
1314683.0592384078,-82476.89,-111602.586,-43267.78,-58714.766,-131972.83,-41876.71,-42977.824,-47360.11
1314683.0632384038,-82499.07,-111619.19,-43288.37,-58734.133,-131987.55,-41894.168,-42993.855,-47384.48
1314683.0672383995,-82482.51,-111602.38,-43275.27,-58723.633,-131978.19,-41886.844,-42983.81,-47384.402
1314683.0712383953,-82458.945,-111579.23,-43247.152,-58700.32,-131959.52,-41864.707,-42956.42,-47358.81
1314683.0752383913,-82456.016,-111573.94,-43242.758,-58695.273,-131955.05,-41859.62,-42949.707,-47354.29
1314683.079238387,-82476.61,-111594.41,-43265.18,-58714.684,-131972.02,-41877.402,-42971.07,-47381.836
1314683.083238383,-82497.32,-111612.836,-43285.484,-58732.383,-131984.22,-41895.145,-42987.875,-47400.92
1314683.0872383788,-82484.17,-111599.41,-43274.414,-58724.57,-131974.78,-41886.883,-42969.93,-47380.656
1314683.0912383748,-82448.41,-111564.58,-43245.973,-58699.504,-131958.3,-41863.242,-42938.316,-47348.715
1314683.0952383706,-82438.11,-111551.88,-43237.918,-58691.734,-131948.61,-41856.85,-42930.46,-47340.78
1314683.0992383666,-82450.195,-111567.55,-43258.953,-58710.086,-131967.61,-41874.43,-42949.87,-47365.805
1314683.1032383624,-82467.25,-111587.53,-43278.65,-58729.21,-131982.5,-41890.137,-42963.016,-47386.92
1314683.1072383581,-82451.58,-111576.5,-43264.85,-58722.78,-131971.31,-41884.117,-42953.86,-47384.277
1314683.1112383541,-82407.27,-111539.35,-43233.887,-58696.332,-131944.5,-41860.68,-42929.566,-47356.242
1314683.11523835,-82396.94,-111527.06,-43226.688,-58687.83,-131934.94,-41855.387,-42923.83,-47352.254
1314683.119238346,-82406.336,-111541.875,-43247.64,-58706.137,-131952.28,-41874.676,-42948.242,-47385.824
1314683.1232383416,-82412.72,-111551.555,-43264.65,-58722.414,-131964.2,-41892.58,-42967.207,-47394.86
1314683.1272383376,-82384.195,-111527.67,-43246.297,-58710.574,-131954.23,-41884.81,-42956.504,-47378.01
1314683.1312383334,-82335.695,-111484.016,-43213.746,-58683.84,-131929.94,-41864.504,-42936.484,-47370.117
1314683.1352383294,-82312.5,-111460.164,-43206.543,-58676.516,-131922.78,-41860.312,-42937.34,-47375.164
1314683.1392383252,-82328.734,-111473.555,-43229.207,-58695.926,-131942.22,-41878.664,-42961.062,-47394.574
1314683.1432383212,-82346.766,-111491.01,-43249.594,-58712.77,-131955.78,-41895.47,-42977.664,-47409.832
1314683.147238317,-82326.7,-111474.2,-43233.523,-58701.867,-131944.58,-41887.25,-42967.043,-47407.31
1314683.1512383127,-82277.8,-111434.37,-43197.31,-58673.668,-131916.88,-41865.805,-42945.234,-47384.93
1314683.1552383087,-82270.39,-111431.84,-43192.71,-58667.766,-131914.27,-41860.027,-42941.367,-47377.035
1314683.1592383045,-82300.7,-111465.09,-43217.49,-58689.453,-131944.9,-41880.047,-42964.152,-47394.656
1314683.1632383005,-82328.33,-111491.46,-43235.273,-58709.066,-131962.61,-41896.402,-42980.31,-47408.855
1314683.1672382962,-82321.49,-111486.695,-43222.902,-58701.215,-131955.69,-41887.98,-42971.438,-47409.668
1314683.1712382922,-82304.164,-111476.0,-43201.17,-58679.242,-131943.33,-41867.84,-42944.258,-47371.42
1314683.175238288,-82303.96,-111479.336,-43197.55,-58673.992,-131938.11,-41862.67,-42939.008,-47364.34
1314683.179238284,-82334.44,-111511.4,-43222.008,-58695.312,-131958.78,-41879.03,-42961.914,-47397.137
1314683.1832382798,-82371.38,-111544.516,-43245.85,-58717.33,-131976.36,-41893.68,-42976.035,-47406.902
1314683.1872382755,-82365.32,-111537.48,-43234.66,-58711.71,-131967.25,-41884.562,-42963.625,-47397.098
1314683.1912382715,-82348.88,-111523.6,-43206.465,-58690.023,-131949.72,-41861.98,-42935.832,-47373.74
1314683.1952382673,-82350.836,-111528.445,-43203.492,-58685.305,-131951.17,-41856.12,-42929.324,-47360.72
1314683.1992382633,-82380.13,-111559.086,-43230.266,-58707.562,-131974.17,-41873.535,-42951.945,-47381.918
1314683.203238259,-82413.21,-111589.44,-43251.305,-58727.906,-131992.84,-41888.918,-42971.273,-47400.637
1314683.207238255,-82407.92,-111580.98,-43240.03,-58719.445,-131980.55,-41879.438,-42959.23,-47379.03
1314683.2112382508,-82386.6,-111561.12,-43215.008,-58695.273,-131956.14,-41854.25,-42930.625,-47336.875
1314683.2152382468,-82390.38,-111559.25,-43212.445,-58688.926,-131951.14,-41849.49,-42931.97,-47341.27
1314683.2192382426,-82421.836,-111589.73,-43237.875,-58710.86,-131970.34,-41867.312,-42959.72,-47381.062
1314683.2232382384,-82447.47,-111610.72,-43256.062,-58728.723,-131985.84,-41883.383,-42979.13,-47417.277
1314683.2272382344,-82441.164,-111602.74,-43246.22,-58720.91,-131981.25,-41875.57,-42966.188,-47399.13
1314683.2312382301,-82418.99,-111580.125,-43224.324,-58699.426,-131966.16,-41858.195,-42943.484,-47359.99
1314683.2352382261,-82421.836,-111577.84,-43221.273,-58694.258,-131964.16,-41855.387,-42943.24,-47358.36
1314683.239238222,-82450.6,-111604.86,-43242.598,-58712.65,-131984.1,-41874.15,-42965.66,-47384.074
1314683.243238218,-82477.664,-111631.43,-43263.797,-58733.074,-131998.98,-41890.016,-42981.812,-47392.336
1314683.2472382137,-82469.484,-111619.06,-43253.01,-58724.57,-131989.06,-41878.824,-42965.293,-47358.97
1314683.2512382097,-82440.92,-111592.25,-43226.81,-58700.766,-131966.64,-41855.875,-42940.31,-47341.066
1314683.2552382054,-82439.17,-111592.29,-43223.555,-58697.55,-131963.34,-41852.133,-42936.77,-47338.543
1314683.2592382012,-82469.56,-111618.21,-43249.27,-58721.152,-131984.22,-41872.926,-42961.223,-47363.895
1314683.2632381972,-82494.39,-111638.875,-43268.516,-58738.445,-131999.84,-41885.742,-42979.82,-47393.555
1314683.267238193,-82486.94,-111633.586,-43257.895,-58731.04,-131991.25,-41875.773,-42967.0,-47387.207
1314683.271238189,-82464.07,-111615.44,-43236.453,-58709.68,-131973.52,-41854.617,-42938.07,-47343.832
1314683.2752381847,-82468.914,-111624.39,-43236.37,-58707.645,-131978.8,-41849.938,-42935.426,-47345.5
1314683.2792381807,-82504.56,-111655.73,-43264.203,-58730.918,-132006.6,-41867.637,-42962.89,-47381.594
1314683.2832381765,-82527.914,-111676.96,-43283.977,-58747.844,-132020.84,-41884.645,-42980.31,-47400.15
1314683.2872381725,-82511.11,-111665.0,-43268.72,-58738.406,-132011.8,-41876.914,-42966.594,-47384.93
1314683.2912381683,-82480.76,-111636.36,-43241.133,-58715.496,-131984.75,-41854.9,-42937.83,-47351.727
1314683.295238164,-82479.17,-111632.04,-43236.41,-58712.12,-131978.89,-41849.164,-42930.867,-47335.777
1314683.29923816,-82504.36,-111653.65,-43260.664,-58732.06,-131994.95,-41869.223,-42957.52,-47365.156
1314683.3032381558,-82526.734,-111674.65,-43281.17,-58750.043,-132009.16,-41886.56,-42978.152,-47376.465
1314683.3072381518,-82515.1,-111665.49,-43268.965,-58740.52,-131999.52,-41878.62,-42970.055,-47366.09
1314683.3112381476,-82486.25,-111641.16,-43243.855,-58717.53,-131979.42,-41859.05,-42949.3,-47341.84
1314683.3152381436,-82483.08,-111637.336,-43242.96,-58711.02,-131976.08,-41856.527,-42948.934,-47338.34
1314683.3192381393,-82509.89,-111663.29,-43267.58,-58733.81,-131993.1,-41875.773,-42972.656,-47364.87
1314683.3232381353,-82529.75,-111683.44,-43285.77,-58752.363,-132009.12,-41892.215,-42989.746,-47398.36
1314683.327238131,-82516.4,-111671.1,-43271.566,-58743.86,-132002.73,-41881.676,-42970.83,-47374.676
1314683.3312381268,-82484.5,-111638.35,-43242.84,-58716.72,-131976.73,-41856.406,-42938.4,-47329.875
1314683.3352381228,-82485.35,-111635.016,-43242.758,-58714.887,-131973.84,-41854.41,-42933.96,-47305.586
1314683.3392381186,-82515.55,-111656.945,-43270.02,-58738.77,-131994.92,-41876.26,-42959.637,-47334.35
1314683.3432381146,-82533.81,-111675.3,-43285.28,-58754.76,-132014.94,-41893.19,-42984.336,-47397.098
1314683.3472381104,-82519.49,-111666.1,-43270.062,-58743.33,-132007.81,-41882.242,-42970.418,-47399.58
1314683.3512381064,-82491.46,-111640.06,-43242.473,-58719.32,-131983.94,-41859.418,-42935.63,-47353.23
1314683.3552381021,-82489.79,-111634.766,-43239.625,-58715.496,-131975.75,-41855.47,-42932.414,-47346.6
1314683.3592380981,-82520.266,-111660.93,-43265.137,-58737.59,-131995.66,-41874.27,-42955.934,-47367.188
1314683.363238094,-82543.13,-111680.34,-43282.88,-58755.453,-132009.12,-41889.85,-42971.56,-47374.555
1314683.3672380897,-82527.34,-111665.086,-43266.36,-58743.734,-131998.95,-41879.883,-42956.18,-47356.934
1314683.3712380857,-82495.73,-111637.62,-43238.04,-58719.24,-131980.88,-41858.684,-42935.832,-47354.168
1314683.3752380814,-82491.13,-111632.57,-43234.824,-58714.277,-131978.39,-41855.023,-42937.34,-47363.61
1314683.3792380774,-82518.92,-111660.32,-43262.492,-58738.04,-132000.08,-41874.96,-42962.605,-47380.13
1314683.3832380732,-82537.68,-111679.53,-43281.496,-58755.168,-132015.83,-41889.934,-42979.86,-47394.086
1314683.3872380692,-82519.164,-111661.22,-43264.406,-58740.723,-131997.23,-41878.094,-42963.867,-47377.605
1314683.391238065,-82488.445,-111631.02,-43236.695,-58715.902,-131975.95,-41857.26,-42939.13,-47351.156
1314683.395238061,-82493.53,-111630.91,-43239.098,-58718.223,-131982.06,-41856.527,-42939.74,-47342.938
1314683.3992380567,-82522.95,-111655.36,-43265.953,-58740.723,-132002.73,-41878.094,-42968.387,-47372.355
1314683.4032380525,-82542.805,-111672.734,-43284.223,-58756.88,-132018.6,-41894.246,-42985.92,-47388.875
1314683.4072380485,-82528.98,-111656.58,-43269.453,-58746.137,-132007.69,-41883.668,-42971.316,-47370.402
1314683.4112380443,-82501.586,-111629.48,-43241.54,-58722.09,-131981.17,-41859.742,-42942.426,-47339.64
1314683.4152380403,-82501.75,-111628.13,-43239.91,-58719.363,-131981.58,-41858.36,-42942.26,-47343.953
1314683.419238036,-82528.52,-111651.57,-43264.895,-58740.48,-132006.8,-41877.727,-42969.24,-47382.49
1314683.423238032,-82542.65,-111666.79,-43280.477,-58758.02,-132017.86,-41891.97,-42984.99,-47402.184
1314683.4272380278,-82526.086,-111656.375,-43266.645,-58746.582,-132004.4,-41880.168,-42966.39,-47373.293
1314683.4312380238,-82497.56,-111630.54,-43239.83,-58721.56,-131986.25,-41858.684,-42938.52,-47340.375
1314683.4352380196,-82496.09,-111627.484,-43237.59,-58718.508,-131984.22,-41858.887,-42936.035,-47334.8
1314683.4392380153,-82521.12,-111649.46,-43261.883,-58741.21,-132003.67,-41880.984,-42967.285,-47383.75
1314683.4432380113,-82542.4,-111670.58,-43283.57,-58759.484,-132017.5,-41896.402,-42988.406,-47409.465
1314683.447238007,-82529.42,-111661.055,-43270.305,-58748.535,-132003.55,-41884.93,-42971.844,-47374.797
1314683.451238003,-82503.83,-111634.484,-43245.117,-58725.547,-131979.9,-41865.316,-42947.836,-47348.51
1314683.4552379989,-82503.26,-111632.45,-43243.45,-58722.617,-131977.83,-41864.137,-42949.504,-47358.156
1314683.4592379949,-82532.92,-111660.73,-43268.8,-58745.89,-132002.23,-41884.727,-42975.14,-47382.855
1314683.4632379906,-82550.83,-111678.76,-43285.484,-58762.574,-132015.02,-41898.52,-42991.7,-47400.676
1314683.4672379866,-82537.11,-111664.43,-43270.43,-58750.125,-132005.45,-41887.004,-42974.164,-47373.945
1314683.4712379824,-82509.69,-111638.02,-43244.1,-58726.688,-131982.1,-41866.375,-42950.523,-47354.574
1314683.4752379782,-82508.55,-111636.44,-43242.23,-58723.51,-131980.14,-41865.64,-42953.33,-47365.316
1314683.4792379742,-82537.07,-111660.93,-43268.965,-58746.38,-131998.17,-41885.742,-42975.668,-47388.918
1314683.48323797,-82549.805,-111674.69,-43283.57,-58762.168,-132011.56,-41899.82,-42991.902,-47408.367
1314683.487237966,-82531.01,-111658.41,-43267.703,-58749.84,-132000.78,-41888.227,-42976.766,-47392.906
1314683.4912379617,-82506.8,-111632.37,-43245.445,-58729.7,-131980.72,-41866.008,-42945.438,-47338.543
1314683.4952379577,-82506.96,-111630.5,-43245.242,-58728.355,-131981.78,-41862.793,-42943.688,-47333.457
1314683.4992379535,-82534.14,-111653.69,-43267.906,-58750.855,-132002.69,-41883.22,-42973.39,-47389.12
1314683.5032379495,-82553.06,-111672.33,-43285.035,-58768.15,-132019.81,-41897.83,-42989.586,-47397.95
1314683.5072379452,-82536.99,-111657.84,-43270.71,-58755.13,-132006.88,-41886.68,-42977.867,-47397.34
1314683.511237941,-82505.01,-111630.7,-43243.004,-58728.926,-131988.98,-41864.3,-42954.145,-47368.33
1314683.515237937,-82507.29,-111631.59,-43242.96,-58729.13,-131993.12,-41861.734,-42949.344,-47345.95
1314683.5192379327,-82534.71,-111657.35,-43268.312,-58750.773,-132010.98,-41884.074,-42974.164,-47380.78
1314683.5232379287,-82550.5,-111671.67,-43284.793,-58767.54,-132022.47,-41899.13,-42991.414,-47413.29
1314683.5272379245,-82532.72,-111652.43,-43266.684,-58755.168,-132007.2,-41887.492,-42970.34,-47381.43
1314683.5312379205,-82499.07,-111617.39,-43238.895,-58733.727,-131980.27,-41867.105,-42943.77,-47347.7
1314683.5352379163,-82499.07,-111617.07,-43240.562,-58730.797,-131978.56,-41866.863,-42946.25,-47351.32
1314683.5392379123,-82537.4,-111649.5,-43270.266,-58753.83,-132002.12,-41889.61,-42977.99,-47385.38
1314683.543237908,-82544.4,-111660.28,-43284.953,-58767.457,-132016.64,-41904.582,-42997.234,-47407.918
1314683.5472379038,-82520.914,-111639.9,-43263.957,-58751.75,-132002.33,-41891.684,-42979.617,-47383.383
1314683.5512378998,-82487.266,-111611.375,-43238.28,-58729.535,-131981.98,-41872.76,-42956.83,-47351.523
1314683.5552378956,-82479.54,-111604.05,-43240.438,-58727.703,-131982.92,-41875.33,-42960.125,-47356.934
1314683.5592378916,-82492.44,-111615.16,-43260.215,-58745.04,-131996.1,-41896.61,-42991.008,-47390.547
1314683.5632378873,-82504.03,-111625.734,-43272.46,-58758.996,-132005.3,-41911.094,-43007.246,-47398.316
1314683.5672378833,-82472.375,-111599.25,-43252.035,-58744.47,-131989.3,-41899.008,-42990.562,-47379.76
1314683.571237879,-82434.25,-111564.17,-43222.13,-58720.38,-131965.5,-41878.664,-42969.28,-47372.4
1314683.575237875,-82425.54,-111562.14,-43220.582,-58719.77,-131964.69,-41879.56,-42973.066,-47375.57
1314683.5792378709,-82432.13,-111573.734,-43241.66,-58739.91,-131981.08,-41901.41,-43001.793,-47403.445
1314683.5832378669,-82423.914,-111569.38,-43252.117,-58751.59,-131994.6,-41916.42,-43023.074,-47440.43
1314683.5872378626,-82382.125,-111533.49,-43229.414,-58734.99,-131980.67,-41904.34,-43006.27,-47415.652
1314683.5912378584,-82335.49,-111487.47,-43196.902,-58708.496,-131958.5,-41886.07,-42981.0,-47388.062
1314683.5952378544,-82320.97,-111472.05,-43194.664,-58704.266,-131958.66,-41889.242,-42986.695,-47390.098
1314683.5992378502,-82336.59,-111484.336,-43217.45,-58723.39,-131975.83,-41911.867,-43017.62,-47435.02
1314683.6032378462,-82343.14,-111489.51,-43228.395,-58738.85,-131985.31,-41925.945,-43032.105,-47448.324
1314683.607237842,-82312.26,-111457.6,-43205.934,-58722.58,-131971.89,-41912.395,-43008.3,-47392.457
1314683.611237838,-82281.984,-111427.58,-43177.086,-58696.777,-131950.94,-41893.473,-42989.992,-47394.656
1314683.6152378337,-82282.06,-111427.086,-43178.71,-58693.2,-131947.8,-41895.59,-43000.203,-47430.176
1314683.6192378297,-82313.27,-111456.016,-43205.73,-58716.88,-131968.34,-41916.26,-43022.098,-47439.25
1314683.6232378255,-82337.12,-111478.88,-43224.12,-58736.004,-131983.48,-41929.812,-43037.19,-47460.37
1314683.6272378212,-82321.9,-111464.16,-43207.887,-58722.78,-131971.48,-41916.383,-43021.08,-47441.043
1314683.6312378172,-82310.55,-111452.35,-43188.926,-58704.1,-131962.45,-41895.793,-42989.707,-47389.812
1314683.635237813,-82324.71,-111465.01,-43195.965,-58707.44,-131967.17,-41895.875,-42991.7,-47394.453
1314683.639237809,-82360.76,-111502.32,-43224.45,-58734.254,-131986.58,-41917.887,-43020.223,-47425.742
1314683.6432378048,-82386.84,-111527.34,-43241.21,-58750.652,-132000.2,-41929.77,-43033.285,-47433.594
1314683.6472378008,-82375.05,-111516.69,-43225.02,-58736.047,-131988.28,-41917.074,-43018.637,-47427.207
1314683.6512377965,-82356.734,-111502.16,-43203.94,-58715.78,-131969.56,-41896.16,-42996.625,-47414.31
1314683.6552377925,-82369.47,-111516.16,-43208.906,-58718.344,-131970.75,-41895.184,-42997.234,-47410.848
1314683.6592377883,-82405.64,-111553.43,-43237.145,-58741.742,-131994.11,-41914.754,-43017.05,-47426.312
1314683.663237784,-82431.805,-111576.99,-43256.145,-58758.996,-132010.55,-41925.375,-43024.58,-47427.207
1314683.66723778,-82426.44,-111569.336,-43243.98,-58747.4,-132002.94,-41912.152,-43005.74,-47408.57
1314683.6712377758,-82407.59,-111549.445,-43221.355,-58726.28,-131979.02,-41893.92,-42984.09,-47392.01
1314683.6752377718,-82419.6,-111555.14,-43225.668,-58728.273,-131979.42,-41894.086,-42985.637,-47395.02
1314683.6792377676,-82456.99,-111590.62,-43255.047,-58751.875,-132002.77,-41911.785,-43002.2,-47414.797
1314683.6832377636,-82478.68,-111612.02,-43271.934,-58767.54,-132019.78,-41922.812,-43006.348,-47415.69
1314683.6872377594,-82466.27,-111602.625,-43256.227,-58753.5,-132012.0,-41909.26,-42987.1,-47398.152
1314683.6912377554,-82450.805,-111591.27,-43236.125,-58734.133,-132003.38,-41888.062,-42958.418,-47369.59
1314683.6952377511,-82462.484,-111600.586,-43241.414,-58739.098,-132011.84,-41889.0,-42958.293,-47378.906
1314683.699237747,-82500.086,-111629.84,-43269.492,-58763.51,-132029.1,-41907.51,-42983.684,-47416.383
1314683.703237743,-82523.484,-111650.11,-43286.906,-58778.688,-132043.22,-41919.84,-42996.664,-47435.26
1314683.7072377387,-82509.73,-111638.8,-43270.633,-58765.992,-132025.72,-41907.51,-42974.043,-47403.445
1314683.7112377346,-82485.6,-111616.58,-43247.52,-58745.28,-132005.7,-41887.613,-42948.57,-47369.754
1314683.7152377304,-82493.0,-111620.2,-43252.2,-58746.79,-132008.62,-41889.04,-42951.742,-47388.266
1314683.7192377264,-82523.234,-111650.31,-43277.547,-58767.99,-132030.31,-41909.87,-42975.508,-47420.332
1314683.7232377222,-82538.54,-111664.06,-43291.098,-58782.51,-132042.33,-41922.69,-42985.598,-47428.184
1314683.7272377182,-82522.42,-111646.08,-43275.8,-58769.777,-132032.36,-41909.71,-42964.52,-47400.27
1314683.731237714,-82499.31,-111623.375,-43252.44,-58750.164,-132013.52,-41889.566,-42942.547,-47383.547
1314683.7352377097,-82502.28,-111627.77,-43254.477,-58753.746,-132012.22,-41888.918,-42945.355,-47377.484
1314683.7392377057,-82534.016,-111657.27,-43281.21,-58778.688,-132036.47,-41907.797,-42965.457,-47389.16
1314683.7432377015,-82553.67,-111675.42,-43297.16,-58792.36,-132047.0,-41920.33,-42976.035,-47412.723
1314683.7472376975,-82537.6,-111660.85,-43282.15,-58779.176,-132036.1,-41906.902,-42959.35,-47414.836
1314683.7512376932,-82515.305,-111639.445,-43258.953,-58757.12,-132019.3,-41886.516,-42937.582,-47397.42
1314683.7552376892,-82523.97,-111646.9,-43265.707,-58757.69,-132019.7,-41888.062,-42942.383,-47398.64
1314683.759237685,-82555.34,-111675.22,-43294.23,-58781.457,-132045.98,-41909.383,-42967.33,-47420.125
1314683.763237681,-82574.914,-111696.375,-43308.92,-58798.91,-132057.78,-41920.535,-42977.54,-47420.086
1314683.7672376768,-82559.86,-111682.62,-43291.344,-58784.26,-132050.17,-41905.273,-42961.02,-47395.996
1314683.7712376725,-82534.95,-111656.375,-43268.883,-58762.004,-132028.73,-41889.203,-42943.36,-47384.848
1314683.7752376685,-82538.82,-111659.43,-43270.59,-58762.656,-132029.95,-41892.863,-42951.01,-47383.71
1314683.7792376643,-82568.93,-111691.37,-43296.754,-58787.926,-132055.39,-41914.348,-42976.688,-47405.926
1314683.7832376603,-82584.11,-111709.76,-43310.305,-58801.598,-132068.81,-41927.125,-42990.52,-47417.156
1314683.787237656,-82564.74,-111694.46,-43292.89,-58787.64,-132051.23,-41912.56,-42971.316,-47392.58
1314683.791237652,-82541.14,-111670.01,-43271.363,-58768.273,-132035.53,-41891.93,-42948.367,-47371.46
1314683.7952376478,-82548.625,-111675.13,-43275.96,-58771.65,-132040.28,-41893.027,-42954.062,-47384.074
1314683.7992376438,-82579.914,-111701.83,-43301.598,-58794.11,-132057.05,-41914.227,-42978.152,-47398.316
1314683.8032376396,-82594.41,-111709.44,-43315.066,-58805.016,-132064.98,-41926.637,-42993.938,-47413.414
1314683.8072376354,-82573.57,-111690.76,-43298.055,-58788.656,-132049.48,-41914.51,-42980.633,-47413.414
1314683.8112376314,-82551.35,-111670.82,-43279.137,-58769.816,-132031.95,-41896.12,-42959.27,-47374.066
1314683.8152376271,-82560.875,-111676.234,-43286.258,-58773.438,-132038.83,-41899.09,-42964.438,-47373.74
1314683.8192376231,-82587.85,-111700.52,-43312.34,-58796.145,-132066.0,-41919.84,-42995.28,-47418.05
1314683.823237619,-82602.22,-111716.84,-43324.465,-58809.777,-132075.97,-41931.438,-43010.176,-47432.66
1314683.827237615,-82585.414,-111701.586,-43308.15,-58797.082,-132059.61,-41917.727,-42992.598,-47401.367
1314683.8312376107,-82559.086,-111676.76,-43286.5,-58776.164,-132036.98,-41899.742,-42974.12,-47375.285
1314683.8352376067,-82562.3,-111679.125,-43291.914,-58778.73,-132040.38,-41905.805,-42987.227,-47407.676
1314683.8392376024,-82595.83,-111709.555,-43320.965,-58803.387,-132065.19,-41928.14,-43015.707,-47438.113
1314683.8432375982,-82608.28,-111721.36,-43334.11,-58816.164,-132075.53,-41939.78,-43030.07,-47447.55
1314683.8472375942,-82591.84,-111708.46,-43316.773,-58803.918,-132064.98,-41926.84,-43015.707,-47436.363
1314683.85123759,-82567.1,-111687.79,-43294.965,-58783.0,-132046.84,-41907.31,-42995.242,-47416.79
1314683.855237586,-82571.25,-111693.41,-43300.336,-58784.832,-132043.9,-41912.8,-43003.95,-47416.26
1314683.8592375817,-82601.766,-111723.15,-43331.383,-58809.043,-132063.23,-41935.14,-43035.93,-47454.43
1314683.8632375777,-82619.836,-111741.46,-43349.285,-58825.32,-132080.66,-41924.195,-43047.406,-47461.305
1314683.8672375735,-82602.055,-111721.64,-43333.418,-58812.707,-132069.9,-41881.51,-43029.46,-47432.332
1314683.8712375695,-82577.88,-111702.03,-43314.375,-58794.72,-132052.45,-41853.965,-43013.145,-47414.188
1314683.8752375653,-82586.8,-111712.08,-43322.39,-58799.277,-132057.45,-41854.98,-43025.188,-47428.266
1314683.879237561,-82621.99,-111742.11,-43350.586,-58825.523,-132080.98,-41876.87,-43055.38,-47460.9
1314683.883237557,-82642.54,-111759.65,-43365.156,-58840.457,-132099.89,-41888.957,-43068.32,-47475.098
1314683.8872375528,-82620.77,-111739.14,-43346.926,-58824.707,-132087.77,-41873.332,-43048.18,-47458.66
1314683.8912375488,-82593.51,-111714.28,-43325.848,-58804.406,-132068.23,-41854.656,-43023.848,-47419.027
1314683.8952375446,-82600.75,-111718.875,-43332.97,-58809.004,-132071.17,-41860.637,-43034.426,-47421.062
1314683.8992375406,-82631.15,-111747.52,-43362.918,-58833.742,-132088.3,-41883.18,-43064.58,-47459.23
1314683.9032375363,-82646.484,-111765.22,-43379.56,-58850.383,-132103.84,-41895.633,-43079.1,-47473.51
1314683.9072375323,-82622.36,-111747.6,-43359.336,-58836.59,-132088.3,-41881.31,-43060.957,-47438.926
1314683.911237528,-82596.195,-111725.51,-43337.77,-58816.285,-132068.94,-41863.04,-43037.8,-47411.95
1314683.9152375238,-82607.99,-111737.02,-43346.926,-58822.797,-132071.38,-41871.176,-43053.02,-47439.94
1314683.9192375198,-82641.234,-111765.83,-43376.305,-58848.227,-132097.38,-41899.66,-43096.03,-47501.305
1314683.9232375156,-82656.45,-111779.5,-43393.11,-58862.793,-132110.56,-41914.957,-43114.707,-47518.72
1314683.9272375116,-82635.42,-111761.805,-43377.117,-58849.816,-132099.48,-41901.938,-43099.734,-47498.25
1314683.9312375074,-82614.09,-111742.48,-43358.93,-58831.668,-132084.48,-41886.11,-43079.793,-47472.008
1314683.9352375034,-82625.695,-111752.41,-43369.508,-58837.12,-132094.4,-41893.72,-43090.332,-47488.77
1314683.9392374991,-82655.88,-111777.1,-43398.438,-58861.9,-132112.67,-41919.23,-43119.184,-47519.574
1314683.9432374951,-82674.805,-111793.87,-43412.64,-58876.832,-132119.47,-41934.938,-43137.37,-47541.953
1314683.947237491,-82654.91,-111778.89,-43396.324,-58863.16,-132107.67,-41924.93,-43123.617,-47536.055
1314683.9512374867,-82630.375,-111754.64,-43376.508,-58842.773,-132093.27,-41908.816,-43102.38,-47501.875
1314683.9552374827,-82643.35,-111764.61,-43384.766,-58848.31,-132096.64,-41915.69,-43106.527,-47496.258
1314683.9592374784,-82672.61,-111793.74,-43412.723,-58874.15,-132118.7,-41939.332,-43131.758,-47531.7
1314683.9632374744,-82682.09,-111805.1,-43426.27,-58887.207,-132128.5,-41949.22,-43139.082,-47534.18
1314683.9672374702,-82659.14,-111783.164,-43408.367,-58873.13,-132112.47,-41933.88,-43117.27,-47512.86
1314683.9712374662,-82638.63,-111765.83,-43390.18,-58857.3,-132098.44,-41917.4,-43091.066,-47472.656
1314683.975237462,-82649.375,-111777.51,-43402.508,-58864.42,-132108.33,-41924.074,-43096.76,-47461.305
1314683.979237458,-82676.68,-111801.44,-43429.484,-58886.598,-132128.67,-41947.957,-43131.88,-47526.125
1314683.9832374537,-82691.29,-111814.414,-43441.895,-58898.805,-132142.62,-41960.492,-43145.1,-47548.504
1314683.9872374495,-82674.44,-111801.44,-43425.66,-58886.273,-132135.83,-41950.766,-43128.906,-47526.53
1314683.9912374455,-82646.32,-111774.375,-43403.402,-58867.434,-132114.95,-41936.08,-43118.45,-47533.33
1314683.9952374413,-82653.85,-111782.48,-43413.535,-58872.03,-132114.55,-41944.05,-43129.03,-47531.66
1314683.9992374373,-82685.55,-111810.39,-43442.668,-58900.027,-132143.6,-41968.63,-43152.59,-47531.94
1314684.003237433,-82700.73,-111824.914,-43455.65,-58912.723,-132159.22,-41980.55,-43162.68,-47540.773
1314684.007237429,-82673.305,-111803.266,-43436.363,-58895.02,-132140.5,-41966.066,-43144.574,-47534.426
1314684.0112374248,-82646.734,-111779.75,-43416.3,-58875.57,-132118.98,-41949.22,-43124.96,-47522.83
1314684.0152374208,-82655.48,-111786.79,-43425.457,-58881.348,-132123.1,-41957.684,-43136.477,-47536.664
1314684.0192374166,-82686.0,-111814.66,-43455.242,-58906.332,-132148.94,-41981.977,-43159.465,-47547.08
1314684.0232374126,-82701.22,-111825.73,-43471.152,-58920.004,-132166.88,-41995.2,-43169.92,-47554.2
1314684.0272374083,-82676.59,-111802.414,-43450.32,-58902.14,-132156.42,-41981.04,-43154.297,-47545.695
1314684.031237404,-82653.69,-111782.516,-43430.83,-58883.3,-132142.9,-41966.555,-43138.105,-47538.496
1314684.0352374,-82666.875,-111793.13,-43443.523,-58892.297,-132155.61,-41973.918,-43151.004,-47555.176
1314684.0392373959,-82696.984,-111819.09,-43472.047,-58916.504,-132179.25,-41998.414,-43178.508,-47566.49
1314684.0432373919,-82708.58,-111832.32,-43485.11,-58929.61,-132189.33,-42011.355,-43191.69,-47577.965
1314684.0472373876,-82688.11,-111816.0,-43467.652,-58915.082,-132177.4,-41997.152,-43173.3,-47567.996
1314684.0512373836,-82668.91,-111800.46,-43449.91,-58899.7,-132170.3,-41978.395,-43152.426,-47540.73
1314684.0552373794,-82678.51,-111808.92,-43462.08,-58908.977,-132179.33,-41969.035,-43165.73,-47557.21
1314684.0592373754,-82705.94,-111834.48,-43492.84,-58934.082,-132200.16,-41976.523,-43197.31,-47589.926
1314684.0632373712,-82718.67,-111848.59,-43507.527,-58946.332,-132207.73,-41972.7,-43204.387,-47599.203
1314684.067237367,-82693.08,-111823.41,-43487.387,-58931.316,-132187.75,-41948.895,-43181.316,-47571.617
1314684.071237363,-82670.375,-111798.42,-43469.24,-58912.965,-132170.2,-41927.98,-43164.43,-47545.168
1314684.0752373587,-82680.055,-111808.31,-43478.8,-58920.37,-132169.89,-41930.79,-43173.668,-47548.625
1314684.0792373547,-82707.56,-111834.516,-43505.086,-58942.71,-132187.95,-41950.32,-43204.305,-47595.46
1314684.0832373505,-82718.875,-111843.47,-43514.12,-58954.47,-132201.5,-41959.676,-43214.844,-47602.99
1314684.0872373465,-82702.84,-111834.76,-43494.996,-58941.203,-132197.03,-41945.477,-43187.38,-47538.25
1314684.0912373422,-82687.95,-111820.93,-43477.95,-58924.6,-132187.75,-41927.86,-43170.82,-47531.984
1314684.0952373382,-82683.555,-111810.75,-43484.54,-58928.266,-132185.72,-41933.066,-43188.805,-47590.254
1314684.099237334,-82703.734,-111825.85,-43508.79,-58951.703,-132205.73,-41954.266,-43216.023,-47610.965
1314684.1032373297,-82718.875,-111835.414,-43522.625,-58963.707,-132219.69,-41962.605,-43222.13,-47603.926
1314684.1072373257,-82702.4,-111814.54,-43507.49,-58949.26,-132209.64,-41946.047,-43204.875,-47593.02
1314684.1112373215,-82686.52,-111795.9,-43493.9,-58933.312,-132189.42,-41926.72,-43185.305,-47582.195
1314684.1152373175,-82697.516,-111804.28,-43508.668,-58942.14,-132196.3,-41929.566,-43192.426,-47581.34
1314684.1192373133,-82730.23,-111832.03,-43538.7,-58968.793,-132220.7,-41948.69,-43215.617,-47597.25
1314684.1232373093,-82741.09,-111838.79,-43549.316,-58978.844,-132223.84,-41956.18,-43222.332,-47600.71
1314684.127237305,-82713.625,-111812.14,-43527.47,-58960.168,-132207.61,-41939.453,-43198.164,-47585.086
1314684.131237301,-82692.016,-111792.97,-43510.664,-58940.227,-132186.77,-41923.055,-43176.27,-47551.15
1314684.1352372968,-82706.18,-111804.89,-43524.617,-58950.074,-132190.11,-41930.992,-43186.32,-47556.6
1314684.1392372926,-82737.76,-111837.445,-43553.914,-58976.484,-132220.14,-41954.227,-43217.977,-47596.926
1314684.1432372886,-82746.55,-111849.05,-43563.6,-58986.492,-132231.86,-41963.094,-43232.016,-47620.04
1314684.1472372843,-82724.125,-111826.5,-43544.07,-58969.32,-132218.67,-41946.82,-43210.492,-47594.32
1314684.1512372803,-82705.2,-111804.89,-43523.684,-58952.07,-132203.0,-41927.492,-43187.176,-47563.438
1314684.155237276,-82720.13,-111816.33,-43536.5,-58962.08,-132210.38,-41932.984,-43191.773,-47556.152
1314684.159237272,-82751.305,-111845.91,-43566.33,-58987.266,-132233.77,-41954.836,-43218.02,-47582.234
1314684.1632372679,-82758.75,-111856.125,-43574.586,-58995.812,-132244.95,-41961.832,-43227.133,-47608.727
1314684.1672372639,-82731.61,-111832.6,-43553.305,-58977.133,-132225.52,-41944.62,-43209.188,-47604.82
1314684.1712372596,-82717.61,-111820.93,-43540.324,-58962.242,-132214.2,-41925.133,-43180.3,-47539.51
1314684.1752372554,-82731.77,-111832.56,-43552.816,-58970.5,-132214.97,-41933.066,-43191.734,-47557.414
1314684.1792372514,-82757.53,-111852.664,-43578.29,-58993.938,-132228.97,-41955.527,-43222.78,-47611.656
1314684.1832372472,-82770.67,-111864.99,-43588.34,-59004.19,-132238.86,-41963.258,-43233.277,-47630.496
1314684.1872372432,-82753.54,-111849.9,-43569.5,-58988.85,-132226.94,-41946.414,-43212.566,-47591.88
1314684.191237239,-82733.32,-111824.836,-43553.508,-58970.01,-132211.72,-41931.6,-43194.46,-47564.58
1314684.195237235,-82744.305,-111833.09,-43566.45,-58975.02,-132217.78,-41938.56,-43201.457,-47566.12
1314684.1992372307,-82770.555,-111862.266,-43592.082,-58998.293,-132243.33,-41960.613,-43226.074,-47591.105
1314684.2032372267,-82776.25,-111867.19,-43598.918,-59008.3,-132248.55,-41969.28,-43232.26,-47611.53
1314684.2072372225,-82752.28,-111847.414,-43578.777,-58993.086,-132230.47,-41952.92,-43205.445,-47574.14
1314684.2112372182,-82729.49,-111826.74,-43558.473,-58976.2,-132213.7,-41935.996,-43184.285,-47543.5
1314684.2152372142,-82737.63,-111835.164,-43568.77,-58984.863,-132222.73,-41943.32,-43198.49,-47560.875
1314684.21923721,-82769.25,-111867.35,-43596.395,-59010.176,-132247.61,-41966.51,-43230.88,-47606.04
1314684.223237206,-82781.01,-111879.44,-43605.633,-59021.406,-132261.16,-41974.324,-43236.33,-47607.668
1314684.2272372018,-82757.2,-111859.83,-43586.508,-59005.09,-132246.95,-41954.633,-43211.305,-47578.29
1314684.2312371978,-82732.83,-111834.48,-43568.81,-58989.3,-132230.44,-41937.906,-43195.64,-47570.883
1314684.2352371935,-82744.43,-111846.68,-43580.69,-58999.27,-132238.66,-41944.664,-43206.34,-47573.61
1314684.2392371895,-82774.82,-111875.98,-43605.633,-59025.598,-132258.31,-41967.816,-43228.926,-47583.66
1314684.2432371853,-82777.51,-111876.51,-43610.8,-59030.4,-132259.69,-41975.383,-43237.184,-47624.27
1314684.247237181,-82751.71,-111850.266,-43590.375,-59010.62,-132241.05,-41956.098,-43209.637,-47582.766
1314684.251237177,-82732.55,-111832.16,-43572.51,-58994.426,-132230.92,-41938.438,-43185.508,-47537.477
1314684.2552371728,-82736.58,-111837.12,-43584.84,-59002.44,-132241.55,-41947.062,-43199.504,-47561.24
1314684.2592371688,-82764.85,-111863.57,-43615.36,-59029.38,-132265.3,-41969.08,-43225.75,-47590.863
1314684.2632371646,-82776.25,-111873.01,-43624.066,-59039.188,-132276.5,-41975.75,-43232.79,-47591.434
1314684.2672371606,-82755.45,-111854.695,-43601.562,-59022.46,-132259.97,-41959.88,-43212.402,-47559.367
1314684.2712371564,-82739.51,-111831.99,-43585.574,-59006.555,-132245.36,-41942.71,-43195.355,-47542.117
1314684.2752371524,-82752.85,-111840.7,-43596.03,-59013.957,-132252.03,-41949.016,-43209.676,-47560.914
1314684.2792371481,-82782.02,-111869.71,-43622.07,-59036.418,-132276.7,-41971.03,-43232.137,-47564.168
1314684.283237144,-82781.45,-111871.016,-43627.28,-59042.277,-132278.73,-41978.11,-43239.91,-47592.207
1314684.28723714,-82751.23,-111843.43,-43603.68,-59023.4,-132260.5,-41963.297,-43223.88,-47595.664
1314684.2912371357,-82731.77,-111825.12,-43588.664,-59006.88,-132247.31,-41946.168,-43203.492,-47555.992
1314684.2952371316,-82746.664,-111831.22,-43603.56,-59018.395,-132253.7,-41956.83,-43214.684,-47565.39
1314684.2992371274,-82775.76,-111856.164,-43630.74,-59042.93,-132277.52,-41979.332,-43240.4,-47591.39
1314684.3032371234,-82785.08,-111866.336,-43637.453,-59050.05,-132282.64,-41985.637,-43247.152,-47596.07
1314684.3072371192,-82756.11,-111837.04,-43615.03,-59028.77,-132258.34,-41967.043,-43224.082,-47577.8
1314684.3112371152,-82728.64,-111814.7,-43596.844,-59009.89,-132240.36,-41950.684,-43200.44,-47539.145
1314684.315237111,-82743.62,-111826.055,-43607.22,-59018.68,-132251.27,-41959.066,-43213.83,-47558.72
1314684.3192371067,-82774.945,-111852.99,-43635.703,-59044.76,-132275.19,-41978.92,-43238.484,-47574.953
1314684.3232371027,-82779.83,-111860.72,-43642.418,-59050.375,-132279.8,-41985.027,-43241.984,-47571.414
1314684.3272370985,-82750.98,-111833.87,-43620.08,-59030.97,-132258.42,-41967.0,-43220.703,-47560.387
1314684.3312370945,-82726.81,-111809.66,-43600.344,-59013.47,-132248.38,-41950.645,-43204.145,-47547.04
1314684.3352370902,-82730.96,-111815.68,-43608.684,-59021.203,-132261.84,-41958.62,-43214.684,-47557.457
1314684.3392370862,-82755.086,-111840.05,-43633.586,-59045.41,-132284.52,-41981.12,-43242.637,-47586.71
1314684.343237082,-82760.58,-111845.79,-43638.062,-59052.816,-132292.0,-41987.633,-43245.32,-47575.97
1314684.347237078,-82723.19,-111820.44,-43614.18,-59032.188,-132274.3,-41968.26,-43219.727,-47546.633
1314684.3512370738,-82692.67,-111799.03,-43592.773,-59013.023,-132258.75,-41951.133,-43203.125,-47552.086
1314684.3552370695,-82693.56,-111802.25,-43601.973,-59019.33,-132261.03,-41958.7,-43219.16,-47583.336
1314684.3592370655,-82715.01,-111825.52,-43627.688,-59042.117,-132275.64,-41980.145,-43242.027,-47600.18
1314684.3632370613,-82716.48,-111827.27,-43633.586,-59048.953,-132273.72,-41984.01,-43243.816,-47604.13
1314684.3672370573,-82682.664,-111794.31,-43609.336,-59029.297,-132252.03,-41964.6,-43214.438,-47545.41
1314684.371237053,-82648.56,-111762.336,-43586.062,-59009.81,-132235.69,-41950.24,-43195.355,-47518.19
1314684.375237049,-82636.48,-111752.0,-43592.207,-59014.242,-132243.7,-41962.973,-43222.168,-47614.3
1314684.3792370448,-82648.805,-111763.836,-43615.4,-59034.426,-132266.97,-41986.125,-43250.164,-47651.45
1314684.3832370408,-82644.45,-111754.93,-43615.52,-59037.03,-132265.6,-41991.742,-43248.945,-47623.7
1314684.3872370366,-82599.53,-111714.52,-43588.83,-59013.918,-132240.94,-41974.57,-43224.53,-47592.855
1314684.3912370324,-82562.26,-111684.33,-43566.164,-58993.613,-132222.45,-41957.48,-43205.0,-47582.766
1314684.3952370284,-82561.81,-111682.82,-43575.035,-58999.92,-132226.56,-41963.258,-43212.402,-47600.87
1314684.3992370241,-82588.46,-111703.86,-43600.344,-59022.91,-132243.0,-41984.418,-43234.54,-47617.15
1314684.4032370201,-82587.12,-111701.99,-43606.61,-59028.04,-132243.45,-41989.625,-43239.625,-47618.816
1314684.407237016,-82552.25,-111666.51,-43582.48,-59004.926,-132223.44,-41971.395,-43221.395,-47595.01
1314684.411237012,-82527.836,-111636.805,-43559.652,-58984.254,-132202.03,-41955.527,-43203.94,-47573.12
1314684.4152370077,-82546.63,-111654.83,-43572.88,-58995.527,-132221.11,-41963.582,-43215.375,-47580.527
1314684.4192370037,-82567.836,-111674.89,-43596.68,-59016.195,-132239.3,-41984.66,-43238.484,-47596.6
1314684.4232369994,-82568.484,-111677.62,-43598.594,-59020.43,-132240.0,-41989.055,-43240.766,-47596.113
1314684.4272369952,-82555.14,-111664.11,-43577.72,-59001.914,-132220.75,-41965.863,-43212.85,-47563.19
1314684.4312369912,-82536.99,-111641.484,-43556.4,-58983.645,-132204.84,-41947.31,-43201.582,-47570.312
1314684.435236987,-82556.64,-111657.8,-43571.13,-58994.02,-132214.0,-41954.062,-43212.973,-47580.12
1314684.439236983,-82599.37,-111703.25,-43601.074,-59020.305,-132238.73,-41972.086,-43235.395,-47600.79
1314684.4432369787,-82607.305,-111713.586,-43608.523,-59025.39,-132240.52,-41973.715,-43236.453,-47602.05
1314684.4472369747,-82589.805,-111698.29,-43590.902,-59007.855,-132220.02,-41953.207,-43210.53,-47573.203
1314684.4512369705,-82577.4,-111689.62,-43575.44,-58993.574,-132203.45,-41934.082,-43185.59,-47539.55
1314684.4552369665,-82596.516,-111707.73,-43592.0,-59005.25,-132219.97,-41940.758,-43192.426,-47536.99
1314684.4592369623,-82632.94,-111742.84,-43619.426,-59030.438,-132246.55,-41962.32,-43221.234,-47574.75
1314684.4632369583,-82642.01,-111752.24,-43622.48,-59034.344,-132248.22,-41968.223,-43230.31,-47603.8
1314684.467236954,-82628.22,-111737.23,-43601.402,-59014.773,-132229.78,-41946.86,-43200.156,-47550.703
1314684.4712369498,-82617.44,-111726.52,-43585.164,-58999.92,-132213.39,-41930.543,-43177.86,-47503.297
1314684.4752369458,-82635.3,-111741.01,-43598.676,-59009.562,-132222.94,-41939.58,-43191.12,-47510.824
1314684.4792369416,-82666.75,-111771.57,-43628.5,-59035.484,-132248.22,-41960.855,-43221.438,-47555.79
1314684.4832369376,-82679.37,-111785.12,-43635.742,-59043.254,-132258.27,-41965.82,-43226.645,-47558.637
1314684.4872369333,-82662.92,-111771.2,-43615.4,-59027.184,-132241.5,-41948.65,-43210.29,-47540.324
1314684.4912369293,-82646.04,-111757.81,-43599.203,-59010.99,-132225.83,-41931.355,-43194.582,-47517.05
1314684.495236925,-82661.38,-111777.23,-43614.137,-59021.61,-132235.89,-41940.797,-43211.47,-47533.246
1314684.499236921,-82701.375,-111815.88,-43643.965,-59050.09,-132258.88,-41962.688,-43238.69,-47555.992
1314684.5032369168,-82708.7,-111821.25,-43648.926,-59056.234,-132260.62,-41964.844,-43242.23,-47548.91
1314684.5072369126,-82684.53,-111797.61,-43628.297,-59035.484,-132237.92,-41942.508,-43217.082,-47513.51
1314684.5112369086,-82668.99,-111784.305,-43611.37,-59019.086,-132222.58,-41927.246,-43208.824,-47532.227
1314684.5152369044,-82688.27,-111797.94,-43625.367,-59029.46,-132231.33,-41937.746,-43223.023,-47546.266
1314684.5192369004,-82717.9,-111821.29,-43651.492,-59053.754,-132255.5,-41957.97,-43245.242,-47562.215
1314684.5232368961,-82722.086,-111829.39,-43655.195,-59058.92,-132258.27,-41956.95,-43238.28,-47534.668
1314684.5272368921,-82698.53,-111807.78,-43632.164,-59039.55,-132234.66,-41936.08,-43213.504,-47512.98
1314684.531236888,-82681.73,-111792.85,-43616.62,-59024.008,-132220.27,-41921.754,-43197.715,-47495.484
1314684.535236884,-82694.74,-111805.99,-43629.19,-59033.613,-132229.33,-41932.047,-43217.45,-47516.277
1314684.5392368797,-82726.69,-111832.6,-43656.74,-59056.926,-132248.5,-41953.33,-43243.367,-47539.96
1314684.5432368754,-82736.086,-111843.75,-43662.56,-59065.15,-132256.72,-41956.87,-43248.58,-47542.81
1314684.5472368714,-82712.04,-111823.2,-43639.61,-59045.9,-132235.16,-41937.703,-43225.14,-47507.812
1314684.5512368672,-82694.87,-111809.49,-43624.434,-59030.195,-132218.47,-41923.465,-43204.793,-47481.0
1314684.5552368632,-82714.44,-111827.97,-43640.3,-59042.645,-132231.0,-41934.207,-43216.84,-47474.367
1314684.559236859,-82745.0,-111858.16,-43666.26,-59066.0,-132252.2,-41955.65,-43244.55,-47513.266
1314684.563236855,-82743.21,-111859.46,-43665.69,-59068.28,-132255.1,-41956.83,-43251.02,-47545.37
1314684.5672368507,-82715.82,-111833.984,-43642.824,-59047.69,-132237.8,-41935.914,-43224.734,-47507.203
1314684.5712368467,-82704.63,-111821.01,-43629.723,-59033.49,-132228.56,-41922.324,-43207.234,-47469.81
1314684.5752368425,-82719.41,-111831.875,-43643.23,-59045.086,-132242.27,-41932.984,-43224.246,-47493.938
1314684.5792368383,-82744.43,-111853.6,-43668.297,-59067.18,-132260.62,-41954.062,-43252.156,-47539.227
1314684.5832368343,-82748.7,-111862.02,-43672.773,-59072.754,-132263.14,-41956.46,-43253.785,-47533.043
1314684.58723683,-82728.234,-111844.77,-43652.914,-59054.77,-132245.45,-41936.32,-43223.51,-47482.586
1314684.591236826,-82710.66,-111823.24,-43637.25,-59039.55,-132220.3,-41921.51,-43211.1,-47468.63
1314684.5952368218,-82729.66,-111841.19,-43653.117,-59051.758,-132231.53,-41933.39,-43232.465,-47496.746
1314684.5992368178,-82760.99,-111871.79,-43682.82,-59075.605,-132255.5,-41958.05,-43261.8,-47525.594
1314684.6032368136,-82767.414,-111877.85,-43686.688,-59079.67,-132257.58,-41959.637,-43257.49,-47505.617
1314684.6072368096,-82738.69,-111849.94,-43662.68,-59057.984,-132238.05,-41939.13,-43229.617,-47469.523
1314684.6112368053,-82726.61,-111831.75,-43648.926,-59044.64,-132228.69,-41925.05,-43209.35,-47449.18
1314684.615236801,-82744.63,-111845.46,-43661.867,-59054.04,-132234.5,-41935.06,-43224.57,-47494.387
1314684.619236797,-82774.3,-111873.21,-43688.477,-59075.97,-132256.11,-41957.113,-43248.82,-47502.035
1314684.6232367929,-82775.555,-111877.37,-43692.465,-59078.656,-132256.77,-41959.96,-43252.035,-47491.945
1314684.6272367889,-82748.375,-111850.875,-43668.824,-59057.17,-132237.92,-41941.49,-43231.242,-47484.133
1314684.6312367846,-82734.26,-111835.01,-43655.64,-59044.355,-132225.8,-41926.676,-43219.08,-47477.62
1314684.6352367806,-82754.6,-111852.3,-43672.69,-59059.164,-132239.62,-41938.64,-43235.516,-47498.293
1314684.6392367764,-82785.08,-111878.79,-43700.195,-59081.75,-132258.06,-41959.473,-43258.26,-47517.62
1314684.6432367724,-82788.66,-111879.93,-43703.41,-59085.734,-132255.58,-41962.934,-43259.44,-47515.383
1314684.6472367682,-82763.266,-111858.36,-43680.664,-59065.31,-132234.5,-41944.094,-43240.234,-47501.71
1314684.651236764,-82745.73,-111843.836,-43664.105,-59049.035,-132217.17,-41929.77,-43225.547,-47486.086
1314684.65523676,-82764.98,-111861.05,-43680.22,-59060.832,-132228.69,-41941.53,-43240.805,-47494.996
1314684.6592367557,-82791.18,-111887.49,-43706.707,-59084.637,-132250.98,-41965.17,-43271.484,-47532.715
1314684.6632367517,-82791.875,-111886.97,-43709.434,-59087.08,-132250.81,-41967.69,-43273.887,-47529.785
1314684.6672367475,-82766.4,-111866.414,-43685.1,-59066.938,-132234.58,-41949.098,-43247.76,-47490.562
1314684.6712367435,-82748.25,-111847.945,-43671.754,-59052.492,-132221.56,-41936.44,-43232.547,-47466.72
1314684.6752367392,-82765.22,-111859.22,-43688.926,-59065.39,-132233.0,-41946.86,-43245.605,-47482.137
1314684.6792367352,-82792.56,-111882.164,-43714.766,-59088.098,-132254.56,-41968.223,-43273.562,-47517.945
1314684.683236731,-82790.04,-111882.57,-43714.03,-59088.867,-132256.64,-41969.89,-43277.06,-47533.45
1314684.6872367267,-82760.625,-111853.93,-43688.887,-59065.797,-132236.66,-41950.97,-43252.24,-47505.984
1314684.6912367227,-82742.35,-111838.625,-43675.824,-59051.27,-132226.12,-41939.7,-43237.184,-47478.926
1314684.6952367185,-82762.29,-111855.96,-43695.395,-59066.69,-132244.19,-41953.29,-43253.83,-47491.62
1314684.6992367145,-82787.44,-111879.64,-43721.355,-59089.03,-132261.69,-41975.465,-43281.74,-47534.832
1314684.7032367103,-82785.81,-111880.66,-43721.03,-59090.617,-132265.3,-41978.152,-43283.285,-47538.777
1314684.7072367063,-82758.67,-111855.92,-43697.88,-59067.344,-132243.61,-41958.293,-43260.664,-47509.48
1314684.711236702,-82740.97,-111843.266,-43681.48,-59051.758,-132226.73,-41944.418,-43249.555,-47493.652
1314684.715236698,-82765.914,-111870.2,-43699.06,-59067.223,-132245.33,-41956.87,-43266.035,-47504.805
1314684.7192366938,-82802.414,-111902.1,-43728.355,-59092.652,-132267.45,-41978.72,-43291.098,-47523.438
1314684.7232366896,-82785.04,-111878.42,-43725.63,-59089.4,-132256.72,-41982.383,-43295.86,-47523.277
1314684.7272366856,-82741.62,-111834.27,-43698.285,-59065.473,-132232.5,-41964.48,-43276.734,-47504.965
1314684.7312366813,-82731.04,-111825.73,-43686.605,-59053.793,-132226.44,-41950.81,-43263.754,-47501.953
1314684.7352366773,-82754.766,-111845.664,-43703.98,-59067.75,-132240.16,-41961.02,-43283.367,-47521.445
1314684.739236673,-82776.414,-111861.49,-43728.68,-59088.46,-132250.94,-41981.773,-43309.773,-47548.055
1314684.743236669,-82763.305,-111847.54,-43728.883,-59087.973,-132240.61,-41987.875,-43316.164,-47554.688
1314684.7472366649,-82737.1,-111822.68,-43706.91,-59066.773,-132220.58,-41969.08,-43293.336,-47529.707
1314684.7512366609,-82720.3,-111803.555,-43692.14,-59051.84,-132203.94,-41956.22,-43277.832,-47511.395
1314684.7552366566,-82724.61,-111802.984,-43707.645,-59060.508,-132206.5,-41969.08,-43294.355,-47525.96
1314684.7592366524,-82756.555,-111831.14,-43737.715,-59084.35,-132231.69,-41988.688,-43311.81,-47538.13
1314684.7632366484,-82762.17,-111836.43,-43742.35,-59088.992,-132238.56,-41991.742,-43312.83,-47548.992
1314684.7672366442,-82734.664,-111812.914,-43717.285,-59068.484,-132201.75,-41972.047,-43293.336,-47538.656
1314684.7712366402,-82723.88,-111806.64,-43706.953,-59056.766,-132182.98,-41959.88,-43279.46,-47520.43
1314684.775236636,-82744.39,-111828.33,-43729.004,-59069.582,-132198.66,-41974.57,-43297.203,-47537.395
1314684.779236632,-82775.02,-111854.82,-43756.39,-59093.508,-132219.16,-41996.625,-43318.727,-47545.453
1314684.7832366277,-82775.15,-111859.13,-43754.56,-59096.234,-132210.66,-41998.984,-43321.98,-47561.605
1314684.7872366237,-82742.234,-111832.85,-43728.273,-59073.855,-132171.06,-41978.312,-43297.73,-47544.844
1314684.7912366195,-82735.07,-111820.56,-43718.26,-59061.688,-132153.25,-41965.21,-43280.273,-47513.227
1314684.7952366152,-82758.06,-111839.89,-43738.08,-59077.19,-132170.12,-41978.395,-43296.67,-47535.36
1314684.7992366112,-82789.555,-111868.25,-43762.656,-59102.094,-132196.1,-41998.047,-43314.74,-47541.547
1314684.803236607,-82788.984,-111871.3,-43762.29,-59103.027,-132194.3,-41999.227,-43318.973,-47564.21
1314684.807236603,-82758.06,-111841.35,-43736.695,-59079.633,-132169.44,-41981.773,-43305.098,-47589.152
1314684.8112365988,-82747.4,-111828.375,-43726.562,-59068.727,-132161.95,-41968.465,-43285.156,-47547.65
1314684.8152365948,-82770.51,-111847.5,-43744.957,-59084.637,-132178.88,-41981.65,-43301.68,-47557.414
1314684.8192365905,-82801.39,-111876.47,-43772.137,-59107.098,-132209.6,-42002.523,-43328.207,-47583.05
1314684.8232365865,-82798.71,-111881.63,-43770.996,-59107.586,-132221.16,-42003.906,-43328.613,-47579.387
1314684.8272365823,-82774.78,-111860.68,-43748.13,-59085.9,-132206.67,-41983.848,-43301.23,-47541.547
1314684.831236578,-82761.805,-111842.0,-43735.92,-59071.414,-132190.03,-41969.85,-43288.21,-47527.67
1314684.835236574,-82779.91,-111857.914,-43755.25,-59085.9,-132202.56,-41985.15,-43308.473,-47557.945
1314684.8392365698,-82807.09,-111880.375,-43782.066,-59108.727,-132221.97,-42006.96,-43331.42,-47581.258
1314684.8432365658,-82801.35,-111876.59,-43780.6,-59109.254,-132219.53,-42006.797,-43328.207,-47578.37
1314684.8472365616,-82773.73,-111853.03,-43754.56,-59088.83,-132199.3,-41986.492,-43303.67,-47548.79
1314684.8512365576,-82762.74,-111844.12,-43744.957,-59078.41,-132190.67,-41976.89,-43291.3,-47536.336
1314684.8552365534,-82787.48,-111864.79,-43766.035,-59091.84,-132202.84,-41992.066,-43312.42,-47554.688
1314684.8592365494,-82814.13,-111893.48,-43789.797,-59112.184,-132224.73,-42014.895,-43339.316,-47582.234
1314684.8632365451,-82806.89,-111892.42,-43786.785,-59112.51,-132228.84,-42014.49,-43333.336,-47562.543
1314684.867236541,-82773.64,-111861.33,-43761.19,-59087.973,-132205.69,-41989.79,-43303.1,-47521.65
1314684.871236537,-82761.92,-111848.8,-43750.57,-59075.562,-132193.69,-41975.87,-43289.145,-47514.69
1314684.8752365327,-82788.17,-111872.484,-43770.223,-59092.246,-132208.66,-41990.848,-43310.832,-47537.52
1314684.8792365286,-82829.35,-111909.75,-43800.58,-59117.8,-132232.02,-42010.703,-43337.65,-47576.785
1314684.8832365244,-82824.67,-111905.97,-43797.0,-59118.207,-132234.98,-42012.25,-43337.242,-47580.0
1314684.8872365204,-82775.02,-111858.484,-43765.75,-59090.7,-132206.62,-41993.004,-43311.445,-47540.773
1314684.8912365162,-82751.43,-111834.516,-43753.133,-59073.812,-132182.58,-41982.3,-43297.203,-47519.574
1314684.8952365122,-82770.02,-111853.11,-43775.312,-59091.188,-132190.52,-41995.484,-43314.58,-47543.99
1314684.899236508,-82790.61,-111872.84,-43800.906,-59115.44,-132206.1,-42016.93,-43341.434,-47583.7
1314684.903236504,-82789.35,-111871.71,-43799.277,-59115.48,-132200.69,-42018.19,-43338.094,-47587.605
1314684.9072364997,-82760.22,-111843.914,-43772.42,-59092.082,-132177.66,-42000.977,-43313.6,-47574.953
1314684.9112364955,-82745.98,-111826.87,-43761.56,-59077.434,-132162.44,-41991.496,-43301.8,-47555.992
1314684.9152364915,-82774.58,-111849.77,-43782.105,-59092.285,-132178.14,-42004.52,-43318.848,-47566.816
1314684.9192364872,-82806.56,-111882.49,-43808.676,-59117.312,-132198.58,-42027.223,-43344.688,-47591.594
1314684.9232364832,-82801.68,-111883.06,-43805.867,-59117.637,-132198.94,-42028.566,-43344.28,-47578.613
1314684.927236479,-82775.92,-111862.15,-43781.74,-59097.414,-132179.73,-42009.156,-43320.723,-47557.332
1314684.931236475,-82763.19,-111851.32,-43770.59,-59087.242,-132164.06,-42001.508,-43317.63,-47570.07
1314684.9352364708,-82781.54,-111872.36,-43786.5,-59102.824,-132179.53,-42017.17,-43335.45,-47590.58
1314684.9392364668,-82809.125,-111889.125,-43813.438,-59124.23,-132197.11,-42036.906,-43357.18,-47608.277
1314684.9432364625,-82807.7,-111888.76,-43812.01,-59124.105,-132202.03,-42037.312,-43357.75,-47608.36
1314684.9472364583,-82779.7,-111867.64,-43789.062,-59102.746,-132182.66,-42016.277,-43328.168,-47567.953
1314684.9512364543,-82772.016,-111855.23,-43783.53,-59092.855,-132166.42,-42005.777,-43315.43,-47548.098
1314684.95523645,-82788.984,-111870.69,-43802.695,-59107.992,-132178.19,-42023.074,-43338.582,-47577.19
1314684.959236446,-82818.85,-111897.664,-43829.023,-59129.52,-132200.4,-42046.266,-43367.758,-47628.01
1314684.9632364418,-82818.195,-111899.7,-43826.66,-59132.043,-132204.88,-42044.883,-43362.715,-47620.605
1314684.9672364378,-82792.766,-111875.66,-43801.96,-59110.07,-132186.86,-42023.97,-43333.62,-47578.613
1314684.9712364336,-82787.516,-111871.38,-43791.586,-59100.383,-132182.62,-42011.844,-43316.203,-47546.023
1314684.9752364296,-82809.9,-111896.0,-43810.06,-59116.54,-132199.55,-42027.344,-43340.13,-47584.598
1314684.9792364254,-82836.96,-111922.2,-43835.695,-59137.168,-132213.02,-42048.504,-43367.35,-47626.547
1314684.9832364211,-82830.734,-111913.13,-43833.742,-59135.906,-132212.16,-42047.977,-43361.816,-47601.973
1314684.9872364171,-82802.164,-111885.54,-43810.06,-59112.266,-132192.47,-42025.23,-43332.156,-47568.605
1314684.991236413,-82791.586,-111874.44,-43800.496,-59099.977,-132186.66,-42014.977,-43321.29,-47561.2
1314684.995236409,-82812.75,-111890.47,-43822.676,-59117.473,-132201.58,-42031.94,-43340.984,-47577.15
1314684.9992364047,-82832.52,-111909.836,-43849.57,-59138.754,-132221.81,-42056.277,-43375.53,-47643.516
1314685.0032364007,-82826.984,-111910.93,-43847.7,-59137.29,-132218.88,-42054.16,-43373.09,-47632.938
1314685.0072363964,-82796.875,-111882.29,-43823.812,-59115.316,-132199.39,-42034.26,-43345.582,-47583.05
1314685.0112363924,-82784.305,-111870.61,-43811.402,-59101.117,-132187.9,-42024.66,-43334.27,-47568.89
1314685.0152363882,-82802.984,-111885.3,-43830.08,-59114.3,-132198.53,-42039.633,-43359.863,-47618.938
1314685.019236384,-82830.08,-111906.87,-43856.406,-59138.51,-132221.11,-42059.977,-43382.082,-47644.004
1314685.02323638,-82826.01,-111904.625,-43852.176,-59137.82,-132220.02,-42058.39,-43377.32,-47641.156
1314685.0272363757,-82801.64,-111879.64,-43827.35,-59114.22,-132196.83,-42036.582,-43348.105,-47609.66
1314685.0312363717,-82792.85,-111869.266,-43817.586,-59102.906,-132187.95,-42026.938,-43337.242,-47595.137
1314685.0352363675,-82808.48,-111881.35,-43837.89,-59120.2,-132208.55,-42044.19,-43356.367,-47611.656
1314685.0392363635,-82833.945,-111908.9,-43863.16,-59142.742,-132234.78,-42062.215,-43371.543,-47624.227
1314685.0432363593,-82824.79,-111903.32,-43860.11,-59139.285,-132232.83,-42057.82,-43360.637,-47605.633
1314685.0472363553,-82787.234,-111863.94,-43833.945,-59115.887,-132215.02,-42038.168,-43335.41,-47574.953
1314685.051236351,-82772.87,-111847.945,-43824.504,-59105.957,-132208.42,-42027.47,-43321.574,-47572.348
1314685.0552363468,-82787.27,-111863.61,-43845.785,-59124.188,-132224.08,-42042.684,-43337.363,-47588.79
1314685.0592363428,-82801.64,-111878.91,-43868.164,-59142.703,-132245.36,-42062.176,-43355.88,-47607.953
1314685.0632363386,-82797.69,-111874.19,-43864.098,-59140.992,-132247.89,-42058.797,-43348.023,-47607.707
1314685.0672363346,-82757.04,-111837.24,-43836.508,-59117.188,-132224.53,-42036.094,-43316.855,-47578.207
1314685.0712363303,-82731.81,-111813.52,-43824.63,-59102.906,-132211.8,-42026.41,-43302.168,-47563.355
1314685.0752363263,-82743.33,-111824.95,-43843.71,-59116.54,-132227.47,-42043.336,-43321.617,-47585.246
1314685.079236322,-82753.26,-111831.38,-43864.22,-59137.086,-132240.84,-42065.31,-43346.723,-47626.793
1314685.083236318,-82728.31,-111802.695,-43858.523,-59132.57,-132232.67,-42065.836,-43341.72,-47622.76
1314685.0872363138,-82684.57,-111753.7,-43832.723,-59107.26,-132208.86,-42046.062,-43316.082,-47585.246
1314685.0912363096,-82669.76,-111736.29,-43825.684,-59095.83,-132197.77,-42035.973,-43304.85,-47570.926
1314685.0952363056,-82672.2,-111742.39,-43839.277,-59108.81,-132211.92,-42054.89,-43331.992,-47597.617
1314685.0992363014,-82668.016,-111741.945,-43851.688,-59124.188,-132224.58,-42080.28,-43364.543,-47648.48
1314685.1032362974,-82652.14,-111726.36,-43841.88,-59116.457,-132215.22,-42077.883,-43361.613,-47643.477
1314685.1072362931,-82617.76,-111695.73,-43812.34,-59092.246,-132192.52,-42056.64,-43334.84,-47621.46
1314685.1112362891,-82612.305,-111688.68,-43803.754,-59081.016,-132181.03,-42045.33,-43321.453,-47615.195
1314685.115236285,-82627.32,-111707.32,-43821.98,-59097.21,-132194.27,-42061.85,-43343.75,-47624.31
1314685.119236281,-82658.57,-111739.71,-43848.145,-59119.71,-132216.23,-42079.957,-43362.062,-47622.438
1314685.1232362767,-82657.11,-111741.375,-43843.832,-59117.395,-132208.17,-42077.19,-43361.94,-47645.02
1314685.1272362724,-82631.15,-111723.59,-43816.164,-59093.996,-132188.77,-42055.34,-43337.65,-47631.27
1314685.1312362684,-82622.12,-111721.03,-43805.38,-59082.52,-132184.17,-42044.312,-43328.004,-47615.562
1314685.1352362642,-82652.63,-111753.7,-43829.1,-59099.164,-132200.89,-42059.9,-43348.836,-47632.324
1314685.1392362602,-82691.53,-111795.984,-43857.707,-59124.51,-132224.0,-42081.34,-43372.273,-47642.742
1314685.143236256,-82686.85,-111800.984,-43852.582,-59122.887,-132219.25,-42077.92,-43364.258,-47622.56
1314685.147236252,-82670.695,-111786.91,-43830.445,-59103.883,-132200.77,-42051.188,-43331.91,-47586.875
1314685.1512362477,-82672.41,-111785.73,-43827.395,-59098.27,-132193.03,-42039.594,-43322.31,-47576.215
1314685.1552362437,-82703.82,-111816.53,-43852.297,-59117.883,-132211.14,-42055.746,-43345.95,-47598.758
1314685.1592362395,-82737.06,-111849.53,-43878.055,-59139.082,-132232.75,-42074.992,-43375.49,-47637.168
1314685.1632362353,-82742.39,-111853.68,-43876.63,-59137.656,-132232.34,-42069.336,-43368.33,-47620.85
1314685.1672362313,-82723.68,-111837.164,-43855.227,-59116.336,-132221.03,-42047.527,-43343.26,-47591.35
1314685.171236227,-82717.53,-111833.5,-43848.715,-59107.504,-132217.98,-42037.64,-43333.7,-47581.22
1314685.175236223,-82740.44,-111855.63,-43871.094,-59124.758,-132233.23,-42055.137,-43361.043,-47607.3
1314685.1792362188,-82769.25,-111885.54,-43895.47,-59146.85,-132245.73,-42075.93,-43386.312,-47629.883
1314685.1832362148,-82770.02,-111885.016,-43891.074,-59144.492,-132240.69,-42073.445,-43378.46,-47602.336
1314685.1872362106,-82748.7,-111859.42,-43868.246,-59123.21,-132223.67,-42049.03,-43350.71,-47559.164
1314685.1912362066,-82738.57,-111854.336,-43860.477,-59113.934,-132218.92,-42039.797,-43346.19,-47569.46
1314685.1952362023,-82765.14,-111882.86,-43882.61,-59132.938,-132236.61,-42056.805,-43369.59,-47586.47
1314685.199236198,-82795.945,-111915.24,-43908.082,-59154.094,-132258.14,-42079.754,-43392.945,-47585.938
1314685.203236194,-82793.54,-111917.16,-43904.176,-59150.88,-132250.81,-42076.297,-43388.43,-47593.75
1314685.2072361899,-82765.67,-111897.95,-43876.387,-59127.16,-132225.67,-42055.016,-43365.723,-47578.29
1314685.2112361859,-82758.1,-111893.03,-43867.598,-59117.555,-132218.02,-42047.242,-43360.23,-47569.703
1314685.2152361816,-82786.18,-111919.6,-43891.156,-59137.902,-132235.39,-42064.58,-43380.7,-47584.8
1314685.2192361776,-82814.78,-111946.13,-43917.074,-59159.02,-132250.61,-42078.94,-43399.945,-47604.535
1314685.2232361734,-82814.05,-111943.28,-43915.812,-59157.15,-132249.23,-42071.574,-43391.523,-47588.137
1314685.2272361694,-82789.39,-111920.695,-43893.84,-59135.95,-132229.7,-42047.895,-43368.29,-47572.39
1314685.2312361652,-82783.98,-111914.23,-43888.594,-59128.582,-132219.94,-42039.062,-43359.336,-47563.113
1314685.235236161,-82811.04,-111941.29,-43910.688,-59145.59,-132235.19,-42056.723,-43380.7,-47575.523
1314685.239236157,-82833.13,-111966.11,-43933.676,-59165.61,-132251.55,-42074.75,-43403.688,-47592.082
1314685.2432361527,-82829.67,-111964.64,-43930.91,-59162.68,-132244.34,-42069.62,-43395.793,-47572.797
1314685.2472361487,-82801.35,-111933.64,-43905.316,-59137.74,-132222.62,-42047.566,-43368.29,-47534.305
1314685.2512361445,-82792.52,-111923.914,-43896.973,-59128.176,-132213.75,-42039.145,-43363.324,-47532.51
1314685.2552361405,-82817.836,-111945.16,-43919.72,-59145.348,-132228.48,-42055.582,-43387.29,-47557.984
1314685.2592361362,-82846.31,-111972.336,-43946.492,-59168.05,-132247.89,-42073.934,-43411.95,-47591.39
1314685.2632361322,-82840.82,-111966.02,-43938.965,-59162.03,-132241.1,-42066.855,-43400.066,-47572.43
1314685.267236128,-82814.74,-111938.64,-43911.215,-59137.332,-132220.78,-42046.023,-43370.973,-47527.1
1314685.2712361237,-82809.77,-111931.32,-43903.445,-59129.152,-132217.53,-42038.777,-43365.234,-47520.02
1314685.2752361197,-82835.77,-111956.14,-43927.98,-59148.723,-132239.34,-42056.723,-43388.67,-47537.477
1314685.2792361155,-82860.68,-111981.086,-43952.76,-59168.094,-132262.1,-42074.42,-43411.133,-47545.656
1314685.2832361115,-82854.33,-111976.36,-43944.54,-59162.19,-132259.89,-42067.832,-43397.992,-47508.87
1314685.2872361073,-82828.9,-111951.13,-43921.1,-59140.79,-132238.53,-42048.3,-43377.973,-47507.45
1314685.2912361033,-82821.945,-111941.57,-43918.094,-59133.79,-132224.38,-42042.277,-43374.434,-47515.91
1314685.295236099,-82847.984,-111968.8,-43942.71,-59153.89,-132244.64,-42058.594,-43395.875,-47525.8
1314685.299236095,-82874.23,-111997.12,-43965.7,-59173.75,-132265.6,-42078.777,-43423.42,-47561.08
1314685.3032360908,-82868.53,-111991.055,-43958.945,-59166.547,-132259.16,-42072.957,-43417.44,-47560.14
1314685.3072360866,-82837.484,-111962.04,-43931.805,-59140.87,-132238.05,-42049.195,-43387.94,-47529.785
1314685.3112360826,-82831.55,-111956.47,-43923.79,-59133.344,-132229.98,-42040.367,-43377.93,-47510.824
1314685.3152360783,-82859.01,-111984.945,-43948.0,-59154.016,-132250.73,-42055.582,-43398.113,-47522.34
1314685.3192360743,-82884.97,-112011.36,-43973.676,-59175.99,-132270.52,-42075.277,-43419.68,-47549.277
1314685.32323607,-82878.46,-112008.14,-43967.246,-59172.16,-132266.48,-42069.38,-43411.38,-47553.67
1314685.327236066,-82857.34,-111988.41,-43942.63,-59149.496,-132246.38,-42045.74,-43380.7,-47516.156
1314685.3312360619,-82851.89,-111983.484,-43938.965,-59141.113,-132240.81,-42039.062,-43374.758,-47501.426
1314685.3352360579,-82876.47,-112006.43,-43962.16,-59159.1,-132262.94,-42057.535,-43401.164,-47523.766
1314685.3392360536,-82900.44,-112028.32,-43986.574,-59178.836,-132274.62,-42074.18,-43421.062,-47544.68
1314685.3432360496,-82888.43,-112017.17,-43976.523,-59170.695,-132266.61,-42067.02,-43409.426,-47535.77
1314685.3472360454,-82861.984,-111990.65,-43950.887,-59146.484,-132244.84,-42045.25,-43383.63,-47502.402
1314685.3512360412,-82856.33,-111984.17,-43945.68,-59139.895,-132244.72,-42041.992,-43380.78,-47491.414
1314685.3552360372,-82883.06,-112006.39,-43969.484,-59159.914,-132271.2,-42061.24,-43405.195,-47512.9
1314685.359236033,-82907.39,-112023.484,-43992.188,-59178.1,-132286.62,-42077.066,-43428.387,-47541.383
1314685.363236029,-82898.6,-112016.04,-43984.01,-59172.527,-132278.0,-42070.395,-43416.098,-47520.918
1314685.3672360247,-82872.16,-111989.67,-43958.05,-59150.39,-132256.23,-42047.566,-43387.168,-47486.98
1314685.3712360207,-82864.95,-111981.37,-43950.4,-59141.6,-132240.69,-42041.3,-43380.168,-47490.805
1314685.3752360165,-82890.99,-112004.36,-43973.39,-59158.9,-132254.36,-42059.695,-43403.2,-47513.797
1314685.3792360125,-82907.59,-112024.336,-43991.66,-59177.613,-132273.4,-42079.875,-43425.133,-47520.71
1314685.3832360082,-82894.45,-112014.125,-43978.273,-59169.68,-132264.94,-42070.19,-43409.914,-47500.367
1314685.387236004,-82875.734,-112001.1,-43956.953,-59149.863,-132245.2,-42046.59,-43384.48,-47505.78
1314685.391236,-82875.164,-111999.44,-43954.51,-59143.434,-132237.72,-42040.04,-43378.703,-47504.316
1314685.3952359958,-82874.02,-111990.52,-43969.81,-59156.414,-132239.67,-42059.57,-43402.547,-47518.19
1314685.3992359918,-82877.85,-111986.125,-43987.266,-59170.004,-132246.55,-42079.836,-43422.527,-47534.344
1314685.4032359875,-82880.74,-111986.01,-43986.043,-59166.016,-132244.14,-42072.797,-43407.594,-47508.586
1314685.4072359835,-82855.43,-111960.01,-43963.582,-59143.76,-132231.08,-42052.613,-43382.406,-47478.56
1314685.4112359793,-82840.984,-111936.73,-43958.7,-59136.19,-132225.39,-42049.03,-43382.164,-47476.156
1314685.4152359753,-82867.88,-111953.17,-43985.555,-59157.594,-132243.81,-42067.547,-43407.96,-47496.625
1314685.419235971,-82886.31,-111965.26,-44009.074,-59174.44,-132258.34,-42086.832,-43434.33,-47535.08
1314685.4232359668,-82870.445,-111944.26,-43998.902,-59163.086,-132244.72,-42080.527,-43426.598,-47522.625
1314685.4272359628,-82840.17,-111911.664,-43973.145,-59138.43,-132221.89,-42057.535,-43398.316,-47477.46
1314685.4312359586,-82837.61,-111909.14,-43968.06,-59133.383,-132216.6,-42050.824,-43388.51,-47450.44
1314685.4352359546,-82852.09,-111923.47,-43986.74,-59151.086,-132233.12,-42071.617,-43415.61,-47491.21
1314685.4392359504,-82873.82,-111948.695,-44007.652,-59171.31,-132251.39,-42090.617,-43437.867,-47526.45
1314685.4432359464,-82860.805,-111944.336,-43998.74,-59163.293,-132238.45,-42085.246,-43432.945,-47528.484
1314685.4472359421,-82838.7,-111923.055,-43974.246,-59139.285,-132219.16,-42060.465,-43405.4,-47494.914
1314685.4512359381,-82834.19,-111919.84,-43968.875,-59130.86,-132208.42,-42052.29,-43397.664,-47476.973
1314685.455235934,-82862.63,-111946.45,-43994.63,-59150.027,-132223.16,-42070.07,-43416.016,-47483.4
1314685.4592359297,-82887.66,-111969.98,-44015.383,-59169.64,-132241.3,-42088.297,-43436.89,-47504.316
1314685.4632359257,-82873.66,-111957.97,-44002.32,-59160.645,-132235.48,-42082.156,-43431.48,-47519.613
1314685.4672359214,-82844.08,-111935.875,-43976.645,-59138.266,-132217.33,-42061.77,-43405.113,-47487.633
1314685.4712359174,-82840.87,-111932.74,-43973.473,-59132.57,-132206.19,-42053.875,-43393.395,-47442.586
1314685.4752359132,-82867.68,-111955.94,-43999.105,-59151.125,-132223.64,-42072.957,-43419.637,-47481.082
1314685.4792359092,-82886.92,-111972.01,-44018.598,-59167.36,-132234.58,-42091.15,-43447.145,-47549.727
1314685.483235905,-82874.02,-111956.22,-44006.758,-59158.53,-132228.28,-42081.504,-43432.375,-47512.492
1314685.487235901,-82846.31,-111926.6,-43977.906,-59133.465,-132210.94,-42060.75,-43404.99,-47472.25
1314685.4912358967,-82841.35,-111924.484,-43970.215,-59125.855,-132208.1,-42054.688,-43404.22,-47485.11
1314685.4952358925,-82866.46,-111946.45,-43994.14,-59144.125,-132228.56,-42071.37,-43430.016,-47505.332
1314685.4992358885,-82891.52,-111965.414,-44016.6,-59162.07,-132246.6,-42086.426,-43452.598,-47534.426
1314685.5032358842,-82880.01,-111958.46,-44006.836,-59153.566,-132241.5,-42076.99,-43437.95,-47515.75
1314685.5072358802,-82853.03,-111937.7,-43980.594,-59130.293,-132219.12,-42054.605,-43408.082,-47478.19
1314685.511235876,-82848.35,-111935.305,-43976.688,-59125.41,-132213.1,-42051.066,-43404.34,-47467.164
1314685.515235872,-82873.62,-111960.086,-44000.49,-59144.613,-132233.77,-42067.953,-43429.324,-47489.383
1314685.5192358678,-82899.91,-111984.54,-44024.254,-59165.61,-132260.17,-42084.27,-43452.637,-47510.867
1314685.5232358638,-82890.75,-111976.0,-44014.977,-59157.96,-132256.36,-42075.523,-43443.77,-47501.547
1314685.5272358595,-82862.19,-111945.97,-43986.29,-59131.676,-132230.39,-42050.54,-43411.543,-47448.73
1314685.5312358553,-82855.555,-111933.48,-43980.062,-59125.246,-132223.39,-42046.387,-43407.105,-47439.375
1314685.5352358513,-82875.25,-111952.03,-44000.734,-59142.54,-132237.34,-42067.06,-43437.297,-47481.12
1314685.539235847,-82892.625,-111972.09,-44015.79,-59161.34,-132256.84,-42081.707,-43459.96,-47517.78
1314685.543235843,-82882.61,-111967.0,-44002.484,-59152.914,-132250.78,-42070.273,-43444.258,-47487.754
1314685.5472358388,-82856.08,-111943.28,-43974.938,-59129.6,-132229.98,-42047.77,-43417.117,-47444.215
1314685.5512358348,-82851.12,-111937.75,-43968.59,-59121.95,-132224.81,-42040.367,-43408.773,-47429.16
1314685.5552358306,-82876.79,-111962.53,-43992.066,-59142.01,-132249.39,-42059.082,-43435.508,-47457.316
1314685.5592358266,-82900.11,-111983.32,-44013.31,-59162.438,-132268.84,-42077.598,-43457.723,-47478.598
1314685.5632358224,-82884.195,-111972.09,-43998.902,-59150.23,-132258.19,-42069.5,-43445.312,-47458.945
1314685.5672358181,-82851.484,-111939.25,-43970.906,-59122.887,-132233.12,-42046.47,-43422.73,-47443.484
1314685.5712358141,-82850.305,-111930.625,-43969.566,-59117.555,-132225.6,-42039.836,-43419.434,-47423.668
1314685.57523581,-82879.195,-111955.04,-43995.2,-59139.57,-132244.88,-42058.88,-43448.934,-47458.863
1314685.579235806,-82894.45,-111969.98,-44013.754,-59155.76,-132256.6,-42075.848,-43477.133,-47495.65
1314685.5832358017,-82880.695,-111961.43,-44000.0,-59143.76,-132245.33,-42066.285,-43468.344,-47494.996
1314685.5872357977,-82854.58,-111936.61,-43972.09,-59119.062,-132222.5,-42043.133,-43440.715,-47465.254
1314685.5912357934,-82854.33,-111932.54,-43969.484,-59115.03,-132215.95,-42037.598,-43435.63,-47445.11
1314685.5952357894,-82880.74,-111958.625,-43992.11,-59133.02,-132228.69,-42054.605,-43461.754,-47467.285
1314685.5992357852,-82901.57,-111981.49,-44010.824,-59149.008,-132237.31,-42072.51,-43484.17,-47482.668
1314685.603235781,-82889.445,-111967.77,-43997.64,-59138.062,-132227.1,-42062.867,-43470.38,-47447.55
1314685.607235777,-82863.484,-111939.54,-43971.113,-59113.65,-132208.3,-42038.332,-43445.477,-47425.984
1314685.6112357727,-82862.35,-111936.85,-43968.223,-59108.117,-132205.05,-42033.652,-43445.152,-47449.953
1314685.6152357687,-82876.95,-111951.945,-43986.29,-59126.26,-132221.81,-42052.41,-43469.523,-47467.41
1314685.6192357645,-82886.6,-111966.19,-44002.566,-59142.58,-132234.95,-42066.61,-43485.883,-47473.39
1314685.6232357605,-82875.0,-111957.73,-43991.742,-59130.902,-132226.0,-42055.664,-43468.75,-47442.344
1314685.6272357563,-82842.0,-111926.516,-43963.625,-59104.7,-132198.94,-42032.31,-43444.133,-47422.934
1314685.6312357523,-82835.82,-111921.875,-43960.29,-59099.164,-132190.31,-42027.59,-43443.24,-47432.945
1314685.635235748,-82866.46,-111953.01,-43987.387,-59120.445,-132208.55,-42047.566,-43471.723,-47462.04
1314685.6392357438,-82892.414,-111976.98,-44007.12,-59139.203,-132229.53,-42063.152,-43489.992,-47465.66
1314685.6432357398,-82877.61,-111965.87,-43992.312,-59128.215,-132222.17,-42051.598,-43476.562,-47444.336
1314685.6472357356,-82847.54,-111939.91,-43965.414,-59104.74,-132201.1,-42025.84,-43448.242,-47407.555
1314685.6512357316,-82841.27,-111931.234,-43960.004,-59099.367,-132197.77,-42021.527,-43452.19,-47434.652
1314685.6552357273,-82870.24,-111949.836,-43983.848,-59118.98,-132212.48,-42040.527,-43478.273,-47461.184
1314685.6592357233,-82893.805,-111967.414,-44004.52,-59135.824,-132229.38,-42055.258,-43495.77,-47459.598
1314685.663235719,-82877.56,-111955.85,-43990.156,-59125.043,-132218.31,-42045.9,-43484.945,-47459.027
1314685.667235715,-82846.03,-111929.57,-43960.207,-59099.285,-132196.1,-42023.4,-43459.72,-47443.074
1314685.6712357108,-82850.71,-111928.96,-43959.92,-59097.293,-132194.9,-42020.387,-43453.816,-47423.87
1314685.6752357066,-82883.586,-111959.88,-43987.47,-59122.234,-132219.12,-42041.707,-43480.39,-47442.426
1314685.6792357026,-82900.48,-111977.79,-44005.535,-59138.145,-132231.78,-42055.258,-43497.97,-47453.168
1314685.6832356984,-82886.88,-111963.38,-43990.03,-59126.465,-132220.1,-42041.344,-43480.062,-47428.348
1314685.6872356944,-82857.14,-111933.03,-43962.08,-59100.793,-132197.84,-42016.97,-43451.99,-47397.016
1314685.6912356901,-82854.21,-111927.125,-43959.516,-59095.297,-132196.02,-42014.242,-43450.605,-47389.406
1314685.6952356861,-82882.77,-111955.61,-43983.32,-59115.074,-132211.75,-42035.688,-43480.918,-47437.215
1314685.699235682,-82900.8,-111976.08,-44001.547,-59132.45,-132233.94,-42050.7,-43499.227,-47464.887
1314685.703235678,-82887.375,-111963.79,-43987.02,-59121.22,-132223.72,-42038.94,-43483.36,-47444.785
1314685.7072356737,-82862.39,-111937.87,-43960.86,-59098.39,-132203.98,-42016.48,-43455.566,-47404.22
1314685.7112356694,-82865.36,-111937.75,-43960.004,-59094.85,-132205.81,-42013.633,-43457.277,-47403.117
1314685.7152356654,-82892.17,-111962.2,-43984.99,-59113.934,-132226.77,-42032.35,-43481.082,-47433.31
1314685.7192356612,-82909.43,-111979.86,-44000.977,-59128.258,-132238.0,-42045.695,-43492.516,-47443.402
1314685.7232356572,-82890.42,-111961.71,-43981.65,-59112.633,-132226.61,-42033.164,-43473.39,-47423.18
1314685.727235653,-82860.35,-111933.07,-43953.047,-59088.176,-132212.16,-42011.07,-43443.24,-47387.37
1314685.731235649,-82859.21,-111933.59,-43952.92,-59085.207,-132214.56,-42007.938,-43443.77,-47404.176
1314685.7352356447,-82882.65,-111958.17,-43975.586,-59107.22,-132233.33,-42026.938,-43469.32,-47443.89
1314685.7392356407,-82899.414,-111977.54,-43990.195,-59123.375,-132248.38,-42039.062,-43479.25,-47450.684
1314685.7432356365,-82882.445,-111963.625,-43971.844,-59109.254,-132234.62,-42024.332,-43458.254,-47420.82
1314685.7472356323,-82851.484,-111935.39,-43945.598,-59082.848,-132210.81,-42002.156,-43431.277,-47401.082
1314685.7512356283,-82848.06,-111930.305,-43946.21,-59078.86,-132206.83,-42001.18,-43429.89,-47403.605
1314685.755235624,-82878.13,-111957.08,-43972.656,-59101.117,-132233.12,-42021.324,-43450.156,-47421.348
1314685.75923562,-82897.09,-111977.38,-43987.957,-59118.164,-132260.5,-42034.586,-43459.35,-47423.625
1314685.7632356158,-82883.22,-111962.94,-43971.723,-59108.36,-132257.12,-42022.258,-43439.414,-47396.65
1314685.7672356118,-82853.35,-111929.81,-43943.77,-59083.62,-132235.6,-41998.74,-43409.305,-47362.47
1314685.7712356076,-82848.8,-111923.22,-43942.426,-59076.99,-132228.16,-41996.95,-43408.652,-47365.684
1314685.7752356036,-82876.51,-111948.98,-43968.63,-59097.984,-132245.2,-42014.934,-43432.58,-47389.895
1314685.7792355993,-82893.84,-111969.65,-43983.93,-59113.812,-132260.42,-42027.71,-43447.633,-47425.418
1314685.7832355953,-82874.35,-111954.63,-43966.758,-59102.418,-132248.1,-42014.566,-43428.1,-47403.035
1314685.787235591,-82848.88,-111929.164,-43939.375,-59079.062,-132229.58,-41991.824,-43397.586,-47365.4
1314685.7912355869,-82850.79,-111930.22,-43938.355,-59075.727,-132228.28,-41987.43,-43396.895,-47366.09
1314685.7952355829,-82879.68,-111958.09,-43966.105,-59098.88,-132245.05,-42007.324,-43425.78,-47399.66
1314685.7992355786,-82899.01,-111977.336,-43983.113,-59113.49,-132256.64,-42021.445,-43443.44,-47421.1
1314685.8032355746,-82884.56,-111960.45,-43965.863,-59098.43,-132242.27,-42007.12,-43425.66,-47399.05
1314685.8072355704,-82854.33,-111930.83,-43936.24,-59073.0,-132216.47,-41981.242,-43402.875,-47377.402
1314685.8112355664,-82850.14,-111925.3,-43933.96,-59069.176,-132212.2,-41979.25,-43406.82,-47381.39
1314685.8152355622,-82880.29,-111953.78,-43961.14,-59090.13,-132234.78,-41998.375,-43434.492,-47410.81
1314685.8192355582,-82899.945,-111974.164,-43978.516,-59105.51,-132249.16,-42012.25,-43447.633,-47420.492
1314685.823235554,-82886.15,-111960.086,-43963.094,-59093.1,-132237.39,-41998.66,-43427.574,-47391.316
1314685.8272355497,-82859.26,-111933.555,-43935.996,-59066.406,-132213.22,-41972.617,-43401.938,-47367.555
1314685.8312355457,-82857.71,-111933.27,-43934.613,-59064.21,-132211.6,-41971.723,-43405.03,-47370.16
1314685.8352355415,-82884.08,-111960.21,-43959.11,-59087.242,-132228.16,-41991.254,-43431.4,-47387.94
