timestamp,Fp1,Fp2,F3,Fz,F4,Cz,Pz,Oz
1314718.4232018937,-84547.04,-113325.766,-45523.64,-59304.363,-133044.92,-42193.44,-45192.953,-47335.29
1314718.4272018897,-84571.695,-113350.266,-45546.754,-59327.516,-133064.9,-42211.754,-45208.254,-47351.32
1314718.4312018855,-84559.37,-113338.625,-45538.82,-59323.406,-133058.39,-42206.34,-45195.965,-47344.85
1314718.4352018815,-84523.27,-113306.52,-45507.527,-59297.934,-133036.38,-42183.72,-45168.457,-47312.094
1314718.4392018772,-84516.36,-113300.13,-45498.17,-59287.926,-133028.2,-42176.188,-45161.5,-47305.707
1314718.4432018732,-84542.484,-113323.94,-45520.633,-59307.496,-133045.42,-42195.76,-45185.59,-47337.89
1314718.447201869,-84561.65,-113346.93,-45541.87,-59326.54,-133065.88,-42216.758,-45205.977,-47353.76
1314718.451201865,-84548.83,-113336.96,-45533.164,-59321.21,-133060.88,-42213.176,-45198.773,-47336.836
1314718.4552018608,-84516.85,-113308.19,-45503.703,-59296.184,-133033.73,-42188.965,-45170.656,-47308.066
1314718.4592018565,-84505.086,-113298.18,-45492.637,-59284.914,-133029.27,-42180.176,-45161.46,-47304.16
1314718.4632018525,-84532.39,-113317.836,-45513.55,-59303.145,-133033.25,-42199.586,-45184.285,-47330.69
1314718.4672018483,-84561.52,-113343.47,-45535.848,-59326.5,-133064.98,-42217.367,-45199.586,-47351.277
1314718.4712018443,-84554.89,-113337.81,-45527.184,-59322.188,-133063.72,-42208.824,-45187.42,-47334.758
1314718.47520184,-84521.65,-113308.35,-45499.84,-59297.527,-133036.7,-42185.508,-45163.86,-47316.938
1314718.479201836,-84517.3,-113300.87,-45490.234,-59288.984,-133030.97,-42176.637,-45153.566,-47302.816
1314718.4832018318,-84544.11,-113324.47,-45510.094,-59307.7,-133052.81,-42196.13,-45173.3,-47328.125
1314718.4872018278,-84569.38,-113347.62,-45533.082,-59329.836,-133071.05,-42215.74,-45194.5,-47354.168
1314718.4912018236,-84562.22,-113341.31,-45523.562,-59324.914,-133066.58,-42210.125,-45182.008,-47343.59
1314718.4952018193,-84530.32,-113311.73,-45500.164,-59300.09,-133045.7,-42185.1,-45148.97,-47315.39
1314718.4992018153,-84519.734,-113300.055,-45489.625,-59290.406,-133039.56,-42174.848,-45135.824,-47306.355
1314718.503201811,-84541.18,-113322.76,-45506.43,-59305.016,-133050.55,-42192.426,-45153.08,-47332.316
1314718.507201807,-84560.1,-113342.33,-45528.035,-59323.855,-133072.03,-42210.734,-45167.44,-47347.78
1314718.5112018029,-84553.19,-113335.125,-45522.137,-59318.605,-133060.67,-42204.836,-45155.273,-47337.934
1314718.5152017989,-84523.36,-113309.164,-45493.98,-59294.72,-133039.44,-42180.258,-45127.156,-47313.477
1314718.5192017946,-84516.08,-113305.625,-45484.58,-59287.152,-133046.95,-42169.68,-45112.387,-47301.473
1314718.5232017906,-84544.48,-113333.58,-45509.402,-59307.902,-133065.67,-42187.418,-45126.426,-47314.13
1314718.5272017864,-84569.83,-113356.29,-45530.64,-59328.492,-133080.36,-42207.48,-45147.586,-47343.387
1314718.5312017822,-84558.43,-113344.37,-45519.043,-59322.797,-133080.61,-42202.516,-45137.207,-47338.707
1314718.5352017782,-84533.086,-113319.664,-45491.09,-59299.48,-133054.56,-42178.1,-45108.684,-47301.96
1314718.539201774,-84525.68,-113309.86,-45484.01,-59290.406,-133038.9,-42169.395,-45100.344,-47289.266
1314718.54320177,-84538.74,-113324.836,-45504.395,-59308.594,-133063.81,-42186.035,-45125.0,-47328.33
1314718.5472017657,-84560.02,-113349.45,-45533.285,-59331.26,-133083.78,-42204.184,-45146.445,-47352.785
1314718.5512017617,-84558.35,-113344.69,-45527.547,-59327.8,-133075.36,-42196.86,-45137.004,-47334.15
1314718.5552017575,-84526.94,-113315.92,-45495.566,-59304.363,-133055.5,-42173.625,-45111.125,-47307.293
1314718.5592017535,-84515.51,-113302.414,-45480.55,-59292.523,-133046.92,-42165.12,-45104.047,-47303.71
1314718.5632017492,-84540.24,-113327.195,-45499.31,-59310.754,-133061.28,-42182.617,-45127.566,-47324.14
1314718.567201745,-84564.25,-113347.17,-45522.707,-59330.08,-133072.6,-42201.58,-45149.21,-47343.387
1314718.571201741,-84551.84,-113332.766,-45512.695,-59321.086,-133066.25,-42194.418,-45140.547,-47336.875
1314718.5752017368,-84522.34,-113302.94,-45485.477,-59297.445,-133043.67,-42169.92,-45112.957,-47303.59
1314718.5792017328,-84509.65,-113294.92,-45476.32,-59289.348,-133041.47,-42162.027,-45104.535,-47293.215
1314718.5832017285,-84535.65,-113325.65,-45496.258,-59305.992,-133048.27,-42179.605,-45129.965,-47322.51
1314718.5872017245,-84556.44,-113346.68,-45513.387,-59325.645,-133070.39,-42199.547,-45152.67,-47346.355
1314718.5912017203,-84543.945,-113338.87,-45504.19,-59319.746,-133070.97,-42193.2,-45142.375,-47329.836
1314718.5952017163,-84516.44,-113317.43,-45481.324,-59297.406,-133049.36,-42169.76,-45116.984,-47305.746
1314718.599201712,-84508.34,-113309.29,-45470.867,-59288.86,-133038.98,-42163.453,-45111.37,-47293.867
1314718.6032017078,-84530.48,-113330.164,-45491.58,-59305.91,-133051.89,-42181.07,-45134.44,-47322.31
1314718.6072017038,-84551.27,-113345.79,-45517.215,-59324.707,-133065.97,-42199.42,-45155.477,-47348.96
1314718.6112016996,-84545.984,-113342.164,-45513.266,-59321.047,-133056.89,-42192.996,-45147.176,-47337.117
1314718.6152016956,-84513.8,-113316.695,-45480.918,-59296.715,-133037.11,-42166.91,-45111.86,-47286.582
1314718.6192016914,-84499.31,-113302.53,-45467.043,-59283.41,-133022.88,-42158.773,-45105.145,-47279.297
1314718.6232016874,-84524.46,-113325.85,-45485.312,-59300.336,-133039.34,-42177.33,-45129.438,-47316.734
1314718.6272016831,-84547.24,-113343.59,-45504.883,-59322.227,-133060.14,-42196.695,-45148.36,-47337.117
1314718.6312016791,-84536.83,-113331.55,-45497.4,-59317.465,-133059.53,-42188.883,-45135.094,-47308.637
1314718.635201675,-84510.54,-113300.58,-45477.38,-59294.965,-133033.53,-42164.062,-45110.84,-47286.746
1314718.639201671,-84508.47,-113297.33,-45467.977,-59288.086,-133031.17,-42157.88,-45111.574,-47289.43
1314718.6432016667,-84533.57,-113321.05,-45492.516,-59306.52,-133049.94,-42176.598,-45142.215,-47324.26
1314718.6472016624,-84555.87,-113346.234,-45518.434,-59328.37,-133065.19,-42197.227,-45170.332,-47359.906
1314718.6512016584,-84543.83,-113338.51,-45507.324,-59323.61,-133062.14,-42189.332,-45161.62,-47348.31
1314718.6552016542,-84516.484,-113313.16,-45478.355,-59299.36,-133044.97,-42163.13,-45129.52,-47307.902
1314718.6592016502,-84505.74,-113304.81,-45470.258,-59291.3,-133034.92,-42155.03,-45120.16,-47295.74
1314718.663201646,-84534.95,-113330.53,-45491.375,-59309.367,-133047.58,-42175.133,-45147.3,-47329.957
1314718.667201642,-84555.99,-113351.484,-45512.168,-59330.61,-133077.89,-42193.523,-45170.492,-47349.12
1314718.6712016377,-84547.41,-113347.7,-45504.395,-59325.605,-133066.05,-42185.02,-45162.598,-47328.535
1314718.6752016337,-84519.53,-113320.97,-45479.656,-59302.86,-133040.28,-42163.086,-45139.61,-47305.055
1314718.6792016295,-84509.89,-113309.29,-45471.723,-59293.582,-133033.08,-42157.145,-45136.19,-47296.633
1314718.6832016252,-84531.86,-113327.64,-45490.48,-59310.344,-133049.81,-42175.863,-45160.08,-47319.46
1314718.6872016212,-84555.664,-113351.36,-45510.094,-59330.324,-133064.5,-42193.402,-45185.47,-47354.004
1314718.691201617,-84546.35,-113344.08,-45500.773,-59324.383,-133054.69,-42183.473,-45173.953,-47341.23
1314718.695201613,-84515.016,-113310.914,-45470.215,-59296.836,-133024.42,-42159.223,-45145.43,-47304.242
1314718.6992016088,-84501.71,-113300.46,-45460.98,-59287.965,-133023.81,-42152.387,-45138.145,-47287.234
1314718.7032016048,-84521.61,-113314.45,-45486.25,-59302.453,-133028.16,-42173.383,-45165.45,-47313.316
1314718.7072016005,-84548.26,-113340.09,-45502.566,-59322.96,-133043.95,-42192.63,-45188.152,-47341.758
1314718.7112015965,-84543.055,-113339.28,-45497.76,-59319.297,-133049.11,-42183.637,-45172.773,-47324.79
1314718.7152015923,-84521.04,-113319.13,-45471.844,-59295.9,-133032.56,-42159.305,-45142.99,-47289.266
1314718.719201588,-84513.305,-113311.24,-45469.566,-59286.46,-133021.98,-42152.875,-45140.34,-47275.555
1314718.723201584,-84529.38,-113327.92,-45485.066,-59303.836,-133038.58,-42174.562,-45172.527,-47314.74
1314718.7272015798,-84554.69,-113351.12,-45502.89,-59324.586,-133050.95,-42195.027,-45201.094,-47352.254
1314718.7312015758,-84550.21,-113341.96,-45499.15,-59317.71,-133040.45,-42185.184,-45186.523,-47330.16
1314718.7352015716,-84520.71,-113315.88,-45473.27,-59293.867,-133029.88,-42160.117,-45154.055,-47288.086
1314718.7392015676,-84516.484,-113313.27,-45467.773,-59286.664,-133021.48,-42155.234,-45153.402,-47287.965
1314718.7432015634,-84544.35,-113341.516,-45482.832,-59304.445,-133042.23,-42174.645,-45179.363,-47315.84
1314718.7472015594,-84573.04,-113368.37,-45508.75,-59325.195,-133062.22,-42192.098,-45198.61,-47338.258
1314718.7512015551,-84562.75,-113360.234,-45500.938,-59320.152,-133062.38,-42183.92,-45185.957,-47319.99
1314718.755201551,-84529.38,-113328.945,-45470.215,-59295.9,-133043.58,-42162.883,-45164.023,-47298.22
1314718.759201547,-84528.57,-113324.55,-45467.695,-59288.574,-133032.88,-42158.57,-45165.285,-47303.875
1314718.7632015427,-84559.25,-113348.96,-45493.41,-59309.492,-133049.36,-42176.516,-45189.453,-47319.906
1314718.7672015387,-84582.84,-113369.67,-45508.992,-59328.29,-133063.72,-42193.402,-45209.395,-47340.21
1314718.7712015344,-84564.82,-113351.766,-45502.523,-59320.723,-133059.66,-42185.1,-45194.46,-47329.957
1314718.7752015304,-84529.46,-113318.24,-45480.51,-59295.777,-133034.14,-42161.5,-45162.926,-47284.14
1314718.7792015262,-84525.516,-113318.445,-45469.035,-59289.27,-133034.19,-42156.332,-45155.76,-47270.55
1314718.7832015222,-84548.79,-113344.61,-45489.668,-59307.617,-133058.11,-42175.742,-45181.766,-47312.582
1314718.787201518,-84576.664,-113369.19,-45509.93,-59327.56,-133076.55,-42192.75,-45201.375,-47336.266
1314718.7912015137,-84561.08,-113353.16,-45505.496,-59320.438,-133064.45,-42182.535,-45184.45,-47312.582
1314718.7952015097,-84535.2,-113332.03,-45468.67,-59295.94,-133040.2,-42159.06,-45161.582,-47294.312
1314718.7992015055,-84530.195,-113326.79,-45469.688,-59289.715,-133031.58,-42154.176,-45155.477,-47287.152
1314718.8032015015,-84567.99,-113359.3,-45498.945,-59311.688,-133058.72,-42174.156,-45179.324,-47314.902
1314718.8072014973,-84597.375,-113387.086,-45518.758,-59331.91,-133089.23,-42193.688,-45199.547,-47347.168
1314718.8112014933,-84580.734,-113371.71,-45509.2,-59320.03,-133074.67,-42185.223,-45189.047,-47329.754
1314718.815201489,-84550.54,-113345.18,-45480.31,-59294.19,-133052.66,-42161.215,-45162.152,-47295.37
1314718.819201485,-84544.234,-113339.234,-45475.75,-59288.21,-133041.27,-42155.316,-45153.566,-47289.062
1314718.8232014808,-84568.65,-113361.45,-45492.434,-59306.03,-133055.88,-42175.62,-45173.83,-47317.465
1314718.8272014766,-84592.82,-113383.55,-45508.383,-59324.953,-133076.3,-42193.074,-45190.023,-47337.85
1314718.8312014726,-84580.33,-113373.3,-45500.855,-59317.63,-133060.6,-42182.863,-45175.742,-47320.027
1314718.8352014683,-84542.12,-113340.336,-45470.137,-59292.89,-133043.7,-42158.773,-45144.29,-47282.31
1314718.8392014643,-84542.89,-113344.57,-45458.824,-59287.805,-133043.95,-42153.035,-45144.816,-47280.438
1314718.84320146,-84569.336,-113366.91,-45488.934,-59307.902,-133063.52,-42172.566,-45170.047,-47298.22
1314718.847201456,-84585.45,-113380.74,-45508.992,-59327.19,-133071.94,-42192.87,-45191.33,-47317.87
1314718.8512014518,-84573.81,-113366.3,-45501.75,-59318.402,-133059.12,-42181.766,-45176.96,-47305.91
1314718.8552014478,-84537.92,-113332.28,-45473.633,-59294.11,-133036.88,-42156.863,-45148.277,-47280.438
1314718.8592014436,-84530.4,-113321.984,-45463.95,-59285.156,-133026.38,-42153.2,-45144.29,-47267.906
1314718.8632014394,-84560.34,-113353.48,-45488.73,-59307.496,-133049.69,-42172.73,-45169.72,-47294.19
1314718.8672014354,-84584.11,-113377.28,-45506.758,-59326.54,-133071.86,-42189.008,-45188.844,-47317.75
1314718.8712014311,-84578.62,-113376.305,-45498.008,-59319.01,-133065.47,-42177.043,-45173.707,-47305.504
1314718.8752014271,-84550.87,-113351.85,-45469.65,-59296.227,-133038.3,-42156.375,-45149.17,-47275.84
1314718.879201423,-84528.93,-113332.16,-45455.65,-59286.215,-133032.72,-42156.863,-45153.77,-47279.746
1314718.883201419,-84560.51,-113360.68,-45483.766,-59306.805,-133050.5,-42177.164,-45180.504,-47309.125
1314718.8872014147,-84598.96,-113395.266,-45512.207,-59328.74,-133070.36,-42193.36,-45202.19,-47337.324
1314718.8912014107,-84586.67,-113384.89,-45500.41,-59320.234,-133055.8,-42184.164,-45194.703,-47331.79
1314718.8952014064,-84553.8,-113358.56,-45469.08,-59296.266,-133040.69,-42160.93,-45164.31,-47294.76
1314718.8992014022,-84550.26,-113352.95,-45460.652,-59289.188,-133035.81,-42155.965,-45161.01,-47291.504
1314718.9032013982,-84575.36,-113373.74,-45491.09,-59310.06,-133049.4,-42177.37,-45185.02,-47315.066
1314718.907201394,-84597.01,-113392.91,-45511.8,-59327.477,-133074.42,-42192.79,-45198.324,-47323.082
1314718.91120139,-84586.23,-113384.36,-45497.52,-59318.08,-133064.62,-42183.27,-45184.98,-47308.516
1314718.9152013857,-84553.39,-113350.875,-45466.188,-59292.562,-133042.2,-42160.81,-45158.49,-47281.047
1314718.9192013817,-84547.94,-113345.664,-45464.56,-59286.746,-133033.0,-42158.895,-45159.1,-47277.63
1314718.9232013775,-84573.81,-113367.07,-45487.67,-59305.3,-133049.56,-42180.42,-45186.523,-47303.754
1314718.9272013735,-84587.98,-113381.63,-45506.227,-59322.227,-133070.81,-42195.56,-45201.863,-47316.855
1314718.9312013693,-84576.3,-113371.34,-45490.684,-59312.22,-133055.14,-42187.38,-45191.33,-47309.492
1314718.935201365,-84543.016,-113343.55,-45459.35,-59287.598,-133040.78,-42160.973,-45157.555,-47263.715
1314718.939201361,-84535.93,-113333.78,-45452.56,-59280.48,-133036.27,-42156.58,-45150.8,-47254.723
1314718.9432013568,-84560.305,-113356.24,-45471.438,-59300.62,-133050.25,-42177.613,-45175.863,-47295.9
1314718.9472013528,-84578.49,-113373.01,-45489.46,-59317.668,-133065.23,-42194.176,-45192.508,-47311.727
1314718.9512013486,-84559.25,-113356.49,-45476.074,-59306.562,-133057.05,-42185.344,-45175.66,-47281.94
1314718.9552013446,-84524.91,-113326.26,-45448.367,-59281.008,-133034.67,-42159.547,-45145.957,-47258.223
1314718.9592013403,-84516.766,-113316.49,-45447.797,-59276.164,-133030.77,-42154.01,-45140.137,-47261.273
1314718.9632013363,-84546.06,-113340.3,-45470.582,-59296.184,-133050.42,-42176.758,-45169.23,-47295.047
1314718.967201332,-84572.836,-113367.19,-45495.484,-59318.117,-133063.28,-42192.14,-45189.863,-47314.78
1314718.9712013279,-84553.59,-113353.07,-45479.207,-59309.125,-133060.92,-42178.1,-45169.355,-47295.207
1314718.9752013239,-84522.38,-113326.79,-45443.117,-59282.637,-133045.73,-42153.89,-45137.656,-47259.24
1314718.9792013196,-84514.695,-113320.766,-45439.78,-59275.35,-133035.94,-42151.367,-45133.06,-47249.715
1314718.9832013156,-84538.414,-113342.82,-45463.83,-59293.254,-133051.8,-42172.977,-45161.785,-47280.723
1314718.9872013114,-84566.9,-113369.836,-45484.863,-59313.316,-133073.78,-42191.12,-45189.656,-47316.164
1314718.9912013074,-84557.25,-113361.58,-45472.617,-59307.17,-133069.67,-42181.07,-45183.39,-47308.594
1314718.9952013032,-84534.875,-113338.18,-45445.64,-59284.18,-133043.25,-42160.93,-45165.04,-47287.76
1314718.9992012992,-84526.125,-113328.945,-45444.906,-59276.207,-133035.2,-42158.246,-45161.418,-47272.707
1314719.003201295,-84551.64,-113349.49,-45473.797,-59296.51,-133045.62,-42178.67,-45190.31,-47301.11
1314719.0072012907,-84578.01,-113375.2,-45487.836,-59317.793,-133071.83,-42194.703,-45212.28,-47330.12
1314719.0112012867,-84556.48,-113361.25,-45471.56,-59306.766,-133065.64,-42185.75,-45198.855,-47311.28
1314719.0152012825,-84528.93,-113331.75,-45447.145,-59281.902,-133039.92,-42163.047,-45173.22,-47284.914
1314719.0192012785,-84523.69,-113324.95,-45444.215,-59275.473,-133031.1,-42161.133,-45175.418,-47293.906
1314719.0232012742,-84555.34,-113353.97,-45466.023,-59295.656,-133054.77,-42182.414,-45200.727,-47319.215
1314719.0272012702,-84578.125,-113375.734,-45485.35,-59315.51,-133075.77,-42196.777,-45210.574,-47323.73
1314719.031201266,-84560.75,-113361.086,-45474.12,-59305.87,-133060.14,-42187.137,-45192.71,-47304.445
1314719.035201262,-84533.2,-113333.42,-45448.934,-59282.227,-133044.28,-42162.11,-45160.2,-47263.836
1314719.0392012578,-84533.94,-113329.63,-45446.492,-59277.832,-133039.52,-42159.996,-45157.84,-47259.523
1314719.0432012535,-84561.08,-113356.98,-45466.676,-59296.55,-133052.66,-42180.504,-45181.684,-47287.68
1314719.0472012495,-84581.26,-113377.08,-45483.766,-59313.316,-133073.08,-42197.105,-45199.465,-47309.652
1314719.0512012453,-84576.984,-113376.305,-45474.164,-59306.195,-133059.53,-42187.38,-45185.14,-47288.496
1314719.0552012413,-84539.43,-113341.44,-45451.54,-59281.25,-133034.39,-42164.633,-45158.69,-47271.08
1314719.059201237,-84539.19,-113337.04,-45445.438,-59276.164,-133040.0,-42160.727,-45158.367,-47273.926
1314719.063201233,-84569.5,-113363.695,-45464.316,-59296.754,-133063.36,-42182.17,-45187.46,-47301.598
1314719.0672012288,-84587.65,-113383.23,-45483.195,-59315.27,-133081.55,-42197.918,-45205.12,-47325.523
1314719.0712012248,-84572.72,-113371.18,-45479.98,-59307.7,-133061.94,-42187.99,-45188.76,-47302.004
1314719.0752012206,-84545.29,-113345.09,-45449.06,-59283.41,-133043.7,-42162.723,-45157.023,-47262.004
1314719.0792012166,-84541.016,-113337.85,-45438.316,-59276.492,-133047.45,-42159.426,-45153.65,-47265.06
1314719.0832012123,-84568.93,-113368.58,-45459.883,-59297.12,-133066.48,-42180.016,-45184.613,-47305.38
1314719.087201208,-84584.64,-113385.18,-45481.203,-59314.7,-133085.3,-42196.414,-45200.684,-47319.62
1314719.091201204,-84566.125,-113363.94,-45464.152,-59300.254,-133066.28,-42184.734,-45183.84,-47305.137
1314719.0952011999,-84541.305,-113336.51,-45433.027,-59278.934,-133046.55,-42160.93,-45153.934,-47267.945
1314719.0992011959,-84539.31,-113335.45,-45426.8,-59275.72,-133041.8,-42157.84,-45147.87,-47264.69
1314719.1032011916,-84552.66,-113352.016,-45462.117,-59295.004,-133054.45,-42178.348,-45166.098,-47287.883
1314719.1072011876,-84578.414,-113381.11,-45471.883,-59310.426,-133072.6,-42193.688,-45183.15,-47316.977
1314719.1112011834,-84566.086,-113371.625,-45452.84,-59298.22,-133063.28,-42181.56,-45165.285,-47289.188
1314719.1152011794,-84535.16,-113341.27,-45432.375,-59276.777,-133043.47,-42159.383,-45136.19,-47258.668
1314719.1192011752,-84530.48,-113336.76,-45427.938,-59273.926,-133046.84,-42157.145,-45133.223,-47264.363
1314719.123201171,-84558.59,-113361.62,-45449.87,-59293.094,-133069.17,-42178.914,-45156.617,-47294.273
1314719.127201167,-84576.83,-113380.414,-45468.02,-59310.67,-133084.44,-42193.484,-45168.785,-47312.5
1314719.1312011627,-84562.336,-113366.625,-45455.566,-59300.254,-133072.55,-42182.047,-45149.457,-47293.867
1314719.1352011587,-84536.83,-113344.24,-45433.39,-59278.81,-133054.33,-42157.39,-45113.973,-47253.176
1314719.1392011545,-84537.03,-113342.53,-45427.41,-59276.98,-133056.61,-42158.406,-45115.195,-47268.15
1314719.1432011505,-84562.336,-113363.445,-45450.36,-59296.797,-133067.11,-42179.04,-45141.156,-47307.496
1314719.1472011462,-84585.05,-113385.83,-45469.44,-59313.234,-133081.7,-42193.44,-45158.69,-47330.0
1314719.1512011422,-84581.26,-113381.92,-45460.652,-59303.59,-133073.0,-42182.902,-45140.26,-47311.65
1314719.155201138,-84555.34,-113358.93,-45431.113,-59280.97,-133064.5,-42160.32,-45109.01,-47274.13
1314719.1592011338,-84532.836,-113337.85,-45424.562,-59274.54,-133056.92,-42159.914,-45109.336,-47265.06
1314719.1632011298,-84548.51,-113353.64,-45444.46,-59295.453,-133065.06,-42180.258,-45135.094,-47302.53
1314719.1672011255,-84558.02,-113364.51,-45454.957,-59310.02,-133081.39,-42191.53,-45147.992,-47319.62
1314719.1712011215,-84537.11,-113342.86,-45437.703,-59297.12,-133068.12,-42180.95,-45132.12,-47296.266
1314719.1752011173,-84505.29,-113309.9,-45416.14,-59273.03,-133042.89,-42158.57,-45104.37,-47263.754
1314719.1792011133,-84497.27,-113302.375,-45410.93,-59268.35,-133031.62,-42157.555,-45105.836,-47264.85
1314719.183201109,-84528.12,-113326.42,-45433.39,-59289.594,-133051.92,-42179.08,-45132.812,-47297.61
1314719.187201105,-84539.43,-113341.92,-45446.332,-59306.36,-133081.67,-42191.652,-45146.242,-47322.348
1314719.1912011008,-84522.79,-113328.66,-45430.46,-59294.07,-133066.25,-42177.53,-45131.676,-47307.293
1314719.1952010966,-84502.81,-113311.04,-45404.91,-59272.098,-133044.39,-42155.56,-45106.082,-47268.516
1314719.1992010926,-84503.26,-113314.375,-45400.637,-59270.305,-133045.42,-42154.5,-45103.312,-47259.89
1314719.2032010884,-84525.31,-113335.45,-45431.64,-59290.652,-133055.06,-42176.027,-45125.773,-47280.723
1314719.2072010844,-84547.37,-113355.76,-45446.7,-59306.684,-133063.64,-42190.633,-45147.055,-47321.332
1314719.2112010801,-84533.57,-113341.27,-45431.316,-59298.707,-133054.94,-42179.402,-45131.062,-47301.516
1314719.2152010761,-84508.836,-113317.914,-45412.395,-59278.2,-133034.42,-42157.758,-45107.098,-47266.316
1314719.219201072,-84510.54,-113320.16,-45413.496,-59276.29,-133038.5,-42156.82,-45111.25,-47271.28
1314719.223201068,-84537.72,-113344.445,-45433.92,-59296.105,-133069.22,-42177.207,-45139.527,-47304.04
1314719.2272010637,-84559.086,-113365.73,-45453.574,-59313.273,-133078.45,-42192.63,-45159.914,-47325.523
1314719.2312010594,-84542.97,-113355.63,-45437.094,-59301.19,-133061.16,-42180.46,-45147.383,-47313.723
1314719.2352010554,-84517.87,-113331.38,-45415.04,-59278.2,-133040.94,-42158.57,-45120.605,-47280.234
1314719.2392010512,-84521.85,-113330.85,-45415.895,-59277.02,-133042.28,-42156.617,-45122.48,-47278.242
1314719.2432010472,-84547.08,-113354.375,-45435.47,-59297.57,-133058.23,-42178.305,-45151.29,-47307.008
1314719.247201043,-84558.15,-113361.82,-45453.535,-59311.28,-133068.77,-42191.0,-45164.754,-47320.11
1314719.251201039,-84542.6,-113347.91,-45438.805,-59300.17,-133061.69,-42176.027,-45143.395,-47302.938
1314719.2552010347,-84516.36,-113326.26,-45414.676,-59279.34,-133041.75,-42153.688,-45113.527,-47264.285
1314719.2592010307,-84520.96,-113332.12,-45408.57,-59278.484,-133044.28,-42153.934,-45116.05,-47262.74
1314719.2632010265,-84546.305,-113352.91,-45430.137,-59300.09,-133063.4,-42174.6,-45140.22,-47285.566
1314719.2672010222,-84558.88,-113366.3,-45450.074,-59315.758,-133076.55,-42188.438,-45155.316,-47305.016
1314719.2712010182,-84544.35,-113352.54,-45434.082,-59303.387,-133066.28,-42175.17,-45138.836,-47282.555
1314719.275201014,-84518.234,-113330.08,-45407.35,-59278.85,-133045.7,-42153.81,-45113.04,-47253.5
1314719.27920101,-84519.58,-113331.75,-45410.848,-59277.1,-133040.33,-42154.01,-45116.78,-47251.547
1314719.2832010058,-84544.92,-113353.07,-45432.984,-59297.773,-133063.72,-42175.008,-45142.906,-47270.184
1314719.2872010018,-84565.92,-113373.414,-45446.656,-59315.066,-133077.77,-42188.883,-45160.77,-47289.918
1314719.2912009975,-84544.234,-113356.0,-45427.613,-59301.883,-133070.92,-42175.984,-45148.03,-47280.152
1314719.2952009935,-84516.484,-113329.1,-45397.137,-59276.33,-133053.6,-42152.793,-45125.082,-47250.33
1314719.2992009893,-84517.01,-113329.59,-45394.695,-59276.086,-133052.94,-42153.2,-45132.45,-47256.348
1314719.303200985,-84544.72,-113356.29,-45426.27,-59298.3,-133070.84,-42175.05,-45164.51,-47288.902
1314719.307200981,-84565.11,-113377.24,-45447.266,-59314.535,-133083.7,-42189.37,-45184.164,-47300.703
1314719.3112009768,-84542.97,-113356.77,-45434.53,-59302.29,-133068.53,-42175.496,-45171.1,-47279.42
1314719.3152009728,-84515.79,-113335.62,-45409.71,-59278.2,-133048.75,-42152.02,-45149.984,-47259.688
1314719.3192009686,-84521.04,-113341.8,-45410.24,-59277.305,-133043.62,-42153.2,-45158.082,-47273.438
1314719.3232009646,-84552.29,-113367.15,-45433.027,-59298.016,-133057.17,-42173.707,-45186.523,-47302.816
1314719.3272009604,-84559.164,-113373.05,-45452.434,-59310.06,-133059.73,-42187.543,-45201.336,-47313.316
1314719.3312009564,-84536.13,-113356.2,-45432.617,-59298.18,-133063.4,-42174.6,-45183.797,-47287.11
1314719.3352009521,-84513.836,-113332.56,-45404.137,-59275.676,-133043.83,-42152.547,-45163.984,-47261.516
1314719.339200948,-84522.3,-113334.11,-45402.184,-59275.312,-133047.05,-42153.65,-45174.195,-47275.88
1314719.343200944,-84552.49,-113359.83,-45435.223,-59297.57,-133069.22,-42176.8,-45201.785,-47300.58
1314719.3472009397,-84570.07,-113377.16,-45449.383,-59312.5,-133083.5,-42191.043,-45214.277,-47310.223
1314719.3512009357,-84550.74,-113353.56,-45438.805,-59297.324,-133061.2,-42177.37,-45199.016,-47291.586
1314719.3552009314,-84520.23,-113323.695,-45410.2,-59272.504,-133038.17,-42154.297,-45171.348,-47252.035
1314719.3592009274,-84520.06,-113323.77,-45410.89,-59272.016,-133031.83,-42154.38,-45172.16,-47252.566
1314719.3632009232,-84548.38,-113348.43,-45429.85,-59293.176,-133053.06,-42177.613,-45201.094,-47290.61
1314719.3672009192,-84558.48,-113358.85,-45440.633,-59308.96,-133077.6,-42189.82,-45210.652,-47293.05
1314719.371200915,-84545.29,-113347.3,-45425.742,-59295.86,-133055.34,-42176.637,-45192.14,-47269.453
1314719.3752009107,-84514.04,-113321.82,-45401.652,-59271.566,-133029.1,-42156.453,-45170.94,-47250.043
1314719.3792009067,-84514.04,-113321.82,-45399.824,-59268.68,-133026.25,-42155.113,-45177.574,-47257.734
1314719.3832009025,-84542.52,-113347.336,-45425.62,-59289.918,-133046.55,-42177.9,-45207.848,-47287.438
1314719.3872008985,-84556.93,-113361.695,-45444.05,-59304.77,-133061.89,-42188.152,-45216.92,-47288.777
1314719.3912008943,-84542.484,-113348.836,-45426.72,-59295.41,-133049.81,-42173.3,-45198.0,-47267.742
1314719.3952008903,-84513.555,-113321.25,-45406.21,-59272.992,-133029.7,-42154.176,-45178.348,-47254.883
1314719.399200886,-84520.43,-113328.25,-45407.96,-59272.098,-133040.58,-42155.03,-45182.82,-47253.38
1314719.403200882,-84549.12,-113353.48,-45430.79,-59293.176,-133070.52,-42173.543,-45203.613,-47271.12
1314719.4072008778,-84566.125,-113373.25,-45442.547,-59309.164,-133085.5,-42188.19,-45219.484,-47298.75
1314719.4112008736,-84548.42,-113356.86,-45427.29,-59297.16,-133066.53,-42174.074,-45200.48,-47279.785
1314719.4152008696,-84519.33,-113326.79,-45408.816,-59272.95,-133036.22,-42153.16,-45172.406,-47243.53
1314719.4192008653,-84526.125,-113331.055,-45409.223,-59273.113,-133033.05,-42155.68,-45179.934,-47257.527
1314719.4232008613,-84558.68,-113360.97,-45431.684,-59295.94,-133057.95,-42177.652,-45211.996,-47290.12
1314719.427200857,-84575.65,-113375.66,-45446.25,-59307.824,-133072.34,-42190.43,-45228.273,-47305.055
1314719.431200853,-84555.46,-113357.305,-45426.72,-59294.23,-133058.03,-42179.04,-45211.875,-47288.86
1314719.4352008488,-84532.72,-113335.62,-45405.723,-59273.52,-133032.67,-42156.656,-45184.695,-47256.27
1314719.4392008448,-84534.836,-113337.85,-45405.723,-59274.133,-133045.9,-42156.863,-45188.68,-47258.14
1314719.4432008406,-84552.164,-113355.31,-45440.84,-59293.867,-133058.72,-42177.043,-45210.938,-47283.246
1314719.4472008364,-84570.195,-113375.0,-45446.617,-59306.723,-133072.11,-42190.145,-45224.324,-47295.453
1314719.4512008324,-84554.61,-113360.44,-45428.59,-59292.766,-133057.9,-42176.473,-45207.277,-47277.184
1314719.4552008281,-84533.94,-113341.27,-45408.246,-59271.16,-133046.52,-42154.582,-45185.305,-47245.77
1314719.4592008241,-84536.09,-113343.34,-45410.605,-59269.37,-133054.25,-42155.438,-45192.26,-47264.977
1314719.46320082,-84561.0,-113368.125,-45436.85,-59290.734,-133080.08,-42176.555,-45217.734,-47291.22
1314719.467200816,-84576.74,-113388.35,-45447.676,-59305.3,-133089.89,-42189.332,-45231.69,-47307.617
1314719.4712008117,-84558.76,-113376.51,-45429.12,-59290.246,-133068.97,-42174.97,-45212.65,-47285.035
1314719.4752008077,-84525.44,-113343.75,-45408.977,-59265.91,-133039.72,-42151.938,-45185.875,-47248.414
1314719.4792008034,-84528.85,-113343.266,-45406.7,-59268.35,-133045.3,-42153.117,-45191.69,-47255.13
1314719.4832007992,-84561.77,-113373.13,-45429.77,-59292.727,-133071.05,-42176.395,-45223.918,-47295.047
1314719.4872007952,-84571.695,-113381.8,-45446.25,-59306.723,-133077.28,-42189.94,-45234.58,-47300.824
1314719.491200791,-84547.65,-113359.945,-45429.566,-59291.87,-133059.4,-42175.17,-45213.38,-47271.566
1314719.495200787,-84525.27,-113340.87,-45407.27,-59270.633,-133044.8,-42153.402,-45189.58,-47243.41
1314719.4992007827,-84529.5,-113342.77,-45410.566,-59269.777,-133040.61,-42156.25,-45197.105,-47257.61
1314719.5032007787,-84554.81,-113370.12,-45433.39,-59292.727,-133065.47,-42178.996,-45222.82,-47288.617
1314719.5072007745,-84567.67,-113380.86,-45445.395,-59304.934,-133069.75,-42191.49,-45233.32,-47300.906
1314719.5112007705,-84548.75,-113360.92,-45428.145,-59289.43,-133054.48,-42177.207,-45213.582,-47276.367
1314719.5152007663,-84522.79,-113330.77,-45404.664,-59265.707,-133033.81,-42155.926,-45188.152,-47248.21
1314719.5192007623,-84525.555,-113334.31,-45403.688,-59263.715,-133036.02,-42156.902,-45191.12,-47250.53
1314719.523200758,-84555.625,-113364.914,-45427.246,-59284.996,-133059.7,-42179.65,-45220.055,-47276.164
1314719.5272007538,-84572.516,-113380.78,-45445.11,-59299.48,-133071.33,-42192.953,-45236.125,-47297.61
1314719.5312007498,-84552.086,-113365.4,-45428.305,-59284.75,-133059.12,-42177.043,-45215.09,-47273.195
1314719.5352007456,-84519.78,-113338.055,-45401.652,-59262.13,-133043.47,-42156.7,-45194.133,-47248.617
1314719.5392007416,-84528.73,-113342.57,-45405.4,-59264.367,-133045.12,-42161.418,-45205.65,-47269.734
1314719.5432007373,-84561.41,-113372.84,-45428.633,-59288.008,-133073.25,-42181.684,-45227.05,-47295.453
1314719.5472007333,-84575.16,-113381.06,-45442.344,-59301.15,-133084.48,-42190.348,-45233.035,-47300.906
1314719.551200729,-84555.34,-113358.04,-45431.234,-59284.344,-133055.55,-42175.375,-45212.65,-47282.188
1314719.555200725,-84530.48,-113333.17,-45408.285,-59260.5,-133032.16,-42153.605,-45187.176,-47254.805
1314719.5592007209,-84528.98,-113332.36,-45411.543,-59262.74,-133039.6,-42155.316,-45189.496,-47252.566
1314719.5632007166,-84557.5,-113360.03,-45435.63,-59285.973,-133068.44,-42176.883,-45218.344,-47290.69
1314719.5672007126,-84575.65,-113375.82,-45450.32,-59300.5,-133080.28,-42191.203,-45236.492,-47315.145
1314719.5712007084,-84559.62,-113357.914,-45435.957,-59286.703,-133064.12,-42177.043,-45218.344,-47281.414
1314719.5752007044,-84533.86,-113333.5,-45410.484,-59264.082,-133048.02,-42157.27,-45194.62,-47247.152
1314719.5792007002,-84539.23,-113337.484,-45410.848,-59264.367,-133048.19,-42162.312,-45204.754,-47266.277
1314719.5832006962,-84558.59,-113351.766,-45427.33,-59282.105,-133065.77,-42185.02,-45236.207,-47303.957
1314719.587200692,-84563.84,-113363.125,-45436.16,-59293.05,-133070.16,-42198.527,-45247.64,-47310.26
1314719.591200688,-84541.016,-113345.38,-45419.15,-59278.73,-133058.16,-42181.64,-45224.652,-47284.508
1314719.5952006837,-84507.81,-113315.07,-45394.613,-59255.008,-133042.64,-42160.484,-45197.797,-47254.07
1314719.5992006795,-84518.39,-113323.04,-45393.516,-59255.496,-133041.62,-42163.004,-45205.324,-47266.113
1314719.6032006755,-84547.2,-113343.836,-45426.27,-59278.527,-133058.44,-42182.254,-45224.895,-47286.297
1314719.6072006712,-84555.586,-113352.91,-45439.047,-59290.855,-133070.64,-42191.734,-45232.75,-47292.684
1314719.6112006672,-84539.39,-113341.15,-45418.17,-59276.816,-133055.9,-42173.953,-45210.574,-47264.934
1314719.615200663,-84512.49,-113319.79,-45388.55,-59254.152,-133035.66,-42153.363,-45187.38,-47241.293
1314719.619200659,-84513.39,-113323.695,-45387.86,-59254.6,-133041.3,-42156.453,-45193.156,-47247.805
1314719.6232006548,-84546.19,-113349.164,-45418.5,-59276.043,-133061.66,-42179.73,-45220.215,-47274.863
1314719.6272006507,-84564.29,-113362.76,-45436.363,-59291.383,-133074.22,-42193.36,-45236.25,-47294.637
1314719.6312006465,-84547.57,-113353.805,-45423.055,-59277.996,-133060.95,-42177.816,-45218.953,-47277.875
1314719.6352006423,-84518.27,-113326.17,-45396.406,-59254.438,-133042.94,-42154.703,-45189.496,-47241.254
1314719.6392006383,-84521.04,-113325.766,-45391.645,-59253.418,-133044.89,-42157.633,-45192.75,-47250.33
1314719.643200634,-84547.484,-113349.25,-45411.824,-59273.562,-133064.22,-42181.152,-45224.285,-47282.066
1314719.64720063,-84564.78,-113363.695,-45427.086,-59287.76,-133079.34,-42189.82,-45235.434,-47293.785
1314719.6512006258,-84546.96,-113345.91,-45414.88,-59271.445,-133056.69,-42173.746,-45217.33,-47284.1
1314719.6552006218,-84517.91,-113317.63,-45394.33,-59249.92,-133035.56,-42155.52,-45194.54,-47260.457
1314719.6592006176,-84524.13,-113323.61,-45400.594,-59253.258,-133045.62,-42159.223,-45196.574,-47258.344
1314719.6632006136,-84555.914,-113353.195,-45429.527,-59276.734,-133067.19,-42181.64,-45221.723,-47287.844
1314719.6672006093,-84572.59,-113365.69,-45439.008,-59289.43,-133076.17,-42192.75,-45232.42,-47300.293
1314719.671200605,-84554.89,-113348.68,-45421.918,-59274.824,-133059.53,-42176.72,-45211.875,-47269.29
1314719.675200601,-84532.27,-113325.36,-45399.21,-59251.508,-133034.11,-42156.94,-45185.875,-47236.29
1314719.6792005969,-84530.36,-113325.73,-45393.965,-59251.426,-133041.67,-42160.484,-45192.02,-47250.164
1314719.6832005929,-84556.44,-113353.72,-45413.86,-59274.54,-133063.84,-42181.766,-45216.15,-47282.637
1314719.6872005886,-84571.9,-113370.94,-45435.996,-59288.13,-133069.67,-42193.645,-45227.01,-47284.75
1314719.6912005846,-84551.44,-113354.66,-45417.727,-59275.15,-133062.58,-42176.395,-45201.336,-47248.414
1314719.6952005804,-84523.93,-113326.336,-45392.5,-59253.215,-133043.1,-42153.28,-45172.16,-47212.812
1314719.6992005764,-84526.66,-113327.11,-45396.85,-59253.625,-133044.31,-42158.895,-45178.145,-47224.45
1314719.7032005722,-84550.055,-113349.86,-45415.773,-59272.504,-133061.77,-42181.48,-45203.574,-47264.73
1314719.707200568,-84563.88,-113362.19,-45424.52,-59284.63,-133069.78,-42188.68,-45210.695,-47275.84
1314719.711200564,-84545.734,-113342.62,-45405.76,-59268.19,-133054.12,-42173.707,-45192.14,-47254.11
1314719.7152005597,-84518.39,-113313.6,-45389.203,-59245.484,-133034.95,-42153.484,-45170.453,-47227.094
1314719.7192005557,-84527.51,-113320.805,-45389.73,-59248.984,-133043.02,-42156.535,-45182.78,-47245.81
1314719.7232005515,-84555.42,-113343.8,-45418.867,-59271.77,-133066.38,-42181.03,-45215.414,-47288.777
1314719.7272005475,-84566.61,-113352.95,-45435.793,-59283.53,-133074.55,-42192.426,-45223.676,-47288.168
1314719.7312005432,-84542.97,-113333.375,-45414.797,-59266.93,-133058.11,-42177.086,-45198.406,-47249.797
1314719.7352005392,-84510.74,-113302.62,-45382.04,-59241.496,-133036.38,-42158.285,-45176.473,-47239.18
1314719.739200535,-84521.53,-113310.39,-45384.89,-59244.754,-133040.17,-42162.883,-45181.438,-47252.484
1314719.7432005308,-84553.266,-113337.89,-45409.426,-59266.93,-133063.81,-42185.305,-45205.324,-47272.34
1314719.7472005268,-84565.92,-113351.32,-45422.242,-59277.996,-133069.75,-42197.023,-45215.414,-47278.402
1314719.7512005225,-84544.88,-113331.95,-45410.973,-59264.04,-133053.67,-42181.234,-45194.094,-47265.79
1314719.7552005185,-84518.64,-113305.625,-45387.332,-59244.348,-133036.67,-42159.18,-45169.355,-47241.902
1314719.7592005143,-84522.34,-113308.35,-45390.547,-59245.73,-133036.17,-42161.54,-45172.406,-47245.363
1314719.7632005103,-84544.48,-113329.43,-45413.086,-59265.832,-133045.53,-42183.066,-45193.523,-47266.97
1314719.767200506,-84556.84,-113341.72,-45420.168,-59278.117,-133057.5,-42191.246,-45201.254,-47273.4
1314719.771200502,-84541.875,-113333.54,-45399.902,-59264.61,-133049.08,-42175.05,-45181.355,-47252.28
1314719.7752004978,-84518.11,-113313.12,-45379.273,-59244.55,-133040.33,-42156.168,-45157.35,-47219.2
1314719.7792004936,-84523.27,-113317.51,-45385.824,-59247.113,-133044.08,-42161.297,-45164.473,-47227.664
1314719.7832004896,-84551.96,-113345.38,-45411.418,-59269.816,-133065.64,-42182.21,-45191.773,-47272.3
1314719.7872004854,-84572.76,-113364.016,-45421.836,-59283.41,-133079.06,-42188.6,-45198.406,-47279.625
1314719.7912004814,-84553.06,-113346.03,-45405.844,-59269.695,-133070.36,-42169.273,-45171.1,-47248.82
1314719.7952004771,-84525.84,-113319.54,-45389.16,-59250.246,-133045.3,-42145.996,-45140.83,-47211.754
1314719.7992004731,-84533.33,-113326.79,-45391.727,-59253.418,-133049.08,-42151.043,-45147.625,-47232.016
1314719.803200469,-84563.36,-113354.54,-45411.867,-59274.133,-133081.55,-42174.805,-45171.348,-47268.516
1314719.807200465,-84573.65,-113363.9,-45425.496,-59284.547,-133084.84,-42187.746,-45180.42,-47280.52
1314719.8112004607,-84546.8,-113338.99,-45405.316,-59267.254,-133071.94,-42172.49,-45154.38,-47263.47
1314719.8152004564,-84519.37,-113316.53,-45380.25,-59246.055,-133059.98,-42152.14,-45128.133,-47238.445
1314719.8192004524,-84531.5,-113329.1,-45384.766,-59250.164,-133062.7,-42156.902,-45134.97,-47251.832
1314719.8232004482,-84567.875,-113360.68,-45408.977,-59274.496,-133085.78,-42177.695,-45164.348,-47289.594
1314719.8272004442,-84576.87,-113365.766,-45419.76,-59284.1,-133097.5,-42185.547,-45171.062,-47296.47
1314719.83120044,-84559.2,-113348.59,-45402.957,-59266.44,-133075.81,-42169.637,-45150.84,-47279.746
1314719.835200436,-84530.88,-113325.16,-45381.43,-59242.598,-133060.52,-42149.293,-45125.69,-47251.06
1314719.8392004317,-84536.99,-113330.734,-45385.742,-59245.242,-133061.81,-42152.508,-45127.08,-47249.15
1314719.8432004277,-84562.5,-113355.47,-45405.152,-59268.84,-133084.48,-42174.36,-45151.9,-47282.27
1314719.8472004235,-84571.58,-113365.89,-45421.227,-59281.58,-133094.73,-42182.332,-45157.35,-47284.71
1314719.8512004192,-84555.55,-113348.836,-45400.84,-59267.215,-133082.16,-42163.332,-45132.45,-47253.703
1314719.8552004152,-84527.23,-113322.63,-45376.547,-59244.63,-133057.17,-42142.742,-45106.16,-47227.05
1314719.859200411,-84532.19,-113327.516,-45378.46,-59247.684,-133057.95,-42151.855,-45119.71,-47245.688
1314719.863200407,-84563.27,-113354.05,-45409.508,-59271.69,-133078.17,-42172.203,-45143.312,-47272.707
1314719.8672004028,-84576.984,-113369.51,-45417.48,-59282.39,-133087.28,-42179.527,-45150.96,-47280.438
1314719.8712003988,-84556.6,-113353.93,-45395.754,-59265.91,-133074.67,-42163.7,-45132.49,-47260.906
1314719.8752003945,-84527.67,-113327.88,-45380.086,-59243.777,-133045.17,-42142.945,-45109.418,-47230.184
1314719.8792003905,-84533.94,-113331.586,-45384.97,-59250.285,-133057.7,-42144.125,-45111.86,-47232.707
1314719.8832003863,-84562.3,-113353.88,-45407.84,-59272.543,-133082.64,-42164.47,-45136.64,-47264.69
1314719.887200382,-84579.15,-113367.92,-45416.914,-59283.734,-133091.31,-42174.234,-45148.316,-47284.832
1314719.891200378,-84562.26,-113355.67,-45397.79,-59267.863,-133072.8,-42158.734,-45129.234,-47258.383
1314719.8952003738,-84535.73,-113330.734,-45379.52,-59246.91,-133056.48,-42139.16,-45108.523,-47232.098
1314719.8992003698,-84547.65,-113340.58,-45387.168,-59253.215,-133060.92,-42144.777,-45122.438,-47249.797
1314719.9032003656,-84579.1,-113366.46,-45410.156,-59275.676,-133081.34,-42167.035,-45154.785,-47287.965
1314719.9072003616,-84590.945,-113376.43,-45425.457,-59287.07,-133086.8,-42176.23,-45166.3,-47294.516
1314719.9112003574,-84568.65,-113357.38,-45407.15,-59269.125,-133062.1,-42158.367,-45149.78,-47271.527
1314719.9152003534,-84540.98,-113327.56,-45384.402,-59246.582,-133039.6,-42138.67,-45131.836,-47251.06
1314719.9192003491,-84542.445,-113328.25,-45388.55,-59251.184,-133048.3,-42143.35,-45145.02,-47271.12
1314719.923200345,-84570.195,-113354.945,-45410.89,-59273.48,-133068.0,-42169.07,-45175.336,-47299.848
1314719.927200341,-84580.33,-113368.125,-45415.45,-59283.0,-133082.94,-42179.04,-45184.773,-47308.434
1314719.9312003367,-84558.15,-113352.5,-45394.656,-59266.848,-133073.28,-42159.547,-45160.688,-47280.684
1314719.9352003327,-84534.79,-113328.54,-45379.52,-59246.176,-133051.89,-42138.387,-45134.727,-47243.816
1314719.9392003284,-84544.68,-113335.66,-45388.105,-59249.676,-133053.19,-42143.8,-45142.133,-47247.97
1314719.9432003244,-84573.125,-113358.16,-45407.918,-59271.08,-133072.55,-42166.79,-45171.387,-47278.484
1314719.9472003202,-84584.88,-113368.49,-45415.04,-59280.887,-133079.67,-42175.133,-45182.945,-47301.598
1314719.9512003162,-84559.164,-113348.23,-45394.94,-59263.594,-133054.81,-42155.805,-45158.855,-47275.473
1314719.955200312,-84534.34,-113326.87,-45372.355,-59244.67,-133037.39,-42135.05,-45132.527,-47242.27
1314719.959200308,-84545.45,-113336.06,-45377.566,-59250.855,-133044.6,-42141.805,-45140.953,-47242.35
1314719.9632003037,-84574.016,-113364.75,-45404.34,-59275.516,-133065.19,-42165.73,-45171.67,-47273.684
1314719.9672002995,-84583.17,-113370.08,-45417.117,-59284.793,-133072.77,-42173.746,-45182.58,-47293.5
1314719.9712002955,-84555.87,-113340.945,-45391.523,-59264.324,-133054.86,-42154.664,-45159.06,-47264.49
1314719.9752002913,-84527.75,-113316.53,-45364.83,-59241.66,-133034.22,-42133.22,-45134.2,-47228.844
1314719.9792002873,-84530.195,-113317.51,-45373.414,-59244.996,-133027.22,-42137.695,-45139.65,-47226.402
1314719.983200283,-84557.414,-113343.23,-45395.957,-59267.336,-133046.27,-42160.28,-45170.047,-47261.19
1314719.987200279,-84568.69,-113356.81,-45409.14,-59277.184,-133061.33,-42168.418,-45181.844,-47276.33
1314719.9912002748,-84543.7,-113331.18,-45385.945,-59258.79,-133049.16,-42150.027,-45159.465,-47247.76
1314719.9952002708,-84522.055,-113311.24,-45363.61,-59237.47,-133025.39,-42131.594,-45140.34,-47220.094
1314719.9992002666,-84530.68,-113323.24,-45370.04,-59242.473,-133035.36,-42138.55,-45153.2,-47224.61
1314720.0032002623,-84560.18,-113351.04,-45397.586,-59265.75,-133052.45,-42160.89,-45186.035,-47258.992
1314720.0072002583,-84571.29,-113359.74,-45405.152,-59274.58,-133063.4,-42168.62,-45196.004,-47271.973
1314720.011200254,-84550.664,-113345.55,-45381.96,-59256.555,-133052.33,-42153.363,-45177.29,-47249.715
1314720.01520025,-84524.46,-113325.24,-45361.98,-59236.168,-133033.05,-42136.56,-45162.52,-47234.703
1314720.0192002458,-84533.2,-113330.37,-45375.613,-59243.207,-133038.78,-42144.45,-45176.027,-47249.023
1314720.0232002418,-84561.41,-113354.05,-45398.195,-59265.832,-133062.02,-42164.676,-45199.668,-47277.184
1314720.0272002376,-84569.38,-113354.05,-45404.746,-59273.277,-133065.06,-42171.793,-45205.85,-47282.39
1314720.0312002336,-84542.08,-113326.17,-45379.316,-59252.523,-133049.0,-42152.996,-45181.316,-47253.215
1314720.0352002294,-84518.19,-113310.39,-45358.113,-59233.4,-133034.75,-42132.04,-45158.043,-47217.57
1314720.0392002251,-84531.945,-113324.55,-45369.266,-59240.36,-133034.34,-42138.227,-45168.01,-47222.82
1314720.0432002211,-84563.84,-113353.234,-45399.21,-59263.184,-133053.23,-42161.867,-45199.42,-47264.285
1314720.047200217,-84570.195,-113361.125,-45407.676,-59271.324,-133062.42,-42169.35,-45211.836,-47289.188
1314720.051200213,-84542.12,-113336.875,-45383.992,-59253.215,-133047.2,-42152.26,-45189.78,-47258.383
1314720.0552002087,-84524.09,-113320.6,-45359.785,-59232.992,-133027.67,-42134.89,-45171.59,-47244.305
1314720.0592002047,-84539.23,-113328.74,-45368.816,-59239.953,-133028.28,-42141.766,-45183.96,-47260.38
1314720.0632002004,-84562.87,-113351.04,-45395.184,-59261.312,-133043.38,-42162.8,-45206.18,-47280.316
1314720.0672001964,-84566.29,-113361.21,-45402.387,-59269.53,-133053.47,-42168.254,-45209.11,-47277.67
1314720.0712001922,-84546.96,-113345.38,-45381.715,-59252.28,-133034.34,-42151.98,-45190.227,-47261.434
1314720.075200188,-84530.56,-113323.66,-45364.34,-59233.24,-133024.1,-42133.832,-45168.867,-47237.67
1314720.079200184,-84545.66,-113333.375,-45372.4,-59241.984,-133037.97,-42143.35,-45181.97,-47245.65
1314720.0832001797,-84564.29,-113354.74,-45397.87,-59261.8,-133067.34,-42165.367,-45207.316,-47280.355
1314720.0872001757,-84573.445,-113368.05,-45402.547,-59269.9,-133076.02,-42171.51,-45213.746,-47292.523
1314720.0912001715,-84555.5,-113346.16,-45382.734,-59253.297,-133057.42,-42151.652,-45191.0,-47263.266
1314720.0952001675,-84533.66,-113319.95,-45368.9,-59232.87,-133032.31,-42131.676,-45169.312,-47231.12
1314720.0992001633,-84540.164,-113326.664,-45375.734,-59237.633,-133036.02,-42139.527,-45179.484,-47244.02
1314720.1032001593,-84565.06,-113351.24,-45394.86,-59260.336,-133066.38,-42160.77,-45204.387,-47276.816
1314720.107200155,-84576.91,-113362.875,-45395.875,-59268.883,-133075.84,-42166.707,-45209.516,-47281.863
1314720.1112001508,-84546.76,-113335.66,-45380.82,-59248.293,-133046.84,-42148.766,-45184.652,-47248.7
1314720.1152001468,-84524.375,-113310.51,-45363.445,-59227.785,-133023.77,-42130.656,-45166.06,-47225.953
1314720.1192001426,-84541.67,-113319.91,-45375.53,-59235.395,-133028.73,-42139.203,-45179.812,-47234.133
1314720.1232001386,-84570.27,-113347.05,-45398.113,-59259.523,-133055.06,-42163.13,-45209.066,-47270.793
1314720.1272001343,-84578.49,-113361.58,-45402.71,-59267.785,-133060.55,-42169.23,-45215.984,-47287.8
1314720.1312001303,-84552.25,-113341.39,-45386.516,-59250.816,-133047.12,-42150.92,-45191.69,-47258.79
1314720.135200126,-84532.63,-113324.14,-45361.37,-59229.414,-133031.33,-42133.668,-45174.4,-47239.79
1314720.139200122,-84548.875,-113339.28,-45369.344,-59236.453,-133034.62,-42140.543,-45185.26,-47253.258
1314720.1432001179,-84564.62,-113352.016,-45399.742,-59257.855,-133062.22,-42162.76,-45209.8,-47274.742
1314720.1472001136,-84575.12,-113359.5,-45402.06,-59264.977,-133069.75,-42167.848,-45217.41,-47278.566
1314720.1512001096,-84548.38,-113334.84,-45381.227,-59246.176,-133045.12,-42151.367,-45197.918,-47258.586
1314720.1552001054,-84523.766,-113310.8,-45362.1,-59225.14,-133025.97,-42134.035,-45177.695,-47239.746
1314720.1592001014,-84533.86,-113320.68,-45369.305,-59231.812,-133030.31,-42141.36,-45188.273,-47258.465
1314720.1632000972,-84557.87,-113346.93,-45391.805,-59254.395,-133059.94,-42160.89,-45208.78,-47277.547
1314720.1672000932,-84568.28,-113359.22,-45407.797,-59266.277,-133064.33,-42166.098,-45211.1,-47271.688
1314720.171200089,-84542.6,-113337.484,-45383.016,-59247.277,-133050.78,-42147.625,-45188.477,-47246.258
1314720.175200085,-84520.14,-113315.516,-45359.17,-59225.832,-133031.66,-42131.754,-45175.17,-47235.027
1314720.1792000807,-84534.34,-113329.76,-45365.113,-59233.035,-133033.33,-42141.562,-45188.477,-47246.95
1314720.1832000765,-84559.086,-113356.2,-45388.145,-59254.6,-133051.72,-42160.402,-45210.207,-47268.23
1314720.1872000725,-84567.14,-113364.46,-45394.816,-59261.56,-133056.28,-42164.39,-45209.23,-47263.875
1314720.1912000682,-84546.1,-113343.266,-45374.105,-59244.63,-133047.33,-42143.516,-45183.35,-47234.99
1314720.1952000642,-84527.67,-113326.26,-45351.562,-59227.54,-133034.55,-42127.848,-45170.613,-47232.707
1314720.19920006,-84537.84,-113333.01,-45367.516,-59236.004,-133039.11,-42135.703,-45176.555,-47227.824
1314720.203200056,-84564.984,-113356.9,-45390.098,-59259.973,-133062.22,-42157.43,-45202.8,-47265.016
1314720.2072000518,-84571.82,-113362.59,-45397.42,-59265.547,-133068.36,-42164.023,-45211.266,-47279.83
1314720.2112000478,-84547.57,-113338.586,-45372.438,-59245.08,-133051.19,-42143.598,-45184.043,-47241.293
1314720.2152000435,-84528.24,-113314.82,-45353.152,-59225.14,-133023.11,-42124.594,-45165.164,-47217.695
1314720.2192000393,-84540.24,-113325.56,-45365.887,-59232.465,-133027.52,-42134.89,-45182.332,-47242.11
1314720.2232000353,-84564.58,-113350.266,-45389.04,-59255.008,-133058.27,-42157.633,-45211.305,-47275.434
1314720.227200031,-84566.94,-113357.42,-45394.574,-59263.348,-133068.94,-42163.453,-45217.367,-47280.477
1314720.231200027,-84540.33,-113335.01,-45369.1,-59245.04,-133050.17,-42144.734,-45192.06,-47246.38
1314720.2352000228,-84523.97,-113317.75,-45353.883,-59226.605,-133028.66,-42125.203,-45171.31,-47225.547
1314720.2392000188,-84533.61,-113323.41,-45366.863,-59234.05,-133036.78,-42133.586,-45179.484,-47236.25
1314720.2432000146,-84569.13,-113353.88,-45392.824,-59257.406,-133058.39,-42155.19,-45206.953,-47268.555
1314720.2472000106,-84579.914,-113368.78,-45398.4,-59266.4,-133068.33,-42162.273,-45211.223,-47272.707
1314720.2512000063,-84552.984,-113348.48,-45373.047,-59248.254,-133053.84,-42143.637,-45188.64,-47245.566
1314720.255200002,-84537.64,-113328.01,-45352.254,-59229.29,-133034.72,-42126.63,-45171.023,-47225.098
1314720.259199998,-84541.38,-113328.33,-45367.27,-59234.297,-133036.58,-42136.11,-45178.996,-47229.37
1314720.2631999939,-84563.234,-113349.25,-45386.23,-59254.19,-133056.72,-42157.35,-45201.863,-47258.79
1314720.2671999899,-84565.59,-113353.766,-45390.383,-59259.93,-133063.81,-42161.54,-45203.207,-47268.395
1314720.2711999856,-84538.945,-113328.29,-45370.688,-59242.188,-133047.66,-42142.05,-45176.35,-47234.99
1314720.2751999816,-84521.37,-113308.48,-45351.688,-59222.008,-133022.55,-42124.31,-45158.406,-47222.09
1314720.2791999774,-84540.695,-113323.53,-45362.43,-59231.0,-133028.97,-42133.75,-45173.055,-47245.16
1314720.2831999734,-84567.06,-113349.695,-45386.027,-59252.973,-133055.27,-42157.35,-45198.934,-47269.86
1314720.2871999692,-84574.38,-113358.93,-45388.227,-59260.297,-133067.8,-42163.535,-45202.598,-47267.742
1314720.291199965,-84554.2,-113340.3,-45368.816,-59244.836,-133052.78,-42144.613,-45177.168,-47230.957
1314720.295199961,-84527.95,-113312.79,-45356.69,-59227.176,-133026.05,-42127.32,-45159.465,-47218.793
1314720.2991999567,-84533.49,-113318.98,-45362.184,-59233.848,-133041.47,-42136.312,-45174.113,-47241.66
1314720.3031999527,-84555.625,-113342.57,-45377.156,-59255.008,-133066.86,-42156.863,-45196.37,-47261.883
1314720.3071999485,-84559.734,-113343.95,-45384.605,-59258.87,-133061.25,-42161.215,-45196.414,-47256.105
1314720.3111999445,-84539.516,-113322.47,-45364.543,-59242.598,-133046.52,-42143.35,-45174.727,-47232.098
1314720.3151999402,-84528.98,-113311.65,-45346.56,-59226.93,-133036.55,-42128.176,-45158.125,-47211.71
1314720.3191999362,-84548.42,-113326.055,-45355.023,-59235.92,-133046.95,-42137.86,-45175.457,-47233.81
1314720.323199932,-84579.23,-113353.07,-45384.156,-59258.87,-133067.75,-42159.508,-45202.598,-47260.62
1314720.3271999278,-84586.55,-113356.53,-45401.082,-59266.24,-133066.17,-42164.188,-45205.28,-47266.36
1314720.3311999238,-84560.71,-113334.84,-45370.32,-59246.543,-133046.72,-42144.613,-45181.195,-47236.453
1314720.3351999195,-84535.52,-113308.76,-45350.098,-59226.562,-133024.98,-42126.1,-45161.215,-47218.875
1314720.3391999155,-84545.375,-113317.1,-45359.742,-59233.195,-133039.23,-42135.05,-45170.613,-47234.336
1314720.3431999113,-84569.016,-113341.02,-45383.14,-59256.51,-133059.94,-42156.78,-45192.953,-47255.13
1314720.3471999073,-84568.73,-113343.47,-45386.273,-59262.535,-133065.44,-42161.746,-45195.68,-47267.09
1314720.351199903,-84542.73,-113320.805,-45363.406,-59242.23,-133046.84,-42141.97,-45165.69,-47232.992
1314720.355199899,-84517.17,-113297.57,-45347.58,-59221.273,-133029.42,-42125.164,-45145.348,-47199.91
1314720.3591998948,-84534.266,-113312.664,-45356.934,-59227.906,-133034.72,-42135.094,-45161.01,-47225.14
1314720.3631998906,-84563.27,-113341.44,-45377.973,-59252.363,-133062.1,-42159.223,-45187.625,-47272.098
1314720.3671998866,-84561.85,-113346.6,-45382.938,-59257.938,-133073.98,-42164.594,-45188.07,-47264.12
1314720.3711998824,-84540.61,-113331.95,-45364.18,-59240.887,-133057.14,-42145.348,-45161.215,-47225.996
1314720.3751998784,-84524.21,-113313.27,-45344.688,-59222.375,-133037.11,-42128.258,-45147.176,-47206.016
1314720.3791998741,-84538.086,-113319.83,-45358.32,-59231.04,-133046.55,-42137.41,-45160.89,-47217.855
1314720.3831998701,-84562.26,-113339.89,-45384.766,-59253.582,-133069.62,-42158.57,-45182.254,-47249.96
1314720.387199866,-84568.12,-113345.664,-45386.516,-59258.098,-133066.81,-42161.906,-45183.88,-47254.723
1314720.391199862,-84544.516,-113325.89,-45365.848,-59238.69,-133044.44,-42141.805,-45160.77,-47224.0
1314720.3951998577,-84525.35,-113305.46,-45344.2,-59221.03,-133026.58,-42127.08,-45143.883,-47210.816
1314720.3991998537,-84540.37,-113320.88,-45351.44,-59231.0,-133041.42,-42138.023,-45156.902,-47223.39
1314720.4031998494,-84569.83,-113347.21,-45374.92,-59253.055,-133066.08,-42161.133,-45182.863,-47248.984
1314720.4071998452,-84577.88,-113349.49,-45385.297,-59259.523,-133072.34,-42167.605,-45188.68,-47256.51
1314720.4111998412,-84559.125,-113330.445,-45368.98,-59241.21,-133055.75,-42148.074,-45168.254,-47235.395
1314720.415199837,-84544.03,-113315.15,-45346.52,-59222.863,-133044.64,-42131.88,-45154.42,-47221.64
1314720.419199833,-84559.9,-113332.69,-45358.887,-59233.32,-133052.25,-42143.84,-45172.203,-47248.008
1314720.4231998287,-84578.66,-113355.43,-45384.36,-59255.168,-133068.12,-42162.723,-45193.24,-47271.16
1314720.4271998247,-84582.195,-113360.48,-45380.82,-59259.484,-133075.94,-42164.47,-45194.05,-47272.992
1314720.4311998205,-84561.65,-113337.734,-45363.69,-59241.496,-133059.66,-42144.734,-45166.668,-47237.996
1314720.4351998165,-84541.47,-113317.34,-45344.605,-59224.57,-133047.94,-42128.38,-45146.484,-47210.37
1314720.4391998122,-84552.86,-113326.945,-45353.883,-59231.406,-133052.2,-42139.16,-45158.652,-47227.176
1314720.443199808,-84583.87,-113353.56,-45379.965,-59254.68,-133064.95,-42161.5,-45184.855,-47260.582
1314720.447199804,-84591.02,-113360.68,-45381.227,-59260.95,-133065.84,-42166.586,-45190.188,-47268.84
1314720.4511997998,-84555.34,-113328.086,-45367.92,-59241.66,-133044.92,-42147.3,-45162.52,-47240.316
1314720.4551997958,-84536.586,-113312.055,-45351.766,-59224.33,-133029.55,-42129.355,-45141.074,-47217.57
1314720.4591997915,-84556.64,-113331.1,-45359.99,-59233.97,-133040.0,-42139.65,-45154.582,-47226.484
1314720.4631997875,-84582.56,-113355.72,-45383.71,-59257.043,-133064.9,-42163.617,-45181.887,-47250.938
1314720.4671997833,-84578.734,-113353.766,-45385.05,-59259.523,-133064.62,-42167.887,-45184.695,-47262.617
1314720.4711997793,-84553.914,-113331.75,-45355.47,-59239.746,-133043.3,-42146.688,-45153.688,-47220.094
1314720.475199775,-84531.74,-113308.555,-45340.008,-59221.234,-133023.52,-42128.906,-45128.215,-47187.543
1314720.4791997708,-84541.625,-113316.45,-45351.24,-59229.086,-133034.34,-42140.79,-45144.086,-47219.363
1314720.4831997668,-84572.59,-113344.08,-45374.27,-59252.08,-133058.23,-42161.703,-45170.74,-47262.41
1314720.4871997626,-84578.21,-113352.79,-45375.49,-59260.54,-133068.89,-42164.47,-45168.297,-47259.562
1314720.4911997586,-84551.64,-113330.08,-45356.285,-59241.66,-133046.88,-42145.754,-45142.54,-47232.344
1314720.4951997544,-84533.98,-113313.56,-45340.414,-59225.02,-133034.62,-42127.566,-45122.113,-47210.695
1314720.4991997504,-84552.57,-113328.78,-45356.65,-59236.656,-133047.38,-42137.613,-45131.594,-47218.508
1314720.5031997461,-84586.96,-113359.22,-45380.74,-59258.465,-133065.84,-42158.977,-45156.496,-47259.562
1314720.5071997421,-84586.06,-113360.68,-45382.61,-59264.0,-133083.9,-42161.094,-45151.41,-47256.145
1314720.511199738,-84558.07,-113340.414,-45362.062,-59244.348,-133074.72,-42140.137,-45120.527,-47222.414
1314720.5151997337,-84537.48,-113319.75,-45345.664,-59226.727,-133053.64,-42123.863,-45099.203,-47207.36
1314720.5191997297,-84548.95,-113330.04,-45357.26,-59236.695,-133060.34,-42135.582,-45110.68,-47227.176
1314720.5231997254,-84578.734,-113352.74,-45381.88,-59259.277,-133078.17,-42159.098,-45134.44,-47258.344
1314720.5271997214,-84585.29,-113359.26,-45385.336,-59264.855,-133080.45,-42163.21,-45131.27,-47258.383
1314720.5311997172,-84559.164,-113338.34,-45359.17,-59244.793,-133059.17,-42140.18,-45100.547,-47222.168
1314720.5351997132,-84537.72,-113321.78,-45338.176,-59227.582,-133045.62,-42123.21,-45083.824,-47206.543
1314720.539199709,-84550.26,-113332.28,-45353.027,-59239.34,-133052.9,-42135.215,-45100.586,-47225.508
1314720.543199705,-84571.05,-113350.43,-45383.223,-59259.727,-133074.39,-42154.703,-45120.2,-47249.51
1314720.5471997007,-84573.33,-113352.83,-45383.26,-59263.348,-133086.52,-42155.56,-45116.254,-47251.14
1314720.5511996965,-84548.18,-113331.22,-45357.26,-59243.53,-133071.45,-42136.07,-45092.0,-47225.914
1314720.5551996925,-84536.74,-113320.97,-45344.08,-59230.145,-133049.84,-42119.59,-45074.344,-47205.977
1314720.5591996883,-84556.44,-113335.734,-45355.51,-59240.195,-133060.55,-42129.56,-45089.438,-47226.688
1314720.5631996843,-84580.81,-113357.22,-45381.836,-59262.168,-133084.23,-42152.26,-45116.54,-47259.97
1314720.56719968,-84583.13,-113362.92,-45381.023,-59266.277,-133086.39,-42154.582,-45116.742,-47254.883
1314720.571199676,-84556.805,-113340.414,-45354.168,-59246.46,-133067.6,-42134.035,-45090.617,-47221.316
1314720.5751996718,-84537.72,-113321.984,-45336.59,-59228.926,-133053.64,-42116.863,-45071.98,-47200.562
1314720.5791996678,-84556.805,-113337.81,-45348.676,-59239.098,-133060.55,-42127.645,-45088.094,-47224.773
1314720.5831996636,-84587.65,-113363.484,-45373.21,-59262.25,-133076.58,-42149.414,-45117.8,-47263.387
1314720.5871996593,-84587.98,-113364.51,-45377.688,-59267.336,-133080.89,-42149.945,-45115.684,-47257.12
1314720.5911996553,-84567.305,-113344.81,-45356.12,-59247.52,-133058.64,-42126.832,-45093.223,-47240.684
1314720.595199651,-84547.57,-113325.93,-45340.332,-59231.812,-133049.97,-42110.312,-45075.562,-47216.555
1314720.599199647,-84555.83,-113334.48,-45353.516,-59242.11,-133063.77,-42123.293,-45090.496,-47226.848
1314720.6031996429,-84585.57,-113364.46,-45373.984,-59265.832,-133083.58,-42145.145,-45116.742,-47253.703
1314720.6071996388,-84584.03,-113363.125,-45376.914,-59267.54,-133085.66,-42147.38,-45115.805,-47253.297
1314720.6111996346,-84555.71,-113341.516,-45351.605,-59246.258,-133066.69,-42126.71,-45092.285,-47228.19
1314720.6151996306,-84542.6,-113325.69,-45337.324,-59231.082,-133047.94,-42112.348,-45079.227,-47214.438
1314720.6191996264,-84566.49,-113344.73,-45352.133,-59243.41,-133054.2,-42125.285,-45100.75,-47239.18
1314720.6231996221,-84587.24,-113368.05,-45375.53,-59266.32,-133074.67,-42145.996,-45123.984,-47265.22
1314720.6271996181,-84585.82,-113368.01,-45378.746,-59269.453,-133070.84,-42146.402,-45124.797,-47263.67
1314720.631199614,-84561.93,-113345.22,-45354.777,-59249.27,-133058.16,-42126.426,-45101.973,-47233.195
1314720.63519961,-84547.41,-113329.43,-45336.875,-59232.63,-133045.0,-42112.793,-45089.805,-47216.23
1314720.6391996057,-84568.65,-113342.414,-45352.418,-59245.89,-133049.81,-42125.406,-45105.88,-47231.16
1314720.6431996017,-84594.32,-113362.47,-45371.42,-59266.113,-133073.0,-42146.363,-45128.703,-47253.055
1314720.6471995974,-84593.47,-113365.805,-45372.723,-59268.434,-133073.98,-42150.027,-45133.016,-47255.086
1314720.6511995934,-84572.266,-113348.02,-45350.02,-59250.45,-133058.72,-42127.973,-45110.35,-47233.523
1314720.6551995892,-84557.78,-113335.695,-45335.777,-59236.33,-133049.53,-42113.363,-45096.56,-47215.496
1314720.659199585,-84564.086,-113338.87,-45355.51,-59245.04,-133055.62,-42127.08,-45113.61,-47229.94
1314720.663199581,-84586.43,-113360.35,-45373.984,-59264.49,-133064.05,-42150.105,-45145.145,-47266.727
1314720.6671995767,-84588.664,-113365.93,-45375.613,-59267.62,-133069.1,-42151.164,-45147.543,-47270.266
1314720.6711995727,-84567.47,-113351.41,-45353.152,-59249.39,-133049.73,-42130.7,-45123.17,-47233.4
1314720.6751995685,-84551.07,-113337.53,-45334.434,-59234.66,-133040.05,-42117.15,-45109.62,-47220.867
1314720.6791995645,-84567.55,-113351.81,-45351.727,-59244.63,-133052.53,-42126.508,-45123.984,-47234.99
1314720.6831995603,-84599.734,-113378.87,-45375.203,-59264.57,-133068.73,-42147.258,-45148.97,-47260.703
1314720.6871995563,-84598.63,-113378.79,-45375.41,-59267.66,-133065.92,-42150.473,-45151.246,-47264.69
1314720.691199552,-84572.43,-113351.28,-45352.05,-59247.152,-133038.73,-42132.164,-45129.883,-47238.934
1314720.6951995478,-84556.44,-113337.24,-45339.113,-59232.016,-133023.16,-42116.375,-45112.957,-47217.57
1314720.6991995438,-84572.63,-113350.79,-45348.27,-59243.29,-133041.42,-42124.88,-45129.844,-47240.438
1314720.7031995396,-84598.11,-113374.31,-45375.652,-59265.832,-133059.33,-42146.28,-45156.7,-47270.184
1314720.7071995356,-84600.06,-113379.07,-45373.617,-59268.11,-133065.36,-42147.664,-45156.74,-47259.688
1314720.7111995313,-84568.89,-113354.54,-45348.348,-59247.723,-133047.33,-42130.617,-45137.168,-47232.465
1314720.7151995273,-84547.94,-113336.76,-45331.668,-59231.73,-133030.97,-42121.055,-45128.62,-47221.52
1314720.719199523,-84564.25,-113351.52,-45343.465,-59243.98,-133047.89,-42131.43,-45142.17,-47220.99
1314720.723199519,-84587.57,-113372.234,-45374.758,-59266.32,-133062.3,-42149.332,-45160.36,-47238.324
1314720.7271995149,-84583.26,-113370.484,-45370.73,-59268.066,-133062.62,-42149.09,-45161.5,-47259.035
1314720.7311995106,-84564.7,-113352.625,-45344.402,-59250.53,-133049.44,-42127.973,-45136.23,-47226.44
1314720.7351995066,-84548.18,-113332.445,-45332.195,-59234.863,-133036.58,-42117.188,-45125.45,-47205.324
1314720.7391995024,-84565.59,-113347.78,-45347.13,-59245.89,-133043.47,-42133.63,-45147.055,-47228.477
1314720.7431994984,-84594.24,-113373.87,-45373.414,-59266.113,-133055.06,-42154.91,-45174.24,-47256.145
1314720.7471994942,-84594.08,-113377.69,-45373.17,-59268.883,-133058.97,-42154.38,-45173.137,-47247.97
1314720.7511994902,-84563.44,-113352.09,-45347.656,-59248.617,-133048.42,-42131.51,-45144.94,-47218.344
1314720.755199486,-84549.12,-113337.65,-45333.742,-59237.1,-133042.73,-42118.043,-45130.78,-47215.047
1314720.759199482,-84569.83,-113351.484,-45349.69,-59247.6,-133052.86,-42131.797,-45148.97,-47229.777
1314720.7631994777,-84595.38,-113373.46,-45371.785,-59267.906,-133066.17,-42152.996,-45175.336,-47256.31
1314720.7671994735,-84595.5,-113373.21,-45372.113,-59270.715,-133068.53,-42153.445,-45174.52,-47250.043
1314720.7711994695,-84568.36,-113348.15,-45353.11,-59249.15,-133043.34,-42132.61,-45146.484,-47210.574
1314720.7751994652,-84549.64,-113328.49,-45332.074,-59233.684,-133031.83,-42120.566,-45132.203,-47196.617
1314720.7791994612,-84567.836,-113340.7,-45350.06,-59245.812,-133039.77,-42133.06,-45148.234,-47225.914
1314720.783199457,-84593.14,-113367.19,-45372.56,-59267.336,-133052.4,-42154.01,-45168.5,-47244.832
1314720.787199453,-84595.586,-113370.37,-45368.29,-59274.09,-133065.11,-42153.81,-45162.11,-47232.06
1314720.7911994488,-84572.47,-113344.52,-45344.65,-59252.65,-133045.45,-42131.55,-45133.098,-47196.777
1314720.7951994448,-84547.57,-113318.98,-45329.836,-59235.11,-133028.61,-42116.13,-45114.586,-47177.043
1314720.7991994405,-84564.17,-113333.74,-45341.39,-59245.65,-133034.72,-42130.29,-45133.18,-47196.86
1314720.8031994363,-84592.33,-113360.15,-45363.16,-59267.01,-133047.89,-42153.81,-45163.74,-47240.645
1314720.8071994323,-84588.55,-113359.336,-45366.78,-59269.168,-133047.86,-42152.996,-45161.01,-47236.777
1314720.811199428,-84560.914,-113334.15,-45345.137,-59247.926,-133028.08,-42130.777,-45131.51,-47197.55
1314720.815199424,-84546.555,-113320.56,-45324.992,-59230.88,-133023.36,-42118.816,-45122.355,-47197.51
1314720.8191994198,-84563.56,-113335.33,-45339.195,-59240.6,-133035.12,-42134.195,-45143.92,-47224.45
1314720.8231994158,-84592.164,-113361.25,-45363.445,-59264.082,-133041.75,-42156.82,-45170.047,-47247.195
1314720.8271994116,-84588.83,-113359.74,-45363.85,-59267.133,-133045.94,-42154.785,-45165.406,-47232.75
1314720.8311994076,-84558.07,-113334.84,-45337.04,-59246.91,-133035.33,-42132.0,-45140.465,-47214.926
1314720.8351994033,-84547.28,-113323.66,-45322.918,-59233.035,-133022.62,-42119.547,-45129.477,-47207.195
1314720.8391993993,-84565.92,-113339.6,-45343.305,-59245.973,-133039.03,-42134.035,-45146.242,-47211.793
1314720.843199395,-84592.41,-113364.75,-45363.527,-59267.297,-133057.78,-42157.023,-45173.953,-47246.42
1314720.8471993909,-84591.02,-113362.02,-45363.406,-59268.35,-133055.7,-42155.52,-45174.4,-47258.14
1314720.8511993869,-84567.016,-113337.69,-45342.9,-59247.887,-133038.86,-42133.383,-45145.266,-47225.18
1314720.8551993826,-84550.83,-113321.78,-45332.48,-59235.027,-133033.81,-42121.34,-45129.965,-47205.445
1314720.8591993786,-84574.42,-113343.63,-45347.74,-59249.51,-133046.95,-42134.195,-45148.64,-47231.527
1314720.8631993744,-84592.9,-113362.875,-45370.65,-59271.203,-133070.31,-42152.06,-45169.312,-47251.14
1314720.8671993704,-84589.52,-113361.086,-45371.543,-59269.37,-133064.73,-42148.805,-45162.723,-47237.348
1314720.8711993662,-84569.74,-113338.71,-45344.363,-59249.23,-133046.03,-42127.28,-45134.074,-47202.395
1314720.8751993622,-84559.82,-113325.93,-45333.21,-59238.12,-133029.75,-42117.473,-45124.066,-47190.31
1314720.879199358,-84572.43,-113337.57,-45348.88,-59251.223,-133045.45,-42133.87,-45143.11,-47224.652
1314720.8831993537,-84603.766,-113364.34,-45373.82,-59275.15,-133065.8,-42153.65,-45163.777,-47241.62
1314720.8871993497,-84598.68,-113361.82,-45369.508,-59276.207,-133062.5,-42152.184,-45157.188,-47230.715
1314720.8911993455,-84564.25,-113331.38,-45348.758,-59254.395,-133042.44,-42130.168,-45131.633,-47207.195
1314720.8951993415,-84551.555,-113319.664,-45336.266,-59239.465,-133022.9,-42116.496,-45118.938,-47191.33
1314720.8991993372,-84573.164,-113341.59,-45353.844,-59255.82,-133026.61,-42131.348,-45140.383,-47221.844
1314720.9031993332,-84610.84,-113383.34,-45379.56,-59280.234,-133056.72,-42152.59,-45167.81,-47250.043
1314720.907199329,-84607.26,-113384.28,-45378.46,-59282.758,-133069.5,-42150.797,-45166.26,-47249.434
1314720.911199325,-84579.914,-113358.08,-45352.906,-59261.07,-133052.17,-42131.39,-45147.34,-47230.957
1314720.9151993208,-84568.81,-113345.38,-45336.875,-59244.67,-133037.84,-42121.664,-45138.55,-47219.85
1314720.9191993165,-84580.53,-113361.125,-45356.49,-59256.51,-133045.86,-42135.5,-45156.453,-47239.137
1314720.9231993125,-84604.414,-113389.734,-45375.652,-59278.402,-133071.86,-42156.375,-45180.258,-47266.645
1314720.9271993083,-84601.28,-113381.31,-45369.223,-59276.938,-133067.72,-42153.89,-45174.805,-47259.44
1314720.9311993043,-84576.984,-113354.29,-45340.945,-59255.25,-133046.92,-42132.652,-45153.688,-47244.71
1314720.9351993,-84560.06,-113338.71,-45332.6,-59240.848,-133030.64,-42120.117,-45141.848,-47223.555
1314720.939199296,-84581.22,-113356.81,-45352.336,-59254.844,-133052.58,-42136.23,-45161.62,-47241.254
1314720.9431992918,-84603.64,-113379.32,-45376.344,-59275.27,-133067.42,-42160.77,-45191.0,-47273.4
1314720.9471992878,-84594.24,-113375.734,-45366.66,-59273.848,-133069.06,-42160.36,-45184.98,-47263.797
1314720.9511992836,-84561.69,-113344.77,-45339.195,-59249.797,-133040.2,-42138.145,-45155.4,-47234.58
1314720.9551992794,-84539.06,-113319.625,-45323.49,-59236.047,-133033.2,-42124.88,-45135.62,-47213.83
1314720.9591992754,-84557.664,-113339.484,-45335.492,-59251.06,-133049.81,-42138.754,-45154.867,-47231.49
1314720.9631992711,-84583.09,-113360.31,-45361.453,-59272.258,-133060.62,-42158.69,-45176.72,-47246.34
1314720.9671992671,-84582.97,-113359.74,-45357.91,-59270.754,-133054.77,-42156.984,-45169.15,-47232.547
1314720.971199263,-84555.22,-113328.82,-45331.055,-59248.82,-133030.89,-42137.004,-45141.44,-47205.04
1314720.975199259,-84536.3,-113305.664,-45313.477,-59236.33,-133023.61,-42124.88,-45123.332,-47186.973
1314720.9791992547,-84557.25,-113323.125,-45333.09,-59250.734,-133027.39,-42138.918,-45140.586,-47204.754
1314720.9831992507,-84586.59,-113351.0,-45368.41,-59274.17,-133040.69,-42157.594,-45163.496,-47231.934
1314720.9871992464,-84581.42,-113346.805,-45362.754,-59272.625,-133049.28,-42157.797,-45161.5,-47229.94
1314720.9911992422,-84558.8,-113327.84,-45335.86,-59252.363,-133035.33,-42138.023,-45132.285,-47196.332
1314720.9951992382,-84546.59,-113319.13,-45318.562,-59241.58,-133025.8,-42127.24,-45118.938,-47180.867
1314720.999199234,-84569.74,-113337.98,-45339.844,-59255.656,-133034.11,-42141.848,-45140.06,-47211.184
1314721.00319923,-84603.516,-113371.09,-45364.016,-59278.402,-133055.27,-42161.38,-45161.418,-47231.773
1314721.0071992257,-84601.28,-113368.25,-45367.88,-59278.566,-133058.52,-42157.473,-45151.855,-47212.605
1314721.0111992217,-84583.21,-113350.1,-45346.316,-59260.703,-133034.92,-42133.668,-45126.14,-47197.062
1314721.0151992175,-84575.484,-113337.89,-45339.4,-59250.207,-133017.86,-42118.29,-45110.027,-47173.18
1314721.0191992135,-84594.08,-113355.59,-45353.07,-59264.895,-133047.4,-42132.527,-45131.062,-47201.703
1314721.0231992092,-84620.61,-113382.77,-45375.45,-59285.566,-133070.39,-42153.24,-45162.438,-47240.234
1314721.027199205,-84622.16,-113383.34,-45376.06,-59284.953,-133066.53,-42153.2,-45162.844,-47250.49
1314721.031199201,-84597.91,-113367.19,-45351.973,-59264.812,-133048.95,-42133.22,-45140.098,-47226.2
1314721.0351991968,-84594.28,-113364.14,-45337.973,-59253.137,-133036.02,-42122.477,-45128.133,-47208.742
1314721.0391991928,-84612.23,-113374.516,-45359.58,-59266.44,-133051.06,-42136.516,-45148.234,-47234.58
1314721.0431991885,-84629.805,-113392.336,-45385.742,-59286.176,-133074.72,-42155.887,-45166.914,-47258.87
1314721.0471991845,-84633.625,-113399.375,-45383.18,-59287.477,-133062.83,-42156.21,-45165.652,-47252.363
1314721.0511991803,-84606.0,-113376.75,-45356.69,-59267.66,-133053.84,-42137.004,-45139.69,-47225.223
1314721.0551991763,-84589.12,-113359.5,-45339.355,-59253.703,-133039.64,-42126.508,-45126.793,-47211.754
1314721.059199172,-84609.01,-113374.72,-45351.848,-59267.336,-133051.48,-42142.78,-45144.086,-47224.367
1314721.0631991678,-84629.44,-113390.79,-45381.023,-59288.21,-133074.62,-42163.94,-45168.05,-47249.105
1314721.0671991638,-84631.72,-113393.03,-45375.9,-59287.355,-133073.28,-42162.395,-45169.434,-47261.92
1314721.0711991596,-84605.875,-113368.86,-45350.02,-59264.57,-133057.5,-42140.91,-45143.11,-47226.402
1314721.0751991556,-84596.73,-113358.32,-45337.484,-59251.59,-133049.77,-42130.984,-45132.164,-47213.707
1314721.0791991514,-84609.26,-113370.89,-45352.336,-59263.797,-133062.47,-42146.363,-45149.984,-47235.72
1314721.0831991474,-84627.52,-113389.04,-45370.566,-59283.9,-133076.67,-42166.586,-45170.656,-47257.285
1314721.0871991431,-84626.875,-113390.14,-45367.676,-59284.02,-133071.94,-42162.152,-45161.5,-47247.56
1314721.0911991391,-84599.04,-113363.2,-45343.67,-59262.535,-133046.67,-42141.03,-45134.156,-47216.473
1314721.095199135,-84582.97,-113346.48,-45332.684,-59250.164,-133035.53,-42129.68,-45119.875,-47196.7
1314721.0991991307,-84601.81,-113363.61,-45348.066,-59264.367,-133053.27,-42143.11,-45136.965,-47210.492
1314721.1031991267,-84622.56,-113383.34,-45367.84,-59284.18,-133062.5,-42161.133,-45157.31,-47237.996
1314721.1071991224,-84621.42,-113385.42,-45360.84,-59285.77,-133071.17,-42156.82,-45144.125,-47215.863
1314721.1111991184,-84596.27,-113358.6,-45338.707,-59266.074,-133058.11,-42136.844,-45121.707,-47206.586
1314721.1151991142,-84575.32,-113337.98,-45333.133,-59255.414,-133046.03,-42126.426,-45106.57,-47186.117
1314721.1191991102,-84598.63,-113356.2,-45352.05,-59272.543,-133062.17,-42140.098,-45122.438,-47193.77
1314721.123199106,-84620.61,-113373.58,-45372.887,-59291.18,-133078.38,-42157.633,-45142.58,-47218.06
1314721.127199102,-84612.43,-113365.805,-45362.715,-59286.46,-133065.72,-42154.95,-45142.703,-47230.31
1314721.1311990977,-84578.125,-113337.24,-45337.402,-59265.016,-133048.55,-42135.66,-45122.355,-47210.004
1314721.1351990935,-84569.74,-113330.164,-45330.49,-59256.918,-133041.8,-42124.797,-45110.637,-47186.16
1314721.1391990895,-84599.445,-113351.36,-45349.734,-59274.21,-133054.28,-42140.055,-45131.676,-47210.98
1314721.1431990853,-84622.48,-113370.734,-45371.016,-59294.07,-133080.61,-42159.18,-45152.426,-47237.387
1314721.1471990813,-84619.95,-113369.39,-45363.973,-59292.688,-133073.61,-42153.523,-45143.8,-47229.168
1314721.151199077,-84601.73,-113347.09,-45338.91,-59272.91,-133044.97,-42130.574,-45118.574,-47199.586
1314721.155199073,-84585.57,-113337.57,-45326.742,-59262.453,-133038.58,-42118.777,-45105.88,-47181.4
1314721.1591990688,-84600.18,-113350.586,-45345.418,-59277.957,-133057.95,-42136.92,-45129.844,-47208.21
1314721.1631990648,-84628.54,-113374.19,-45361.41,-59297.527,-133081.42,-42156.58,-45153.445,-47240.03
1314721.1671990606,-84621.75,-113372.73,-45366.863,-59297.203,-133081.02,-42151.53,-45140.668,-47216.066
1314721.1711990563,-84589.73,-113343.47,-45340.008,-59273.113,-133059.25,-42129.56,-45112.918,-47187.99
1314721.1751990523,-84576.17,-113327.6,-45323.367,-59259.277,-133051.23,-42116.617,-45096.965,-47175.863
1314721.179199048,-84595.38,-113346.56,-45337.812,-59273.562,-133064.12,-42132.0,-45112.957,-47199.383
1314721.183199044,-84622.766,-113372.234,-45357.3,-59292.36,-133075.73,-42151.41,-45134.766,-47238.12
1314721.1871990399,-84623.17,-113371.99,-45353.965,-59291.71,-133080.08,-42146.484,-45122.723,-47225.02
1314721.1911990358,-84601.484,-113349.05,-45332.316,-59273.234,-133062.22,-42126.26,-45090.82,-47182.54
1314721.1951990316,-84588.664,-113339.4,-45317.02,-59262.332,-133051.84,-42117.066,-45077.56,-47176.066
1314721.1991990276,-84608.32,-113357.22,-45329.51,-59276.98,-133066.4,-42131.594,-45091.92,-47210.45
1314721.2031990234,-84625.77,-113372.56,-45353.477,-59295.535,-133080.89,-42147.098,-45103.23,-47222.008
1314721.2071990191,-84621.55,-113368.125,-45352.62,-59292.848,-133075.69,-42141.562,-45090.984,-47210.938
1314721.2111990151,-84595.75,-113346.84,-45325.117,-59272.098,-133060.83,-42121.34,-45062.094,-47181.152
1314721.215199011,-84580.125,-113332.69,-45316.61,-59258.383,-133044.89,-42113.65,-45049.645,-47175.742
1314721.219199007,-84599.81,-113348.63,-45330.69,-59272.91,-133060.8,-42129.19,-45064.78,-47197.105
1314721.2231990027,-84626.95,-113374.76,-45349.246,-59295.13,-133090.38,-42149.54,-45084.23,-47226.848
1314721.2271989987,-84626.63,-113375.98,-45342.082,-59293.5,-133091.11,-42147.746,-45079.918,-47218.59
1314721.2311989944,-84598.76,-113347.86,-45321.21,-59271.28,-133064.12,-42124.555,-45049.24,-47188.355
1314721.2351989904,-84585.25,-113332.805,-45308.96,-59259.484,-133051.77,-42112.793,-45036.055,-47179.04
1314721.2391989862,-84607.14,-113346.93,-45327.637,-59276.246,-133074.27,-42125.734,-45054.402,-47202.72
1314721.243198982,-84637.62,-113375.33,-45351.848,-59297.61,-133088.83,-42142.58,-45076.824,-47230.754
1314721.247198978,-84628.7,-113371.99,-45346.68,-59293.62,-133083.9,-42136.8,-45070.965,-47224.895
1314721.2511989737,-84601.61,-113348.72,-45320.477,-59272.22,-133064.73,-42116.293,-45044.68,-47196.332
1314721.2551989697,-84594.77,-113341.72,-45312.46,-59261.56,-133052.12,-42107.383,-45036.38,-47184.043
1314721.2591989655,-84612.305,-113357.55,-45333.418,-59276.9,-133070.03,-42125.855,-45059.98,-47220.297
1314721.2631989615,-84635.79,-113382.0,-45350.996,-59295.37,-133087.08,-42144.816,-45082.156,-47244.305
1314721.2671989573,-84632.86,-113378.26,-45346.438,-59289.836,-133077.44,-42139.85,-45073.082,-47233.645
1314721.2711989533,-84603.31,-113349.86,-45323.49,-59269.33,-133054.56,-42119.06,-45044.844,-47194.867
1314721.275198949,-84594.24,-113336.836,-45311.16,-59259.89,-133043.5,-42109.418,-45033.855,-47184.938
1314721.279198945,-84609.54,-113349.164,-45331.258,-59277.1,-133063.4,-42124.105,-45050.336,-47199.75
1314721.2831989408,-84635.46,-113374.8,-45356.49,-59298.26,-133070.56,-42143.23,-45073.49,-47226.562
1314721.2871989366,-84636.31,-113373.91,-45348.918,-59294.72,-133064.22,-42141.52,-45073.527,-47234.58
1314721.2911989326,-84608.4,-113349.86,-45320.965,-59273.52,-133047.58,-42121.867,-45049.195,-47206.465
1314721.2951989283,-84604.25,-113344.2,-45314.82,-59265.098,-133042.64,-42111.492,-45038.617,-47188.56
1314721.2991989243,-84624.31,-113359.945,-45335.938,-59280.723,-133061.97,-42126.914,-45058.88,-47209.516
1314721.30319892,-84642.54,-113379.48,-45353.477,-59298.79,-133079.67,-42145.348,-45083.05,-47247.805
1314721.307198916,-84632.53,-113376.305,-45343.71,-59292.44,-133077.84,-42140.992,-45074.098,-47232.832
1314721.3111989119,-84607.625,-113356.98,-45314.008,-59271.61,-133054.25,-42120.81,-45052.613,-47204.43
1314721.3151989079,-84595.5,-113343.06,-45315.797,-59264.203,-133040.94,-42111.816,-45042.97,-47197.227
1314721.3191989036,-84618.21,-113367.6,-45336.996,-59281.984,-133058.19,-42130.37,-45067.223,-47217.367
1314721.3231988994,-84642.54,-113392.54,-45354.453,-59302.37,-133086.95,-42148.6,-45088.867,-47233.562
1314721.3271988954,-84641.12,-113389.04,-45347.535,-59298.586,-133075.97,-42142.703,-45082.316,-47231.73
1314721.3311988912,-84616.21,-113361.945,-45322.676,-59276.98,-133054.25,-42120.2,-45057.617,-47210.938
1314721.3351988872,-84611.29,-113352.22,-45315.39,-59267.66,-133043.25,-42109.5,-45048.87,-47196.74
1314721.339198883,-84631.39,-113369.836,-45333.54,-59283.367,-133059.45,-42126.1,-45070.19,-47214.113
1314721.343198879,-84649.3,-113386.195,-45351.81,-59301.312,-133081.95,-42143.637,-45092.695,-47243.125
1314721.3471988747,-84642.54,-113381.516,-45348.188,-59298.383,-133080.4,-42138.51,-45086.914,-47239.22
1314721.3511988707,-84619.19,-113358.766,-45325.81,-59278.445,-133057.1,-42119.63,-45064.13,-47204.957
1314721.3551988665,-84613.69,-113352.016,-45315.188,-59267.742,-133047.53,-42113.527,-45059.492,-47202.477
1314721.3591988622,-84630.49,-113366.664,-45336.14,-59280.926,-133056.0,-42129.68,-45080.445,-47224.773
1314721.3631988582,-84653.98,-113394.05,-45351.402,-59300.293,-133071.1,-42146.61,-45101.36,-47237.348
1314721.367198854,-84640.99,-113384.28,-45336.387,-59296.31,-133076.45,-42140.42,-45092.773,-47216.15
1314721.37119885,-84614.016,-113359.375,-45316.977,-59274.66,-133051.48,-42118.41,-45069.418,-47196.21
1314721.3751988458,-84606.33,-113350.51,-45307.457,-59264.934,-133040.33,-42108.195,-45061.89,-47184.492
1314721.3791988418,-84626.586,-113367.6,-45324.75,-59280.316,-133055.19,-42125.367,-45083.7,-47210.004
1314721.3831988375,-84645.555,-113386.805,-45349.367,-59297.65,-133071.38,-42141.24,-45099.324,-47218.02
1314721.3871988335,-84641.89,-113386.11,-45337.85,-59295.41,-133075.94,-42135.05,-45090.293,-47203.535
1314721.3911988293,-84611.695,-113356.164,-45314.617,-59273.03,-133053.67,-42113.895,-45069.867,-47187.664
1314721.395198825,-84607.99,-113350.836,-45307.945,-59265.18,-133041.55,-42106.69,-45067.14,-47189.74
1314721.399198821,-84634.81,-113375.45,-45328.74,-59283.41,-133058.11,-42123.09,-45089.152,-47206.016
1314721.4031988168,-84659.99,-113398.08,-45352.38,-59304.242,-133072.97,-42142.62,-45114.34,-47233.93
1314721.4071988128,-84648.27,-113389.04,-45342.773,-59295.94,-133062.5,-42137.535,-45107.707,-47227.95
1314721.4111988086,-84618.45,-113358.6,-45319.01,-59272.34,-133047.94,-42115.52,-45079.47,-47190.188
1314721.4151988046,-84607.99,-113349.125,-45307.09,-59262.902,-133039.19,-42108.93,-45074.707,-47183.188
1314721.4191988003,-84635.7,-113378.46,-45322.348,-59282.51,-133060.75,-42125.043,-45098.797,-47210.207
1314721.4231987963,-84655.6,-113399.46,-45350.426,-59303.02,-133076.25,-42143.758,-45117.758,-47231.773
1314721.427198792,-84647.14,-113387.62,-45344.402,-59297.69,-133069.22,-42136.76,-45107.832,-47221.76
1314721.4311987879,-84624.72,-113362.76,-45322.062,-59277.02,-133054.97,-42116.496,-45079.67,-47185.508
1314721.4351987839,-84620.52,-113354.414,-45310.793,-59267.99,-133049.73,-42109.62,-45076.582,-47180.79
1314721.4391987796,-84641.484,-113373.5,-45330.08,-59285.32,-133068.28,-42129.355,-45107.06,-47213.707
1314721.4431987756,-84669.4,-113401.125,-45352.62,-59306.277,-133088.6,-42146.73,-45129.477,-47234.785
1314721.4471987714,-84665.0,-113397.914,-45345.906,-59302.453,-133083.42,-42141.277,-45121.83,-47225.3
1314721.4511987674,-84637.414,-113369.1,-45324.26,-59278.2,-133053.34,-42119.06,-45097.414,-47215.82
1314721.4551987632,-84631.43,-113360.03,-45323.12,-59271.203,-133042.28,-42111.086,-45087.85,-47203.613
1314721.4591987592,-84650.88,-113375.125,-45335.574,-59287.723,-133068.81,-42127.605,-45108.074,-47225.18
1314721.463198755,-84668.74,-113392.3,-45356.855,-59305.91,-133087.0,-42146.61,-45124.473,-47235.76
1314721.4671987507,-84665.2,-113394.53,-45349.855,-59303.145,-133077.28,-42141.805,-45115.03,-47225.832
1314721.4711987467,-84642.414,-113371.016,-45323.367,-59282.473,-133049.97,-42121.22,-45093.71,-47210.613
1314721.4751987425,-84627.32,-113354.49,-45316.855,-59273.234,-133043.88,-42112.793,-45085.41,-47200.81
1314721.4791987385,-84648.69,-113375.82,-45334.11,-59291.016,-133059.33,-42129.965,-45102.906,-47213.582
1314721.4831987342,-84673.51,-113398.73,-45353.883,-59308.92,-133071.38,-42148.03,-45128.746,-47251.71
1314721.4871987302,-84664.76,-113387.375,-45342.285,-59302.004,-133068.08,-42139.406,-45117.23,-47237.918
1314721.491198726,-84638.19,-113360.15,-45315.105,-59280.355,-133049.69,-42117.8,-45084.516,-47190.188
1314721.495198722,-84628.91,-113349.086,-45307.008,-59271.445,-133038.83,-42110.637,-45076.66,-47183.516
1314721.4991987178,-84650.15,-113369.67,-45323.49,-59287.64,-133062.83,-42129.273,-45102.664,-47211.754
1314721.5031987135,-84670.45,-113389.2,-45348.105,-59305.992,-133075.77,-42149.008,-45125.816,-47238.203
1314721.5071987095,-84660.89,-113385.18,-45337.117,-59300.703,-133069.83,-42143.8,-45117.758,-47227.176
1314721.5111987053,-84639.445,-113360.84,-45315.594,-59280.273,-133048.67,-42122.76,-45093.1,-47206.953
1314721.5151987013,-84633.22,-113350.67,-45314.617,-59272.258,-133039.14,-42115.64,-45087.65,-47207.316
1314721.519198697,-84653.89,-113370.37,-45330.445,-59289.715,-133063.23,-42132.04,-45104.74,-47222.21
1314721.523198693,-84671.19,-113389.164,-45349.0,-59306.6,-133078.78,-42146.566,-45115.277,-47226.766
1314721.5271986888,-84663.945,-113382.25,-45341.473,-59303.223,-133071.12,-42140.625,-45104.453,-47212.89
1314721.5311986848,-84638.23,-113360.48,-45315.188,-59281.375,-133058.64,-42119.508,-45081.098,-47189.293
1314721.5351986806,-84632.734,-113354.45,-45313.76,-59273.52,-133048.55,-42111.207,-45073.242,-47185.67
1314721.5391986764,-84655.36,-113378.26,-45331.504,-59290.734,-133062.78,-42128.258,-45095.215,-47212.688
1314721.5431986724,-84680.22,-113402.71,-45350.465,-59309.492,-133079.31,-42145.71,-45112.715,-47227.05
1314721.5471986681,-84669.84,-113396.94,-45343.465,-59304.445,-133076.95,-42136.273,-45102.254,-47212.65
1314721.5511986641,-84644.49,-113370.85,-45321.7,-59283.285,-133054.89,-42114.83,-45077.434,-47181.152
1314721.55519866,-84635.46,-113356.98,-45311.688,-59273.52,-133043.25,-42110.23,-45071.574,-47178.387
1314721.559198656,-84647.914,-113365.12,-45333.008,-59289.918,-133059.2,-42127.688,-45095.703,-47206.504
1314721.5631986517,-84665.445,-113381.31,-45351.402,-59308.555,-133077.31,-42145.266,-45117.188,-47230.51
1314721.5671986477,-84666.18,-113382.86,-45348.96,-59305.79,-133071.25,-42139.73,-45109.09,-47216.39
1314721.5711986434,-84642.984,-113364.055,-45324.668,-59283.33,-133051.56,-42117.516,-45081.668,-47178.55
1314721.5751986392,-84638.35,-113360.84,-45311.363,-59273.645,-133046.19,-42114.098,-45082.6,-47201.5
1314721.5791986352,-84656.45,-113374.11,-45334.11,-59290.652,-133059.58,-42132.04,-45106.203,-47225.75
1314721.583198631,-84683.555,-113397.664,-45362.633,-59312.094,-133076.78,-42149.82,-45127.566,-47243.125
1314721.587198627,-84676.84,-113392.83,-45356.04,-59307.742,-133073.25,-42144.168,-45117.88,-47230.348
1314721.5911986227,-84647.79,-113364.26,-45328.125,-59284.793,-133051.77,-42121.99,-45090.457,-47194.336
1314721.5951986187,-84644.21,-113361.17,-45317.14,-59275.8,-133040.78,-42115.438,-45083.66,-47189.656
1314721.5991986145,-84662.16,-113372.36,-45339.6,-59291.098,-133063.56,-42133.832,-45102.906,-47209.758
1314721.6031986105,-84682.45,-113387.54,-45356.285,-59308.88,-133075.84,-42150.23,-45125.203,-47238.12
1314721.6071986062,-84672.33,-113383.266,-45343.914,-59303.633,-133062.27,-42143.11,-45113.16,-47223.96
1314721.611198602,-84646.37,-113362.19,-45328.004,-59281.74,-133037.89,-42122.273,-45087.89,-47191.734
1314721.615198598,-84647.586,-113361.62,-45320.598,-59274.17,-133044.48,-42116.008,-45081.625,-47186.16
1314721.6191985938,-84663.695,-113375.49,-45338.38,-59292.44,-133062.5,-42134.97,-45105.633,-47212.324
1314721.6231985898,-84688.88,-113398.03,-45355.023,-59312.46,-133076.14,-42152.875,-45129.03,-47249.35
1314721.6271985855,-84680.75,-113392.74,-45347.656,-59305.664,-133064.12,-42142.58,-45115.438,-47229.492
1314721.6311985815,-84649.62,-113369.63,-45319.258,-59283.734,-133057.42,-42117.39,-45084.27,-47188.56
1314721.6351985773,-84645.836,-113365.65,-45310.75,-59276.33,-133059.98,-42109.824,-45078.207,-47181.64
1314721.6391985733,-84670.086,-113389.734,-45328.086,-59294.477,-133071.17,-42129.598,-45104.617,-47211.348
1314721.643198569,-84691.41,-113411.99,-45350.996,-59313.887,-133088.14,-42144.734,-45117.35,-47220.703
1314721.6471985648,-84678.47,-113397.38,-45344.44,-59307.58,-133077.36,-42134.848,-45105.957,-47221.56
1314721.6511985608,-84654.83,-113369.875,-45322.55,-59285.44,-133056.2,-42113.61,-45083.21,-47192.668
1314721.6551985566,-84648.89,-113360.4,-45318.28,-59279.46,-133047.73,-42108.4,-45079.793,-47184.125
1314721.6591985526,-84672.734,-113384.89,-45334.312,-59297.977,-133071.1,-42128.543,-45106.242,-47211.184
1314721.6631985484,-84697.31,-113409.75,-45352.46,-59317.02,-133088.27,-42146.363,-45129.805,-47243.652
1314721.6671985444,-84684.41,-113396.28,-45341.88,-59308.39,-133078.38,-42135.99,-45115.4,-47215.21
1314721.6711985401,-84652.02,-113363.41,-45317.344,-59285.28,-133058.52,-42113.406,-45083.375,-47176.27
1314721.6751985361,-84646.32,-113356.125,-45307.984,-59277.305,-133047.58,-42108.44,-45080.61,-47187.38
1314721.679198532,-84669.35,-113379.27,-45328.453,-59294.477,-133056.0,-42126.26,-45104.453,-47206.465
1314721.6831985277,-84688.03,-113396.65,-45348.145,-59314.21,-133082.28,-42140.992,-45118.574,-47219.566
1314721.6871985237,-84684.49,-113391.32,-45339.195,-59307.496,-133076.7,-42134.97,-45109.297,-47209.637
1314721.6911985194,-84662.16,-113368.82,-45319.418,-59286.46,-133057.78,-42115.195,-45088.055,-47193.24
1314721.6951985154,-84660.56,-113361.17,-45315.676,-59279.707,-133053.95,-42110.637,-45084.8,-47187.34
1314721.6991985112,-84682.7,-113380.58,-45338.83,-59297.85,-133068.12,-42128.746,-45105.918,-47206.79
1314721.7031985072,-84704.43,-113399.54,-45357.465,-59314.008,-133072.67,-42146.08,-45125.125,-47228.23
1314721.707198503,-84689.21,-113388.555,-45340.902,-59305.46,-133074.02,-42138.387,-45112.918,-47207.6
1314721.711198499,-84664.31,-113365.85,-45311.363,-59283.57,-133052.66,-42120.85,-45090.742,-47176.72
1314721.7151984947,-84660.12,-113357.99,-45310.547,-59277.266,-133036.98,-42117.92,-45090.496,-47184.734
1314721.7191984907,-84683.39,-113381.59,-45326.742,-59296.31,-133067.67,-42135.38,-45112.47,-47210.33
1314721.7231984865,-84704.875,-113403.77,-45344.32,-59313.926,-133083.25,-42151.734,-45130.25,-47231.324
1314721.7271984823,-84688.84,-113387.945,-45334.027,-59304.484,-133070.89,-42142.824,-45117.84,-47222.414
1314721.7311984783,-84661.09,-113358.04,-45312.99,-59282.797,-133050.9,-42121.5,-45085.41,-47181.4
1314721.735198474,-84652.63,-113348.43,-45304.04,-59275.555,-133045.17,-42118.367,-45076.094,-47161.703
1314721.73919847,-84675.17,-113372.44,-45321.902,-59292.93,-133062.83,-42137.695,-45100.586,-47194.297
1314721.7431984658,-84697.76,-113397.34,-45343.465,-59312.91,-133079.75,-42155.4,-45124.15,-47241.336
1314721.7471984618,-84687.26,-113388.06,-45334.84,-59305.586,-133071.7,-42145.223,-45110.637,-47221.805
1314721.7511984576,-84660.766,-113363.24,-45310.305,-59283.53,-133050.1,-42123.09,-45082.97,-47189.78
1314721.7551984536,-84661.91,-113363.0,-45307.863,-59277.914,-133035.4,-42120.242,-45080.08,-47184.773
1314721.7591984493,-84686.89,-113386.766,-45326.01,-59296.875,-133064.05,-42140.098,-45102.094,-47206.79
1314721.763198445,-84708.21,-113408.05,-45344.484,-59314.09,-133084.39,-42159.668,-45121.258,-47224.977
1314721.767198441,-84697.02,-113397.34,-45329.754,-59304.527,-133074.83,-42151.246,-45105.633,-47199.383
1314721.7711984369,-84668.58,-113369.836,-45303.793,-59283.69,-133050.45,-42129.76,-45078.41,-47177.574
1314721.7751984328,-84665.164,-113362.35,-45304.77,-59279.582,-133037.31,-42126.832,-45079.387,-47187.055
1314721.7791984286,-84687.016,-113386.97,-45319.703,-59299.4,-133067.06,-42145.957,-45106.16,-47216.555
1314721.7831984246,-84704.51,-113403.04,-45342.53,-59318.32,-133081.9,-42159.098,-45123.09,-47230.797
1314721.7871984204,-84696.086,-113392.99,-45339.438,-59310.59,-133066.05,-42151.125,-45111.574,-47215.535
1314721.7911984164,-84672.28,-113372.64,-45314.13,-59287.56,-133048.9,-42134.074,-45090.293,-47196.492
1314721.7951984121,-84663.945,-113363.33,-45307.496,-59280.723,-133049.81,-42131.348,-45086.957,-47191.406
1314721.799198408,-84692.22,-113388.266,-45329.266,-59300.906,-133065.8,-42149.902,-45106.855,-47210.207
1314721.803198404,-84708.09,-113397.34,-45343.344,-59315.227,-133084.06,-42161.62,-45119.1,-47224.61
1314721.8071983997,-84694.3,-113384.85,-45328.41,-59304.363,-133072.88,-42151.367,-45109.824,-47222.535
1314721.8111983957,-84672.33,-113365.89,-45302.492,-59283.203,-133051.52,-42129.8,-45086.67,-47195.152
1314721.8151983914,-84668.22,-113358.32,-45304.04,-59280.56,-133046.84,-42127.36,-45084.27,-47189.21
1314721.8191983874,-84695.11,-113382.04,-45326.906,-59302.246,-133071.78,-42146.65,-45105.062,-47208.133
1314721.8231983832,-84717.086,-113404.79,-45345.418,-59320.273,-133085.61,-42164.43,-45125.49,-47234.297
1314721.8271983792,-84701.3,-113388.15,-45332.03,-59310.996,-133073.78,-42153.934,-45111.168,-47218.71
1314721.831198375,-84677.49,-113361.695,-45306.438,-59288.21,-133051.03,-42131.797,-45086.14,-47190.105
1314721.8351983707,-84679.81,-113362.15,-45305.137,-59284.14,-133043.7,-42130.37,-45087.2,-47201.375
1314721.8391983667,-84698.9,-113381.43,-45325.97,-59298.87,-133066.28,-42149.457,-45109.336,-47227.297
1314721.8431983625,-84708.74,-113394.21,-45345.137,-59315.918,-133087.2,-42165.406,-45124.88,-47240.156
1314721.8471983585,-84696.01,-113390.71,-45333.742,-59309.777,-133077.36,-42155.926,-45112.02,-47227.336
1314721.8511983543,-84673.26,-113372.12,-45309.734,-59290.164,-133057.95,-42137.004,-45089.07,-47209.758
1314721.8551983503,-84666.71,-113362.51,-45307.414,-59283.773,-133049.08,-42132.812,-45085.9,-47202.23
1314721.859198346,-84694.91,-113388.266,-45329.957,-59304.527,-133065.97,-42150.637,-45108.97,-47219.484
1314721.863198342,-84718.67,-113412.805,-45353.19,-59325.117,-133082.97,-42163.086,-45121.785,-47234.05
1314721.8671983378,-84707.69,-113400.84,-45341.31,-59315.227,-133072.03,-42153.08,-45107.87,-47237.918
1314721.8711983336,-84680.016,-113371.14,-45313.844,-59291.26,-133057.3,-42130.574,-45076.54,-47199.344
1314721.8751983296,-84674.234,-113367.35,-45312.38,-59286.746,-133054.45,-42127.81,-45072.31,-47195.68
1314721.8791983253,-84703.78,-113395.19,-45333.54,-59306.195,-133078.86,-42147.504,-45093.953,-47221.844
1314721.8831983213,-84729.78,-113420.086,-45355.184,-59323.773,-133096.23,-42162.355,-45107.707,-47241.863
1314721.887198317,-84719.65,-113413.984,-45342.41,-59317.63,-133096.4,-42149.13,-45086.426,-47224.406
1314721.891198313,-84687.5,-113384.52,-45316.203,-59295.574,-133079.52,-42125.0,-45053.223,-47196.82
1314721.8951983089,-84679.65,-113372.89,-45313.64,-59290.527,-133074.67,-42120.934,-45044.72,-47192.06
1314721.8991983049,-84706.75,-113398.73,-45328.613,-59309.734,-133093.67,-42140.586,-45067.914,-47230.715
1314721.9031983006,-84728.07,-113421.92,-45349.367,-59327.844,-133105.11,-42153.523,-45079.305,-47247.195
1314721.9071982964,-84711.47,-113406.25,-45345.83,-59320.56,-133099.38,-42140.055,-45054.402,-47213.79
1314721.9111982924,-84689.29,-113375.05,-45318.24,-59299.48,-133080.81,-42117.96,-45026.082,-47185.67
1314721.9151982882,-84689.86,-113370.0,-45313.273,-59296.43,-133076.22,-42114.22,-45022.586,-47188.477
1314721.9191982842,-84716.76,-113399.17,-45331.953,-59315.96,-133093.6,-42129.355,-45039.55,-47211.266
1314721.92319828,-84733.234,-113417.12,-45348.88,-59331.22,-133102.75,-42143.11,-45052.574,-47231.49
1314721.927198276,-84712.484,-113398.93,-45329.305,-59319.62,-133096.36,-42131.188,-45034.14,-47211.387
1314721.9311982717,-84679.61,-113368.29,-45296.387,-59295.74,-133078.58,-42108.48,-45003.746,-47179.934
1314721.9351982677,-84673.51,-113361.17,-45300.824,-59291.992,-133067.02,-42106.49,-45001.59,-47179.934
1314721.9391982635,-84701.945,-113391.805,-45328.74,-59315.555,-133086.22,-42126.793,-45028.2,-47206.87
1314721.9431982592,-84727.91,-113416.016,-45340.82,-59333.824,-133106.58,-42142.58,-45046.1,-47226.93
1314721.9471982552,-84709.27,-113394.82,-45331.42,-59322.227,-133090.62,-42132.527,-45031.66,-47205.566
1314721.951198251,-84679.89,-113364.51,-45305.46,-59298.137,-133067.52,-42113.77,-45012.047,-47185.63
1314721.955198247,-84676.59,-113362.67,-45300.215,-59292.645,-133060.67,-42110.477,-45009.81,-47182.54
1314721.9591982428,-84699.51,-113387.49,-45317.344,-59312.582,-133081.7,-42126.953,-45033.164,-47208.09
1314721.9631982388,-84715.21,-113401.164,-45333.21,-59328.574,-133093.62,-42140.137,-45048.83,-47224.043
1314721.9671982345,-84697.23,-113384.28,-45318.848,-59317.793,-133085.05,-42130.047,-45033.203,-47204.793
1314721.9711982305,-84676.39,-113363.57,-45299.36,-59298.547,-133064.45,-42109.66,-45009.035,-47173.953
1314721.9751982263,-84676.516,-113360.44,-45299.156,-59297.406,-133058.92,-42107.383,-45008.668,-47172.324
1314721.979198222,-84703.82,-113387.945,-45316.246,-59316.33,-133089.03,-42127.32,-45037.11,-47207.277
1314721.983198218,-84719.81,-113402.96,-45337.973,-59331.26,-133092.61,-42143.92,-45055.258,-47228.477
1314721.9871982138,-84705.24,-113387.01,-45320.516,-59321.168,-133082.48,-42129.56,-45034.14,-47205.12
1314721.9911982098,-84682.3,-113361.62,-45296.387,-59298.953,-133057.95,-42106.203,-45008.71,-47170.453
1314721.9951982056,-84680.55,-113362.43,-45296.31,-59297.406,-133059.25,-42102.54,-45008.953,-47167.645
1314721.9991982016,-84705.08,-113384.81,-45326.582,-59319.703,-133078.38,-42122.887,-45036.46,-47203.25
1314722.0031981973,-84726.73,-113404.79,-45339.926,-59335.29,-133094.03,-42136.76,-45057.457,-47232.75
1314722.0071981933,-84712.41,-113394.125,-45325.4,-59325.523,-133081.88,-42126.02,-45039.96,-47201.824
1314722.011198189,-84686.445,-113371.34,-45300.945,-59305.87,-133062.58,-42106.773,-45014.85,-47172.406
1314722.0151981849,-84681.64,-113363.94,-45298.465,-59299.805,-133062.83,-42105.67,-45016.93,-47179.04
1314722.0191981809,-84707.12,-113388.836,-45319.46,-59319.867,-133089.89,-42126.06,-45044.8,-47211.47
1314722.0231981766,-84733.85,-113412.93,-45339.316,-59339.234,-133098.64,-42141.48,-45065.066,-47231.65
1314722.0271981726,-84713.18,-113391.56,-45319.703,-59328.047,-133087.69,-42130.37,-45052.574,-47226.2
1314722.0311981684,-84683.27,-113363.2,-45296.1,-59304.688,-133066.25,-42107.83,-45027.223,-47196.21
1314722.0351981644,-84685.875,-113359.79,-45300.496,-59302.004,-133058.03,-42105.47,-45026.695,-47179.65
1314722.0391981602,-84715.945,-113388.23,-45317.832,-59321.86,-133076.7,-42125.285,-45055.664,-47208.496
1314722.0431981562,-84736.984,-113405.03,-45338.504,-59338.016,-133085.98,-42140.668,-45078.492,-47248.82
1314722.047198152,-84718.71,-113391.445,-45330.934,-59327.883,-133075.23,-42130.37,-45067.668,-47241.414
1314722.0511981477,-84696.414,-113372.56,-45301.598,-59308.516,-133063.0,-42113.242,-45049.766,-47216.023
1314722.0551981437,-84694.586,-113367.19,-45298.098,-59304.73,-133061.25,-42112.793,-45052.98,-47219.32
1314722.0591981395,-84719.16,-113389.53,-45318.93,-59323.49,-133078.3,-42132.812,-45075.4,-47237.996
1314722.0631981355,-84732.55,-113400.48,-45336.062,-59338.992,-133087.25,-42146.04,-45084.598,-47243.45
1314722.0671981312,-84717.57,-113384.69,-45319.95,-59328.74,-133081.39,-42132.45,-45065.676,-47214.234
1314722.0711981272,-84692.99,-113358.12,-45295.82,-59306.48,-133054.66,-42111.656,-45044.395,-47191.895
1314722.075198123,-84691.125,-113357.42,-45291.914,-59304.16,-133057.05,-42110.68,-45045.004,-47190.797
1314722.079198119,-84713.22,-113376.47,-45317.87,-59323.285,-133076.62,-42130.617,-45069.824,-47212.605
1314722.0831981148,-84734.336,-113394.9,-45336.59,-59339.074,-133089.69,-42144.938,-45086.305,-47226.89
1314722.0871981105,-84723.35,-113388.96,-45320.516,-59329.184,-133081.9,-42131.88,-45067.465,-47195.926
1314722.0911981065,-84695.805,-113363.734,-45297.12,-59307.617,-133064.25,-42111.574,-45045.004,-47170.29
1314722.0951981023,-84697.35,-113363.0,-45297.445,-59303.67,-133049.03,-42112.266,-45053.305,-47188.273
1314722.0991980983,-84721.73,-113388.555,-45315.227,-59324.707,-133075.44,-42130.656,-45076.785,-47216.39
1314722.103198094,-84741.26,-113405.6,-45334.312,-59341.84,-133085.98,-42142.703,-45091.555,-47230.51
1314722.10719809,-84730.19,-113393.64,-45324.3,-59330.895,-133073.05,-42129.76,-45076.457,-47208.496
1314722.1111980858,-84706.26,-113372.766,-45299.93,-59310.67,-133058.23,-42108.645,-45053.184,-47181.074
1314722.1151980818,-84708.3,-113377.77,-45300.008,-59310.63,-133060.6,-42107.91,-45054.89,-47172.406
1314722.1191980776,-84733.445,-113402.76,-45322.754,-59329.875,-133075.28,-42129.03,-45081.016,-47194.664
1314722.1231980734,-84751.02,-113420.086,-45337.04,-59344.402,-133087.86,-42144.695,-45102.99,-47228.152
1314722.1271980694,-84731.57,-113402.836,-45319.094,-59333.58,-133073.48,-42134.523,-45095.703,-47238.61
1314722.1311980651,-84703.33,-113374.59,-45293.945,-59311.973,-133052.45,-42113.934,-45073.73,-47219.16
1314722.1351980611,-84702.76,-113370.32,-45300.66,-59311.08,-133052.38,-42114.098,-45070.723,-47212.402
1314722.139198057,-84732.51,-113399.336,-45325.887,-59336.47,-133070.92,-42136.395,-45099.203,-47237.59
1314722.143198053,-84754.88,-113417.93,-45339.438,-59352.703,-133087.45,-42149.617,-45112.996,-47251.14
1314722.1471980487,-84739.055,-113404.79,-45323.203,-59342.004,-133082.48,-42136.92,-45097.74,-47231.69
1314722.1511980447,-84715.414,-113381.68,-45300.254,-59322.43,-133071.78,-42115.926,-45075.32,-47203.25
1314722.1551980404,-84719.12,-113380.62,-45302.98,-59320.07,-133069.47,-42115.723,-45077.76,-47210.652
1314722.1591980364,-84742.516,-113397.42,-45325.277,-59337.812,-133080.4,-42135.05,-45100.3,-47238.406
1314722.1631980322,-84759.04,-113410.12,-45339.805,-59350.793,-133097.66,-42148.926,-45112.957,-47251.547
1314722.167198028,-84747.36,-113398.93,-45328.777,-59341.676,-133089.97,-42136.72,-45096.6,-47226.523
1314722.171198024,-84724.734,-113376.914,-45307.457,-59321.74,-133066.61,-42116.984,-45074.707,-47196.7
1314722.1751980197,-84721.766,-113376.59,-45312.5,-59324.18,-133067.47,-42118.367,-45074.3,-47192.547
1314722.1791980157,-84748.375,-113403.37,-45335.125,-59345.215,-133097.02,-42136.07,-45094.24,-47219.32
1314722.1831980115,-84763.02,-113417.195,-45347.25,-59357.26,-133104.3,-42149.617,-45111.33,-47239.34
1314722.1871980075,-84749.35,-113402.96,-45333.418,-59345.543,-133090.55,-42136.027,-45093.914,-47216.105
1314722.1911980032,-84726.12,-113382.125,-45310.387,-59326.01,-133072.47,-42114.625,-45068.156,-47187.785
1314722.1951979992,-84724.695,-113379.97,-45308.797,-59323.773,-133066.66,-42115.64,-45073.527,-47197.797
1314722.199197995,-84756.8,-113409.06,-45331.34,-59347.008,-133091.97,-42136.598,-45101.24,-47231.242
1314722.2031979908,-84773.52,-113421.8,-45347.58,-59361.816,-133102.98,-42150.027,-45113.203,-47243.164
1314722.2071979868,-84754.516,-113405.32,-45335.004,-59350.305,-133102.38,-42136.395,-45086.996,-47200.97
1314722.2111979825,-84735.555,-113384.766,-45316.773,-59329.266,-133079.39,-42117.105,-45060.344,-47171.957
1314722.2151979785,-84730.8,-113378.38,-45312.867,-59327.312,-133073.86,-42116.66,-45067.465,-47211.266
1314722.2191979743,-84762.21,-113408.695,-45331.668,-59346.68,-133083.45,-42136.477,-45092.125,-47241.863
1314722.2231979703,-84776.45,-113421.72,-45342.652,-59360.477,-133094.45,-42149.375,-45103.844,-47253.418
1314722.227197966,-84748.78,-113394.53,-45325.605,-59345.01,-133085.2,-42135.906,-45083.375,-47225.996
1314722.231197962,-84728.56,-113374.07,-45304.85,-59323.895,-133063.81,-42116.984,-45059.043,-47196.25
1314722.2351979578,-84728.68,-113375.33,-45306.562,-59321.984,-133061.36,-42120.035,-45061.363,-47193.28
1314722.2391979536,-84752.766,-113395.67,-45330.16,-59342.367,-133076.5,-42140.543,-45086.836,-47222.94
1314722.2431979496,-84768.6,-113412.16,-45342.977,-59358.645,-133088.22,-42152.26,-45099.53,-47243.652
1314722.2471979454,-84752.93,-113397.586,-45324.586,-59348.188,-133080.2,-42138.266,-45076.215,-47210.734
1314722.2511979414,-84726.65,-113370.734,-45300.17,-59326.703,-133061.77,-42116.78,-45048.91,-47183.84
1314722.2551979371,-84734.984,-113378.95,-45304.85,-59329.227,-133061.89,-42115.234,-45047.73,-47175.215
1314722.2591979331,-84764.85,-113405.4,-45330.363,-59350.953,-133084.44,-42136.965,-45074.75,-47207.766
1314722.263197929,-84774.21,-113411.13,-45347.13,-59362.348,-133095.22,-42151.164,-45095.95,-47250.69
1314722.267197925,-84761.31,-113399.945,-45331.625,-59349.895,-133087.05,-42140.3,-45082.44,-47237.508
1314722.2711979207,-84739.55,-113378.3,-45306.684,-59328.98,-133070.72,-42123.09,-45059.33,-47206.543
1314722.2751979164,-84744.06,-113378.91,-45306.438,-59326.297,-133066.66,-42123.984,-45064.375,-47215.254
1314722.2791979124,-84768.44,-113399.21,-45326.17,-59344.65,-133081.22,-42142.906,-45091.105,-47250.816
1314722.2831979082,-84784.63,-113418.83,-45340.535,-59360.516,-133093.39,-42152.875,-45099.57,-47260.742
1314722.2871979042,-84764.695,-113402.96,-45330.69,-59349.45,-133079.03,-42140.465,-45075.605,-47231.12
1314722.2911979,-84734.91,-113377.65,-45303.305,-59327.312,-133061.05,-42119.63,-45047.65,-47191.652
1314722.295197896,-84739.016,-113381.02,-45303.914,-59328.207,-133057.38,-42120.16,-45051.92,-47197.836
1314722.2991978917,-84766.85,-113400.15,-45330.12,-59349.855,-133072.6,-42142.824,-45081.22,-47255.82
1314722.3031978877,-84788.25,-113420.336,-45350.832,-59366.7,-133088.55,-42158.652,-45097.008,-47275.555
1314722.3071978835,-84775.64,-113409.914,-45332.074,-59352.99,-133079.27,-42147.137,-45081.137,-47246.42
1314722.3111978793,-84746.625,-113382.9,-45299.727,-59329.266,-133060.06,-42127.2,-45059.164,-47223.31
1314722.3151978753,-84745.93,-113377.2,-45310.914,-59325.93,-133053.92,-42127.32,-45058.066,-47224.773
1314722.319197871,-84770.34,-113403.08,-45331.91,-59347.984,-133087.73,-42147.83,-45079.836,-47243.367
1314722.323197867,-84790.9,-113425.26,-45345.99,-59365.195,-133104.42,-42161.867,-45095.703,-47263.023
1314722.3271978628,-84772.75,-113411.016,-45326.418,-59351.688,-133087.81,-42148.844,-45080.895,-47253.34
1314722.3311978588,-84744.305,-113382.33,-45302.86,-59327.07,-133061.33,-42130.29,-45056.316,-47220.906
1314722.3351978546,-84747.64,-113382.94,-45304.2,-59326.785,-133064.78,-42131.918,-45059.164,-47224.938
1314722.3391978506,-84775.96,-113408.05,-45328.94,-59347.09,-133085.58,-42154.176,-45087.65,-47253.664
1314722.3431978463,-84792.93,-113425.375,-45344.32,-59362.836,-133099.73,-42166.383,-45099.977,-47263.797
1314722.347197842,-84778.484,-113414.19,-45328.37,-59352.094,-133089.48,-42152.67,-45080.895,-47237.227
1314722.351197838,-84754.16,-113388.35,-45305.016,-59333.984,-133073.61,-42133.016,-45060.344,-47217.855
1314722.3551978339,-84761.03,-113393.03,-45306.355,-59335.492,-133075.94,-42137.656,-45071.535,-47243.816
1314722.3591978299,-84787.805,-113413.01,-45332.887,-59353.477,-133087.33,-42156.78,-45095.094,-47271.812
1314722.3631978256,-84794.88,-113420.01,-45348.188,-59366.496,-133097.3,-42169.35,-45105.88,-47276.816
1314722.3671978216,-84774.87,-113404.46,-45329.184,-59352.46,-133079.92,-42155.273,-45085.86,-47248.7
1314722.3711978174,-84752.28,-113381.31,-45309.695,-59332.48,-133062.17,-42135.66,-45063.76,-47227.867
1314722.3751978134,-84753.18,-113378.87,-45311.117,-59332.52,-133065.77,-42137.207,-45066.57,-47236.25
1314722.3791978091,-84784.1,-113406.01,-45327.598,-59354.98,-133098.31,-42156.94,-45089.64,-47258.87
1314722.383197805,-84800.664,-113424.12,-45345.83,-59368.613,-133107.83,-42169.84,-45099.203,-47268.68
1314722.387197801,-84781.45,-113408.86,-45327.23,-59355.754,-133093.11,-42155.316,-45077.35,-47241.496
1314722.3911977967,-84759.766,-113386.27,-45305.016,-59335.86,-133069.38,-42133.504,-45052.86,-47215.66
1314722.3951977927,-84761.68,-113386.84,-45313.152,-59336.1,-133067.11,-42137.125,-45060.1,-47230.797
1314722.3991977884,-84789.8,-113413.66,-45332.645,-59355.105,-133086.22,-42156.656,-45085.492,-47255.94
1314722.4031977844,-84804.37,-113425.984,-45344.727,-59367.8,-133098.6,-42168.336,-45096.926,-47270.47
1314722.4071977802,-84788.086,-113411.26,-45325.97,-59355.55,-133084.56,-42154.625,-45081.3,-47257.977
1314722.4111977762,-84757.37,-113380.5,-45303.633,-59335.574,-133075.2,-42135.094,-45057.13,-47231.406
1314722.415197772,-84765.79,-113383.95,-45308.066,-59339.562,-133079.06,-42138.348,-45063.19,-47234.01
1314722.4191977677,-84798.42,-113414.11,-45336.59,-59362.062,-133099.69,-42160.074,-45089.887,-47266.36
1314722.4231977637,-84811.08,-113429.2,-45350.14,-59374.188,-133111.78,-42170.535,-45103.72,-47282.227
1314722.4271977595,-84792.65,-113410.0,-45333.984,-59360.477,-133099.08,-42158.855,-45085.613,-47258.914
1314722.4311977555,-84766.28,-113382.45,-45309.695,-59339.766,-133081.67,-42138.348,-45059.246,-47227.54
1314722.4351977513,-84773.234,-113386.766,-45311.934,-59339.4,-133077.52,-42140.465,-45061.484,-47235.555
1314722.4391977473,-84802.49,-113415.695,-45334.516,-59359.5,-133094.89,-42160.32,-45086.02,-47265.18
1314722.443197743,-84811.98,-113429.81,-45347.008,-59371.504,-133105.97,-42170.047,-45093.344,-47274.902
1314722.447197739,-84793.17,-113408.53,-45333.133,-59358.074,-133085.78,-42153.445,-45069.746,-47244.67
1314722.4511977348,-84767.7,-113387.78,-45309.613,-59337.85,-133070.81,-42134.523,-45049.44,-47228.19
1314722.4551977306,-84767.055,-113390.75,-45310.875,-59339.97,-133074.55,-42136.273,-45057.21,-47239.91
1314722.4591977266,-84798.46,-113423.016,-45332.887,-59362.754,-133102.9,-42156.25,-45081.34,-47263.387
1314722.4631977223,-84815.836,-113435.23,-45345.664,-59374.23,-133110.31,-42168.742,-45091.555,-47271.566
1314722.4671977183,-84806.805,-113419.766,-45333.418,-59361.74,-133090.25,-42157.145,-45075.24,-47262.617
1314722.471197714,-84781.05,-113397.055,-45312.094,-59340.496,-133067.11,-42139.0,-45050.496,-47241.09
1314722.47519771,-84781.86,-113400.76,-45321.535,-59343.1,-133064.7,-42140.26,-45049.195,-47233.195
1314722.4791977059,-84807.05,-113423.14,-45345.664,-59366.863,-133085.86,-42159.344,-45071.94,-47261.8
1314722.4831977019,-84823.2,-113434.414,-45356.367,-59381.39,-133095.88,-42167.117,-45081.016,-47280.926
1314722.4871976976,-84810.02,-113424.97,-45337.605,-59366.984,-133084.06,-42150.96,-45058.84,-47254.926
1314722.4911976934,-84790.734,-113405.805,-45317.668,-59347.82,-133068.4,-42128.62,-45026.207,-47212.566
1314722.4951976894,-84782.8,-113395.02,-45316.855,-59346.68,-133070.03,-42131.51,-45026.125,-47218.71
1314722.4991976852,-84804.52,-113408.98,-45334.473,-59364.504,-133090.7,-42154.094,-45052.33,-47257.527
1314722.5031976812,-84822.555,-113422.9,-45343.875,-59376.26,-133098.92,-42165.895,-45063.926,-47271.28
1314722.507197677,-84807.3,-113407.72,-45329.062,-59362.145,-133089.31,-42150.96,-45045.125,-47249.188
1314722.511197673,-84782.19,-113383.51,-45311.523,-59342.695,-133077.89,-42130.414,-45018.35,-47221.56
1314722.5151976687,-84784.79,-113380.13,-45314.58,-59343.426,-133071.42,-42133.832,-45023.36,-47239.22
1314722.5191976647,-84814.58,-113408.62,-45333.008,-59363.85,-133095.38,-42153.85,-45043.5,-47261.027
1314722.5231976605,-84834.39,-113428.67,-45347.86,-59378.258,-133108.61,-42166.707,-45053.1,-47272.22
1314722.5271976562,-84815.06,-113410.57,-45335.695,-59364.992,-133100.19,-42151.164,-45030.195,-47254.477
1314722.5311976522,-84787.64,-113384.85,-45308.72,-59344.484,-133084.6,-42132.527,-45005.656,-47233.562
1314722.535197648,-84794.195,-113387.9,-45319.664,-59347.375,-133084.64,-42137.574,-45006.88,-47236.86
1314722.539197644,-84824.586,-113417.85,-45345.258,-59368.37,-133097.9,-42159.547,-45032.023,-47275.92
1314722.5431976398,-84833.414,-113430.625,-45349.61,-59379.52,-133124.56,-42165.773,-45033.938,-47284.426
1314722.5471976358,-84814.54,-113413.54,-45329.59,-59363.65,-133106.98,-42148.195,-45005.13,-47254.723
1314722.5511976315,-84789.555,-113384.445,-45310.832,-59344.934,-133085.66,-42126.953,-44979.617,-47234.785
1314722.5551976275,-84795.49,-113392.5,-45315.918,-59347.984,-133090.98,-42131.105,-44986.41,-47245.73
1314722.5591976233,-84829.266,-113427.33,-45341.434,-59371.83,-133111.61,-42153.523,-45017.54,-47282.15
1314722.563197619,-84846.64,-113447.72,-45353.76,-59386.68,-133130.9,-42164.43,-45032.39,-47310.47
1314722.567197615,-84828.94,-113430.586,-45333.742,-59371.22,-133120.0,-42149.945,-45015.06,-47291.586
1314722.5711976108,-84801.88,-113400.92,-45319.46,-59351.035,-133099.17,-42130.496,-44989.586,-47255.902
1314722.5751976068,-84814.7,-113407.43,-45318.2,-59352.582,-133101.56,-42133.668,-44995.89,-47271.566
1314722.5791976026,-84836.67,-113428.02,-45337.2,-59370.77,-133119.02,-42153.65,-45021.85,-47298.055
1314722.5831975986,-84837.0,-113429.734,-45346.477,-59380.047,-133128.02,-42164.227,-45031.902,-47316.12
1314722.5871975943,-84819.91,-113416.016,-45329.633,-59367.312,-133114.83,-42147.707,-45005.168,-47270.387
1314722.5911975903,-84793.055,-113394.375,-45304.242,-59347.168,-133091.56,-42130.777,-44984.945,-47261.64
1314722.595197586,-84798.664,-113399.54,-45307.09,-59349.203,-133095.58,-42132.49,-44989.668,-47271.242
1314722.599197582,-84826.42,-113427.82,-45333.457,-59369.836,-133122.2,-42150.15,-45009.523,-47287.273
1314722.6031975779,-84833.46,-113435.59,-45342.773,-59378.785,-133124.56,-42159.098,-45020.1,-47292.97
1314722.6071975736,-84807.62,-113413.086,-45320.723,-59363.04,-133108.36,-42144.207,-45000.69,-47273.277
1314722.6111975696,-84787.36,-113395.96,-45303.633,-59345.46,-133093.42,-42124.51,-44977.094,-47243.207
1314722.6151975654,-84803.06,-113408.086,-45311.24,-59349.816,-133098.72,-42127.566,-44985.11,-47251.14
1314722.6191975614,-84834.03,-113430.664,-45329.023,-59370.527,-133125.66,-42148.684,-45017.293,-47285.848
1314722.6231975572,-84837.65,-113433.234,-45347.047,-59381.31,-133132.53,-42158.938,-45028.484,-47293.703
1314722.6271975532,-84822.47,-113419.56,-45330.242,-59366.375,-133110.44,-42143.96,-45009.36,-47278.605
1314722.631197549,-84800.78,-113400.76,-45310.14,-59345.99,-133088.8,-42124.188,-44983.887,-47244.63
1314722.635197545,-84804.89,-113406.54,-45307.496,-59347.09,-133108.08,-42123.82,-44984.375,-47245.85
1314722.6391975407,-84835.29,-113433.555,-45334.11,-59368.53,-133129.03,-42142.78,-45012.047,-47292.402
1314722.6431975365,-84853.64,-113448.49,-45349.895,-59381.145,-133136.92,-42151.613,-45020.875,-47303.348
1314722.6471975325,-84833.414,-113432.82,-45332.03,-59366.742,-133126.92,-42136.19,-44999.35,-47275.96
1314722.6511975282,-84818.97,-113417.36,-45310.223,-59350.14,-133110.08,-42121.01,-44982.26,-47250.57
1314722.6551975242,-84828.21,-113418.7,-45317.14,-59354.25,-133105.31,-42127.156,-44992.758,-47258.586
1314722.65919752,-84849.37,-113437.055,-45340.902,-59375.9,-133128.1,-42147.664,-45016.93,-47292.48
1314722.663197516,-84859.17,-113445.73,-45351.32,-59383.996,-133138.67,-42154.297,-45020.918,-47291.426
1314722.6671975118,-84836.8,-113426.15,-45330.49,-59366.54,-133122.31,-42136.434,-44999.27,-47270.996
1314722.6711975078,-84815.31,-113407.15,-45309.9,-59346.965,-133094.4,-42119.1,-44983.36,-47267.99
1314722.6751975035,-84823.29,-113414.06,-45312.543,-59352.05,-133106.69,-42123.13,-44990.562,-47275.758
1314722.6791974993,-84850.18,-113440.19,-45337.242,-59374.84,-133130.17,-42145.47,-45018.434,-47310.59
1314722.6831974953,-84858.805,-113452.68,-45350.832,-59384.484,-133138.06,-42155.234,-45027.547,-47325.97
1314722.687197491,-84841.43,-113436.12,-45326.215,-59370.73,-133121.3,-42138.918,-45012.332,-47308.027
1314722.691197487,-84824.914,-113419.766,-45311.035,-59352.297,-133106.25,-42118.695,-44990.684,-47279.22
1314722.6951974828,-84828.125,-113415.164,-45325.195,-59353.273,-133105.39,-42123.496,-44996.785,-47285.28
1314722.6991974788,-84854.414,-113441.45,-45341.84,-59372.64,-133123.12,-42143.637,-45026.41,-47312.543
1314722.7031974746,-84869.39,-113452.68,-45353.19,-59384.766,-133134.12,-42151.855,-45038.902,-47330.69
1314722.7071974706,-84852.586,-113435.1,-45337.688,-59370.89,-133116.7,-42137.37,-45024.824,-47319.582
1314722.7111974664,-84835.57,-113419.766,-45316.734,-59352.824,-133105.03,-42122.477,-45013.594,-47303.957
1314722.7151974621,-84840.58,-113422.08,-45327.027,-59355.918,-133110.97,-42129.355,-45025.88,-47314.535
1314722.7191974581,-84867.31,-113447.836,-45347.293,-59373.008,-133124.27,-42146.688,-45050.336,-47342.164
1314722.723197454,-84873.375,-113451.09,-45355.145,-59382.938,-133134.08,-42150.84,-45055.586,-47345.258
1314722.72719745,-84854.05,-113431.03,-45340.254,-59368.33,-133121.5,-42132.812,-45031.617,-47312.99
1314722.7311974457,-84838.18,-113415.86,-45321.74,-59351.44,-133103.97,-42116.66,-45012.086,-47286.5
1314722.7351974417,-84842.33,-113419.805,-45327.027,-59354.617,-133106.05,-42123.863,-45021.324,-47289.715
1314722.7391974374,-84872.68,-113447.31,-45350.75,-59374.555,-133124.52,-42147.258,-45053.957,-47337.934
1314722.7431974334,-84884.484,-113460.53,-45362.348,-59386.438,-133134.12,-42158.043,-45065.39,-47340.58
1314722.7471974292,-84866.5,-113447.43,-45345.215,-59371.3,-133120.77,-42141.766,-45046.266,-47305.176
1314722.751197425,-84844.85,-113424.85,-45320.598,-59351.484,-133096.11,-42123.82,-45026.652,-47294.11
1314722.755197421,-84845.54,-113420.45,-45326.945,-59353.516,-133093.6,-42131.188,-45037.68,-47326.742
1314722.7591974167,-84869.34,-113444.586,-45352.906,-59376.184,-133117.27,-42150.473,-45059.9,-47344.93
1314722.7631974127,-84881.67,-113455.37,-45357.91,-59385.95,-133130.83,-42156.453,-45066.57,-47340.742
1314722.7671974085,-84857.26,-113432.375,-45342.367,-59368.41,-133108.69,-42138.023,-45042.684,-47313.4
1314722.7711974045,-84838.95,-113412.6,-45321.414,-59350.75,-133087.25,-42122.965,-45027.305,-47308.637
1314722.7751974002,-84845.26,-113415.04,-45325.156,-59353.8,-133100.06,-42127.117,-45029.258,-47315.84
1314722.7791973962,-84872.12,-113436.98,-45346.68,-59374.35,-133126.27,-42145.957,-45050.62,-47339.152
1314722.783197392,-84884.195,-113445.234,-45361.207,-59384.93,-133125.28,-42154.176,-45059.082,-47345.664
1314722.7871973878,-84866.3,-113425.46,-45343.1,-59367.637,-133106.28,-42135.99,-45038.21,-47324.992
1314722.7911973838,-84846.516,-113408.57,-45319.703,-59351.24,-133097.17,-42120.117,-45020.02,-47312.582
1314722.7951973795,-84856.445,-113420.25,-45323.855,-59356.652,-133100.8,-42125.367,-45032.555,-47337.973
1314722.7991973755,-84887.33,-113449.22,-45354.86,-59378.95,-133126.62,-42146.04,-45057.457,-47356.977
1314722.8031973713,-84894.66,-113458.375,-45364.79,-59389.04,-133137.9,-42153.445,-45062.99,-47360.598
1314722.8071973673,-84875.94,-113439.66,-45344.523,-59373.047,-133118.61,-42136.72,-45046.875,-47348.39
1314722.811197363,-84850.016,-113412.73,-45324.18,-59353.11,-133099.4,-42116.617,-45027.344,-47334.23
1314722.815197359,-84861.734,-113421.39,-45333.05,-59358.81,-133099.98,-42121.258,-45034.14,-47344.605
1314722.8191973548,-84887.695,-113448.61,-45352.62,-59381.473,-133129.77,-42139.85,-45053.59,-47361.98
1314722.8231973506,-84897.95,-113459.234,-45368.45,-59390.098,-133129.69,-42147.504,-45064.09,-47377.32
1314722.8271973466,-84875.77,-113437.83,-45346.844,-59374.35,-133122.81,-42130.656,-45044.434,-47350.75
1314722.8311973424,-84854.45,-113415.45,-45325.97,-59354.902,-133109.14,-42111.574,-45022.83,-47327.84
1314722.8351973384,-84866.3,-113432.375,-45334.92,-59361.695,-133106.98,-42118.9,-45030.965,-47333.58
1314722.8391973341,-84889.77,-113458.54,-45355.31,-59382.367,-133126.83,-42142.906,-45059.33,-47373.13
1314722.8431973301,-84898.12,-113464.4,-45360.8,-59388.715,-133127.53,-42151.652,-45066.895,-47378.133
1314722.847197326,-84879.4,-113446.05,-45341.88,-59373.496,-133114.1,-42135.297,-45044.844,-47353.273
1314722.851197322,-84853.64,-113420.984,-45324.547,-59354.902,-133098.11,-42117.88,-45024.293,-47321.617
1314722.8551973177,-84857.016,-113421.8,-45327.395,-59356.082,-133097.42,-42121.746,-45032.594,-47329.184
1314722.8591973134,-84887.66,-113448.33,-45352.867,-59378.664,-133118.05,-42143.92,-45059.492,-47356.895
1314722.8631973094,-84900.27,-113462.41,-45360.19,-59387.29,-133125.98,-42154.38,-45074.79,-47377.484
1314722.8671973052,-84876.18,-113442.71,-45340.293,-59369.875,-133112.14,-42137.98,-45057.78,-47357.87
1314722.8711973012,-84852.83,-113417.41,-45321.574,-59350.953,-133094.45,-42119.184,-45036.824,-47334.96
1314722.875197297,-84861.62,-113421.39,-45336.59,-59355.797,-133090.98,-42125.49,-45046.51,-47345.867
1314722.879197293,-84885.99,-113445.48,-45355.55,-59375.773,-133122.89,-42146.484,-45072.062,-47368.9
1314722.8831972887,-84897.95,-113455.65,-45362.957,-59385.54,-133131.72,-42155.723,-45082.645,-47380.656
1314722.8871972847,-84876.34,-113432.984,-45346.03,-59369.02,-133116.14,-42140.992,-45062.297,-47353.516
1314722.8911972805,-84853.68,-113410.61,-45327.883,-59350.26,-133097.45,-42126.223,-45046.836,-47337.2
1314722.8951972763,-84862.555,-113420.05,-45334.72,-59355.105,-133102.98,-42134.074,-45059.57,-47349.855
1314722.8991972723,-84889.41,-113444.46,-45358.97,-59375.613,-133123.55,-42151.652,-45088.992,-47385.62
1314722.903197268,-84903.12,-113459.35,-45369.344,-59388.266,-133136.16,-42155.438,-45094.363,-47389.61
1314722.907197264,-84884.12,-113441.9,-45351.24,-59374.27,-133129.03,-42136.027,-45067.344,-47350.87
1314722.9111972598,-84868.62,-113425.42,-45333.293,-59356.73,-133111.2,-42121.46,-45047.85,-47337.242
1314722.9151972558,-84875.164,-113429.445,-45336.47,-59358.93,-133111.61,-42130.414,-45061.484,-47357.668
1314722.9191972516,-84899.17,-113449.63,-45360.72,-59379.926,-133132.48,-42151.41,-45087.04,-47376.02
1314722.9231972476,-84909.71,-113460.49,-45364.383,-59389.324,-133138.75,-42156.414,-45093.387,-47383.383
1314722.9271972433,-84891.32,-113441.29,-45343.875,-59373.375,-133120.28,-42136.516,-45069.824,-47358.766
1314722.931197239,-84866.78,-113415.94,-45332.316,-59356.285,-133103.28,-42116.617,-45046.875,-47331.83
1314722.935197235,-84881.06,-113428.15,-45341.637,-59363.04,-133105.6,-42124.27,-45061.08,-47350.26
1314722.9391972309,-84906.86,-113454.63,-45367.555,-59386.68,-133133.27,-42147.34,-45092.0,-47386.72
1314722.9431972269,-84918.26,-113465.62,-45370.77,-59393.598,-133140.42,-42152.875,-45097.13,-47387.777
1314722.9471972226,-84897.38,-113446.7,-45352.176,-59373.82,-133116.5,-42136.477,-45073.855,-47361.86
1314722.9511972186,-84877.89,-113427.78,-45332.723,-59355.594,-133094.69,-42118.45,-45053.184,-47341.473
1314722.9551972144,-84882.0,-113434.21,-45334.92,-59360.72,-133103.48,-42123.66,-45056.97,-47339.844
1314722.9591972104,-84900.19,-113450.81,-45354.25,-59378.99,-133118.94,-42142.58,-45077.56,-47354.902
1314722.9631972061,-84911.54,-113464.4,-45365.562,-59389.977,-133128.02,-42147.79,-45085.777,-47369.266
1314722.967197202,-84900.35,-113453.62,-45351.89,-59377.566,-133116.34,-42133.465,-45074.06,-47364.016
1314722.971197198,-84884.4,-113435.836,-45330.69,-59360.76,-133100.34,-42115.766,-45054.402,-47337.605
1314722.9751971937,-84887.78,-113438.234,-45336.426,-59365.277,-133106.73,-42120.65,-45058.96,-47336.63
1314722.9791971897,-84913.29,-113457.6,-45360.35,-59385.664,-133120.16,-42139.69,-45082.887,-47364.098
1314722.9831971854,-84919.31,-113462.81,-45358.113,-59391.277,-133124.84,-42145.387,-45089.03,-47376.426
1314722.9871971814,-84890.83,-113434.29,-45344.32,-59373.17,-133100.34,-42126.668,-45065.145,-47346.68
1314722.9911971772,-84874.23,-113420.05,-45331.707,-59356.855,-133082.94,-42109.01,-45045.125,-47315.227
1314722.9951971732,-84889.81,-113434.984,-45336.59,-59364.91,-133094.77,-42118.9,-45061.81,-47339.03
1314722.999197169,-84911.74,-113455.94,-45357.016,-59385.906,-133123.12,-42142.62,-45093.305,-47382.938
1314723.0031971647,-84916.016,-113460.33,-45366.58,-59393.477,-133127.81,-42150.516,-45103.438,-47399.945
1314723.0071971607,-84895.1,-113440.68,-45347.21,-59375.285,-133106.28,-42131.43,-45076.66,-47364.42
1314723.0111971565,-84873.74,-113420.66,-45330.242,-59358.887,-133084.8,-42112.918,-45053.996,-47334.8
1314723.0151971525,-84887.49,-113430.46,-45338.83,-59364.953,-133084.39,-42118.004,-45065.066,-47347.453
1314723.0191971483,-84913.49,-113453.74,-45360.395,-59385.824,-133108.03,-42138.918,-45095.094,-47379.11
1314723.0231971443,-84923.016,-113461.06,-45371.055,-59394.41,-133118.05,-42147.098,-45102.867,-47386.598
1314723.02719714,-84897.42,-113433.48,-45352.867,-59376.344,-133098.64,-42130.7,-45081.586,-47369.223
1314723.031197136,-84881.88,-113413.05,-45332.887,-59359.01,-133079.31,-42114.746,-45067.14,-47351.402
1314723.0351971318,-84900.59,-113430.42,-45346.723,-59368.29,-133086.44,-42125.895,-45083.254,-47368.613
1314723.0391971278,-84932.09,-113457.195,-45372.03,-59389.61,-133112.23,-42142.703,-45106.527,-47393.758
1314723.0431971236,-84944.336,-113465.945,-45380.25,-59399.17,-133122.64,-42144.816,-45109.703,-47398.195
