timestamp,Fp1,Fp2,F3,Fz,F4,Cz,Pz,Oz
1315417.082480514,-83133.47,-100884.52,-78386.805,-41976.156,-117970.09,-37098.758,-56029.83,-38981.49
1315417.08648051,-83111.62,-100861.58,-78359.74,-41968.832,-117941.33,-37090.047,-56005.94,-38959.23
1315417.0904805057,-83037.4,-100786.99,-78286.7,-41924.4,-117882.41,-37053.836,-55945.07,-38894.938
1315417.0944805017,-83020.8,-100767.945,-78271.28,-41909.832,-117871.46,-37040.12,-55923.22,-38876.547
1315417.0984804975,-83078.86,-100827.03,-78324.14,-41943.32,-117921.35,-37067.75,-55972.78,-38936.77
1315417.1024804935,-83129.48,-100879.234,-78376.75,-41978.64,-117966.68,-37096.926,-56015.18,-38986.41
1315417.1064804893,-83105.47,-100853.31,-78358.93,-41969.77,-117939.3,-37088.95,-55991.984,-38957.766
1315417.1104804853,-83039.47,-100789.31,-78292.85,-41928.14,-117873.984,-37052.37,-55936.363,-38894.816
1315417.114480481,-83026.57,-100773.64,-78278.69,-41916.14,-117858.766,-37043.094,-55925.863,-38890.91
1315417.1184804768,-83087.65,-100835.33,-78335.53,-41946.492,-117916.43,-37072.633,-55972.375,-38942.832
1315417.1224804728,-83142.58,-100892.7,-78385.13,-41984.254,-117972.25,-37103.395,-56015.137,-38989.383
1315417.1264804685,-83117.15,-100869.836,-78360.27,-41976.402,-117945.31,-37093.668,-55996.055,-38980.062
1315417.1304804645,-83047.53,-100800.42,-78300.336,-41932.13,-117871.09,-37052.86,-55932.617,-38908.406
1315417.1344804603,-83029.664,-100777.43,-78278.484,-41913.492,-117851.41,-37035.484,-55910.08,-38885.38
1315417.1384804563,-83083.74,-100827.6,-78331.18,-41945.56,-117913.375,-37062.137,-55947.31,-38933.594
1315417.142480452,-83134.36,-100877.36,-78379.64,-41980.227,-117962.734,-37091.105,-55985.8,-38987.59
1315417.146480448,-83111.9,-100856.49,-78359.42,-41971.76,-117938.32,-37081.543,-55960.734,-38951.906
1315417.1504804438,-83041.914,-100788.21,-78293.13,-41928.957,-117871.016,-37043.742,-55902.63,-38872.887
1315417.1544804396,-83021.53,-100772.42,-78271.2,-41914.957,-117853.03,-37032.066,-55891.074,-38857.79
1315417.1584804356,-83077.48,-100835.25,-78323.61,-41950.277,-117909.836,-37061.24,-55946.086,-38929.934
1315417.1624804314,-83131.35,-100890.586,-78375.695,-41986.656,-117964.44,-37093.344,-55994.062,-38987.996
1315417.1664804274,-83110.234,-100867.92,-78357.875,-41978.395,-117932.945,-37087.85,-55975.71,-38965.617
1315417.1704804231,-83044.4,-100796.266,-78292.195,-41936.44,-117862.76,-37050.336,-55915.734,-38887.168
1315417.1744804191,-83022.22,-100774.01,-78267.21,-41915.0,-117850.43,-37032.023,-55892.62,-38868.246
1315417.178480415,-83076.87,-100831.42,-78318.16,-41944.99,-117910.69,-37058.51,-55934.652,-38920.98
1315417.182480411,-83132.49,-100888.8,-78378.46,-41983.727,-117959.88,-37091.023,-55975.305,-38966.758
1315417.1864804067,-83105.836,-100870.85,-78354.945,-41978.07,-117938.89,-37083.414,-55948.57,-38938.03
1315417.1904804024,-83033.53,-100802.29,-78285.65,-41935.793,-117867.6,-37043.05,-55883.832,-38862.55
1315417.1944803984,-83016.03,-100783.29,-78267.78,-41917.684,-117848.27,-37030.273,-55863.16,-38850.344
1315417.1984803942,-83070.516,-100831.95,-78315.88,-41944.46,-117899.21,-37057.254,-55907.637,-38908.45
1315417.2024803902,-83122.03,-100880.984,-78367.555,-41977.785,-117950.41,-37086.793,-55951.99,-38957.113
1315417.206480386,-83090.13,-100851.97,-78341.43,-41964.684,-117916.55,-37077.72,-55933.188,-38930.38
1315417.210480382,-83014.734,-100772.51,-78272.664,-41920.656,-117839.52,-37040.652,-55878.34,-38875.816
1315417.2144803777,-83001.18,-100752.73,-78254.56,-41904.258,-117815.96,-37021.484,-55861.004,-38852.01
1315417.2184803737,-83052.94,-100807.26,-78300.78,-41934.57,-117871.14,-37048.34,-55904.016,-38906.047
1315417.2224803695,-83106.77,-100861.086,-78356.734,-41973.51,-117941.45,-37080.895,-55945.273,-38944.664
1315417.2264803653,-83087.28,-100841.88,-78341.15,-41967.816,-117917.52,-37076.297,-55928.508,-38915.406
1315417.2304803613,-83016.766,-100772.87,-78271.81,-41925.133,-117845.75,-37042.523,-55877.566,-38871.746
1315417.234480357,-82999.19,-100757.77,-78249.76,-41905.887,-117825.93,-37024.82,-55866.945,-38866.58
1315417.238480353,-83056.12,-100815.27,-78305.75,-41935.996,-117882.94,-37053.266,-55918.945,-38917.195
1315417.2424803488,-83111.94,-100865.64,-78362.39,-41972.535,-117935.1,-37083.824,-55964.52,-38960.125
1315417.2464803448,-83090.45,-100838.99,-78339.805,-41963.176,-117906.54,-37074.137,-55943.035,-38930.91
1315417.2504803406,-83018.96,-100764.65,-78268.11,-41918.297,-117839.32,-37031.293,-55890.098,-38865.52
1315417.2544803366,-82995.98,-100743.05,-78247.56,-41899.17,-117824.38,-37011.355,-55880.617,-38840.496
1315417.2584803323,-83047.65,-100802.05,-78297.125,-41928.062,-117881.35,-37035.973,-55932.414,-38892.58
1315417.262480328,-83098.15,-100852.625,-78347.54,-41962.28,-117937.664,-37065.715,-55975.793,-38943.81
1315417.266480324,-83068.61,-100826.91,-78324.75,-41955.445,-117913.17,-37061.32,-55953.82,-38916.668
1315417.2704803199,-82993.98,-100753.99,-78253.13,-41913.004,-117832.4,-37026.816,-55897.22,-38855.023
1315417.2744803159,-82971.36,-100733.484,-78228.766,-41894.574,-117813.805,-37007.527,-55875.125,-38829.227
1315417.2784803116,-83027.1,-100791.38,-78281.414,-41926.15,-117869.51,-37031.008,-55922.57,-38877.973
1315417.2824803076,-83085.33,-100852.91,-78342.66,-41964.76,-117917.65,-37062.258,-55971.723,-38936.035
1315417.2864803034,-83066.45,-100834.07,-78324.34,-41958.457,-117900.88,-37057.375,-55949.668,-38907.39
1315417.2904802994,-82996.75,-100761.36,-78254.84,-41913.902,-117826.42,-37022.42,-55894.453,-38854.047
1315417.2944802952,-82968.55,-100736.66,-78221.805,-41893.758,-117818.65,-37006.715,-55873.13,-38837.08
1315417.2984802912,-83016.44,-100783.45,-78276.164,-41920.41,-117868.49,-37030.19,-55914.55,-38883.06
1315417.302480287,-83071.9,-100837.53,-78334.234,-41955.73,-117911.34,-37060.508,-55962.402,-38948.977
1315417.3064802827,-83059.086,-100825.97,-78313.27,-41948.773,-117894.29,-37055.79,-55946.008,-38927.29
1315417.3104802787,-82988.164,-100755.25,-78249.15,-41907.594,-117835.695,-37017.17,-55884.117,-38839.805
1315417.3144802745,-82966.555,-100735.97,-78232.47,-41890.42,-117808.07,-37001.59,-55868.695,-38822.023
1315417.3184802704,-83029.625,-100796.39,-78283.734,-41921.918,-117857.51,-37030.316,-55917.93,-38890.26
1315417.3224802662,-83088.38,-100849.25,-78336.23,-41958.902,-117907.39,-37062.176,-55964.844,-38947.918
1315417.3264802622,-83066.53,-100836.67,-78319.13,-41953.574,-117894.58,-37058.066,-55953.695,-38930.094
1315417.330480258,-82993.125,-100762.01,-78250.37,-41907.105,-117831.14,-37017.66,-55891.36,-38847.13
1315417.334480254,-82977.87,-100741.74,-78230.875,-41885.094,-117791.016,-37002.848,-55880.008,-38840.496
1315417.3384802497,-83024.945,-100787.56,-78274.82,-41914.918,-117856.734,-37030.887,-55931.03,-38901.125
1315417.3424802455,-83080.85,-100846.52,-78330.81,-41955.445,-117924.52,-37062.055,-55980.594,-38956.586
1315417.3464802415,-83063.07,-100835.33,-78319.79,-41953.695,-117901.78,-37059.773,-55964.64,-38941.164
1315417.3504802373,-83000.41,-100777.59,-78258.016,-41913.414,-117837.0,-37025.72,-55903.117,-38862.508
1315417.3544802333,-82990.97,-100759.65,-78236.45,-41895.633,-117811.77,-37007.73,-55884.074,-38841.434
1315417.358480229,-83028.85,-100798.914,-78278.98,-41922.934,-117860.516,-37036.418,-55940.715,-38911.62
1315417.362480225,-83070.97,-100846.56,-78327.195,-41956.668,-117916.14,-37065.594,-55989.34,-38970.99
1315417.3664802208,-83057.984,-100840.25,-78317.99,-41951.133,-117897.22,-37058.72,-55970.746,-38938.316
1315417.3704802168,-82988.484,-100776.77,-78249.96,-41909.383,-117836.96,-37023.684,-55915.45,-38873.58
1315417.3744802126,-82950.89,-100738.98,-78219.85,-41886.965,-117817.43,-37006.266,-55902.062,-38858.684
1315417.3784802083,-83014.484,-100797.37,-78272.34,-41916.14,-117869.51,-37031.414,-55948.242,-38907.227
1315417.3824802043,-83067.67,-100851.41,-78324.586,-41952.477,-117915.49,-37069.254,-56003.38,-38964.723
1315417.3864802,-83034.55,-100819.54,-78299.69,-41946.37,-117908.57,-37065.918,-55983.848,-38933.15
1315417.390480196,-82963.42,-100742.39,-78231.37,-41901.9,-117835.29,-37029.703,-55922.812,-38856.242
1315417.3944801919,-82938.88,-100717.45,-78204.1,-41879.19,-117807.945,-37010.17,-55900.473,-38832.887
1315417.3984801879,-82999.11,-100775.92,-78256.92,-41910.156,-117859.336,-37037.844,-55946.86,-38885.38
1315417.4024801836,-83059.37,-100833.58,-78314.336,-41948.69,-117911.34,-37068.973,-55998.863,-38943.848
1315417.4064801796,-83046.555,-100817.1,-78298.99,-41941.164,-117883.71,-37065.023,-55983.48,-38920.168
1315417.4104801754,-82972.86,-100743.49,-78228.35,-41897.258,-117825.28,-37028.65,-55928.43,-38853.598
1315417.4144801712,-82940.92,-100712.94,-78196.21,-41873.293,-117807.26,-37010.5,-55909.59,-38833.824
1315417.4184801672,-82994.914,-100766.12,-78248.86,-41905.4,-117853.11,-37039.062,-55956.625,-38877.645
1315417.422480163,-83057.17,-100828.414,-78307.664,-41945.598,-117907.76,-37073.04,-56009.93,-38920.41
1315417.426480159,-83032.31,-100807.05,-78294.31,-41942.71,-117900.35,-37070.477,-55998.7,-38898.234
1315417.4304801547,-82957.805,-100736.375,-78223.555,-41899.21,-117832.97,-37033.12,-55945.8,-38833.54
1315417.4344801507,-82932.5,-100712.57,-78199.71,-41877.81,-117800.336,-37012.37,-55927.574,-38801.35
1315417.4384801465,-82987.305,-100766.445,-78250.2,-41907.31,-117851.32,-37038.13,-55967.652,-38854.047
1315417.4424801425,-83048.34,-100827.88,-78304.12,-41946.414,-117909.63,-37069.95,-56012.207,-38906.293
1315417.4464801382,-83033.53,-100813.36,-78288.29,-41943.402,-117890.06,-37066.082,-56004.6,-38895.957
1315417.450480134,-82967.9,-100743.78,-78222.66,-41901.41,-117818.04,-37030.477,-55950.97,-38830.527
1315417.45448013,-82948.0,-100718.43,-78204.23,-41880.94,-117787.56,-37009.44,-55929.04,-38810.63
1315417.4584801258,-82988.85,-100765.38,-78244.914,-41907.51,-117849.94,-37036.62,-55968.47,-38855.47
1315417.4624801218,-83053.47,-100837.98,-78304.89,-41950.24,-117908.414,-37074.75,-56023.4,-38919.56
1315417.4664801175,-83033.53,-100816.2,-78290.33,-41946.453,-117887.01,-37070.68,-56011.027,-38898.805
1315417.4704801135,-82960.25,-100741.62,-78216.63,-41904.582,-117837.2,-37028.85,-55954.1,-38821.453
1315417.4744801093,-82930.79,-100711.43,-78191.695,-41881.473,-117804.94,-37009.44,-55940.84,-38802.33
1315417.4784801053,-82986.66,-100758.55,-78239.664,-41907.633,-117850.266,-37031.21,-55989.465,-38856.65
1315417.482480101,-83037.36,-100807.87,-78300.375,-41942.344,-117902.71,-37062.543,-56034.793,-38906.617
1315417.4864800968,-83017.46,-100796.19,-78285.81,-41939.13,-117887.945,-37060.71,-56022.625,-38894.492
1315417.4904800928,-82934.41,-100721.766,-78211.34,-41893.395,-117817.67,-37023.64,-55969.445,-38832.48
1315417.4944800886,-82901.086,-100684.86,-78181.805,-41867.312,-117784.75,-37003.38,-55946.21,-38797.77
1315417.4984800846,-82941.086,-100724.41,-78228.97,-41893.883,-117828.945,-37026.367,-55990.195,-38854.13
1315417.5024800804,-82990.32,-100778.04,-78287.234,-41932.863,-117881.35,-37060.71,-56040.45,-38913.332
1315417.5064800764,-82972.66,-100758.875,-78275.31,-41929.605,-117855.19,-37060.71,-56034.793,-38905.316
1315417.5104800721,-82893.15,-100683.96,-78199.47,-41887.492,-117805.1,-37024.05,-55978.11,-38835.816
1315417.514480068,-82843.67,-100638.92,-78167.69,-41860.477,-117782.48,-37003.543,-55955.285,-38807.82
1315417.5184800639,-82894.086,-100690.8,-78217.41,-41888.67,-117828.17,-37028.65,-56003.258,-38863.2
1315417.5224800596,-82937.5,-100738.65,-78266.65,-41925.375,-117884.28,-37065.473,-56059.613,-38927.246
1315417.5264800556,-82906.3,-100707.6,-78253.5,-41918.906,-117863.98,-37063.438,-56047.85,-38909.26
1315417.5304800514,-82819.83,-100621.34,-78180.42,-41873.008,-117790.53,-37026.207,-55995.324,-38850.79
1315417.5344800474,-82769.58,-100579.92,-78144.58,-41848.062,-117760.664,-37007.895,-55973.84,-38819.01
1315417.5384800432,-82813.73,-100623.13,-78190.35,-41875.285,-117806.73,-37035.44,-56021.895,-38883.426
1315417.5424800392,-82881.555,-100686.445,-78246.55,-41914.227,-117873.74,-37070.8,-56080.977,-38962.402
1315417.546480035,-82870.24,-100680.99,-78231.65,-41913.13,-117865.484,-37067.02,-56071.086,-38938.438
1315417.550480031,-82801.11,-100618.125,-78164.516,-41869.754,-117794.64,-37030.19,-56011.516,-38865.152
1315417.5544800267,-82776.66,-100595.7,-78144.984,-41849.57,-117769.945,-37007.527,-55983.605,-38832.48
1315417.5584800225,-82842.45,-100660.484,-78198.695,-41880.332,-117813.36,-37033.082,-56031.902,-38893.598
1315417.5624800185,-82903.16,-100720.26,-78250.33,-41919.516,-117891.32,-37068.156,-56077.11,-38941.406
1315417.5664800142,-82898.69,-100714.16,-78238.734,-41914.47,-117874.19,-37066.69,-56061.934,-38918.703
1315417.5704800102,-82832.44,-100650.8,-78179.37,-41871.664,-117805.34,-37031.09,-55996.992,-38834.11
1315417.574480006,-82816.81,-100636.68,-78152.95,-41852.582,-117777.19,-37009.848,-55975.223,-38807.496
1315417.578480002,-82877.16,-100695.93,-78200.97,-41882.285,-117824.586,-37031.13,-56022.42,-38862.957
1315417.5824799978,-82945.31,-100765.016,-78257.24,-41925.336,-117889.98,-37065.88,-56074.87,-38910.645
1315417.5864799938,-82937.42,-100756.11,-78255.86,-41924.805,-117876.19,-37065.836,-56065.84,-38893.473
1315417.5904799895,-82878.586,-100698.57,-78186.36,-41884.605,-117811.164,-37028.117,-56008.547,-38826.703
1315417.5944799853,-82862.71,-100682.01,-78158.734,-41864.707,-117781.87,-37006.105,-55981.0,-38799.195
1315417.5984799813,-82914.92,-100724.37,-78214.56,-41889.363,-117832.805,-37027.67,-56011.72,-38841.227
1315417.602479977,-82984.3,-100785.41,-78278.57,-41929.812,-117894.945,-37059.125,-56055.87,-38899.58
1315417.606479973,-82975.18,-100776.49,-78265.26,-41928.223,-117884.89,-37059.164,-56046.957,-38894.043
1315417.6104799688,-82903.73,-100704.76,-78194.83,-41884.645,-117817.63,-37024.457,-55992.35,-38840.617
1315417.6144799648,-82875.66,-100679.164,-78160.32,-41861.168,-117788.13,-37006.594,-55969.32,-38808.15
1315417.6184799606,-82927.94,-100736.53,-78208.984,-41889.527,-117834.195,-37030.4,-56011.19,-38851.93
1315417.6224799566,-82989.51,-100803.266,-78273.484,-41933.188,-117893.92,-37069.176,-56070.395,-38910.93
1315417.6264799524,-82983.28,-100799.28,-78262.125,-41933.676,-117886.11,-37070.76,-56068.28,-38902.875
1315417.6304799481,-82909.23,-100721.68,-78197.266,-41889.285,-117813.48,-37032.145,-56014.285,-38830.85
1315417.6344799441,-82876.266,-100686.08,-78168.17,-41864.625,-117788.336,-37008.953,-55992.883,-38797.16
1315417.63847994,-82932.375,-100743.29,-78213.914,-41891.52,-117834.11,-37033.246,-56042.2,-38850.383
1315417.642479936,-82997.52,-100810.51,-78272.87,-41932.535,-117898.52,-37067.63,-56101.32,-38915.49
1315417.6464799317,-82993.82,-100803.71,-78264.484,-41929.973,-117888.96,-37067.426,-56094.523,-38905.113
1315417.6504799277,-82928.67,-100741.055,-78195.84,-41885.54,-117830.08,-37029.91,-56034.59,-38831.504
1315417.6544799234,-82901.37,-100714.07,-78168.91,-41864.016,-117803.43,-37009.523,-56006.594,-38809.938
1315417.6584799194,-82951.01,-100758.99,-78231.49,-41894.043,-117845.016,-37028.973,-56038.293,-38854.25
1315417.6624799152,-83016.97,-100822.35,-78288.21,-41939.047,-117910.41,-37062.258,-56088.504,-38917.684
1315417.666479911,-83008.914,-100809.86,-78273.89,-41937.46,-117901.62,-37062.625,-56075.44,-38904.297
1315417.670479907,-82940.63,-100739.51,-78202.48,-41894.492,-117833.13,-37025.066,-56015.06,-38822.918
1315417.6744799027,-82905.27,-100704.15,-78168.58,-41869.63,-117805.016,-37002.24,-55987.875,-38797.895
1315417.6784798987,-82958.336,-100758.79,-78213.75,-41897.625,-117853.44,-37023.64,-56025.84,-38847.086
1315417.6824798945,-83018.555,-100823.04,-78275.59,-41940.39,-117914.8,-37059.9,-56073.57,-38909.26
1315417.6864798905,-83002.28,-100812.22,-78270.914,-41941.895,-117900.72,-37061.484,-56059.45,-38891.562
1315417.6904798863,-82933.35,-100738.164,-78201.13,-41896.73,-117829.39,-37023.6,-55997.48,-38822.062
1315417.6944798823,-82909.1,-100712.12,-78174.6,-41873.535,-117802.58,-37001.832,-55968.47,-38796.47
1315417.698479878,-82958.46,-100756.88,-78223.31,-41899.617,-117843.06,-37024.496,-56008.06,-38841.023
1315417.7024798738,-83022.38,-100819.54,-78282.35,-41941.367,-117907.8,-37060.426,-56055.258,-38894.168
1315417.7064798698,-83018.84,-100821.62,-78276.25,-41945.19,-117903.08,-37062.258,-56039.715,-38879.56
1315417.7104798655,-82953.984,-100758.38,-78201.54,-41907.105,-117845.7,-37026.613,-55971.355,-38813.64
1315417.7144798615,-82922.33,-100726.36,-78170.53,-41879.598,-117808.805,-36999.84,-55940.023,-38783.45
1315417.7184798573,-82970.336,-100771.125,-78216.43,-41904.094,-117855.76,-37018.312,-55975.18,-38826.58
1315417.7224798533,-83029.95,-100826.336,-78280.84,-41945.395,-117912.52,-37050.336,-56022.18,-38890.625
1315417.726479849,-83015.914,-100815.23,-78275.15,-41944.867,-117900.76,-37051.758,-56011.19,-38880.984
1315417.730479845,-82942.18,-100739.914,-78207.44,-41902.547,-117828.86,-37019.246,-55949.26,-38816.977
1315417.7344798408,-82913.375,-100707.484,-78165.57,-41875.203,-117794.805,-37002.484,-55920.86,-38790.61
1315417.7384798368,-82961.836,-100759.445,-78212.61,-41902.914,-117839.6,-37024.13,-55949.79,-38836.02
1315417.7424798326,-83028.93,-100824.016,-78272.586,-41946.453,-117893.6,-37056.926,-55994.14,-38892.906
1315417.7464798284,-83025.59,-100821.29,-78266.69,-41951.05,-117888.63,-37057.945,-55987.023,-38894.9
1315417.7504798244,-82940.63,-100742.88,-78206.55,-41905.07,-117821.21,-37020.836,-55914.39,-38813.152
1315417.7544798201,-82909.75,-100707.93,-78170.734,-41876.06,-117779.83,-36996.625,-55875.082,-38781.863
1315417.7584798161,-82963.5,-100757.695,-78214.84,-41901.285,-117827.31,-37014.977,-55912.76,-38824.668
1315417.762479812,-83029.18,-100820.234,-78277.34,-41943.44,-117891.195,-37050.62,-55967.004,-38883.016
1315417.766479808,-83018.07,-100813.73,-78269.414,-41944.54,-117880.336,-37054.363,-55962.324,-38876.547
1315417.7704798037,-82943.81,-100743.414,-78199.83,-41899.7,-117812.95,-37018.473,-55901.043,-38819.867
1315417.7744797997,-82907.516,-100708.3,-78165.33,-41872.355,-117780.07,-36995.605,-55865.6,-38793.17
1315417.7784797954,-82960.37,-100761.07,-78207.44,-41900.188,-117829.92,-37016.97,-55899.54,-38840.82
1315417.7824797912,-83029.664,-100823.33,-78274.414,-41943.562,-117890.99,-37051.555,-55948.773,-38897.543
1315417.7864797872,-83021.32,-100814.25,-78269.78,-41945.68,-117882.33,-37055.38,-55946.13,-38893.473
1315417.790479783,-82950.12,-100748.5,-78209.19,-41901.652,-117813.12,-37022.055,-55893.8,-38825.727
1315417.794479779,-82914.8,-100710.125,-78174.44,-41872.844,-117783.9,-36996.176,-55866.293,-38793.906
1315417.7984797747,-82957.234,-100749.27,-78212.94,-41895.59,-117834.4,-37014.0,-55907.15,-38852.176
1315417.8024797707,-83024.58,-100818.445,-78275.44,-41938.52,-117884.93,-37047.934,-55960.574,-38910.523
1315417.8064797665,-83018.48,-100813.36,-78270.23,-41943.562,-117880.13,-37046.754,-55952.92,-38895.914
1315417.8104797625,-82947.02,-100737.71,-78203.29,-41904.137,-117812.26,-37009.523,-55893.19,-38823.242
1315417.8144797583,-82911.74,-100699.99,-78164.76,-41877.89,-117778.98,-36985.11,-55867.312,-38806.926
1315417.818479754,-82953.695,-100746.71,-78207.56,-41901.816,-117824.06,-37002.566,-55906.008,-38847.574
1315417.82247975,-83016.484,-100809.66,-78264.65,-41940.633,-117885.22,-37037.76,-55954.55,-38897.055
1315417.8264797458,-83012.21,-100806.805,-78264.125,-41945.07,-117883.14,-37044.35,-55949.26,-38887.37
1315417.8304797418,-82939.945,-100740.93,-78196.49,-41906.496,-117812.055,-37010.867,-55901.207,-38839.07
1315417.8344797376,-82908.57,-100709.31,-78156.45,-41878.133,-117775.64,-36985.637,-55879.438,-38816.082
1315417.8384797336,-82953.53,-100751.914,-78205.89,-41902.344,-117822.02,-37003.664,-55912.52,-38852.703
1315417.8424797293,-83019.01,-100815.39,-78274.78,-41945.72,-117881.836,-37040.164,-55963.91,-38906.496
1315417.8464797253,-83011.44,-100806.56,-78272.18,-41948.61,-117877.69,-37043.133,-55960.41,-38887.047
1315417.850479721,-82941.37,-100737.02,-78203.17,-41907.023,-117810.06,-37006.797,-55901.734,-38813.316
1315417.8544797169,-82905.4,-100704.72,-78161.586,-41878.297,-117774.414,-36983.4,-55870.934,-38793.66
1315417.8584797129,-82955.94,-100749.555,-78209.15,-41900.72,-117819.664,-37004.76,-55906.25,-38840.7
1315417.8624797086,-83021.08,-100810.305,-78276.25,-41942.223,-117882.37,-37041.26,-55957.805,-38900.92
1315417.8664797046,-83012.29,-100804.94,-78267.09,-41948.367,-117878.79,-37046.023,-55958.254,-38900.88
1315417.8704797004,-82946.125,-100741.74,-78190.15,-41907.023,-117816.57,-37012.9,-55906.78,-38839.805
1315417.8744796964,-82900.27,-100697.43,-78167.56,-41878.094,-117778.37,-36989.83,-55878.258,-38816.406
1315417.8784796922,-82942.586,-100738.28,-78211.914,-41899.293,-117816.86,-37007.61,-55915.367,-38853.72
1315417.8824796882,-83007.086,-100807.17,-78269.9,-41939.984,-117882.25,-37042.562,-55973.84,-38910.035
1315417.886479684,-83000.61,-100806.28,-78264.33,-41943.2,-117884.0,-37047.61,-55972.78,-38901.734
1315417.8904796797,-82924.766,-100733.73,-78197.19,-41897.91,-117812.14,-37011.598,-55911.34,-38821.695
1315417.8944796757,-82886.234,-100693.69,-78155.32,-41868.53,-117778.53,-36984.742,-55877.16,-38775.758
1315417.8984796715,-82933.27,-100736.125,-78198.98,-41890.016,-117818.57,-37007.367,-55925.375,-38861.453
1315417.9024796674,-82999.02,-100801.48,-78264.734,-41933.23,-117881.59,-37044.312,-55992.598,-38932.742
1315417.9064796632,-82995.164,-100798.79,-78263.39,-41944.01,-117881.19,-37052.043,-55997.56,-38913.656
1315417.9104796592,-82927.49,-100730.43,-78195.48,-41901.207,-117812.38,-37018.598,-55942.832,-38839.316
1315417.914479655,-82893.92,-100696.01,-78158.86,-41872.805,-117772.1,-36993.41,-55909.344,-38803.387
1315417.918479651,-82945.195,-100744.875,-78198.734,-41896.2,-117813.195,-37013.31,-55946.7,-38855.348
1315417.9224796467,-82999.96,-100792.52,-78254.97,-41933.434,-117866.7,-37051.23,-56006.758,-38919.35
1315417.9264796425,-82987.67,-100787.195,-78255.49,-41937.543,-117865.16,-37054.605,-56007.977,-38908.45
1315417.9304796385,-82925.87,-100730.836,-78187.18,-41899.66,-117806.195,-37021.527,-55951.99,-38847.617
1315417.9344796343,-82888.836,-100691.37,-78152.14,-41869.223,-117759.08,-36995.2,-55916.75,-38805.3
1315417.9384796303,-82939.86,-100740.12,-78194.336,-41893.473,-117802.49,-37011.477,-55950.195,-38841.023
1315417.942479626,-83014.37,-100811.484,-78261.805,-41940.39,-117868.49,-37046.145,-55999.434,-38893.72
1315417.946479622,-83004.03,-100803.836,-78257.94,-41949.42,-117867.805,-37052.574,-55997.234,-38880.777
1315417.9504796178,-82936.69,-100732.06,-78194.87,-41906.94,-117797.695,-37021.242,-55948.977,-38821.656
1315417.9544796138,-82896.53,-100689.09,-78155.766,-41874.35,-117754.68,-36994.387,-55918.418,-38784.914
1315417.9584796096,-82939.62,-100733.32,-78198.94,-41897.867,-117794.234,-37013.145,-55948.73,-38831.016
1315417.9624796053,-83014.9,-100806.97,-78261.805,-41943.035,-117866.375,-37046.67,-55993.53,-38892.824
1315417.9664796013,-83012.82,-100803.51,-78256.43,-41947.266,-117869.8,-37049.684,-55995.812,-38886.11
1315417.970479597,-82942.1,-100735.4,-78192.67,-41905.56,-117800.78,-37014.445,-55943.484,-38816.0
1315417.974479593,-82904.664,-100700.04,-78155.68,-41874.676,-117760.79,-36988.363,-55913.008,-38786.094
1315417.9784795889,-82948.445,-100743.086,-78195.07,-41895.387,-117801.805,-37004.76,-55953.168,-38830.527
1315417.9824795849,-83017.414,-100808.39,-78263.266,-41940.594,-117869.14,-37042.727,-56011.965,-38895.47
1315417.9864795806,-83019.29,-100810.1,-78265.42,-41948.242,-117867.15,-37047.77,-56006.27,-38878.824
1315417.9904795766,-82949.14,-100736.58,-78194.79,-41907.227,-117800.99,-37012.613,-55943.035,-38809.695
1315417.9944795724,-82912.48,-100698.65,-78156.414,-41878.01,-117762.82,-36988.12,-55911.703,-38774.254
1315417.9984795682,-82951.91,-100741.26,-78194.664,-41896.77,-117797.94,-37005.453,-55946.82,-38825.24
1315418.0024795642,-83014.85,-100802.66,-78261.805,-41936.605,-117857.14,-37041.547,-56000.207,-38896.16
1315418.00647956,-83011.84,-100804.2,-78259.484,-41945.844,-117860.234,-37049.03,-55997.684,-38875.773
1315418.010479556,-82937.99,-100733.195,-78192.18,-41903.566,-117793.26,-37014.895,-55936.035,-38798.34
1315418.0144795517,-82890.18,-100686.52,-78148.766,-41870.605,-117749.19,-36989.42,-55902.754,-38773.234
1315418.0184795477,-82936.2,-100728.72,-78186.24,-41891.887,-117788.414,-37006.836,-55939.25,-38818.156
1315418.0224795435,-83006.47,-100799.805,-78250.49,-41933.797,-117853.805,-37042.523,-55995.16,-38884.32
1315418.0264795395,-83008.34,-100809.37,-78255.78,-41942.586,-117861.695,-37045.41,-55994.426,-38879.03
1315418.0304795352,-82937.91,-100741.83,-78192.305,-41903.08,-117792.93,-37009.195,-55932.66,-38804.688
1315418.034479531,-82893.805,-100696.78,-78143.44,-41871.22,-117752.73,-36983.93,-55897.22,-38775.105
1315418.038479527,-82933.76,-100737.43,-78185.875,-41893.637,-117788.82,-37004.03,-55935.793,-38812.01
1315418.0424795228,-83002.81,-100804.0,-78250.695,-41935.793,-117851.56,-37039.88,-55993.938,-38876.914
1315418.0464795188,-83004.6,-100804.98,-78254.97,-41941.203,-117851.69,-37044.68,-55995.117,-38872.56
1315418.0504795145,-82937.46,-100737.47,-78188.97,-41901.082,-117784.305,-37012.25,-55941.734,-38804.363
1315418.0544795105,-82895.34,-100692.18,-78145.47,-41869.387,-117745.65,-36983.6,-55909.668,-38767.496
1315418.0584795063,-82935.836,-100726.766,-78182.336,-41890.75,-117781.46,-36999.96,-55947.43,-38810.508
1315418.0624795023,-82999.07,-100789.555,-78249.88,-41931.844,-117839.28,-37037.19,-56001.75,-38863.484
1315418.066479498,-83000.86,-100791.71,-78255.336,-41941.45,-117841.35,-37047.363,-56003.38,-38867.637
1315418.0704794938,-82931.16,-100718.06,-78184.37,-41902.344,-117779.09,-37012.168,-55951.824,-38804.484
1315418.0744794898,-82885.5,-100663.54,-78145.19,-41867.066,-117732.305,-36982.91,-55920.168,-38767.215
1315418.0784794856,-82929.08,-100705.81,-78186.32,-41886.07,-117770.59,-37005.453,-55960.043,-38815.348
1315418.0824794816,-82998.54,-100778.164,-78248.17,-41931.195,-117838.38,-37046.875,-56025.066,-38875.773
1315418.0864794774,-83001.06,-100781.13,-78251.586,-41939.13,-117845.914,-37056.805,-56026.855,-38874.758
1315418.0904794734,-82932.5,-100713.18,-78183.48,-41896.402,-117777.1,-37020.1,-55969.445,-38808.188
1315418.0944794691,-82888.02,-100673.99,-78138.92,-41864.46,-117739.51,-36985.637,-55928.918,-38766.766
1315418.098479465,-82934.125,-100721.6,-78180.42,-41888.836,-117780.12,-37001.996,-55965.54,-38808.23
1315418.1024794609,-83001.875,-100793.945,-78243.086,-41932.7,-117844.164,-37044.68,-56027.305,-38880.496
1315418.1064794566,-83000.695,-100794.68,-78252.85,-41944.95,-117844.94,-37057.047,-56034.387,-38877.81
1315418.1104794526,-82932.3,-100723.02,-78188.6,-41905.07,-117784.39,-37020.836,-55980.715,-38809.49
1315418.1144794484,-82892.91,-100679.08,-78141.36,-41870.81,-117736.29,-36989.992,-55950.035,-38772.3
1315418.1184794444,-82930.26,-100716.19,-78173.625,-41888.67,-117777.8,-37005.777,-55985.15,-38810.14
1315418.1224794402,-82993.37,-100778.98,-78234.54,-41927.33,-117840.46,-37040.895,-56041.344,-38869.914
1315418.1264794362,-82995.445,-100781.375,-78239.055,-41937.094,-117846.89,-37046.51,-56044.07,-38869.184
1315418.130479432,-82925.21,-100711.96,-78174.484,-41897.46,-117784.8,-37014.527,-55988.934,-38806.277
1315418.134479428,-82884.28,-100672.08,-78136.64,-41865.4,-117745.24,-36989.22,-55951.5,-38763.1
1315418.1384794237,-82927.125,-100717.66,-78176.39,-41887.9,-117782.64,-37007.61,-55986.9,-38809.125
1315418.1424794195,-82996.09,-100786.46,-78242.72,-41932.945,-117850.14,-37042.117,-56044.64,-38873.902
1315418.1464794155,-82997.84,-100788.82,-78246.55,-41942.63,-117859.17,-37049.316,-56051.23,-38877.117
1315418.1504794112,-82931.36,-100722.58,-78180.625,-41902.344,-117789.06,-37014.406,-55997.56,-38809.41
1315418.1544794072,-82891.12,-100677.45,-78136.35,-41868.98,-117744.51,-36985.27,-55959.555,-38755.37
1315418.158479403,-82937.18,-100715.54,-78174.03,-41886.883,-117780.4,-37003.133,-55996.79,-38801.84
1315418.162479399,-83003.38,-100781.21,-78229.49,-41928.754,-117854.54,-37039.836,-56056.805,-38872.64
1315418.1664793948,-83001.79,-100784.875,-78239.55,-41938.19,-117855.76,-37051.15,-56056.48,-38859.824
1315418.1704793908,-82928.914,-100717.125,-78175.945,-41898.074,-117791.18,-37019.53,-56005.008,-38797.28
1315418.1744793865,-82882.77,-100670.25,-78133.06,-41863.812,-117748.17,-36991.21,-55974.895,-38771.12
1315418.1784793825,-82921.47,-100705.53,-78171.06,-41883.06,-117781.46,-37004.844,-56011.965,-38822.918
1315418.1824793783,-82990.28,-100775.15,-78237.02,-41927.246,-117852.016,-37039.266,-56073.45,-38887.453
1315418.186479374,-82994.95,-100781.91,-78244.19,-41939.168,-117857.305,-37049.93,-56085.004,-38880.332
1315418.19047937,-82926.03,-100712.41,-78187.87,-41899.332,-117792.08,-37017.58,-56028.445,-38808.594
1315418.1944793658,-82880.91,-100668.83,-78140.1,-41864.137,-117744.63,-36988.484,-55984.17,-38761.965
1315418.1984793618,-82922.65,-100707.234,-78172.24,-41882.69,-117777.39,-37006.918,-56016.562,-38809.652
1315418.2024793576,-82986.29,-100769.375,-78236.53,-41925.375,-117846.89,-37040.285,-56071.25,-38876.223
1315418.2064793536,-82988.445,-100774.09,-78238.69,-41934.773,-117852.625,-37050.008,-56079.184,-38875.125
1315418.2104793494,-82915.695,-100704.35,-78171.836,-41895.754,-117785.12,-37018.473,-56027.508,-38809.652
1315418.2144793454,-82871.625,-100665.04,-78130.375,-41863.445,-117739.55,-36989.707,-55989.34,-38765.137
1315418.2184793411,-82910.12,-100701.87,-78169.6,-41881.145,-117776.05,-37006.43,-56021.484,-38804.73
1315418.222479337,-82975.836,-100764.77,-78233.4,-41922.85,-117846.64,-37039.633,-56071.086,-38859.01
1315418.226479333,-82984.78,-100774.664,-78242.76,-41935.305,-117847.62,-37047.406,-56075.93,-38856.527
1315418.2304793287,-82915.98,-100708.17,-78178.8,-41896.445,-117778.81,-37015.22,-56020.47,-38791.465
1315418.2344793247,-82869.14,-100658.695,-78125.164,-41859.58,-117731.98,-36984.5,-55982.91,-38746.01
1315418.2384793204,-82902.43,-100688.16,-78157.59,-41876.793,-117776.62,-36998.09,-56013.47,-38783.12
1315418.2424793164,-82967.77,-100752.41,-78223.35,-41917.93,-117836.96,-37031.535,-56074.3,-38853.11
1315418.2464793122,-82972.375,-100759.73,-78228.92,-41928.793,-117837.89,-37042.848,-56086.426,-38851.766
1315418.2504793082,-82902.59,-100693.0,-78163.45,-41890.504,-117775.555,-37012.29,-56036.867,-38781.496
1315418.254479304,-82847.13,-100644.01,-78116.91,-41852.99,-117728.11,-36987.145,-55999.797,-38749.715
1315418.2584792997,-82885.375,-100678.59,-78153.57,-41868.98,-117766.195,-37003.055,-56033.285,-38796.875
1315418.2624792957,-82959.76,-100752.24,-78222.66,-41913.29,-117831.914,-37039.51,-56089.152,-38856.61
1315418.2664792915,-82968.266,-100761.07,-78229.82,-41925.742,-117845.38,-37049.6,-56098.715,-38854.86
1315418.2704792875,-82901.164,-100694.95,-78164.31,-41886.027,-117780.07,-37017.54,-56048.87,-38792.277
1315418.2744792833,-82858.56,-100653.08,-78122.234,-41852.785,-117729.17,-36986.29,-56005.7,-38754.07
1315418.2784792793,-82896.445,-100687.5,-78151.9,-41871.055,-117757.49,-36997.64,-56031.457,-38790.285
1315418.282479275,-82965.375,-100751.59,-78212.98,-41914.715,-117827.84,-37033.45,-56085.9,-38853.477
1315418.286479271,-82971.73,-100763.516,-78218.34,-41927.613,-117846.64,-37047.0,-56093.1,-38861.246
1315418.2904792668,-82901.0,-100692.79,-78163.21,-41886.027,-117771.695,-37014.73,-56036.5,-38798.098
1315418.2944792625,-82858.52,-100646.33,-78116.414,-41853.883,-117722.17,-36986.207,-56003.094,-38752.89
1315418.2984792585,-82889.484,-100679.484,-78143.76,-41870.566,-117774.26,-37002.035,-56033.855,-38774.13
1315418.3024792543,-82958.664,-100750.37,-78209.8,-41913.25,-117832.52,-37041.465,-56098.473,-38856.285
1315418.3064792503,-82972.45,-100764.0,-78219.08,-41926.312,-117838.625,-37051.15,-56104.98,-38875.938
1315418.310479246,-82902.914,-100692.63,-78149.375,-41886.56,-117782.31,-37014.85,-56040.895,-38797.85
1315418.314479242,-82848.63,-100639.0,-78105.02,-41851.645,-117740.56,-36982.26,-55996.176,-38740.36
1315418.3184792378,-82889.57,-100678.914,-78137.86,-41867.84,-117769.21,-36994.59,-56027.426,-38790.367
1315418.3224792338,-82960.37,-100744.06,-78208.91,-41909.426,-117827.36,-37030.07,-56077.395,-38853.027
1315418.3264792296,-82970.016,-100754.73,-78221.516,-41921.875,-117838.83,-37042.277,-56075.36,-38853.844
1315418.3304792254,-82903.93,-100686.73,-78154.3,-41885.418,-117786.7,-37011.07,-56018.312,-38802.86
1315418.3344792214,-82856.9,-100641.56,-78108.766,-41850.75,-117737.8,-36981.977,-55972.902,-38751.832
1315418.3384792171,-82890.79,-100681.07,-78140.67,-41867.434,-117771.85,-36997.273,-55998.7,-38789.227
1315418.3424792131,-82957.32,-100750.29,-78207.73,-41912.516,-117836.76,-37032.918,-56046.836,-38860.758
1315418.346479209,-82966.96,-100760.17,-78217.57,-41924.723,-117845.75,-37042.36,-56046.145,-38863.08
1315418.350479205,-82905.11,-100695.44,-78156.7,-41889.0,-117779.79,-37007.12,-55984.457,-38807.457
1315418.3544792007,-82872.07,-100654.5,-78109.21,-41859.5,-117732.51,-36974.246,-55932.17,-38766.195
1315418.3584791967,-82897.625,-100684.37,-78140.18,-41874.88,-117757.086,-36989.992,-55954.348,-38799.48
1315418.3624791924,-82953.25,-100738.37,-78203.695,-41915.977,-117827.36,-37030.6,-56014.445,-38856.977
1315418.3664791882,-82957.805,-100745.94,-78217.61,-41931.113,-117847.54,-37041.707,-56018.965,-38847.496
1315418.3704791842,-82894.086,-100680.51,-78153.93,-41892.742,-117782.15,-37012.613,-55960.938,-38791.586
1315418.37447918,-82842.45,-100631.43,-78099.33,-41856.04,-117728.68,-36979.98,-55913.94,-38754.926
1315418.378479176,-82873.01,-100666.67,-78125.164,-41869.67,-117763.63,-36992.473,-55937.664,-38787.723
1315418.3824791717,-82943.28,-100739.1,-78194.22,-41912.844,-117827.805,-37026.613,-55990.195,-38845.5
1315418.3864791677,-82952.44,-100749.48,-78208.375,-41927.86,-117835.33,-37033.203,-56001.914,-38852.5
1315418.3904791635,-82884.56,-100684.21,-78144.29,-41889.49,-117772.38,-37004.477,-55953.332,-38794.395
1315418.3944791595,-82840.21,-100634.195,-78096.766,-41853.8,-117721.766,-36976.2,-55912.19,-38750.773
1315418.3984791553,-82867.48,-100661.18,-78127.484,-41868.367,-117767.375,-36986.125,-55931.152,-38770.387
1315418.402479151,-82940.92,-100735.64,-78187.55,-41912.723,-117837.57,-37020.1,-55988.73,-38833.496
1315418.406479147,-82951.22,-100748.87,-78200.445,-41927.246,-117841.84,-37030.52,-56000.816,-38843.63
1315418.4104791428,-82876.18,-100677.25,-78142.17,-41888.023,-117771.61,-36999.188,-55944.703,-38780.887
1315418.4144791388,-82831.016,-100628.79,-78095.13,-41855.387,-117719.85,-36968.75,-55903.81,-38749.676
1315418.4184791346,-82871.14,-100665.49,-78125.86,-41871.055,-117753.5,-36982.137,-55931.562,-38788.94
1315418.4224791306,-82942.51,-100741.91,-78193.24,-41915.082,-117823.164,-37021.08,-55985.19,-38854.047
1315418.4264791263,-82957.44,-100760.625,-78209.27,-41932.047,-117845.914,-37029.664,-55990.4,-38842.203
1315418.4304791223,-82892.3,-100691.29,-78151.33,-41897.34,-117785.93,-37002.44,-55941.043,-38782.188
1315418.434479118,-82842.0,-100644.78,-78100.42,-41861.207,-117736.58,-36973.31,-55901.777,-38746.176
1315418.4384791139,-82875.86,-100672.65,-78127.16,-41876.383,-117771.445,-36983.727,-55928.184,-38793.62
1315418.4424791099,-82944.83,-100737.39,-78195.97,-41920.453,-117830.29,-37021.484,-55985.56,-38871.5
1315418.4464791056,-82959.39,-100750.82,-78208.7,-41934.367,-117839.64,-37034.465,-55995.65,-38875.773
1315418.4504791016,-82889.28,-100683.48,-78145.836,-41892.336,-117783.164,-37001.996,-55942.996,-38804.402
1315418.4544790974,-82836.06,-100634.16,-78100.79,-41857.625,-117732.586,-36973.836,-55905.52,-38759.24
1315418.4584790934,-82872.97,-100669.234,-78130.54,-41874.88,-117759.89,-36985.8,-55933.555,-38796.55
1315418.4624790892,-82948.445,-100737.71,-78197.67,-41918.863,-117826.42,-37022.867,-55989.258,-38865.723
1315418.4664790852,-82962.52,-100755.086,-78210.57,-41932.945,-117842.086,-37034.26,-56000.49,-38878.703
1315418.470479081,-82893.88,-100688.36,-78149.664,-41894.9,-117778.24,-37000.613,-55947.31,-38812.094
1315418.4744790767,-82836.875,-100632.61,-78096.766,-41858.6,-117730.555,-36969.727,-55905.234,-38763.387
1315418.4784790727,-82872.4,-100667.36,-78126.914,-41873.617,-117759.73,-36979.9,-55925.457,-38789.188
1315418.4824790685,-82942.14,-100743.86,-78192.51,-41918.99,-117826.99,-37017.66,-55979.902,-38856.285
1315418.4864790644,-82955.65,-100762.9,-78212.37,-41936.566,-117840.984,-37033.49,-55994.266,-38870.688
1315418.4904790602,-82893.35,-100699.95,-78149.62,-41899.254,-117786.55,-37001.63,-55939.7,-38798.137
1315418.4944790562,-82837.0,-100638.19,-78100.016,-41861.86,-117735.44,-36970.867,-55893.312,-38743.164
1315418.498479052,-82874.96,-100669.03,-78135.83,-41875.855,-117754.73,-36986.246,-55926.8,-38783.855
1315418.502479048,-82939.13,-100738.2,-78199.22,-41921.47,-117840.62,-37021.688,-55981.285,-38842.45
1315418.5064790437,-82952.07,-100756.59,-78215.336,-41936.973,-117853.31,-37033.734,-55990.6,-38853.19
1315418.5104790395,-82894.414,-100702.88,-78146.57,-41900.15,-117791.875,-37006.31,-55942.547,-38799.52
1315418.5144790355,-82838.09,-100653.94,-78097.58,-41865.887,-117736.86,-36978.11,-55900.27,-38754.56
1315418.5184790313,-82868.734,-100683.44,-78128.38,-41881.188,-117762.17,-36987.47,-55927.29,-38777.184
1315418.5224790273,-82941.98,-100752.24,-78189.17,-41921.1,-117831.83,-37025.105,-55989.668,-38852.824
1315418.526479023,-82956.46,-100765.016,-78209.48,-41934.695,-117847.336,-37038.453,-56003.055,-38873.617
1315418.530479019,-82894.984,-100704.02,-78151.82,-41899.457,-117786.586,-37006.96,-55948.938,-38805.016
1315418.5344790148,-82841.35,-100652.23,-78107.14,-41864.176,-117731.29,-36977.906,-55901.246,-38758.426
1315418.5384790108,-82874.48,-100680.71,-78131.23,-41877.117,-117760.5,-36986.574,-55920.13,-38791.465
1315418.5424790066,-82938.4,-100739.26,-78198.85,-41919.15,-117832.24,-37023.48,-55973.43,-38851.074
1315418.5464790023,-82954.67,-100760.22,-78213.99,-41938.52,-117843.51,-37040.445,-55993.652,-38878.582
1315418.5504789983,-82890.71,-100700.4,-78152.836,-41905.19,-117782.96,-37013.43,-55941.45,-38817.71
1315418.554478994,-82836.02,-100647.664,-78103.27,-41870.08,-117734.83,-36979.086,-55894.74,-38764.0
1315418.55847899,-82874.59,-100679.41,-78131.19,-41880.617,-117763.43,-36989.504,-55916.465,-38796.023
1315418.5624789859,-82948.445,-100752.24,-78194.016,-41923.3,-117827.68,-37022.992,-55970.703,-38856.285
1315418.5664789819,-82948.24,-100758.79,-78205.37,-41938.355,-117842.45,-37036.418,-55981.285,-38848.062
1315418.5704789776,-82874.27,-100689.984,-78143.31,-41900.594,-117779.18,-37007.49,-55928.47,-38778.89
1315418.5744789736,-82824.266,-100637.58,-78100.75,-41863.65,-117721.93,-36977.38,-55882.164,-38740.6
1315418.5784789694,-82854.05,-100664.96,-78123.375,-41877.566,-117757.77,-36986.98,-55906.293,-38784.223
1315418.5824789652,-82921.836,-100735.44,-78189.375,-41919.23,-117827.6,-37027.344,-55965.496,-38853.516
1315418.5864789612,-82938.44,-100755.58,-78208.5,-41934.9,-117842.29,-37046.67,-55983.562,-38870.934
1315418.590478957,-82874.96,-100688.32,-78153.57,-41899.254,-117778.81,-37013.51,-55930.83,-38801.23
1315418.594478953,-82821.86,-100632.57,-78099.53,-41858.156,-117720.55,-36978.434,-55886.64,-38742.92
1315418.5984789487,-82852.336,-100661.26,-78123.86,-41868.492,-117749.88,-36990.438,-55913.74,-38775.516
1315418.6024789447,-82919.64,-100727.016,-78186.04,-41912.883,-117821.91,-37027.47,-55973.31,-38850.914
1315418.6064789405,-82935.63,-100747.4,-78200.56,-41932.17,-117843.75,-37042.156,-55989.258,-38864.016
1315418.6104789365,-82865.195,-100675.945,-78147.3,-41896.28,-117776.125,-37012.613,-55938.195,-38799.723
1315418.6144789322,-82814.45,-100622.805,-78096.84,-41860.19,-117719.98,-36983.727,-55895.59,-38751.71
1315418.6184789282,-82843.71,-100654.46,-78121.87,-41871.625,-117756.76,-36994.184,-55914.27,-38782.96
1315418.622478924,-82912.6,-100720.87,-78189.945,-41913.86,-117819.13,-37029.42,-55965.863,-38839.97
1315418.6264789198,-82931.97,-100742.555,-78204.8,-41930.543,-117835.66,-37042.32,-55980.715,-38854.086
1315418.6304789158,-82873.01,-100683.48,-78142.74,-41895.387,-117776.05,-37012.168,-55937.34,-38802.29
1315418.6344789115,-82818.56,-100626.1,-78090.09,-41857.87,-117723.23,-36978.72,-55897.137,-38750.773
1315418.6384789075,-82848.96,-100658.41,-78127.0,-41876.1,-117752.32,-36991.254,-55927.004,-38770.996
1315418.6424789033,-82920.125,-100733.93,-78193.24,-41917.035,-117817.266,-37027.06,-55989.3,-38841.715
1315418.6464788993,-82942.1,-100757.734,-78211.51,-41938.316,-117840.87,-37040.57,-56004.438,-38862.184
1315418.650478895,-82884.6,-100697.43,-78152.75,-41904.746,-117784.59,-37010.867,-55955.08,-38797.77
1315418.654478891,-82822.63,-100635.625,-78097.21,-41863.973,-117734.13,-36979.332,-55918.254,-38758.586
1315418.6584788868,-82851.16,-100657.39,-78127.12,-41874.51,-117755.09,-36989.746,-55948.49,-38786.824
1315418.6624788826,-82922.0,-100723.19,-78191.45,-41916.383,-117822.516,-37026.855,-56003.582,-38846.805
1315418.6664788786,-82949.51,-100755.25,-78207.805,-41937.95,-117847.5,-37040.57,-56019.53,-38852.215
1315418.6704788744,-82876.586,-100688.88,-78150.48,-41898.684,-117782.48,-37007.49,-55970.83,-38791.383
1315418.6744788704,-82817.71,-100629.27,-78092.086,-41859.58,-117724.41,-36973.633,-55929.12,-38750.855
1315418.6784788661,-82848.96,-100656.17,-78116.414,-41873.13,-117749.84,-36982.383,-55947.31,-38772.95
1315418.682478862,-82918.945,-100725.51,-78184.57,-41916.953,-117815.02,-37022.586,-56013.227,-38847.008
1315418.6864788579,-82930.42,-100741.21,-78202.88,-41935.1,-117842.05,-37040.934,-56030.887,-38869.71
1315418.6904788539,-82862.76,-100672.98,-78147.586,-41899.984,-117778.69,-37014.203,-55980.797,-38809.082
1315418.6944788496,-82799.85,-100608.484,-78093.23,-41860.598,-117717.66,-36980.797,-55938.844,-38766.113
1315418.6984788454,-82811.28,-100625.41,-78106.77,-41866.254,-117751.02,-36989.3,-55955.773,-38798.465
1315418.7024788414,-82875.734,-100689.336,-78173.055,-41909.26,-117809.94,-37025.72,-56009.117,-38855.266
1315418.7064788372,-82878.09,-100693.81,-78192.914,-41925.7,-117826.38,-37041.586,-56026.652,-38861.94
1315418.7104788332,-82803.47,-100622.93,-78128.016,-41887.492,-117760.74,-37012.613,-55984.457,-38813.03
1315418.714478829,-82740.73,-100565.15,-78064.17,-41846.316,-117705.164,-36977.01,-55940.473,-38768.72
1315418.718478825,-82743.57,-100570.234,-78093.305,-41853.273,-117726.81,-36984.945,-55960.656,-38783.53
1315418.7224788207,-82798.914,-100626.836,-78147.625,-41893.27,-117794.88,-37024.375,-56029.785,-38857.383
1315418.7264788167,-82792.6,-100623.01,-78165.125,-41909.344,-117807.5,-37047.61,-56063.316,-38895.71
1315418.7304788125,-82698.33,-100533.2,-78098.516,-41870.89,-117742.15,-37021.445,-56019.98,-38842.773
1315418.7344788082,-82618.33,-100452.555,-78038.695,-41829.996,-117690.96,-36986.777,-55968.26,-38777.305
1315418.7384788042,-82623.5,-100458.17,-78051.805,-41834.758,-117710.62,-36997.438,-55992.72,-38807.945
1315418.7424788,-82687.75,-100527.67,-78109.21,-41876.1,-117782.27,-37036.336,-56053.145,-38883.586
1315418.746478796,-82713.016,-100547.24,-78142.13,-41896.2,-117797.65,-37052.004,-56067.87,-38895.633
1315418.7504787918,-82637.74,-100470.13,-78084.88,-41859.906,-117732.79,-37026.53,-56019.816,-38832.848
1315418.7544787878,-82569.26,-100408.37,-78021.81,-41818.688,-117682.336,-36994.305,-55974.33,-38776.41
1315418.7584787835,-82591.59,-100428.836,-78039.96,-41827.15,-117709.03,-37004.68,-55996.79,-38802.164
1315418.7624787795,-82662.97,-100496.055,-78109.5,-41870.89,-117768.88,-37042.81,-56059.33,-38872.234
1315418.7664787753,-82696.62,-100529.625,-78135.625,-41895.426,-117793.54,-37057.902,-56085.492,-38902.547
1315418.770478771,-82637.62,-100479.49,-78080.24,-41865.234,-117739.95,-37031.453,-56039.062,-38837.08
1315418.774478767,-82573.164,-100419.31,-78029.55,-41826.297,-117689.5,-36998.008,-55987.184,-38768.15
1315418.7784787628,-82609.375,-100449.836,-78053.266,-41836.996,-117708.87,-37000.938,-56003.297,-38813.355
1315418.7824787588,-82687.75,-100525.48,-78119.266,-41881.31,-117777.96,-37035.402,-56059.855,-38883.14
1315418.7864787546,-82719.77,-100560.06,-78141.16,-41900.92,-117807.984,-37054.16,-56084.598,-38903.28
1315418.7904787506,-82671.305,-100517.83,-78083.58,-41866.984,-117758.51,-37023.805,-56038.453,-38842.734
1315418.7944787464,-82619.14,-100466.59,-78043.91,-41829.1,-117698.94,-36987.957,-55988.69,-38777.223
1315418.7984787424,-82656.086,-100499.516,-78074.1,-41839.273,-117721.93,-36989.91,-56001.67,-38793.05
1315418.8024787381,-82740.16,-100577.07,-78137.49,-41880.332,-117788.05,-37024.375,-56057.414,-38858.523
1315418.806478734,-82778.52,-100609.58,-78161.18,-41902.996,-117804.65,-37047.527,-56081.42,-38881.51
1315418.81047873,-82727.625,-100556.89,-78102.22,-41871.83,-117759.89,-37020.996,-56035.2,-38822.715
1315418.8144787257,-82676.48,-100507.24,-78045.9,-41831.91,-117707.93,-36986.125,-55986.047,-38778.523
1315418.8184787217,-82707.805,-100539.23,-78074.38,-41841.023,-117728.97,-36990.234,-55997.48,-38793.62
1315418.8224787174,-82788.82,-100616.945,-78146.98,-41886.23,-117798.1,-37024.742,-56049.562,-38853.844
1315418.8264787134,-82824.47,-100649.62,-78172.69,-41911.95,-117828.54,-37044.8,-56069.297,-38874.227
1315418.8304787092,-82773.805,-100600.55,-78120.85,-41880.168,-117770.06,-37016.316,-56021.28,-38819.01
1315418.8344787052,-82725.22,-100552.66,-78063.64,-41842.285,-117712.77,-36978.8,-55971.76,-38766.727
1315418.838478701,-82752.69,-100576.79,-78087.12,-41849.49,-117736.9,-36982.465,-55983.766,-38771.688
1315418.8424786967,-82831.34,-100650.07,-78152.02,-41891.24,-117802.695,-37021.363,-56042.24,-38858.684
1315418.8464786927,-82856.94,-100674.6,-78182.01,-41911.703,-117820.88,-37040.082,-56063.07,-38877.36
1315418.8504786885,-82798.75,-100615.03,-78132.49,-41878.5,-117759.445,-37014.04,-56015.91,-38804.16
1315418.8544786845,-82751.95,-100565.76,-78069.336,-41839.355,-117703.336,-36980.184,-55966.637,-38762.25
1315418.8584786803,-82776.49,-100587.41,-78084.8,-41845.46,-117732.914,-36983.684,-55980.88,-38771.65
1315418.8624786763,-82848.19,-100659.47,-78153.52,-41890.992,-117798.83,-37016.848,-56039.473,-38828.574
1315418.866478672,-82872.36,-100686.164,-78177.984,-41914.227,-117822.76,-37034.953,-56054.566,-38841.797
1315418.870478668,-82814.66,-100632.695,-78123.984,-41881.062,-117767.3,-37007.242,-56007.652,-38783.246
1315418.8744786638,-82760.58,-100574.42,-78056.6,-41840.25,-117711.63,-36972.617,-55964.887,-38742.23
1315418.8784786595,-82787.36,-100596.36,-78084.03,-41848.88,-117725.95,-36974.49,-55981.406,-38769.29
1315418.8824786555,-82856.2,-100662.27,-78155.27,-41891.887,-117787.195,-37008.547,-56040.04,-38832.36
1315418.8864786513,-82882.445,-100689.25,-78187.586,-41915.285,-117813.52,-37030.113,-56069.418,-38862.633
1315418.8904786473,-82829.836,-100634.61,-78131.19,-41884.684,-117761.88,-37007.49,-56031.457,-38811.727
1315418.894478643,-82774.7,-100581.46,-78067.51,-41845.785,-117710.33,-36973.473,-55984.582,-38766.727
1315418.898478639,-82796.875,-100600.95,-78084.96,-41853.355,-117736.45,-36976.277,-55997.07,-38797.363
1315418.9024786348,-82872.6,-100674.28,-78149.7,-41895.836,-117805.016,-37011.76,-56049.277,-38867.27
1315418.9064786308,-82900.84,-100704.02,-78192.75,-41920.33,-117823.164,-37032.145,-56062.258,-38882.45
1315418.9104786266,-82846.16,-100649.664,-78143.76,-41888.266,-117765.14,-37005.21,-56013.594,-38830.203
1315418.9144786224,-82786.91,-100589.89,-78078.58,-41845.906,-117707.195,-36972.008,-55966.637,-38778.77
1315418.9184786184,-82803.06,-100608.766,-78092.29,-41851.277,-117730.8,-36972.74,-55976.81,-38798.87
1315418.9224786141,-82868.37,-100674.93,-78157.76,-41893.637,-117798.38,-37007.73,-56022.016,-38843.668
1315418.9264786101,-82892.91,-100700.04,-78183.35,-41918.99,-117826.5,-37033.61,-56033.125,-38854.656
1315418.930478606,-82838.3,-100645.59,-78133.625,-41889.08,-117774.83,-37009.117,-55985.11,-38796.023
1315418.934478602,-82777.55,-100584.44,-78075.08,-41846.355,-117717.21,-36970.34,-55920.94,-38725.26
1315418.9384785977,-82796.35,-100604.05,-78090.25,-41852.742,-117736.86,-36969.566,-55919.273,-38727.906
1315418.9424785937,-82867.88,-100677.49,-78155.64,-41893.27,-117800.13,-36995.65,-55969.32,-38786.664
1315418.9464785894,-82894.58,-100704.875,-78187.22,-41915.285,-117818.16,-37010.457,-55991.336,-38816.773
1315418.9504785852,-82831.38,-100649.74,-78130.66,-41884.848,-117769.49,-36981.85,-55945.395,-38758.586
1315418.9544785812,-82771.57,-100592.2,-78069.17,-41843.793,-117709.07,-36942.02,-55892.99,-38696.25
1315418.958478577,-82794.6,-100615.195,-78079.19,-41850.953,-117726.93,-36947.715,-55902.67,-38718.02
1315418.962478573,-82875.33,-100690.96,-78146.04,-41894.695,-117793.22,-36985.758,-55961.145,-38801.96
1315418.9664785687,-82899.87,-100711.914,-78188.44,-41916.098,-117818.484,-36998.902,-55972.58,-38820.152
1315418.9704785647,-82840.21,-100652.14,-78132.53,-41883.668,-117767.91,-36971.355,-55922.12,-38754.355
1315418.9744785605,-82775.96,-100590.984,-78074.38,-41841.676,-117700.766,-36939.047,-55874.88,-38707.36
1315418.9784785565,-82798.55,-100610.03,-78087.12,-41845.094,-117718.14,-36943.727,-55891.156,-38745.484
1315418.9824785523,-82865.69,-100675.945,-78146.65,-41884.81,-117778.08,-36978.07,-55940.84,-38815.797
1315418.986478548,-82891.195,-100701.625,-78168.78,-41909.71,-117815.27,-36995.934,-55954.062,-38838.785
1315418.990478544,-82826.09,-100640.266,-78123.66,-41877.08,-117757.0,-36970.176,-55907.88,-38783.855
1315418.9944785398,-82759.484,-100578.45,-78057.82,-41835.574,-117701.3,-36933.434,-55858.195,-38727.62
1315418.9984785358,-82781.54,-100603.72,-78070.56,-41841.88,-117717.9,-36936.688,-55867.8,-38742.96
1315419.0024785316,-82852.09,-100673.625,-78142.58,-41886.477,-117778.484,-36971.52,-55915.734,-38809.0
1315419.0064785276,-82877.28,-100700.69,-78170.945,-41912.234,-117807.414,-36994.223,-55929.934,-38839.48
1315419.0104785233,-82816.61,-100643.31,-78117.44,-41879.234,-117749.516,-36971.152,-55876.67,-38776.613
1315419.0144785193,-82756.836,-100582.16,-78054.484,-41835.086,-117689.3,-36936.93,-55820.152,-38714.234
1315419.018478515,-82771.81,-100593.836,-78069.945,-41835.816,-117702.92,-36936.65,-55826.703,-38732.18
1315419.0224785109,-82840.414,-100658.82,-78132.9,-41875.406,-117767.016,-36969.973,-55882.734,-38793.094
1315419.0264785069,-82872.97,-100689.3,-78164.23,-41901.695,-117793.016,-36991.863,-55907.555,-38818.973
1315419.0304785026,-82809.37,-100631.555,-78114.18,-41872.195,-117742.44,-36963.992,-55859.5,-38751.914
1315419.0344784986,-82747.64,-100573.695,-78050.13,-41831.46,-117687.71,-36925.496,-55812.746,-38696.207
1315419.0384784944,-82767.7,-100585.82,-78065.35,-41832.113,-117694.75,-36927.9,-55828.453,-38720.62
1315419.0424784904,-82831.22,-100646.0,-78135.54,-41876.14,-117759.16,-36965.496,-55881.88,-38781.008
1315419.0464784862,-82864.51,-100682.336,-78159.914,-41901.33,-117792.445,-36986.37,-55905.97,-38798.055
1315419.0504784822,-82808.19,-100627.32,-78100.22,-41871.176,-117741.74,-36961.1,-55864.137,-38753.297
1315419.054478478,-82738.61,-100559.33,-78044.11,-41827.35,-117678.23,-36926.516,-55814.74,-38704.02
1315419.058478474,-82759.16,-100578.414,-78060.63,-41830.895,-117692.18,-36930.83,-55818.848,-38703.9
1315419.0624784697,-82832.4,-100650.44,-78125.9,-41872.07,-117755.3,-36965.457,-55874.92,-38768.473
1315419.0664784655,-82856.734,-100672.164,-78151.82,-41892.05,-117779.51,-36981.73,-55899.78,-38799.805
1315419.0704784614,-82795.62,-100612.96,-78100.305,-41862.266,-117727.055,-36960.574,-55858.4,-38749.88
1315419.0744784572,-82734.26,-100554.69,-78032.555,-41817.953,-117667.97,-36926.555,-55810.426,-38700.195
1315419.0784784532,-82749.92,-100568.73,-78051.15,-41819.62,-117678.19,-36926.598,-55821.453,-38710.207
1315419.082478449,-82818.766,-100639.08,-78121.55,-41862.062,-117742.19,-36960.9,-55877.2,-38763.875
1315419.086478445,-82849.57,-100673.47,-78145.875,-41885.418,-117777.266,-36985.395,-55908.734,-38804.324
1315419.0904784407,-82796.02,-100614.79,-78094.445,-41852.785,-117722.58,-36966.434,-55872.277,-38768.96
1315419.0944784367,-82736.53,-100553.35,-78037.31,-41818.117,-117665.29,-36932.13,-55823.49,-38711.914
1315419.0984784325,-82753.055,-100568.69,-78048.914,-41825.97,-117683.92,-36929.973,-55828.25,-38718.223
1315419.1024784283,-82826.91,-100640.14,-78120.37,-41864.383,-117747.07,-36964.273,-55878.094,-38778.117
1315419.1064784243,-82853.44,-100673.47,-78149.336,-41890.543,-117775.48,-36982.75,-55902.875,-38808.96
1315419.11047842,-82792.484,-100616.62,-78089.805,-41858.645,-117716.15,-36954.43,-55858.523,-38748.13
1315419.114478416,-82727.54,-100551.88,-78031.05,-41815.27,-117656.336,-36915.57,-55803.1,-38682.332
1315419.1184784118,-82736.29,-100567.06,-78040.61,-41816.043,-117670.86,-36917.93,-55813.64,-38693.074
1315419.1224784078,-82802.164,-100634.85,-78110.4,-41858.4,-117735.44,-36950.727,-55872.52,-38761.477
1315419.1264784036,-82831.71,-100666.42,-78142.945,-41885.254,-117769.82,-36974.895,-55901.652,-38792.848
1315419.1304783996,-82780.805,-100612.875,-78090.945,-41855.145,-117720.42,-36954.227,-55864.22,-38744.387
1315419.1344783953,-82717.57,-100548.586,-78026.57,-41811.973,-117659.14,-36918.945,-55820.8,-38702.883
1315419.138478391,-82737.14,-100567.43,-78041.305,-41815.758,-117670.58,-36921.67,-55832.03,-38715.58
1315419.142478387,-82811.41,-100639.2,-78110.805,-41855.957,-117734.26,-36954.875,-55887.777,-38776.285
1315419.1464783829,-82841.96,-100668.99,-78141.766,-41882.57,-117765.75,-36975.504,-55912.844,-38799.723
1315419.1504783789,-82782.19,-100612.8,-78086.1,-41854.004,-117716.8,-36951.742,-55866.133,-38733.074
1315419.1544783746,-82720.91,-100550.54,-78023.44,-41811.32,-117653.85,-36916.79,-55814.414,-38670.613
1315419.1584783706,-82733.93,-100565.02,-78034.23,-41813.273,-117665.45,-36919.434,-55826.785,-38690.43
1315419.1624783664,-82804.12,-100632.125,-78096.27,-41854.332,-117728.516,-36953.37,-55880.58,-38757.977
1315419.1664783624,-82837.73,-100667.36,-78131.67,-41880.777,-117759.93,-36973.715,-55906.945,-38786.01
1315419.1704783582,-82778.81,-100611.66,-78081.625,-41852.176,-117708.09,-36946.86,-55863.242,-38733.6
1315419.174478354,-82721.234,-100548.016,-78019.53,-41810.1,-117647.055,-36911.01,-55810.793,-38675.78
1315419.17847835,-82739.34,-100562.586,-78030.88,-41812.46,-117663.62,-36909.465,-55818.523,-38692.098
1315419.1824783457,-82804.81,-100625.25,-78098.72,-41853.64,-117727.87,-36943.117,-55870.605,-38756.715
1315419.1864783417,-82837.69,-100661.22,-78131.19,-41880.168,-117761.27,-36966.023,-55899.008,-38777.223
1315419.1904783375,-82785.89,-100611.17,-78080.98,-41853.516,-117714.4,-36944.664,-55858.887,-38722.086
1315419.1944783335,-82725.34,-100550.7,-78018.76,-41812.906,-117656.13,-36911.297,-55805.625,-38664.715
1315419.1984783292,-82740.195,-100565.59,-78026.82,-41813.926,-117669.234,-36913.21,-55819.746,-38690.676
1315419.2024783252,-82806.97,-100631.43,-78095.3,-41854.777,-117731.98,-36949.91,-55877.89,-38753.258
1315419.206478321,-82842.86,-100670.33,-78130.05,-41884.24,-117765.14,-36975.914,-55911.01,-38785.89
1315419.2104783168,-82795.66,-100622.6,-78081.42,-41854.9,-117716.11,-36953.613,-55865.684,-38729.29
1315419.2144783128,-82725.586,-100551.19,-78016.6,-41808.96,-117649.625,-36915.367,-55812.785,-38675.418
1315419.2184783085,-82735.07,-100562.83,-78022.914,-41810.67,-117661.99,-36912.926,-55819.38,-38698.73
1315419.2224783045,-82807.3,-100631.555,-78091.84,-41851.117,-117726.24,-36947.957,-55878.176,-38769.938
1315419.2264783003,-82846.36,-100669.6,-78129.16,-41876.996,-117762.13,-36971.438,-55908.285,-38807.375
1315419.2304782963,-82790.29,-100616.26,-78080.2,-41844.523,-117710.94,-36949.547,-55869.836,-38760.742
1315419.234478292,-82724.49,-100554.164,-78015.14,-41803.348,-117647.83,-36914.062,-55820.152,-38695.11
1315419.238478288,-82738.53,-100566.33,-78023.44,-41806.316,-117662.64,-36913.74,-55827.516,-38694.664
1315419.2424782838,-82808.43,-100631.72,-78089.93,-41851.117,-117730.92,-36950.074,-55881.227,-38758.14
1315419.2464782796,-82845.3,-100671.47,-78122.6,-41883.098,-117765.586,-36974.324,-55907.023,-38793.254
1315419.2504782756,-82791.22,-100620.98,-78069.09,-41854.98,-117718.1,-36950.523,-55868.37,-38734.99
1315419.2544782714,-82725.875,-100553.71,-78006.39,-41808.473,-117652.8,-36913.004,-55820.598,-38683.797
1315419.2584782674,-82731.77,-100558.96,-78013.51,-41804.08,-117659.39,-36911.336,-55829.348,-38694.664
1315419.2624782631,-82798.51,-100621.625,-78076.22,-41841.676,-117715.91,-36943.24,-55888.31,-38762.492
1315419.266478259,-82832.69,-100658.33,-78110.76,-41869.71,-117747.84,-36968.344,-55920.777,-38796.55
1315419.2704782549,-82783.94,-100608.484,-78069.055,-41843.953,-117704.23,-36946.94,-55887.25,-38750.45
1315419.2744782509,-82721.31,-100545.82,-78005.78,-41801.92,-117638.836,-36909.26,-55835.246,-38685.465
1315419.2784782466,-82733.93,-100558.64,-78012.58,-41804.605,-117646.98,-36908.246,-55842.367,-38704.1
1315419.2824782424,-82802.37,-100629.766,-78082.195,-41845.785,-117715.3,-36947.145,-55905.805,-38774.375
1315419.2864782384,-82836.266,-100666.71,-78123.21,-41874.31,-117754.195,-36972.13,-55939.902,-38798.42
1315419.2904782342,-82784.914,-100615.32,-78074.055,-41846.76,-117705.94,-36948.527,-55899.824,-38742.027
1315419.2944782302,-82723.8,-100546.555,-78008.75,-41803.305,-117640.47,-36912.312,-55849.61,-38683.31
1315419.298478226,-82738.33,-100557.91,-78014.85,-41803.184,-117649.58,-36911.336,-55858.93,-38703.25
1315419.302478222,-82805.016,-100622.195,-78083.17,-41841.51,-117710.33,-36947.31,-55911.664,-38769.37
1315419.3064782177,-82838.99,-100661.664,-78119.59,-41869.184,-117749.11,-36970.543,-55943.035,-38801.35
1315419.3104782137,-82783.29,-100610.97,-78072.15,-41844.566,-117712.53,-36950.156,-55907.227,-38749.105
1315419.3144782095,-82722.414,-100551.44,-78008.06,-41799.93,-117647.34,-36912.395,-55850.18,-38687.785
1315419.3184782052,-82732.914,-100558.555,-78014.37,-41797.85,-117647.99,-36907.676,-55853.64,-38688.395
1315419.3224782012,-82804.52,-100626.55,-78084.35,-41843.223,-117715.01,-36944.5,-55911.297,-38754.8
1315419.326478197,-82843.02,-100663.54,-78124.02,-41873.902,-117750.734,-36966.84,-55945.234,-38799.766
1315419.330478193,-82795.375,-100618.086,-78071.45,-41849.0,-117702.44,-36944.176,-55906.617,-38748.453
1315419.3344781888,-82732.586,-100555.87,-78007.695,-41806.195,-117637.13,-36908.855,-55849.53,-38674.887
1315419.3384781848,-82742.19,-100564.7,-78018.44,-41805.3,-117647.95,-36906.09,-55849.45,-38681.277
1315419.3424781805,-82812.22,-100630.17,-78086.47,-41844.81,-117714.08,-36940.023,-55906.293,-38750.977
1315419.3464781765,-82848.31,-100666.55,-78120.12,-41874.39,-117755.45,-36963.258,-55943.688,-38789.836
1315419.3504781723,-82797.77,-100620.37,-78068.93,-41847.168,-117706.67,-36940.27,-55908.855,-38735.11
1315419.354478168,-82731.57,-100551.72,-78006.06,-41804.08,-117643.35,-36902.223,-55859.457,-38679.89
1315419.358478164,-82736.9,-100552.05,-78011.84,-41801.15,-117648.56,-36899.414,-55874.105,-38708.254
1315419.3624781598,-82802.164,-100618.9,-78079.51,-41842.734,-117717.77,-36934.285,-55931.97,-38774.457
1315419.3664781558,-82847.01,-100670.82,-78119.06,-41876.383,-117763.516,-36961.1,-55970.42,-38811.566
1315419.3704781516,-82796.63,-100622.32,-78065.76,-41848.51,-117714.6,-36942.223,-55936.566,-38765.22
1315419.3744781476,-82728.4,-100554.41,-78005.695,-41802.246,-117649.17,-36906.78,-55883.26,-38703.777
1315419.3784781434,-82738.484,-100564.21,-78019.29,-41798.258,-117654.18,-36900.88,-55887.207,-38702.637
1315419.3824781394,-82805.625,-100628.55,-78081.42,-41837.81,-117718.8,-36932.863,-55941.734,-38757.977
1315419.3864781351,-82846.16,-100669.6,-78116.945,-41869.305,-117757.0,-36960.33,-55974.367,-38796.023
1315419.390478131,-82800.26,-100627.65,-78068.12,-41846.844,-117706.266,-36940.348,-55937.137,-38745.117
1315419.394478127,-82729.21,-100555.87,-78002.2,-41801.434,-117629.84,-36901.246,-55877.363,-38671.918
1315419.3984781227,-82731.2,-100554.445,-78006.19,-41800.863,-117640.22,-36895.59,-55875.938,-38668.17
1315419.4024781187,-82806.36,-100627.61,-78069.13,-41843.75,-117711.836,-36930.016,-55930.258,-38734.05
1315419.4064781144,-82843.95,-100664.96,-78111.01,-41872.926,-117757.66,-36955.895,-55959.434,-38771.812
1315419.4104781104,-82793.945,-100613.94,-78065.96,-41848.145,-117712.37,-36939.496,-55925.824,-38721.64
1315419.4144781062,-82729.45,-100548.875,-77995.484,-41802.816,-117640.55,-36901.45,-55881.88,-38678.59
1315419.4184781022,-82727.7,-100550.21,-78002.0,-41795.74,-117645.76,-36898.97,-55881.023,-38683.023
1315419.422478098,-82799.484,-100621.83,-78063.234,-41834.27,-117712.53,-36936.24,-55936.242,-38741.863
1315419.4264780937,-82844.81,-100667.16,-78101.69,-41868.695,-117750.94,-36961.957,-55968.793,-38782.188
1315419.4304780897,-82797.98,-100621.42,-78068.445,-41850.26,-117712.445,-36942.426,-55930.258,-38733.645
1315419.4344780855,-82726.4,-100555.46,-78003.42,-41806.07,-117649.58,-36908.164,-55878.582,-38670.535
1315419.4384780815,-82734.055,-100560.63,-78001.875,-41798.465,-117637.66,-36905.152,-55882.855,-38673.3
1315419.4424780773,-82804.04,-100631.43,-78065.266,-41837.688,-117710.21,-36938.438,-55935.184,-38725.79
1315419.4464780733,-82849.41,-100672.445,-78113.0,-41872.6,-117753.83,-36964.195,-55973.51,-38789.55
1315419.450478069,-82805.016,-100626.71,-78073.53,-41852.703,-117713.14,-36945.844,-55936.08,-38741.78
1315419.454478065,-82738.28,-100561.41,-78003.586,-41808.555,-117650.234,-36907.43,-55880.7,-38677.938
1315419.4584780608,-82735.72,-100561.65,-78002.81,-41801.72,-117644.984,-36898.766,-55886.8,-38686.77
1315419.4624780566,-82802.33,-100628.586,-78066.45,-41842.41,-117704.02,-36931.48,-55946.496,-38750.773
1315419.4664780525,-82840.414,-100671.555,-78102.91,-41873.453,-117752.37,-36958.457,-55980.55,-38781.332
1315419.4704780483,-82798.26,-100626.38,-78058.11,-41849.652,-117708.375,-36939.902,-55942.02,-38719.24
1315419.4744780443,-82731.08,-100553.35,-77995.24,-41802.41,-117636.97,-36902.914,-55889.49,-38657.555
1315419.47847804,-82730.23,-100549.65,-77995.164,-41794.56,-117634.93,-36896.12,-55893.434,-38672.77
1315419.482478036,-82798.664,-100618.86,-78056.766,-41837.934,-117705.9,-36931.6,-55948.12,-38740.4
1315419.4864780318,-82842.164,-100664.35,-78097.375,-41870.81,-117756.27,-36961.14,-55984.336,-38775.31
1315419.4904780278,-82794.195,-100614.875,-78060.836,-41845.543,-117710.45,-36941.734,-55942.63,-38723.797
1315419.4944780236,-82724.695,-100540.94,-77992.84,-41799.48,-117642.83,-36901.855,-55886.56,-38662.598
1315419.4984780196,-82734.984,-100550.01,-77991.375,-41794.027,-117640.34,-36894.613,-55885.418,-38666.832
1315419.5024780154,-82798.75,-100618.164,-78051.44,-41832.97,-117710.414,-36927.9,-55931.316,-38722.984
1315419.5064780111,-82837.94,-100656.21,-78097.91,-41865.316,-117751.34,-36954.145,-55960.98,-38752.32
1315419.5104780071,-82791.22,-100612.63,-78056.6,-41843.508,-117709.31,-36936.688,-55922.324,-38702.76
1315419.514478003,-82719.65,-100543.5,-77992.11,-41800.375,-117638.02,-36901.082,-55860.637,-38635.99
1315419.518477999,-82725.06,-100544.195,-77987.51,-41794.598,-117644.49,-36891.03,-55848.105,-38638.754
1315419.5224779947,-82793.375,-100606.81,-78050.984,-41833.902,-117702.84,-36921.062,-55895.793,-38692.06
1315419.5264779907,-82834.555,-100648.73,-78098.836,-41866.293,-117742.555,-36946.453,-55928.184,-38729.332
1315419.5304779864,-82787.84,-100602.7,-78049.36,-41844.973,-117704.1,-36929.363,-55892.99,-38711.387
1315419.5344779824,-82730.266,-100537.766,-77988.2,-41803.14,-117631.59,-36891.316,-55828.41,-38650.35
1315419.5384779782,-82737.8,-100541.586,-77989.79,-41796.957,-117633.23,-36883.707,-55817.914,-38644.695
1315419.542477974,-82787.44,-100594.32,-78039.96,-41833.58,-117703.62,-36917.93,-55872.316,-38701.945
1315419.54647797,-82832.195,-100643.195,-78089.766,-41866.293,-117739.914,-36946.047,-55902.387,-38741.54
1315419.5504779657,-82797.41,-100608.04,-78044.88,-41843.63,-117696.86,-36927.613,-55863.934,-38704.062
1315419.5544779617,-82726.93,-100535.445,-77985.76,-41798.79,-117631.88,-36889.812,-55807.78,-38641.4
1315419.5584779575,-82735.68,-100538.984,-77990.56,-41794.68,-117631.23,-36883.79,-55806.074,-38646.445
1315419.5624779535,-82812.38,-100611.86,-78053.34,-41836.223,-117697.266,-36916.63,-55856.977,-38712.04
1315419.5664779493,-82859.54,-100655.766,-78100.875,-41871.91,-117743.01,-36947.266,-55896.69,-38759.766
1315419.5704779453,-82820.805,-100621.18,-78061.2,-41852.703,-117705.53,-36926.23,-55862.387,-38729.695
1315419.574477941,-82749.72,-100547.28,-77997.56,-41806.56,-117632.086,-36885.457,-55797.812,-38661.133
1315419.5784779368,-82742.02,-100534.02,-77992.92,-41795.492,-117629.07,-36878.133,-55792.32,-38647.46
1315419.5824779328,-82814.7,-100606.98,-78052.984,-41834.35,-117694.016,-36909.832,-55844.934,-38708.78
1315419.5864779286,-82860.234,-100652.43,-78090.58,-41867.758,-117735.84,-36938.68,-55887.207,-38777.793
1315419.5904779246,-82815.836,-100611.86,-78044.31,-41847.7,-117696.86,-36922.16,-55855.676,-38734.863
1315419.5944779203,-82742.59,-100539.72,-77987.35,-41802.45,-117622.16,-36883.3,-55794.355,-38664.188
1315419.5984779163,-82741.58,-100541.42,-77986.78,-41797.977,-117619.47,-36878.418,-55786.543,-38666.91
1315419.602477912,-82810.55,-100610.72,-78046.43,-41839.97,-117691.33,-36912.395,-55842.57,-38731.406
1315419.606477908,-82852.42,-100648.234,-78090.62,-41872.195,-117733.32,-36941.0,-55873.09,-38759.89
1315419.6104779039,-82804.12,-100599.94,-78048.14,-41850.14,-117688.766,-36924.277,-55836.184,-38718.508
1315419.6144778996,-82738.85,-100537.16,-77985.35,-41805.504,-117621.71,-36888.31,-55782.31,-38651.98
1315419.6184778956,-82739.14,-100536.83,-77980.8,-41795.33,-117623.945,-36876.383,-55777.426,-38651.082
1315419.6224778914,-82815.15,-100607.75,-78041.83,-41833.414,-117687.09,-36907.31,-55831.18,-38721.965
1315419.6264778874,-82860.96,-100654.18,-78082.195,-41866.13,-117730.59,-36938.76,-55871.543,-38759.89
1315419.6304778832,-82810.51,-100606.445,-78048.875,-41845.176,-117687.38,-36920.94,-55835.734,-38715.17
1315419.6344778792,-82739.09,-100538.54,-77981.98,-41802.734,-117619.43,-36880.94,-55777.223,-38646.934
1315419.638477875,-82744.1,-100542.16,-77978.195,-41799.562,-117622.56,-36875.45,-55774.78,-38654.42
1315419.642477871,-82813.73,-100612.47,-78043.016,-41838.867,-117689.62,-36904.46,-55823.12,-38715.984
1315419.6464778667,-82859.664,-100654.914,-78100.55,-41874.555,-117730.516,-36930.582,-55860.434,-38751.383
1315419.6504778625,-82814.54,-100610.84,-78054.52,-41851.727,-117688.48,-36916.22,-55827.76,-38709.473
1315419.6544778585,-82745.32,-100540.41,-77980.43,-41802.938,-117611.945,-36879.52,-55772.586,-38652.508
1315419.6584778542,-82745.52,-100535.52,-77974.81,-41794.07,-117613.164,-36869.266,-55762.004,-38647.137
1315419.6624778502,-82806.36,-100597.21,-78044.4,-41828.9,-117675.83,-36904.094,-55806.36,-38708.17
1315419.666477846,-82849.164,-100642.664,-78089.07,-41862.43,-117724.695,-36934.816,-55843.184,-38746.258
1315419.670477842,-82809.0,-100608.56,-78042.36,-41844.2,-117685.63,-36918.05,-55815.676,-38707.6
1315419.6744778377,-82739.18,-100535.52,-77978.4,-41801.84,-117620.33,-36877.08,-55760.742,-38638.062
1315419.6784778337,-82736.125,-100533.41,-77977.74,-41794.395,-117612.8,-36871.176,-55761.152,-38648.152
1315419.6824778295,-82806.48,-100603.516,-78034.875,-41833.254,-117672.98,-36902.344,-55812.22,-38714.97
1315419.6864778253,-82859.17,-100654.26,-78083.78,-41868.98,-117724.086,-36931.887,-55847.332,-38757.164
1315419.6904778213,-82814.78,-100611.82,-78053.23,-41850.426,-117682.58,-36918.336,-55817.26,-38712.04
1315419.694477817,-82736.29,-100537.88,-77994.14,-41809.246,-117612.63,-36882.324,-55770.793,-38643.637
1315419.698477813,-82737.47,-100538.45,-77979.54,-41800.418,-117611.945,-36875.0,-55776.246,-38656.535
1315419.7024778088,-82805.95,-100607.305,-78034.47,-41836.223,-117679.0,-36906.984,-55832.645,-38727.01
1315419.7064778048,-82856.94,-100654.95,-78084.27,-41870.81,-117721.03,-36938.723,-55877.117,-38772.016
1315419.7104778006,-82818.28,-100612.555,-78050.664,-41850.87,-117679.734,-36922.69,-55850.914,-38730.715
1315419.7144777966,-82742.76,-100538.7,-77987.305,-41804.77,-117621.016,-36884.97,-55798.547,-38670.207
1315419.7184777923,-82738.69,-100535.2,-77982.55,-41796.875,-117622.56,-36880.008,-55795.86,-38656.496
1315419.722477788,-82805.22,-100599.86,-78040.0,-41835.367,-117683.68,-36914.145,-55848.84,-38722.78
1315419.726477784,-82854.375,-100652.14,-78083.74,-41867.72,-117724.33,-36946.656,-55890.016,-38781.58
1315419.7304777799,-82822.8,-100620.89,-78042.28,-41846.598,-117686.85,-36934.0,-55863.08,-38757.49
1315419.7344777759,-82749.59,-100549.85,-77979.375,-41803.02,-117625.82,-36893.19,-55806.64,-38684.977
1315419.7384777716,-82742.31,-100539.76,-77982.14,-41793.297,-117613.33,-36884.035,-55797.61,-38672.445
1315419.7424777676,-82809.695,-100603.72,-78041.42,-41828.37,-117672.734,-36913.82,-55853.152,-38731.65
1315419.7464777634,-82854.984,-100650.8,-78090.58,-41865.316,-117723.19,-36944.46,-55896.65,-38767.457
1315419.7504777594,-82818.65,-100614.664,-78052.66,-41852.785,-117686.12,-36930.625,-55858.81,-38720.34
1315419.7544777552,-82743.9,-100540.33,-77977.055,-41805.91,-117618.58,-36890.75,-55801.8,-38663.7
1315419.758477751,-82736.125,-100533.61,-77968.55,-41794.395,-117614.305,-36882.242,-55804.895,-38666.06
1315419.762477747,-82805.75,-100598.35,-78038.78,-41832.848,-117680.34,-36916.3,-55864.625,-38722.086
1315419.7664777427,-82849.2,-100646.85,-78088.664,-41866.293,-117721.52,-36948.203,-55911.215,-38770.305
1315419.7704777387,-82806.27,-100604.86,-78048.38,-41846.805,-117683.11,-36932.09,-55874.72,-38727.418
1315419.7744777345,-82735.27,-100530.68,-77968.38,-41800.58,-117620.2,-36895.305,-55815.676,-38658.816
1315419.7784777305,-82743.49,-100529.5,-77964.36,-41793.906,-117614.22,-36884.156,-55809.29,-38642.78
1315419.7824777262,-82801.27,-100583.5,-78037.07,-41831.91,-117673.18,-36914.145,-55864.137,-38703.492
1315419.7864777222,-82846.195,-100632.164,-78084.31,-41867.23,-117719.32,-36944.01,-55911.055,-38764.69
1315419.790477718,-82800.54,-100592.29,-78048.1,-41851.074,-117683.27,-36932.414,-55882.12,-38730.594
1315419.7944777138,-82732.99,-100526.05,-77968.836,-41806.234,-117618.94,-36894.41,-55832.6,-38669.8
1315419.7984777098,-82717.33,-100511.234,-77968.23,-41793.254,-117610.56,-36885.867,-55828.82,-38669.72
1315419.8024777055,-82769.37,-100565.516,-78032.8,-41829.062,-117672.695,-36919.027,-55881.797,-38728.844
1315419.8064777015,-82806.64,-100605.76,-78075.93,-41865.152,-117718.23,-36949.504,-55924.035,-38772.42
1315419.8104776973,-82765.26,-100564.25,-78037.766,-41849.734,-117685.02,-36934.125,-55893.027,-38738.973
1315419.8144776933,-82695.56,-100495.89,-77964.73,-41801.516,-117610.48,-36894.574,-55830.85,-38675.906
1315419.818477689,-82678.8,-100480.23,-77953.21,-41787.027,-117604.05,-36887.25,-55826.01,-38675.984
1315419.822477685,-82725.63,-100530.48,-78013.23,-41824.016,-117663.45,-36923.34,-55884.074,-38740.562
1315419.8264776808,-82768.76,-100576.7,-78062.5,-41860.15,-117713.305,-36952.883,-55925.5,-38784.223
1315419.8304776766,-82729.29,-100544.48,-78022.51,-41843.02,-117681.195,-36939.656,-55905.273,-38752.523
1315419.8344776726,-82650.27,-100466.07,-77951.46,-41795.004,-117611.33,-36901.9,-55849.57,-38680.867
1315419.8384776684,-82615.36,-100435.8,-77948.24,-41782.918,-117592.86,-36894.41,-55847.863,-38682.945
1315419.8424776644,-82651.25,-100481.734,-77997.234,-41815.473,-117656.46,-36926.92,-55901.777,-38740.113
1315419.8464776601,-82689.45,-100523.89,-78039.516,-41848.227,-117707.484,-36959.473,-55945.965,-38791.18
1315419.8504776561,-82641.69,-100468.18,-78008.79,-41829.43,-117657.23,-36949.832,-55923.137,-38762.574
1315419.8544776519,-82551.234,-100376.95,-77935.43,-41783.285,-117585.734,-36911.133,-55869.387,-38704.062
1315419.8584776479,-82527.8,-100355.23,-77920.375,-41771.324,-117581.42,-36898.48,-55863.73,-38710.086
1315419.8624776436,-82597.414,-100420.25,-77977.99,-41809.164,-117648.28,-36929.484,-55923.06,-38777.832
1315419.8664776394,-82644.53,-100465.336,-78029.586,-41845.176,-117700.85,-36961.914,-55964.52,-38820.152
1315419.8704776354,-82592.9,-100415.734,-77999.68,-41823.895,-117661.586,-36950.645,-55928.793,-38766.562
1315419.8744776312,-82519.94,-100345.79,-77929.08,-41777.63,-117590.62,-36915.652,-55875.652,-38695.11
1315419.8784776272,-82522.42,-100344.0,-77916.95,-41766.156,-117586.71,-36904.297,-55868.492,-38689.09
1315419.882477623,-82586.75,-100410.61,-77979.05,-41801.555,-117642.016,-36932.457,-55921.754,-38755.74
1315419.886477619,-82651.25,-100485.72,-78032.92,-41842.082,-117693.24,-36962.65,-55968.26,-38800.906
1315419.8904776147,-82625.81,-100461.39,-77998.5,-41827.555,-117662.195,-36948.285,-55935.305,-38759.605
1315419.8944776107,-82558.555,-100392.74,-77941.164,-41781.984,-117594.52,-36910.77,-55874.27,-38679.85
1315419.8984776065,-82576.09,-100406.45,-77934.33,-41776.043,-117594.484,-36901.246,-55870.402,-38663.047
1315419.9024776022,-82659.79,-100485.27,-77996.99,-41815.96,-117656.74,-36930.707,-55916.14,-38712.32
1315419.9064775982,-82716.72,-100540.734,-78047.77,-41853.23,-117704.35,-36964.97,-55963.707,-38771.28
1315419.910477594,-82684.33,-100506.31,-78013.67,-41837.484,-117671.11,-36954.715,-55939.58,-38749.15
1315419.91447759,-82629.03,-100445.766,-77951.42,-41795.207,-117607.22,-36914.023,-55878.34,-38672.242
1315419.9184775858,-82633.99,-100446.54,-77949.67,-41788.332,-117597.74,-36902.26,-55871.95,-38666.22
1315419.9224775818,-82711.266,-100520.39,-78018.64,-41828.37,-117653.98,-36931.113,-55925.66,-38727.906
1315419.9264775775,-82769.94,-100579.555,-78069.17,-41864.707,-117708.91,-36961.71,-55966.23,-38771.16
1315419.9304775735,-82737.67,-100548.67,-78037.6,-41848.836,-117685.34,-36950.277,-55938.438,-38724.895
1315419.9344775693,-82666.55,-100477.055,-77965.984,-41800.418,-117614.914,-36910.2,-55878.137,-38648.723
1315419.9384775653,-82665.04,-100472.414,-77953.375,-41789.145,-117603.93,-36898.03,-55873.21,-38643.066
1315419.942477561,-82734.26,-100539.88,-78018.68,-41825.48,-117659.43,-36929.08,-55924.36,-38694.824
1315419.9464775568,-82792.36,-100598.63,-78072.266,-41862.47,-117716.03,-36962.77,-55974.977,-38750.164
1315419.9504775528,-82764.24,-100571.13,-78040.125,-41847.656,-117682.17,-36955.242,-55959.555,-38731.16
1315419.9544775486,-82696.414,-100502.69,-77974.29,-41807.496,-117616.625,-36918.215,-55904.46,-38669.92
1315419.9584775446,-82690.15,-100493.57,-77963.34,-41795.33,-117606.53,-36905.926,-55894.94,-38662.395
1315419.9624775404,-82752.16,-100555.586,-78027.8,-41828.043,-117658.94,-36937.176,-55949.14,-38728.19
1315419.9664775364,-82805.42,-100614.305,-78077.96,-41866.58,-117717.21,-36967.613,-55992.188,-38772.46
1315419.9704775321,-82772.586,-100587.85,-78053.1,-41852.867,-117679.94,-36953.74,-55962.973,-38731.04
1315419.9744775281,-82705.77,-100521.94,-77984.5,-41806.6,-117609.13,-36911.664,-55902.914,-38666.344
1315419.978477524,-82698.94,-100515.51,-77973.92,-41795.816,-117600.47,-36898.844,-55897.992,-38658.57
1315419.9824775197,-82767.5,-100579.266,-78035.73,-41834.88,-117661.42,-36928.387,-55951.418,-38720.34
1315419.9864775157,-82824.47,-100632.695,-78085.164,-41870.973,-117715.336,-36957.113,-55992.96,-38772.91
1315419.9904775114,-82790.0,-100598.59,-78057.74,-41855.836,-117684.414,-36944.01,-55964.723,-38734.375
1315419.9944775074,-82717.33,-100527.63,-77988.69,-41806.926,-117611.49,-36906.09,-55905.844,-38661.746
1315419.9984775032,-82710.25,-100518.03,-77976.36,-41791.75,-117601.41,-36891.562,-55893.434,-38653.035
1315420.0024774992,-82776.164,-100579.06,-78036.74,-41828.53,-117660.57,-36920.86,-55942.305,-38713.137
1315420.006477495,-82833.336,-100636.88,-78087.81,-41866.54,-117712.08,-36953.816,-55982.586,-38756.676
1315420.010477491,-82803.875,-100609.625,-78055.18,-41850.26,-117693.445,-36941.57,-55957.4,-38721.03
1315420.0144774867,-82738.2,-100540.77,-77985.68,-41806.4,-117626.305,-36902.67,-55902.1,-38652.63
1315420.0184774825,-82726.195,-100523.93,-77976.81,-41790.812,-117604.86,-36887.98,-55885.906,-38626.383
1315420.0224774785,-82789.555,-100588.586,-78032.96,-41827.883,-117659.14,-36916.547,-55935.508,-38681.48
1315420.0264774743,-82841.11,-100642.5,-78086.71,-41868.29,-117719.2,-36953.29,-55989.258,-38734.58
1315420.0304774703,-82805.55,-100608.16,-78056.89,-41855.227,-117691.164,-36947.145,-55974.285,-38703.29
1315420.034477466,-82733.32,-100537.195,-77988.08,-41809.45,-117616.46,-36906.09,-55917.32,-38631.633
1315420.038477462,-82725.71,-100529.14,-77972.78,-41797.324,-117604.984,-36891.848,-55903.77,-38608.805
1315420.0424774578,-82788.25,-100585.125,-78030.16,-41833.58,-117660.77,-36920.613,-55958.293,-38670.29
1315420.0464774538,-82837.164,-100630.945,-78080.33,-41869.71,-117710.86,-36952.92,-56001.832,-38723.105
1315420.0504774495,-82803.836,-100603.88,-78051.03,-41855.023,-117679.164,-36942.71,-55975.465,-38694.5
1315420.0544774453,-82734.945,-100541.42,-77980.516,-41810.344,-117608.4,-36903.973,-55919.434,-38638.715
1315420.0584774413,-82721.195,-100530.27,-77965.05,-41797.934,-117604.82,-36888.266,-55903.527,-38621.867
1315420.062477437,-82785.52,-100590.7,-78023.36,-41833.496,-117664.39,-36916.992,-55949.26,-38683.27
1315420.066477433,-82842.57,-100643.64,-78078.58,-41873.13,-117719.04,-36951.01,-55989.34,-38718.668
1315420.0704774288,-82810.836,-100609.42,-78049.69,-41858.805,-117692.305,-36938.76,-55963.176,-38697.39
1315420.0744774248,-82744.836,-100543.83,-77981.734,-41814.74,-117623.58,-36901.773,-55903.2,-38635.094
1315420.0784774206,-82742.234,-100540.04,-77972.25,-41800.906,-117612.836,-36885.133,-55880.21,-38619.266
1315420.0824774166,-82796.19,-100593.02,-78032.96,-41834.39,-117664.31,-36913.086,-55920.9,-38672.77
1315420.0864774124,-82848.35,-100640.75,-78085.82,-41871.38,-117716.35,-36949.992,-55964.48,-38731.977
1315420.0904774081,-82824.47,-100617.84,-78060.23,-41859.58,-117689.17,-36941.043,-55935.754,-38705.69
1315420.0944774041,-82756.15,-100552.58,-77994.305,-41815.066,-117615.36,-36901.57,-55867.35,-38630.617
1315420.0984774,-82740.44,-100536.586,-77976.445,-41797.85,-117595.99,-36888.67,-55850.75,-38618.45
1315420.102477396,-82808.39,-100604.74,-78036.46,-41832.438,-117659.875,-36917.117,-55893.434,-38675.09
1315420.1064773917,-82864.055,-100662.44,-78085.05,-41871.176,-117722.25,-36946.656,-55927.168,-38723.55
1315420.1104773877,-82829.59,-100630.58,-78060.18,-41858.523,-117692.06,-36940.145,-55901.367,-38696.902
1315420.1144773834,-82757.41,-100561.61,-77989.14,-41814.82,-117624.8,-36903.85,-55835.29,-38623.535
1315420.1184773794,-82746.91,-100544.35,-77971.6,-41798.465,-117605.06,-36886.395,-55814.09,-38601.766
1315420.1224773752,-82813.56,-100605.76,-78026.37,-41833.863,-117663.54,-36913.453,-55856.285,-38656.863
1315420.126477371,-82867.516,-100659.95,-78081.87,-41873.21,-117718.19,-36946.98,-55901.45,-38724.527
1315420.130477367,-82835.33,-100630.984,-78056.805,-41860.19,-117690.39,-36938.234,-55883.3,-38708.21
1315420.1344773627,-82771.57,-100563.4,-77991.54,-41815.758,-117620.484,-36900.31,-55823.938,-38633.75
1315420.1384773587,-82758.22,-100549.08,-77971.88,-41800.418,-117598.76,-36884.645,-55804.812,-38620.035
1315420.1424773545,-82817.305,-100609.09,-78026.05,-41835.695,-117654.18,-36911.785,-55854.453,-38689.453
1315420.1464773505,-82871.3,-100664.266,-78079.8,-41875.652,-117708.91,-36948.082,-55905.234,-38755.656
1315420.1504773463,-82838.79,-100635.336,-78057.21,-41863.527,-117679.69,-36939.168,-55882.203,-38713.055
1315420.1544773423,-82764.37,-100561.89,-77986.05,-41815.473,-117610.92,-36894.695,-55814.17,-38639.69
1315420.158477338,-82750.41,-100548.26,-77967.82,-41799.48,-117598.88,-36876.344,-55791.18,-38624.758
1315420.1624773338,-82812.586,-100611.414,-78026.77,-41836.875,-117655.32,-36908.773,-55840.742,-38677.652
1315420.1664773298,-82867.92,-100663.78,-78079.914,-41874.473,-117708.42,-36942.508,-55889.527,-38729.777
1315420.1704773256,-82840.78,-100637.9,-78051.39,-41860.15,-117679.69,-36935.305,-55867.23,-38700.81
1315420.1744773216,-82764.57,-100561.04,-77981.24,-41813.355,-117610.234,-36895.426,-55802.207,-38617.676
1315420.1784773173,-82745.445,-100538.21,-77965.78,-41795.98,-117588.34,-36878.867,-55788.293,-38611.734
1315420.1824773133,-82811.81,-100603.766,-78024.17,-41832.6,-117644.66,-36911.215,-55845.01,-38682.902
1315420.186477309,-82872.52,-100662.88,-78077.92,-41870.28,-117702.68,-36944.176,-55890.79,-38729.9
1315420.190477305,-82837.08,-100630.58,-78054.61,-41861.613,-117676.97,-36937.215,-55867.11,-38697.715
1315420.1944773009,-82764.9,-100558.11,-77986.66,-41816.895,-117607.836,-36902.02,-55808.312,-38634.402
1315420.1984772966,-82747.44,-100536.586,-77964.56,-41797.445,-117591.35,-36883.832,-55785.484,-38614.3
1315420.2024772926,-82805.34,-100593.02,-78023.44,-41828.41,-117645.96,-36909.87,-55825.36,-38660.727
1315420.2064772884,-82865.03,-100654.914,-78081.34,-41867.88,-117698.86,-36943.44,-55873.496,-38710.816
1315420.2104772844,-82833.78,-100623.7,-78055.46,-41856.934,-117675.78,-36933.92,-55854.7,-38685.67
1315420.2144772802,-82760.58,-100548.34,-77987.14,-41811.77,-117606.86,-36892.457,-55793.664,-38614.79
1315420.2184772762,-82741.58,-100528.41,-77966.07,-41793.336,-117584.15,-36876.14,-55777.184,-38591.797
1315420.222477272,-82801.48,-100591.48,-78018.555,-41828.816,-117637.58,-36905.477,-55827.598,-38637.25
1315420.226477268,-82852.74,-100647.38,-78068.69,-41869.344,-117700.52,-36940.473,-55873.457,-38686.688
1315420.2304772637,-82823.125,-100622.89,-78043.22,-41858.156,-117672.37,-36933.88,-55853.844,-38669.68
1315420.2344772595,-82749.19,-100554.33,-77973.516,-41811.16,-117601.69,-36894.656,-55793.457,-38606.445
1315420.2384772555,-82731.164,-100536.586,-77955.33,-41792.848,-117585.01,-36878.62,-55776.164,-38592.613
1315420.2424772512,-82796.63,-100598.63,-78015.38,-41825.195,-117640.1,-36906.82,-55820.883,-38642.293
1315420.2464772472,-82858.4,-100655.89,-78074.914,-41865.723,-117693.12,-36938.844,-55865.277,-38687.625
1315420.250477243,-82836.67,-100635.26,-78052.414,-41857.137,-117668.79,-36933.066,-55851.645,-38673.098
1315420.254477239,-82768.6,-100566.98,-77985.234,-41814.86,-117598.92,-36896.2,-55799.316,-38614.664
1315420.2584772347,-82750.94,-100548.875,-77965.91,-41797.324,-117578.984,-36877.402,-55785.688,-38598.797
1315420.2624772307,-82813.195,-100605.76,-78021.12,-41830.934,-117636.97,-36903.363,-55841.758,-38665.242
1315420.2664772265,-82871.22,-100664.43,-78081.42,-41872.926,-117695.56,-36940.633,-55902.266,-38723.105
1315420.2704772223,-82845.75,-100642.984,-78061.16,-41865.48,-117675.22,-36936.93,-55889.895,-38691.652
1315420.2744772183,-82773.27,-100571.74,-77987.23,-41818.074,-117602.7,-36897.625,-55829.1,-38619.63
1315420.278477214,-82748.984,-100552.9,-77963.3,-41796.43,-117578.01,-36876.508,-55804.73,-38599.324
1315420.28247721,-82808.88,-100609.58,-78018.15,-41827.23,-117629.03,-36901.9,-55844.402,-38653.934
1315420.2864772058,-82862.96,-100663.74,-78073.164,-41868.125,-117687.87,-36935.793,-55889.61,-38715.66
1315420.2904772018,-82837.24,-100639.04,-78048.875,-41862.062,-117667.28,-36932.7,-55870.65,-38692.668
1315420.2944771976,-82762.945,-100565.63,-77979.62,-41815.633,-117598.63,-36895.996,-55808.35,-38620.28
1315420.2984771936,-82743.62,-100545.86,-77956.38,-41796.023,-117580.29,-36878.133,-55783.816,-38597.94
1315420.3024771893,-82800.78,-100598.23,-78012.17,-41827.477,-117631.07,-36904.297,-55826.133,-38643.637
1315420.306477185,-82873.414,-100670.414,-78078.21,-41870.16,-117696.01,-36938.234,-55877.523,-38697.47
1315420.310477181,-82842.695,-100650.234,-78055.586,-41859.336,-117675.91,-36933.31,-55867.96,-38691.855
1315420.3144771769,-82738.41,-100553.23,-77974.0,-41806.926,-117596.93,-36897.95,-55811.035,-38621.055
1315420.3184771729,-82722.01,-100535.12,-77955.0,-41790.242,-117568.85,-36881.754,-55789.96,-38610.19
1315420.3224771686,-82777.305,-100586.23,-78007.77,-41825.44,-117631.92,-36911.05,-55831.22,-38665.082
1315420.3264771646,-82824.51,-100629.766,-78059.125,-41863.2,-117687.34,-36944.54,-55880.37,-38709.473
1315420.3304771604,-82799.85,-100611.375,-78040.0,-41857.75,-117671.516,-36937.055,-55865.52,-38681.07
1315420.3344771564,-82720.13,-100537.516,-77970.13,-41811.688,-117597.82,-36902.547,-55811.65,-38621.707
1315420.3384771522,-82693.28,-100503.83,-77949.79,-41791.26,-117573.66,-36882.977,-55796.348,-38607.18
1315420.342477148,-82751.914,-100558.59,-78006.266,-41824.016,-117630.66,-36908.855,-55841.15,-38658.734
1315420.346477144,-82810.8,-100619.67,-78064.05,-41865.766,-117691.164,-36946.656,-55890.3,-38707.97
1315420.3504771397,-82786.13,-100601.89,-78042.484,-41856.527,-117673.016,-36939.13,-55876.1,-38682.21
1315420.3544771357,-82713.625,-100528.2,-77973.11,-41810.26,-117605.06,-36898.926,-55822.145,-38618.125
1315420.3584771315,-82696.695,-100505.945,-77947.35,-41785.93,-117580.2,-36880.7,-55801.72,-38603.56
1315420.3624771275,-82756.15,-100564.375,-77998.74,-41818.523,-117632.94,-36908.0,-55843.832,-38659.098
1315420.3664771232,-82818.73,-100623.664,-78063.805,-41861.695,-117688.44,-36943.766,-55888.184,-38707.52
1315420.3704771192,-82798.586,-100601.65,-78047.37,-41855.387,-117662.4,-36941.406,-55873.13,-38686.44
1315420.374477115,-82720.91,-100526.37,-77971.56,-41810.184,-117598.516,-36902.344,-55818.32,-38622.52
1315420.378477111,-82700.24,-100504.4,-77942.18,-41786.133,-117573.164,-36881.918,-55802.656,-38608.48
1315420.3824771068,-82760.09,-100565.59,-78003.664,-41821.617,-117629.68,-36907.84,-55846.805,-38655.113
1315420.3864771025,-82819.91,-100626.8,-78063.4,-41862.508,-117688.93,-36940.836,-55891.562,-38697.023
1315420.3904770985,-82796.836,-100602.586,-78042.08,-41853.273,-117668.13,-36934.652,-55872.07,-38682.008
1315420.3944770943,-82731.125,-100533.53,-77973.96,-41809.53,-117596.6,-36895.387,-55814.375,-38625.895
1315420.3984770903,-82711.23,-100512.05,-77948.04,-41792.97,-117573.37,-36875.895,-55798.625,-38599.895
1315420.402477086,-82769.53,-100569.46,-78000.66,-41826.824,-117628.38,-36904.543,-55851.2,-38654.38
1315420.406477082,-82829.35,-100628.99,-78060.14,-41863.85,-117681.97,-36940.715,-55901.938,-38706.95
1315420.4104770778,-82807.82,-100609.42,-78039.23,-41856.73,-117664.43,-36938.113,-55887.25,-38686.2
1315420.4144770738,-82739.71,-100536.625,-77971.766,-41812.99,-117594.98,-36902.914,-55832.195,-38622.926
1315420.4184770696,-82715.21,-100508.875,-77950.484,-41790.934,-117571.375,-36882.164,-55813.152,-38600.63
1315420.4224770654,-82777.71,-100567.43,-78004.97,-41823.57,-117621.09,-36909.426,-55859.133,-38648.48
1315420.4264770614,-82843.67,-100630.945,-78067.95,-41864.055,-117684.695,-36948.04,-55910.28,-38706.95
1315420.4304770571,-82824.38,-100612.555,-78053.55,-41859.375,-117677.17,-36944.867,-55891.195,-38685.06
1315420.4344770531,-82753.95,-100544.72,-77986.25,-41815.676,-117608.28,-36904.258,-55827.637,-38605.184
1315420.4384770489,-82730.836,-100526.49,-77955.57,-41794.598,-117587.734,-36881.023,-55805.055,-38579.266
1315420.4424770449,-82784.18,-100576.055,-78005.21,-41820.64,-117635.664,-36902.547,-55857.098,-38636.11
1315420.4464770406,-82839.84,-100629.84,-78063.68,-41857.91,-117691.2,-36935.305,-55913.74,-38685.67
1315420.4504770366,-82816.04,-100608.28,-78046.06,-41850.75,-117674.195,-36933.758,-55897.586,-38656.375
1315420.4544770324,-82740.16,-100536.5,-77974.2,-41809.125,-117603.03,-36895.996,-55840.09,-38589.926
1315420.4584770282,-82714.27,-100511.234,-77951.42,-41791.22,-117577.4,-36878.176,-55821.496,-38569.418
1315420.4624770242,-82769.33,-100567.38,-78004.72,-41821.98,-117627.85,-36903.727,-55867.8,-38617.676
1315420.46647702,-82824.67,-100625.086,-78061.81,-41859.824,-117685.14,-36939.047,-55921.51,-38678.836
1315420.470477016,-82805.34,-100606.94,-78044.72,-41855.348,-117667.69,-36938.234,-55913.047,-38666.547
1315420.4744770117,-82729.945,-100539.11,-77971.07,-41812.094,-117603.64,-36901.004,-55856.242,-38596.56
1315420.4784770077,-82700.445,-100512.945,-77939.54,-41787.19,-117576.74,-36880.21,-55831.79,-38572.023
1315420.4824770035,-82756.47,-100563.32,-77991.664,-41813.234,-117628.38,-36902.996,-55874.066,-38629.965
1315420.4864769995,-82815.516,-100624.15,-78057.25,-41853.56,-117682.78,-36939.168,-55926.15,-38687.01
1315420.4904769952,-82797.53,-100613.94,-78039.06,-41851.035,-117665.81,-36939.984,-55919.64,-38673.016
1315420.494476991,-82727.625,-100547.734,-77970.18,-41805.867,-117594.24,-36902.344,-55861.168,-38605.023
1315420.498476987,-82702.11,-100527.47,-77942.914,-41783.61,-117568.04,-36880.777,-55836.875,-38580.16
1315420.5024769828,-82758.06,-100581.14,-77993.05,-41816.69,-117620.33,-36904.137,-55877.28,-38627.973
1315420.5064769788,-82816.98,-100638.555,-78054.164,-41857.87,-117679.33,-36938.395,-55930.016,-38687.83
1315420.5104769745,-82798.79,-100620.32,-78038.695,-41855.55,-117667.484,-36939.58,-55918.54,-38671.957
1315420.5144769705,-82730.06,-100550.5,-77969.56,-41814.332,-117602.91,-36903.934,-55860.395,-38603.965
1315420.5184769663,-82707.03,-100522.1,-77943.08,-41789.797,-117569.83,-36879.234,-55836.914,-38575.97
1315420.5224769623,-82762.66,-100576.7,-77989.625,-41816.12,-117623.01,-36903.566,-55881.836,-38633.465
1315420.526476958,-82826.625,-100638.96,-78049.805,-41855.715,-117684.82,-36942.547,-55937.46,-38699.383
1315420.5304769538,-82807.17,-100619.875,-78032.555,-41852.703,-117670.375,-36939.78,-55928.71,-38680.38
1315420.5344769498,-82731.65,-100549.32,-77959.8,-41808.51,-117596.03,-36903.035,-55878.297,-38612.223
1315420.5384769456,-82705.28,-100518.35,-77935.18,-41786.258,-117567.51,-36879.395,-55850.914,-38573.773
1315420.5424769416,-82760.625,-100570.27,-77991.7,-41817.75,-117616.984,-36901.816,-55895.02,-38634.605
1315420.5464769374,-82828.45,-100640.914,-78050.17,-41859.99,-117684.984,-36939.535,-55948.938,-38690.758
1315420.5504769334,-82816.77,-100630.375,-78036.586,-41856.85,-117674.65,-36936.484,-55941.406,-38683.51
1315420.5544769291,-82742.76,-100554.2,-77966.96,-41814.453,-117608.12,-36899.863,-55885.582,-38628.906
1315420.5584769251,-82712.24,-100524.7,-77935.02,-41790.49,-117577.31,-36876.18,-55856.61,-38597.984
1315420.562476921,-82764.125,-100580.734,-77989.79,-41817.06,-117625.414,-36897.34,-55893.68,-38639.977
1315420.5664769167,-82828.53,-100639.61,-78052.45,-41857.625,-117685.43,-36934.9,-55952.637,-38701.58
1315420.5704769127,-82814.984,-100627.28,-78036.26,-41854.086,-117675.26,-36936.08,-55944.38,-38682.09
1315420.5744769084,-82741.09,-100555.305,-77962.484,-41812.055,-117607.42,-36897.95,-55883.586,-38603.965
1315420.5784769044,-82712.98,-100521.77,-77931.89,-41788.7,-117576.09,-36877.523,-55860.23,-38573.0
1315420.5824769002,-82768.234,-100570.44,-77988.33,-41819.297,-117623.87,-36901.695,-55905.113,-38616.09
1315420.5864768962,-82829.39,-100634.41,-78045.53,-41859.09,-117684.37,-36938.152,-55958.58,-38680.42
1315420.590476892,-82809.82,-100623.336,-78031.414,-41859.375,-117669.72,-36938.07,-55949.63,-38668.297
1315420.594476888,-82737.02,-100551.11,-77962.52,-41813.844,-117599.57,-36901.938,-55893.027,-38604.168
1315420.5984768837,-82707.08,-100516.73,-77930.79,-41784.18,-117571.7,-36877.36,-55868.37,-38574.91
1315420.6024768795,-82762.82,-100569.18,-77984.26,-41811.484,-117617.07,-36899.78,-55906.66,-38612.754
1315420.6064768755,-82825.89,-100636.36,-78041.47,-41853.23,-117677.695,-36935.223,-55955.324,-38674.766
1315420.6104768713,-82807.3,-100621.26,-78023.234,-41851.523,-117666.67,-36930.3,-55941.406,-38659.996
1315420.6144768673,-82735.234,-100543.586,-77954.96,-41807.984,-117606.9,-36895.47,-55879.965,-38585.29
1315420.618476863,-82705.98,-100511.07,-77931.44,-41783.69,-117573.57,-36876.668,-55853.11,-38556.152
1315420.622476859,-82757.53,-100564.25,-77982.055,-41810.71,-117618.53,-36898.562,-55887.94,-38595.055
1315420.6264768548,-82820.27,-100627.0,-78044.76,-41851.89,-117681.56,-36935.59,-55937.46,-38660.973
1315420.6304768508,-82806.52,-100615.6,-78032.92,-41846.355,-117669.36,-36932.82,-55922.812,-38650.23
1315420.6344768465,-82730.72,-100538.86,-77961.266,-41799.562,-117597.05,-36892.293,-55857.79,-38596.76
1315420.6384768423,-82704.76,-100508.67,-77931.48,-41776.367,-117567.305,-36868.33,-55824.586,-38561.16
1315420.6424768383,-82767.74,-100566.61,-77987.914,-41807.332,-117616.78,-36888.47,-55860.84,-38604.047
1315420.646476834,-82823.57,-100626.71,-78043.99,-41848.715,-117676.84,-36924.684,-55908.164,-38661.746
1315420.65047683,-82785.08,-100598.39,-78021.94,-41847.7,-117664.02,-36926.555,-55894.9,-38648.438
1315420.6544768258,-82719.484,-100532.07,-77952.48,-41805.83,-117597.414,-36889.285,-55831.707,-38592.41
1315420.6584768218,-82701.984,-100515.38,-77925.5,-41783.0,-117572.8,-36866.293,-55797.527,-38559.207
1315420.6624768176,-82755.62,-100569.055,-77976.73,-41812.99,-117624.27,-36891.727,-55832.36,-38604.82
1315420.6664768136,-82821.74,-100638.8,-78041.99,-41858.195,-117686.57,-36929.363,-55879.355,-38668.336
1315420.6704768094,-82803.34,-100623.13,-78029.5,-41853.68,-117669.36,-36925.293,-55865.03,-38659.547
1315420.6744768051,-82737.71,-100555.914,-77962.32,-41812.664,-117600.875,-36889.324,-55798.668,-38591.473
1315420.6784768011,-82708.82,-100525.555,-77931.4,-41785.93,-117568.0,-36866.293,-55762.74,-38556.07
1315420.682476797,-82758.42,-100570.56,-77976.81,-41810.793,-117608.08,-36888.754,-55798.42,-38605.31
1315420.686476793,-82817.14,-100630.25,-78039.8,-41852.906,-117666.914,-36924.48,-55847.82,-38663.94
1315420.6904767887,-82803.06,-100622.48,-78028.32,-41850.344,-117656.664,-36925.293,-55839.52,-38652.1
1315420.6944767847,-82726.89,-100548.99,-77955.04,-41802.207,-117590.17,-36889.285,-55779.707,-38581.79
1315420.6984767804,-82702.27,-100516.69,-77926.72,-41780.477,-117562.26,-36868.652,-55751.26,-38550.457
1315420.7024767764,-82760.42,-100569.46,-77978.07,-41812.297,-117612.516,-36892.09,-55788.21,-38597.78
1315420.7064767722,-82824.99,-100634.445,-78038.45,-41854.74,-117673.914,-36924.93,-55840.78,-38672.77
1315420.710476768,-82812.7,-100621.99,-78028.28,-41853.56,-117662.93,-36926.92,-55831.75,-38672.65
1315420.714476764,-82747.56,-100553.266,-77961.55,-41808.84,-117591.72,-36891.24,-55776.33,-38612.836
1315420.7184767597,-82710.62,-100519.58,-77930.99,-41784.586,-117554.57,-36867.35,-55745.117,-38577.15
1315420.7224767557,-82763.23,-100569.42,-77978.6,-41811.605,-117599.33,-36889.895,-55778.16,-38621.664
1315420.7264767515,-82830.33,-100632.49,-78039.92,-41853.64,-117665.086,-36926.758,-55829.43,-38689.21
1315420.7304767475,-82816.61,-100624.555,-78029.83,-41853.312,-117660.24,-36930.016,-55821.086,-38676.72
1315420.7344767433,-82745.12,-100555.71,-77962.57,-41810.59,-117592.57,-36891.195,-55765.668,-38615.766
1315420.7384767393,-82710.45,-100522.914,-77930.95,-41784.098,-117564.5,-36867.39,-55743.246,-38594.117
1315420.742476735,-82753.5,-100563.16,-77981.04,-41813.395,-117611.45,-36892.863,-55786.34,-38644.246
1315420.7464767308,-82819.22,-100623.54,-78044.555,-41856.363,-117669.97,-36931.766,-55838.3,-38702.68
1315420.7504767268,-82804.52,-100602.79,-78034.016,-41855.348,-117659.34,-36933.023,-55827.395,-38677.9
1315420.7544767226,-82726.484,-100529.664,-77962.85,-41809.49,-117591.555,-36894.207,-55771.895,-38612.793
1315420.7584767186,-82694.336,-100500.45,-77928.63,-41783.61,-117556.73,-36871.625,-55744.914,-38592.125
1315420.7624767143,-82741.945,-100545.695,-77974.57,-41808.797,-117603.56,-36893.23,-55784.465,-38639.527
1315420.7664767103,-82808.88,-100616.414,-78040.04,-41852.418,-117671.266,-36929.28,-55833.945,-38695.72
1315420.770476706,-82805.87,-100613.734,-78035.12,-41855.145,-117664.68,-36931.97,-55830.85,-38682.332
1315420.774476702,-82730.67,-100541.266,-77967.125,-41815.43,-117598.84,-36894.98,-55771.934,-38616.457
1315420.7784766979,-82692.63,-100501.71,-77929.32,-41788.902,-117565.02,-36867.27,-55738.77,-38596.926
1315420.7824766939,-82737.67,-100546.43,-77975.42,-41816.652,-117611.9,-36889.445,-55776.53,-38636.027
1315420.7864766896,-82803.305,-100611.945,-78040.98,-41862.59,-117672.41,-36929.566,-55831.91,-38690.836
1315420.7904766854,-82786.3,-100600.836,-78032.27,-41860.68,-117661.34,-36934.043,-55832.48,-38687.297
1315420.7944766814,-82704.02,-100522.71,-77962.08,-41814.82,-117588.305,-36898.48,-55778.688,-38627.484
1315420.7984766772,-82666.51,-100482.83,-77923.46,-41787.07,-117551.4,-36872.926,-55752.523,-38593.387
1315420.8024766732,-82709.11,-100521.89,-77966.19,-41811.24,-117598.11,-36896.2,-55795.41,-38641.887
1315420.806476669,-82757.41,-100572.23,-78023.56,-41850.26,-117663.414,-36932.945,-55851.484,-38712.08
1315420.810476665,-82739.016,-100555.79,-78014.164,-41849.938,-117657.27,-36934.0,-55847.535,-38707.277
1315420.8144766607,-82659.43,-100474.49,-77941.164,-41802.734,-117584.6,-36895.55,-55792.48,-38635.133
1315420.8184766567,-82607.305,-100425.26,-77902.836,-41773.152,-117548.67,-36873.82,-55769.86,-38603.598
1315420.8224766525,-82639.695,-100462.28,-77947.96,-41798.383,-117593.23,-36898.844,-55811.32,-38653.402
1315420.8264766482,-82685.836,-100512.58,-78002.65,-41837.73,-117653.04,-36940.88,-55870.445,-38726.645
1315420.8304766442,-82648.64,-100478.84,-77986.125,-41833.336,-117639.86,-36944.95,-55877.24,-38720.46
1315420.83447664,-82567.836,-100395.63,-77921.43,-41793.17,-117568.57,-36910.156,-55828.777,-38651.41
1315420.838476636,-82529.13,-100348.59,-77883.95,-41765.18,-117532.88,-36883.953,-55800.418,-38621.46
1315420.8424766317,-82556.97,-100376.95,-77924.97,-41783.69,-117572.48,-36904.42,-55838.098,-38671.305
1315420.8464766277,-82620.52,-100436.65,-77990.4,-41827.84,-117635.7,-36944.824,-55897.46,-38741.414
1315420.8504766235,-82592.734,-100417.04,-77975.875,-41825.93,-117629.32,-36949.504,-55897.18,-38735.434
1315420.8544766195,-82517.26,-100348.39,-77905.766,-41782.473,-117559.086,-36915.0,-55836.1,-38659.223
1315420.8584766153,-82480.555,-100311.41,-77867.11,-41754.234,-117524.055,-36889.203,-55800.742,-38620.16
1315420.862476611,-82522.51,-100353.6,-77911.46,-41779.746,-117566.53,-36910.973,-55844.688,-38676.96
1315420.866476607,-82584.31,-100422.53,-77975.914,-41821.047,-117632.29,-36951.05,-55903.402,-38752.28
1315420.8704766028,-82579.02,-100415.0,-77969.41,-41824.75,-117628.625,-36953.98,-55898.277,-38740.113
1315420.8744765988,-82507.37,-100341.02,-77904.42,-41783.33,-117557.54,-36916.992,-55835.492,-38666.547
1315420.8784765946,-82474.24,-100306.89,-77871.55,-41754.11,-117522.79,-36892.293,-55802.29,-38629.64
1315420.8824765906,-82522.26,-100359.26,-77913.336,-41778.523,-117569.75,-36911.133,-55837.688,-38671.305
1315420.8864765863,-82596.93,-100435.43,-77978.48,-41822.184,-117638.67,-36949.344,-55893.273,-38749.43
1315420.8904765823,-82601.16,-100437.14,-77975.34,-41828.656,-117637.945,-36954.996,-55891.36,-38752.727
1315420.894476578,-82539.875,-100377.16,-77911.26,-41787.8,-117571.78,-36918.336,-55830.566,-38677.41
1315420.8984765739,-82508.75,-100349.41,-77877.85,-41759.117,-117536.13,-36889.324,-55795.777,-38640.992
1315420.9024765699,-82567.914,-100401.86,-77924.484,-41784.465,-117579.47,-36906.496,-55829.633,-38670.777
1315420.9064765656,-82653.32,-100480.39,-77994.02,-41833.336,-117643.48,-36944.867,-55890.383,-38739.46
1315420.9104765616,-82657.15,-100485.516,-77995.28,-41838.582,-117641.4,-36948.69,-55892.133,-38729.86
1315420.9144765574,-82594.24,-100427.49,-77929.37,-41795.207,-117576.586,-36908.816,-55837.402,-38657.88
1315420.9184765534,-82565.76,-100401.086,-77895.47,-41768.72,-117542.766,-36879.52,-55805.016,-38618.41
1315420.9224765492,-82621.87,-100455.2,-77942.06,-41798.137,-117586.19,-36902.02,-55842.004,-38664.39
1315420.9264765452,-82700.32,-100529.87,-78011.72,-41843.71,-117648.4,-36939.902,-55896.242,-38726.97
1315420.930476541,-82702.15,-100535.36,-78013.67,-41849.652,-117644.9,-36944.62,-55893.68,-38718.63
1315420.9344765367,-82640.914,-100473.8,-77948.57,-41810.63,-117579.67,-36905.76,-55826.906,-38644.125
1315420.9384765327,-82611.375,-100437.95,-77912.07,-41781.82,-117541.79,-36873.008,-55780.273,-38595.95
1315420.9424765285,-82660.24,-100490.16,-77954.836,-41804.566,-117584.92,-36890.504,-55809.734,-38627.566
1315420.9464765245,-82732.1,-100563.12,-78020.02,-41850.26,-117653.85,-36930.22,-55868.004,-38699.547
1315420.9504765202,-82733.03,-100560.06,-78019.29,-41853.477,-117652.555,-36934.57,-55866.457,-38693.766
1315420.9544765162,-82665.57,-100496.09,-77953.086,-41811.77,-117583.5,-36899.66,-55809.57,-38623.74
1315420.958476512,-82630.25,-100455.28,-77914.59,-41784.63,-117543.7,-36872.152,-55775.27,-38578.777
1315420.962476508,-82682.58,-100498.25,-77955.2,-41808.31,-117587.57,-36890.016,-55808.066,-38614.664
1315420.9664765038,-82755.66,-100568.61,-78019.21,-41855.145,-117653.81,-36928.47,-55864.42,-38684.45
1315420.9704764995,-82753.055,-100567.51,-78017.87,-41860.72,-117650.19,-36933.023,-55869.02,-38689.496
1315420.9744764955,-82685.55,-100497.97,-77950.766,-41818.24,-117583.58,-36896.484,-55809.41,-38626.996
1315420.9784764913,-82653.24,-100467.414,-77912.11,-41788.7,-117551.72,-36868.9,-55768.273,-38588.582
1315420.9824764873,-82700.24,-100515.055,-77954.266,-41809.773,-117599.49,-36886.355,-55801.68,-38624.35
1315420.986476483,-82767.7,-100577.03,-78018.19,-41849.45,-117662.6,-36921.43,-55855.39,-38675.984
1315420.990476479,-82763.305,-100572.76,-78018.555,-41852.664,-117660.08,-36927.207,-55859.336,-38675.58
1315420.9944764748,-82701.3,-100509.93,-77958.54,-41813.438,-117597.82,-36896.445,-55805.176,-38616.09
1315420.9984764708,-82671.47,-100479.414,-77924.85,-41789.754,-117561.2,-36868.53,-55775.11,-38573.367
1315421.0024764666,-82716.84,-100528.52,-77965.945,-41815.145,-117601.04,-36883.465,-55815.27,-38621.137
1315421.0064764624,-82787.84,-100601.484,-78031.086,-41862.062,-117665.29,-36920.535,-55869.957,-38690.227
1315421.0104764584,-82783.04,-100600.38,-78029.7,-41867.35,-117661.7,-36925.824,-55867.312,-38684.652
1315421.0144764541,-82713.46,-100532.92,-77964.64,-41824.953,-117598.15,-36892.66,-55809.492,-38617.92
1315421.0184764501,-82677.164,-100498.01,-77921.76,-41798.22,-117561.69,-36867.555,-55768.477,-38573.16
1315421.0224764459,-82724.29,-100540.37,-77963.75,-41821.332,-117601.61,-36885.336,-55798.83,-38606.0
1315421.0264764419,-82790.29,-100603.31,-78030.234,-41861.246,-117662.52,-36920.535,-55855.266,-38672.242
1315421.0304764376,-82788.984,-100603.36,-78032.88,-41865.074,-117663.336,-36925.54,-55860.07,-38671.43
1315421.0344764336,-82723.88,-100540.445,-77965.7,-41826.17,-117601.85,-36892.742,-55814.25,-38611.043
1315421.0384764294,-82681.03,-100495.08,-77919.76,-41793.457,-117560.914,-36863.363,-55779.582,-38567.26
1315421.0424764252,-82723.68,-100540.41,-77959.555,-41814.21,-117600.38,-36879.03,-55811.28,-38601.44
1315421.0464764212,-82788.695,-100605.43,-78024.46,-41858.887,-117663.13,-36918.457,-55866.66,-38664.188
1315421.050476417,-82789.67,-100603.234,-78025.88,-41865.6,-117661.22,-36926.96,-55870.08,-38670.535
1315421.054476413,-82724.9,-100539.11,-77961.305,-41824.625,-117599.125,-36895.793,-55819.746,-38604.94
1315421.0584764087,-82685.38,-100503.55,-77920.62,-41792.645,-117562.09,-36868.367,-55789.758,-38569.05
1315421.0624764047,-82733.28,-100542.69,-77959.44,-41810.67,-117598.72,-36880.008,-55825.402,-38607.06
1315421.0664764005,-82808.88,-100612.35,-78026.125,-41856.773,-117665.77,-36915.324,-55881.227,-38661.582
1315421.0704763965,-82811.2,-100620.57,-78027.39,-41864.992,-117668.22,-36921.957,-55888.31,-38667.97
1315421.0744763922,-82738.445,-100547.9,-77964.44,-41823.812,-117604.29,-36887.613,-55834.19,-38602.54
1315421.078476388,-82696.78,-100502.28,-77925.3,-41794.23,-117561.2,-36861.125,-55794.72,-38559.246
1315421.082476384,-82740.52,-100542.24,-77964.766,-41815.633,-117597.54,-36879.234,-55821.13,-38589.03
1315421.0864763798,-82804.24,-100607.95,-78030.88,-41856.977,-117663.13,-36919.72,-55880.21,-38659.953
1315421.0904763758,-82797.04,-100606.33,-78030.195,-41861.33,-117659.63,-36929.566,-55890.91,-38687.215
1315421.0944763715,-82725.586,-100539.35,-77962.0,-41819.664,-117593.266,-36895.184,-55837.566,-38619.754
1315421.0984763675,-82685.38,-100496.14,-77921.19,-41788.414,-117551.72,-36867.758,-55801.477,-38563.52
1315421.1024763633,-82733.12,-100541.1,-77961.96,-41809.816,-117595.5,-36884.117,-55839.766,-38608.645
1315421.1064763593,-82806.64,-100612.35,-78025.02,-41856.65,-117664.48,-36920.816,-55899.09,-38680.992
1315421.110476355,-82811.32,-100615.805,-78027.06,-41867.434,-117669.48,-36930.055,-55899.945,-38676.23
1315421.1144763508,-82740.28,-100542.56,-77962.32,-41824.18,-117601.0,-36892.824,-55842.246,-38602.418
1315421.1184763468,-82694.42,-100500.33,-77919.76,-41791.22,-117554.41,-36863.2,-55801.84,-38554.73
1315421.1224763426,-82733.4,-100538.74,-77952.35,-41810.63,-117591.07,-36880.656,-55834.92,-38590.74
1315421.1264763386,-82803.1,-100603.31,-78016.805,-41853.273,-117656.09,-36918.215,-55888.227,-38639.566
1315421.1304763344,-82802.695,-100605.836,-78021.484,-41863.04,-117660.24,-36925.418,-55892.62,-38637.168
1315421.1344763304,-82728.805,-100536.016,-77954.19,-41820.56,-117592.62,-36890.504,-55840.78,-38582.195
1315421.1384763261,-82684.45,-100490.766,-77911.336,-41789.105,-117548.79,-36862.1,-55804.484,-38541.87
1315421.1424763221,-82728.27,-100529.95,-77950.805,-41807.496,-117586.51,-36879.56,-55841.434,-38586.387
1315421.146476318,-82798.83,-100600.016,-78018.805,-41850.992,-117652.19,-36919.965,-55906.047,-38658.53
1315421.1504763137,-82802.37,-100608.69,-78024.7,-41860.516,-117660.57,-36929.73,-55910.402,-38664.062
1315421.1544763097,-82733.28,-100542.97,-77959.11,-41818.277,-117602.586,-36893.598,-55848.633,-38592.53
1315421.1584763054,-82691.45,-100497.52,-77918.016,-41787.312,-117559.29,-36859.703,-55805.87,-38548.098
1315421.1624763014,-82737.67,-100541.586,-77954.96,-41808.35,-117597.7,-36875.406,-55835.41,-38592.977
1315421.1664762972,-82809.2,-100613.164,-78023.03,-41853.027,-117663.01,-36915.855,-55887.617,-38655.273
1315421.1704762932,-82814.01,-100616.21,-78027.63,-41861.53,-117669.64,-36922.61,-55889.16,-38666.14
1315421.174476289,-82747.07,-100550.58,-77962.12,-41821.453,-117607.06,-36889.895,-55834.883,-38600.668
1315421.178476285,-82705.89,-100509.24,-77920.695,-41792.727,-117564.74,-36861.043,-55792.93,-38554.73
1315421.1824762807,-82747.16,-100546.23,-77958.54,-41813.64,-117600.586,-36876.1,-55821.902,-38594.24
1315421.1864762765,-82813.44,-100618.33,-78023.32,-41857.668,-117669.72,-36913.656,-55877.688,-38666.586
1315421.1904762725,-82818.08,-100630.13,-78026.62,-41866.66,-117675.42,-36919.273,-55872.438,-38666.953
1315421.1944762683,-82750.81,-100561.12,-77962.41,-41827.273,-117607.305,-36883.87,-55813.723,-38606.04
1315421.1984762643,-82704.63,-100510.625,-77919.92,-41792.36,-117566.49,-36855.47,-55775.11,-38564.21
1315421.20247626,-82745.73,-100550.26,-77959.68,-41809.125,-117602.38,-36871.176,-55799.523,-38602.336
1315421.206476256,-82816.734,-100620.69,-78029.46,-41855.55,-117669.64,-36912.273,-55849.367,-38660.973
1315421.2104762518,-82817.18,-100625.0,-78033.734,-41865.684,-117679.125,-36925.58,-55852.824,-38673.258
1315421.2144762478,-82748.5,-100556.89,-77965.336,-41824.586,-117616.54,-36891.24,-55791.668,-38613.484
1315421.2184762435,-82706.75,-100512.375,-77922.81,-41791.832,-117570.64,-36861.9,-55738.73,-38561.688
1315421.2224762395,-82748.05,-100552.01,-77957.93,-41809.938,-117601.36,-36873.94,-55765.098,-38606.934
1315421.2264762353,-82818.85,-100620.52,-78024.3,-41855.145,-117666.47,-36910.035,-55823.652,-38679.65
1315421.230476231,-82823.94,-100626.266,-78031.17,-41865.234,-117674.195,-36921.184,-55821.047,-38687.176
1315421.234476227,-82759.28,-100566.125,-77969.04,-41829.957,-117610.07,-36891.562,-55757.367,-38621.625
1315421.2384762228,-82711.14,-100517.945,-77923.875,-41797.65,-117559.86,-36862.387,-55701.742,-38571.047
1315421.2424762188,-82747.48,-100550.74,-77957.52,-41814.453,-117591.8,-36874.96,-55711.426,-38596.52
1315421.2464762146,-82815.92,-100621.18,-78023.16,-41859.215,-117658.66,-36913.29,-55763.88,-38669.477
1315421.2504762106,-82822.43,-100625.86,-78030.27,-41868.777,-117666.99,-36923.953,-55771.566,-38679.688
1315421.2544762064,-82756.516,-100558.84,-77965.13,-41827.76,-117602.7,-36888.918,-55713.992,-38605.836
1315421.2584762024,-82713.87,-100512.125,-77921.71,-41796.305,-117556.52,-36857.87,-55676.312,-38558.676
1315421.2624761981,-82756.31,-100552.66,-77960.05,-41816.49,-117591.88,-36873.21,-55703.82,-38601.89
1315421.266476194,-82823.9,-100620.12,-78022.625,-41857.504,-117659.18,-36910.848,-55760.297,-38675.21
1315421.27047619,-82827.92,-100620.41,-78027.51,-41867.84,-117663.336,-36921.957,-55769.9,-38679.484
1315421.2744761857,-82761.805,-100550.91,-77967.125,-41829.145,-117595.3,-36887.82,-55721.844,-38610.84
1315421.2784761817,-82716.96,-100502.2,-77920.01,-41792.887,-117547.164,-36856.445,-55682.66,-38567.18
1315421.2824761774,-82757.86,-100541.14,-77954.59,-41810.184,-117585.94,-36874.227,-55715.375,-38611.086
1315421.2864761734,-82823.53,-100610.15,-78020.14,-41854.41,-117654.87,-36912.516,-55773.684,-38673.34
1315421.2904761692,-82831.586,-100616.91,-78029.99,-41867.434,-117662.48,-36923.91,-55778.527,-38680.543
1315421.2944761652,-82764.98,-100550.7,-77967.61,-41830.445,-117600.14,-36891.113,-55723.27,-38619.14
1315421.298476161,-82721.4,-100506.63,-77923.71,-41797.61,-117558.03,-36858.562,-55679.61,-38568.727
1315421.3024761567,-82755.91,-100540.33,-77955.65,-41812.867,-117588.305,-36869.547,-55699.426,-38599.082
1315421.3064761527,-82821.086,-100610.31,-78021.89,-41857.137,-117653.28,-36908.406,-55754.113,-38656.496
1315421.3104761485,-82830.98,-100625.49,-78030.234,-41871.258,-117664.02,-36916.465,-55761.64,-38649.66
1315421.3144761445,-82764.65,-100556.4,-77966.63,-41830.203,-117600.63,-36882.45,-55704.348,-38600.18
1315421.3184761403,-82717.33,-100508.875,-77919.516,-41793.703,-117553.39,-36852.785,-55659.26,-38568.766
1315421.3224761363,-82756.43,-100550.26,-77953.78,-41813.56,-117585.33,-36866.7,-55682.13,-38595.297
1315421.326476132,-82825.03,-100622.4,-78019.29,-41859.133,-117648.234,-36905.355,-55732.992,-38667.684
1315421.330476128,-82837.52,-100632.33,-78028.484,-41871.91,-117660.85,-36919.516,-55741.09,-38677.53
1315421.3344761238,-82771.85,-100567.18,-77967.77,-41833.21,-117601.56,-36889.977,-55691.53,-38610.92
1315421.3384761196,-82719.69,-100516.445,-77920.33,-41797.0,-117550.91,-36855.51,-55649.54,-38581.098
1315421.3424761156,-82757.24,-100553.47,-77954.06,-41813.355,-117587.0,-36866.254,-55666.75,-38603.844
1315421.3464761113,-82821.58,-100614.79,-78016.73,-41856.773,-117652.59,-36905.152,-55719.16,-38659.63
1315421.3504761073,-82824.79,-100618.94,-78023.07,-41869.344,-117659.06,-36915.61,-55728.965,-38667.605
1315421.354476103,-82757.94,-100555.71,-77958.414,-41829.67,-117595.5,-36884.32,-55677.98,-38599.69
1315421.358476099,-82712.04,-100508.22,-77912.234,-41795.207,-117550.91,-36853.07,-55643.066,-38561.566
1315421.3624760949,-82750.25,-100551.07,-77947.35,-41813.234,-117586.39,-36868.53,-55676.883,-38596.395
1315421.3664760909,-82818.85,-100622.56,-78012.984,-41858.848,-117654.83,-36905.723,-55734.05,-38655.234
1315421.3704760866,-82828.734,-100632.49,-78025.88,-41872.52,-117666.586,-36915.69,-55746.625,-38663.37
1315421.3744760824,-82765.14,-100568.0,-77967.086,-41835.734,-117606.37,-36885.742,-55699.426,-38604.086
1315421.3784760784,-82723.19,-100523.93,-77922.2,-41803.59,-117560.266,-36854.332,-55660.28,-38555.992
1315421.3824760742,-82756.516,-100558.516,-77954.47,-41819.215,-117591.35,-36866.66,-55684.98,-38586.305
1315421.3864760702,-82820.97,-100626.305,-78017.375,-41860.637,-117654.99,-36903.85,-55744.223,-38649.21
1315421.390476066,-82827.6,-100634.65,-78025.76,-41872.195,-117666.67,-36915.203,-55756.836,-38664.188
1315421.394476062,-82762.82,-100567.1,-77966.8,-41836.02,-117608.32,-36885.17,-55711.793,-38613.73
1315421.3984760577,-82715.21,-100519.49,-77917.56,-41803.14,-117560.19,-36855.957,-55670.168,-38567.953
1315421.4024760537,-82750.125,-100555.87,-77948.08,-41818.117,-117589.44,-36869.59,-55699.586,-38599.367
1315421.4064760495,-82818.04,-100621.914,-78017.01,-41862.754,-117652.34,-36906.863,-55759.32,-38663.004
1315421.4104760452,-82827.4,-100630.7,-78028.2,-41878.62,-117668.74,-36920.74,-55772.34,-38677.613
1315421.4144760412,-82759.24,-100563.27,-77965.7,-41839.97,-117606.81,-36890.22,-55725.87,-38618.734
1315421.418476037,-82708.5,-100508.55,-77918.54,-41803.02,-117556.12,-36857.87,-55677.86,-38560.223
1315421.422476033,-82740.73,-100539.266,-77948.37,-41816.977,-117585.734,-36868.043,-55698.61,-38586.47
1315421.4264760287,-82805.055,-100603.6,-78008.875,-41858.48,-117650.11,-36906.7,-55753.137,-38662.883
1315421.4304760247,-82817.22,-100620.69,-78022.09,-41870.973,-117660.98,-36918.375,-55765.383,-38668.66
1315421.4344760205,-82754.48,-100560.06,-77964.56,-41833.457,-117601.2,-36888.59,-55716.027,-38598.918
1315421.4384760165,-82709.88,-100511.31,-77921.266,-41798.83,-117551.6,-36859.906,-55674.24,-38554.77
1315421.4424760123,-82748.09,-100547.125,-77951.17,-41812.418,-117582.445,-36872.684,-55700.684,-38590.17
1315421.446476008,-82816.695,-100614.664,-78011.72,-41853.8,-117646.65,-36910.32,-55754.273,-38655.438
1315421.450476004,-82826.3,-100623.09,-78024.09,-41866.54,-117653.57,-36923.137,-55762.453,-38655.6
1315421.4544759998,-82757.94,-100557.7,-77962.484,-41829.348,-117591.11,-36890.18,-55707.074,-38593.508
1315421.4584759958,-82709.516,-100511.97,-77913.86,-41797.324,-117543.13,-36855.184,-55662.11,-38562.906
1315421.4624759916,-82750.125,-100547.49,-77944.87,-41818.035,-117576.22,-36864.46,-55684.367,-38595.62
1315421.4664759876,-82819.016,-100614.875,-78012.05,-41861.207,-117644.414,-36902.75,-55744.02,-38665.934
1315421.4704759833,-82830.484,-100629.64,-78024.87,-41871.22,-117656.74,-36915.367,-55760.742,-38675.78
1315421.4744759793,-82771.0,-100568.73,-77964.64,-41836.59,-117600.06,-36887.168,-55718.63,-38622.805
1315421.478475975,-82720.3,-100515.586,-77913.9,-41802.45,-117550.625,-36860.19,-55683.066,-38577.15
1315421.4824759709,-82755.78,-100547.734,-77943.41,-41815.797,-117578.25,-36868.367,-55703.74,-38597.293
1315421.4864759669,-82821.086,-100612.15,-78007.98,-41854.453,-117644.414,-36904.543,-55755.168,-38651.004
1315421.4904759626,-82825.28,-100624.23,-78023.44,-41869.47,-117660.37,-36921.348,-55771.363,-38665.285
1315421.4944759586,-82763.76,-100566.2,-77965.25,-41837.527,-117603.516,-36890.83,-55728.312,-38611.004
1315421.4984759544,-82714.16,-100514.164,-77912.92,-41799.562,-117551.234,-36856.773,-55683.27,-38556.152
1315421.5024759504,-82741.87,-100540.57,-77938.31,-41806.887,-117580.08,-36869.14,-55707.848,-38581.3
1315421.5064759462,-82801.11,-100601.24,-78001.586,-41847.617,-117644.53,-36906.535,-55771.484,-38656.168
1315421.5104759422,-82811.93,-100610.234,-78015.18,-41865.52,-117651.33,-36921.184,-55787.395,-38662.68
1315421.514475938,-82746.664,-100548.586,-77954.35,-41829.1,-117587.08,-36892.293,-55739.992,-38606.445
1315421.5184759337,-82700.805,-100504.31,-77908.086,-41795.168,-117536.87,-36860.72,-55698.164,-38560.06
1315421.5224759297,-82738.28,-100537.44,-77937.18,-41811.65,-117568.2,-36871.01,-55721.805,-38588.867
1315421.5264759255,-82809.2,-100609.83,-78001.55,-41856.12,-117639.86,-36908.816,-55776.086,-38650.676
1315421.5304759215,-82825.69,-100623.5,-78020.305,-41872.844,-117656.05,-36922.445,-55789.27,-38658.61
1315421.5344759172,-82763.15,-100564.45,-77964.56,-41837.2,-117596.6,-36894.207,-55743.492,-38599.812
1315421.5384759132,-82710.57,-100512.58,-77910.04,-41798.87,-117547.98,-36860.965,-55697.676,-38554.117
1315421.542475909,-82745.73,-100538.62,-77939.414,-41811.85,-117574.67,-36869.547,-55725.098,-38584.88
1315421.546475905,-82812.38,-100606.0,-78004.68,-41854.37,-117644.01,-36908.938,-55784.875,-38651.45
1315421.5504759008,-82826.58,-100623.5,-78019.49,-41868.53,-117658.37,-36923.258,-55801.027,-38666.22
1315421.5544758965,-82767.01,-100565.43,-77964.44,-41833.7,-117595.99,-36897.22,-55755.78,-38605.31
1315421.5584758925,-82711.875,-100517.625,-77914.63,-41800.17,-117543.99,-36863.445,-55713.38,-38556.07
1315421.5624758883,-82746.625,-100549.195,-77944.13,-41814.047,-117573.66,-36872.887,-55746.137,-38591.39
1315421.5664758843,-82816.04,-100619.23,-78010.99,-41856.69,-117644.62,-36912.844,-55814.375,-38665.242
1315421.57047588,-82831.79,-100639.125,-78027.836,-41872.438,-117668.74,-36929.363,-55837.08,-38684.938
1315421.574475876,-82777.914,-100583.54,-77972.86,-41839.07,-117610.92,-36903.28,-55791.3,-38623.78
1315421.5784758718,-82725.51,-100528.164,-77922.57,-41802.164,-117557.375,-36867.96,-55744.184,-38571.414
1315421.5824758678,-82752.24,-100554.37,-77947.06,-41815.066,-117580.65,-36877.523,-55766.074,-38603.07
1315421.5864758636,-82820.03,-100624.84,-78010.375,-41858.766,-117648.28,-36914.47,-55818.848,-38660.24
1315421.5904758594,-82832.32,-100636.84,-78025.555,-41872.152,-117662.11,-36926.637,-55831.18,-38672.73
1315421.5944758554,-82769.45,-100568.93,-77965.87,-41835.855,-117604.414,-36897.34,-55784.344,-38612.223
1315421.5984758511,-82713.09,-100508.99,-77911.22,-41796.836,-117549.195,-36863.406,-55741.62,-38547.812
1315421.6024758471,-82739.305,-100532.92,-77934.62,-41806.277,-117571.29,-36870.566,-55768.312,-38578.816
1315421.606475843,-82811.04,-100603.68,-78001.1,-41848.88,-117641.445,-36909.06,-55838.137,-38663.902
1315421.6104758389,-82828.05,-100619.34,-78022.055,-41866.617,-117663.78,-36926.15,-55862.55,-38675.984
1315421.6144758346,-82764.57,-100557.3,-77962.65,-41831.625,-117606.9,-36896.566,-55815.39,-38612.1
1315421.6184758306,-82710.984,-100512.17,-77912.44,-41795.74,-117553.35,-36860.516,-55769.29,-38564.902
1315421.6224758264,-82740.44,-100543.664,-77939.7,-41809.164,-117577.4,-36869.344,-55787.723,-38586.754
1315421.6264758222,-82810.1,-100611.86,-78007.04,-41851.117,-117642.13,-36906.78,-55839.926,-38636.477
1315421.6304758182,-82825.69,-100626.67,-78024.336,-41866.293,-117655.64,-36919.516,-55848.023,-38645.184
1315421.634475814,-82763.555,-100563.766,-77963.625,-41829.348,-117595.09,-36889.61,-55800.254,-38597.902
1315421.63847581,-82710.414,-100508.14,-77909.875,-41790.812,-117542.61,-36854.492,-55753.95,-38539.47
1315421.6424758057,-82733.93,-100531.25,-77935.06,-41801.066,-117567.23,-36862.43,-55775.516,-38566.324
1315421.6464758017,-82796.71,-100599.33,-77999.11,-41842.125,-117632.77,-36903.445,-55838.707,-38630.25
1315421.6504757975,-82814.82,-100620.28,-78020.02,-41859.254,-117652.06,-36922.49,-55861.9,-38648.4
1315421.6544757935,-82758.22,-100562.34,-77966.555,-41825.727,-117594.57,-36895.55,-55817.832,-38595.418
1315421.6584757892,-82704.02,-100503.99,-77911.91,-41787.395,-117538.5,-36862.02,-55779.055,-38552.734
1315421.6624757852,-82733.93,-100534.1,-77934.125,-41798.18,-117562.625,-36867.516,-55800.215,-38577.434
1315421.666475781,-82805.26,-100605.15,-78000.98,-41842.9,-117630.05,-36903.28,-55853.234,-38641.645
1315421.6704757768,-82824.586,-100624.27,-78021.37,-41860.72,-117652.14,-36916.75,-55867.637,-38649.58
1315421.6744757728,-82764.125,-100562.664,-77962.81,-41827.637,-117595.46,-36886.965,-55824.75,-38597.78
1315421.6784757685,-82708.26,-100510.99,-77910.28,-41790.855,-117541.55,-36853.152,-55777.793,-38550.254
1315421.6824757645,-82737.19,-100537.88,-77933.59,-41800.133,-117565.88,-36858.195,-55790.164,-38571.98
1315421.6864757603,-82804.32,-100606.33,-77998.3,-41843.305,-117631.15,-36892.66,-55846.805,-38630.008
1315421.6904757563,-82822.63,-100623.25,-78021.65,-41861.86,-117652.96,-36907.96,-55860.477,-38645.1
1315421.694475752,-82762.74,-100563.44,-77963.83,-41828.574,-117598.07,-36879.64,-55807.05,-38589.113
1315421.698475748,-82711.06,-100511.68,-77909.14,-41790.812,-117547.61,-36847.293,-55757.61,-38528.65
1315421.7024757438,-82734.91,-100530.97,-77930.46,-41798.258,-117566.62,-36854.004,-55774.496,-38554.85
1315421.7064757396,-82801.555,-100597.91,-77993.734,-41841.92,-117632.0,-36893.23,-55834.395,-38623.94
1315421.7104757356,-82823.445,-100626.18,-78016.65,-41859.99,-117654.46,-36912.883,-55851.848,-38630.902
