timestamp,Fp1,Fp2,F3,Fz,F4,Cz,Pz,Oz
955970.9896273473,-8466.879,-24883.709,10624.228,5158.8545,3191.1216,-11177.206,-10679.606,17222.9
955970.9936273436,-8460.856,-24877.482,10627.238,5161.4585,3195.4346,-11173.178,-10679.037,17230.428
955970.9976273398,-8455.078,-24877.035,10630.005,5163.005,3193.1968,-11172.648,-10677.653,17233.969
955971.001627336,-8458.293,-24876.182,10628.825,5160.6855,3189.1685,-11174.602,-10681.804,17231.283
955971.0056273323,-8458.659,-24880.047,10628.418,5160.97,3189.9822,-11175.375,-10685.832,17226.197
955971.0096273285,-8460.449,-24888.225,10627.482,5159.465,3188.5986,-11179.525,-10688.559,17223.592
955971.0136273248,-8465.17,-24892.945,10623.495,5156.25,3187.378,-11178.833,-10686.931,17229.248
955971.0176273211,-8467.245,-24892.01,10621.298,5154.948,3186.605,-11172.363,-10686.728,17231.201
955971.0216273173,-8464.315,-24891.928,10625.163,5156.6978,3189.209,-11168.132,-10685.425,17227.865
955971.0256273135,-8458.903,-24889.648,10630.453,5162.7197,3194.0513,-11165.649,-10683.35,17221.6
955971.0296273098,-8454.55,-24885.133,10632.04,5164.6323,3197.1843,-11169.312,-10681.641,17224.041
955971.033627306,-8455.811,-24887.045,10631.918,5163.5337,3188.8428,-11171.794,-10679.321,17232.057
955971.0376273022,-8460.327,-24891.969,10626.953,5159.546,3186.076,-11171.916,-10684.286,17228.76
955971.0416272985,-8462.891,-24896.445,10625.937,5159.2207,3191.2437,-11171.306,-10690.756,17219.97
955971.0456272947,-8459.921,-24895.387,10631.348,5164.022,3196.6147,-11170.695,-10689.25,17215.943
955971.0496272909,-8459.839,-24900.146,10631.063,5163.452,3194.0105,-11171.672,-10691.203,17214.355
955971.0536272873,-8463.827,-24904.135,10627.157,5158.8135,3190.796,-11171.062,-10693.237,17220.582
955971.0576272835,-8463.542,-24908.447,10628.093,5158.4473,3183.3904,-11170.776,-10693.97,17221.803
955971.0616272797,-8459.961,-24907.594,10632.854,5162.3945,3186.5234,-11169.841,-10690.552,17224.854
955971.065627276,-8450.48,-24898.438,10639.12,5170.532,3198.7712,-11166.952,-10678.874,17236.857
955971.0696272722,-8444.377,-24894.37,10644.613,5174.5605,3204.7935,-11163.046,-10672.812,17237.916
955971.0736272684,-8454.224,-24901.652,10638.103,5166.1377,3196.9402,-11165.08,-10678.061,17228.924
955971.0776272647,-8457.438,-24904.46,10633.586,5162.0283,3190.5925,-11165.202,-10678.589,17231.854
955971.0816272609,-8453.207,-24898.357,10636.3125,5166.382,3192.7085,-11159.994,-10673.218,17243.408
955971.0856272571,-8446.737,-24890.504,10641.724,5171.753,3198.3643,-11160.563,-10669.434,17247.03
955971.0896272535,-8443.848,-24888.998,10640.788,5171.1836,3201.0498,-11163.981,-10668.295,17254.07
955971.0936272497,-8439.697,-24886.23,10643.677,5172.4854,3198.7712,-11157.309,-10662.476,17263.916
955971.0976272459,-8444.58,-24888.104,10640.503,5168.4165,3192.8306,-11158.081,-10663.9,17261.922
955971.1016272422,-8443.686,-24880.127,10642.741,5170.4917,3195.0278,-11158.488,-10665.324,17251.1
955971.1056272384,-8444.824,-24875.0,10644.125,5173.6655,3198.405,-11157.919,-10664.307,17253.133
955971.1096272346,-8448.039,-24876.465,10643.84,5173.1772,3201.823,-11156.942,-10663.94,17250.611
955971.1136272309,-8448.771,-24882.895,10642.009,5171.0615,3196.4927,-11154.338,-10667.358,17237.996
955971.1176272271,-8450.155,-24887.656,10641.032,5169.1895,3187.6628,-11153.402,-10668.173,17239.828
955971.1216272233,-8454.55,-24896.934,10638.835,5166.992,3185.9946,-11155.355,-10673.178,17232.992
955971.1256272196,-8454.224,-24896.404,10640.666,5169.1895,3184.2449,-11154.948,-10674.683,17231.527
955971.1296272159,-8451.498,-24893.678,10644.491,5173.218,3185.7505,-11152.67,-10669.963,17236.287
955971.1336272121,-8463.501,-24902.629,10635.539,5166.626,3192.1794,-11151.9375,-10672.038,17240.723
955971.1376272084,-8470.947,-24909.994,10632.8125,5160.97,3192.505,-11152.06,-10677.979,17237.06
955971.1416272046,-8466.105,-24909.465,10633.83,5162.6387,3189.0464,-11153.036,-10680.827,17230.348
955971.1456272008,-8460.612,-24904.258,10637.858,5169.1895,3186.1572,-11153.524,-10678.183,17228.639
955971.1496271971,-8456.909,-24903.117,10641.643,5171.875,3190.023,-11152.182,-10674.561,17229.615
955971.1536271933,-8464.4375,-24911.865,10634.237,5163.086,3183.3496,-11153.442,-10678.061,17229.168
955971.1576271895,-8468.059,-24913.086,10630.087,5161.174,3184.3262,-11149.536,-10675.781,17234.13
955971.1616271858,-8467.611,-24912.639,10630.046,5162.191,3186.5642,-11145.63,-10671.957,17237.793
955971.165627182,-8467.204,-24908.732,10632.935,5163.005,3187.622,-11148.886,-10673.381,17236.37
955971.1696271783,-8461.548,-24902.06,10633.708,5165.9346,3182.129,-11153.036,-10674.072,17236.451
955971.1736271746,-8458.334,-24905.234,10637.695,5167.6025,3182.129,-11149.252,-10671.672,17241.375
955971.1776271708,-8455.2,-24906.088,10641.317,5170.085,3190.7146,-11144.531,-10670.451,17241.455
955971.181627167,-8456.259,-24911.541,10638.55,5168.823,3190.2263,-11143.637,-10670.41,17243.816
955971.1856271633,-8457.397,-24911.988,10638.51,5167.3994,3188.314,-11148.845,-10670.736,17245.484
955971.1896271595,-8457.194,-24908.691,10641.846,5169.027,3191.162,-11146.892,-10666.26,17248.658
955971.1936271557,-8458.74,-24912.436,10643.188,5166.789,3186.198,-11145.183,-10666.545,17245.809
955971.197627152,-8462.362,-24912.762,10643.066,5165.4463,3184.3262,-11143.677,-10668.823,17245.037
955971.2016271482,-8459.677,-24913.006,10644.328,5167.3584,3189.3718,-11143.474,-10671.103,17238.893
955971.2056271444,-8454.753,-24912.518,10645.061,5169.3115,3195.7195,-11147.217,-10674.683,17229.533
955971.2096271408,-8453.247,-24908.53,10644.491,5169.1084,3196.859,-11148.845,-10670.695,17237.508
955971.213627137,-8451.091,-24904.379,10647.705,5171.7124,3198.6084,-11143.026,-10664.226,17246.46
955971.2176271332,-8458.7,-24908.611,10644.247,5167.806,3193.6443,-11142.863,-10667.074,17243.084
955971.2216271295,-8460.653,-24913.371,10641.398,5165.1206,3187.9883,-11144.45,-10673.178,17240.357
955971.2256271257,-8458.944,-24914.227,10645.346,5168.7827,3190.5112,-11144.531,-10673.137,17244.305
955971.2296271219,-8456.096,-24911.865,10650.961,5173.869,3193.7256,-11141.317,-10668.864,17247.926
955971.2336271182,-8449.179,-24907.146,10652.507,5175.6187,3194.9058,-11141.4795,-10667.074,17245.281
955971.2376271144,-8453.288,-24910.97,10647.705,5168.457,3189.4126,-11145.874,-10671.957,17243.49
955971.2416271106,-8454.956,-24910.523,10646.525,5166.992,3188.192,-11146.933,-10674.194,17239.705
955971.245627107,-8446.249,-24901.611,10653.564,5174.764,3200.0327,-11145.874,-10667.236,17241.7
955971.2496271032,-8446.696,-24898.113,10654.013,5176.1475,3198.3643,-11145.468,-10664.307,17244.02
955971.2536270994,-8452.434,-24902.508,10648.764,5169.963,3193.0747,-11146.078,-10667.196,17248.088
955971.2576270957,-8451.294,-24902.588,10648.642,5170.2476,3194.8242,-11144.369,-10667.603,17252.035
955971.2616270919,-8449.138,-24906.17,10648.967,5171.4683,3196.1265,-11143.433,-10669.394,17245.932
955971.2656270881,-8442.465,-24901.855,10651.774,5175.8223,3198.7712,-11143.2295,-10665.039,17250.164
955971.2696270844,-8435.669,-24893.107,10657.471,5182.8613,3197.5913,-11139.201,-10653.117,17266.154
955971.2736270806,-8441.162,-24896.24,10656.21,5181.3154,3192.2202,-11138.388,-10654.948,17262.818
955971.2776270768,-8443.115,-24902.914,10654.135,5178.2637,3186.6863,-11137.451,-10661.825,17257.162
955971.2816270731,-8447.348,-24910.768,10649.74,5175.09,3184.9773,-11139.486,-10669.271,17254.559
955971.2856270694,-8451.172,-24910.28,10649.902,5175.985,3191.6912,-11142.009,-10671.672,17253.053
955971.2896270656,-8448.771,-24909.424,10652.426,5180.3794,3194.5396,-11141.317,-10667.074,17253.947
955971.2936270619,-8447.0625,-24912.598,10649.658,5178.833,3194.2954,-11140.991,-10664.348,17260.865
955971.2976270581,-8447.958,-24912.965,10650.595,5178.2637,3198.3643,-11137.248,-10664.226,17257.04
955971.3016270543,-8446.737,-24911.053,10654.867,5182.3325,3198.69,-11135.254,-10660.6045,17262.29
955971.3056270506,-8441.0,-24914.268,10658.691,5185.669,3202.7996,-11136.963,-10659.465,17267.62
955971.3096270468,-8437.134,-24913.412,10660.971,5187.134,3201.4976,-11137.533,-10659.343,17266.805
955971.313627043,-8440.023,-24913.656,10659.75,5186.2793,3196.2078,-11135.132,-10660.727,17264.975
955971.3176270393,-8445.068,-24918.701,10654.053,5179.8506,3189.86,-11138.388,-10667.399,17259.889
955971.3216270355,-8447.632,-24922.16,10651.855,5176.3105,3190.145,-11142.416,-10675.049,17251.018
955971.3256270319,-8446.737,-24920.898,10653.687,5180.176,3195.8008,-11142.05,-10675.659,17245.24
955971.3296270281,-8447.021,-24920.41,10657.634,5182.943,3193.9292,-11140.381,-10673.869,17247.64
955971.3336270243,-8450.969,-24926.555,10655.925,5178.63,3186.198,-11140.503,-10674.276,17244.832
955971.3376270205,-8452.515,-24930.299,10655.273,5175.1304,3182.78,-11139.364,-10673.3,17245.729
955971.3416270168,-8455.038,-24932.822,10653.728,5172.689,3182.9429,-11139.282,-10673.869,17245.85
955971.345627013,-8451.782,-24927.246,10657.187,5176.473,3184.7332,-11137.085,-10673.95,17245.85
955971.3496270092,-8442.058,-24917.766,10664.185,5184.774,3191.04,-11131.918,-10664.999,17254.803
955971.3536270055,-8442.058,-24921.184,10665.527,5184.8145,3193.5222,-11132.162,-10659.79,17261.963
955971.3576270017,-8446.493,-24928.467,10659.831,5177.043,3194.0105,-11134.196,-10663.249,17261.76
955971.361626998,-8445.923,-24929.16,10658.569,5177.3276,3196.289,-11134.033,-10666.057,17257.244
955971.3656269943,-8444.296,-24929.443,10659.872,5180.6235,3201.416,-11135.295,-10663.615,17263.225
955971.3696269905,-8448.446,-24933.92,10658.447,5178.996,3194.2546,-11135.336,-10661.337,17275.594
955971.3736269868,-8452.678,-24942.791,10657.919,5177.572,3188.4766,-11129.517,-10661.784,17270.467
955971.377626983,-8458.293,-24952.557,10655.151,5175.6187,3188.3953,-11123.901,-10663.94,17262.777
955971.3816269792,-8455.7295,-24950.236,10657.878,5181.2744,3196.3298,-11120.402,-10657.39,17271.037
955971.3856269754,-8450.562,-24948.324,10659.14,5183.3906,3190.7554,-11122.478,-10655.355,17269.531
955971.3896269717,-8452.475,-24950.033,10655.111,5180.461,3187.0525,-11123.779,-10655.559,17267.172
955971.3936269679,-8456.828,-24955.16,10651.896,5176.6357,3188.9243,-11121.298,-10653.117,17279.42
955971.3976269641,-8461.996,-24963.584,10647.624,5171.3057,3187.6628,-11122.478,-10656.169,17279.908
955971.4016269605,-8460.693,-24962.932,10648.886,5171.509,3189.4126,-11124.228,-10659.18,17273.723
955971.4056269567,-8456.259,-24952.637,10657.471,5180.013,3194.9463,-11120.361,-10653.158,17275.676
955971.409626953,-8450.195,-24949.3,10663.615,5186.7676,3195.8416,-11115.886,-10647.095,17283.162
955971.4136269492,-8444.052,-24950.928,10667.685,5189.331,3194.0513,-11113.852,-10646.525,17282.959
955971.4176269454,-8447.348,-24961.71,10665.976,5185.262,3194.987,-11113.933,-10652.832,17271.973
955971.4216269417,-8453.207,-24969.646,10663.859,5182.821,3191.2437,-11115.927,-10654.582,17269.613
955971.4256269379,-8453.125,-24969.85,10665.649,5184.8555,3190.4297,-11117.595,-10654.948,17265.666
955971.4296269341,-8452.963,-24972.047,10665.8125,5185.3027,3187.5408,-11116.862,-10656.372,17264.893
955971.4336269303,-8453.695,-24976.36,10665.649,5184.245,3188.4766,-11110.718,-10654.582,17267.498
955971.4376269266,-8460.124,-24982.871,10662.15,5180.0947,3182.7393,-11110.678,-10658.61,17264.16
955971.4416269229,-8464.396,-24985.8,10659.302,5179.077,3178.0193,-11110.474,-10661.093,17262.818
955971.4456269192,-8457.846,-24985.516,10662.761,5183.553,3182.373,-11112.712,-10659.912,17262.004
955971.4496269154,-8458.09,-24988.201,10663.29,5183.0244,3184.9365,-11117.1875,-10664.0625,17255.371
955971.4536269116,-8463.379,-24993.164,10658.488,5179.647,3180.7861,-11115.234,-10667.277,17257.406
955971.4576269079,-8469.849,-24995.973,10653.891,5177.3276,3177.7344,-11113.566,-10670.939,17254.803
955971.4616269041,-8470.337,-24993.164,10654.948,5179.3623,3175.0896,-11112.224,-10668.539,17255.78
955971.4656269003,-8460.856,-24987.021,10662.354,5185.832,3187.5,-11115.234,-10662.72,17260.824
955971.4696268965,-8452.8,-24984.375,10667.644,5191.8135,3194.0918,-11113.241,-10653.158,17271.443
955971.4736268928,-8452.026,-24986.777,10664.836,5189.9824,3193.4001,-11107.26,-10650.798,17276.938
955971.4776268891,-8459.758,-24992.066,10659.79,5184.53,3191.04,-11105.917,-10652.751,17281.129
955971.4816268854,-8460.368,-24992.717,10661.581,5184.5703,3192.5864,-11107.87,-10654.379,17277.752
955971.4856268816,-8460.409,-24992.799,10659.465,5184.123,3189.738,-11113.159,-10660.197,17261.354
955971.4896268778,-8461.548,-24996.908,10657.187,5182.251,3184.4077,-11113.2,-10664.104,17258.18
955971.493626874,-8463.379,-25001.018,10657.797,5181.3154,3181.4373,-11109.497,-10665.854,17253.174
955971.4976268703,-8466.553,-25004.436,10654.338,5180.5015,3183.6345,-11109.66,-10662.802,17256.47
955971.5016268665,-8465.129,-25007.691,10655.844,5181.926,3186.727,-11110.107,-10657.471,17262.777
955971.5056268628,-8459.514,-25006.104,10659.709,5186.483,3198.6492,-11107.992,-10655.925,17267.537
955971.509626859,-8459.311,-25002.89,10661.987,5187.5,3199.1782,-11107.788,-10658.041,17260.336
955971.5136268552,-8466.96,-25008.3,10658.691,5180.664,3189.2905,-11109.741,-10662.639,17258.748
955971.5176268516,-8463.379,-25013.307,10659.709,5181.4375,3188.8428,-11105.429,-10660.116,17266.48
955971.5216268478,-8459.555,-25013.713,10661.987,5186.4424,3195.0684,-11100.952,-10655.478,17271.078
955971.525626844,-8455.363,-25011.395,10663.94,5188.9243,3199.463,-11099.936,-10655.355,17270.834
955971.5296268403,-8455.2,-25012.412,10660.767,5187.4595,3197.0215,-11100.017,-10657.512,17261.15
955971.5336268365,-8461.792,-25019.898,10655.478,5182.292,3192.5864,-11101.44,-10660.36,17260.295
955971.5376268327,-8462.932,-25025.066,10654.948,5180.0947,3189.9822,-11100.79,-10660.116,17264.12
955971.541626829,-8455.974,-25023.072,10663.574,5186.9307,3193.4001,-11097.372,-10654.989,17265.79
955971.5456268252,-8453.41,-25019.94,10668.254,5191.4062,3196.045,-11096.3545,-10650.513,17270.305
955971.5496268214,-8448.324,-25018.393,10672.404,5194.2954,3189.0056,-11096.273,-10646.851,17272.664
955971.5536268177,-8447.104,-25022.299,10672.648,5193.563,3190.9587,-11093.506,-10645.915,17275.717
955971.557626814,-8454.834,-25035.361,10666.26,5185.791,3185.2622,-11093.994,-10652.507,17270.63
955971.5616268102,-8457.275,-25037.395,10664.348,5186.2793,3187.0117,-11092.611,-10656.006,17267.293
955971.5656268065,-8449.829,-25029.826,10670.573,5193.7256,3192.3828,-11092.978,-10652.222,17271.363
955971.5696268027,-8445.883,-25027.14,10675.659,5197.7134,3196.1265,-11090.78,-10649.862,17270.916
955971.5736267989,-8445.028,-25027.996,10674.357,5196.8184,3195.8008,-11090.414,-10649.821,17275.555
955971.5776267952,-8447.876,-25028.281,10671.306,5193.8477,3194.6208,-11095.459,-10653.361,17276.531
955971.5816267914,-8447.917,-25031.006,10667.847,5193.197,3193.0747,-11098.633,-10655.07,17273.64
955971.5856267876,-8441.772,-25028.158,10673.747,5199.0156,3194.1326,-11098.837,-10648.804,17279.988
955971.5896267839,-8438.559,-25027.71,10677.612,5202.1484,3190.9995,-11097.128,-10646.362,17275.432
955971.5936267801,-8442.424,-25035.97,10674.805,5196.2485,3189.5752,-11095.744,-10646.892,17276.979
955971.5976267764,-8447.429,-25044.598,10671.631,5193.197,3184.0415,-11093.303,-10648.601,17282.105
955971.6016267727,-8452.759,-25052.857,10669.963,5191.5283,3183.7974,-11091.309,-10651.611,17274.373
955971.6056267689,-8450.928,-25055.99,10673.259,5195.394,3191.6912,-11093.791,-10651.123,17268.963
955971.6096267651,-8439.575,-25053.955,10676.514,5199.87,3193.4814,-11094.768,-10652.019,17262.695
955971.6136267614,-8437.541,-25054.16,10680.258,5199.626,3192.3423,-11091.757,-10650.595,17272.258
955971.6176267576,-8442.18,-25058.635,10678.955,5198.0796,3193.8071,-11089.844,-10649.699,17280.396
955971.6216267538,-8436.117,-25055.828,10681.519,5203.9795,3198.405,-11089.641,-10646.24,17280.926
955971.62562675,-8432.414,-25053.102,10683.96,5206.95,3198.6084,-11091.391,-10642.944,17285.604
955971.6296267463,-8438.803,-25056.602,10680.664,5203.369,3195.7195,-11092.204,-10644.125,17285.238
955971.6336267426,-8440.756,-25063.926,10679.118,5199.829,3192.0166,-11088.135,-10642.904,17286.174
955971.6376267389,-8447.51,-25070.15,10673.462,5194.255,3195.8008,-11086.874,-10644.613,17284.953
955971.6416267351,-8449.707,-25076.865,10673.137,5192.993,3194.458,-11085.734,-10642.172,17289.186
955971.6456267313,-8445.15,-25076.904,10675.456,5197.103,3195.0684,-11088.135,-10641.643,17285.727
955971.6496267276,-8439.006,-25075.521,10680.949,5203.8984,3201.4976,-11085.734,-10637.289,17289.062
955971.6536267238,-8435.507,-25077.557,10683.391,5204.753,3202.6367,-11081.909,-10632.406,17298.34
955971.65762672,-8438.803,-25076.904,10681.56,5201.2534,3196.2078,-11080.241,-10633.627,17304.81
955971.6616267163,-8439.779,-25074.504,10682.902,5202.474,3194.2954,-11079.834,-10632.935,17310.223
955971.6656267125,-8437.053,-25068.809,10687.907,5206.706,3203.0437,-11077.434,-10627.93,17310.018
955971.6696267087,-8434.692,-25068.93,10688.721,5207.0312,3207.0312,-11078.125,-10629.069,17301.88
955971.6736267051,-8435.222,-25074.463,10687.5,5204.631,3204.956,-11077.637,-10631.755,17299.969
955971.6776267013,-8438.803,-25082.031,10685.547,5203.532,3203.4507,-11075.766,-10634.481,17299.928
955971.6816266975,-8441.772,-25084.107,10685.629,5205.078,3199.1782,-11074.667,-10636.801,17295.492
955971.6856266938,-8438.681,-25084.717,10686.768,5206.909,3201.7417,-11077.637,-10636.23,17291.504
955971.68962669,-8431.926,-25088.014,10690.1455,5208.5776,3199.3003,-11080.282,-10633.789,17291.992
955971.6936266862,-8436.687,-25091.797,10687.582,5205.2,3196.4927,-11078.41,-10635.946,17291.992
955971.6976266825,-8445.272,-25100.547,10683.1875,5200.6025,3197.4692,-11073.853,-10637.045,17293.701
955971.7016266787,-8446.411,-25102.377,10683.554,5200.8467,3193.685,-11071.899,-10636.597,17295.98
955971.7056266749,-8439.941,-25100.791,10688.803,5207.7637,3201.6602,-11073.69,-10631.308,17304.402
955971.7096266712,-8436.564,-25101.97,10688.11,5207.9673,3207.9265,-11074.219,-10630.656,17303.63
955971.7136266675,-8436.89,-25101.562,10686.89,5206.136,3204.4678,-11071.859,-10630.209,17301.922
955971.7176266637,-8438.925,-25101.686,10685.751,5202.6777,3196.7368,-11073.568,-10635.01,17296.469
955971.72162666,-8438.029,-25103.15,10684.937,5202.352,3196.574,-11074.097,-10636.719,17288.941
955971.7256266562,-8437.541,-25105.145,10690.227,5206.6245,3200.0732,-11076.945,-10633.098,17287.436
955971.7296266524,-8432.495,-25099.732,10695.639,5211.1816,3202.3926,-11078.573,-10629.191,17293.58
955971.7336266487,-8426.962,-25098.227,10697.754,5212.2397,3203.003,-11074.057,-10624.39,17310.1
955971.7376266449,-8430.827,-25104.615,10696.737,5210.531,3198.2017,-11071.411,-10623.21,17313.803
955971.7416266411,-8432.455,-25106.486,10692.709,5209.88,3199.0562,-11074.26,-10626.547,17304.81
955971.7456266374,-8428.752,-25101.4,10692.424,5210.8154,3196.6147,-11078.329,-10630.168,17300.375
955971.7496266337,-8429.851,-25102.621,10692.79,5209.4727,3192.5457,-11075.195,-10629.069,17304.729
955971.75362663,-8435.1,-25106.486,10688.843,5205.9326,3189.2905,-11071.737,-10634.318,17297.934
955971.7576266262,-8441.244,-25111.777,10686.605,5204.183,3190.1855,-11070.517,-10637.939,17298.055
955971.7616266224,-8437.582,-25112.549,10689.047,5207.9673,3191.8945,-11069.865,-10637.533,17298.951
955971.7656266186,-8427.45,-25108.277,10695.842,5214.8438,3201.2534,-11068.97,-10635.702,17295.857
955971.7696266149,-8424.357,-25109.13,10697.266,5215.495,3198.9746,-11070.3125,-10634.888,17292.928
955971.7736266111,-8434.123,-25123.861,10690.023,5207.8857,3187.7036,-11068.97,-10636.557,17293.701
955971.7776266073,-8443.319,-25138.104,10684.855,5200.2363,3182.9429,-11065.552,-10638.184,17293.904
955971.7816266036,-8447.958,-25145.834,10680.99,5196.289,3180.3794,-11067.017,-10643.188,17287.436
955971.7856265998,-8450.847,-25156.494,10680.298,5199.056,3184.611,-11068.156,-10641.928,17287.395
955971.7896265961,-8448.771,-25168.133,10682.861,5202.596,3182.6987,-11068.481,-10641.073,17287.762
955971.7936265924,-8448.935,-25180.95,10682.536,5201.701,3185.2622,-11067.221,-10639.282,17286.703
955971.7976265886,-8449.341,-25196.33,10681.396,5200.399,3183.838,-11064.006,-10633.83,17293.783
955971.8016265848,-8453.247,-25215.943,10678.589,5196.981,3178.2634,-11063.232,-10632.487,17296.672
955971.8056265811,-8453.695,-25229.168,10680.38,5198.283,3179.4841,-11063.518,-10629.558,17298.178
955971.8096265773,-8450.969,-25238.201,10682.902,5200.6836,3180.2573,-11064.575,-10629.11,17293.336
955971.8136265735,-8452.515,-25250.938,10680.868,5200.155,3181.9255,-11064.209,-10629.232,17296.266
955971.8176265698,-8453.247,-25262.29,10680.502,5199.26,3184.0007,-11061.972,-10628.337,17303.467
955971.821626566,-8445.801,-25270.469,10683.31,5203.7764,3183.6345,-11066.04,-10624.472,17308.27
955971.8256265622,-8439.169,-25280.518,10685.303,5206.828,3188.8835,-11066.528,-10622.885,17307.293
955971.8296265586,-8440.593,-25288.412,10684.937,5206.421,3191.4878,-11063.3545,-10626.303,17302.898
955971.8336265548,-8446.005,-25301.475,10683.676,5204.631,3187.9883,-11061.035,-10631.348,17301.96
955971.837626551,-8450.277,-25318.238,10682.089,5201.1313,3184.1228,-11058.676,-10638.062,17292.725
955971.8416265473,-8448.324,-25331.299,10684.286,5203.369,3184.9365,-11058.676,-10636.638,17291.504
955971.8456265435,-8442.505,-25333.578,10690.756,5212.362,3196.1265,-11060.1,-10632.284,17293.336
955971.8496265397,-8439.779,-25340.7,10693.4,5215.251,3196.4927,-11063.518,-10629.477,17300.334
955971.853626536,-8435.019,-25350.994,10695.517,5217.5293,3192.505,-11059.042,-10626.262,17307.008
955971.8576265322,-8440.593,-25366.496,10690.837,5212.6875,3189.738,-11054.443,-10630.087,17304.443
955971.8616265284,-8449.138,-25386.191,10686.157,5207.8857,3184.774,-11056.601,-10635.946,17295.695
955971.8656265248,-8447.51,-25394.451,10687.216,5208.415,3187.1746,-11060.873,-10637.248,17293.01
955971.869626521,-8441.813,-25394.492,10687.744,5209.188,3186.3608,-11063.599,-10637.207,17290.527
955971.8736265172,-8436.035,-25398.602,10691.203,5213.0537,3188.7615,-11060.547,-10629.761,17304.484
955971.8776265135,-8434.245,-25408.326,10695.964,5215.1694,3189.4531,-11058.472,-10625.163,17310.67
955971.8816265097,-8430.664,-25415.324,10700.684,5221.1104,3200.0732,-11054.037,-10616.821,17315.35
955971.885626506,-8430.583,-25426.922,10698.283,5222.7783,3202.6367,-11053.589,-10611.898,17323.445
955971.8896265022,-8431.926,-25435.873,10696.818,5221.5986,3196.7773,-11054.321,-10616.699,17316.082
955971.8936264984,-8436.117,-25448.283,10693.278,5216.3086,3190.267,-11054.118,-10624.35,17307.088
955971.8976264946,-8436.605,-25458.416,10690.878,5213.8267,3190.0635,-11052.694,-10626.018,17309.205
955971.9016264909,-8431.967,-25461.793,10693.645,5216.919,3195.3125,-11051.677,-10621.989,17317.668
955971.9056264872,-8428.915,-25465.537,10695.801,5219.6045,3195.7603,-11053.061,-10620.85,17315.756
955971.9096264835,-8427.531,-25471.355,10698.975,5222.412,3199.707,-11049.683,-10618.083,17318.482
955971.9136264797,-8430.339,-25476.727,10700.562,5222.168,3193.8884,-11043.701,-10618.246,17318.97
955971.9176264759,-8434.286,-25486.328,10698.364,5219.4014,3188.7207,-11043.173,-10621.908,17315.43
955971.9216264721,-8441.122,-25502.686,10693.237,5215.454,3184.6519,-11047.812,-10625.8545,17313.191
955971.9256264684,-8434.733,-25503.215,10699.219,5221.639,3191.7725,-11043.579,-10619.914,17312.744
955971.9296264646,-8428.589,-25494.508,10700.399,5222.2495,3200.521,-11045.37,-10616.903,17313.03
955971.9336264608,-8427.084,-25478.557,10698.446,5219.8486,3198.8525,-11046.469,-10613.363,17321.086
955971.9376264571,-8431.682,-25469.523,10694.133,5217.448,3193.8884,-11046.997,-10614.787,17323.445
955971.9416264533,-8432.373,-25458.416,10700.073,5221.3545,3198.12,-11044.353,-10612.631,17323.61
955971.9456264497,-8433.92,-25447.674,10703.695,5223.348,3201.823,-11044.882,-10617.717,17315.633
955971.9496264459,-8431.4375,-25436.688,10704.387,5225.871,3203.247,-11040.08,-10620.605,17313.844
955971.9536264421,-8437.988,-25431.764,10699.504,5219.564,3192.0981,-11040.487,-10626.343,17310.71
955971.9576264384,-8446.289,-25431.967,10690.756,5212.728,3186.198,-11041.342,-10631.674,17306.479
955971.9616264346,-8446.005,-25420.166,10687.866,5214.2334,3189.3718,-11041.708,-10628.093,17308.432
955971.9656264308,-8435.71,-25404.053,10692.587,5220.9883,3192.1387,-11037.354,-10616.699,17314.373
955971.969626427,-8431.315,-25397.422,10698.894,5225.179,3195.4753,-11032.309,-10601.767,17332.805
955971.9736264233,-8435.751,-25398.926,10697.876,5221.4766,3196.0044,-11031.128,-10599.65,17341.023
955971.9776264195,-8441.203,-25397.828,10697.307,5220.337,3195.8008,-11031.535,-10603.394,17340.17
955971.9816264157,-8443.889,-25396.77,10699.707,5222.86,3199.0967,-11034.262,-10607.544,17337.81
955971.9856264121,-8432.902,-25388.266,10708.537,5228.6377,3202.8403,-11037.354,-10611.735,17334.31
955971.9896264083,-8421.103,-25374.229,10712.321,5234.009,3203.0437,-11039.185,-10612.468,17337.605
955971.9936264046,-8417.033,-25368.125,10710.653,5234.619,3196.3706,-11036.133,-10611.369,17347.78
955971.9976264008,-8419.516,-25365.56,10706.95,5234.8228,3197.5505,-11036.133,-10614.665,17339.926
955972.001626397,-8419.149,-25364.87,10706.95,5235.1484,3199.992,-11034.912,-10616.211,17333.252
955972.0056263932,-8416.708,-25365.44,10708.09,5233.358,3204.4272,-11033.0,-10609.66,17340.21
955972.0096263895,-8414.673,-25366.455,10713.461,5232.585,3200.399,-11032.1455,-10604.492,17346.844
955972.0136263857,-8417.725,-25370.85,10715.82,5231.079,3193.4001,-11032.919,-10605.957,17348.553
955972.017626382,-8428.915,-25388.145,10709.921,5222.046,3187.3374,-11036.215,-10623.901,17324.545
955972.0216263783,-8435.385,-25399.252,10707.438,5222.412,3187.1746,-11039.511,-10632.69,17311.97
955972.0256263745,-8428.793,-25392.01,10713.339,5230.5503,3190.1855,-11044.189,-10631.43,17310.14
955972.0296263708,-8419.434,-25383.871,10717.123,5234.9043,3196.2078,-11043.661,-10628.703,17314.209
955972.033626367,-8424.4795,-25386.027,10710.571,5233.9277,3191.2842,-11041.342,-10626.303,17318.604
955972.0376263632,-8440.512,-25393.88,10699.626,5229.045,3183.7974,-11039.917,-10623.535,17327.8
955972.0416263595,-8453.491,-25400.96,10691.284,5222.8193,3181.7627,-11041.098,-10624.35,17328.857
955972.0456263557,-8440.593,-25392.945,10697.47,5228.2715,3186.2388,-11035.808,-10616.496,17333.7
955972.0496263519,-8430.217,-25386.23,10707.764,5232.5034,3189.8193,-11027.67,-10605.144,17347.535
955972.0536263481,-8427.287,-25386.436,10715.658,5232.2188,3191.2437,-11022.136,-10599.895,17352.947
955972.0576263444,-8423.828,-25386.271,10722.168,5236.125,3196.7368,-11018.555,-10598.267,17357.666
955972.0616263407,-8422.119,-25387.451,10724.528,5237.834,3200.4395,-11023.601,-10605.225,17353.557
955972.065626337,-8410.522,-25376.832,10729.248,5245.1987,3211.4666,-11027.182,-10607.788,17349.324
955972.0696263332,-8408.447,-25375.896,10727.58,5245.809,3214.3962,-11030.233,-10608.276,17354.818
955972.0736263294,-8416.504,-25384.482,10719.279,5239.177,3203.817,-11027.71,-10608.806,17358.398
955972.0776263257,-8423.544,-25392.334,10711.996,5233.724,3196.2078,-11025.065,-10608.154,17359.783
955972.0816263219,-8432.373,-25399.334,10705.7705,5231.527,3194.336,-11024.821,-10608.928,17349.53
955972.0856263181,-8431.479,-25399.455,10711.63,5236.8574,3198.161,-11023.112,-10605.551,17349.406
955972.0896263144,-8432.658,-25402.14,10716.472,5240.967,3200.1548,-11023.112,-10601.44,17352.742
955972.0936263106,-8436.768,-25409.832,10714.4375,5237.59,3196.7368,-11019.694,-10604.736,17353.15
955972.0976263068,-8440.471,-25409.629,10713.42,5234.2124,3195.516,-11018.107,-10612.631,17348.389
955972.1016263032,-8441.691,-25409.506,10714.355,5233.032,3193.7256,-11025.391,-10621.46,17342.45
955972.1056262994,-8432.048,-25407.023,10716.228,5233.3174,3191.0808,-11031.779,-10626.669,17336.996
955972.1096262956,-8426.066,-25394.775,10718.547,5236.776,3193.1968,-11030.803,-10626.14,17334.473
955972.1136262919,-8429.403,-25389.568,10716.064,5234.782,3193.3188,-11026.611,-10620.891,17340.658
955972.1176262881,-8434.123,-25392.904,10712.402,5230.2656,3190.023,-11018.2295,-10612.305,17355.104
955972.1216262843,-8441.8545,-25394.41,10706.015,5225.9116,3183.3496,-11014.526,-10610.434,17358.48
955972.1256262806,-8440.023,-25389.16,10710.693,5230.2656,3186.8083,-11011.841,-10611.125,17346.314
955972.1296262768,-8437.378,-25387.29,10712.769,5231.893,3189.616,-11012.655,-10615.072,17339.803
955972.133626273,-8439.616,-25385.418,10712.606,5231.242,3190.145,-11012.939,-10620.565,17335.49
955972.1376262694,-8434.733,-25377.686,10717.407,5234.3345,3190.5518,-11016.276,-10622.966,17339.885
955972.1416262656,-8425.822,-25364.584,10724.406,5241.699,3197.998,-11019.775,-10624.96,17341.96
955972.1456262618,-8421.631,-25360.678,10727.377,5245.931,3198.934,-11023.52,-10622.192,17344.197
955972.1496262581,-8419.108,-25355.348,10728.516,5248.657,3198.527,-11020.142,-10616.211,17347.535
955972.1536262543,-8423.91,-25357.016,10720.988,5241.374,3193.7256,-11013.916,-10613.485,17350.586
955972.1576262505,-8429.647,-25360.107,10718.018,5237.142,3190.8367,-11003.337,-10604.777,17361.98
955972.1616262468,-8425.985,-25359.54,10720.866,5240.0312,3193.9292,-10998.007,-10597.29,17367.025
955972.165626243,-8424.032,-25353.76,10723.022,5242.0654,3199.4224,-11001.384,-10599.284,17363.648
955972.1696262392,-8419.556,-25342.49,10729.004,5249.1455,3204.183,-11002.279,-10602.255,17362.996
955972.1736262355,-8410.849,-25332.316,10734.091,5254.476,3209.7983,-11000.122,-10602.702,17363.934
955972.1776262318,-8407.471,-25328.695,10734.497,5255.941,3207.4382,-11000.732,-10604.411,17367.188
955972.181626228,-8411.093,-25330.445,10730.266,5252.6045,3200.9277,-11006.958,-10611.491,17357.83
955972.1856262243,-8414.226,-25332.887,10728.231,5251.2617,3198.2017,-11010.295,-10611.328,17350.506
955972.1896262205,-8421.875,-25336.914,10724.936,5246.1753,3193.1152,-11008.871,-10613.159,17343.465
955972.1936262167,-8436.117,-25350.465,10719.36,5236.654,3188.8428,-11005.453,-10617.229,17337.078
955972.197626213,-8445.761,-25357.139,10714.478,5231.3643,3187.785,-11001.343,-10617.798,17337.566
955972.2016262092,-8433.105,-25344.523,10719.6045,5236.125,3190.7146,-11001.547,-10615.927,17345.623
955972.2056262054,-8415.161,-25323.895,10728.3125,5246.501,3198.161,-11008.301,-10618.449,17343.385
955972.2096262017,-8404.501,-25308.31,10736.857,5254.6797,3206.3804,-11010.01,-10618.368,17347.047
955972.2136261979,-8396.281,-25294.15,10737.0205,5254.11,3201.6602,-11012.248,-10623.291,17349.488
955972.2176261942,-8400.106,-25292.4,10734.619,5250.4478,3201.2534,-11009.929,-10624.553,17347.78
955972.2216261905,-8392.05,-25287.354,10730.754,5248.454,3197.4692,-11010.498,-10627.157,17343.873
955972.2256261867,-8373.657,-25266.807,10732.544,5251.872,3202.7588,-11008.545,-10626.059,17341.432
955972.2296261829,-8363.688,-25260.865,10738.974,5254.6387,3208.8623,-11003.418,-10620.361,17343.914
955972.2336261792,-8349.65,-25243.125,10742.717,5255.29,3206.95,-11001.75,-10621.745,17343.385
955972.2376261754,-8337.484,-25227.459,10744.06,5256.185,3199.0562,-11006.267,-10627.441,17338.299
955972.2416261716,-8315.1045,-25204.225,10755.005,5265.0146,3209.3506,-11011.19,-10632.568,17328.248
955972.2456261679,-8297.16,-25180.705,10758.627,5269.409,3212.4023,-11019.043,-10639.648,17316.57
955972.2496261641,-8277.344,-25149.902,10767.985,5278.646,3221.8833,-11020.793,-10637.98,17312.664
955972.2536261603,-8266.887,-25132.936,10769.043,5278.5645,3227.4578,-11017.253,-10634.521,17321.248
955972.2576261567,-8267.863,-25132.285,10760.824,5272.746,3217.8955,-11017.294,-10638.388,17319.54
955972.2616261529,-8263.591,-25128.947,10762.289,5271.7695,3214.6812,-11014.486,-10639.689,17315.268
955972.2656261491,-8258.789,-25125.326,10766.968,5272.624,3217.8142,-11012.777,-10636.435,17314.047
955972.2696261454,-8261.353,-25125.408,10769.409,5274.7397,3217.6921,-11013.347,-10633.749,17312.908
955972.2736261416,-8274.333,-25141.154,10767.619,5272.339,3213.0127,-11011.23,-10635.092,17314.25
955972.2776261378,-8292.521,-25155.559,10760.376,5267.1714,3209.0251,-11009.929,-10637.411,17316.244
955972.2816261341,-8307.699,-25164.633,10754.558,5266.9272,3207.357,-11010.824,-10636.638,17321.248
955972.2856261303,-8314.372,-25166.26,10754.3545,5270.2637,3212.6873,-11012.899,-10636.108,17319.988
955972.2896261265,-8317.953,-25165.65,10756.308,5270.671,3209.5947,-11014.038,-10633.708,17324.139
955972.2936261229,-8318.93,-25167.725,10755.005,5270.223,3207.2349,-11011.597,-10630.331,17330.852
955972.2976261191,-8327.189,-25179.281,10753.256,5267.8633,3204.9968,-11004.639,-10622.885,17337.89
955972.3016261153,-8337.851,-25194.256,10750.977,5264.16,3199.3816,-11001.018,-10619.345,17342.0
955972.3056261116,-8341.96,-25200.48,10751.506,5262.8174,3198.5679,-11004.395,-10619.67,17341.309
955972.3096261078,-8347.819,-25205.445,10752.482,5261.963,3200.1953,-11004.558,-10615.683,17348.592
955972.313626104,-8359.253,-25214.152,10746.786,5255.29,3197.4692,-11003.906,-10621.46,17340.252
955972.3176261003,-8367.147,-25222.941,10743.246,5251.2617,3191.9353,-11005.941,-10628.906,17333.578
955972.3216260965,-8371.257,-25224.285,10742.514,5252.0347,3189.8193,-11008.383,-10632.284,17328.41
955972.3256260927,-8363.037,-25217.041,10748.251,5262.8174,3199.3003,-11005.087,-10624.838,17338.46
955972.329626089,-8357.382,-25214.479,10752.768,5269.328,3205.4038,-11003.256,-10618.612,17347.86
955972.3336260853,-8366.13,-25224.162,10746.704,5262.899,3198.3237,-10999.35,-10621.664,17346.436
955972.3376260815,-8378.866,-25237.225,10737.468,5254.0693,3188.9243,-10997.844,-10626.384,17338.258
955972.3416260778,-8390.91,-25248.373,10732.056,5250.6514,3186.6863,-11000.529,-10624.96,17341.756
955972.345626074,-8390.341,-25248.7,10733.032,5252.645,3191.854,-11000.814,-10619.995,17349.285
955972.3496260702,-8391.4795,-25246.826,10732.748,5250.244,3189.0464,-11002.197,-10618.246,17344.238
955972.3536260665,-8396.403,-25246.826,10732.707,5248.1284,3181.6814,-11001.547,-10616.699,17344.686
955972.3576260627,-8403.605,-25253.338,10731.161,5245.321,3183.5125,-11002.157,-10616.13,17349.812
955972.3616260589,-8400.92,-25253.541,10735.556,5250.0,3182.1697,-10999.878,-10612.753,17353.475
955972.3656260552,-8400.065,-25250.938,10737.427,5254.1504,3187.8257,-10996.257,-10606.527,17360.963
955972.3696260514,-8395.468,-25250.611,10739.868,5257.4873,3197.754,-10991.618,-10599.447,17371.338
955972.3736260477,-8395.671,-25252.441,10737.265,5253.6216,3194.0105,-10987.224,-10595.988,17375.488
955972.377626044,-8405.355,-25254.883,10732.056,5247.762,3190.5925,-10989.218,-10601.156,17371.135
955972.3816260402,-8405.478,-25257.162,10732.707,5247.5586,3189.9414,-10991.496,-10604.818,17365.031
955972.3856260364,-8398.886,-25251.426,10737.793,5253.215,3197.0623,-10991.781,-10603.801,17360.963
955972.3896260327,-8398.804,-25251.1,10739.665,5255.371,3196.1265,-10992.839,-10602.255,17361.37
955972.3936260289,-8409.058,-25260.54,10732.788,5247.5586,3186.2388,-10993.693,-10609.253,17349.977
955972.3976260251,-8418.62,-25267.05,10727.255,5240.8447,3178.4668,-10994.833,-10615.031,17342.244
955972.4016260214,-8414.551,-25266.236,10729.248,5244.344,3175.2524,-10993.124,-10611.044,17346.314
955972.4056260176,-8414.673,-25267.375,10732.504,5248.21,3178.4668,-10992.717,-10605.957,17346.314
955972.409626014,-8414.0625,-25263.428,10735.556,5249.878,3182.6172,-10991.984,-10607.138,17345.5
955972.4136260102,-8415.161,-25268.19,10733.806,5248.454,3181.8848,-10993.205,-10611.45,17352.092
955972.4176260064,-8420.532,-25283.652,10727.702,5243.164,3176.7578,-10991.293,-10616.74,17349.406
955972.4216260026,-8427.49,-25289.348,10721.68,5238.5664,3169.5964,-10994.751,-10620.28,17343.75
955972.4256259989,-8423.95,-25279.785,10725.952,5241.618,3172.0378,-10995.728,-10614.99,17350.994
955972.4296259951,-8415.243,-25267.62,10731.771,5246.623,3175.2117,-10993.734,-10610.84,17355.51
955972.4336259913,-8419.556,-25270.387,10729.411,5243.5713,3170.8984,-10989.746,-10611.125,17361.125
955972.4376259876,-8431.274,-25274.902,10719.727,5237.3457,3175.2524,-10989.543,-10619.711,17353.312
955972.4416259838,-8430.339,-25272.38,10723.1045,5241.008,3182.0068,-10986.857,-10616.13,17360.76
955972.44562598,-8426.799,-25271.24,10730.266,5246.135,3184.4482,-10986.613,-10609.172,17359.05
955972.4496259764,-8419.8,-25263.795,10737.997,5253.9062,3186.8896,-10984.457,-10599.447,17367.107
955972.4536259726,-8421.469,-25264.771,10733.317,5249.1455,3184.3262,-10981.812,-10599.081,17379.273
955972.4576259688,-8429.892,-25273.805,10725.464,5241.2925,3178.3447,-10981.201,-10603.027,17376.629
955972.4616259651,-8426.27,-25274.822,10728.271,5242.5947,3180.9897,-10981.975,-10603.068,17372.559
955972.4656259613,-8422.526,-25270.752,10732.382,5245.809,3186.3608,-10982.016,-10603.923,17365.846
955972.4696259575,-8423.706,-25267.986,10730.551,5245.158,3185.0994,-10980.469,-10607.056,17357.625
955972.4736259538,-8427.612,-25273.887,10722.616,5239.624,3176.5952,-10983.725,-10610.107,17359.822
955972.47762595,-8430.461,-25274.414,10722.087,5240.1123,3174.5605,-10980.469,-10605.876,17364.543
955972.4816259462,-8425.741,-25273.479,10728.068,5246.338,3180.0537,-10970.337,-10600.586,17371.664
955972.4856259425,-8419.067,-25270.957,10734.009,5252.1973,3183.2275,-10969.971,-10597.331,17368.328
955972.4896259388,-8418.173,-25269.328,10736.45,5253.581,3188.0698,-10970.947,-10598.43,17360.678
955972.493625935,-8425.456,-25276.979,10731.771,5245.8906,3180.9082,-10975.383,-10609.009,17354.777
955972.4976259313,-8432.495,-25286.338,10727.092,5239.8276,3173.584,-10979.004,-10618.327,17345.785
955972.5016259275,-8433.472,-25288.941,10726.196,5239.665,3170.9392,-10981.405,-10621.826,17337.566
955972.5056259237,-8424.968,-25280.314,10734.05,5247.6807,3178.8738,-10979.574,-10613.444,17349.162
955972.50962592,-8421.916,-25274.943,10738.444,5252.767,3181.2744,-10976.074,-10606.934,17359.742
955972.5136259162,-8426.107,-25279.094,10733.765,5248.21,3175.537,-10972.941,-10608.398,17354.86
955972.5176259124,-8430.461,-25280.803,10727.783,5243.286,3176.2695,-10973.063,-10609.497,17359.13
955972.5216259087,-8432.292,-25284.873,10726.726,5242.8794,3180.42,-10978.027,-10611.694,17357.3
955972.525625905,-8429.281,-25281.861,10732.422,5249.349,3184.896,-10977.214,-10607.748,17356.404
955972.5296259013,-8424.316,-25282.756,10737.468,5255.2085,3184.5298,-10970.541,-10602.905,17358.602
955972.5336258975,-8422.893,-25284.506,10739.055,5255.6562,3186.605,-10965.983,-10598.349,17361.695
955972.5376258937,-8434.326,-25293.133,10728.271,5245.4023,3171.6309,-10969.6045,-10606.405,17353.68
955972.54162589,-8443.156,-25295.451,10723.227,5241.8623,3168.4165,-10970.541,-10611.532,17345.826
955972.5456258862,-8438.965,-25291.22,10727.011,5246.9077,3176.6357,-10966.797,-10607.992,17350.22
955972.5496258824,-8428.793,-25285.28,10731.405,5252.116,3179.8096,-10963.908,-10604.37,17353.639
955972.5536258786,-8428.508,-25284.668,10731.445,5247.7217,3177.4497,-10964.722,-10606.608,17353.516
955972.5576258749,-8434.204,-25290.406,10725.871,5241.211,3174.0723,-10966.797,-10610.515,17353.395
955972.5616258711,-8430.786,-25291.586,10728.231,5243.286,3171.3867,-10967.204,-10606.445,17361.41
955972.5656258675,-8420.898,-25281.494,10735.637,5251.709,3179.4028,-10964.274,-10599.162,17361.248
955972.5696258637,-8423.991,-25283.244,10735.2295,5251.628,3178.833,-10961.752,-10599.162,17356.69
955972.5736258599,-8429.484,-25291.18,10732.463,5245.687,3174.113,-10957.724,-10600.342,17364.502
955972.5776258562,-8431.234,-25293.742,10730.225,5241.13,3168.0503,-10957.805,-10602.133,17363.404
955972.5816258524,-8433.676,-25294.678,10728.19,5240.6006,3164.917,-10960.9375,-10601.97,17368.611
955972.5856258486,-8427.612,-25287.72,10731.201,5245.8496,3171.1426,-10964.193,-10600.383,17367.066
955972.5896258448,-8420.451,-25278.809,10735.881,5250.0815,3177.531,-10962.6875,-10593.303,17376.629
955972.5936258411,-8421.387,-25277.67,10736.898,5249.756,3178.5483,-10958.496,-10589.641,17381.43
955972.5976258373,-8423.381,-25280.6,10739.543,5248.4946,3173.5435,-10951.823,-10590.332,17372.762
955972.6016258335,-8424.113,-25281.982,10738.688,5247.03,3177.653,-10957.316,-10596.151,17367.799
955972.6056258299,-8418.335,-25276.246,10744.182,5254.4355,3184.1228,-10958.944,-10599.081,17368.611
955972.6096258261,-8421.875,-25275.799,10743.042,5254.6387,3184.3262,-10958.252,-10599.284,17365.56
955972.6136258224,-8423.422,-25277.549,10741.903,5252.116,3181.1118,-10954.672,-10597.9,17363.078
955972.6176258186,-8428.264,-25286.094,10734.172,5246.9077,3173.5435,-10953.003,-10596.477,17373.414
955972.6216258148,-8427.328,-25286.338,10732.544,5250.0,3171.4683,-10953.247,-10596.843,17365.887
955972.625625811,-8420.776,-25278.525,10738.566,5257.202,3177.124,-10952.922,-10597.656,17354.086
955972.6296258073,-8419.638,-25279.826,10738.933,5256.1035,3180.2573,-10955.852,-10598.186,17359.416
955972.6336258035,-8418.417,-25277.752,10737.631,5255.371,3178.6704,-10954.875,-10594.076,17367.596
955972.6376257997,-8424.968,-25280.273,10732.544,5250.7734,3175.7407,-10954.631,-10595.337,17374.715
955972.641625796,-8429.606,-25284.588,10731.853,5250.407,3179.4028,-10956.584,-10596.558,17374.635
955972.6456257923,-8425.375,-25282.35,10735.759,5254.6797,3182.0068,-10956.421,-10653.891,17372.193
955972.6496257886,-8417.318,-25273.846,10740.112,5263.143,3187.907,-10954.224,-10828.41,17372.762
955972.6536257848,-8421.875,-25277.996,10738.363,5260.7017,3184.5298,-10952.637,-10883.057,17375.896
955972.657625781,-8430.542,-25288.574,10732.951,5252.9297,3174.4385,-10951.579,-10888.713,17379.477
955972.6616257773,-8427.206,-25288.25,10734.782,5252.3604,3176.5137,-10949.382,-10885.498,17380.494
955972.6656257735,-8419.8,-25282.635,10739.055,5257.8125,3180.9082,-10947.307,-10875.488,17381.959
955972.6696257697,-8411.703,-25275.96,10746.338,5264.9336,3189.4531,-10944.214,-10863.525,17387.818
955972.673625766,-8415.202,-25274.984,10744.873,5263.021,3187.785,-10942.831,-10861.166,17388.348
955972.6776257622,-8425.334,-25284.994,10737.346,5255.168,3173.6655,-10944.906,-10863.403,17378.785
955972.6816257585,-8423.218,-25285.523,10737.468,5255.615,3173.584,-10944.092,-10862.102,17373.088
955972.6856257548,-8424.561,-25285.768,10736.247,5256.2666,3178.0193,-10944.377,-10859.091,17372.193
955972.689625751,-8423.544,-25284.1,10740.683,5258.708,3183.6345,-10944.906,-10850.749,17379.191
955972.6936257472,-8422.201,-25285.238,10743.53,5260.254,3184.9365,-10944.824,-10847.86,17382.65
955972.6976257435,-8429.037,-25293.783,10737.0205,5253.459,3176.5544,-10944.662,-10852.214,17379.07
955972.7016257397,-8426.596,-25297.201,10738.241,5253.2554,3174.8047,-10943.075,-10847.534,17385.213
955972.7056257359,-8419.638,-25290.895,10742.676,5256.6733,3176.88,-10945.598,-10844.849,17379.965
955972.7096257322,-8415.894,-25284.262,10744.629,5257.4873,3177.816,-10945.3125,-10842.529,17381.023
955972.7136257284,-8411.825,-25282.023,10747.111,5258.138,3173.706,-10941.813,-10838.583,17390.584
955972.7176257246,-8410.727,-25283.57,10747.152,5256.5513,3169.271,-10939.128,-10840.698,17385.498
955972.721625721,-8405.925,-25283.041,10752.401,5262.5327,3175.6187,-10939.25,-10837.851,17386.19
955972.7256257172,-8400.839,-25280.111,10760.946,5268.5957,3181.8035,-10938.273,-10830.526,17391.766
955972.7296257134,-8403.402,-25281.7,10757.69,5265.8286,3177.1648,-10941.081,-10829.184,17391.357
955972.7336257097,-8407.064,-25283.203,10753.296,5264.038,3182.4138,-10939.128,-10825.847,17397.705
955972.7376257059,-8413.534,-25290.244,10748.129,5258.2197,3183.6345,-10938.925,-10823.161,17406.861
955972.7416257021,-8415.771,-25291.912,10744.711,5258.016,3181.234,-10942.058,-10818.645,17407.512
955972.7456256984,-8412.72,-25287.598,10748.413,5261.556,3182.6172,-10943.481,-10815.593,17394.734
955972.7496256946,-8408.325,-25284.465,10752.238,5264.7705,3181.7222,-10941.65,-10811.85,17392.742
955972.7536256908,-8409.384,-25282.959,10751.262,5264.323,3180.5828,-10939.616,-10811.157,17398.967
955972.757625687,-8417.196,-25286.621,10745.158,5260.417,3177.816,-10941.04,-10813.559,17401.693
955972.7616256834,-8416.83,-25285.156,10747.03,5264.2417,3182.2104,-10941.325,-10813.477,17399.09
955972.7656256796,-8404.379,-25278.076,10756.958,5274.211,3190.3076,-10937.338,-10805.502,17403.768
955972.7696256759,-8401.245,-25274.62,10761.475,5278.1577,3187.2966,-10938.3545,-10799.643,17403.768
955972.7736256721,-8408.529,-25282.188,10757.69,5270.8335,3174.5605,-10938.681,-10802.572,17400.635
955972.7776256683,-8410.93,-25290.895,10754.15,5265.747,3174.276,-10935.303,-10805.298,17399.658
955972.7816256646,-8404.745,-25285.93,10757.284,5271.24,3172.933,-10930.136,-10798.422,17402.508
955972.7856256608,-8403.728,-25279.95,10758.749,5275.4316,3182.8613,-10931.03,-10793.01,17399.414
955972.789625657,-8407.1455,-25279.867,10755.737,5271.24,3177.653,-10934.937,-10791.911,17395.387
955972.7936256533,-8410.93,-25281.658,10753.134,5267.456,3177.4902,-10934.774,-10788.818,17398.396
955972.7976256496,-8413.737,-25287.803,10750.651,5263.4277,3179.24,-10933.798,-10786.052,17405.6
955972.8016256458,-8407.553,-25285.4,10752.319,5269.0024,3183.4717,-10932.048,-10781.291,17410.727
955972.8056256421,-8402.263,-25279.623,10759.644,5276.3267,3189.901,-10930.542,-10774.414,17417.195
955972.8096256383,-8400.146,-25274.09,10763.754,5279.6226,3188.3953,-10929.77,-10770.346,17417.074
955972.8136256345,-8403.646,-25277.793,10762.655,5277.1406,3184.2449,-10926.433,-10772.177,17412.15
955972.8176256308,-8410.686,-25283.164,10758.057,5271.2812,3183.7566,-10923.625,-10777.832,17410.809
955972.821625627,-8412.313,-25283.896,10754.436,5269.409,3182.4138,-10926.392,-10781.088,17410.4
955972.8256256232,-8409.058,-25280.07,10758.383,5272.7866,3182.902,-10926.962,-10779.175,17406.902
955972.8296256195,-8404.175,-25279.014,10760.254,5275.9604,3185.6284,-10927.165,-10771.566,17416.057
955972.8336256157,-8402.588,-25283.203,10761.23,5274.536,3187.4187,-10926.636,-10767.7,17425.701
955972.837625612,-8406.332,-25288.656,10762.248,5274.089,3182.1697,-10924.805,-10765.137,17429.729
955972.8416256083,-8411.947,-25295.127,10760.702,5272.054,3171.1833,-10927.694,-10767.456,17423.543
955972.8456256045,-8405.722,-25290.488,10765.951,5277.588,3173.2178,-10924.316,-10766.113,17422.12
955972.8496256007,-8401.042,-25284.506,10767.741,5279.7446,3177.124,-10923.3,-10763.103,17426.88
955972.853625597,-8411.337,-25291.79,10760.742,5271.118,3174.9268,-10925.253,-10766.357,17420.004
955972.8576255932,-8422.526,-25301.025,10751.465,5262.6953,3169.8813,-10925.375,-10769.816,17412.842
955972.8616255894,-8410.116,-25293.133,10755.656,5268.799,3172.2412,-10923.544,-10765.381,17412.883
955972.8656255857,-8401.652,-25282.227,10762.37,5276.0825,3182.4138,-10920.248,-10755.453,17417.562
955972.8696255819,-8402.426,-25282.635,10763.306,5276.4893,3184.1228,-10917.44,-10750.814,17424.113
955972.8736255781,-8404.826,-25287.11,10761.516,5273.4785,3176.5137,-10918.417,-10754.028,17421.713
955972.8776255745,-8415.527,-25293.254,10754.517,5267.578,3168.0503,-10922.812,-10760.092,17423.26
955972.8816255707,-8416.016,-25299.236,10753.296,5267.904,3170.8171,-10925.293,-10767.05,17410.156
955972.8856255669,-8412.15,-25294.027,10755.412,5273.8853,3176.4324,-10923.096,-10764.853,17408.041
955972.8896255632,-8402.751,-25285.686,10760.905,5281.006,3182.4138,-10920.126,-10757.731,17417.848
955972.8936255594,-8402.344,-25290.406,10759.074,5276.8555,3177.0835,-10917.277,-10755.981,17419.516
955972.8976255556,-8412.15,-25299.643,10753.418,5267.497,3162.6384,-10917.44,-10757.609,17419.354
955972.9016255519,-8410.727,-25295.98,10757.08,5270.223,3171.997,-10914.022,-10751.709,17421.307
955972.9056255481,-8402.751,-25289.104,10762.492,5276.5303,3178.4668,-10911.377,-10745.6875,17423.34
955972.9096255443,-8401.896,-25289.145,10763.957,5275.92,3179.769,-10913.574,-10747.152,17419.148
955972.9136255407,-8409.018,-25290.936,10759.074,5271.24,3175.3745,-10915.405,-10752.075,17416.627
955972.9176255369,-8417.603,-25295.127,10754.191,5267.2935,3171.0613,-10915.161,-10754.843,17416.016
955972.9216255331,-8412.72,-25290.283,10763.916,5276.937,3177.246,-10910.93,-10748.495,17414.918
955972.9256255294,-8406.535,-25288.738,10767.619,5282.634,3177.2056,-10913.656,-10746.582,17419.76
955972.9296255256,-8401.245,-25290.08,10770.63,5284.8716,3182.8208,-10912.436,-10745.728,17422.69
955972.9336255218,-8402.954,-25292.36,10769.328,5283.0405,3182.9834,-10910.034,-10745.932,17428.143
955972.9376255181,-8405.029,-25294.883,10765.951,5278.4424,3183.96,-10909.709,-10750.8545,17423.787
955972.9416255143,-8397.665,-25290.895,10768.515,5281.006,3184.9773,-10910.808,-10750.285,17423.463
955972.9456255105,-8389.445,-25283.53,10775.229,5288.656,3185.5876,-10910.319,-10743.49,17432.332
955972.9496255068,-8388.672,-25283.082,10777.344,5289.9985,3184.6519,-10911.215,-10742.717,17432.82
955972.9536255031,-8388.794,-25290.771,10776.53,5287.7197,3184.5703,-10911.418,-10745.605,17427.002
955972.9576254993,-8398.804,-25300.986,10770.508,5279.785,3184.2449,-10911.133,-10748.901,17426.88
955972.9616254956,-8401.123,-25300.375,10769.247,5281.291,3185.669,-10911.581,-10750.285,17425.496
955972.9656254918,-8399.699,-25295.207,10769.409,5282.9185,3185.2622,-10913.412,-10753.459,17419.23
955972.969625488,-8398.315,-25290.121,10770.305,5282.959,3185.3843,-10911.093,-10749.878,17424.887
955972.9736254843,-8395.915,-25292.441,10770.63,5282.756,3182.6987,-10904.013,-10744.385,17434.408
955972.9776254805,-8396.037,-25298.91,10766.806,5278.89,3180.3794,-10901.449,-10744.995,17429.443
955972.9816254767,-8395.834,-25302.246,10771.811,5282.5522,3180.2979,-10900.757,-10740.764,17424.56
955972.985625473,-8396.647,-25302.084,10773.4375,5283.6914,3179.891,-10902.263,-10738.159,17430.584
955972.9896254692,-8390.544,-25296.916,10777.182,5286.3364,3178.5076,-10899.048,-10733.806,17434.652
955972.9936254655,-8394.45,-25300.781,10776.978,5286.377,3177.124,-10895.63,-10731.486,17439.861
955972.9976254618,-8397.665,-25306.846,10774.455,5284.465,3180.8677,-10896.078,-10733.032,17439.209
955973.001625458,-8395.996,-25308.188,10774.902,5284.343,3178.4263,-10899.089,-10733.317,17435.1
955973.0056254542,-8388.51,-25300.09,10780.6,5290.4463,3184.4482,-10897.746,-10725.79,17440.512
955973.0096254505,-8379.436,-25289.959,10784.709,5294.8,3188.1511,-10892.375,-10718.1,17451.945
955973.0136254467,-8378.866,-25291.871,10779.989,5290.975,3186.4421,-10892.375,-10722.9,17450.398
955973.0176254429,-8388.794,-25304.404,10771.2,5284.261,3183.1055,-10893.84,-10732.992,17436.727
955973.0216254392,-8393.2295,-25307.373,10770.915,5285.5225,3184.5298,-10895.712,-10737.468,17430.46
955973.0256254354,-8389.404,-25302.94,10776.123,5290.5684,3182.4546,-10899.089,-10737.753,17431.316
955973.0296254316,-8385.864,-25296.51,10781.128,5293.457,3183.9194,-10902.06,-10738.974,17423.26
955973.033625428,-8385.254,-25295.045,10784.79,5295.6543,3186.198,-10897.136,-10732.788,17430.176
955973.0376254242,-8385.946,-25299.113,10784.14,5293.01,3186.5642,-10892.578,-10730.266,17439.494
955973.0416254204,-8386.801,-25301.799,10782.959,5291.911,3183.1055,-10892.782,-10729.94,17438.396
955973.0456254167,-8389.323,-25303.346,10781.372,5290.5684,3181.071,-10897.217,-10732.056,17432.781
955973.0496254129,-8392.497,-25307.74,10779.745,5289.266,3181.3965,-10899.862,-10731.161,17435.67
955973.0536254091,-8395.386,-25317.139,10778.728,5287.435,3177.0835,-10898.926,-10733.5205,17427.693
955973.0576254054,-8402.182,-25320.924,10775.1875,5284.3833,3170.858,-10896.078,-10736.898,17419.271
955973.0616254016,-8401.815,-25318.28,10779.989,5291.0566,3173.7468,-10890.137,-10731.527,17425.537
955973.0656253978,-8399.008,-25319.947,10783.529,5295.6543,3178.6704,-10887.248,-10728.109,17424.275
955973.0696253942,-8394.409,-25318.889,10782.471,5293.213,3183.838,-10890.707,-10726.604,17429.363
955973.0736253904,-8392.944,-25317.75,10781.454,5292.033,3184.367,-10888.916,-10722.412,17444.336
955973.0776253866,-8394.206,-25319.5,10780.884,5289.4697,3180.949,-10885.498,-10719.768,17447.348
955973.0816253829,-8388.55,-25317.547,10786.215,5291.301,3178.7517,-10885.58,-10714.152,17447.836
955973.0856253791,-8378.093,-25307.943,10793.905,5298.747,3184.8552,-10884.521,-10708.334,17450.48
955973.0896253753,-8375.8955,-25303.387,10797.7705,5302.8975,3188.7207,-10885.539,-10706.462,17454.754
955973.0936253716,-8377.6045,-25304.852,10798.259,5302.7754,3187.7036,-10883.423,-10705.933,17461.793
955973.0976253678,-8391.195,-25316.244,10788.615,5294.2305,3180.4607,-10882.202,-10717.001,17451.295
955973.101625364,-8393.393,-25318.645,10784.343,5292.196,3179.525,-10882.487,-10720.907,17447.145
955973.1056253603,-8382.65,-25306.764,10789.673,5300.334,3190.2263,-10880.615,-10712.24,17452.963
955973.1096253566,-8381.308,-25303.834,10790.487,5301.758,3189.738,-10881.104,-10710.002,17451.416
955973.1136253529,-8383.22,-25306.885,10788.9,5300.863,3193.8884,-10877.441,-10706.869,17457.684
955973.1176253491,-8388.632,-25316.244,10784.912,5296.9565,3191.04,-10872.885,-10711.304,17454.102
955973.1216253453,-8394.125,-25322.021,10783.936,5297.4043,3185.4656,-10876.628,-10717.448,17449.871
955973.1256253415,-8391.195,-25321.533,10785.686,5300.9443,3183.4312,-10879.395,-10718.588,17441.65
955973.1296253378,-8391.806,-25321.29,10784.424,5299.8457,3180.7456,-10878.662,-10720.663,17434.652
955973.133625334,-8404.094,-25329.346,10777.019,5292.2773,3173.5435,-10875.529,-10721.762,17433.309
955973.1376253302,-8417.725,-25337.688,10765.91,5279.704,3160.9702,-10874.675,-10727.743,17431.682
955973.1416253265,-8416.382,-25337.2,10767.334,5279.2563,3161.8652,-10875.122,-10725.18,17430.867
955973.1456253227,-8403.564,-25330.566,10779.175,5289.673,3168.742,-10874.472,-10711.833,17441.244
955973.149625319,-8394.206,-25327.8,10790.039,5297.8926,3176.6357,-10872.274,-10700.562,17454.875
955973.1536253153,-8397.014,-25330.893,10788.818,5297.811,3179.891,-10873.088,-10705.322,17442.465
955973.1576253115,-8402.344,-25335.531,10784.14,5292.7246,3171.7124,-10871.867,-10709.229,17444.295
955973.1616253078,-8397.909,-25333.334,10782.919,5294.7593,3171.7937,-10868.896,-10705.852,17460.531
955973.165625304,-8398.601,-25330.73,10780.925,5295.6543,3172.2007,-10871.338,-10710.449,17447.633
955973.1696253002,-8399.699,-25329.428,10782.593,5297.282,3172.8923,-10872.07,-10713.257,17436.158
955973.1736252964,-8395.874,-25328.98,10785.808,5297.2007,3176.0254,-10867.554,-10709.595,17444.621
955973.1776252927,-8397.827,-25334.31,10783.529,5293.091,3175.944,-10865.397,-10709.799,17446.777
955973.1816252889,-8398.153,-25335.166,10785.075,5297.241,3177.002,-10866.455,-10702.922,17456.951
955973.1856252853,-8389.486,-25329.062,10790.935,5303.874,3179.5654,-10867.351,-10701.254,17454.672
955973.1896252815,-8389.486,-25326.945,10793.579,5304.3213,3186.2388,-10867.473,-10704.387,17453.533
955973.1936252777,-8395.63,-25333.578,10789.917,5300.537,3183.5125,-10867.106,-10706.503,17455.242
955973.197625274,-8403.891,-25341.025,10781.169,5291.1787,3169.2302,-10866.293,-10712.81,17447.713
955973.2016252702,-8401.286,-25338.584,10781.738,5291.8296,3168.7827,-10864.95,-10708.618,17451.742
955973.2056252664,-8394.735,-25330.445,10787.639,5299.6016,3176.7578,-10863.688,-10700.847,17459.676
955973.2096252627,-8390.341,-25325.033,10792.44,5302.9785,3181.8035,-10861.369,-10696.127,17464.723
955973.2136252589,-8391.806,-25327.027,10793.823,5303.752,3184.0007,-10853.557,-10696.005,17459.066
955973.2176252551,-8406.738,-25336.752,10786.255,5296.916,3177.8564,-10851.196,-10702.515,17453.695
955973.2216252513,-8412.517,-25342.611,10783.691,5294.271,3175.9033,-10854.37,-10706.055,17449.219
955973.2256252477,-8406.169,-25339.438,10788.208,5296.4277,3175.293,-10856.242,-10704.916,17446.736
955973.2296252439,-8397.339,-25332.113,10794.271,5302.165,3179.4434,-10854.126,-10698.405,17458.172
955973.2336252402,-8400.106,-25331.584,10790.243,5299.1943,3176.3916,-10851.278,-10695.801,17465.455
955973.2376252364,-8404.013,-25337.729,10786.906,5293.579,3177.0427,-10850.18,-10698.894,17463.379
955973.2416252326,-8402.548,-25336.59,10790.202,5296.509,3178.5483,-10848.227,-10696.981,17462.402
955973.2456252289,-8402.304,-25335.816,10792.318,5298.503,3178.4263,-10847.412,-10694.133,17460.693
955973.2496252251,-8395.834,-25330.771,10800.415,5307.373,3183.6345,-10844.076,-10686.809,17464.967
955973.2536252213,-8397.055,-25338.096,10797.038,5301.88,3172.6074,-10847.616,-10692.099,17463.217
955973.2576252175,-8396.933,-25338.746,10792.399,5297.811,3171.1833,-10849.081,-10693.808,17463.543
955973.2616252138,-8396.2,-25338.176,10793.498,5298.0957,3179.525,-10851.318,-10690.063,17468.547
955973.2656252101,-8391.073,-25335.246,10799.072,5303.508,3183.7158,-10851.4,-10685.873,17470.418
955973.2696252064,-8384.115,-25326.904,10805.705,5309.4077,3189.1277,-10848.877,-10679.647,17474.812
955973.2736252026,-8388.184,-25330.69,10803.549,5308.2275,3190.267,-10847.494,-10681.723,17475.668
955973.2776251988,-8393.188,-25337.363,10800.985,5305.3794,3185.3435,-10848.227,-10688.029,17464.967
955973.281625195,-8400.432,-25338.502,10798.096,5305.9897,3181.8035,-10847.209,-10689.372,17466.35
955973.2856251913,-8397.827,-25337.2,10797.689,5306.722,3184.6519,-10851.44,-10693.686,17456.178
955973.2896251875,-8389.853,-25336.143,10798.544,5307.943,3176.4324,-10850.871,-10694.58,17450.684
955973.2936251838,-8393.474,-25338.99,10798.422,5306.7627,3176.4324,-10844.687,-10689.575,17461.182
955973.29762518,-8405.151,-25347.576,10789.511,5297.8926,3176.9207,-10844.442,-10696.493,17457.887
955973.3016251762,-8408.041,-25352.459,10787.842,5295.7764,3177.6123,-10847.331,-10700.358,17448.69
955973.3056251726,-8405.478,-25349.691,10791.87,5301.107,3179.891,-10849.528,-10696.452,17452.719
955973.3096251688,-8398.275,-25337.363,10798.218,5308.065,3180.542,-10847.087,-10693.604,17453.045
955973.313625165,-8392.09,-25336.63,10801.2295,5312.3374,3181.6814,-10842.448,-10690.512,17459.188
955973.3176251613,-8402.751,-25354.412,10792.644,5303.589,3175.0083,-10840.902,-10694.174,17461.914
955973.3216251575,-8413.656,-25360.19,10783.325,5296.997,3165.568,-10845.622,-10699.911,17455.566
955973.3256251537,-8405.64,-25350.627,10790.161,5302.8975,3171.2646,-10842.367,-10693.645,17457.154
955973.32962515,-8398.845,-25345.988,10795.41,5305.3794,3175.822,-10842.733,-10687.704,17465.455
955973.3336251462,-8400.1875,-25346.314,10796.997,5303.996,3180.5828,-10836.63,-10686.401,17466.92
955973.3376251424,-8406.047,-25349.53,10789.429,5296.8345,3178.1006,-10835.287,-10691.0,17461.793
955973.3416251388,-8406.576,-25349.895,10791.911,5299.1943,3177.0427,-10836.833,-10688.843,17461.996
955973.345625135,-8404.582,-25351.035,10795.736,5304.9316,3181.071,-10837.199,-10683.024,17468.14
955973.3496251312,-8400.961,-25353.232,10797.974,5305.217,3177.6938,-10832.683,-10676.718,17476.727
955973.3536251275,-8401.9375,-25357.139,10796.753,5302.7344,3169.9219,-10829.143,-10672.893,17486.125
955973.3576251237,-8408.61,-25360.434,10791.952,5297.689,3170.0847,-10831.381,-10674.113,17484.986
955973.3616251199,-8404.745,-25354.33,10796.225,5301.5137,3175.537,-10830.363,-10674.276,17480.225
955973.3656251162,-8400.024,-25349.285,10800.334,5307.536,3181.071,-10830.933,-10678.793,17467.488
955973.3696251124,-8401.774,-25350.506,10799.113,5308.838,3181.8848,-10831.828,-10679.077,17469.238
955973.3736251086,-8403.809,-25352.783,10795.736,5305.5015,3179.4434,-10831.787,-10682.414,17471.07
955973.3776251049,-8411.377,-25359.416,10788.208,5295.8174,3174.6013,-10831.625,-10690.512,17467.977
955973.3816251012,-8408.163,-25354.453,10790.446,5299.764,3177.7751,-10829.184,-10688.64,17466.797
955973.3856250974,-8399.13,-25349.53,10798.788,5308.2686,3180.8677,-10823.324,-10679.484,17471.762
955973.3896250937,-8397.827,-25343.506,10799.927,5311.239,3184.6519,-10822.47,-10672.689,17478.598
955973.3936250899,-8400.473,-25344.402,10798.462,5310.71,3185.2622,-10821.696,-10672.485,17477.05
955973.3976250861,-8413.046,-25357.342,10791.382,5301.0254,3173.7876,-10824.707,-10680.583,17469.035
955973.4016250824,-8416.911,-25356.121,10791.382,5301.0254,3172.8923,-10828.125,-10684.204,17462.77
955973.4056250786,-8409.872,-25352.54,10796.591,5307.617,3176.0254,-10827.678,-10677.734,17466.96
955973.4096250748,-8402.588,-25350.627,10799.683,5308.838,3176.88,-10825.358,-10672.974,17472.9
955973.413625071,-8401.978,-25348.877,10797.445,5306.7627,3173.4214,-10824.504,-10671.347,17476.36
955973.4176250673,-8408.8545,-25352.783,10793.539,5301.473,3171.9158,-10821.452,-10675.944,17469.035
955973.4216250636,-8408.977,-25355.795,10793.335,5304.4844,3173.462,-10821.981,-10676.2295,17467.367
955973.4256250599,-8398.682,-25347.861,10804.321,5315.593,3184.1636,-10821.737,-10670.044,17475.953
955973.4296250561,-8392.009,-25344.89,10809.896,5319.458,3187.785,-10821.33,-10669.556,17474.365
955973.4336250523,-8395.142,-25350.791,10807.129,5314.2905,3181.1118,-10818.278,-10670.044,17477.215
955973.4376250486,-8406.779,-25360.76,10800.7,5307.7803,3174.8455,-10815.512,-10676.352,17472.291
955973.4416250448,-8413.412,-25362.51,10797.038,5306.1523,3171.7124,-10816.122,-10677.287,17472.494
955973.445625041,-8400.229,-25348.389,10806.967,5315.511,3173.9502,-10815.39,-10667.603,17481.934
955973.4496250373,-8391.4795,-25344.158,10811.483,5319.336,3177.0835,-10812.541,-10664.429,17483.44
955973.4536250335,-8392.212,-25348.918,10810.222,5318.034,3177.5718,-10811.117,-10664.429,17485.516
955973.4576250298,-8394.938,-25356.568,10808.024,5314.6567,3174.7234,-10809.408,-10667.074,17486.41
955973.4616250261,-8394.653,-25354.9,10808.879,5315.593,3173.584,-10812.744,-10669.394,17483.318
955973.4656250223,-8388.916,-25348.553,10812.338,5321.3706,3177.0427,-10817.302,-10668.905,17481.121
955973.4696250185,-8389.608,-25345.338,10812.704,5322.225,3177.4902,-10816.977,-10667.399,17480.836
955973.4736250148,-8394.653,-25344.158,10809.489,5318.6445,3175.2524,-10812.704,-10670.532,17479.127
955973.477625011,-8397.665,-25349.406,10805.705,5314.372,3171.6309,-10811.605,-10673.869,17475.545
955973.4816250072,-8395.305,-25347.982,10808.31,5317.546,3173.869,-10809.164,-10671.225,17469.646
955973.4856250035,-8397.502,-25345.785,10807.617,5318.2783,3175.537,-10811.6455,-10676.758,17467.611
955973.4896249997,-8398.356,-25342.896,10808.838,5317.7085,3176.0254,-10815.796,-10679.159,17469.402
955973.4936249959,-8391.887,-25338.379,10810.303,5317.749,3178.7925,-10810.303,-10675.822,17468.465
955973.4976249923,-8390.178,-25339.6,10810.873,5316.488,3178.6296,-10806.601,-10674.927,17473.512
955973.5016249885,-8387.736,-25339.275,10815.593,5319.743,3184.2449,-10806.967,-10672.445,17480.307
955973.5056249847,-8385.01,-25335.572,10821.045,5322.3877,3186.2793,-10809.286,-10670.817,17477.174
955973.509624981,-8378.093,-25331.87,10824.504,5327.0264,3191.162,-10807.658,-10664.999,17482.016
955973.5136249772,-8382.324,-25341.025,10819.946,5323.7305,3189.6567,-10804.362,-10662.802,17488.77
955973.5176249734,-8392.416,-25352.418,10816.04,5318.7256,3179.4841,-10800.131,-10664.999,17487.916
955973.5216249697,-8395.142,-25351.645,10815.878,5319.865,3171.224,-10799.561,-10666.057,17480.672
955973.5256249659,-8392.578,-25347.291,10819.011,5322.9575,3176.7986,-10800.171,-10664.755,17474.121
955973.5296249621,-8390.056,-25348.797,10819.987,5322.3066,3178.955,-10799.357,-10659.506,17477.824
955973.5336249584,-8392.009,-25354.453,10813.925,5317.1387,3178.06,-10799.113,-10657.715,17486.816
955973.5376249547,-8399.699,-25361.98,10808.391,5313.2324,3170.3289,-10793.823,-10657.064,17499.188
955973.541624951,-8401.855,-25361.451,10810.303,5315.4297,3172.7295,-10787.761,-10657.634,17490.479
955973.5456249472,-8394.897,-25360.068,10817.749,5323.69,3180.5015,-10787.598,-10657.349,17481.771
955973.5496249434,-8397.136,-25358.643,10818.93,5326.091,3179.9316,-10785.6045,-10656.006,17484.822
955973.5536249396,-8402.304,-25364.137,10816.65,5319.458,3170.5322,-10786.703,-10657.023,17485.393
955973.5576249359,-8407.064,-25367.88,10812.785,5313.4766,3167.6433,-10784.587,-10657.023,17489.584
955973.5616249321,-8398.4375,-25362.713,10821.289,5322.998,3179.525,-10780.884,-10645.183,17501.547
955973.5656249283,-8392.09,-25358.643,10827.556,5328.166,3183.1462,-10782.634,-10645.142,17486.613
955973.5696249246,-8393.637,-25359.295,10823.242,5328.8574,3187.5,-10779.501,-10647.38,17484.172
955973.5736249209,-8404.094,-25365.805,10815.186,5324.26,3182.3325,-10781.576,-10655.151,17479.412
955973.5776249171,-8418.62,-25374.39,10808.513,5316.6504,3172.3633,-10784.099,-10663.412,17473.674
955973.5816249134,-8418.457,-25372.396,10809.814,5319.6616,3172.8923,-10781.088,-10661.906,17472.82
955973.5856249096,-8405.6,-25362.184,10819.662,5327.3926,3179.24,-10780.844,-10654.297,17476.441
955973.5896249058,-8396.851,-25359.457,10825.439,5331.3804,3184.0415,-10779.867,-10645.996,17483.725
955973.5936249021,-8388.184,-25356.121,10827.678,5332.723,3188.192,-10771.933,-10633.83,17498.82
955973.5976248983,-8397.421,-25366.66,10819.458,5323.568,3181.0303,-10770.061,-10637.207,17498.332
955973.6016248945,-8404.379,-25372.355,10815.1455,5322.5913,3176.0254,-10771.037,-10639.975,17490.602
955973.6056248908,-8404.338,-25368.734,10817.912,5328.817,3176.8394,-10772.949,-10639.282,17491.863
955973.609624887,-8409.018,-25371.176,10815.674,5327.922,3178.8738,-10775.717,-10644.531,17486.328
955973.6136248833,-8414.592,-25376.262,10814.738,5322.795,3175.3745,-10770.793,-10648.275,17483.887
955973.6176248796,-8420.207,-25379.6,10813.477,5320.4346,3170.4917,-10766.887,-10651.449,17484.498
955973.6216248758,-8412.964,-25375.205,10818.237,5326.091,3174.6013,-10765.137,-10648.4375,17489.787
955973.625624872,-8396.484,-25365.031,10828.857,5336.3447,3182.6987,-10761.76,-10636.963,17494.182
955973.6296248683,-8391.073,-25361.207,10831.055,5338.4604,3186.849,-10759.521,-10631.145,17494.832
955973.6336248645,-8395.183,-25361.613,10828.613,5334.6357,3190.7554,-10755.819,-10630.168,17500.652
955973.6376248607,-8403.442,-25374.96,10818.848,5326.579,3182.8208,-10754.3545,-10635.742,17504.314
955973.641624857,-8407.471,-25376.588,10816.65,5327.0674,3186.076,-10753.459,-10640.015,17496.705
955973.6456248532,-8406.738,-25375.732,10818.319,5327.0674,3190.4705,-10759.359,-10645.305,17485.148
955973.6496248494,-8405.478,-25370.322,10820.557,5328.695,3189.738,-10760.702,-10646.566,17486.004
955973.6536248458,-8407.675,-25367.27,10820.435,5327.2705,3183.0242,-10759.115,-10646.811,17492.84
955973.657624842,-8402.466,-25367.514,10823.283,5328.6133,3178.7517,-10756.226,-10646.525,17489.137
955973.6616248382,-8394.165,-25364.707,10829.102,5333.9033,3182.3325,-10755.412,-10642.741,17490.723
955973.6656248345,-8391.765,-25361.492,10829.916,5332.9673,3190.3892,-10756.511,-10641.154,17496.46
955973.6696248307,-8389.282,-25356.486,10834.066,5337.85,3187.5,-10753.174,-10633.667,17503.582
955973.673624827,-8398.967,-25365.967,10826.457,5331.584,3181.356,-10748.739,-10634.237,17500.57
955973.6776248232,-8409.465,-25376.75,10818.034,5324.951,3177.409,-10746.216,-10643.352,17494.305
955973.6816248194,-8411.865,-25382.162,10813.762,5325.0327,3178.5076,-10751.587,-10647.217,17483.48
955973.6856248156,-8407.675,-25378.826,10817.668,5329.997,3181.6814,-10754.028,-10642.294,17483.969
955973.6896248119,-8404.094,-25373.82,10825.236,5334.3916,3184.5298,-10750.57,-10637.451,17494.996
955973.6936248082,-8393.637,-25369.14,10832.072,5336.1816,3183.7974,-10743.856,-10634.115,17499.023
955973.6976248045,-8395.305,-25376.873,10828.044,5329.509,3175.8628,-10743.449,-10638.998,17496.623
955973.7016248007,-8397.99,-25381.023,10828.41,5330.77,3172.3228,-10741.537,-10635.58,17504.762
955973.7056247969,-8390.544,-25375.244,10834.921,5339.071,3179.8096,-10738.281,-10631.063,17504.395
955973.7096247931,-8384.318,-25367.717,10838.176,5346.151,3190.4705,-10734.741,-10626.669,17506.836
955973.7136247894,-8388.428,-25369.385,10837.729,5347.534,3194.6208,-10730.51,-10623.332,17514.568
955973.7176247856,-8402.182,-25378.582,10827.475,5337.7686,3187.5815,-10731.771,-10632.976,17510.865
955973.7216247818,-8399.658,-25375.611,10827.841,5337.158,3188.0698,-10736.938,-10639.201,17503.541
955973.7256247781,-8383.749,-25369.02,10835.49,5345.256,3192.6677,-10737.997,-10634.074,17506.715
955973.7296247744,-8378.744,-25363.975,10840.902,5349.447,3195.516,-10732.097,-10626.913,17517.986
955973.7336247707,-8388.672,-25369.426,10837.321,5344.6045,3186.5234,-10729.045,-10628.54,17522.95
955973.7376247669,-8393.84,-25379.477,10830.2,5338.623,3182.2104,-10727.417,-10638.794,17500.732
955973.7416247631,-8392.7,-25378.459,10830.485,5342.163,3183.5532,-10726.359,-10637.614,17493.816
955973.7456247594,-8390.625,-25373.373,10836.833,5348.8364,3186.8083,-10729.33,-10632.284,17498.902
955973.7496247556,-8382.04,-25369.385,10845.459,5356.5674,3188.9243,-10727.824,-10625.163,17504.803
955973.7536247518,-8381.104,-25369.629,10845.703,5356.6084,3191.6099,-10722.128,-10621.908,17509.48
955973.757624748,-8385.254,-25371.379,10838.949,5348.1855,3189.4126,-10719.687,-10624.1455,17510.906
955973.7616247443,-8382.365,-25368.043,10839.4375,5348.633,3193.8477,-10716.431,-10620.85,17515.625
955973.7656247405,-8380.168,-25365.154,10840.007,5350.505,3190.145,-10718.303,-10617.636,17522.42
955973.7696247369,-8381.348,-25364.666,10839.763,5350.6675,3187.9883,-10716.431,-10614.665,17526.408
955973.7736247331,-8385.092,-25370.85,10836.508,5347.2495,3181.6814,-10709.961,-10614.462,17525.676
955973.7776247293,-8388.306,-25373.21,10834.311,5345.337,3185.5469,-10708.13,-10617.025,17519.41
955973.7816247256,-8387.207,-25371.135,10837.28,5348.755,3193.278,-10709.311,-10616.903,17522.217
955973.7856247218,-8385.376,-25365.643,10840.942,5352.7427,3194.4175,-10710.002,-10615.886,17520.59
955973.789624718,-8381.47,-25360.596,10844.238,5354.533,3192.505,-10708.984,-10612.224,17522.38
955973.7936247142,-8381.552,-25362.51,10840.983,5352.6206,3190.6333,-10706.299,-10610.312,17529.217
955973.7976247105,-8396.566,-25378.379,10827.189,5340.129,3181.9255,-10707.968,-10622.192,17519.328
955973.8016247067,-8397.583,-25379.355,10828.776,5341.4717,3183.1462,-10707.235,-10624.064,17512.371
955973.805624703,-8386.597,-25375.896,10836.833,5348.9585,3192.6677,-10707.072,-10616.374,17517.01
955973.8096246993,-8384.807,-25382.041,10840.21,5349.4062,3188.3545,-10705.648,-10614.584,17518.555
955973.8136246955,-8384.97,-25387.574,10838.664,5348.3076,3186.605,-10703.532,-10617.025,17517.09
955973.8176246918,-8392.863,-25394.287,10834.555,5342.204,3184.2856,-10701.213,-10621.989,17517.822
955973.821624688,-8389.853,-25393.516,10836.345,5345.622,3182.9429,-10704.306,-10621.338,17517.375
955973.8256246842,-8378.418,-25384.562,10842.773,5353.1494,3185.3843,-10703.573,-10615.316,17519.613
955973.8296246805,-8370.932,-25375.205,10846.802,5356.6895,3190.1855,-10700.277,-10608.032,17528.768
955973.8336246767,-8375.692,-25377.523,10843.669,5353.353,3186.8083,-10697.021,-10605.347,17537.273
955973.8376246729,-8391.073,-25389.771,10830.2,5340.8203,3173.5435,-10697.307,-10613.485,17536.174
955973.8416246691,-8382.65,-25383.18,10835.9375,5346.1914,3177.938,-10694.255,-10613.322,17528.076
955973.8456246655,-8379.11,-25377.238,10844.238,5355.062,3189.9414,-10690.878,-10610.2295,17522.95
955973.8496246617,-8389.16,-25386.23,10841.024,5352.051,3187.8257,-10691.813,-10610.962,17522.584
955973.853624658,-8391.154,-25390.504,10839.722,5348.2666,3187.5408,-10687.866,-10611.491,17528.688
955973.8576246542,-8393.107,-25393.799,10836.833,5343.75,3187.8257,-10684.896,-10613.2,17529.217
955973.8616246504,-8387.289,-25390.26,10840.414,5348.877,3188.6394,-10686.483,-10609.782,17529.42
955973.8656246467,-8377.6455,-25381.512,10849.243,5359.945,3196.045,-10685.71,-10605.347,17525.758
955973.8696246429,-8374.064,-25383.465,10851.481,5360.759,3194.5396,-10687.663,-10607.585,17523.885
955973.8736246391,-8380.29,-25392.09,10845.378,5353.353,3186.2793,-10685.995,-10612.427,17523.52
955973.8776246354,-8386.882,-25397.746,10842.326,5348.9585,3179.362,-10681.112,-10613.811,17530.396
955973.8816246316,-8385.458,-25396.24,10842.448,5350.5454,3180.664,-10678.427,-10613.281,17535.97
955973.8856246279,-8380.005,-25391.398,10846.3955,5357.829,3187.5,-10680.583,-10609.335,17532.064
955973.8896246242,-8379.802,-25391.807,10848.959,5359.009,3192.7898,-10681.967,-10606.364,17529.867
955973.8936246204,-8378.662,-25388.104,10849.731,5357.91,3194.1326,-10679.321,-10603.476,17534.912
955973.8976246166,-8380.778,-25391.074,10847.412,5355.1436,3191.6912,-10678.02,-10605.469,17535.482
955973.9016246129,-8380.005,-25392.822,10847.778,5356.2827,3189.86,-10677.043,-10607.91,17531.982
955973.9056246091,-8373.169,-25387.412,10853.231,5362.793,3195.7603,-10675.171,-10604.33,17532.146
955973.9096246053,-8371.826,-25385.621,10853.882,5364.2173,3196.574,-10673.462,-10604.614,17529.623
955973.9136246016,-8376.303,-25391.398,10851.97,5359.172,3187.7036,-10668.905,-10605.591,17534.709
955973.9176245978,-8381.796,-25392.54,10847.372,5355.998,3184.8552,-10666.016,-10608.969,17533.65
955973.921624594,-8379.395,-25389.568,10847.616,5358.602,3188.029,-10664.185,-10607.585,17529.664
955973.9256245904,-8373.576,-25385.215,10853.027,5364.787,3194.4988,-10663.33,-10603.394,17531.047
955973.9296245866,-8371.542,-25385.418,10854.858,5366.0483,3196.1265,-10663.29,-10602.661,17536.541
955973.9336245828,-8375.122,-25392.945,10852.377,5362.3047,3191.0808,-10660.4,-10604.899,17534.1
955973.9376245791,-8385.092,-25406.82,10843.466,5354.045,3182.2104,-10656.576,-10607.87,17531.291
955973.9416245753,-8382.446,-25409.18,10847.046,5359.253,3190.145,-10656.169,-10604.045,17530.885
955973.9456245715,-8376.709,-25406.658,10852.255,5365.0312,3194.5396,-10657.634,-10598.511,17535.035
955973.9496245678,-8373.129,-25401.734,10857.138,5367.7573,3194.2954,-10654.948,-10594.035,17540.527
955973.953624564,-8378.378,-25406.658,10852.987,5362.264,3186.5234,-10651.611,-10597.168,17537.8
955973.9576245602,-8387.695,-25416.79,10845.297,5352.9463,3179.6875,-10653.036,-10606.242,17525.146
955973.9616245566,-8387.126,-25421.387,10846.069,5353.719,3182.0884,-10653.769,-10609.985,17517.945
955973.9656245528,-8378.052,-25417.604,10852.336,5361.6133,3186.5234,-10650.351,-10606.649,17516.805
955973.969624549,-8381.43,-25419.883,10849.528,5360.718,3185.4656,-10651.53,-10606.812,17522.096
955973.9736245453,-8389.608,-25426.799,10844.279,5356.2827,3179.6875,-10651.205,-10606.242,17535.238
955973.9776245415,-8396.729,-25432.658,10841.228,5351.4814,3172.282,-10648.764,-10607.504,17536.541
955973.9816245377,-8394.003,-25427.613,10844.6455,5354.696,3175.9033,-10645.386,-10603.476,17539.592
955973.985624534,-8383.871,-25419.516,10852.702,5363.159,3181.8035,-10644.287,-10597.453,17534.547
955973.9896245302,-8376.831,-25414.145,10858.603,5368.3677,3186.6863,-10641.398,-10591.96,17539.754
955973.9936245264,-8383.871,-25419.11,10854.126,5362.468,3187.4595,-10641.357,-10597.738,17543.092
955973.9976245227,-8394.572,-25429.852,10850.139,5354.126,3181.2744,-10641.562,-10607.26,17531.047
955974.001624519,-8391.887,-25431.602,10853.923,5357.9917,3177.3682,-10639.404,-10604.492,17529.338
955974.0056245152,-8387.736,-25430.299,10858.887,5361.5723,3179.362,-10636.841,-10597.209,17538.777
955974.0096245115,-8384.481,-25426.963,10860.148,5361.0435,3181.478,-10635.946,-10598.918,17532.064
955974.0136245077,-8389.486,-25429.322,10855.144,5357.707,3179.2808,-10631.552,-10601.889,17529.053
955974.0176245039,-8401.245,-25438.152,10845.378,5351.115,3171.753,-10629.028,-10602.824,17530.111
955974.0216245002,-8392.985,-25431.479,10853.964,5359.619,3177.5718,-10626.913,-10593.628,17538.086
955974.0256244964,-8375.773,-25420.41,10866.049,5371.623,3191.854,-10626.14,-10588.135,17542.033
955974.0296244926,-8374.228,-25421.713,10868.246,5372.762,3193.563,-10626.709,-10589.844,17543.05
955974.0336244889,-8379.721,-25425.742,10863.607,5366.252,3185.1401,-10627.727,-10593.994,17541.016
955974.0376244851,-8393.84,-25437.053,10851.645,5355.062,3177.7344,-10625.448,-10601.807,17536.785
955974.0416244814,-8396.566,-25435.426,10849.895,5357.1777,3177.9785,-10625.041,-10600.464,17536.215
955974.0456244777,-8387.451,-25424.277,10858.562,5366.618,3183.1462,-10622.803,-10596.11,17534.912
955974.0496244739,-8383.749,-25422.852,10863.77,5368.7744,3183.2683,-10619.345,-10594.32,17534.303
955974.0536244701,-8384.766,-25426.963,10861.45,5365.7637,3181.0303,-10617.147,-10592.489,17544.393
955974.0576244664,-8393.555,-25435.67,10853.068,5357.91,3176.1475,-10618.774,-10602.499,17537.883
955974.0616244626,-8393.596,-25440.797,10852.133,5357.9917,3176.6357,-10621.745,-10607.056,17525.555
955974.0656244588,-8385.051,-25432.373,10858.48,5367.5537,3182.0884,-10621.216,-10600.749,17526.57
955974.0696244551,-8375.082,-25423.748,10869.182,5376.5464,3184.611,-10619.711,-10593.018,17533.203
955974.0736244513,-8373.576,-25424.44,10870.117,5373.6167,3179.24,-10617.351,-10591.35,17542.44
955974.0776244475,-8376.221,-25431.764,10865.805,5367.391,3176.9207,-10613.77,-10593.1,17543.54
955974.0816244439,-8380.005,-25436.932,10864.624,5365.5195,3186.2793,-10614.34,-10593.384,17542.969
955974.0856244401,-8375.0,-25430.664,10868.042,5370.565,3189.209,-10612.427,-10591.879,17543.54
955974.0896244363,-8371.948,-25424.887,10870.036,5372.1113,3188.1511,-10612.712,-10591.472,17544.678
955974.0936244326,-8381.348,-25429.648,10865.112,5367.391,3184.4482,-10609.457,-10592.407,17551.84
955974.0976244288,-8379.639,-25432.496,10864.543,5366.333,3183.5938,-10604.126,-10592.163,17556.967
955974.101624425,-8366.862,-25428.428,10872.03,5372.8843,3185.791,-10602.783,-10587.036,17563.924
955974.1056244213,-8364.584,-25427.816,10875.488,5376.953,3195.1904,-10604.37,-10582.235,17566.203
955974.1096244175,-8362.305,-25425.254,10877.441,5377.767,3210.6934,-10606.73,-10582.153,17556.6
955974.1136244137,-8368.002,-25424.725,10873.251,5373.983,3207.7637,-10606.323,-10582.4795,17558.96
955974.1176244101,-8380.941,-25434.979,10862.468,5363.037,3193.8884,-10605.632,-10589.641,17555.096
955974.1216244063,-8379.965,-25437.785,10864.828,5364.299,3181.8442,-10602.499,-10586.182,17561.402
955974.1256244025,-8370.646,-25427.207,10874.797,5374.2676,3193.7664,-10595.785,-10576.864,17564.006
955974.1296243988,-8366.984,-25424.969,10878.54,5376.831,3199.7886,-10590.536,-10569.418,17566.082
955974.133624395,-8364.706,-25425.822,10879.761,5375.7324,3198.161,-10585.205,-10566.569,17570.965
955974.1376243912,-8372.314,-25432.414,10871.338,5367.7573,3191.0808,-10587.484,-10574.585,17566.57
955974.1416243875,-8371.745,-25432.7,10869.995,5368.286,3191.325,-10589.03,-10574.423,17565.838
955974.1456243837,-8366.455,-25425.781,10877.727,5375.814,3194.2546,-10586.996,-10568.237,17575.033
955974.1496243799,-8368.083,-25424.521,10877.849,5375.163,3191.2842,-10587.891,-10573.527,17567.994
955974.1536243762,-8371.989,-25429.729,10874.472,5372.925,3185.9946,-10582.397,-10576.904,17565.35
955974.1576243725,-8381.47,-25445.924,10865.112,5364.299,3179.6062,-10581.828,-10580.526,17559.326
955974.1616243687,-8375.529,-25445.762,10866.049,5365.6006,3184.9365,-10583.252,-10579.387,17561.361
955974.165624365,-8368.246,-25436.076,10875.651,5374.634,3196.2078,-10579.956,-10572.0625,17564.697
955974.1696243612,-8368.896,-25436.28,10879.924,5378.703,3195.516,-10576.742,-10570.231,17564.617
955974.1736243574,-8377.563,-25449.463,10871.013,5371.257,3185.8726,-10575.603,-10576.823,17556.885
955974.1776243537,-8386.027,-25453.98,10861.735,5362.264,3177.7344,-10575.439,-10582.968,17557.21
955974.1816243499,-8379.68,-25443.36,10868.246,5369.1,3186.9304,-10575.603,-10576.66,17563.72
955974.1856243461,-8366.862,-25429.973,10880.615,5383.016,3199.4224,-10572.917,-10566.04,17572.021
955974.1896243424,-8363.688,-25424.154,10885.458,5386.841,3203.2878,-10569.946,-10563.518,17575.725
955974.1936243386,-8370.81,-25430.258,10878.174,5377.8076,3190.3892,-10572.551,-10571.655,17572.55
955974.197624335,-8381.43,-25444.092,10869.955,5366.9434,3181.478,-10576.05,-10582.764,17555.908
955974.2016243312,-8382.65,-25444.662,10871.298,5367.391,3183.4312,-10573.364,-10583.293,17555.014
955974.2056243274,-8371.867,-25438.844,10877.523,5373.7793,3185.669,-10572.307,-10579.102,17558.96
955974.2096243236,-8364.746,-25434.531,10881.958,5379.6797,3195.9636,-10569.336,-10570.028,17571.453
955974.2136243199,-8367.92,-25437.785,10880.005,5376.709,3191.0808,-10569.011,-10567.993,17578.572
955974.2176243161,-8368.9375,-25438.518,10880.168,5375.3257,3185.3843,-10564.087,-10566.366,17577.434
955974.2216243123,-8363.811,-25434.408,10884.155,5380.2085,3187.907,-10559.164,-10562.5,17576.54
955974.2256243086,-8355.429,-25430.543,10888.916,5385.376,3190.5518,-10561.117,-10558.065,17584.676
955974.2296243048,-8354.452,-25428.508,10892.09,5387.126,3191.8945,-10563.232,-10555.38,17587.484
955974.2336243012,-8363.322,-25431.885,10885.376,5380.3306,3190.5518,-10565.1045,-10564.494,17576.62
955974.2376242974,-8369.914,-25442.627,10876.059,5370.6055,3182.373,-10562.826,-10572.795,17577.107
955974.2416242936,-8370.239,-25444.988,10875.8545,5372.4365,3182.0884,-10561.6455,-10570.15,17579.469
955974.2456242898,-8366.455,-25437.256,10880.615,5379.9644,3186.483,-10556.356,-10565.634,17571.33
955974.2496242861,-8362.793,-25438.64,10883.545,5384.6846,3194.9058,-10552.694,-10559.53,17581.055
955974.2536242823,-8373.291,-25447.754,10877.116,5376.831,3192.3423,-10554.932,-10568.4,17574.139
955974.2576242785,-8386.923,-25457.928,10870.199,5367.025,3182.658,-10554.6875,-10576.864,17566.447
955974.2616242748,-8377.36,-25456.178,10875.977,5375.122,3187.5,-10553.874,-10568.686,17572.51
955974.265624271,-8364.136,-25448.324,10883.505,5382.7314,3194.0105,-10555.664,-10560.669,17583.74
955974.2696242672,-8362.956,-25443.156,10887.085,5384.7656,3196.696,-10554.606,-10557.333,17591.432
955974.2736242636,-8369.019,-25451.54,10882.731,5379.6387,3192.871,-10551.311,-10558.96,17591.797
955974.2776242598,-8378.581,-25462.77,10872.519,5369.914,3183.4312,-10549.683,-10568.156,17579.305
955974.281624256,-8385.173,-25465.781,10869.467,5367.4727,3180.9082,-10550.903,-10572.266,17571.736
955974.2856242523,-8383.952,-25462.2,10876.14,5375.163,3189.901,-10544.475,-10566.61,17574.951
955974.2896242485,-8378.174,-25460.45,10881.877,5381.185,3192.9119,-10536.825,-10562.216,17578.248
955974.2936242447,-8371.989,-25457.154,10883.139,5381.633,3194.8242,-10536.784,-10563.437,17577.352
955974.297624241,-8375.122,-25457.52,10878.866,5375.5293,3190.8367,-10539.592,-10567.993,17578.777
955974.3016242372,-8372.844,-25454.875,10880.819,5378.54,3194.58,-10542.358,-10566.65,17577.922
955974.3056242334,-8362.265,-25446.209,10892.09,5390.1367,3206.3396,-10536.255,-10554.851,17583.13
955974.3096242297,-8364.787,-25447.266,10892.497,5388.55,3205.4038,-10534.465,-10555.095,17583.74
955974.313624226,-8373.576,-25453.533,10889.201,5383.3823,3197.3472,-10532.715,-10560.385,17582.643
955974.3176242223,-8384.685,-25467.082,10879.843,5375.6104,3191.162,-10531.21,-10566.65,17581.625
955974.3216242185,-8377.768,-25466.229,10883.749,5378.7437,3189.087,-10529.501,-10563.518,17583.455
955974.3256242147,-8362.387,-25450.156,10896.647,5389.7705,3199.5037,-10528.85,-10552.816,17594.197
955974.329624211,-8352.905,-25442.588,10902.873,5393.84,3203.7761,-10533.203,-10548.544,17599.732
955974.3336242072,-8355.957,-25441.691,10899.699,5391.8867,3197.998,-10530.151,-10547.893,17600.79
955974.3376242034,-8364.828,-25446.777,10894.775,5387.2886,3197.1436,-10526.123,-10551.84,17596.883
955974.3416241996,-8369.385,-25451.621,10892.375,5386.9224,3197.3877,-10524.943,-10555.786,17588.543
955974.3456241959,-8367.758,-25451.945,10893.881,5389.364,3197.876,-10526.774,-10554.443,17584.758
955974.3496241921,-8365.601,-25449.992,10897.38,5391.2764,3199.9512,-10524.292,-10551.799,17587.322
955974.3536241885,-8364.95,-25452.719,10892.66,5384.6846,3191.9353,-10520.508,-10551.474,17598.227
955974.3576241847,-8368.896,-25456.137,10887.126,5379.1504,3185.6284,-10515.869,-10552.328,17598.389
955974.3616241809,-8363.566,-25450.48,10894.897,5386.8003,3194.4988,-10510.742,-10544.76,17602.254
955974.3656241772,-8356.364,-25445.15,10902.466,5394.6533,3203.654,-10512.573,-10538.615,17605.145
955974.3696241734,-8357.3,-25446.127,10903.239,5395.345,3199.9106,-10514.16,-10538.33,17606.934
955974.3736241696,-8366.699,-25457.357,10894.897,5387.9805,3187.785,-10513.225,-10546.794,17602.254
955974.3776241658,-8373.088,-25469.768,10887.858,5380.819,3184.774,-10511.068,-10554.199,17600.018
955974.3816241621,-8370.932,-25468.182,10890.381,5381.836,3191.6912,-10514.201,-10556.274,17598.877
955974.3856241583,-8363.7295,-25460.898,10899.252,5388.957,3190.8367,-10516.846,-10557.089,17588.014
955974.3896241547,-8359.375,-25458.74,10903.239,5392.2935,3194.0105,-10515.503,-10554.729,17582.316
955974.3936241509,-8363.647,-25461.875,10899.699,5387.2886,3193.8071,-10515.503,-10554.851,17590.17
955974.3976241471,-8372.803,-25469.85,10894.165,5383.464,3189.9414,-10516.276,-10558.065,17590.7
955974.4016241434,-8369.019,-25470.053,10895.752,5386.19,3193.9292,-10509.5625,-10552.897,17595.662
955974.4056241396,-8362.468,-25467.979,10896.078,5387.207,3199.0562,-10506.063,-10548.178,17593.262
955974.4096241358,-8359.538,-25464.844,10896.159,5388.143,3199.992,-10503.296,-10542.236,17597.941
955974.413624132,-8361.613,-25468.67,10895.996,5385.8643,3194.4988,-10502.279,-10540.976,17601.604
955974.4176241283,-8364.258,-25468.994,10899.048,5388.1025,3195.8008,-10495.565,-10538.33,17606.242
955974.4216241245,-8360.474,-25463.258,10904.867,5393.5957,3201.0093,-10497.6,-10540.202,17604.29
955974.4256241207,-8355.51,-25464.031,10907.064,5395.427,3207.4382,-10501.465,-10542.358,17610.555
955974.4296241171,-8354.94,-25464.56,10905.478,5394.735,3204.4678,-10501.181,-10542.847,17611.613
955974.4336241133,-8361.816,-25472.291,10898.193,5385.3354,3195.3533,-10500.448,-10548.544,17604.736
955974.4376241096,-8370.85,-25481.65,10890.219,5375.9766,3189.0464,-10497.722,-10552.897,17598.47
955974.4416241058,-8365.479,-25477.174,10894.369,5380.615,3189.8193,-10489.868,-10544.312,17598.674
955974.445624102,-8354.289,-25466.797,10905.314,5393.1885,3198.6084,-10481.934,-10532.797,17613.729
955974.4496240983,-8358.317,-25467.773,10908.0,5397.054,3202.0671,-10482.666,-10530.884,17619.67
955974.4536240945,-8373.047,-25481.527,10900.065,5390.381,3197.998,-10484.213,-10539.307,17610.922
955974.4576240907,-8380.249,-25492.514,10891.562,5381.755,3192.3828,-10486.532,-10552.084,17598.064
955974.461624087,-8363.403,-25480.43,10901.083,5390.544,3199.0154,-10480.673,-10544.678,17602.58
955974.4656240832,-8352.092,-25471.232,10911.133,5399.089,3210.205,-10475.708,-10529.379,17619.588
955974.4696240795,-8350.18,-25470.459,10911.052,5398.7227,3210.4492,-10477.214,-10527.629,17618.043
955974.4736240758,-8357.585,-25478.76,10905.478,5391.1543,3199.0562,-10476.685,-10533.325,17612.63
955974.477624072,-8368.774,-25491.008,10900.106,5386.5156,3187.785,-10474.406,-10538.9,17610.799
955974.4816240682,-8374.1455,-25500.123,10900.391,5390.1367,3185.3435,-10473.1045,-10542.969,17606.527
955974.4856240645,-8375.61,-25497.275,10900.757,5393.636,3183.4717,-10473.837,-10544.678,17599.936
955974.4896240607,-8372.763,-25493.246,10899.17,5392.578,3189.0464,-10476.115,-10548.056,17595.988
955974.4936240569,-8370.769,-25495.484,10897.746,5387.777,3191.162,-10471.3545,-10545.817,17603.76
955974.4976240532,-8373.698,-25501.547,10895.427,5382.4463,3190.796,-10469.035,-10547.038,17610.434
955974.5016240494,-8367.392,-25493.816,10902.832,5389.282,3193.3188,-10467.489,-10541.016,17616.496
955974.5056240457,-8359.213,-25485.434,10912.639,5399.089,3201.9858,-10466.35,-10531.901,17623.21
955974.509624042,-8356.486,-25484.742,10914.836,5403.6055,3206.4617,-10466.228,-10535.116,17616.13
955974.5136240382,-8365.438,-25496.258,10907.1455,5397.258,3207.1533,-10463.583,-10543.498,17606.324
955974.5176240344,-8378.378,-25506.268,10896.322,5387.8174,3196.6147,-10462.321,-10550.7,17603.8
955974.5216240307,-8375.937,-25504.273,10896.362,5387.8174,3191.8945,-10463.257,-10550.7,17604.248
955974.5256240269,-8366.374,-25496.502,10901.9375,5393.799,3194.0513,-10464.56,-10546.306,17603.76
955974.5296240231,-8361.694,-25496.826,10906.494,5395.874,3195.9229,-10462.321,-10543.62,17605.021
955974.5336240194,-8366.089,-25508.098,10903.891,5392.8223,3197.9575,-10460.327,-10543.295,17603.8
955974.5376240156,-8374.716,-25518.31,10898.193,5388.3057,3195.0684,-10460.246,-10546.672,17600.912
955974.5416240118,-8368.612,-25510.498,10908.163,5396.932,3195.3533,-10459.677,-10540.8125,17609.783
955974.5456240082,-8358.806,-25502.605,10914.429,5403.89,3200.399,-10460.49,-10540.324,17608.928
955974.5496240044,-8355.021,-25495.117,10916.057,5405.111,3202.2705,-10460.449,-10542.725,17605.51
955974.5536240006,-8358.398,-25497.193,10912.558,5399.0073,3198.405,-10457.438,-10543.498,17613.24
955974.5576239969,-8365.764,-25505.412,10902.873,5389.201,3191.8945,-10454.062,-10547.7295,17612.428
955974.5616239931,-8365.52,-25506.633,10904.582,5392.253,3196.1265,-10452.719,-10545.085,17611.207
955974.5656239893,-8354.126,-25496.135,10913.574,5402.7915,3202.5554,-10450.399,-10535.849,17617.229
955974.5696239856,-8345.093,-25486.898,10921.835,5409.668,3211.5886,-10443.686,-10527.832,17620.85
955974.5736239818,-8345.785,-25484.416,10922.648,5410.5635,3210.8562,-10437.419,-10522.055,17630.941
955974.577623978,-8357.341,-25495.281,10913.412,5399.8213,3199.2188,-10439.616,-10528.809,17625.326
955974.5816239743,-8357.829,-25498.902,10913.452,5401.042,3200.399,-10440.756,-10527.832,17622.762
955974.5856239706,-8350.586,-25491.008,10921.062,5409.912,3207.7231,-10439.413,-10524.252,17619.873
955974.5896239668,-8343.872,-25483.562,10923.828,5412.5166,3209.3506,-10437.46,-10521.729,17624.756
955974.5936239631,-8348.755,-25491.09,10917.033,5404.338,3201.6602,-10435.791,-10523.723,17630.574
955974.5976239593,-8363.037,-25503.703,10906.21,5394.4907,3194.9463,-10435.507,-10532.553,17629.314
955974.6016239555,-8364.624,-25504.314,10905.111,5394.45,3194.4988,-10437.826,-10536.174,17625.041
955974.6056239518,-8358.562,-25497.275,10911.459,5402.751,3200.2769,-10438.314,-10530.029,17627.361
955974.609623948,-8357.422,-25494.996,10914.633,5407.837,3205.8105,-10439.413,-10524.17,17634.848
955974.6136239442,-8356.039,-25496.664,10917.196,5409.587,3208.0486,-10437.134,-10526.367,17631.715
955974.6176239405,-8354.533,-25498.414,10916.423,5406.372,3209.5542,-10431.885,-10531.413,17626.424
955974.6216239368,-8353.109,-25500.123,10915.976,5407.7964,3211.7107,-10430.542,-10529.216,17627.441
955974.625623933,-8344.564,-25494.549,10922.079,5415.161,3217.9363,-10430.176,-10523.764,17631.674
955974.6296239293,-8343.059,-25491.7,10923.584,5415.7715,3217.041,-10428.833,-10525.31,17626.506
955974.6336239255,-8355.754,-25503.703,10914.592,5405.721,3205.6072,-10429.281,-10533.488,17622.6
955974.6376239217,-8362.143,-25512.533,10907.309,5397.502,3197.8354,-10428.345,-10542.033,17613.648
955974.641623918,-8358.725,-25508.994,10912.558,5403.646,3200.6023,-10425.375,-10538.9,17613.69
955974.6456239142,-8356.283,-25502.117,10918.132,5409.3833,3202.7183,-10427.694,-10534.465,17616.902
955974.6496239104,-8352.011,-25496.014,10922.485,5412.842,3208.374,-10423.503,-10531.128,17622.518
955974.6536239067,-8351.604,-25495.566,10922.689,5410.4414,3210.4087,-10419.597,-10530.6,17624.797
955974.6576239029,-8358.032,-25502.28,10917.521,5404.704,3204.4272,-10417.807,-10535.93,17620.605
955974.6616238992,-8356.975,-25502.035,10918.742,5408.8545,3202.3926,-10417.155,-10532.878,17620.361
955974.6656238955,-8355.632,-25501.994,10923.015,5412.7607,3204.1016,-10417.725,-10531.047,17621.826
955974.6696238917,-8354.94,-25502.238,10926.636,5415.853,3210.7341,-10415.854,-10528.32,17623.982
955974.6736238879,-8357.707,-25510.05,10922.445,5410.4004,3207.2754,-10417.033,-10532.675,17623.535
955974.6776238842,-8368.612,-25522.299,10910.156,5399.8213,3194.4988,-10419.189,-10539.673,17619.223
955974.6816238804,-8366.659,-25524.7,10911.743,5401.042,3195.5566,-10416.708,-10539.958,17616.496
955974.6856238766,-8355.957,-25513.713,10920.248,5409.912,3200.8464,-10410.93,-10530.844,17624.268
955974.6896238729,-8352.173,-25508.586,10925.009,5414.592,3211.019,-10404.745,-10525.879,17619.14
955974.6936238691,-8356.894,-25512.777,10923.706,5413.2896,3212.8093,-10397.421,-10522.949,17619.752
955974.6976238653,-8365.072,-25524.049,10916.464,5405.3145,3203.1658,-10396.729,-10526.611,17622.111
955974.7016238617,-8363.688,-25527.426,10918.173,5406.006,3203.2878,-10399.699,-10528.117,17621.297
955974.7056238579,-8355.347,-25521.77,10924.602,5414.266,3210.0017,-10400.1875,-10524.74,17623.088
955974.7096238541,-8353.72,-25519.166,10930.136,5418.0503,3211.1816,-10399.252,-10521.159,17627.727
955974.7136238504,-8359.945,-25521.078,10927.043,5413.493,3206.3396,-10398.031,-10525.554,17627.361
955974.7176238466,-8371.46,-25528.809,10916.423,5402.181,3197.4285,-10400.351,-10537.395,17616.902
955974.7216238428,-8367.392,-25524.62,10920.695,5407.3486,3202.9624,-10399.618,-10535.319,17615.398
955974.7256238391,-8350.912,-25515.586,10932.658,5420.0034,3212.0361,-10394.572,-10522.827,17626.385
955974.7296238353,-8344.523,-25513.062,10934.367,5421.1836,3215.1694,-10392.904,-10517.172,17632.488
955974.7336238315,-8352.051,-25521.24,10926.84,5412.842,3211.914,-10391.398,-10518.759,17636.842
955974.7376238278,-8361.084,-25526.938,10919.23,5406.82,3206.1768,-10391.968,-10525.757,17629.762
955974.7416238241,-8361.328,-25525.676,10919.23,5409.017,3203.9795,-10392.131,-10525.92,17630.371
955974.7456238203,-8356.405,-25522.137,10924.927,5414.592,3206.2175,-10390.869,-10527.344,17623.617
955974.7496238166,-8354.655,-25521.607,10927.45,5416.382,3209.7576,-10389.689,-10531.332,17617.146
955974.7536238128,-8357.585,-25525.717,10926.107,5413.5337,3208.8623,-10386.068,-10531.454,17624.432
955974.757623809,-8364.584,-25532.676,10920.776,5408.4067,3202.4333,-10385.864,-10534.14,17626.303
955974.7616238053,-8360.026,-25530.03,10924.194,5413.7373,3208.4148,-10387.37,-10528.524,17632.691
955974.7656238015,-8349.487,-25521.973,10933.146,5421.875,3216.2273,-10385.295,-10520.305,17636.963
955974.7696237977,-8345.175,-25524.7,10934.57,5422.0786,3219.4824,-10383.586,-10518.84,17633.668
955974.773623794,-8351.074,-25536.988,10929.321,5415.202,3211.5073,-10381.918,-10523.601,17626.18
955974.7776237903,-8353.109,-25545.615,10926.433,5413.0454,3207.1533,-10375.977,-10521.281,17637.574
955974.7816237865,-8345.419,-25533.367,10932.048,5418.5386,3212.85,-10372.641,-10514.893,17650.676
955974.7856237828,-8334.717,-25518.027,10940.918,5425.2524,3222.0867,-10369.304,-10506.958,17649.455
955974.789623779,-8329.834,-25514.121,10943.115,5427.49,3228.231,-10366.252,-10502.441,17654.338
955974.7936237752,-8343.466,-25528.443,10932.17,5417.6025,3221.0693,-10365.52,-10510.458,17650.105
955974.7976237715,-8363.078,-25546.592,10917.725,5407.0234,3211.5886,-10365.397,-10519.45,17642.13
955974.8016237677,-8361.857,-25547.445,10923.015,5413.371,3210.5308,-10363.2,-10517.05,17640.951
955974.8056237639,-8353.679,-25543.213,10932.495,5424.886,3217.6514,-10363.241,-10511.149,17641.928
955974.8096237602,-8351.889,-25539.104,10937.744,5429.8506,3225.9521,-10361.694,-10506.755,17643.148
955974.8136237564,-8358.765,-25545.818,10932.129,5421.753,3218.4246,-10361.776,-10513.144,17642.863
955974.8176237528,-8364.95,-25552.613,10924.113,5411.621,3209.2693,-10362.427,-10522.014,17638.184
955974.821623749,-8354.289,-25543.174,10930.217,5417.0737,3211.8735,-10358.317,-10515.503,17641.236
955974.8256237452,-8347.209,-25537.965,10935.1,5419.5557,3216.7969,-10361.247,-10513.347,17642.293
955974.8296237414,-8350.098,-25538.9,10934.855,5415.9346,3211.3037,-10362.631,-10512.858,17647.828
955974.8336237377,-8350.993,-25537.15,10936.931,5414.4287,3208.0894,-10359.253,-10510.986,17652.059
955974.8376237339,-8353.923,-25541.098,10931.763,5410.6855,3205.526,-10357.748,-10515.829,17649.861
955974.8416237301,-8347.046,-25537.15,10937.175,5417.5215,3211.6294,-10356.12,-10510.498,17655.111
955974.8456237264,-8343.384,-25527.996,10941.732,5424.52,3218.5466,-10355.307,-10505.575,17659.791
955974.8496237226,-8341.879,-25528.85,10938.762,5423.259,3219.8486,-10354.614,-10505.168,17656.576
955974.8536237188,-8344.36,-25535.809,10932.251,5419.149,3208.374,-10354.33,-10508.83,17652.1
955974.8576237152,-8359.863,-25549.56,10919.149,5407.2676,3200.9277,-10354.411,-10521.606,17643.596
955974.8616237114,-8363.078,-25552.94,10920.004,5409.261,3201.538,-10352.661,-10522.299,17641.766
955974.8656237077,-8355.917,-25544.516,10929.321,5420.2476,3207.7231,-10354.37,-10515.219,17646.24
955974.8696237039,-8352.011,-25540.732,10932.943,5424.52,3210.612,-10351.034,-10505.29,17664.715
955974.8736237001,-8358.5205,-25551.799,10926.921,5417.196,3201.9858,-10348.471,-10505.778,17668.254
955974.8776236963,-8369.589,-25565.553,10922.974,5408.529,3193.563,-10345.947,-10514.73,17654.012
955974.8816236926,-8366.252,-25561.605,10928.183,5413.086,3198.69,-10341.105,-10509.685,17654.012
955974.8856236888,-8359.579,-25553.875,10933.594,5420.166,3204.3457,-10337.81,-10504.802,17653.564
955974.889623685,-8357.3,-25551.922,10930.583,5421.794,3203.0845,-10339.396,-10507.895,17642.578
955974.8936236814,-8354.452,-25551.475,10930.42,5420.614,3203.247,-10337.402,-10508.505,17644.898
955974.8976236776,-8355.795,-25556.602,10926.474,5416.626,3205.241,-10334.88,-10509.685,17647.014
955974.9016236739,-8355.876,-25552.125,10925.456,5418.6606,3210.2458,-10334.473,-10510.214,17644.41
955974.9056236701,-8352.905,-25548.992,10928.549,5421.631,3218.0583,-10334.311,-10508.993,17644.451
955974.9096236663,-8351.318,-25549.277,10928.549,5422.282,3220.2964,-10334.392,-10507.772,17648.52
955974.9136236625,-8358.439,-25555.42,10921.347,5416.097,3213.8267,-10332.194,-10513.876,17644.328
955974.9176236588,-8374.675,-25568.4,10908.8955,5404.948,3202.352,-10336.589,-10523.967,17643.393
955974.921623655,-8371.582,-25564.902,10914.551,5410.482,3203.2878,-10336.345,-10521.403,17643.637
955974.9256236512,-8361.654,-25556.031,10926.677,5421.1426,3207.7231,-10331.787,-10515.3,17639.527
955974.9296236475,-8360.434,-25554.281,10933.228,5423.9097,3209.5947,-10328.451,-10509.115,17644.41
955974.9336236438,-8370.85,-25565.146,10926.433,5413.8184,3198.12,-10331.055,-10514.7705,17642.578
955974.93762364,-8378.744,-25576.092,10916.911,5402.6694,3190.8367,-10330.404,-10523.071,17641.846
955974.9416236363,-8379.272,-25581.625,10917.888,5403.9717,3191.5283,-10333.13,-10524.984,17639.201
955974.9456236325,-8367.595,-25575.604,10928.305,5414.795,3198.934,-10335.49,-10520.793,17637.086
955974.9496236288,-8357.992,-25568.28,10935.059,5419.3525,3195.8416,-10333.415,-10515.707,17643.555
955974.953623625,-8362.346,-25565.47,10930.217,5413.452,3191.04,-10332.886,-10516.032,17646.037
955974.9576236212,-8369.995,-25568.645,10924.724,5409.7495,3187.7036,-10325.073,-10514.16,17647.584
955974.9616236174,-8365.356,-25569.541,10925.253,5413.249,3188.7615,-10318.319,-10507.243,17653.973
955974.9656236137,-8360.678,-25566.244,10928.589,5415.1206,3191.8132,-10317.709,-10502.441,17654.988
955974.9696236099,-8358.806,-25563.72,10933.472,5417.5215,3198.7712,-10313.965,-10499.96,17655.64
955974.9736236063,-8364.746,-25571.697,10926.352,5412.313,3197.3064,-10309.896,-10502.93,17660.4
955974.9776236025,-8367.1875,-25577.354,10923.991,5410.2783,3196.3298,-10305.217,-10503.581,17661.662
955974.9816235987,-8359.538,-25568.686,10931.845,5416.545,3199.1375,-10303.508,-10501.465,17660.238
955974.985623595,-8350.18,-25557.21,10940.796,5424.764,3206.5024,-10301.677,-10494.833,17667.684
955974.9896235912,-8349.487,-25553.02,10940.1045,5424.0723,3210.612,-10302.775,-10493.9375,17671.51
955974.9936235874,-8358.154,-25558.432,10931.315,5416.26,3207.3162,-10304.281,-10500.285,17666.098
955974.9976235837,-8376.791,-25576.621,10917.521,5403.768,3200.9277,-10305.746,-10508.667,17656.82
955975.0016235799,-8380.941,-25583.213,10916.87,5405.6807,3194.1326,-10305.258,-10507.487,17657.918
955975.0056235761,-8366.13,-25566.855,10928.223,5416.504,3193.6035,-10306.4375,-10503.581,17655.193
955975.0096235725,-8363.607,-25558.27,10933.35,5419.393,3197.1436,-10306.152,-10501.872,17653.809
955975.0136235687,-8364.136,-25561.932,10932.536,5418.6606,3200.114,-10301.27,-10500.163,17659.262
955975.0176235649,-8375.977,-25579.63,10917.44,5405.5176,3188.7207,-10304.647,-10513.794,17652.385
955975.0216235612,-8381.592,-25588.42,10914.348,5402.751,3189.331,-10307.658,-10519.165,17643.475
955975.0256235574,-8373.291,-25583.74,10923.544,5412.883,3202.23,-10303.915,-10512.695,17643.434
955975.0296235536,-8367.27,-25577.88,10929.403,5417.196,3202.8403,-10305.217,-10513.021,17642.781
955975.0336235499,-8370.443,-25577.027,10928.793,5414.266,3195.3125,-10304.403,-10516.562,17641.846
955975.0376235461,-8377.6455,-25584.393,10924.805,5409.546,3189.8193,-10300.781,-10520.264,17637.451
955975.0416235423,-8368.815,-25586.996,10926.88,5414.958,3198.2017,-10295.044,-10514.364,17639.283
955975.0456235385,-8360.026,-25581.787,10936.076,5423.0146,3202.2705,-10291.586,-10503.378,17651.043
955975.0496235349,-8358.195,-25578.207,10939.331,5423.0146,3198.812,-10291.342,-10499.512,17655.6
955975.0536235311,-8362.346,-25582.887,10935.344,5415.7715,3197.0215,-10290.568,-10502.197,17656.291
955975.0576235274,-8366.577,-25583.09,10930.664,5410.4004,3197.5913,-10286.947,-10504.558,17657.023
955975.0616235236,-8361.328,-25575.807,10936.809,5415.08,3196.5332,-10284.384,-10500.8545,17661.377
955975.0656235198,-8350.952,-25568.482,10945.435,5425.049,3205.4443,-10287.964,-10495.036,17665.447
955975.069623516,-8351.604,-25567.303,10945.883,5427.3276,3206.5837,-10286.215,-10493.652,17668.621
955975.0736235123,-8364.746,-25576.213,10937.053,5417.7246,3194.58,-10283.651,-10500.285,17668.621
955975.0776235085,-8373.942,-25591.064,10928.427,5409.0576,3188.436,-10278.442,-10508.179,17660.238
955975.0816235048,-8369.304,-25592.246,10930.339,5412.0283,3189.2498,-10277.141,-10510.946,17645.916
955975.085623501,-8358.195,-25578.166,10941.203,5423.0146,3198.161,-10281.657,-10502.238,17658.0
955975.0896234973,-8350.871,-25568.482,10949.463,5427.8975,3203.5728,-10281.494,-10496.501,17667.195
955975.0936234936,-8360.84,-25576.904,10943.4,5420.451,3198.8933,-10281.25,-10498.454,17665.975
955975.0976234898,-8368.286,-25585.043,10934.937,5414.0625,3194.9058,-10275.391,-10501.587,17658.936
955975.101623486,-8367.1875,-25586.59,10935.019,5418.498,3198.4458,-10270.549,-10499.838,17654.46
955975.1056234823,-8364.95,-25591.105,10938.232,5423.828,3193.3188,-10272.665,-10498.169,17655.6
955975.1096234785,-8368.693,-25598.918,10936.239,5419.841,3188.5986,-10274.496,-10500.8955,17660.076
955975.1136234747,-8369.141,-25596.152,10932.251,5416.3413,3192.749,-10271.24,-10498.251,17670.857
955975.117623471,-8376.303,-25594.238,10925.619,5413.371,3193.0747,-10269.369,-10500.122,17669.637
955975.1216234672,-8369.06,-25593.344,10930.42,5418.01,3190.6333,-10271.606,-10501.425,17663.574
955975.1256234634,-8355.673,-25587.037,10940.552,5426.88,3193.8477,-10271.892,-10494.751,17670.94
955975.1296234598,-8352.255,-25583.537,10945.231,5431.1523,3196.4927,-10267.578,-10492.432,17673.584
955975.133623456,-8364.218,-25594.564,10934.367,5419.7593,3193.8071,-10261.923,-10500.326,17669.842
955975.1376234522,-8377.727,-25604.168,10920.41,5409.1797,3186.2793,-10259.074,-10509.318,17661.824
955975.1416234485,-8378.662,-25600.547,10919.189,5409.912,3188.5986,-10262.533,-10507.65,17661.053
955975.1456234447,-8363.892,-25582.195,10932.292,5421.3867,3198.4458,-10263.957,-10493.449,17672.363
955975.1496234409,-8353.149,-25575.48,10941.488,5428.7925,3207.2349,-10263.428,-10486.288,17686.158
955975.1536234372,-8354.452,-25579.754,10941.0,5427.246,3206.2175,-10260.986,-10490.723,17683.514
955975.1576234334,-8360.148,-25586.834,10936.401,5422.8926,3197.5505,-10259.155,-10498.007,17673.992
955975.1616234296,-8365.845,-25592.45,10933.391,5421.346,3195.9229,-10260.702,-10501.75,17670.248
955975.165623426,-8364.95,-25590.252,10937.012,5424.2354,3195.9636,-10255.697,-10500.204,17671.672
955975.1696234222,-8363.566,-25590.984,10937.338,5425.09,3190.0635,-10255.819,-10503.256,17664.47
955975.1736234184,-8368.408,-25596.518,10935.222,5420.3696,3191.447,-10257.324,-10504.965,17669.19
955975.1776234147,-8367.065,-25598.594,10935.791,5416.667,3190.145,-10255.209,-10505.9,17673.584
955975.1816234109,-8356.812,-25590.17,10944.052,5423.5435,3192.9932,-10254.558,-10504.639,17668.133
955975.1856234071,-8349.772,-25587.646,10950.603,5431.4375,3200.4395,-10251.506,-10499.512,17668.05
955975.1896234034,-8348.511,-25588.867,10953.857,5433.716,3198.69,-10245.646,-10496.216,17671.998
955975.1936233996,-8355.754,-25596.273,10947.836,5427.2056,3191.1216,-10242.473,-10500.244,17671.387
955975.1976233958,-8367.392,-25606.854,10935.629,5416.8296,3180.542,-10245.728,-10508.464,17667.195
955975.2016233921,-8361.938,-25603.72,10938.721,5418.457,3180.3794,-10248.576,-10505.249,17668.498
955975.2056233884,-8355.429,-25591.432,10947.958,5427.165,3196.818,-10245.036,-10497.519,17676.596
955975.2096233846,-8351.726,-25587.81,10953.41,5431.844,3206.421,-10241.943,-10494.67,17679.932
955975.2136233809,-8356.486,-25595.135,10948.608,5429.118,3202.474,-10236.166,-10492.106,17682.617
955975.2176233771,-8368.205,-25608.398,10939.291,5421.916,3190.7146,-10232.219,-10494.019,17683.758
955975.2216233733,-8366.984,-25612.754,10938.803,5419.922,3188.192,-10234.05,-10491.903,17684.855
955975.2256233696,-8348.633,-25593.182,10952.067,5431.2744,3200.3174,-10232.91,-10481.608,17686.076
955975.2296233658,-8343.669,-25585.043,10955.648,5434.6113,3207.7231,-10229.289,-10479.614,17682.008
955975.233623362,-8354.736,-25594.361,10948.202,5428.182,3207.1128,-10227.336,-10482.341,17685.1
955975.2376233583,-8365.723,-25605.225,10943.115,5423.0957,3199.1375,-10223.755,-10488.078,17681.967
955975.2416233545,-8369.792,-25607.26,10941.813,5425.9443,3197.754,-10223.552,-10491.74,17676.799
955975.2456233508,-8367.432,-25604.818,10942.139,5431.844,3203.8574,-10223.674,-10489.218,17679.443
955975.2496233471,-8358.765,-25602.459,10948.039,5436.2793,3206.3804,-10221.884,-10481.689,17688.762
955975.2536233433,-8355.185,-25601.074,10946.452,5432.0884,3194.2139,-10221.68,-10480.835,17692.303
955975.2576233395,-8361.735,-25607.26,10937.866,5424.154,3188.7615,-10221.924,-10486.328,17684.979
955975.2616233358,-8360.148,-25605.674,10939.372,5426.1475,3194.2139,-10217.733,-10482.382,17685.67
955975.265623332,-8358.5205,-25602.744,10947.104,5433.309,3199.7886,-10215.82,-10477.336,17691.691
955975.2696233282,-8356.201,-25603.11,10951.701,5435.7505,3200.0327,-10218.384,-10482.788,17683.39
955975.2736233245,-8355.835,-25608.236,10952.067,5434.001,3197.8354,-10218.344,-10489.38,17677.857
955975.2776233207,-8362.793,-25614.99,10946.737,5431.0713,3190.0635,-10213.054,-10492.065,17684.814
955975.281623317,-8362.183,-25609.904,10945.679,5432.3325,3197.754,-10216.391,-10494.629,17683.064
955975.2856233133,-8352.743,-25602.174,10952.067,5437.541,3203.4507,-10217.001,-10491.008,17679.24
955975.2896233095,-8346.3955,-25598.553,10953.369,5438.4766,3206.1768,-10212.24,-10487.631,17687.541
955975.2936233057,-8346.802,-25600.262,10953.857,5436.605,3208.9844,-10209.839,-10490.561,17684.164
955975.297623302,-8361.003,-25615.602,10946.696,5428.508,3199.7478,-10213.705,-10503.174,17671.63
955975.3016232982,-8366.049,-25619.182,10944.092,5428.4263,3193.7256,-10216.838,-10505.859,17670.004
955975.3056232944,-8358.887,-25616.008,10948.405,5432.495,3196.2078,-10218.018,-10499.919,17675.701
955975.3096232907,-8361.288,-25618.652,10946.208,5430.7456,3193.1968,-10221.802,-10499.472,17677.287
955975.3136232869,-8362.997,-25619.955,10944.255,5429.077,3186.3608,-10217.57,-10497.722,17677.084
955975.3176232831,-8366.862,-25625.0,10941.081,5426.3916,3185.0586,-10212.036,-10499.1455,17679.81
955975.3216232795,-8362.753,-25622.479,10947.144,5432.251,3197.1436,-10205.16,-10495.443,17678.875
955975.3256232757,-8350.261,-25612.225,10961.589,5442.7085,3207.3162,-10202.23,-10485.2295,17688.885
955975.329623272,-8349.284,-25610.922,10964.519,5444.2954,3211.5073,-10203.247,-10485.474,17693.197
955975.3336232682,-8354.858,-25622.803,10955.363,5434.652,3204.1423,-10207.805,-10493.856,17689.535
955975.3376232644,-8357.016,-25627.768,10948.364,5428.2227,3196.2078,-10206.787,-10499.756,17680.867
955975.3416232606,-8346.64,-25613.404,10955.893,5436.4424,3203.8574,-10201.294,-10490.031,17688.273
955975.3456232569,-8342.651,-25606.527,10960.531,5443.2373,3206.665,-10199.829,-10478.394,17703.29
955975.3496232531,-8347.819,-25612.834,10957.113,5440.6333,3206.0547,-10197.185,-10476.97,17707.154
955975.3536232493,-8360.352,-25620.078,10951.457,5432.658,3202.6367,-10193.522,-10481.649,17704.225
955975.3576232456,-8369.833,-25629.924,10943.889,5426.1475,3195.7603,-10193.441,-10487.427,17700.562
955975.3616232419,-8367.31,-25629.03,10947.307,5429.5654,3195.6382,-10196.981,-10487.549,17697.266
955975.3656232381,-8352.051,-25615.234,10960.856,5441.203,3201.0093,-10198.446,-10480.835,17695.271
955975.3696232344,-8343.466,-25608.928,10966.146,5447.917,3208.8623,-10197.307,-10475.342,17703.084
955975.3736232306,-8348.227,-25615.072,10958.252,5441.203,3208.13,-10192.627,-10479.208,17699.91
955975.3776232268,-8363.77,-25628.174,10945.639,5429.7285,3195.2312,-10189.372,-10486.898,17691.203
955975.3816232231,-8370.483,-25633.668,10942.871,5428.304,3192.3423,-10186.239,-10487.102,17687.623
955975.3856232193,-8364.665,-25630.25,10949.87,5434.4893,3200.643,-10186.85,-10482.138,17687.135
955975.3896232155,-8361.491,-25626.262,10955.404,5437.663,3203.8982,-10189.169,-10478.964,17689.332
955975.3936232118,-8366.008,-25629.924,10953.166,5435.018,3199.8699,-10188.07,-10482.056,17687.908
955975.3976232081,-8363.647,-25627.85,10952.2705,5434.6113,3190.796,-10184.652,-10484.904,17689.332
955975.4016232044,-8350.098,-25618.164,10958.456,5440.389,3196.3706,-10181.071,-10477.173,17698.69
955975.4056232006,-8347.616,-25614.707,10962.851,5444.702,3203.247,-10176.596,-10471.68,17697.225
955975.4096231968,-8349.243,-25619.508,10962.524,5444.458,3204.6306,-10177.287,-10472.575,17693.807
955975.413623193,-8361.206,-25628.623,10952.393,5433.879,3198.6492,-10181.234,-10484.782,17685.832
955975.4176231893,-8369.426,-25640.342,10945.3125,5425.456,3192.7085,-10181.601,-10493.53,17684.246
955975.4216231855,-8362.509,-25636.15,10951.05,5432.7393,3198.2017,-10181.234,-10489.99,17691.61
955975.4256231817,-8349.365,-25620.525,10964.193,5445.272,3198.8933,-10179.199,-10483.114,17699.545
955975.429623178,-8340.698,-25612.021,10970.337,5450.8057,3199.992,-10177.531,-10478.027,17699.951
955975.4336231742,-8344.727,-25613.893,10966.024,5445.516,3199.5037,-10172.323,-10478.72,17698.61
955975.4376231706,-8360.2705,-25628.012,10954.102,5433.716,3191.447,-10172.974,-10486.532,17695.15
955975.4416231668,-8357.951,-25631.389,10955.526,5436.157,3190.6333,-10172.567,-10486.938,17692.18
955975.445623163,-8348.999,-25624.594,10964.111,5444.255,3196.7773,-10170.98,-10481.161,17695.395
955975.4496231592,-8347.331,-25620.605,10963.501,5445.2314,3205.526,-10172.812,-10482.666,17692.22
955975.4536231555,-8355.0625,-25626.385,10957.968,5439.372,3200.399,-10171.143,-10488.607,17688.762
955975.4576231517,-8362.387,-25635.295,10950.562,5431.9663,3188.436,-10167.725,-10494.345,17685.14
955975.461623148,-8355.998,-25632.406,10954.997,5436.971,3190.9995,-10164.47,-10488.688,17688.477
955975.4656231442,-8357.341,-25629.803,10957.683,5439.6973,3188.2732,-10165.08,-10481.649,17695.924
955975.4696231404,-8362.102,-25633.75,10955.526,5437.541,3189.0464,-10163.656,-10480.266,17699.057
955975.4736231366,-8364.828,-25640.504,10951.05,5432.8613,3189.6567,-10161.987,-10482.951,17698.162
955975.477623133,-8371.867,-25644.207,10947.754,5428.508,3183.0242,-10163.737,-10492.392,17687.379
955975.4816231292,-8366.537,-25640.707,10954.346,5434.448,3185.5469,-10163.33,-10489.746,17684.49
955975.4856231255,-8352.539,-25628.459,10966.594,5446.8184,3195.2312,-10158.366,-10475.586,17698.162
955975.4896231217,-8350.424,-25622.438,10965.21,5445.4756,3197.2656,-10157.715,-10474.243,17704.102
955975.4936231179,-8357.87,-25629.639,10957.602,5436.9307,3194.865,-10157.349,-10481.608,17696.371
955975.4976231141,-8364.787,-25641.846,10949.87,5430.013,3185.9539,-10154.094,-10483.114,17698.242
955975.5016231104,-8363.892,-25639.648,10954.468,5434.9365,3187.4187,-10153.442,-10477.661,17701.092
955975.5056231066,-8352.295,-25630.82,10968.547,5447.754,3195.7603,-10152.222,-10468.14,17705.037
955975.5096231028,-8347.534,-25631.309,10966.757,5447.0215,3193.7664,-10152.466,-10471.029,17704.06
955975.5136230991,-8351.4,-25630.291,10963.379,5439.7383,3194.0105,-10154.46,-10478.149,17701.783
955975.5176230954,-8357.707,-25632.65,10958.171,5435.262,3199.0967,-10152.629,-10482.707,17702.23
955975.5216230917,-8356.161,-25630.412,10961.182,5440.511,3196.696,-10149.943,-10481.323,17698.934
955975.5256230879,-8346.802,-25622.803,10972.168,5451.9043,3197.2656,-10145.874,-10469.6045,17708.7
955975.5296230841,-8351.278,-25628.623,10970.337,5449.951,3190.4705,-10146.159,-10467.407,17712.158
955975.5336230804,-8360.312,-25641.033,10963.989,5440.9995,3188.0698,-10149.577,-10474.406,17706.463
955975.5376230766,-8367.554,-25652.1,10957.072,5431.885,3186.8896,-10149.374,-10483.439,17698.406
955975.5416230728,-8367.473,-25655.559,10957.397,5433.2686,3184.9773,-10149.048,-10479.98,17703.084
955975.545623069,-8357.91,-25648.643,10966.96,5441.5283,3190.7554,-10146.444,-10473.511,17707.643
955975.5496230653,-8359.091,-25652.629,10965.78,5440.715,3192.2607,-10145.346,-10473.755,17703.572
955975.5536230616,-8364.909,-25659.506,10958.984,5436.1167,3186.483,-10138.957,-10477.173,17698.65
955975.5576230579,-8372.478,-25669.271,10951.579,5429.281,3179.6875,-10137.573,-10484.863,17693.318
955975.5616230541,-8367.717,-25663.209,10957.235,5435.3438,3183.7158,-10136.679,-10480.632,17697.918
955975.5656230503,-8357.585,-25652.549,10966.309,5443.929,3196.4927,-10137.492,-10475.668,17695.842
955975.5696230466,-8356.445,-25652.549,10967.529,5443.807,3194.987,-10137.777,-10473.918,17696.492
955975.5736230428,-8368.042,-25668.336,10956.177,5432.129,3184.1228,-10136.882,-10481.079,17695.232
955975.577623039,-8377.727,-25680.014,10950.033,5425.456,3175.9849,-10133.423,-10487.102,17698.61
955975.5816230353,-8374.39,-25677.37,10953.491,5428.955,3178.4668,-10132.895,-10485.637,17695.312
955975.5856230315,-8364.543,-25666.26,10962.565,5440.145,3192.4644,-10129.639,-10476.359,17689.617
955975.5896230277,-8361.288,-25659.629,10966.269,5440.6333,3194.7837,-10130.005,-10471.68,17695.516
955975.5936230241,-8365.723,-25663.818,10962.402,5433.1055,3186.9712,-10128.581,-10475.424,17700.277
955975.5976230203,-8368.815,-25669.557,10959.106,5429.403,3180.2166,-10125.814,-10479.004,17697.754
955975.6016230165,-8368.042,-25673.666,10961.426,5433.716,3187.5815,-10128.947,-10476.115,17699.342
955975.6056230128,-8355.429,-25662.639,10972.494,5446.33,3192.5864,-10124.553,-10464.396,17710.246
955975.609623009,-8356.079,-25658.0,10970.378,5444.0513,3188.436,-10124.268,-10466.228,17713.135
955975.6136230052,-8361.938,-25659.22,10963.623,5439.0464,3191.447,-10122.885,-10473.063,17708.172
955975.6176230015,-8370.117,-25669.354,10957.886,5432.495,3185.669,-10120.239,-10480.307,17700.725
955975.6216229977,-8370.361,-25675.537,10958.74,5435.8726,3187.5408,-10119.873,-10479.004,17703.37
955975.6256229939,-8360.067,-25666.79,10966.635,5442.668,3191.1216,-10119.955,-10476.522,17701.254
955975.6296229901,-8354.655,-25661.459,10971.802,5444.9463,3193.441,-10116.252,-10472.982,17698.65
955975.6336229865,-8360.026,-25667.36,10967.163,5439.7383,3190.023,-10114.096,-10475.505,17700.725
955975.6376229827,-8366.415,-25675.863,10960.531,5435.7505,3187.8257,-10112.671,-10477.255,17702.84
955975.641622979,-8363.119,-25673.137,10962.402,5439.494,3188.1511,-10111.166,-10471.477,17711.752
955975.6456229752,-8359.701,-25667.4,10969.768,5446.6963,3194.58,-10109.416,-10465.902,17713.543
955975.6496229714,-8362.712,-25672.445,10967.773,5444.9873,3195.6787,-10110.026,-10465.536,17715.617
955975.6536229677,-8370.402,-25683.229,10958.415,5433.553,3185.8726,-10109.253,-10471.273,17714.6
955975.6576229639,-8379.395,-25696.574,10950.766,5427.287,3182.251,-10105.957,-10474.487,17715.78
955975.6616229601,-8374.838,-25691.162,10956.055,5435.3843,3193.6035,-10102.621,-10468.832,17719.564
955975.6656229564,-8361.857,-25674.846,10966.064,5446.0044,3200.7244,-10103.109,-10457.235,17724.732
955975.6696229527,-8352.417,-25667.156,10971.924,5450.4805,3202.0264,-10102.336,-10452.108,17727.783
955975.6736229489,-8360.881,-25672.16,10964.519,5441.8945,3192.627,-10099.243,-10458.334,17720.906
955975.6776229452,-8373.657,-25682.537,10956.747,5432.943,3187.2559,-10097.534,-10465.902,17714.885
955975.6816229414,-8368.612,-25682.822,10960.043,5437.134,3193.8071,-10096.191,-10467.692,17708.496
955975.6856229376,-8356.73,-25673.38,10970.541,5446.0044,3198.3237,-10094.442,-10462.077,17713.787
955975.6896229339,-8353.354,-25662.883,10974.569,5450.3584,3204.1016,-10092.937,-10458.944,17716.635
955975.6936229301,-8356.894,-25671.225,10968.75,5443.197,3197.7134,-10092.733,-10461.386,17720.418
955975.6976229263,-8362.224,-25680.746,10964.6,5439.331,3188.6802,-10086.711,-10462.158,17725.465
955975.7016229226,-8362.956,-25681.113,10964.844,5440.715,3184.9365,-10086.142,-10461.792,17723.47
955975.7056229188,-8355.144,-25678.59,10970.134,5448.12,3192.627,-10085.653,-10455.566,17725.465
955975.7096229151,-8355.307,-25681.031,10972.209,5448.8936,3197.3877,-10085.246,-10457.927,17721.803
955975.7136229114,-8365.275,-25688.03,10968.628,5442.1387,3188.0698,-10086.955,-10465.332,17716.756
955975.7176229076,-8367.025,-25692.1,10966.269,5438.07,3183.2683,-10084.147,-10465.414,17717.45
955975.7216229038,-8356.201,-25680.664,10972.209,5445.1904,3189.9414,-10077.189,-10456.909,17723.553
955975.7256229001,-8345.093,-25667.766,10981.486,5456.2583,3196.574,-10071.574,-10445.598,17735.066
955975.7296228963,-8347.616,-25668.498,10978.964,5453.0845,3194.0918,-10071.411,-10446.737,17734.62
955975.7336228925,-8365.031,-25680.38,10971.843,5441.854,3186.076,-10070.476,-10453.613,17731.568
955975.7376228888,-8376.343,-25692.832,10963.745,5433.96,3185.4656,-10067.505,-10458.537,17730.877
955975.741622885,-8369.914,-25689.535,10964.274,5439.616,3194.4988,-10066.447,-10459.147,17726.645
955975.7456228812,-8360.026,-25682.74,10973.715,5448.9746,3194.8242,-10069.743,-10456.625,17721.191
955975.7496228776,-8354.33,-25680.584,10977.336,5449.2188,3188.2732,-10068.278,-10456.421,17721.6
955975.7536228738,-8355.632,-25684.57,10972.941,5445.5977,3183.3496,-10063.11,-10454.672,17727.215
955975.75762287,-8361.491,-25687.135,10970.215,5443.8477,3188.8428,-10059.652,-10457.805,17720.582
955975.7616228663,-8358.887,-25684.246,10974.895,5445.923,3190.9587,-10058.676,-10456.828,17718.547
955975.7656228625,-8352.987,-25681.031,10982.016,5451.0093,3193.3188,-10057.739,-10452.678,17722.332
955975.7696228587,-8354.574,-25683.35,10983.032,5451.4976,3195.15,-10056.03,-10453.654,17719.523
955975.773622855,-8367.92,-25692.506,10973.227,5442.9526,3187.4187,-10055.99,-10461.345,17713.664
955975.7776228512,-8374.472,-25694.459,10967.448,5437.297,3184.0415,-10053.955,-10464.885,17712.89
955975.7816228474,-8367.961,-25689.414,10971.721,5442.22,3184.6924,-10054.6875,-10460.368,17714.723
955975.7856228437,-8359.538,-25682.617,10980.0625,5450.155,3190.1855,-10053.549,-10451.62,17720.053
955975.78962284,-8362.915,-25686.28,10979.98,5450.521,3189.331,-10052.572,-10448.894,17721.477
955975.7936228362,-8378.622,-25702.393,10970.337,5440.837,3178.4668,-10051.188,-10456.299,17719.076
955975.7976228325,-8387.492,-25715.17,10961.67,5433.2686,3170.1255,-10046.916,-10464.844,17714.559
955975.8016228287,-8386.801,-25719.646,10961.02,5435.669,3169.9626,-10046.428,-10469.687,17702.352
955975.8056228249,-8385.092,-25717.246,10964.233,5440.918,3175.9033,-10049.683,-10470.093,17697.469
955975.8096228212,-8383.545,-25711.752,10969.279,5442.871,3179.891,-10050.293,-10466.187,17707.602
955975.8136228174,-8384.521,-25715.82,10965.82,5438.07,3177.0835,-10046.835,-10462.891,17712.688
955975.8176228136,-8389.975,-25724.895,10956.665,5432.0884,3170.8984,-10045.004,-10464.111,17708.781
