timestamp,Fp1,Fp2,F3,Fz,F4,Cz,Pz,Oz
955902.7256914495,-7329.875,-31782.879,12006.877,8433.391,9484.335,-17090.617,-8679.199,18387.94
955902.7296914457,-7333.0894,-31787.68,12006.674,8432.17,9479.696,-17088.787,-8677.49,18388.225
955902.733691442,-7335.246,-31784.465,12004.924,8426.962,9477.946,-17087.402,-8678.833,18386.475
955902.7376914382,-7332.9673,-31779.502,11998.332,8419.841,9475.098,-17088.908,-8680.339,18388.916
955902.7416914345,-7326.0093,-31770.957,11999.268,8423.666,9481.527,-17086.06,-8674.765,18395.02
955902.7456914308,-7324.504,-31766.277,12004.965,8430.827,9492.92,-17082.643,-8667.685,18397.096
955902.749691427,-7324.178,-31769.207,12011.638,8435.303,9494.548,-17079.63,-8663.29,18402.426
955902.7536914232,-7320.272,-31770.264,12012.126,8435.751,9491.293,-17079.305,-8664.185,18406.453
955902.7576914195,-7326.9453,-31776.205,12008.586,8430.136,9487.753,-17080.12,-8676.352,18396.648
955902.7616914157,-7332.0312,-31779.95,12004.395,8429.606,9483.398,-17082.723,-8681.274,18395.834
955902.7656914119,-7332.845,-31774.008,12001.709,8431.152,9477.661,-17087.973,-8688.64,18378.012
955902.7696914081,-7337.5654,-31780.152,11998.535,8427.409,9477.173,-17086.467,-8697.876,18357.951
955902.7736914044,-7344.9707,-31787.395,11996.379,8422.282,9472.494,-17081.422,-8689.413,18370.605
955902.7776914006,-7347.7783,-31787.07,11991.618,8420.614,9469.36,-17076.457,-8679.24,18382.527
955902.781691397,-7346.4355,-31787.191,11994.873,8424.113,9480.225,-17077.352,-8677.368,18381.795
955902.7856913932,-7343.547,-31785.686,11999.838,8430.42,9485.393,-17078.084,-8675.009,18383.18
955902.7896913894,-7351.6846,-31789.389,11996.338,8428.101,9477.905,-17080.242,-8679.037,18381.795
955902.7936913857,-7354.8994,-31784.832,11995.605,8423.3,9468.547,-17079.754,-8682.536,18383.504
955902.7976913819,-7353.231,-31785.4,11992.514,8419.271,9466.228,-17079.998,-8680.38,18387.33
955902.8016913781,-7348.7144,-31785.523,11993.164,8419.516,9470.541,-17078.777,-8676.066,18395.387
955902.8056913743,-7336.3037,-31775.188,12003.296,8426.677,9482.585,-17078.084,-8668.417,18403.85
955902.8096913706,-7328.7354,-31768.963,12013.51,8433.96,9492.31,-17076.498,-8660.563,18408.367
955902.8136913668,-7333.049,-31775.025,12012.248,8432.536,9492.351,-17076.254,-8660.971,18412.03
955902.8176913632,-7343.628,-31783.408,12003.866,8427.49,9491.496,-17075.36,-8664.633,18418.336
955902.8216913594,-7343.506,-31782.635,12003.337,8428.183,9489.462,-17071.29,-8668.539,18412.883
955902.8256913556,-7337.077,-31775.39,12005.575,8431.03,9490.805,-17071.9,-8672.201,18397.258
955902.8296913519,-7327.1895,-31763.592,12010.539,8436.6455,9493.327,-17069.54,-8665.854,18403.564
955902.8336913481,-7322.551,-31760.703,12016.317,8436.687,9495.321,-17067.791,-8659.506,18412.842
955902.8376913443,-7323.7305,-31767.254,12017.538,8434.042,9490.52,-17066.244,-8657.593,18417.115
955902.8416913406,-7324.3003,-31770.02,12019.491,8436.239,9492.92,-17065.594,-8659.058,18415.975
955902.8456913368,-7324.3003,-31770.752,12020.874,8438.07,9494.914,-17063.03,-8660.197,18416.707
955902.849691333,-7331.218,-31777.914,12017.944,8437.338,9494.873,-17060.71,-8663.249,18407.838
955902.8536913292,-7340.251,-31782.676,12013.062,8434.001,9491.333,-17061.809,-8670.695,18394.49
955902.8576913256,-7348.877,-31788.412,12004.11,8428.305,9488.688,-17063.518,-8678.142,18391.44
955902.8616913218,-7343.0586,-31786.377,12007.609,8432.251,9488.811,-17064.738,-8678.833,18393.758
955902.8656913181,-7328.166,-31774.943,12016.928,8443.97,9503.459,-17064.982,-8670.41,18400.717
955902.8696913143,-7324.585,-31769.98,12023.886,8448.894,9505.778,-17061.646,-8660.197,18413.25
955902.8736913105,-7325.6836,-31771.69,12021.77,8444.052,9498.942,-17058.146,-8651.774,18430.543
955902.8776913068,-7330.5664,-31781.006,12015.097,8438.762,9496.826,-17056.64,-8649.252,18435.303
955902.881691303,-7334.1475,-31783.855,12012.899,8437.948,9499.756,-17052.287,-8652.385,18432.984
955902.8856912992,-7339.1523,-31783.041,12010.824,8437.053,9497.03,-17052.49,-8655.844,18428.955
955902.8896912955,-7343.5874,-31783.0,12011.149,8437.297,9496.379,-17055.502,-8656.332,18431.479
955902.8936912917,-7347.046,-31782.959,12007.08,8434.367,9494.507,-17059.041,-8661.052,18427.693
955902.897691288,-7345.744,-31781.943,12008.789,8434.814,9491.659,-17058.188,-8661.011,18434.408
955902.9016912843,-7341.797,-31778.525,12012.777,8438.843,9500.57,-17056.56,-8656.454,18436.158
955902.9056912805,-7336.263,-31778.158,12019.735,8444.824,9505.859,-17053.996,-8653.728,18433.39
955902.9096912767,-7336.711,-31779.582,12023.886,8446.655,9503.988,-17050.74,-8650.391,18434.408
955902.913691273,-7351.644,-31793.01,12015.707,8439.331,9494.792,-17046.63,-8654.053,18436.035
955902.9176912692,-7364.095,-31804.525,12002.6045,8428.63,9482.951,-17045.857,-8665.039,18426.678
955902.9216912654,-7362.1016,-31803.955,12001.587,8427.897,9481.608,-17048.178,-8674.357,18404.053
955902.9256912617,-7358.236,-31797.16,12005.168,8430.664,9483.358,-17050.822,-8676.718,18401.205
955902.9296912579,-7353.719,-31788.615,12010.051,8434.164,9491.293,-17051.066,-8679.362,18398.152
955902.9336912542,-7347.534,-31785.85,12008.627,8434.896,9499.187,-17045.533,-8676.025,18402.14
955902.9376912505,-7353.1494,-31789.512,11999.878,8428.589,9498.413,-17047.975,-8678.223,18403.768
955902.9416912467,-7348.796,-31788.086,12002.808,8430.38,9498.535,-17047.893,-8675.985,18400.146
955902.9456912429,-7345.5405,-31782.023,12006.592,8435.344,9502.319,-17043.58,-8669.271,18398.031
955902.9496912392,-7348.633,-31785.768,12005.371,8434.733,9500.57,-17040.895,-8662.15,18408.123
955902.9536912354,-7349.691,-31788.006,12004.843,8434.814,9494.995,-17036.58,-8656.779,18414.51
955902.9576912316,-7350.749,-31792.4,12003.296,8432.333,9489.868,-17034.547,-8656.291,18420.41
955902.9616912279,-7351.3594,-31793.336,12004.395,8431.193,9490.764,-17036.418,-8659.099,18418.498
955902.9656912241,-7345.4185,-31789.836,12005.127,8432.943,9495.932,-17040.812,-8661.174,18414.348
955902.9696912203,-7337.3213,-31782.227,12011.068,8437.46,9499.105,-17041.18,-8654.135,18423.38
955902.9736912167,-7338.7046,-31782.92,12005.493,8434.774,9496.379,-17041.912,-8656.372,18429.322
955902.9776912129,-7340.9834,-31789.512,12005.249,8430.624,9494.182,-17042.4,-8663.412,18428.305
955902.9816912091,-7344.8486,-31793.174,12005.371,8431.641,9495.646,-17043.66,-8666.545,18420.004
955902.9856912054,-7346.843,-31791.465,12006.877,8435.791,9494.182,-17044.475,-8665.935,18418.336
955902.9896912016,-7332.6416,-31790.732,12019.816,8441.0,9490.52,-17044.027,-8663.859,18426.799
955902.9936911978,-7309.448,-31780.559,12026.733,8446.33,9498.495,-17040.812,-8663.615,18427.246
955902.9976911941,-7308.716,-31775.352,12021.322,8440.715,9491.74,-17040.162,-8666.016,18427.49
955903.0016911903,-7316.7725,-31782.512,12018.596,8436.85,9485.84,-17042.4,-8667.807,18430.096
955903.0056911865,-7308.309,-31781.17,12026.693,8441.732,9491.74,-17044.271,-8668.457,18425.334
955903.0096911828,-7300.863,-31781.088,12030.925,8445.3125,9492.839,-17043.66,-8667.358,18419.354
955903.0136911791,-7300.2524,-31785.97,12032.064,8444.54,9491.903,-17041.912,-8668.864,18413.453
955903.0176911753,-7295.858,-31782.105,12033.203,8447.226,9494.223,-17039.021,-8670.248,18420.086
955903.0216911716,-7298.259,-31785.156,12035.645,8447.917,9493.774,-17039.43,-8669.678,18417.521
955903.0256911678,-7296.0615,-31787.559,12037.924,8450.236,9498.413,-17040.447,-8669.475,18411.865
955903.029691164,-7295.6953,-31790.936,12034.994,8451.01,9498.413,-17038.86,-8668.376,18411.662
955903.0336911603,-7305.217,-31801.922,12032.023,8445.72,9487.061,-17036.906,-8669.638,18408.53
955903.0376911565,-7316.61,-31810.264,12020.183,8433.798,9479.004,-17039.633,-8682.414,18396.078
955903.0416911527,-7315.918,-31810.588,12019.247,8434.692,9480.917,-17041.912,-8688.11,18391.766
955903.045691149,-7318.197,-31812.5,12022.746,8439.616,9485.434,-17043.783,-8686.768,18388.795
955903.0496911452,-7314.087,-31805.828,12025.839,8442.627,9489.177,-17046.469,-8688.925,18385.377
955903.0536911415,-7306.3965,-31802.084,12025.024,8441.325,9487.671,-17044.11,-8687.704,18389.12
955903.0576911378,-7321.045,-31815.594,12019.775,8435.263,9480.917,-17042.604,-8689.291,18387.94
955903.061691134,-7315.1855,-31808.758,12020.508,8438.721,9487.712,-17042.928,-8686.809,18391.521
955903.0656911302,-7318.7666,-31811.932,12015.219,8438.477,9491.008,-17047.975,-8685.71,18390.34
955903.0696911265,-7325.765,-31810.955,12011.475,8436.483,9490.316,-17049.44,-8682.902,18395.834
955903.0736911227,-7319.6616,-31802.49,12014.73,8439.413,9490.723,-17043.457,-8677.409,18407.553
955903.0776911189,-7315.6333,-31803.143,12015.747,8438.843,9491.821,-17040.568,-8676.2295,18411.092
955903.0816911152,-7316.5693,-31805.299,12016.724,8439.047,9491.049,-17040.283,-8681.152,18404.541
955903.0856911114,-7310.547,-31801.19,12020.996,8443.278,9488.77,-17038.412,-8679.443,18400.473
955903.0896911077,-7307.17,-31796.225,12022.705,8443.848,9487.956,-17035.564,-8677.816,18399.984
955903.093691104,-7307.414,-31794.271,12021.2,8439.982,9485.678,-17035.809,-8679.118,18403.158
955903.0976911002,-7311.4424,-31798.26,12015.829,8432.333,9481.161,-17039.836,-8682.17,18406.82
955903.1016910964,-7317.302,-31802.207,12008.505,8431.234,9477.133,-17037.11,-8679.565,18405.438
955903.1056910927,-7318.1562,-31803.143,12011.76,8438.925,9483.969,-17033.732,-8674.316,18398.152
955903.1096910889,-7310.0586,-31800.701,12022.787,8445.964,9490.356,-17032.43,-8670.898,18396.893
955903.1136910851,-7312.134,-31805.055,12022.339,8442.831,9489.299,-17034.383,-8674.724,18395.549
955903.1176910814,-7318.4004,-31810.67,12018.84,8437.541,9486.613,-17029.256,-8674.683,18402.508
955903.1216910776,-7321.859,-31810.1,12013.55,8436.239,9486.003,-17029.867,-8677.531,18407.47
955903.1256910738,-7322.876,-31807.17,12017.172,8438.559,9482.138,-17033.041,-8678.061,18401.45
955903.1296910702,-7325.765,-31807.496,12019.694,8439.86,9482.992,-17033.53,-8676.514,18393.393
955903.1336910664,-7323.6084,-31810.059,12016.154,8438.965,9483.562,-17030.232,-8672.485,18398.723
955903.1376910626,-7327.3926,-31816.53,12014.893,8437.419,9481.445,-17029.705,-8673.096,18397.46
955903.1416910589,-7333.618,-31822.266,12012.899,8439.779,9484.619,-17028.973,-8673.625,18397.87
955903.1456910551,-7330.241,-31817.506,12016.439,8442.383,9485.881,-17028.117,-8673.747,18402.059
955903.1496910513,-7325.399,-31808.146,12021.281,8445.883,9489.299,-17029.338,-8670.817,18406.291
955903.1536910476,-7328.5728,-31812.744,12020.183,8442.18,9491.943,-17027.996,-8670.614,18407.879
955903.1576910438,-7341.675,-31823.365,12009.44,8432.373,9481.649,-17026.531,-8673.95,18411.012
955903.16169104,-7343.5874,-31830.527,12007.935,8433.146,9479.614,-17025.676,-8672.893,18415.527
955903.1656910363,-7339.7217,-31828.125,12012.858,8437.866,9485.8,-17026.123,-8669.597,18420.574
955903.1696910326,-7330.2,-31816.65,12017.578,8441.691,9490.723,-17025.432,-8666.26,18418.416
955903.1736910288,-7339.7627,-31823.283,12009.97,8436.687,9488.281,-17024.293,-8668.051,18411.785
955903.1776910251,-7353.231,-31835.693,12002.075,8429.729,9481.445,-17021.12,-8669.149,18411.092
955903.1816910213,-7348.47,-31834.473,12005.656,8430.746,9478.598,-17021.932,-8668.01,18411.418
955903.1856910175,-7338.42,-31827.475,12012.492,8435.995,9482.463,-17025.105,-8666.83,18411.215
955903.1896910138,-7342.1226,-31827.598,12009.604,8436.564,9484.823,-17026.287,-8663.534,18409.262
955903.19369101,-7345.4185,-31830.12,12009.277,8436.728,9483.358,-17020.02,-8658.407,18414.348
955903.1976910062,-7343.221,-31830.607,12008.017,8435.832,9484.091,-17015.422,-8658.122,18419.557
955903.2016910025,-7353.719,-31835.49,12004.639,8433.92,9484.497,-17015.91,-8656.494,18422.404
955903.2056909988,-7360.067,-31839.234,12006.674,8437.134,9484.904,-17013.795,-8652.06,18427.205
955903.209690995,-7351.074,-31842.082,12008.22,8438.64,9482.666,-17010.986,-8647.014,18426.88
955903.2136909913,-7345.215,-31835.979,12008.83,8437.419,9484.05,-17008.627,-8653.117,18428.549
955903.2176909875,-7355.184,-31837.932,12002.401,8429.403,9479.37,-17014.934,-8664.389,18424.52
955903.2216909837,-7362.793,-31846.924,11999.35,8427.043,9473.715,-17019.695,-8669.067,18418.824
955903.22569098,-7366.577,-31852.988,12001.872,8430.786,9470.419,-17018.27,-8664.022,18420.533
955903.2296909762,-7357.137,-31850.139,12012.655,8438.721,9478.271,-17012.818,-8653.564,18431.885
955903.2336909724,-7347.412,-31847.047,12015.259,8438.762,9481.079,-17012.207,-8651.245,18437.459
955903.2376909687,-7348.918,-31844.076,12010.539,8433.513,9479.411,-17012.166,-8658.773,18431.926
955903.2416909649,-7354.2075,-31844.158,12006.796,8430.136,9480.551,-17013.672,-8659.18,18433.27
955903.2456909613,-7353.353,-31843.1,12010.742,8431.926,9478.679,-17015.26,-8649.374,18441.977
955903.2496909575,-7355.51,-31844.932,12008.952,8432.373,9482.951,-17014.12,-8648.4375,18437.256
955903.2536909537,-7358.5615,-31845.459,12008.179,8431.193,9478.598,-17010.945,-8650.065,18432.82
955903.25769095,-7361.4097,-31851.36,12006.918,8429.24,9473.1045,-17008.912,-8656.21,18432.984
955903.2616909462,-7359.7007,-31849.406,12005.859,8429.321,9475.83,-17010.213,-8655.233,18439.047
955903.2656909424,-7344.8896,-31832.52,12016.073,8440.186,9491.171,-17010.865,-8644.531,18445.68
955903.2696909386,-7339.9253,-31827.76,12018.596,8442.424,9498.047,-17012.736,-8644.491,18438.885
955903.2736909349,-7347.168,-31836.59,12014.73,8436.117,9486.41,-17010.865,-8650.717,18438.07
955903.2776909311,-7366.211,-31852.256,12004.965,8424.805,9474.609,-17014.08,-8660.156,18433.473
955903.2816909273,-7370.9717,-31857.748,12003.703,8426.27,9474.65,-17011.678,-8659.546,18433.146
955903.2856909237,-7361.1655,-31854.492,12008.505,8431.315,9477.051,-17011.719,-8654.297,18435.262
955903.2896909199,-7348.999,-31848.633,12017.09,8435.181,9483.276,-17011.598,-8647.217,18438.518
955903.2936909162,-7347.046,-31841.309,12017.375,8435.832,9483.969,-17009.93,-8637.858,18451.172
955903.2976909124,-7350.0166,-31842.814,12013.672,8432.983,9481.364,-17009.521,-8635.051,18456.422
955903.3016909086,-7350.383,-31844.117,12015.422,8435.791,9486.003,-17008.871,-8633.627,18459.637
955903.3056909048,-7345.215,-31843.14,12020.427,8441.406,9489.177,-17007.08,-8632.324,18464.234
955903.3096909011,-7346.1914,-31841.92,12021.444,8443.319,9487.0205,-17009.562,-8635.01,18459.676
955903.3136908973,-7347.046,-31843.832,12018.799,8444.255,9484.619,-17002.238,-8634.074,18467.693
955903.3176908935,-7344.564,-31844.158,12019.084,8441.284,9483.5205,-16998.332,-8633.22,18475.098
955903.3216908898,-7337.4023,-31838.176,12021.851,8441.61,9482.382,-17004.03,-8633.911,18466.717
955903.3256908861,-7337.158,-31836.223,12024.292,8445.19,9487.631,-17006.104,-8634.604,18462.89
955903.3296908824,-7341.3496,-31841.39,12023.031,8444.011,9489.909,-17008.545,-8643.311,18450.36
955903.3336908786,-7346.639,-31849.244,12015.178,8438.64,9487.427,-17011.15,-8654.745,18438.273
955903.3376908748,-7356.9336,-31862.06,12009.44,8430.054,9473.755,-17011.19,-8659.79,18432.373
955903.341690871,-7347.982,-31853.72,12017.253,8436.85,9478.271,-17008.016,-8649.048,18446.371
955903.3456908673,-7330.119,-31837.322,12027.507,8448.039,9490.194,-17005.574,-8632.162,18464.682
955903.3496908635,-7329.061,-31839.396,12026.327,8446.696,9491.13,-17009.645,-8634.685,18463.258
955903.3536908597,-7337.606,-31850.871,12018.555,8438.477,9481.934,-17011.883,-8641.357,18460.408
955903.357690856,-7348.0635,-31858.562,12013.51,8432.495,9475.912,-17014.08,-8650.1875,18450.887
955903.3616908523,-7358.5205,-31861.004,12009.196,8430.42,9478.027,-17015.3,-8659.018,18437.5
955903.3656908486,-7360.189,-31860.107,12006.836,8433.065,9477.865,-17016.357,-8657.227,18434.896
955903.3696908448,-7351.766,-31850.83,12011.353,8438.437,9479.98,-17017.822,-8648.642,18444.215
955903.373690841,-7333.7812,-31844.564,12023.845,8441.528,9481.853,-17013.021,-8632.65,18465.902
955903.3776908373,-7332.6416,-31844.238,12024.13,8439.738,9484.619,-17010.662,-8629.924,18473.104
955903.3816908335,-7340.8613,-31849.773,12015.219,8437.419,9484.619,-17010.58,-8632.895,18473.877
955903.3856908297,-7343.872,-31848.227,12018.515,8441.081,9491.618,-17013.916,-8640.056,18460.652
955903.389690826,-7343.1807,-31844.035,12022.258,8444.174,9491.333,-17015.137,-8644.369,18451.945
955903.3936908222,-7351.7256,-31851.115,12011.638,8437.053,9479.33,-17018.31,-8650.757,18449.139
955903.3976908184,-7364.095,-31865.398,11998.779,8426.677,9471.3955,-17020.508,-8656.047,18445.883
955903.4016908148,-7359.253,-31870.77,11997.722,8425.619,9468.71,-17017.781,-8653.402,18443.074
955903.405690811,-7347.2495,-31859.375,12011.963,8433.92,9473.1045,-17010.783,-8637.533,18459.637
955903.4096908072,-7329.183,-31840.17,12023.967,8442.302,9482.707,-17008.545,-8618.652,18486.37
955903.4136908035,-7325.3174,-31837.037,12028.931,8442.912,9485.596,-17011.678,-8616.699,18483.725
955903.4176907997,-7336.589,-31847.576,12023.193,8438.559,9482.992,-17013.266,-8625.529,18481.201
955903.4216907959,-7342.8955,-31849.162,12019.084,8437.948,9479.98,-17015.666,-8632.324,18478.8
955903.4256907922,-7341.838,-31849.0,12016.724,8439.941,9480.103,-17014.607,-8634.929,18468.14
955903.4296907884,-7333.4556,-31844.768,12019.775,8445.068,9481.567,-17010.174,-8630.371,18467.244
955903.4336907846,-7336.3853,-31847.576,12017.863,8438.151,9475.627,-17010.824,-8631.308,18472.82
955903.4376907808,-7348.2666,-31854.818,12007.406,8430.908,9476.359,-17013.021,-8642.741,18464.07
955903.4416907772,-7351.8477,-31852.988,12006.552,8433.432,9477.946,-17011.027,-8646.892,18461.914
955903.4456907734,-7345.134,-31849.447,12012.736,8438.965,9476.97,-17012.492,-8650.473,18452.516
955903.4496907697,-7338.501,-31847.494,12019.043,8443.034,9476.074,-17015.34,-8654.907,18442.586
955903.4536907659,-7338.176,-31845.623,12023.356,8441.772,9474.895,-17013.143,-8653.687,18446.127
955903.4576907621,-7339.0303,-31848.959,12018.474,8436.605,9474.081,-17011.8,-8650.757,18450.684
955903.4616907584,-7331.5024,-31842.246,12022.217,8442.221,9478.598,-17008.504,-8636.963,18468.059
955903.4656907546,-7324.992,-31838.502,12028.769,8448.08,9483.969,-17005.412,-8628.378,18478.8
955903.4696907508,-7331.177,-31845.176,12022.665,8444.133,9478.679,-17006.959,-8632.609,18466.023
955903.473690747,-7344.2793,-31851.156,12008.952,8437.378,9470.256,-17008.748,-8638.469,18459.799
955903.4776907434,-7355.2656,-31862.021,11999.756,8428.874,9467.489,-17008.709,-8646.078,18452.922
955903.4816907396,-7352.539,-31859.742,12004.843,8432.373,9469.931,-17004.395,-8643.433,18452.516
955903.4856907359,-7345.5405,-31850.018,12012.451,8437.826,9475.708,-17002.727,-8635.702,18458.537
955903.4896907321,-7342.7734,-31845.379,12015.707,8440.756,9484.213,-17005.697,-8633.017,18460.328
955903.4936907283,-7340.0474,-31850.262,12019.613,8442.302,9483.643,-17004.436,-8629.069,18466.064
955903.4976907246,-7348.1855,-31861.37,12013.51,8435.344,9477.783,-17004.354,-8631.348,18466.879
955903.5016907208,-7357.137,-31866.578,12007.772,8430.908,9475.749,-17005.697,-8637.614,18455.078
955903.505690717,-7356.242,-31862.59,12010.986,8434.204,9472.616,-17005.494,-8634.888,18453.41
955903.5096907133,-7354.289,-31859.701,12012.614,8434.978,9474.447,-17005.941,-8631.186,18454.225
955903.5136907095,-7357.1777,-31867.107,12008.22,8429.077,9469.971,-17005.25,-8632.65,18455.73
955903.5176907058,-7366.1704,-31872.803,12002.686,8423.462,9467.733,-17006.227,-8637.451,18455.078
955903.5216907021,-7369.3037,-31869.385,12003.174,8425.863,9470.012,-17008.22,-8640.707,18453.41
955903.5256906983,-7368.7744,-31870.078,12004.924,8429.729,9470.378,-17012.533,-8637.329,18456.34
955903.5296906945,-7355.7944,-31865.398,12014.812,8435.507,9469.035,-17010.377,-8632.243,18465.332
955903.5336906908,-7352.214,-31858.684,12008.627,8433.96,9472.9,-17008.22,-8632.568,18470.379
955903.537690687,-7362.3457,-31867.88,11999.96,8424.927,9464.722,-17009.645,-8639.608,18466.146
955903.5416906832,-7365.2344,-31870.81,11999.96,8424.154,9461.426,-17012.695,-8644.165,18464.07
955903.5456906795,-7358.6836,-31863.201,12005.737,8430.827,9463.867,-17013.51,-8646.159,18454.713
955903.5496906757,-7359.66,-31862.346,12007.976,8434.286,9468.384,-17015.137,-8648.031,18446.736
955903.5536906719,-7364.9497,-31864.463,12003.703,8427.734,9465.902,-17016.316,-8649.902,18442.75
955903.5576906683,-7367.8794,-31867.84,11998.657,8421.713,9458.984,-17017.62,-8651.9375,18447.998
955903.5616906645,-7363.159,-31873.861,12002.686,8423.056,9458.659,-17016.56,-8650.554,18451.904
955903.5656906607,-7357.8696,-31872.64,12005.819,8427.49,9462.891,-17011.395,-8644.531,18451.783
955903.569690657,-7359.9043,-31871.826,12007.772,8428.345,9467.245,-17009.848,-8639.7705,18458.62
955903.5736906532,-7367.513,-31868.938,12006.958,8426.758,9467.285,-17011.23,-8640.422,18457.398
955903.5776906494,-7368.612,-31872.031,12006.633,8428.671,9466.675,-17009.033,-8637.451,18457.195
955903.5816906457,-7361.4097,-31876.709,12011.271,8430.095,9464.478,-17006.47,-8635.539,18459.432
955903.5856906419,-7354.492,-31875.652,12012.858,8430.908,9470.581,-17009.318,-8635.01,18460.775
955903.5896906381,-7350.83,-31874.553,12015.3,8433.146,9472.656,-17015.26,-8634.726,18459.92
955903.5936906345,-7358.236,-31876.994,12011.923,8427.979,9465.82,-17014.771,-8642.009,18456.828
955903.5976906307,-7368.6934,-31879.844,12004.721,8421.347,9462.321,-17015.26,-8645.061,18458.008
955903.6016906269,-7372.64,-31884.807,12010.336,8425.781,9462.606,-17014.812,-8643.433,18459.717
955903.6056906232,-7372.966,-31884.4,12016.684,8433.472,9465.983,-17010.662,-8636.841,18462.566
955903.6096906194,-7373.169,-31886.11,12013.306,8435.507,9465.373,-17011.068,-8635.295,18467.367
955903.6136906156,-7373.169,-31889.975,12009.685,8429.6875,9453.369,-17010.58,-8636.353,18472.088
955903.6176906119,-7380.412,-31901.246,12001.709,8419.76,9445.517,-17008.748,-8639.526,18472.982
955903.6216906081,-7384.3994,-31906.943,12000.244,8418.742,9447.51,-17009.725,-8644.45,18464.885
955903.6256906043,-7384.481,-31905.926,12007.935,8421.143,9452.963,-17009.93,-8641.4795,18463.379
955903.6296906006,-7383.3823,-31903.729,12011.76,8426.636,9463.135,-17005.412,-8634.521,18469.727
955903.6336905969,-7387.4106,-31920.736,12004.3545,8426.2295,9469.523,-17004.518,-8634.277,18476.521
955903.6376905931,-7395.1826,-31942.912,11994.141,8421.997,9469.442,-17005.127,-8639.323,18475.262
955903.6416905894,-7407.715,-31942.994,11987.468,8416.342,9465.576,-17008.057,-8641.073,18471.924
955903.6456905856,-7403.117,-31927.857,11996.216,8419.23,9456.218,-17010.58,-8642.456,18470.012
955903.6496905818,-7399.699,-31924.44,12003.744,8424.398,9453.857,-17008.098,-8637.045,18476.4
955903.6536905781,-7402.0996,-31929.484,12001.018,8421.428,9451.213,-17006.674,-8636.882,18477.703
955903.6576905743,-7404.2563,-31932.293,11997.233,8417.888,9449.097,-17005.047,-8638.794,18477.092
955903.6616905705,-7396.8506,-31930.664,12002.89,8422.323,9450.847,-17004.965,-8635.336,18477.295
955903.6656905668,-7385.376,-31922.324,12014.404,8431.804,9460.979,-17002.85,-8625.285,18484.334
955903.669690563,-7381.755,-31917.562,12014.893,8433.1875,9464.071,-17002.727,-8628.174,18482.38
955903.6736905593,-7385.132,-31919.19,12012.411,8429.118,9461.548,-16998.78,-8628.784,18483.928
955903.6776905556,-7400.594,-31931.438,12005.941,8420.817,9454.468,-16998.373,-8634.399,18479.736
955903.6816905518,-7414.3066,-31943.32,12002.319,8420.98,9461.182,-16998.902,-8635.254,18472.127
955903.685690548,-7410.3193,-31954.346,12005.534,8422.648,9458.903,-16997.152,-8632.487,18473.959
955903.6896905443,-7389.201,-31946.9,12011.557,8425.863,9459.188,-16998.17,-8632.08,18479.168
955903.6936905405,-7395.1826,-31950.074,12012.167,8423.91,9459.066,-16996.623,-8629.721,18487.264
955903.6976905367,-7423.5435,-31973.838,12003.825,8418.62,9458.252,-16992.473,-8624.35,18500.896
955903.701690533,-7435.669,-31987.346,12003.337,8419.597,9462.646,-16991.822,-8619.06,18502.28
955903.7056905292,-7443.319,-31996.094,12003.662,8419.434,9458.334,-16992.31,-8615.194,18502.361
955903.7096905254,-7451.213,-32004.559,12002.563,8420.37,9459.147,-16993.572,-8612.915,18500.977
955903.7136905218,-7454.7935,-32012.818,12000.57,8417.44,9453.776,-16994.996,-8612.0205,18506.023
955903.717690518,-7476.4814,-32033.855,11993.652,8408.366,9443.278,-16991.781,-8610.962,18511.23
955903.7216905142,-7486.491,-32047.73,11997.641,8408.936,9440.715,-16989.625,-8607.26,18512.207
955903.7256905105,-7474.2026,-32044.598,12005.087,8413.615,9448.08,-16991.13,-8606.975,18512.33
955903.7296905067,-7475.5454,-32047.69,12003.581,8412.476,9444.824,-16992.676,-8605.185,18518.555
955903.7336905029,-7477.702,-32053.469,12002.808,8409.872,9442.424,-16990.316,-8605.185,18526.531
955903.7376904992,-7484.538,-32062.053,12000.366,8405.3955,9437.948,-16987.469,-8605.632,18530.232
955903.7416904954,-7491.496,-32072.186,11996.379,8401.408,9432.089,-16986.857,-8604.818,18530.72
955903.7456904916,-7473.999,-32059.164,12002.563,8411.459,9436.809,-16986.043,-8602.133,18531.006
955903.749690488,-7461.1006,-32053.672,12010.01,8414.836,9439.494,-16985.271,-8596.029,18529.908
955903.7536904842,-7453.9795,-32048.137,12012.37,8414.633,9442.221,-16983.277,-8594.564,18530.926
955903.7576904804,-7450.0327,-32047.16,12008.423,8410.156,9439.209,-16986.207,-8599.081,18530.926
955903.7616904767,-7449.585,-32054.525,12005.453,8408.122,9432.211,-16987.957,-8602.214,18530.6
955903.7656904729,-7437.297,-32039.592,12014.12,8415.894,9440.837,-16987.996,-8598.837,18530.111
955903.7696904691,-7429.4844,-32024.334,12020.224,8422.607,9450.399,-16985.23,-8591.797,18534.588
955903.7736904654,-7409.587,-32005.453,12025.106,8426.352,9456.543,-16988.404,-8591.105,18537.639
955903.7776904616,-7399.862,-31994.102,12022.339,8422.363,9452.8,-16993.367,-8599.936,18533.367
955903.7816904578,-7395.4673,-31987.957,12025.146,8425.619,9456.299,-16996.502,-8605.225,18527.264
955903.7856904541,-7382.4463,-31974.57,12032.064,8435.995,9466.797,-16997.438,-8604.086,18521.932
955903.7896904504,-7373.8203,-31964.926,12033.732,8438.07,9472.168,-16997.273,-8607.829,18513.592
955903.7936904466,-7371.704,-31963.014,12028.728,8434.408,9469.116,-16997.967,-8615.112,18509.36
955903.7976904429,-7364.868,-31953.004,12025.432,8429.443,9462.402,-17000.488,-8626.262,18499.268
955903.8016904391,-7368.6523,-31957.56,12022.461,8427.043,9457.438,-17001.506,-8628.825,18495.973
955903.8056904353,-7365.1533,-31954.021,12021.851,8427.368,9458.415,-17003.947,-8632.284,18488.893
955903.8096904316,-7356.242,-31942.791,12024.333,8428.508,9461.833,-17008.342,-8637.695,18475.912
955903.8136904278,-7357.2593,-31950.195,12022.502,8424.316,9453.857,-17008.139,-8639.364,18474.773
955903.817690424,-7355.3877,-31955.73,12018.2295,8419.23,9442.871,-17005.412,-8639.282,18479.248
955903.8216904203,-7352.173,-31952.271,12021.078,8421.957,9444.377,-17002.156,-8632.609,18484.822
955903.8256904165,-7342.5703,-31945.8,12031.576,8430.176,9455.16,-17000.773,-8628.988,18483.928
955903.8296904129,-7334.6763,-31934.45,12032.959,8432.861,9462.932,-17001.709,-8629.232,18479.412
955903.8336904091,-7334.6763,-31935.303,12031.454,8431.112,9458.862,-17000.691,-8623.739,18495.402
955903.8376904053,-7342.2446,-31944.662,12025.106,8424.357,9452.148,-17000.367,-8625.732,18494.344
955903.8416904015,-7346.3545,-31942.627,12024.78,8423.422,9451.254,-17001.344,-8630.005,18482.545
955903.8456903978,-7334.7983,-31927.613,12024.17,8429.892,9456.625,-16998.455,-8625.204,18485.76
955903.849690394,-7329.0205,-31926.88,12029.989,8432.292,9457.031,-16995.402,-8623.373,18485.31
955903.8536903902,-7326.172,-31925.742,12033.8545,8434.733,9460.9375,-16993.002,-8620.646,18485.352
955903.8576903865,-7337.4023,-31933.27,12025.31,8427.368,9463.827,-16996.785,-8632.365,18479.207
955903.8616903827,-7341.146,-31936.28,12021.525,8426.962,9460.083,-16996.297,-8634.115,18482.26
955903.865690379,-7333.8623,-31923.951,12027.344,8433.31,9461.345,-16994.629,-8629.517,18488.24
955903.8696903753,-7323.568,-31908.367,12031.698,8436.035,9464.355,-16996.217,-8627.563,18487.916
955903.8736903715,-7326.416,-31909.547,12028.769,8431.845,9460.693,-16993.652,-8623.617,18498.21
955903.8776903677,-7336.426,-31921.428,12020.224,8423.422,9456.218,-16991.414,-8626.425,18499.838
955903.881690364,-7336.263,-31930.176,12022.339,8425.741,9455.526,-16990.602,-8628.174,18492.758
955903.8856903602,-7324.504,-31920.777,12029.053,8432.739,9457.968,-16992.676,-8630.941,18489.299
955903.8896903564,-7323.7305,-31912.395,12026.896,8435.791,9463.013,-16991.293,-8630.615,18486.043
955903.8936903527,-7328.369,-31920.371,12024.17,8433.838,9461.101,-16994.1,-8632.162,18484.822
955903.8976903489,-7323.3643,-31919.23,12025.879,8432.251,9455.811,-16995.361,-8634.929,18489.217
955903.9016903451,-7315.4297,-31909.506,12032.512,8439.087,9457.764,-16995.77,-8634.277,18489.705
955903.9056903415,-7310.547,-31901.611,12037.313,8443.156,9458.374,-16998.943,-8637.167,18486.287
955903.9096903377,-7310.791,-31898.113,12032.919,8439.291,9455.852,-17002.4,-8642.782,18481.975
955903.913690334,-7311.6865,-31897.87,12026.327,8436.809,9461.101,-17000.773,-8644.775,18484.13
955903.9176903302,-7329.5493,-31911.256,12015.869,8428.711,9458.252,-17001.018,-8651.978,18473.47
955903.9216903264,-7330.8516,-31910.564,12018.393,8428.467,9455.893,-17001.18,-8654.135,18472.453
955903.9256903226,-7314.4126,-31898.805,12026.733,8436.85,9460.449,-17001.1,-8653.809,18463.867
955903.9296903189,-7311.1167,-31898.113,12027.67,8437.297,9463.339,-17003.744,-8645.996,18472.535
955903.9336903151,-7312.663,-31898.602,12020.956,8432.048,9459.921,-17004.436,-8646.811,18477.418
955903.9376903113,-7315.8774,-31897.99,12015.503,8428.996,9455.688,-17002.482,-8647.827,18466.96
955903.9416903076,-7313.5986,-31897.828,12020.183,8433.554,9460.449,-17000.408,-8635.905,18482.219
955903.9456903039,-7310.3438,-31898.275,12028.728,8441.244,9466.35,-16997.396,-8623.901,18494.385
955903.9496903002,-7309.0415,-31902.1,12030.233,8441.772,9468.1,-16998.373,-8623.413,18496.541
955903.9536902964,-7312.866,-31904.258,12027.954,8438.721,9468.018,-16995.281,-8616.211,18513.55
955903.9576902926,-7316.6914,-31906.82,12020.386,8431.479,9458.415,-16995.32,-8624.187,18505.982
955903.9616902889,-7315.3076,-31903.564,12019.613,8431.274,9458.659,-16995.037,-8634.604,18491.334
955903.9656902851,-7303.955,-31890.79,12026.896,8438.681,9461.955,-16992.84,-8631.958,18489.299
955903.9696902813,-7303.7925,-31894.492,12029.013,8438.762,9460.693,-16995.809,-8632.284,18491.414
955903.9736902775,-7300.578,-31891.969,12031.738,8439.169,9461.914,-16996.094,-8630.941,18495.729
955903.9776902738,-7299.0317,-31893.555,12029.175,8437.948,9461.996,-16993.531,-8635.824,18495.402
955903.9816902701,-7307.495,-31904.176,12025.065,8435.629,9455.7295,-16994.182,-8637.858,18492.635
955903.9856902664,-7313.1104,-31908.57,12024.374,8436.809,9458.74,-16997.152,-8639.975,18490.479
955903.9896902626,-7304.6064,-31895.184,12023.642,8437.704,9469.36,-16999.064,-8645.508,18480.348
955903.9936902588,-7303.06,-31894.084,12020.427,8435.466,9470.581,-16998.332,-8642.05,18480.877
955903.997690255,-7307.6987,-31904.664,12022.299,8433.554,9467.814,-16994.467,-8636.841,18486.248
955904.0016902513,-7299.4385,-31900.39,12029.338,8437.378,9462.891,-16993.043,-8630.859,18493.816
955904.0056902475,-7294.7593,-31896.445,12033.61,8440.715,9460.083,-16996.217,-8629.15,18494.793
955904.0096902438,-7304.4434,-31901.328,12027.832,8437.704,9458.171,-16998.658,-8631.063,18489.055
955904.01369024,-7310.3438,-31902.223,12020.712,8434.082,9456.015,-16996.46,-8633.505,18488.934
955904.0176902362,-7311.5645,-31906.006,12018.515,8431.315,9453.247,-16996.95,-8637.167,18493.45
955904.0216902326,-7303.4263,-31900.799,12022.665,8438.07,9460.49,-16993.043,-8629.232,18495.24
955904.0256902288,-7293.7827,-31895.59,12030.762,8443.319,9467.163,-16993.45,-8630.981,18492.066
955904.029690225,-7295.614,-31900.92,12028.809,8439.697,9467.082,-16995.973,-8629.924,18493.123
955904.0336902213,-7298.625,-31903.688,12027.182,8435.1,9463.135,-16998.17,-8626.791,18496.135
955904.0376902175,-7299.3574,-31904.785,12026.733,8428.264,9453.491,-17001.912,-8636.516,18493.734
955904.0416902137,-7295.1255,-31899.049,12029.623,8431.682,9455.811,-17004.924,-8638.876,18497.03
955904.04569021,-7284.831,-31885.133,12035.686,8441.488,9465.495,-17002.605,-8629.15,18503.338
955904.0496902062,-7284.953,-31884.033,12037.069,8443.522,9466.635,-17001.1,-8626.384,18495.932
955904.0536902024,-7288.656,-31894.572,12036.784,8440.715,9463.705,-16997.967,-8624.634,18495.076
955904.0576901986,-7289.917,-31898.275,12028.117,8433.96,9460.897,-16995.89,-8633.423,18492.879
955904.061690195,-7294.515,-31906.658,12025.1875,8430.949,9451.945,-16991.943,-8635.702,18494.223
955904.0656901912,-7302.49,-31908.896,12018.881,8428.508,9451.172,-16992.676,-8628.622,18494.793
955904.0696901875,-7305.298,-31911.459,12015.219,8425.659,9452.148,-16997.723,-8632.65,18487.102
955904.0736901837,-7293.091,-31903.158,12023.804,8429.24,9453.329,-16992.473,-8630.29,18491.822
955904.0776901799,-7288.493,-31903.117,12026.693,8427.775,9450.847,-16993.328,-8633.017,18496.705
955904.0816901762,-7284.709,-31900.635,12032.268,8433.1875,9455.241,-16994.588,-8629.802,18499.188
955904.0856901724,-7273.8037,-31888.51,12039.917,8440.39,9462.81,-16995.77,-8626.181,18502.32
955904.0896901686,-7267.8223,-31883.018,12043.376,8439.982,9461.996,-17000.57,-8630.29,18500.447
955904.0936901649,-7276.4893,-31896.607,12041.423,8433.96,9455.7295,-16999.959,-8639.242,18497.273
955904.0976901611,-7291.748,-31914.43,12028.483,8426.066,9448.364,-16999.47,-8646.403,18490.398
955904.1016901574,-7294.149,-31909.873,12026.53,8425.985,9448.161,-16998.332,-8647.624,18483.521
955904.1056901537,-7289.917,-31897.258,12025.798,8431.071,9454.875,-16997.64,-8644.247,18480.307
955904.1096901499,-7286.54,-31893.678,12025.635,8433.35,9454.224,-16994.385,-8636.108,18488.281
955904.1136901461,-7294.3525,-31897.46,12021.606,8430.38,9453.369,-16991.375,-8631.022,18496.95
955904.1176901424,-7303.304,-31906.943,12017.66,8423.503,9446.981,-16994.67,-8631.674,18494.793
955904.1216901386,-7297.2007,-31906.129,12019.775,8424.602,9447.47,-16995.402,-8631.999,18494.1
955904.1256901348,-7285.6445,-31902.832,12027.426,8428.833,9445.109,-16995.89,-8628.337,18496.867
955904.129690131,-7289.5103,-31909.873,12029.257,8428.874,9443.686,-16990.723,-8622.681,18500.326
955904.1336901273,-7291.097,-31911.297,12031.047,8430.542,9445.923,-16981.201,-8616.821,18508.342
955904.1376901236,-7282.4707,-31902.832,12031.494,8433.838,9450.766,-16981.16,-8617.717,18510.498
955904.1416901199,-7275.1465,-31895.346,12033.529,8435.832,9456.381,-16988.893,-8625.529,18501.262
955904.1456901161,-7279.012,-31896.445,12031.86,8437.094,9454.834,-16994.914,-8631.063,18495.402
955904.1496901123,-7287.0283,-31904.135,12031.698,8436.605,9454.59,-16996.826,-8633.261,18494.832
955904.1536901086,-7283.8545,-31911.459,12033.936,8433.879,9453.857,-16997.273,-8635.376,18497.559
955904.1576901048,-7284.5054,-31907.594,12029.257,8429.443,9453.573,-16995.281,-8637.98,18501.018
955904.161690101,-7282.5522,-31890.463,12030.6,8433.065,9462.932,-16995.89,-8634.115,18505.9
955904.1656900973,-7270.671,-31897.87,12038.981,8437.826,9459.555,-16995.117,-8622.885,18518.107
955904.1696900935,-7263.143,-31904.46,12041.179,8440.796,9456.625,-16988.404,-8608.48,18527.1
955904.1736900897,-7265.8286,-31903.646,12041.992,8439.209,9455.526,-16985.963,-8602.661,18531.738
955904.1776900861,-7274.984,-31906.373,12033.691,8430.908,9450.684,-16988.281,-8610.2705,18530.64
955904.1816900823,-7274.7397,-31909.424,12034.343,8431.234,9449.829,-16990.887,-8618.896,18520.752
955904.1856900785,-7266.5205,-31897.137,12039.185,8438.965,9453.532,-16993.043,-8624.1455,18515.34
955904.1896900748,-7264.8926,-31890.219,12039.022,8441.122,9452.881,-17001.709,-8633.505,18500.53
955904.193690071,-7278.198,-31901.164,12028.769,8436.157,9450.644,-17004.559,-8636.475,18493.775
955904.1976900672,-7284.709,-31900.146,12028.931,8432.373,9450.114,-17005.738,-8638.957,18492.27
955904.2016900635,-7279.826,-31899.334,12029.053,8435.629,9450.725,-17000.53,-8632.04,18494.549
955904.2056900597,-7281.535,-31902.549,12033.0,8440.878,9454.143,-16993.693,-8620.199,18502.32
955904.2096900559,-7271.159,-31909.832,12035.116,8441.8545,9454.0205,-16992.473,-8618.002,18506.186
955904.2136900522,-7269.45,-31913.209,12028.85,8437.419,9453.369,-16990.926,-8621.582,18511.068
955904.2176900485,-7281.2095,-31911.459,12022.624,8432.17,9447.266,-16988.77,-8623.251,18518.19
955904.2216900447,-7283.4067,-31908.041,12028.198,8436.117,9446.127,-16986.98,-8621.054,18519.654
955904.225690041,-7276.042,-31902.14,12033.325,8439.372,9448.8125,-16988.973,-8620.565,18516.805
955904.2296900372,-7281.372,-31906.006,12029.582,8433.554,9439.941,-16993.775,-8622.274,18516.48
955904.2336900334,-7278.117,-31901.816,12031.21,8430.99,9442.79,-16991.781,-8621.582,18522.096
955904.2376900297,-7277.0186,-31900.676,12027.304,8428.264,9443.4,-16991.049,-8624.228,18524.21
955904.2416900259,-7282.6743,-31907.432,12022.665,8428.874,9444.824,-16990.967,-8626.221,18519.654
955904.2456900221,-7291.8296,-31919.76,12020.752,8430.095,9442.587,-16992.96,-8626.425,18513.348
955904.2496900184,-7301.799,-31925.863,12016.684,8427.084,9438.559,-16995.076,-8632.8125,18504.07
955904.2536900147,-7303.3447,-31926.352,12015.259,8425.741,9439.006,-16993.287,-8634.033,18505.209
955904.2576900109,-7299.8457,-31922.363,12015.503,8425.7,9438.314,-16991.984,-8631.43,18511.922
955904.2616900072,-7302.9785,-31926.352,12015.219,8423.218,9436.32,-16991.943,-8633.586,18507.732
955904.2656900034,-7303.6704,-31925.742,12019.165,8426.352,9441.122,-16991.781,-8632.568,18505.371
955904.2696899996,-7301.2695,-31929.12,12017.904,8424.724,9440.878,-16992.473,-8628.296,18508.545
955904.2736899959,-7307.7803,-31929.607,12012.004,8418.335,9437.866,-16990.846,-8624.1455,18515.504
955904.2776899921,-7312.9883,-31929.893,12006.226,8412.517,9435.669,-16988.607,-8623.942,18517.01
955904.2816899883,-7309.6924,-31925.254,12007.69,8413.046,9431.926,-16988.201,-8619.06,18522.258
955904.2856899846,-7301.8394,-31916.424,12011.679,8420.044,9437.744,-16987.184,-8611.532,18524.334
955904.2896899808,-7294.271,-31907.715,12018.515,8426.921,9443.889,-16983.887,-8604.777,18530.518
955904.2936899771,-7295.6953,-31910.035,12016.602,8424.113,9440.674,-16985.352,-8608.48,18527.955
955904.2976899734,-7307.373,-31913.697,12007.528,8416.22,9436.605,-16989.666,-8623.007,18521.81
955904.3016899696,-7307.17,-31914.918,12008.871,8416.26,9437.5,-16989.91,-8629.639,18520.102
955904.3056899658,-7300.293,-31913.535,12013.591,8419.719,9433.92,-16990.154,-8630.941,18518.555
955904.3096899621,-7293.579,-31908.57,12020.712,8423.828,9437.378,-16986.125,-8625.773,18520.752
955904.3136899583,-7286.947,-31901.611,12024.048,8423.503,9438.681,-16982.666,-8623.129,18526.652
955904.3176899545,-7287.883,-31898.846,12022.055,8423.666,9445.435,-16979.086,-8623.901,18535.604
955904.3216899508,-7289.3066,-31897.055,12021.525,8426.474,9446.615,-16979.86,-8629.313,18535.809
955904.325689947,-7290.8936,-31902.549,12021.525,8428.955,9446.208,-16982.707,-8631.022,18526.652
955904.3296899432,-7297.16,-31911.988,12020.834,8426.636,9441.203,-16985.963,-8634.848,18525.92
955904.3336899396,-7301.2695,-31916.342,12016.032,8423.747,9438.151,-16987.752,-8642.334,18517.172
955904.3376899358,-7307.5767,-31923.79,12005.941,8416.057,9431.804,-16992.146,-8652.344,18499.064
955904.341689932,-7303.304,-31916.992,12007.772,8417.603,9430.705,-16991.822,-8649.211,18500.203
955904.3456899283,-7289.8765,-31904.42,12017.131,8426.962,9442.302,-16988.973,-8639.242,18506.795
955904.3496899245,-7286.621,-31902.508,12022.217,8429.24,9442.587,-16988.69,-8634.604,18506.104
955904.3536899207,-7294.8,-31914.145,12013.103,8421.428,9438.599,-16993.328,-8639.853,18503.621
955904.357689917,-7308.553,-31928.346,12007.284,8413.818,9428.955,-16998.82,-8648.52,18501.506
955904.3616899132,-7316.61,-31937.338,11999.878,8409.343,9420.614,-17005.818,-8654.419,18499.959
955904.3656899094,-7311.6455,-31936.768,12002.157,8412.802,9420.898,-17006.836,-8652.385,18499.92
955904.3696899057,-7303.9146,-31925.498,12006.918,8416.911,9430.664,-17002.727,-8646.484,18498.25
955904.373689902,-7301.0664,-31926.719,12011.719,8416.586,9428.467,-16999.959,-8637.126,18509.848
955904.3776898982,-7307.6987,-31937.826,12005.371,8408.8955,9423.381,-17000.447,-8639.7705,18518.393
955904.3816898945,-7309.896,-31934.164,12005.331,8408.366,9417.969,-17002.28,-8642.009,18527.71
955904.3856898907,-7308.7974,-31934.45,12007.406,8411.093,9424.602,-17001.668,-8638.021,18527.955
955904.389689887,-7304.5654,-31934.652,12010.824,8412.436,9430.054,-16997.152,-8636.353,18527.67
955904.3936898832,-7300.7812,-31930.584,12012.045,8411.906,9431.885,-16992.96,-8633.383,18534.018
955904.3976898794,-7304.525,-31935.752,12012.045,8408.773,9430.868,-16991.658,-8634.277,18534.547
955904.4016898756,-7303.0195,-31936.605,12008.993,8413.94,9434.855,-16992.229,-8634.399,18531.535
955904.4056898719,-7301.3105,-31935.996,12014.201,8416.301,9433.635,-16995.484,-8637.248,18526.45
955904.4096898682,-7305.542,-31937.135,12010.132,8413.249,9432.536,-16996.541,-8641.846,18519.613
955904.4136898645,-7310.3438,-31939.658,12004.843,8407.797,9425.781,-16998.25,-8652.426,18509.36
955904.4176898607,-7316.325,-31943.727,11999.838,8401.815,9422.079,-16996.664,-8657.797,18506.795
955904.4216898569,-7309.001,-31942.018,12007.487,8408.285,9430.014,-16994.06,-8654.541,18510.254
955904.4256898531,-7299.276,-31940.35,12012.777,8416.992,9430.827,-16992.514,-8648.397,18516.277
955904.4296898494,-7293.8643,-31937.541,12017.741,8421.062,9431.03,-16991.049,-8645.59,18507.527
955904.4336898456,-7298.625,-31940.064,12015.91,8418.579,9429.892,-16993.043,-8648.926,18502.197
955904.4376898418,-7312.907,-31950.156,12004.761,8408.041,9420.532,-16997.64,-8659.424,18501.22
955904.4416898381,-7318.6035,-31953.37,12000.57,8407.553,9419.312,-17000.814,-8661.906,18498.78
955904.4456898343,-7307.5767,-31945.639,12008.993,8414.47,9423.869,-16996.826,-8651.286,18501.14
955904.4496898307,-7295.9395,-31934.082,12015.625,8417.033,9430.258,-16995.525,-8645.996,18510.662
955904.4536898269,-7289.673,-31927.613,12017.416,8418.905,9436.564,-16990.682,-8640.097,18515.463
955904.4576898231,-7302.694,-31938.477,12006.511,8412.15,9429.932,-16993.043,-8645.508,18515.34
955904.4616898193,-7307.821,-31948.162,12003.947,8410.808,9424.032,-16999.268,-8652.304,18505.453
955904.4656898156,-7304.8506,-31943.238,12006.104,8414.429,9426.392,-17001.18,-8650.879,18505.982
955904.4696898118,-7299.276,-31936.117,12010.051,8418.295,9427.287,-17001.18,-8649.17,18507.08
955904.473689808,-7301.7173,-31943.848,12010.58,8413.94,9421.835,-17000.244,-8651.774,18508.83
955904.4776898043,-7303.3447,-31943.848,12004.599,8409.302,9421.0205,-16995.158,-8652.263,18514.363
955904.4816898005,-7296.102,-31943.035,12007.976,8412.191,9423.137,-16990.56,-8648.479,18510.906
955904.4856897967,-7290.202,-31937.338,12016.968,8419.556,9429.321,-16992.025,-8645.427,18516.766
955904.4896897931,-7289.592,-31930.99,12024.618,8425.09,9437.419,-16996.217,-8647.624,18518.678
955904.4936897893,-7296.509,-31937.705,12022.299,8425.334,9439.738,-16998.78,-8647.095,18515.951
955904.4976897856,-7309.245,-31952.963,12011.23,8413.778,9422.201,-17001.018,-8661.052,18508.424
955904.5016897818,-7312.8257,-31960.166,12007.8125,8409.018,9415.731,-17002.035,-8668.051,18506.389
955904.505689778,-7302.49,-31951.742,12010.417,8412.802,9415.039,-16995.973,-8655.762,18520.955
955904.5096897742,-7298.503,-31944.621,12005.981,8413.737,9424.194,-16993.652,-8649.17,18526.814
955904.5136897705,-7303.752,-31948.203,11998.129,8407.187,9423.137,-16992.799,-8648.193,18529.95
955904.5176897667,-7312.785,-31959.27,11994.67,8401.245,9419.882,-16989.99,-8649.902,18529.42
955904.521689763,-7315.837,-31962.77,11997.6,8404.094,9422.7295,-16990.438,-8645.671,18531.332
955904.5256897593,-7305.542,-31958.008,12006.308,8413.737,9430.868,-16990.438,-8641.439,18531.291
955904.5296897555,-7296.794,-31956.219,12014.812,8416.504,9427.409,-16991.17,-8642.782,18527.14
955904.5336897518,-7301.351,-31962.24,12007.568,8406.982,9416.952,-16994.508,-8644.816,18529.623
955904.537689748,-7310.832,-31969.564,11994.101,8397.177,9413.493,-16995.688,-8647.787,18529.297
955904.5416897442,-7310.466,-31970.582,11993.571,8398.967,9416.626,-16992.27,-8640.585,18533.814
955904.5456897405,-7312.785,-31969.688,11993.734,8400.513,9415.243,-16994.305,-8642.375,18526.164
955904.5496897367,-7318.1562,-31970.297,11999.756,8403.646,9416.423,-16992.229,-8646.77,18518.23
955904.5536897329,-7329.2236,-31979.004,11998.413,8401.123,9410.156,-16990.113,-8651.123,18515.137
955904.5576897291,-7323.161,-31980.674,11999.35,8399.78,9402.873,-16989.625,-8648.4375,18523.113
955904.5616897254,-7311.5645,-31975.871,12005.737,8403.158,9406.982,-16991.252,-8649.658,18527.832
955904.5656897217,-7295.532,-31968.059,12014.486,8411.825,9418.173,-16991.578,-8648.234,18523.357
955904.569689718,-7295.166,-31970.094,12011.353,8412.476,9414.714,-16994.996,-8650.473,18517.416
955904.5736897142,-7307.821,-31982.016,12003.012,8402.426,9405.518,-16997.152,-8658.732,18508.586
955904.5776897104,-7319.133,-31987.184,11996.542,8395.752,9402.385,-16996.623,-8667.521,18498.332
955904.5816897067,-7315.1045,-31982.871,11997.519,8398.723,9402.426,-16998.455,-8670.939,18493.855
955904.5856897029,-7298.6655,-31972.941,12007.69,8406.738,9406.047,-16997.152,-8666.992,18502.117
955904.5896896991,-7292.928,-31971.965,12011.068,8407.878,9408.61,-16998.82,-8664.714,18502.93
955904.5936896953,-7295.7764,-31972.047,12005.737,8403.28,9409.506,-17000.773,-8661.743,18505.86
955904.5976896916,-7298.055,-31973.553,12007.528,8399.211,9410.034,-17002.93,-8661.743,18509.93
955904.6016896878,-7293.905,-31969.361,12006.714,8402.67,9415.527,-17003.377,-8660.075,18507.527
955904.6056896842,-7292.1143,-31965.21,12009.521,8408.529,9417.766,-17001.465,-8657.512,18509.686
955904.6096896804,-7290.7715,-31962.646,12012.004,8412.964,9420.37,-16999.268,-8653.239,18520.223
955904.6136896766,-7290.08,-31970.053,12007.69,8410.197,9421.062,-16991.537,-8653.239,18522.055
955904.6176896729,-7298.9097,-31977.703,11997.437,8400.065,9409.343,-16990.643,-8657.1455,18523.764
955904.6216896691,-7296.875,-31974.854,11998.129,8399.008,9404.379,-16994.305,-8655.233,18526.49
955904.6256896653,-7290.324,-31971.885,12004.924,8402.954,9408.691,-17001.303,-8654.623,18524.537
955904.6296896616,-7295.4917,-31977.58,12003.622,8400.473,9409.994,-17009.441,-8662.109,18515.137
955904.6336896578,-7307.0884,-31987.184,11997.559,8394.328,9403.442,-17009.686,-8670.492,18510.865
955904.637689654,-7315.3486,-31992.148,11991.699,8391.357,9403.239,-17002.4,-8673.991,18503.906
955904.6416896504,-7310.262,-31991.62,11995.158,8393.515,9403.728,-17000.041,-8671.347,18499.92
955904.6456896466,-7301.88,-31975.342,12000.326,8402.954,9413.208,-16998.088,-8659.953,18504.762
955904.6496896428,-7304.118,-31977.54,12002.279,8401.9375,9410.767,-17003.012,-8658.813,18509.889
955904.6536896391,-7308.431,-31990.602,11996.135,8393.677,9405.273,-17006.633,-8661.987,18513.51
955904.6576896353,-7322.469,-32006.309,11986.898,8384.97,9397.095,-17004.883,-8668.457,18506.389
955904.6616896315,-7326.0093,-32003.459,11984.335,8384.766,9393.474,-17004.191,-8672.241,18502.035
955904.6656896278,-7325.3584,-32003.826,11986.938,8387.289,9388.55,-17006.592,-8672.526,18498.658
955904.669689624,-7323.283,-32002.688,11986.247,8387.289,9387.573,-17011.434,-8677.409,18487.672
955904.6736896202,-7321.737,-31999.268,11984.416,8385.417,9390.137,-17012.777,-8677.45,18489.422
955904.6776896165,-7327.8403,-32002.646,11981.894,8382.08,9388.876,-17010.906,-8676.596,18488.525
955904.6816896128,-7323.039,-32011.11,11983.562,8381.389,9386.679,-17011.271,-8676.758,18492.066
955904.685689609,-7319.092,-32005.535,11989.258,8386.638,9391.154,-17013.51,-8673.096,18490.967
955904.6896896053,-7322.1436,-32001.1,11992.676,8389.812,9400.146,-17012.492,-8674.398,18488.893
955904.6936896015,-7320.3125,-32010.459,11991.984,8385.824,9387.329,-17013.592,-8674.927,18488.078
955904.6976895977,-7320.516,-32015.545,11987.143,8380.656,9380.656,-17013.225,-8676.188,18489.096
955904.701689594,-7317.302,-32011.842,11985.312,8383.057,9383.505,-17012.492,-8673.096,18491.293
955904.7056895902,-7304.525,-32002.28,11995.402,8392.375,9389.16,-17008.22,-8656.982,18510.213
955904.7096895864,-7303.508,-32001.547,11996.298,8390.178,9389.893,-17006.795,-8658.691,18507.812
955904.7136895827,-7311.6865,-32004.07,11991.537,8385.173,9395.061,-17004.924,-8662.924,18503.785
955904.7176895789,-7322.0215,-32016.44,11978.516,8375.8545,9390.422,-17006.877,-8669.678,18500.326
955904.7216895752,-7317.4644,-32020.51,11981.242,8379.069,9383.667,-17007.977,-8672.079,18498.129
955904.7256895715,-7311.157,-32014.65,11990.479,8387.411,9381.999,-17006.715,-8671.713,18493.123
955904.7296895677,-7312.663,-32010.662,11991.415,8388.876,9383.464,-17005.371,-8669.189,18493.611
955904.7336895639,-7320.7197,-32014.73,11986.044,8381.267,9378.215,-17008.18,-8674.438,18493.49
955904.7376895602,-7327.6777,-32019.37,11980.103,8375.122,9376.059,-17010.701,-8678.061,18494.588
955904.7416895564,-7324.585,-32022.055,11978.516,8374.35,9373.332,-17012.045,-8676.799,18501.873
955904.7456895526,-7325.8057,-32019.084,11980.957,8376.14,9378.906,-17013.387,-8674.561,18500.611
955904.7496895489,-7326.172,-32013.957,11985.107,8378.296,9383.993,-17014.527,-8674.113,18495.525
955904.7536895451,-7328.288,-32020.754,11983.032,8376.791,9385.498,-17014.16,-8674.643,18494.14
955904.7576895413,-7336.1816,-32031.943,11970.459,8370.117,9374.431,-17015.38,-8677.531,18491.984
955904.7616895377,-7341.716,-32038.615,11969.6455,8367.106,9369.141,-17018.352,-8681.763,18485.799
955904.7656895339,-7333.008,-32037.15,11978.19,8373.291,9370.972,-17016.643,-8677.043,18487.102
955904.7696895301,-7329.1426,-32037.924,11979.533,8374.634,9378.378,-17014.852,-8676.799,18492.473
955904.7736895264,-7339.9253,-32045.574,11972.616,8369.06,9373.739,-17013.225,-8677.856,18494.02
955904.7776895226,-7344.0757,-32043.742,11965.576,8363.078,9360.596,-17015.137,-8683.105,18488.404
955904.7816895188,-7338.542,-32031.291,11966.96,8367.432,9367.351,-17016.766,-8684.042,18486.98
955904.7856895151,-7332.113,-32023.967,11973.349,8372.966,9369.792,-17019.166,-8679.647,18488.484
955904.7896895113,-7326.457,-32016.725,11975.871,8375.448,9368.896,-17021.77,-8677.002,18489.543
955904.7936895075,-7319.214,-32009.562,11973.837,8374.472,9371.704,-17020.387,-8674.561,18494.14
955904.7976895039,-7320.964,-32015.016,11972.087,8370.81,9370.81,-17019.207,-8676.636,18500.123
955904.8016895001,-7322.673,-32014.934,11974.854,8372.681,9372.559,-17015.951,-8674.643,18506.389
955904.8056894963,-7308.3496,-32001.71,11980.713,8378.622,9382.895,-17018.678,-8675.131,18503.582
955904.8096894926,-7299.886,-31995.281,11983.317,8380.168,9387.655,-17020.59,-8677.165,18502.32
955904.8136894888,-7300.985,-32000.205,11983.48,8376.384,9383.179,-17018.88,-8678.264,18505.371
955904.817689485,-7301.107,-32007.691,11976.929,8366.943,9373.739,-17024.496,-8683.024,18500.0
955904.8216894813,-7287.6387,-31999.35,11985.515,8370.117,9373.291,-17028.89,-8684.326,18493.408
955904.8256894775,-7283.366,-31996.582,11987.875,8374.756,9375.692,-17029.176,-8684.164,18490.805
955904.8296894737,-7281.82,-31994.793,11986.654,8375.204,9376.262,-17028.564,-8686.035,18488.363
955904.83368947,-7284.953,-31999.35,11984.701,8371.216,9375.041,-17026.775,-8690.43,18480.916
955904.8376894663,-7291.545,-32006.227,11976.848,8364.543,9370.972,-17027.914,-8695.435,18475.912
955904.8416894625,-7288.9,-32000.367,11977.621,8364.99,9370.483,-17028.89,-8691.61,18484.986
955904.8456894588,-7284.424,-31992.96,11984.294,8372.233,9376.465,-17025.92,-8680.298,18495.361
955904.849689455,-7287.5166,-31997.64,11986.816,8373.535,9372.233,-17024.496,-8678.386,18492.84
955904.8536894512,-7286.174,-31999.676,11985.637,8367.31,9364.014,-17026.002,-8685.385,18477.824
955904.8576894475,-7299.968,-32011.271,11970.663,8356.405,9359.213,-17028.28,-8692.505,18465.291
955904.8616894437,-7303.508,-32023.357,11968.588,8355.754,9359.131,-17028.605,-8696.33,18471.232
955904.8656894399,-7302.3276,-32023.072,11973.145,8360.434,9361.206,-17028.564,-8694.052,18472.25
955904.8696894362,-7298.7876,-32019.248,11977.011,8365.194,9364.787,-17026.205,-8693.604,18466.105
955904.8736894324,-7303.6704,-32026.979,11972.941,8360.515,9363.525,-17026.246,-8695.842,18473.592
955904.8776894287,-7316.325,-32039.918,11963.949,8350.383,9356.039,-17032.674,-8710.409,18466.146
955904.881689425,-7318.2783,-32038.941,11961.06,8350.139,9355.998,-17037.436,-8713.298,18464.479
955904.8856894212,-7321.859,-32041.545,11961.914,8352.011,9353.3125,-17037.232,-8707.235,18470.094
955904.8896894174,-7326.7417,-32038.86,11962.321,8354.208,9357.992,-17033.488,-8701.01,18474.895
955904.8936894137,-7327.8,-32042.645,11961.63,8353.109,9356.283,-17031.861,-8701.172,18473.959
955904.8976894099,-7333.74,-32054.77,11954.916,8345.622,9345.825,-17034.668,-8708.456,18466.105
955904.9016894061,-7338.135,-32054.69,11952.434,8348.308,9348.267,-17033.65,-8708.74,18461.223
955904.9056894024,-7333.4556,-32049.807,11958.822,8354.045,9354.37,-17031.291,-8701.335,18459.676
955904.9096893986,-7317.668,-32039.836,11968.506,8359.009,9362.712,-17031.82,-8700.521,18461.834
955904.913689395,-7314.901,-32043.418,11967.773,8355.266,9354.086,-17033.123,-8703.573,18467.53
955904.9176893912,-7329.061,-32060.02,11958.7,8345.012,9347.616,-17034.668,-8705.852,18467.652
955904.9216893874,-7329.5493,-32058.188,11958.171,8347.209,9353.271,-17034.912,-8700.603,18472.168
955904.9256893836,-7315.8774,-32046.713,11962.036,8354.289,9355.917,-17036.133,-8695.517,18476.36
955904.9296893799,-7312.9883,-32043.092,11967.8955,8355.632,9349.936,-17034.994,-8694.336,18476.4
955904.9336893761,-7315.7554,-32051.678,11968.791,8353.801,9347.372,-17028.688,-8694.743,18473.959
955904.9376893723,-7323.3237,-32060.508,11960.9375,8346.313,9342.285,-17027.914,-8700.644,18475.545
955904.9416893686,-7330.6074,-32065.92,11957.927,8342.204,9340.454,-17030.682,-8704.387,18477.621
955904.9456893648,-7324.992,-32059.896,11960.002,8347.372,9344.238,-17031.535,-8701.62,18479.045
955904.949689361,-7320.923,-32057.822,11963.705,8350.79,9349.731,-17031.576,-8697.429,18479.33
955904.9536893574,-7323.039,-32065.064,11961.548,8347.778,9344.727,-17028.564,-8698.242,18478.924
955904.9576893536,-7335.205,-32065.227,11953.369,8342.407,9339.56,-17028.28,-8706.503,18473.348
955904.9616893498,-7329.9155,-32063.682,11957.52,8346.721,9345.012,-17027.264,-8705.322,18463.094
955904.9656893461,-7317.912,-32063.03,11962.199,8352.377,9346.802,-17023.682,-8696.981,18463.299
955904.9696893423,-7318.807,-32062.094,11963.176,8355.347,9354.289,-17020.102,-8693.604,18470.785
955904.9736893385,-7328.247,-32075.115,11958.456,8348.471,9348.796,-17015.666,-8695.476,18477.498
955904.9776893348,-7336.263,-32080.16,11951.132,8340.902,9343.628,-17019.49,-8702.637,18475.668
955904.981689331,-7333.618,-32077.719,11949.829,8342.978,9348.1045,-17023.846,-8701.864,18480.184
955904.9856893272,-7332.845,-32077.312,11953.776,8346.965,9351.889,-17024.21,-8699.626,18472.371
955904.9896893235,-7332.845,-32078.086,11959.961,8348.227,9350.83,-17023.479,-8700.277,18467.326
955904.9936893198,-7330.4443,-32079.754,11956.218,8344.971,9349.121,-17020.955,-8696.777,18477.133
955904.997689316,-7338.7046,-32085.613,11948.324,8338.542,9343.018,-17020.834,-8698.08,18476.807
955905.0016893123,-7338.745,-32081.545,11952.434,8342.204,9345.419,-17017.537,-8691.447,18484.254
955905.0056893085,-7331.177,-32075.562,11958.862,8347.9,9347.453,-17018.19,-8689.087,18482.504
955905.0096893047,-7331.218,-32081.545,11960.205,8347.006,9345.419,-17018.88,-8690.1455,18477.336
955905.013689301,-7338.501,-32091.555,11956.381,8343.832,9343.506,-17017.986,-8688.803,18484.01
955905.0176892972,-7350.3013,-32097.617,11947.307,8335.002,9340.21,-17022.95,-8694.092,18484.457
955905.0216892934,-7344.6045,-32093.588,11947.144,8337.24,9344.442,-17025.31,-8694.987,18483.725
955905.0256892897,-7335.327,-32093.67,11956.909,8344.157,9341.635,-17026.326,-8691.528,18485.88
955905.029689286,-7331.706,-32088.95,11960.693,8346.273,9347.046,-17026.408,-8688.07,18487.102
955905.0336892823,-7327.1895,-32090.496,11964.355,8347.534,9345.053,-17021.322,-8687.419,18484.416
955905.0376892785,-7335.6934,-32096.518,11954.0205,8338.135,9336.06,-17024.455,-8698.364,18472.332
955905.0416892747,-7337.4023,-32095.705,11952.23,8337.036,9338.827,-17024.17,-8701.213,18473.918
955905.045689271,-7331.0547,-32092.652,11960.815,8342.57,9343.466,-17023.396,-8701.823,18473.756
955905.0496892672,-7328.9795,-32092.49,11961.874,8344.32,9343.588,-17023.764,-8701.579,18472.535
955905.0536892634,-7330.8516,-32090.74,11958.822,8342.245,9344.157,-17019.207,-8698.771,18481.08
955905.0576892596,-7337.9316,-32097.453,11957.031,8336.996,9340.983,-17017.416,-8698.649,18480.672
955905.0616892559,-7331.9907,-32094.973,11957.438,8341.064,9344.198,-17015.34,-8691.936,18486.492
955905.0656892521,-7323.161,-32089.805,11963.013,8346.884,9350.708,-17016.033,-8685.791,18491.781
955905.0696892485,-7324.0967,-32086.834,11964.478,8345.5,9352.946,-17020.752,-8686.279,18490.887
955905.0736892447,-7325.6025,-32089.479,11962.118,8341.431,9347.941,-17019.287,-8686.401,18495.77
955905.0776892409,-7332.2754,-32097.047,11955.811,8337.443,9344.727,-17017.781,-8692.099,18493.408
955905.0816892372,-7330.0376,-32090.537,11959.311,8343.466,9344.687,-17015.748,-8688.11,18495.77
955905.0856892334,-7322.0625,-32087.363,11965.536,8348.877,9349.65,-17018.31,-8686.401,18492.229
955905.0896892296,-7322.917,-32090.74,11966.309,8348.022,9356.242,-17014.73,-8686.687,18491.252
955905.0936892258,-7333.74,-32096.03,11959.473,8340.861,9347.046,-17009.848,-8686.728,18494.914
955905.0976892221,-7344.0757,-32103.312,11948.486,8330.852,9336.426,-17012.533,-8691.895,18500.203
955905.1016892183,-7341.838,-32105.389,11950.806,8333.781,9342.978,-17013.998,-8689.738,18503.947
955905.1056892145,-7331.2583,-32103.557,11961.508,8341.797,9349.04,-17012.898,-8681.396,18506.104
955905.1096892109,-7322.5913,-32095.744,11968.588,8346.721,9350.464,-17008.504,-8675.212,18510.457
955905.1136892071,-7323.6084,-32103.395,11967.855,8342.204,9345.5,-17006.633,-8678.752,18513.143
955905.1176892034,-7336.1006,-32111.37,11961.101,8333.293,9338.827,-17010.254,-8692.79,18504.273
955905.1216891996,-7335.653,-32106.895,11955.526,8334.799,9340.373,-17007.691,-8690.674,18501.709
955905.1256891958,-7326.1313,-32095.297,11966.228,8342.041,9344.442,-17007.0,-8687.907,18500.652
955905.129689192,-7330.2817,-32100.791,11962.81,8340.007,9346.3545,-17009.604,-8691.04,18496.664
955905.1336891883,-7335.449,-32114.707,11954.875,8334.88,9343.384,-17010.01,-8696.452,18487.469
955905.1376891845,-7343.2617,-32122.682,11946.005,8328.695,9339.152,-17011.76,-8704.468,18475.586
955905.1416891807,-7337.8096,-32117.758,11949.504,8333.049,9340.576,-17012.371,-8703.9795,18473.797
955905.145689177,-7331.421,-32102.215,11959.066,8344.768,9349.528,-17012.045,-8696.574,18476.074
955905.1496891733,-7325.155,-32094.035,11964.071,8348.633,9351.278,-17012.615,-8689.128,18487.184
955905.1536891696,-7325.5615,-32097.658,11960.368,8344.482,9344.6455,-17009.766,-8687.785,18505.494
955905.1576891658,-7329.6714,-32100.953,11957.764,8341.024,9342.692,-17008.22,-8691.813,18502.564
955905.161689162,-7329.061,-32102.541,11956.543,8340.698,9341.146,-17009.197,-8693.604,18500.326
955905.1656891583,-7326.457,-32096.885,11957.724,8342.611,9339.519,-17012.818,-8694.174,18494.549
955905.1696891545,-7322.3877,-32096.682,11961.548,8343.669,9341.553,-17014.04,-8696.249,18491.902
955905.1736891507,-7322.795,-32102.053,11958.537,8340.698,9338.664,-17015.38,-8697.266,18495.646
955905.177689147,-7324.707,-32104.25,11960.002,8339.804,9336.223,-17014.16,-8699.829,18499.432
955905.1816891432,-7323.3643,-32110.19,11960.49,8341.105,9342.407,-17015.26,-8701.742,18498.21
955905.1856891395,-7321.452,-32103.557,11959.555,8345.907,9353.394,-17013.957,-8696.127,18503.338
955905.1896891358,-7315.4297,-32095.785,11965.454,8350.668,9360.2295,-17009.848,-8691.936,18502.686
955905.193689132,-7310.14,-32095.785,11965.617,8349.936,9357.87,-17005.982,-8690.512,18505.86
955905.1976891282,-7312.0933,-32099.57,11962.932,8346.68,9350.302,-17002.523,-8690.512,18510.498
955905.2016891245,-7319.6616,-32100.465,11959.595,8344.89,9346.3955,-17003.947,-8692.505,18506.512
955905.2056891207,-7312.5815,-32100.871,11968.425,8350.18,9345.093,-17004.273,-8687.094,18502.197
955905.2096891169,-7307.7393,-32100.18,11973.796,8352.173,9343.832,-17001.629,-8686.809,18496.42
955905.2136891132,-7310.1807,-32101.035,11964.519,8344.035,9338.705,-17001.588,-8694.418,18494.914
955905.2176891094,-7320.516,-32109.336,11955.038,8335.734,9333.456,-17000.326,-8696.859,18498.455
955905.2216891056,-7321.859,-32110.434,11955.607,8338.42,9333.862,-16998.943,-8696.167,18497.07
955905.225689102,-7316.976,-32108.645,11963.298,8346.029,9339.966,-16996.338,-8689.901,18499.35
955905.2296890982,-7316.9355,-32103.15,11970.053,8350.546,9342.245,-16995.688,-8685.751,18502.32
955905.2336890944,-7316.3657,-32104.453,11967.733,8344.809,9340.942,-16995.932,-8689.779,18496.826
955905.2376890907,-7319.214,-32106.527,11961.914,8339.6,9337.891,-16995.281,-8692.261,18501.588
955905.2416890869,-7316.1216,-32102.012,11962.036,8340.78,9339.804,-16996.42,-8692.18,18503.459
955905.2456890831,-7313.1104,-32090.129,11967.041,8345.947,9347.982,-16997.64,-8692.099,18506.104
955905.2496890794,-7308.0244,-32086.508,11972.86,8348.837,9348.389,-16996.664,-8687.094,18511.678
955905.2536890756,-7306.1523,-32087.078,11967.489,8345.744,9343.506,-16995.605,-8688.843,18503.582
955905.2576890718,-7310.791,-32094.443,11965.17,8343.303,9339.355,-16993.205,-8688.07,18503.785
955905.261689068,-7312.419,-32095.5,11963.135,8341.594,9335.246,-16994.588,-8689.616,18509.766
955905.2656890644,-7307.617,-32094.768,11965.983,8344.076,9337.158,-16995.281,-8689.697,18511.883
955905.2696890606,-7305.3794,-32089.193,11967.082,8345.866,9338.623,-16991.375,-8686.076,18515.828
955905.2736890569,-7316.854,-32100.424,11955.119,8337.199,9333.618,-16990.723,-8688.925,18516.805
955905.2776890531,-7331.3804,-32111.654,11944.743,8326.335,9320.923,-16993.979,-8698.039,18506.47
955905.2816890493,-7336.589,-32114.178,11947.673,8328.613,9318.97,-16992.84,-8695.761,18504.762
955905.2856890456,-7329.59,-32111.695,11954.794,8337.036,9325.195,-16986.37,-8686.279,18506.227
955905.2896890418,-7321.452,-32108.4,11960.734,8342.407,9327.475,-16980.957,-8685.263,18499.676
955905.293689038,-7329.712,-32117.717,11952.189,8333.374,9320.557,-16980.469,-8695.3125,18494.467
955905.2976890343,-7346.273,-32131.105,11940.552,8318.319,9312.256,-16988.973,-8712.524,18480.104
955905.3016890306,-7347.209,-32132.285,11942.383,8320.883,9315.593,-16992.596,-8713.461,18479.736
955905.3056890268,-7339.6406,-32123.088,11944.499,8329.0205,9320.842,-16992.676,-8707.438,18485.637
955905.3096890231,-7333.618,-32117.148,11950.033,8332.805,9317.546,-16989.91,-8699.789,18492.352
955905.3136890193,-7340.251,-32123.861,11943.481,8326.742,9315.227,-16987.346,-8699.992,18493.287
955905.3176890155,-7347.412,-32129.844,11941.447,8323.568,9311.85,-16985.434,-8699.097,18485.88
955905.3216890118,-7347.9004,-32127.32,11945.354,8327.067,9316.8545,-16989.096,-8698.527,18485.76
955905.325689008,-7339.6406,-32119.102,11952.067,8332.886,9320.883,-16992.27,-8700.358,18485.637
955905.3296890042,-7338.501,-32118.531,11953.573,8335.49,9328.573,-16993.855,-8699.829,18488.078
955905.3336890005,-7338.908,-32121.014,11949.87,8330.7295,9321.615,-16991.822,-8703.573,18491.455
955905.3376889967,-7346.4766,-32122.64,11942.302,8323.039,9310.669,-16992.879,-8710.571,18487.713
955905.341688993,-7344.1978,-32123.902,11942.79,8325.766,9317.953,-16991.74,-8709.595,18489.46
955905.3456889893,-7335.653,-32118.572,11954.102,8337.443,9326.945,-16989.299,-8701.335,18496.99
955905.3496889855,-7324.829,-32111.086,11962.851,8343.547,9331.381,-16989.502,-8696.777,18495.605
955905.3536889817,-7326.7417,-32113.242,11958.456,8337.036,9327.922,-16991.414,-8706.015,18486.248
955905.357688978,-7336.5073,-32124.92,11950.195,8327.353,9320.15,-16995.281,-8713.054,18478.15
955905.3616889742,-7332.113,-32120.729,11953.207,8328.898,9319.987,-16994.71,-8708.7,18480.998
955905.3656889704,-7331.014,-32109.172,11951.864,8333.456,9324.789,-16993.49,-8701.701,18489.543
955905.3696889667,-7328.7764,-32114.299,11955.363,8335.083,9326.457,-16990.846,-8693.441,18501.059
955905.3736889629,-7326.335,-32121.217,11956.747,8333.496,9323.039,-16988.322,-8692.383,18502.564
955905.3776889591,-7324.2188,-32120.12,11951.01,8329.794,9323.08,-16989.91,-8698.202,18495.24
955905.3816889555,-7319.9463,-32114.787,11955.282,8332.316,9323.486,-16988.566,-8694.052,18503.338
955905.3856889517,-7320.1094,-32100.994,11959.88,8339.071,9331.991,-16991.008,-8689.453,18509.156
955905.3896889479,-7310.7505,-32095.094,11964.071,8342.041,9329.59,-16990.602,-8686.809,18514.934
955905.3936889442,-7305.176,-32096.477,11962.24,8337.321,9322.47,-16986.98,-8686.279,18515.828
955905.3976889404,-7311.8086,-32101.32,11956.543,8329.428,9312.46,-16983.074,-8691.284,18508.26
955905.4016889366,-7313.5986,-32103.924,11956.218,8331.462,9319.58,-16983.195,-8694.255,18502.238
955905.4056889329,-7314.25,-32103.924,11959.88,8336.508,9324.667,-16983.725,-8691.8545,18497.682
955905.4096889291,-7322.4287,-32112.59,11955.241,8333.781,9324.057,-16983.033,-8696.696,18494.793
955905.4136889253,-7330.2,-32120.2,11948.69,8326.254,9317.465,-16986.084,-8706.015,18485.434
955905.4176889217,-7332.845,-32130.982,11941.895,8318.97,9310.425,-16984.66,-8708.944,18488.201
955905.4216889179,-7323.12,-32118.084,11949.301,8326.864,9319.702,-16980.389,-8698.649,18503.338
955905.4256889141,-7310.3438,-32102.012,11961.63,8335.897,9331.381,-16981.16,-8692.017,18505.412
955905.4296889104,-7307.414,-32103.557,11963.908,8336.752,9330.811,-16981.365,-8691.081,18501.14
955905.4336889066,-7318.319,-32112.184,11961.63,8331.462,9322.754,-16982.586,-8692.79,18503.785
955905.4376889028,-7317.749,-32112.916,11961.833,8332.968,9322.673,-16980.55,-8687.256,18513.021
955905.4416888991,-7311.157,-32112.875,11965.048,8335.449,9323.08,-16980.266,-8685.344,18515.34
955905.4456888953,-7310.669,-32109.295,11967.814,8337.524,9326.498,-16980.672,-8683.879,18517.742
955905.4496888915,-7310.3027,-32101.523,11967.814,8340.902,9333.212,-16978.516,-8681.396,18519.002
955905.4536888878,-7313.884,-32113.73,11965.048,8335.693,9326.457,-16977.783,-8685.995,18516.113
955905.4576888841,-7324.4224,-32122.438,11956.828,8327.922,9319.987,-16980.266,-8695.028,18506.186
955905.4616888803,-7326.4976,-32123.21,11955.7705,8327.515,9322.429,-16984.13,-8698.12,18500.164
955905.4656888766,-7315.4297,-32117.19,11963.745,8334.921,9331.787,-16987.752,-8696.086,18500.203
955905.4696888728,-7306.722,-32108.4,11972.006,8338.664,9331.665,-16985.637,-8692.261,18505.574
955905.473688869,-7306.234,-32104.941,11971.313,8334.88,9328.532,-16981.73,-8688.3955,18510.174
955905.4776888653,-7311.035,-32112.469,11966.269,8329.509,9322.185,-16979.33,-8685.141,18516.398
955905.4816888615,-7315.837,-32116.09,11962.932,8329.387,9322.104,-16978.516,-8685.466,18519.531
955905.4856888577,-7313.9243,-32111.695,11964.519,8333.7,9326.132,-16981.324,-8686.728,18514.404
955905.489688854,-7312.175,-32115.44,11965.292,8334.147,9327.515,-16980.998,-8687.704,18506.43
955905.4936888502,-7314.575,-32120.402,11958.415,8329.062,9321.33,-16978.639,-8684.937,18516.113
955905.4976888465,-7312.175,-32115.602,11956.828,8326.05,9318.522,-16978.516,-8686.117,18521.16
955905.5016888428,-7306.1934,-32106.61,11959.677,8328.41,9320.557,-16980.062,-8685.344,18525.799
955905.505688839,-7298.259,-32091.146,11968.954,8336.345,9332.561,-16978.191,-8678.711,18529.826
955905.5096888352,-7301.5547,-32107.016,11965.861,8332.4795,9325.888,-16979.29,-8681.071,18527.914
955905.5136888315,-7306.6816,-32116.578,11959.514,8326.335,9321.94,-16977.947,-8685.263,18527.1
955905.5176888277,-7314.8193,-32119.508,11955.811,8323.486,9321.045,-16975.871,-8693.93,18518.19
955905.5216888239,-7312.663,-32120.322,11960.449,8326.05,9320.923,-16975.871,-8696.859,18506.836
955905.5256888202,-7300.7407,-32116.008,11964.844,8333.252,9320.517,-16975.668,-8692.871,18507.812
955905.5296888164,-7298.055,-32108.848,11967.529,8335.775,9320.923,-16975.057,-8691.895,18509.604
955905.5336888126,-7309.9775,-32111.37,11959.392,8326.782,9314.535,-16977.418,-8695.354,18511.963
955905.537688809,-7320.2314,-32120.443,11949.585,8320.272,9310.995,-16979.412,-8698.894,18512.777
955905.5416888052,-7319.58,-32120.402,11954.59,8323.608,9311.117,-16981.445,-8697.226,18514.975
955905.5456888014,-7305.461,-32120.402,11969.238,8335.083,9319.906,-16979.045,-8689.006,18520.672
955905.5496887977,-7303.5483,-32125.164,11970.378,8337.769,9326.132,-16978.842,-8687.582,18529.785
955905.5536887939,-7304.281,-32138.186,11964.722,8335.124,9320.923,-16978.598,-8688.721,18526.57
955905.5576887901,-7307.7393,-32151.45,11959.066,8328.085,9311.035,-16979.127,-8697.104,18511.395
955905.5616887864,-7307.373,-32151.531,11958.374,8326.538,9310.791,-16980.754,-8698.283,18501.912
955905.5656887826,-7302.002,-32144.125,11964.844,8331.421,9313.599,-16977.824,-8690.471,18504.354
955905.5696887788,-7302.2056,-32142.824,11967.978,8332.316,9313.721,-16973.959,-8683.879,18515.748
955905.5736887752,-7311.2793,-32149.62,11961.792,8327.759,9317.546,-16971.883,-8681.234,18522.95
955905.5776887714,-7315.389,-32154.135,11954.468,8322.795,9318.726,-16970.785,-8686.564,18523.193
955905.5816887676,-7319.499,-32154.176,11952.759,8323.771,9320.109,-16973.756,-8689.453,18518.799
955905.5856887639,-7310.954,-32146.77,11960.368,8330.7295,9322.388,-16974.812,-8686.401,18518.025
955905.5896887601,-7301.107,-32143.88,11966.716,8334.88,9323.364,-16970.662,-8679.362,18524.658
955905.5936887563,-7300.293,-32141.318,11966.797,8333.618,9317.18,-16964.355,-8671.713,18533.447
955905.5976887526,-7310.5063,-32151.613,11960.449,8326.538,9315.756,-16963.746,-8674.072,18536.947
955905.6016887488,-7311.361,-32153.281,11961.426,8327.597,9314.169,-16961.71,-8675.212,18541.098
955905.605688745,-7306.5596,-32149.13,11965.414,8332.846,9315.063,-16963.176,-8671.062,18540.854
955905.6096887413,-7313.3545,-32151.734,11961.63,8328.654,9316.366,-16966.35,-8670.41,18536.336
955905.6136887376,-7324.585,-32159.914,11947.348,8318.4,9309.814,-16967.244,-8676.718,18533.57
955905.6176887339,-7330.892,-32166.139,11941.04,8313.843,9304.647,-16966.838,-8683.228,18530.273
955905.6216887301,-7323.7715,-32162.03,11948.771,8321.777,9308.432,-16965.008,-8682.373,18529.217
955905.6256887263,-7311.971,-32153.281,11962.199,8332.927,9314.453,-16964.559,-8677.246,18528.564
955905.6296887225,-7308.187,-32155.314,11960.897,8331.299,9309.692,-16964.885,-8678.305,18530.6
955905.6336887188,-7315.593,-32162.559,11955.119,8321.533,9302.897,-16965.21,-8690.756,18526.043
955905.637688715,-7324.585,-32172.04,11945.72,8316.569,9299.927,-16965.535,-8688.721,18521.729
955905.6416887112,-7326.1313,-32170.207,11947.266,8319.052,9305.786,-16967.773,-8693.686,18515.79
955905.6456887075,-7313.436,-32166.3,11955.648,8326.945,9310.873,-16969.605,-8692.017,18512.86
955905.6496887037,-7309.7334,-32164.553,11960.124,8330.852,9313.559,-16969.402,-8688.11,18518.393
955905.6536887,-7318.8477,-32170.29,11954.753,8325.317,9315.023,-16969.93,-8690.715,18514.445
955905.6576886963,-7322.551,-32167.4,11950.644,8321.086,9317.302,-16970.379,-8691.772,18513.916
955905.6616886925,-7322.8354,-32168.092,11953.491,8323.894,9312.622,-16974.65,-8688.314,18520.63
955905.6656886888,-7312.175,-32159.344,11958.984,8330.119,9310.791,-16972.25,-8682.536,18528.646
955905.669688685,-7298.9097,-32147.38,11964.478,8335.043,9315.959,-16970.094,-8680.949,18527.996
955905.6736886812,-7299.52,-32151.37,11964.763,8331.828,9309.855,-16971.436,-8679.484,18534.1
955905.6776886774,-7306.0713,-32157.879,11957.235,8324.911,9303.955,-16970.582,-8682.902,18534.832
955905.6816886737,-7307.617,-32163.209,11958.13,8324.748,9306.274,-16967.611,-8679.77,18537.312
955905.6856886699,-7306.2744,-32160.076,11958.537,8328.695,9311.239,-16969.646,-8676.27,18538.045
955905.6896886663,-7305.827,-32156.129,11957.642,8329.306,9315.756,-16971.803,-8679.892,18534.791
955905.6936886625,-7309.448,-32157.229,11954.59,8323.69,9310.466,-16971.15,-8684.042,18535.32
955905.6976886587,-7312.907,-32157.512,11953.003,8319.946,9309.042,-16969.28,-8686.768,18533.488
955905.701688655,-7306.478,-32155.355,11956.218,8322.754,9308.228,-16968.14,-8684.408,18534.139
955905.7056886512,-7298.4214,-32151.652,11963.542,8329.265,9311.89,-16968.262,-8681.112,18537.762
955905.7096886474,-7297.038,-32154.705,11964.56,8330.893,9311.442,-16966.756,-8677.043,18538.045
955905.7136886436,-7307.821,-32166.545,11957.031,8322.917,9303.467,-16965.332,-8685.791,18534.832
955905.7176886399,-7323.4053,-32180.34,11947.266,8313.192,9293.539,-16964.314,-8689.128,18529.826
955905.7216886361,-7319.702,-32177.898,11952.475,8316.406,9297.648,-16962.525,-8685.995,18533.814
955905.7256886323,-7304.3623,-32164.592,11957.683,8322.836,9304.81,-16962.443,-8675.456,18543.336
955905.7296886287,-7298.828,-32159.67,11960.043,8324.87,9307.699,-16958.943,-8666.423,18552.246
955905.7336886249,-7303.467,-32167.4,11958.415,8317.912,9296.916,-16957.684,-8668.498,18553.102
955905.7376886212,-7308.96,-32172.61,11954.062,8315.756,9290.731,-16953.37,-8666.545,18553.06
955905.7416886174,-7309.123,-32173.666,11953.857,8320.639,9294.638,-16953.166,-8661.743,18550.375
955905.7456886136,-7303.955,-32164.43,11960.246,8327.678,9303.793,-16956.828,-8664.185,18546.469
955905.7496886099,-7298.5435,-32155.723,11964.4375,8331.828,9307.983,-16961.508,-8666.83,18544.516
955905.7536886061,-7304.199,-32163.127,11959.106,8322.998,9302.49,-16964.479,-8672.852,18540.691
955905.7576886023,-7311.483,-32175.09,11952.067,8315.634,9296.469,-16964.396,-8678.589,18534.383
955905.7616885985,-7316.5693,-32180.422,11948.039,8316.8545,9299.194,-16967.244,-8681.641,18530.03
955905.7656885948,-7307.9023,-32175.05,11957.438,8323.894,9306.763,-16964.682,-8676.311,18537.191
955905.7696885911,-7305.2573,-32176.23,11959.88,8325.236,9308.798,-16962.85,-8675.415,18539.307
955905.7736885874,-7306.7627,-32179.852,11958.456,8323.202,9305.095,-16962.158,-8676.555,18540.568
955905.7776885836,-7311.7676,-32181.316,11950.806,8318.237,9299.887,-16958.455,-8679.077,18538.33
955905.7816885798,-7308.5127,-32177.613,11952.515,8321.33,9299.357,-16952.352,-8668.701,18556.193
955905.785688576,-7297.16,-32170.127,11961.264,8329.143,9308.635,-16951.254,-8653.239,18585.328
955905.7896885723,-7292.1143,-32165.812,11966.064,8335.409,9314.087,-16949.586,-8643.677,18597.82
955905.7936885685,-7296.102,-32169.11,11964.152,8334.555,9316.65,-16947.43,-8651.001,18583.62
955905.7976885648,-7308.4717,-32180.502,11953.654,8322.673,9306.519,-16953.41,-8675.659,18544.068
955905.801688561,-7312.175,-32184.979,11950.725,8318.522,9301.555,-16959.92,-8681.071,18538.25
955905.8056885572,-7292.3584,-32170.168,11963.013,8330.444,9311.442,-16960.652,-8672.201,18557.129
955905.8096885536,-7279.5005,-32159.506,11972.372,8337.362,9315.796,-16958.984,-8665.8125,18560.1
955905.8136885498,-7282.5117,-32161.826,11967.733,8332.886,9311.157,-16957.56,-8666.626,18554.525
955905.817688546,-7288.493,-32164.633,11959.188,8327.353,9309.123,-16955.322,-8672.363,18546.55
955905.8216885423,-7286.0107,-32164.797,11956.95,8324.423,9303.711,-16954.225,-8666.138,18566.65
955905.8256885385,-7285.8076,-32165.568,11959.758,8328.247,9309.937,-16951.945,-8662.476,18572.348
955905.8296885347,-7288.493,-32167.4,11963.461,8330.038,9314.128,-16952.963,-8665.324,18562.664
955905.833688531,-7293.254,-32173.87,11959.473,8327.963,9321.696,-16951.092,-8667.114,18570.516
955905.8376885272,-7300.6187,-32181.52,11953.654,8325.033,9316.244,-16952.434,-8669.76,18575.154
955905.8416885234,-7296.224,-32179.852,11957.927,8329.59,9312.582,-16948.486,-8666.952,18579.184
955905.8456885198,-7286.947,-32176.76,11963.461,8333.659,9313.192,-16947.998,-8667.074,18574.79
955905.849688516,-7278.9307,-32172.324,11964.4375,8335.002,9318.278,-16948.406,-8661.581,18580.16
955905.8536885122,-7281.3315,-32171.713,11958.537,8326.742,9315.43,-16945.354,-8658.325,18588.338
955905.8576885085,-7288.8184,-32175.578,11956.34,8320.109,9307.943,-16940.797,-8658.977,18587.443
955905.8616885047,-7285.6445,-32179.201,11959.595,8323.12,9302.897,-16935.14,-8653.728,18590.414
955905.8656885009,-7285.034,-32173.748,11960.693,8328.532,9307.983,-16936.932,-8650.065,18590.129
955905.8696884972,-7288.493,-32169.557,11962.24,8330.322,9312.134,-16938.314,-8656.21,18584.84
955905.8736884934,-7303.63,-32181.479,11953.532,8323.69,9314.535,-16940.389,-8670.532,18579.834
955905.8776884896,-7314.494,-32195.639,11944.418,8316.325,9311.605,-16945.842,-8683.554,18573.121
955905.8816884859,-7311.6455,-32198.162,11943.848,8316.528,9310.995,-16951.13,-8690.023,18563.64
955905.8856884822,-7302.2056,-32186.361,11952.353,8323.527,9312.744,-16951.904,-8686.89,18561.932
955905.8896884784,-7293.742,-32181.52,11958.171,8327.922,9310.71,-16949.422,-8681.763,18568.156
955905.8936884747,-7294.7593,-32191.285,11955.404,8321.94,9307.048,-16946.9,-8677.328,18578.004
955905.8976884709,-7295.9395,-32198.65,11954.184,8319.621,9303.793,-16940.105,-8670.085,18587.525
955905.9016884671,-7294.271,-32195.924,11952.841,8321.452,9306.396,-16937.5,-8662.68,18590.252
955905.9056884634,-7289.592,-32188.396,11960.612,8328.939,9313.192,-16938.64,-8652.385,18594.32
955905.9096884596,-7292.7246,-32200.36,11961.101,8329.306,9311.564,-16937.826,-8645.183,18599.285
955905.9136884558,-7304.5654,-32208.904,11951.945,8322.836,9310.954,-16935.791,-8646.851,18593.75
955905.917688452,-7303.9146,-32201.621,11946.615,8318.034,9311.564,-16941.0,-8661.865,18584.107
955905.9216884483,-7302.6123,-32199.26,11949.789,8322.795,9314.047,-16939.088,-8664.389,18584.96
955905.9256884446,-7301.1885,-32198.936,11957.316,8330.933,9320.801,-16932.332,-8657.715,18589.111
955905.9296884409,-7293.376,-32191.732,11961.996,8332.031,9324.707,-16933.92,-8658.0,18586.67
955905.9336884371,-7290.2427,-32191.203,11960.205,8326.538,9324.748,-16933.838,-8658.936,18587.281
955905.9376884333,-7294.271,-32194.988,11958.74,8320.679,9314.25,-16933.229,-8661.459,18585.49
955905.9416884296,-7291.8296,-32193.564,11958.212,8323.405,9311.605,-16932.17,-8657.512,18588.176
955905.9456884258,-7285.2783,-32182.17,11964.844,8335.083,9322.876,-16927.084,-8648.275,18593.67
955905.949688422,-7281.372,-32180.137,11969.035,8339.722,9327.637,-16927.328,-8652.263,18590.129
955905.9536884183,-7288.574,-32190.92,11959.88,8331.665,9320.923,-16931.844,-8660.034,18581.91
955905.9576884145,-7301.0254,-32196.209,11947.388,8324.301,9316.977,-16935.059,-8670.126,18574.586
955905.9616884108,-7308.5127,-32200.766,11946.086,8324.057,9314.128,-16933.309,-8669.963,18566.732
955905.9656884071,-7306.478,-32201.05,11954.59,8327.922,9314.738,-16935.994,-8663.127,18564.9
955905.9696884033,-7296.3867,-32191.855,11958.781,8330.7295,9324.504,-16935.67,-8655.07,18578.654
955905.9736883995,-7286.255,-32182.496,11959.27,8329.997,9333.334,-16929.973,-8647.583,18596.68
955905.9776883958,-7281.006,-32183.799,11958.334,8327.556,9329.753,-16929.363,-8648.642,18600.098
955905.981688392,-7275.3906,-32181.926,11960.124,8332.438,9327.026,-16929.281,-8648.967,18602.418
955905.9856883882,-7274.6177,-32179.525,11960.815,8338.42,9333.7,-16934.45,-8652.304,18595.785
955905.9896883845,-7277.2217,-32183.39,11960.449,8337.81,9326.904,-16938.232,-8665.161,18583.172
955905.9936883807,-7293.01,-32197.715,11948.283,8325.888,9315.1045,-16942.627,-8687.053,18568.4
955905.9976883769,-7308.3906,-32214.152,11937.704,8314.697,9303.752,-16946.168,-8697.185,18556.234
955906.0016883733,-7295.41,-32207.805,11949.016,8322.388,9308.1875,-16943.197,-8691.488,18552.287
955906.0056883695,-7279.012,-32194.094,11964.804,8334.514,9318.808,-16942.709,-8675.822,18566.0
955906.0096883657,-7272.868,-32189.943,11971.3545,8337.118,9321.818,-16944.05,-8665.935,18577.719
955906.013688362,-7271.566,-32187.746,11967.407,8334.595,9325.847,-16941.285,-8665.527,18570.271
955906.0176883582,-7280.7617,-32192.75,11959.147,8329.102,9324.382,-16938.844,-8660.93,18576.295
955906.0216883544,-7286.418,-32196.006,11960.409,8331.909,9323.486,-16935.14,-8649.455,18596.559
955906.0256883507,-7278.076,-32190.188,11967.773,8339.966,9327.841,-16932.332,-8646.2,18586.426
955906.0296883469,-7277.466,-32193.238,11967.245,8339.071,9326.66,-16933.635,-8645.264,18580.404
955906.0336883431,-7284.3833,-32199.627,11958.13,8329.59,9318.767,-16935.182,-8649.252,18570.271
955906.0376883394,-7285.034,-32204.266,11953.613,8326.132,9320.19,-16932.17,-8646.892,18585.408
955906.0416883357,-7279.7446,-32206.828,11959.066,8327.353,9317.79,-16932.82,-8646.811,18585.613
955906.045688332,-7275.9604,-32201.254,11963.745,8333.049,9320.883,-16931.072,-8637.777,18591.879
955906.0496883282,-7270.508,-32194.988,11968.954,8337.646,9330.078,-16929.078,-8633.098,18595.623
955906.0536883244,-7277.385,-32205.69,11965.007,8331.462,9327.881,-16927.734,-8635.417,18597.78
955906.0576883206,-7286.865,-32214.926,11955.2,8323.649,9317.302,-16928.182,-8644.572,18596.232
955906.0616883169,-7280.6396,-32212.16,11958.496,8326.66,9319.865,-16929.402,-8648.723,18591.146
955906.0656883131,-7269.1245,-32203.166,11964.355,8332.153,9324.382,-16933.838,-8649.984,18587.89
955906.0696883093,-7264.16,-32192.994,11965.454,8335.083,9329.875,-16932.008,-8650.065,18589.64
955906.0736883056,-7272.7866,-32202.922,11957.561,8325.847,9321.249,-16929.973,-8657.959,18587.688
955906.0776883019,-7283.0,-32212.688,11948.69,8318.848,9314.372,-16932.537,-8664.348,18583.943
955906.0816882981,-7283.366,-32208.049,11953.044,8324.26,9316.122,-16939.25,-8667.807,18572.348
955906.0856882944,-7272.0947,-32201.174,11962.973,8334.799,9322.0625,-16940.227,-8659.668,18577.516
955906.0896882906,-7265.666,-32205.04,11965.983,8337.199,9321.94,-16939.941,-8654.053,18584.96
955906.0936882868,-7272.624,-32213.217,11960.734,8327.963,9312.988,-16942.18,-8660.156,18585.125
955906.0976882831,-7283.6914,-32223.43,11953.003,8320.109,9304.851,-16943.889,-8666.708,18579.428
955906.1016882793,-7287.435,-32224.936,11949.667,8320.842,9301.311,-16943.93,-8667.5625,18578.328
955906.1056882755,-7286.743,-32224.406,11949.992,8322.714,9301.392,-16944.5,-8671.713,18576.824
955906.1096882718,-7290.2427,-32227.418,11944.824,8320.679,9299.643,-16946.371,-8679.484,18567.018
955906.113688268,-7297.7295,-32233.766,11942.139,8317.831,9297.363,-16945.68,-8683.228,18564.25
955906.1176882643,-7308.5127,-32246.299,11934.408,8311.117,9290.324,-16945.232,-8686.89,18560.547
955906.1216882606,-7302.8975,-32241.945,11940.552,8315.1045,9293.457,-16944.662,-8682.617,18561.85
955906.1256882568,-7286.662,-32227.824,11953.329,8327.026,9306.723,-16939.047,-8668.945,18570.72
955906.129688253,-7279.338,-32220.5,11960.571,8330.444,9311.361,-16934.285,-8661.215,18570.598
955906.1336882493,-7282.6743,-32227.377,11953.247,8322.429,9307.333,-16937.135,-8664.633,18572.43
955906.1376882455,-7286.2144,-32233.318,11948.364,8319.011,9306.845,-16937.988,-8667.5625,18567.465
955906.1416882417,-7284.709,-32231.486,11953.491,8324.097,9307.902,-16936.402,-8662.436,18568.97
955906.145688238,-7275.3906,-32227.012,11963.217,8332.764,9307.617,-16936.97,-8656.169,18572.51
955906.1496882342,-7273.8447,-32226.035,11961.386,8331.991,9310.629,-16937.5,-8655.925,18581.584
955906.1536882304,-7282.43,-32234.01,11951.498,8321.493,9304.77,-16936.85,-8661.337,18583.416
955906.1576882268,-7288.9,-32243.043,11942.912,8314.331,9299.235,-16934.45,-8666.138,18578.451
955906.161688223,-7291.9517,-32245.973,11943.686,8313.559,9295.614,-16934.082,-8668.498,18572.104
955906.1656882192,-7289.5103,-32244.63,11950.236,8317.912,9299.643,-16933.432,-8664.633,18575.562
955906.1696882155,-7282.2266,-32240.357,11953.532,8320.761,9304.443,-16934.855,-8665.771,18575.36
955906.1736882117,-7284.6274,-32244.59,11948.568,8315.796,9303.101,-16934.367,-8668.986,18578.654
955906.177688208,-7285.726,-32243.734,11946.655,8315.268,9301.066,-16933.025,-8668.661,18580.201
955906.1816882042,-7285.3193,-32242.393,11951.132,8319.621,9301.311,-16931.396,-8668.539,18581.746
955906.1856882004,-7277.6694,-32237.102,11954.712,8323.527,9303.63,-16932.82,-8663.9,18592.244
955906.1896881966,-7271.6064,-32231.975,11957.886,8323.8125,9302.897,-16933.758,-8662.191,18589.314
955906.1936881929,-7280.0703,-32240.275,11950.847,8316.813,9298.666,-16932.658,-8663.574,18584.88
955906.1976881892,-7294.149,-32251.67,11934.53,8305.624,9295.898,-16935.426,-8669.922,18583.334
955906.2016881855,-7294.5557,-32252.2,11933.554,8308.065,9296.591,-16938.803,-8670.776,18576.904
955906.2056881817,-7284.912,-32248.17,11948.364,8318.93,9299.724,-16936.809,-8665.202,18573.895
955906.2096881779,-7284.2207,-32242.84,11952.922,8324.016,9303.63,-16936.28,-8668.701,18564.697
955906.2136881741,-7287.679,-32253.338,11948.771,8319.946,9296.713,-16934.896,-8672.7705,18567.627
955906.2176881704,-7298.34,-32263.674,11936.687,8310.669,9286.987,-16935.262,-8682.048,18565.512
955906.2216881666,-7297.933,-32263.55,11936.768,8309.367,9284.75,-16936.28,-8682.658,18566.406
955906.2256881628,-7285.482,-32248.576,11947.144,8321.167,9295.614,-16932.252,-8670.898,18577.434
955906.2296881591,-7277.9136,-32238.81,11949.87,8324.097,9302.938,-16930.787,-8666.057,18582.316
955906.2336881554,-7282.593,-32239.828,11944.133,8318.686,9302.816,-16927.531,-8670.98,18578.41
955906.2376881517,-7286.784,-32241.375,11942.993,8315.674,9301.799,-16926.025,-8675.822,18569.58
955906.2416881479,-7281.4536,-32236.818,11950.888,8321.777,9306.071,-16927.654,-8672.934,18574.463
955906.2456881441,-7270.101,-32226.28,11959.147,8328.573,9309.611,-16928.387,-8666.626,18579.59
955906.2496881403,-7265.9507,-32222.861,11962.443,8330.526,9311.768,-16929.078,-8662.598,18581.99
955906.2536881366,-7265.0557,-32221.477,11963.339,8328.166,9307.292,-16927.328,-8662.761,18581.87
955906.2576881328,-7269.287,-32230.47,11955.282,8321.086,9305.014,-16929.646,-8670.126,18579.51
955906.261688129,-7268.7583,-32231.121,11955.7295,8325.725,9309.001,-16931.031,-8669.597,18582.723
955906.2656881253,-7259.6846,-32225.791,11965.658,8333.781,9310.466,-16930.584,-8663.778,18585.652
955906.2696881215,-7261.312,-32227.947,11968.791,8331.828,9311.442,-16932.088,-8665.935,18580.566
955906.2736881179,-7267.904,-32232.26,11961.426,8326.213,9308.065,-16931.64,-8668.986,18581.707
955906.2776881141,-7272.949,-32235.148,11957.275,8321.981,9304.973,-16932.21,-8672.323,18580.16
955906.2816881103,-7269.7754,-32233.074,11960.734,8325.236,9301.474,-16933.309,-8670.41,18579.387
955906.2856881066,-7260.01,-32225.871,11967.326,8330.526,9300.659,-16935.059,-8663.086,18584.229
955906.2896881028,-7257.528,-32222.332,11967.285,8329.143,9303.427,-16933.473,-8656.088,18591.756
955906.293688099,-7260.783,-32226.97,11961.63,8322.714,9302.897,-16929.932,-8651.53,18601.318
955906.2976880952,-7262.37,-32232.79,11956.421,8319.092,9298.869,-16927.531,-8649.292,18604.695
955906.3016880915,-7259.3994,-32234.54,11957.113,8322.307,9298.666,-16927.857,-8648.601,18596.355
955906.3056880877,-7251.953,-32225.994,11965.007,8329.916,9303.874,-16928.67,-8643.2705,18601.318
955906.309688084,-7254.72,-32225.627,11964.844,8328.329,9304.851,-16929.322,-8647.339,18599.203
955906.3136880803,-7262.8174,-32234.58,11961.142,8322.429,9300.171,-16930.95,-8651.408,18586.996
955906.3176880765,-7267.5376,-32242.596,11961.02,8320.231,9294.434,-16928.996,-8652.182,18588.055
955906.3216880728,-7257.121,-32234.742,11967.123,8326.457,9299.438,-16927.166,-8650.676,18587.158
955906.325688069,-7235.9214,-32214.275,11977.905,8337.443,9310.873,-16925.701,-8643.188,18587.2
955906.3296880652,-7238.607,-32217.205,11974.121,8335.897,9311.687,-16924.56,-8644.084,18592.041
955906.3336880615,-7254.0283,-32231.324,11963.623,8327.067,9306.519,-16925.537,-8653.524,18588.95
955906.3376880577,-7263.4688,-32238.322,11953.898,8320.761,9304.932,-16929.078,-8664.429,18578.533
955906.3416880539,-7261.8003,-32235.354,11955.2,8323.08,9304.932,-16931.316,-8671.225,18567.83
955906.3456880501,-7258.464,-32229.697,11962.24,8332.846,9307.251,-16931.396,-8672.119,18567.342
955906.3496880465,-7255.7373,-32233.115,11965.576,8334.961,9308.024,-16930.584,-8668.864,18571.941
955906.3536880427,-7255.9004,-32232.586,11962.362,8329.794,9305.176,-16930.42,-8664.999,18579.06
955906.357688039,-7256.999,-32232.3,11958.903,8325.766,9302.694,-16932.17,-8667.521,18579.754
955906.3616880352,-7254.802,-32229.045,11958.456,8327.515,9307.821,-16931.967,-8661.418,18584.188
955906.3656880314,-7254.4355,-32227.297,11961.833,8331.625,9313.314,-16931.275,-8654.135,18592.611
955906.3696880277,-7251.872,-32226.238,11964.56,8332.642,9316.447,-16926.514,-8651.855,18591.756
955906.3736880239,-7252.116,-32233.807,11961.426,8325.358,9305.217,-16926.066,-8656.291,18585.693
955906.3776880201,-7260.9863,-32246.828,11957.52,8320.883,9297.404,-16923.748,-8659.058,18579.102
955906.3816880164,-7255.9814,-32241.984,11960.571,8325.725,9298.462,-16920.125,-8651.001,18586.549
955906.3856880126,-7244.3037,-32227.744,11968.954,8333.984,9306.967,-16920.777,-8635.376,18596.803
955906.3896880089,-7242.839,-32226.686,11970.703,8334.27,9310.873,-16924.072,-8634.115,18596.191
955906.3936880052,-7247.0703,-32235.598,11965.576,8325.155,9306.967,-16925.457,-8643.474,18591.064
955906.3976880014,-7257.5684,-32245.363,11956.747,8319.662,9301.555,-16924.887,-8653.036,18582.846
955906.4016879976,-7262.451,-32253.176,11955.566,8321.452,9299.4795,-16927.246,-8660.522,18577.027
955906.4056879939,-7258.138,-32251.018,11961.752,8328.41,9299.194,-16929.77,-8661.947,18576.457
955906.4096879901,-7251.872,-32247.152,11966.269,8330.444,9302.897,-16930.096,-8663.168,18578.613
955906.4136879863,-7253.3774,-32246.95,11960.165,8323.649,9303.061,-16927.49,-8662.354,18583.904
955906.4176879826,-7258.2603,-32248.17,11951.335,8316.61,9301.188,-16927.654,-8665.121,18583.09
955906.4216879788,-7254.598,-32243.41,11955.078,8320.964,9309.123,-16926.148,-8660.36,18590.861
955906.425687975,-7242.92,-32234.336,11970.541,8330.648,9311.076,-16923.584,-8650.554,18600.627
955906.4296879714,-7242.5537,-32234.54,11970.337,8329.875,9304.932,-16924.684,-8652.995,18591.676
955906.4336879676,-7247.6807,-32238.607,11966.064,8324.789,9302.287,-16924.398,-8659.424,18581.951
955906.4376879638,-7252.3604,-32243.246,11959.473,8320.068,9299.235,-16925.457,-8663.452,18592.367
955906.4416879601,-7249.2676,-32238.527,11959.961,8321.574,9296.062,-16929.281,-8668.091,18576.66
955906.4456879563,-7239.909,-32234.377,11963.949,8325.114,9295.858,-16927.043,-8662.802,18586.426
955906.4496879525,-7234.782,-32232.3,11966.105,8325.155,9299.154,-16924.643,-8650.595,18593.385
955906.4536879488,-7243.9375,-32237.184,11961.874,8320.598,9301.677,-16922.893,-8643.596,18603.027
955906.457687945,-7258.8706,-32253.459,11951.66,8312.5,9297.038,-16924.846,-8653.117,18597.615
955906.4616879412,-7263.55,-32260.744,11948.649,8311.198,9291.504,-16929.89,-8662.964,18584.676
955906.4656879376,-7259.7656,-32254.885,11954.997,8317.343,9290.446,-16931.193,-8660.727,18581.828
955906.4696879338,-7253.662,-32257.53,11959.758,8319.54,9292.48,-16925.701,-8657.39,18582.113
955906.47368793,-7256.4697,-32260.459,11954.387,8313.11,9291.423,-16921.916,-8656.86,18587.605
955906.4776879263,-7258.952,-32262.045,11949.26,8308.635,9291.667,-16923.707,-8658.0,18587.688
955906.4816879225,-7250.0,-32256.023,11955.933,8315.634,9297.404,-16924.602,-8654.46,18594.809
955906.4856879187,-7244.1,-32248.332,11963.542,8324.545,9302.165,-16925.252,-8655.925,18591.35
955906.489687915,-7246.9893,-32251.426,11964.478,8324.341,9296.916,-16923.787,-8661.703,18584.514
955906.4936879112,-7263.4688,-32266.928,11951.742,8313.11,9286.825,-16926.678,-8673.259,18574.422
955906.4976879074,-7270.3047,-32279.014,11946.33,8307.455,9278.972,-16925.375,-8677.206,18573.895
955906.5016879037,-7261.2305,-32271.607,11955.7295,8314.738,9282.1455,-16919.842,-8667.358,18579.021
955906.5056879,-7244.385,-32256.145,11967.529,8324.707,9291.708,-16915.568,-8655.111,18588.055
955906.5096878962,-7240.967,-32249.309,11968.344,8326.172,9299.968,-16914.51,-8652.507,18594.89
955906.5136878925,-7248.169,-32256.268,11964.274,8320.639,9299.154,-16912.842,-8653.402,18596.883
955906.5176878887,-7259.2773,-32271.201,11954.224,8310.385,9289.185,-16912.273,-8662.558,18593.262
955906.5216878849,-7267.09,-32276.328,11949.911,8308.798,9283.813,-16914.43,-8664.917,18590.7
955906.5256878812,-7261.8003,-32275.229,11953.207,8315.227,9288.534,-16914.836,-8660.197,18588.582
955906.5296878774,-7254.3135,-32276.125,11957.602,8317.587,9289.755,-16911.459,-8652.71,18593.709
955906.5336878736,-7252.116,-32274.537,11961.101,8316.162,9287.761,-16908.611,-8646.281,18607.504
955906.5376878699,-7257.243,-32276.45,11954.712,8311.279,9285.808,-16909.506,-8649.821,18609.742
955906.5416878661,-7252.4824,-32273.398,11956.625,8315.268,9285.645,-16907.43,-8647.624,18603.557
955906.5456878624,-7249.1455,-32272.299,11960.693,8320.231,9286.662,-16906.494,-8647.014,18601.645
955906.5496878587,-7257.2837,-32277.873,11955.933,8315.512,9287.231,-16911.418,-8652.832,18599.0
955906.5536878549,-7264.6895,-32286.826,11950.847,8309.896,9282.309,-16909.953,-8660.4,18589.314
955906.5576878511,-7269.206,-32289.715,11944.906,8306.274,9278.687,-16907.959,-8658.936,18604.045
955906.5616878474,-7261.0273,-32278.932,11952.719,8313.273,9284.587,-16906.047,-8652.588,18607.992
955906.5656878436,-7248.291,-32270.021,11964.6,8322.917,9293.173,-16902.873,-8640.829,18621.176
955906.5696878398,-7248.4946,-32271.893,11965.414,8322.429,9295.817,-16904.95,-8643.066,18619.955
955906.5736878361,-7258.8706,-32280.764,11959.188,8315.593,9292.155,-16905.803,-8651.001,18614.178
955906.5776878323,-7267.09,-32289.877,11952.393,8310.913,9287.842,-16903.729,-8659.343,18606.486
955906.5816878285,-7268.636,-32295.412,11951.579,8312.216,9284.018,-16905.355,-8665.609,18592.855
955906.5856878249,-7262.492,-32292.197,11956.95,8315.878,9286.825,-16908.244,-8663.94,18591.635
955906.5896878211,-7259.8066,-32289.389,11959.961,8315.756,9286.54,-16909.059,-8659.302,18598.309
955906.5936878173,-7265.91,-32288.535,11952.841,8311.6455,9285.727,-16905.477,-8658.0,18599.121
955906.5976878136,-7268.8804,-32295.371,11946.005,8304.484,9283.285,-16904.42,-8658.0,18601.4
955906.6016878098,-7264.079,-32294.11,11948.446,8307.292,9284.994,-16905.965,-8653.728,18609.375
955906.605687806,-7255.2085,-32288.656,11958.252,8319.499,9298.218,-16903.85,-8647.421,18615.154
955906.6096878023,-7257.1616,-32291.22,11961.304,8320.761,9298.869,-16904.46,-8651.774,18613.934
955906.6136877985,-7268.1885,-32294.271,11957.316,8317.18,9294.76,-16905.07,-8660.441,18607.951
955906.6176877947,-7281.047,-32302.287,11950.725,8310.466,9287.598,-16909.424,-8670.736,18597.982
955906.6216877911,-7274.536,-32302.531,11953.613,8309.855,9281.86,-16906.78,-8671.428,18596.803
955906.6256877873,-7261.2305,-32291.3,11960.002,8316.447,9285.319,-16902.547,-8660.727,18603.598
955906.6296877835,-7258.545,-32287.883,11957.683,8315.593,9283.569,-16899.861,-8653.809,18607.707
955906.6336877798,-7261.2715,-32287.395,11952.026,8310.385,9283.203,-16898.602,-8655.844,18606.283
955906.637687776,-7267.5376,-32295.29,11946.045,8309.489,9285.93,-16901.205,-8658.244,18605.592
955906.6416877722,-7263.713,-32294.68,11954.387,8317.587,9289.511,-16902.508,-8657.471,18601.318
955906.6456877685,-7251.628,-32287.07,11965.78,8326.986,9297.852,-16900.432,-8654.948,18597.088
955906.6496877647,-7253.581,-32287.355,11963.461,8327.8,9300.131,-16899.781,-8655.314,18592.164
955906.6536877609,-7259.8877,-32293.336,11955.16,8318.604,9293.457,-16906.047,-8667.074,18591.35
955906.6576877572,-7259.033,-32290.365,11950.969,8312.338,9288.656,-16905.477,-8670.41,18598.592
955906.6616877535,-7254.0693,-32282.96,11953.491,8314.087,9288.29,-16902.02,-8663.615,18609.334
955906.6656877497,-7246.826,-32276.857,11960.124,8319.011,9292.644,-16903.28,-8655.925,18619.385
955906.669687746,-7242.269,-32271.486,11961.182,8321.452,9299.643,-16901.979,-8653.605,18616.863
955906.6736877422,-7250.3257,-32277.467,11956.015,8317.831,9294.556,-16900.105,-8657.634,18609.578
955906.6776877384,-7257.1616,-32284.832,11954.346,8316.325,9288.208,-16899.617,-8658.936,18604.045
955906.6816877347,-7252.6855,-32288.494,11958.13,8317.709,9284.506,-16901.082,-8660.116,18605.307
955906.6856877309,-7246.0938,-32283.652,11964.722,8321.899,9284.628,-16900.105,-8656.291,18612.916
955906.6896877271,-7237.59,-32276.246,11967.937,8321.899,9288.696,-16897.42,-8652.792,18612.264
955906.6936877234,-7242.1875,-32270.875,11963.827,8316.813,9289.633,-16894.207,-8651.489,18610.23
955906.6976877196,-7245.7275,-32278.77,11959.433,8311.523,9285.034,-16893.88,-8653.117,18612.996
955906.701687716,-7241.5366,-32276.002,11961.304,8317.221,9288.29,-16893.799,-8650.391,18616.62
955906.7056877122,-7234.538,-32271.322,11970.541,8327.353,9296.509,-16893.963,-8646.933,18609.783
955906.7096877084,-7238.607,-32272.787,11969.279,8326.742,9296.591,-16894.94,-8649.252,18605.428
955906.7136877046,-7253.093,-32281.129,11959.799,8317.871,9290.487,-16897.87,-8656.494,18602.418
955906.7176877009,-7257.9756,-32291.3,11954.875,8312.704,9282.797,-16899.414,-8662.15,18602.254
955906.7216876971,-7245.7275,-32286.053,11962.891,8317.709,9282.837,-16898.438,-8657.837,18611.613
955906.7256876933,-7229.4517,-32265.504,11971.191,8329.428,9296.509,-16893.678,-8645.874,18622.273
955906.7296876896,-7224.691,-32257.57,11972.006,8330.648,9303.955,-16899.008,-8644.572,18618.043
955906.7336876858,-7231.2827,-32260.256,11965.861,8323.202,9302.124,-16899.617,-8646.281,18616.74
955906.7376876822,-7240.194,-32270.305,11956.584,8319.824,9296.875,-16896.2,-8649.821,18614.096
955906.7416876784,-7248.088,-32279.787,11952.556,8318.481,9291.504,-16898.479,-8659.343,18602.662
955906.7456876746,-7246.2974,-32277.385,11958.049,8324.016,9297.119,-16901.814,-8662.354,18597.453
955906.7496876708,-7247.1924,-32279.787,11959.147,8324.423,9299.5205,-16906.697,-8666.667,18593.182
955906.7536876671,-7256.429,-32283.611,11948.608,8313.843,9287.354,-16907.105,-8670.126,18594.402
955906.7576876633,-7261.0273,-32290.324,11939.697,8305.868,9279.623,-16906.414,-8673.584,18592.652
955906.7616876595,-7259.8877,-32288.697,11942.709,8310.385,9281.657,-16905.438,-8671.835,18586.549
955906.7656876558,-7253.418,-32280.314,11952.637,8319.987,9289.104,-16899.537,-8662.028,18592.326
955906.769687652,-7246.5415,-32283.408,11956.503,8323.608,9291.301,-16899.7,-8658.732,18595.297
955906.7736876482,-7250.7324,-32295.207,11951.01,8315.878,9285.6045,-16900.105,-8660.767,18597.615
955906.7776876446,-7259.6846,-32302.94,11945.639,8307.943,9279.745,-16900.066,-8660.522,18605.713
955906.7816876408,-7256.3477,-32296.672,11947.958,8307.821,9279.501,-16903.932,-8666.26,18597.168
955906.785687637,-7241.8623,-32281.291,11959.229,8316.488,9284.668,-16903.361,-8662.639,18593.465
955906.7896876333,-7234.741,-32277.06,11964.478,8319.092,9281.535,-16900.473,-8658.081,18595.012
955906.7936876295,-7242.717,-32286.256,11955.566,8312.012,9276.855,-16898.275,-8658.203,18599.324
955906.7976876257,-7245.321,-32292.727,11954.143,8311.523,9277.1,-16895.916,-8657.1455,18605.184
955906.801687622,-7245.6465,-32293.58,11958.252,8316.61,9281.047,-16895.955,-8655.559,18603.312
955906.8056876182,-7241.1704,-32289.186,11962.81,8322.592,9287.842,-16896.77,-8658.488,18592.977
955906.8096876144,-7238.1187,-32283.57,11963.095,8323.242,9294.271,-16897.95,-8656.169,18588.299
955906.8136876107,-7246.9077,-32287.355,11953.613,8313.762,9290.527,-16901.082,-8666.057,18587.361
955906.817687607,-7250.8545,-32292.482,11949.626,8309.448,9288.452,-16898.846,-8666.179,18596.844
955906.8216876033,-7251.058,-32284.588,11949.382,8314.331,9289.714,-16898.805,-8663.005,18593.547
955906.8256875995,-7241.252,-32282.229,11960.693,8322.632,9287.069,-16896.24,-8655.722,18597.047
955906.8296875957,-7236.8164,-32282.064,11962.402,8326.904,9289.104,-16893.19,-8652.426,18597.615
955906.833687592,-7248.413,-32296.104,11955.893,8314.209,9280.3955,-16896.973,-8665.243,18590.78
955906.8376875882,-7260.0913,-32304.77,11944.702,8306.479,9281.454,-16899.252,-8670.614,18591.229
955906.8416875844,-7256.1035,-32306.887,11949.789,8310.141,9284.221,-16900.879,-8663.493,18595.135
955906.8456875806,-7242.1875,-32299.48,11958.537,8317.587,9289.714,-16902.996,-8657.675,18597.982
955906.8496875769,-7234.172,-32288.78,11966.269,8323.69,9296.184,-16897.055,-8647.095,18608.033
955906.8536875731,-7234.66,-32284.709,11964.233,8320.557,9294.475,-16896.322,-8647.299,18612.305
955906.8576875695,-7238.5664,-32282.39,11956.055,8315.349,9293.498,-16899.781,-8656.088,18609.172
955906.8616875657,-7238.8916,-32284.588,11954.631,8316.61,9290.365,-16897.87,-8657.512,18609.62
955906.8656875619,-7236.5723,-32290.041,11958.374,8319.133,9284.18,-16902.588,-8654.623,18608.44
955906.8696875582,-7237.712,-32289.186,11958.09,8320.068,9287.354,-16906.088,-8659.343,18598.959
955906.8736875544,-7241.8623,-32290.447,11954.997,8316.895,9287.313,-16903.523,-8665.405,18593.629
955906.8776875506,-7246.867,-32294.598,11953.044,8314.047,9285.319,-16901.775,-8669.678,18594.28
955906.8816875468,-7245.321,-32299.357,11954.306,8315.063,9283.813,-16904.95,-8673.706,18583.66
955906.8856875431,-7240.3975,-32295.615,11958.618,8317.383,9281.576,-16905.477,-8675.293,18576.62
955906.8896875393,-7237.915,-32286.459,11963.013,8320.354,9285.034,-16901.531,-8674.194,18580.16
955906.8936875357,-7244.914,-32290.285,11956.218,8313.843,9280.64,-16898.072,-8672.445,18585.816
955906.8976875319,-7251.2617,-32295.451,11948.649,8308.879,9275.839,-16898.113,-8673.178,18589.031
955906.9016875281,-7245.0767,-32296.469,11952.189,8312.866,9278.687,-16897.502,-8668.173,18593.914
955906.9056875244,-7232.463,-32292.156,11961.223,8318.726,9284.75,-16897.746,-8658.691,18598.389
955906.9096875206,-7222.046,-32280.438,11968.14,8323.568,9286.133,-16896.81,-8649.17,18598.959
955906.9136875168,-7230.957,-32277.793,11963.095,8318.481,9283.244,-16895.387,-8652.995,18601.686
955906.917687513,-7242.3506,-32290.203,11954.834,8308.472,9268.637,-16897.014,-8660.36,18596.883
955906.9216875093,-7245.931,-32296.55,11952.881,8306.315,9267.741,-16896.404,-8661.987,18605.389
955906.9256875055,-7246.5415,-32295.615,11953.613,8307.251,9271.078,-16900.105,-8669.027,18592.896
955906.9296875017,-7246.5415,-32297.893,11953.695,8307.739,9270.142,-16900.105,-8673.056,18590.291
955906.9336874981,-7252.2383,-32303.713,11945.842,8301.636,9265.707,-16902.02,-8680.095,18576.295
955906.9376874943,-7251.953,-32303.469,11946.493,8301.188,9262.98,-16897.95,-8670.126,18593.1
955906.9416874906,-7239.421,-32292.645,11955.811,8309.814,9274.252,-16894.41,-8659.384,18607.992
955906.9456874868,-7229.5737,-32289.715,11961.914,8314.779,9283.691,-16892.863,-8652.019,18614.666
955906.949687483,-7232.422,-32290.732,11958.7,8310.303,9281.657,-16895.916,-8657.1045,18605.713
955906.9536874793,-7243.083,-32295.492,11952.922,8303.223,9274.78,-16901.002,-8668.091,18596.803
955906.9576874755,-7253.011,-32302.287,11946.249,8298.015,9270.061,-16904.379,-8677.897,18593.465
955906.9616874717,-7247.518,-32302.857,11949.504,8301.758,9267.619,-16903.24,-8675.903,18595.418
955906.965687468,-7234.0903,-32294.068,11957.113,8309.367,9274.658,-16898.275,-8664.185,18602.418
955906.9696874642,-7227.9463,-32287.639,11965.983,8312.704,9275.146,-16894.166,-8657.268,18608.969
955906.9736874605,-7232.2188,-32291.18,11959.188,8307.333,9268.474,-16892.457,-8657.675,18605.225
955906.9776874568,-7241.699,-32300.375,11950.521,8299.194,9258.098,-16892.578,-8661.825,18605.998
955906.981687453,-7239.0137,-32302.857,11953.288,8304.24,9266.602,-16892.416,-8658.407,18611.166
955906.9856874492,-7232.015,-32295.29,11958.334,8312.826,9274.048,-16893.758,-8651.815,18613.852
955906.9896874455,-7238.9326,-32298.178,11954.468,8307.861,9270.63,-16900.35,-8658.122,18604.9
955906.9936874417,-7245.7275,-32303.916,11948.364,8298.3,9264.038,-16901.002,-8664.104,18603.963
955906.9976874379,-7252.4824,-32312.705,11940.634,8292.155,9261.394,-16898.275,-8664.633,18608.969
955907.0016874342,-7248.983,-32310.508,11943.237,8296.103,9263.591,-16896.484,-8660.849,18606.04
955907.0056874304,-7236.898,-32297.854,11955.282,8306.274,9265.503,-16894.043,-8650.106,18609.457
955907.0096874267,-7241.781,-32298.748,11953.329,8303.833,9264.526,-16894.328,-8647.665,18609.254
955907.013687423,-7251.3022,-32311.85,11945.395,8293.498,9258.342,-16899.252,-8658.041,18602.865
955907.0176874192,-7260.539,-32317.262,11936.768,8288.208,9249.472,-16902.629,-8667.888,18598.715
955907.0216874154,-7261.2305,-32317.75,11934.245,8293.539,9254.721,-16902.467,-8670.573,18601.115
955907.0256874117,-7251.9126,-32315.959,11941.732,8301.514,9257.487,-16903.24,-8665.283,18602.295
955907.0296874079,-7243.6523,-32310.873,11948.202,8302.246,9253.5,-16904.135,-8664.389,18601.156
955907.0336874041,-7249.919,-32312.502,11942.343,8293.62,9249.39,-16905.111,-8667.644,18603.68
955907.0376874004,-7256.5513,-32318.482,11938.477,8289.47,9248.129,-16904.705,-8668.701,18604.168
955907.0416873966,-7252.1567,-32317.18,11946.249,8297.079,9253.703,-16904.46,-8666.26,18602.215
955907.0456873928,-7246.5415,-32310.873,11949.707,8304.484,9261.923,-16905.559,-8664.877,18599.08
955907.0496873892,-7248.413,-32315.959,11947.795,8303.589,9261.149,-16905.844,-8666.748,18595.215
955907.0536873854,-7257.1616,-32327.027,11937.907,8295.451,9255.656,-16904.988,-8673.381,18591.96
955907.0576873816,-7266.0728,-32333.13,11929.403,8286.621,9251.547,-16907.715,-8678.955,18587.402
955907.0616873779,-7257.365,-32326.742,11937.134,8290.527,9250.407,-16905.885,-8670.492,18587.525
955907.0656873741,-7244.0186,-32314.291,11947.673,8299.194,9250.529,-16902.426,-8655.762,18599.895
955907.0696873703,-7245.9717,-32316.164,11945.72,8296.875,9245.036,-16904.46,-8653.769,18605.957
955907.0736873666,-7256.0225,-32328.41,11935.629,8287.72,9239.055,-16907.43,-8661.865,18605.55
955907.0776873628,-7264.4043,-32337.525,11930.461,8284.628,9238.607,-16907.635,-8669.516,18599.977
955907.081687359,-7266.8457,-32336.467,11934.204,8290.243,9245.321,-16907.35,-8668.01,18598.186
955907.0856873553,-7260.051,-32327.842,11940.959,8297.038,9247.844,-16909.791,-8664.226,18601.033
955907.0896873516,-7254.5166,-32325.889,11942.343,8298.869,9248.779,-16910.564,-8663.371,18601.318
955907.0936873478,-7254.6797,-32327.842,11939.25,8294.394,9243.124,-16904.217,-8657.512,18610.516
955907.0976873441,-7260.661,-32328.86,11933.635,8287.761,9236.491,-16902.02,-8653.239,18619.71
955907.1016873403,-7256.0225,-32325.318,11937.053,8291.382,9236.572,-16899.617,-8647.258,18623.82
955907.1056873365,-7255.9004,-32324.098,11938.803,8297.201,9243.9375,-16899.902,-8646.729,18619.955
955907.1096873328,-7261.5156,-32325.48,11939.575,8297.16,9247.396,-16903.117,-8654.379,18606.61
955907.113687329,-7266.9272,-32333.416,11931.315,8289.511,9245.402,-16908.041,-8665.731,18600.22
955907.1176873252,-7266.317,-32339.682,11927.734,8284.546,9239.828,-16912.436,-8673.95,18597.371
955907.1216873215,-7262.655,-32340.414,11931.274,8287.883,9240.031,-16915.568,-8674.683,18595.215
955907.1256873178,-7251.343,-32333.213,11938.029,8294.353,9241.659,-16915.365,-8670.858,18594.361
955907.129687314,-7244.1406,-32328.94,11940.1455,8296.997,9240.153,-16912.15,-8661.459,18600.994
955907.1336873103,-7245.321,-32327.76,11939.657,8291.545,9243.042,-16906.902,-8659.506,18609.254
955907.1376873065,-7245.443,-32326.54,11939.25,8288.493,9246.582,-16906.82,-8659.506,18616.375
955907.1416873027,-7244.629,-32322.836,11942.139,8291.016,9242.676,-16908.53,-8655.966,18618.816
955907.145687299,-7246.867,-32324.3,11944.743,8294.922,9246.46,-16909.547,-8656.657,18613.607
955907.1496872952,-7253.784,-32333.822,11941.772,8294.678,9251.831,-16912.924,-8664.104,18602.865
955907.1536872914,-7259.6846,-32344.932,11934.652,8287.558,9240.805,-16916.992,-8672.16,18600.465
955907.1576872877,-7265.1777,-32350.262,11926.84,8282.756,9232.016,-16918.336,-8679.892,18595.215
955907.1616872839,-7260.295,-32344.443,11928.752,8286.662,9229.167,-16922.242,-8682.333,18589.438
955907.1656872802,-7254.5576,-32335.979,11935.344,8290.568,9235.2295,-16923.463,-8680.136,18589.438
955907.1696872765,-7250.4478,-32335.734,11936.768,8289.958,9238.974,-16920.492,-8676.392,18597.291
955907.1736872727,-7253.296,-32335.695,11934.164,8285.563,9240.275,-16916.586,-8673.828,18595.297
955907.1776872689,-7260.254,-32338.299,11930.258,8280.681,9241.171,-16916.057,-8677.531,18592.041
955907.1816872652,-7262.248,-32336.793,11926.636,8284.343,9246.298,-16918.416,-8672.893,18599.0
955907.1856872614,-7252.523,-32331.584,11937.826,8293.091,9245.483,-16918.498,-8666.586,18606.404
955907.1896872576,-7250.122,-32328.533,11940.471,8295.451,9242.798,-16919.393,-8663.696,18607.79
955907.1936872539,-7261.6377,-32339.113,11927.368,8282.797,9232.544,-16921.102,-8672.404,18605.916
955907.1976872501,-7270.1826,-32349.082,11916.22,8272.665,9222.86,-16926.678,-8679.403,18606.404
955907.2016872463,-7272.1763,-32352.336,11913.249,8270.996,9222.412,-16928.549,-8679.403,18601.848
955907.2056872427,-7264.282,-32345.338,11924.805,8278.239,9224.895,-16921.713,-8664.958,18612.59
955907.2096872389,-7258.016,-32340.21,11931.885,8285.482,9234.985,-16916.383,-8655.192,18618.611
955907.2136872351,-7264.486,-32347.453,11928.02,8280.192,9235.2705,-16912.72,-8656.372,18618.408
955907.2176872314,-7272.9087,-32358.848,11921.428,8273.356,9231.567,-16916.951,-8673.259,18604.492
955907.2216872276,-7273.153,-32355.51,11921.753,8275.798,9227.011,-16923.992,-8679.281,18594.89
955907.2256872238,-7263.1025,-32344.973,11928.833,8281.454,9231.445,-16927.45,-8680.705,18590.7
955907.2296872201,-7259.3184,-32344.523,11927.124,8277.71,9227.58,-16929.078,-8684.652,18586.264
955907.2336872163,-7268.026,-32356.242,11916.464,8266.4795,9215.82,-16929.484,-8687.378,18589.031
955907.2376872125,-7272.0947,-32364.707,11911.459,8260.214,9209.433,-16928.875,-8689.087,18592.367
955907.2416872088,-7265.666,-32358.969,11920.085,8267.294,9211.792,-16922.81,-8678.589,18598.104
955907.2456872051,-7261.841,-32354.168,11926.433,8272.868,9215.78,-16921.225,-8671.347,18602.783
955907.2496872013,-7265.4624,-32351.32,11927.734,8276.367,9225.261,-16923.34,-8668.742,18605.51
955907.2536871976,-7275.472,-32354.777,11920.451,8272.909,9226.889,-16925.213,-8677.165,18602.621
955907.2576871938,-7281.6978,-32363.648,11913.412,8266.765,9221.191,-16930.217,-8691.244,18590.455
955907.26168719,-7274.658,-32358.521,11916.22,8272.543,9224.203,-16934.45,-8692.587,18590.455
955907.2656871863,-7265.3,-32351.076,11922.7705,8279.663,9226.685,-16935.994,-8685.995,18594.076
955907.2696871825,-7262.004,-32352.459,11922.16,8276.815,9221.965,-16934.367,-8684.733,18585.164
955907.2736871787,-7267.619,-32359.58,11911.215,8267.944,9214.56,-16933.758,-8685.059,18588.95
955907.277687175,-7274.7803,-32368.41,11903.524,8261.516,9204.265,-16933.064,-8685.791,18596.15
955907.2816871713,-7274.455,-32367.514,11909.14,8267.009,9210.612,-16931.764,-8681.804,18596.762
955907.2856871675,-7262.655,-32355.795,11924.968,8278.28,9221.3545,-16927.734,-8669.475,18606.975
955907.2896871638,-7258.301,-32348.43,11929.443,8279.541,9226.156,-16926.88,-8669.475,18612.02
955907.29368716,-7265.5845,-32356.854,11925.985,8271.811,9223.999,-16927.654,-8674.724,18606.121
955907.2976871562,-7268.4326,-32362.346,11923.015,8267.456,9215.902,-16932.861,-8681.601,18602.621
955907.3016871525,-7259.725,-32358.195,11926.718,8271.484,9214.193,-16934.693,-8681.112,18608.357
955907.3056871487,-7250.814,-32350.791,11930.298,8278.361,9220.053,-16933.39,-8676.107,18613.525
955907.3096871449,-7246.948,-32348.594,11930.786,8277.873,9221.029,-16931.682,-8672.16,18612.264
955907.3136871412,-7256.2666,-32357.912,11920.451,8266.968,9217.651,-16930.99,-8676.555,18612.225
955907.3176871374,-7263.7534,-32363.445,11911.255,8260.62,9211.467,-16931.072,-8677.49,18614.746
955907.3216871337,-7260.783,-32357.3,11916.22,8267.497,9224.162,-16930.299,-8674.357,18616.943
955907.32568713,-7249.7153,-32345.217,11929.77,8281.291,9241.537,-16930.664,-8670.614,18612.305
955907.3296871262,-7243.978,-32336.305,11935.873,8288.696,9250.8955,-16930.014,-8672.404,18607.625
955907.3336871224,-7256.2666,-32346.477,11926.433,8276.164,9236.41,-16934.285,-8685.344,18603.15
955907.3376871187,-7260.01,-32357.098,11919.516,8268.188,9228.842,-16934.164,-8688.11,18603.23
955907.3416871149,-7257.528,-32353.354,11916.748,8268.515,9228.231,-16931.926,-8685.751,18599.324
955907.3456871111,-7251.9126,-32350.791,11921.184,8272.868,9224.162,-16931.316,-8678.264,18605.145
955907.3496871074,-7250.407,-32350.709,11922.934,8273.193,9225.424,-16928.387,-8672.323,18613.607
955907.3536871036,-7257.7314,-32353.191,11915.854,8264.486,9224.406,-16925.213,-8676.107,18616.21
955907.3576870998,-7264.079,-32362.55,11915.731,8259.807,9223.349,-16921.469,-8674.805,18613.81
955907.3616870962,-7264.079,-32364.137,11919.638,8263.428,9227.702,-16922.73,-8676.147,18604.492
955907.3656870924,-7263.1025,-32360.719,11923.788,8271.037,9235.881,-16925.334,-8676.2295,18603.842
955907.3696870886,-7259.5625,-32362.957,11926.799,8273.071,9237.468,-16930.055,-8681.723,18601.4
955907.3736870849,-7264.2417,-32365.275,11916.748,8266.887,9230.307,-16932.617,-8691.772,18593.67
955907.3776870811,-7275.8384,-32370.607,11905.844,8258.057,9220.541,-16936.32,-8704.265,18584.637
955907.3816870773,-7275.2686,-32373.332,11904.867,8257.895,9216.553,-16938.396,-8705.852,18586.385
955907.3856870736,-7265.544,-32371.664,11910.563,8262.939,9217.326,-16937.867,-8699.057,18588.379
955907.3896870698,-7256.3477,-32371.502,11914.958,8263.876,9208.293,-16932.82,-8691.081,18594.97
955907.393687066,-7255.046,-32374.188,11915.446,8258.993,9201.579,-16927.693,-8687.419,18599.773
955907.3976870624,-7256.2256,-32375.57,11917.358,8255.941,9200.439,-16924.56,-8685.222,18605.266
955907.4016870586,-7253.337,-32373.537,11922.241,8263.347,9206.584,-16923.38,-8680.095,18611.572
955907.4056870549,-7250.6104,-32367.31,11929.077,8272.339,9214.396,-16926.434,-8677.734,18613.973
955907.4096870511,-7252.8486,-32363.69,11927.653,8271.647,9219.36,-16928.996,-8688.843,18606.975
955907.4136870473,-7261.1084,-32364.87,11913.94,8261.3125,9212.565,-16934.896,-8701.823,18600.098
955907.4176870435,-7266.9272,-32365.56,11904.053,8255.575,9207.438,-16933.188,-8705.974,18595.541
955907.4216870398,-7273.153,-32366.701,11899.699,8255.697,9206.787,-16932.658,-8703.288,18593.547
955907.425687036,-7266.2354,-32363.242,11903.646,8262.004,9212.6875,-16932.008,-8696.737,18596.273
955907.4296870322,-7263.835,-32360.312,11907.349,8264.934,9214.804,-16927.654,-8693.197,18598.064
955907.4336870285,-7274.211,-32369.102,11898.682,8256.999,9213.461,-16929.281,-8697.998,18598.023
955907.4376870248,-7277.7915,-32376.547,11895.183,8252.401,9211.182,-16932.332,-8702.963,18601.482
955907.441687021,-7270.7114,-32369.834,11904.135,8260.295,9216.105,-16931.682,-8699.585,18610.271
955907.4456870173,-7252.075,-32352.418,11919.189,8273.845,9224.813,-16929.852,-8690.552,18616.13
955907.4496870135,-7244.1406,-32347.17,11920.044,8271.606,9218.872,-16930.014,-8694.824,18614.625
955907.4536870098,-7254.476,-32353.15,11906.779,8257.487,9209.025,-16929.158,-8703.613,18613.525
955907.457687006,-7254.232,-32355.227,11906.779,8253.703,9202.189,-16922.69,-8703.044,18621.582
955907.4616870022,-7255.697,-32359.904,11907.675,8252.401,9199.138,-16920.248,-8699.545,18629.354
955907.4656869984,-7249.3896,-32355.43,11912.476,8258.22,9212.6875,-16919.475,-8697.998,18630.291
955907.4696869947,-7249.8374,-32355.592,11917.725,8261.149,9219.6045,-16922.283,-8702.556,18618.816
955907.4736869909,-7262.329,-32365.398,11911.784,8254.843,9217.8955,-16929.566,-8710.043,18617.39
955907.4776869873,-7274.8213,-32381.838,11903.687,8248.251,9210.083,-16936.564,-8723.267,18606.201
955907.4816869835,-7272.0947,-32382.365,11907.593,8253.296,9211.792,-16940.309,-8727.946,18597.168
955907.4856869797,-7265.788,-32374.105,11910.849,8261.557,9213.013,-16943.318,-8725.098,18592.205
955907.489686976,-7274.048,-32378.988,11902.71,8257.324,9208.09,-16947.795,-8730.957,18579.06
955907.4936869722,-7289.714,-32391.115,11887.614,8242.554,9190.756,-16949.383,-8739.787,18570.883
955907.4976869684,-7285.6445,-32394.572,11883.708,8236.532,9180.339,-16946.574,-8734.985,18578.248
955907.5016869646,-7278.6055,-32389.162,11887.573,8239.868,9189.169,-16941.691,-8726.97,18580.69
955907.5056869609,-7273.397,-32382.447,11895.305,8247.314,9197.551,-16942.627,-8720.297,18584.473
955907.5096869571,-7273.6006,-32387.492,11898.642,8249.228,9199.667,-16944.418,-8719.971,18586.549
955907.5136869535,-7282.4707,-32398.846,11892.009,8241.903,9191.488,-16948.73,-8729.289,18579.346
955907.5176869497,-7293.9453,-32406.82,11886.719,8237.875,9188.965,-16952.596,-8736.491,18575.604
955907.5216869459,-7296.8345,-32408.896,11882.8125,8236.125,9185.385,-16956.625,-8741.618,18566.447
955907.5256869422,-7285.3193,-32401.693,11885.905,8240.561,9187.012,-16955.73,-8738.811,18570.068
955907.5296869384,-7283.081,-32399.334,11887.777,8241.496,9187.988,-16954.63,-8737.305,18570.842
955907.5336869346,-7292.562,-32406.78,11880.249,8233.684,9181.723,-16957.764,-8741.943,18567.262
955907.5376869309,-7302.49,-32416.506,11876.669,8229.452,9177.572,-16959.066,-8746.908,18562.176
955907.5416869271,-7295.9395,-32408.164,11879.802,8234.497,9180.298,-16958.172,-8740.683,18571.615
955907.5456869233,-7280.3145,-32389.365,11892.253,8246.989,9194.987,-16953.084,-8730.144,18581.87
955907.5496869195,-7273.8447,-32382.447,11897.705,8249.756,9192.343,-16953.166,-8724.691,18591.676
955907.5536869159,-7278.7275,-32389.975,11890.422,8238.974,9181.152,-16954.713,-8725.098,18593.588
955907.5576869121,-7280.1514,-32397.422,11884.807,8231.934,9177.368,-16950.115,-8719.931,18601.115
955907.5616869084,-7269.8975,-32395.102,11888.55,8234.782,9179.892,-16947.633,-8708.496,18613.484
955907.5656869046,-7256.836,-32387.371,11898.4375,8243.286,9187.907,-16943.727,-8695.476,18623.17
955907.5696869008,-7253.784,-32387.941,11902.954,8244.589,9194.865,-16941.61,-8691.895,18621.95
955907.573686897,-7264.201,-32393.393,11899.211,8238.77,9197.632,-16942.424,-8694.499,18618.043
955907.5776868933,-7271.81,-32401.572,11896.647,8234.782,9191.122,-16942.262,-8696.899,18614.258
955907.5816868895,-7273.8853,-32403.117,11900.757,8239.299,9198.853,-16941.814,-8697.592,18596.07
955907.5856868858,-7264.5674,-32398.723,11909.302,8248.942,9206.991,-16940.389,-8700.521,18600.383
955907.589686882,-7265.5845,-32401.246,11905.314,8248.617,9202.922,-16945.15,-8709.27,18595.703
955907.5936868783,-7277.71,-32409.426,11895.508,8238.7295,9194.092,-16947.186,-8719.564,18589.07
955907.5976868746,-7281.006,-32417.156,11891.113,8233.562,9184.57,-16949.627,-8723.063,18583.496
955907.6016868708,-7277.303,-32420.9,11890.503,8234.701,9178.589,-16950.928,-8721.884,18581.38
955907.605686867,-7272.949,-32422.445,11895.061,8241.293,9185.1,-16949.992,-8720.866,18581.463
955907.6096868633,-7278.9307,-32426.393,11891.643,8240.153,9189.494,-16952.434,-8725.383,18573.283
955907.6136868595,-7291.1377,-32438.803,11881.999,8232.138,9185.019,-16952.271,-8733.073,18566.447
955907.6176868557,-7298.7876,-32448.568,11875.732,8226.44,9178.305,-16953.41,-8739.665,18563.396
955907.621686852,-7295.6953,-32443.889,11879.599,8231.039,9177.816,-16959.107,-8738.566,18559.896
955907.6256868482,-7284.5054,-32433.758,11889.567,8239.584,9183.635,-16954.916,-8726.767,18566.244
955907.6296868444,-7278.117,-32435.305,11894.287,8240.805,9181.56,-16951.742,-8718.628,18578.41
955907.6336868408,-7288.2896,-32451.783,11887.736,8228.516,9168.498,-16953.37,-8725.424,18571.615
955907.637686837,-7301.107,-32468.588,11877.482,8218.466,9161.947,-16956.299,-8730.551,18564.82
955907.6416868332,-7303.304,-32469.89,11874.838,8220.337,9161.743,-16955.322,-8729.736,18570.72
955907.6456868295,-7297.445,-32463.014,11881.145,8230.632,9173.015,-16951.62,-8724.162,18576.295
955907.6496868257,-7290.5273,-32463.664,11884.115,8234.579,9171.265,-16951.701,-8722.372,18577.922
955907.6536868219,-7295.207,-32472.291,11876.181,8225.058,9163.127,-16954.102,-8730.144,18572.307
