timestamp,Fp1,Fp2,F3,Fz,F4,Cz,Pz,Oz
956637.8250011661,-63745.2,-81295.53,-22232.586,-33394.938,-25307.09,-33988.73,-47226.727,21191.365
956637.8290011623,-63772.42,-81323.9,-22256.104,-33421.715,-25329.225,-33986.168,-47243.29,21193.97
956637.8330011585,-63781.902,-81329.71,-22259.97,-33426.066,-25328.818,-33984.945,-47242.11,21197.998
956637.8370011548,-63760.38,-81308.27,-22238.486,-33400.758,-25311.484,-33985.35,-47215.047,21208.74
956637.841001151,-63742.72,-81296.1,-22222.982,-33384.156,-25298.707,-33985.68,-47197.754,21210.734
956637.8450011472,-63758.18,-81312.91,-22238.73,-33399.945,-25308.635,-33988.566,-47211.996,21199.219
956637.8490011435,-63782.88,-81336.96,-22258.545,-33421.67,-25333.416,-33988.16,-47233.81,21190.512
956637.8530011397,-63783.45,-81333.78,-22255.982,-33420.37,-25332.805,-33986.043,-47232.953,21192.262
956637.8570011359,-63762.574,-81317.1,-22237.387,-33398.6,-25315.879,-33985.35,-47208.54,21211.793
956637.8610011323,-63744.223,-81304.0,-22219.443,-33381.633,-25302.857,-33986.004,-47194.05,21211.385
956637.8650011285,-63754.234,-81329.19,-22227.256,-33395.223,-25309.408,-33989.543,-47209.27,21195.639
956637.8690011248,-63778.65,-81359.7,-22250.123,-33418.5,-25324.912,-33985.598,-47230.797,21187.459
956637.873001121,-63781.74,-81356.695,-22254.111,-33418.54,-25330.404,-33986.043,-47236.613,21184.734
956637.8770011172,-63760.664,-81317.836,-22236.695,-33402.793,-25319.824,-33992.434,-47227.01,21189.412
956637.8810011134,-63745.484,-81290.33,-22215.455,-33387.535,-25302.043,-33990.97,-47211.754,21201.13
956637.8850011097,-63755.74,-81299.4,-22225.059,-33399.54,-25306.846,-33989.22,-47217.33,21198.771
956637.8890011059,-63777.754,-81329.555,-22250.205,-33426.96,-25327.11,-33984.133,-47237.996,21193.686
956637.8930011021,-63781.902,-81338.664,-22252.28,-33431.355,-25335.246,-33978.883,-47240.156,21198.61
956637.8970010984,-63754.52,-81316.04,-22227.54,-33405.723,-25316.162,-33979.98,-47217.773,21207.031
956637.9010010947,-63737.227,-81292.766,-22205.934,-33383.992,-25292.969,-33980.594,-47197.348,21212.85
956637.905001091,-63748.7,-81303.34,-22214.396,-33392.824,-25295.736,-33981.203,-47199.79,21219.035
956637.9090010872,-63757.082,-81321.414,-22241.049,-33416.91,-25313.682,-33977.742,-47219.89,21218.588
956637.9130010834,-63756.227,-81324.055,-22245.402,-33419.23,-25317.832,-33979.37,-47226.523,21208.62
956637.9170010797,-63740.4,-81317.79,-22228.354,-33400.88,-25307.658,-33983.562,-47209.027,21213.826
956637.9210010759,-63732.75,-81306.16,-22217.367,-33388.918,-25294.963,-33978.027,-47194.336,21226.033
956637.9250010721,-63753.01,-81315.15,-22234.986,-33409.344,-25308.025,-33977.01,-47213.016,21210.328
956637.9290010683,-63778.73,-81337.57,-22257.61,-33433.15,-25333.701,-33978.844,-47235.027,21198.365
956637.9330010646,-63775.188,-81328.29,-22251.75,-33426.8,-25325.807,-33976.2,-47226.32,21210.246
956637.9370010609,-63746.992,-81302.53,-22217.49,-33397.992,-25306.764,-33977.824,-47194.703,21222.697
956637.9410010572,-63726.28,-81289.67,-22200.684,-33381.023,-25299.033,-33974.69,-47175.215,21231.934
956637.9450010534,-63746.34,-81313.16,-22220.867,-33401.652,-25310.914,-33980.387,-47193.973,21223.877
956637.9490010496,-63780.684,-81346.195,-22248.617,-33428.836,-25327.637,-33986.29,-47224.324,21210.205
956637.9530010459,-63788.7,-81361.45,-22250.0,-33429.28,-25329.184,-33981.895,-47230.145,21202.84
956637.9570010421,-63758.14,-81348.76,-22227.459,-33404.83,-25303.834,-33976.32,-47212.04,21202.963
956637.9610010383,-63747.97,-81330.89,-22219.809,-33394.734,-25291.83,-33981.324,-47204.715,21197.389
956637.9650010346,-63766.766,-81337.89,-22238.363,-33412.516,-25312.826,-33985.68,-47219.523,21190.512
956637.9690010308,-63785.156,-81356.77,-22259.889,-33433.188,-25331.178,-33981.69,-47232.953,21195.436
956637.973001027,-63788.293,-81350.14,-22258.057,-33432.254,-25333.66,-33978.477,-47233.156,21197.754
956637.9770010234,-63762.047,-81324.625,-22237.143,-33407.145,-25315.715,-33976.89,-47213.79,21207.52
956637.9810010196,-63740.44,-81300.91,-22215.17,-33386.637,-25299.684,-33975.79,-47192.832,21218.22
956637.9850010158,-63742.637,-81301.03,-22214.396,-33389.12,-25296.225,-33972.21,-47193.2,21214.926
956637.989001012,-63771.527,-81330.2,-22240.643,-33414.957,-25316.285,-33975.344,-47218.14,21203.898
956637.9930010083,-63781.902,-81342.61,-22244.102,-33417.887,-25319.906,-33971.598,-47223.27,21202.76
956637.9970010045,-63765.504,-81321.9,-22223.594,-33396.484,-25303.102,-33966.27,-47200.684,21215.129
956638.0010010008,-63747.97,-81310.38,-22212.402,-33382.938,-25288.982,-33971.395,-47188.805,21225.709
956638.005000997,-63757.855,-81327.15,-22224.365,-33396.89,-25294.598,-33974.164,-47200.523,21220.623
956638.0090009932,-63786.46,-81356.53,-22250.652,-33424.4,-25317.262,-33976.156,-47227.582,21202.312
956638.0130009894,-63784.832,-81354.78,-22255.088,-33426.883,-25323.65,-33979.453,-47234.66,21196.818
956638.0170009858,-63762.37,-81326.7,-22236.166,-33405.07,-25299.887,-33978.72,-47213.016,21204.225
956638.021000982,-63741.21,-81304.61,-22212.77,-33383.547,-25281.576,-33973.473,-47193.605,21205.445
956638.0250009783,-63747.805,-81312.7,-22216.96,-33392.293,-25299.072,-33975.504,-47200.93,21201.742
956638.0290009745,-63779.38,-81346.56,-22245.932,-33422.324,-25329.672,-33978.64,-47229.37,21195.8
956638.0330009707,-63795.332,-81361.164,-22256.227,-33432.09,-25347.82,-33981.12,-47237.47,21192.709
956638.037000967,-63775.473,-81339.68,-22237.102,-33411.62,-25329.59,-33987.387,-47216.066,21201.54
956638.0410009632,-63757.367,-81327.15,-22224.773,-33398.97,-25317.18,-33989.22,-47206.098,21196.86
956638.0450009594,-63771.324,-81340.01,-22235.8,-33412.438,-25321.168,-33987.387,-47217.246,21187.664
956638.0490009557,-63796.836,-81363.77,-22259.318,-33434.41,-25335.531,-33987.348,-47237.02,21180.543
956638.053000952,-63789.594,-81362.96,-22256.186,-33430.42,-25332.805,-33984.945,-47232.137,21190.512
956638.0570009482,-63756.715,-81327.07,-22223.186,-33396.2,-25302.695,-33981.69,-47199.992,21216.39
956638.0610009445,-63737.145,-81306.195,-22205.771,-33377.973,-25282.756,-33978.152,-47178.836,21229.9
956638.0650009407,-63749.434,-81315.19,-22222.332,-33396.85,-25298.137,-33978.516,-47191.652,21233.357
956638.0690009369,-63762.94,-81332.73,-22242.92,-33420.9,-25321.941,-33977.703,-47211.348,21229.9
956638.0730009332,-63770.387,-81339.64,-22248.129,-33428.426,-25323.242,-33980.227,-47216.676,21227.621
956638.0770009294,-63743.777,-81317.99,-22219.158,-33395.71,-25302.41,-33977.785,-47189.168,21242.31
956638.0810009256,-63729.086,-81298.18,-22203.37,-33380.7,-25294.678,-33976.727,-47178.754,21240.682
956638.0850009219,-63742.8,-81303.1,-22216.064,-33396.566,-25306.072,-33976.2,-47193.035,21234.254
956638.0890009181,-63776.53,-81331.83,-22242.025,-33423.707,-25327.19,-33981.61,-47216.066,21216.879
956638.0930009144,-63791.586,-81339.03,-22256.512,-33430.79,-25336.834,-33983.277,-47219.566,21212.85
956638.0970009107,-63761.64,-81306.4,-22233.928,-33404.582,-25311.035,-33983.645,-47204.715,21223.47
956638.1010009069,-63724.69,-81274.21,-22207.725,-33377.77,-25288.494,-33985.637,-47189.7,21228.76
956638.1050009031,-63729.94,-81280.56,-22207.031,-33380.29,-25291.383,-33984.66,-47190.676,21231.568
956638.1090008994,-63761.64,-81307.336,-22236.084,-33409.668,-25308.717,-33981.324,-47215.535,21222.047
956638.1130008956,-63771.934,-81314.91,-22244.06,-33415.49,-25310.385,-33982.83,-47221.355,21222.494
956638.1170008918,-63744.836,-81304.164,-22220.053,-33389.61,-25285.361,-33979.9,-47195.56,21238.934
956638.1210008881,-63727.746,-81297.61,-22210.205,-33380.7,-25276.652,-33983.727,-47186.81,21236.043
956638.1250008843,-63753.785,-81305.09,-22230.674,-33402.426,-25298.3,-33989.746,-47204.184,21216.96
956638.1290008805,-63786.785,-81315.43,-22251.67,-33422.812,-25305.137,-33987.184,-47217.33,21218.994
956638.1330008769,-63774.496,-81302.984,-22244.549,-33414.145,-25290.324,-33984.01,-47215.457,21216.594
956638.1370008731,-63731.977,-81269.164,-22212.402,-33380.82,-25273.072,-33980.875,-47188.805,21225.545
956638.1410008693,-63718.26,-81263.15,-22196.412,-33363.73,-25265.422,-33978.11,-47171.67,21229.736
956638.1450008656,-63747.52,-81289.836,-22222.168,-33385.38,-25276.45,-33982.504,-47189.7,21217.814
956638.1490008618,-63771.28,-81316.98,-22242.473,-33411.5,-25300.742,-33979.37,-47208.58,21219.564
956638.153000858,-63783.977,-81326.26,-22251.873,-33420.41,-25314.373,-33974.652,-47215.008,21212.605
956638.1570008543,-63760.703,-81305.83,-22230.592,-33397.38,-25290.895,-33970.703,-47193.117,21226.562
956638.1610008505,-63736.004,-81280.27,-22210.125,-33377.2,-25275.352,-33971.805,-47176.637,21234.54
956638.1650008467,-63748.66,-81287.72,-22221.232,-33387.332,-25292.848,-33974.977,-47183.39,21236.125
956638.169000843,-63779.992,-81318.41,-22243.002,-33410.28,-25310.996,-33976.605,-47200.684,21229.412
956638.1730008393,-63785.688,-81328.58,-22250.164,-33415.285,-25310.1,-33975.79,-47205.527,21227.133
956638.1770008355,-63761.152,-81315.15,-22230.145,-33395.875,-25297.69,-33970.99,-47186.035,21239.625
956638.1810008318,-63748.7,-81300.664,-22214.316,-33381.797,-25289.062,-33977.254,-47173.26,21238.445
956638.185000828,-63762.207,-81310.875,-22225.586,-33395.348,-25293.01,-33980.348,-47185.14,21225.83
956638.1890008242,-63792.156,-81344.04,-22252.076,-33422.69,-25313.885,-33979.86,-47208.375,21214.193
956638.1930008205,-63808.88,-81357.38,-22256.104,-33429.973,-25325.115,-33980.797,-47217.082,21211.14
956638.1970008167,-63787.56,-81340.945,-22238.281,-33409.668,-25313.03,-33982.625,-47198.242,21223.47
956638.2010008129,-63756.96,-81324.75,-22219.361,-33387.492,-25294.19,-33977.54,-47173.34,21232.666
956638.2050008092,-63776.125,-81345.586,-22239.34,-33404.785,-25301.799,-33983.848,-47191.938,21219.28
956638.2090008055,-63810.266,-81357.51,-22265.057,-33430.016,-25330.81,-33984.945,-47217.695,21207.967
956638.2130008017,-63809.367,-81355.836,-22264.201,-33426.758,-25337.281,-33977.703,-47215.21,21213.908
956638.217000798,-63777.957,-81333.09,-22234.375,-33397.992,-25306.602,-33970.83,-47188.965,21224.773
956638.2210007942,-63749.35,-81303.19,-22206.543,-33370.973,-25283.773,-33966.758,-47165.61,21230.266
956638.2250007904,-63758.06,-81302.984,-22217.246,-33380.82,-25295.574,-33965.293,-47176.8,21222.535
956638.2290007867,-63795.617,-81341.31,-22250.53,-33415.164,-25321.818,-33972.82,-47210.86,21205.12
956638.2330007829,-63806.6,-81355.67,-22259.562,-33422.49,-25325.48,-33980.594,-47220.215,21203.207
956638.2370007791,-63782.023,-81327.92,-22240.928,-33398.562,-25312.785,-33983.562,-47199.344,21213.135
956638.2410007754,-63768.395,-81311.98,-22234.62,-33389.12,-25299.357,-33988.08,-47188.52,21221.355
956638.2450007716,-63784.71,-81325.03,-22252.035,-33405.76,-25309.855,-33984.824,-47203.656,21215.047
956638.249000768,-63799.4,-81344.98,-22262.451,-33422.73,-25317.506,-33976.848,-47221.316,21209.352
956638.2530007642,-63794.027,-81346.93,-22259.441,-33421.67,-25317.139,-33979.047,-47223.227,21208.537
956638.2570007604,-63768.066,-81330.61,-22230.918,-33393.19,-25294.271,-33983.113,-47198.49,21223.918
956638.2610007566,-63760.582,-81324.42,-22220.297,-33383.26,-25284.1,-33987.59,-47192.18,21220.174
956638.2650007529,-63778.527,-81328.78,-22243.816,-33402.914,-25292.889,-33990.6,-47211.266,21211.752
956638.2690007491,-63795.207,-81330.125,-22259.645,-33419.965,-25305.584,-33982.098,-47225.586,21220.174
956638.2730007453,-63799.805,-81339.07,-22260.621,-33425.984,-25320.477,-33984.66,-47232.707,21220.053
956638.2770007416,-63779.95,-81322.63,-22241.008,-33406.7,-25306.234,-33985.84,-47214.277,21227.58
956638.2810007378,-63758.996,-81310.8,-22224.121,-33388.67,-25295.207,-33986.816,-47200.81,21224.285
956638.285000734,-63766.32,-81317.38,-22235.719,-33397.83,-25302.654,-33984.254,-47211.793,21220.215
956638.2890007304,-63790.49,-81338.38,-22257.121,-33417.93,-25319.377,-33982.3,-47228.027,21221.762
956638.2930007266,-63781.78,-81336.305,-22249.023,-33410.32,-25317.139,-33980.145,-47223.39,21220.338
956638.2970007228,-63753.34,-81306.44,-22225.303,-33384.24,-25289.104,-33973.188,-47198.69,21229.004
956638.3010007191,-63738.16,-81287.64,-22207.52,-33368.492,-25268.516,-33975.383,-47180.42,21242.473
956638.3050007153,-63760.54,-81310.875,-22227.295,-33391.766,-25279.705,-33985.19,-47203.125,21232.26
956638.3090007115,-63782.797,-81338.22,-22257.041,-33418.863,-25296.387,-33986.777,-47231.0,21217.408
956638.3130007078,-63782.555,-81336.96,-22257.936,-33416.586,-25296.672,-33982.75,-47230.715,21222.127
956638.317000704,-63760.867,-81314.82,-22229.492,-33390.504,-25290.977,-33980.67,-47207.48,21234.863
956638.3210007002,-63745.445,-81300.83,-22216.514,-33377.32,-25277.549,-33984.824,-47197.633,21230.51
956638.3250006966,-63754.438,-81315.72,-22232.951,-33394.37,-25295.045,-33983.645,-47207.562,21226.115
956638.3290006928,-63779.22,-81342.45,-22255.291,-33417.684,-25314.78,-33983.035,-47227.54,21220.744
956638.333000689,-63788.047,-81342.05,-22254.395,-33417.36,-25310.955,-33977.742,-47228.273,21223.47
956638.3370006853,-63760.254,-81314.45,-22231.162,-33392.906,-25289.836,-33975.223,-47208.742,21237.02
956638.3410006815,-63729.492,-81287.27,-22210.002,-33369.223,-25274.09,-33978.07,-47185.914,21245.85
956638.3450006777,-63746.504,-81301.64,-22224.57,-33383.586,-25285.076,-33979.004,-47201.297,21226.441
956638.349000674,-63781.496,-81334.11,-22256.348,-33416.91,-25312.908,-33980.266,-47234.54,21208.74
956638.3530006702,-63783.45,-81331.46,-22259.766,-33418.62,-25310.385,-33980.47,-47238.324,21205.73
956638.3570006664,-63768.68,-81313.766,-22243.002,-33402.547,-25295.166,-33991.54,-47221.52,21214.479
956638.3610006627,-63749.27,-81297.734,-22223.877,-33386.19,-25285.97,-33990.52,-47205.895,21228.271
956638.365000659,-63754.113,-81301.07,-22233.562,-33396.363,-25293.945,-33987.062,-47213.83,21227.133
956638.3690006552,-63772.83,-81322.15,-22250.652,-33414.754,-25309.855,-33986.492,-47229.086,21227.865
956638.3730006515,-63774.336,-81329.02,-22246.379,-33410.2,-25311.973,-33982.137,-47225.383,21237.957
956638.3770006477,-63756.676,-81310.1,-22223.145,-33388.266,-25292.236,-33986.043,-47208.457,21239.422
956638.381000644,-63738.04,-81286.46,-22206.219,-33371.867,-25281.455,-33986.246,-47194.867,21236.41
956638.3850006402,-63751.59,-81296.71,-22220.582,-33389.242,-25296.021,-33988.85,-47210.45,21228.15
956638.3890006364,-63783.0,-81328.49,-22253.623,-33421.43,-25328.248,-33993.695,-47239.83,21215.047
956638.3930006326,-63778.89,-81329.51,-22257.773,-33421.305,-25332.031,-33993.125,-47240.766,21216.635
956638.3970006289,-63758.18,-81307.7,-22238.607,-33399.742,-25314.82,-33994.1,-47224.977,21225.18
956638.4010006251,-63752.93,-81298.305,-22228.436,-33390.18,-25300.498,-33994.996,-47215.254,21225.75
956638.4050006215,-63772.055,-81314.375,-22242.107,-33408.203,-25310.02,-34000.69,-47228.19,21222.25
956638.4090006177,-63788.535,-81333.945,-22256.104,-33424.766,-25326.01,-33994.387,-47244.957,21219.809
956638.4130006139,-63790.12,-81332.195,-22253.867,-33419.56,-25326.01,-33987.062,-47242.066,21220.053
956638.4170006101,-63765.26,-81309.0,-22225.465,-33389.445,-25295.898,-33987.47,-47216.15,21226.441
956638.4210006064,-63746.22,-81300.414,-22207.236,-33374.39,-25288.574,-33991.17,-47198.445,21242.635
956638.4250006026,-63753.258,-81315.35,-22224.53,-33391.4,-25302.654,-33994.305,-47216.88,21230.184
956638.4290005988,-63770.387,-81331.22,-22247.07,-33414.266,-25321.615,-33993.816,-47243.125,21207.723
956638.4330005951,-63778.484,-81332.89,-22256.145,-33421.957,-25328.086,-33996.95,-47251.875,21202.922
956638.4370005913,-63753.746,-81312.91,-22231.854,-33396.688,-25307.781,-33994.71,-47226.688,21218.953
956638.4410005875,-63735.84,-81292.12,-22210.37,-33374.96,-25287.232,-33989.34,-47204.062,21226.238
956638.4450005839,-63741.375,-81298.46,-22216.635,-33386.23,-25297.934,-33987.793,-47211.754,21225.506
956638.4490005801,-63765.465,-81323.85,-22234.904,-33408.773,-25316.367,-33985.516,-47233.074,21220.623
956638.4530005764,-63770.387,-81330.734,-22240.928,-33411.867,-25318.645,-33984.742,-47234.906,21220.623
956638.4570005726,-63748.457,-81307.375,-22222.291,-33387.492,-25301.719,-33988.2,-47214.4,21230.998
956638.4610005688,-63734.418,-81288.13,-22204.307,-33370.523,-25289.877,-33986.41,-47195.273,21236.287
956638.465000565,-63750.652,-81305.22,-22220.215,-33387.613,-25305.176,-33985.72,-47211.348,21227.459
956638.4690005613,-63782.227,-81338.586,-22253.174,-33415.855,-25324.586,-33984.863,-47234.66,21225.22
956638.4730005575,-63796.957,-81353.195,-22262.656,-33422.69,-25325.645,-33983.97,-47244.02,21213.338
956638.4770005537,-63781.984,-81346.516,-22242.676,-33405.56,-25308.594,-33984.54,-47230.348,21207.52
956638.4810005501,-63766.32,-81327.195,-22223.959,-33390.465,-25300.863,-33987.47,-47216.96,21208.496
956638.4850005463,-63762.29,-81330.94,-22234.863,-33400.637,-25300.09,-33986.207,-47223.555,21209.84
956638.4890005426,-63780.56,-81343.14,-22255.371,-33419.23,-25314.291,-33984.254,-47239.18,21211.834
956638.4930005388,-63786.785,-81345.91,-22261.271,-33426.637,-25326.498,-33986.37,-47249.227,21201.701
956638.497000535,-63756.918,-81318.24,-22231.61,-33397.38,-25306.031,-33984.54,-47223.188,21215.535
956638.5010005313,-63740.113,-81298.46,-22213.379,-33379.723,-25293.498,-33983.44,-47205.16,21223.918
956638.5050005275,-63763.47,-81317.99,-22232.219,-33401.938,-25310.1,-33985.312,-47223.594,21212.605
956638.5090005237,-63790.49,-81342.45,-22251.22,-33423.22,-25331.096,-33981.812,-47243.816,21210.816
956638.51300052,-63791.992,-81347.74,-22256.348,-33427.53,-25329.346,-33981.285,-47247.03,21216.879
956638.5170005162,-63767.703,-81331.95,-22239.746,-33406.656,-25312.42,-33984.863,-47228.8,21221.314
956638.5210005125,-63749.35,-81313.4,-22224.61,-33387.41,-25299.44,-33982.953,-47209.84,21220.947
956638.5250005088,-63763.51,-81323.164,-22231.162,-33398.195,-25307.578,-33984.99,-47222.37,21214.723
956638.529000505,-63786.055,-81336.8,-22247.479,-33414.348,-25317.262,-33983.195,-47240.156,21208.375
956638.5330005012,-63786.297,-81340.05,-22251.873,-33414.594,-25316.123,-33982.098,-47242.35,21208.455
956638.5370004975,-63753.34,-81313.4,-22226.645,-33392.05,-25294.678,-33983.97,-47220.625,21222.982
956638.5410004937,-63739.258,-81297.77,-22217.49,-33381.43,-25288.25,-33989.625,-47210.652,21223.877
956638.5450004899,-63761.19,-81317.51,-22237.387,-33398.97,-25297.568,-33992.473,-47225.953,21213.338
956638.5490004861,-63785.44,-81347.49,-22257.244,-33421.266,-25309.979,-33989.83,-47244.062,21214.967
956638.5530004824,-63780.76,-81350.71,-22252.482,-33419.23,-25307.861,-33987.348,-47246.543,21215.129
956638.5570004786,-63757.812,-81327.15,-22230.225,-33396.89,-25293.945,-33992.15,-47226.89,21226.562
956638.561000475,-63738.242,-81303.914,-22213.787,-33378.785,-25277.467,-33991.336,-47207.805,21232.098
956638.5650004712,-63746.46,-81310.23,-22222.656,-33391.195,-25287.72,-33988.12,-47218.305,21228.475
956638.5690004674,-63769.41,-81327.15,-22244.182,-33412.234,-25306.316,-33980.227,-47237.715,21223.064
956638.5730004637,-63767.99,-81328.125,-22246.42,-33411.54,-25310.752,-33973.062,-47236.043,21227.783
956638.5770004599,-63738.445,-81295.86,-22214.844,-33381.31,-25291.79,-33970.176,-47204.836,21245.443
956638.5810004561,-63737.348,-81286.586,-22199.016,-33368.53,-25275.758,-33975.547,-47193.77,21242.432
956638.5850004524,-63755.13,-81308.35,-22219.402,-33389.406,-25288.127,-33985.23,-47212.2,21228.924
956638.5890004486,-63777.14,-81335.734,-22248.008,-33418.336,-25304.404,-33989.79,-47239.3,21213.543
956638.5930004448,-63788.086,-81350.1,-22257.244,-33426.555,-25308.799,-33990.234,-47245.363,21213.299
956638.5970004412,-63765.22,-81341.8,-22236.736,-33405.19,-25286.418,-33992.96,-47226.402,21221.03
956638.6010004374,-63737.59,-81316.45,-22214.926,-33380.74,-25272.299,-33993.98,-47205.203,21228.8
956638.6050004336,-63745.605,-81315.266,-22224.406,-33392.66,-25288.656,-33990.926,-47214.438,21228.23
956638.6090004299,-63771.812,-81337.94,-22245.605,-33416.504,-25307.008,-33987.305,-47233.44,21225.139
956638.6130004261,-63780.723,-81350.75,-22251.1,-33419.15,-25307.943,-33983.035,-47235.23,21220.947
956638.6170004223,-63757.773,-81331.14,-22234.01,-33397.79,-25289.836,-33981.0,-47214.6,21230.307
956638.6210004186,-63738.28,-81307.05,-22210.002,-33377.24,-25280.803,-33978.883,-47194.38,21245.076
956638.6250004148,-63750.207,-81318.12,-22217.164,-33386.92,-25290.977,-33979.74,-47201.582,21241.17
956638.629000411,-63769.086,-81339.195,-22239.178,-33408.61,-25310.02,-33983.4,-47221.52,21230.104
956638.6330004073,-63776.41,-81347.29,-22248.21,-33415.0,-25313.803,-33985.965,-47226.523,21231.121
956638.6370004036,-63758.996,-81333.01,-22229.533,-33397.016,-25297.486,-33988.527,-47210.574,21234.863
956638.6410003998,-63748.742,-81326.42,-22214.723,-33383.14,-25285.156,-33990.723,-47193.36,21236.736
956638.6450003961,-63764.49,-81353.44,-22233.195,-33402.387,-25295.818,-33997.56,-47209.516,21219.117
956638.6490003923,-63794.8,-81377.484,-22263.795,-33433.39,-25313.64,-34000.855,-47238.61,21205.486
956638.6530003885,-63792.117,-81359.336,-22258.383,-33427.246,-25314.209,-33991.945,-47232.137,21213.867
956638.6570003848,-63764.61,-81321.45,-22234.742,-33397.95,-25296.266,-33987.062,-47204.1,21229.615
956638.661000381,-63750.125,-81302.37,-22218.67,-33378.176,-25279.217,-33987.145,-47183.516,21240.967
956638.6650003772,-63753.582,-81315.35,-22219.727,-33385.582,-25282.756,-33989.22,-47190.145,21237.02
956638.6690003735,-63758.668,-81336.34,-22239.258,-33410.523,-25303.916,-33987.1,-47218.996,21225.994
956638.6730003697,-63766.766,-81347.13,-22251.832,-33421.633,-25314.047,-33993.53,-47231.324,21217.367
956638.677000366,-63745.402,-81326.3,-22227.133,-33399.09,-25299.602,-33998.902,-47211.71,21222.982
956638.6810003623,-63739.3,-81322.8,-22216.025,-33387.29,-25291.424,-34003.95,-47196.004,21231.73
956638.6850003585,-63739.016,-81337.65,-22223.877,-33400.027,-25297.283,-34004.76,-47206.055,21227.742
956638.6890003547,-63756.348,-81346.93,-22233.562,-33416.3,-25304.24,-33997.152,-47217.977,21227.742
956638.693000351,-63765.344,-81343.06,-22232.016,-33411.62,-25310.059,-33993.57,-47215.414,21227.742
956638.6970003472,-63740.48,-81330.41,-22215.617,-33392.78,-25293.457,-33994.59,-47202.35,21226.197
956638.7010003434,-63725.87,-81325.03,-22204.346,-33380.535,-25277.955,-34001.953,-47193.074,21222.982
956638.7050003397,-63742.188,-81334.39,-22219.28,-33395.875,-25291.83,-34007.0,-47205.242,21217.285
956638.7090003359,-63774.05,-81358.73,-22240.967,-33421.43,-25314.658,-34003.055,-47230.145,21201.336
956638.7130003322,-63784.06,-81363.28,-22252.727,-33431.766,-25324.748,-34002.32,-47239.992,21195.72
956638.7170003285,-63763.754,-81348.35,-22232.83,-33412.395,-25304.037,-34002.93,-47219.08,21208.049
956638.7210003247,-63745.65,-81323.94,-22213.258,-33391.36,-25284.385,-34001.71,-47193.035,21229.736
956638.7250003209,-63750.49,-81324.016,-22219.117,-33398.52,-25296.348,-33998.21,-47197.957,21233.236
956638.7290003172,-63760.785,-81334.72,-22238.12,-33415.855,-25312.012,-33997.56,-47210.98,21233.562
956638.7330003134,-63757.895,-81332.89,-22240.398,-33414.957,-25306.234,-33996.625,-47208.863,21239.95
956638.7370003096,-63746.34,-81317.586,-22225.465,-33399.82,-25292.604,-33999.227,-47194.38,21247.479
956638.7410003059,-63735.516,-81305.586,-22212.932,-33386.8,-25278.361,-34002.402,-47184.734,21249.92
956638.7450003021,-63749.39,-81326.13,-22228.516,-33404.83,-25288.78,-34012.574,-47209.35,21225.75
956638.7490002983,-63778.445,-81356.9,-22255.412,-33432.902,-25313.477,-34011.11,-47236.613,21213.299
956638.7530002947,-63785.08,-81358.234,-22257.977,-33433.023,-25316.162,-34002.848,-47236.207,21217.082
956638.7570002909,-63761.152,-81333.945,-22236.816,-33410.035,-25303.916,-34003.46,-47212.363,21231.445
956638.7610002871,-63735.637,-81305.625,-22211.875,-33387.535,-25287.883,-33998.293,-47187.625,21241.09
956638.7650002834,-63737.55,-81311.61,-22218.303,-33397.586,-25295.492,-33997.64,-47194.582,21237.346
956638.7690002796,-63763.88,-81341.02,-22242.717,-33423.83,-25311.2,-33997.113,-47216.637,21233.113
956638.7730002758,-63776.043,-81356.2,-22253.094,-33432.58,-25321.412,-33997.03,-47227.05,21228.395
956638.7770002721,-63761.926,-81337.65,-22235.678,-33415.73,-25307.17,-34002.566,-47215.17,21230.389
956638.7810002683,-63743.37,-81319.625,-22216.35,-33395.47,-25286.785,-34001.914,-47199.75,21236.898
956638.7850002645,-63748.945,-81324.51,-22224.814,-33403.65,-25291.912,-34001.547,-47206.87,21230.672
956638.7890002608,-63770.227,-81346.73,-22245.037,-33426.23,-25311.158,-33998.453,-47223.473,21226.93
956638.7930002571,-63771.566,-81352.42,-22247.396,-33427.125,-25314.088,-33995.523,-47227.05,21222.86
956638.7970002533,-63748.21,-81335.05,-22227.459,-33405.6,-25297.771,-34004.152,-47214.234,21215.373
956638.8010002496,-63729.86,-81307.87,-22212.484,-33386.637,-25283.285,-34006.473,-47197.88,21218.182
956638.8050002458,-63747.805,-81318.52,-22230.43,-33405.723,-25299.766,-34012.695,-47211.875,21217.693
956638.809000242,-63772.668,-81342.41,-22249.96,-33430.664,-25315.105,-34012.125,-47231.61,21214.031
956638.8130002383,-63765.504,-81346.516,-22236.695,-33420.047,-25302.979,-34001.953,-47221.64,21230.184
956638.8170002345,-63740.234,-81326.5,-22218.344,-33393.8,-25281.006,-33996.46,-47197.062,21248.902
956638.8210002307,-63728.68,-81312.5,-22208.13,-33383.14,-25274.578,-33994.793,-47182.945,21251.668
956638.825000227,-63735.19,-81323.94,-22220.42,-33399.09,-25286.744,-33995.242,-47194.258,21239.666
956638.8290002232,-63768.312,-81348.43,-22249.023,-33428.266,-25311.035,-33999.676,-47220.625,21230.389
956638.8330002195,-63781.13,-81348.31,-22253.623,-33434.0,-25318.482,-34000.285,-47229.453,21229.533
956638.8370002158,-63746.95,-81325.16,-22230.633,-33406.496,-25301.066,-33996.094,-47207.93,21236.613
956638.841000212,-63737.836,-81320.36,-22222.78,-33394.41,-25290.244,-34002.117,-47195.883,21237.916
956638.8450002082,-63752.035,-81328.05,-22235.596,-33406.414,-25295.33,-34003.785,-47204.184,21228.883
956638.8490002045,-63767.66,-81339.36,-22248.658,-33423.016,-25311.32,-34005.086,-47216.23,21229.004
956638.8530002007,-63771.65,-81349.0,-22251.791,-33426.027,-25314.17,-34004.07,-47221.03,21235.19
956638.8570001969,-63756.27,-81333.664,-22229.045,-33401.816,-25288.9,-33998.414,-47203.125,21245.89
956638.8610001932,-63740.887,-81324.51,-22216.432,-33390.625,-25275.84,-33996.746,-47194.258,21248.82
956638.8650001894,-63755.37,-81347.336,-22236.29,-33409.71,-25291.057,-34001.63,-47213.746,21232.79
956638.8690001857,-63785.85,-81367.516,-22259.604,-33433.96,-25316.895,-34006.023,-47238.895,21217.488
956638.873000182,-63786.258,-81364.016,-22260.377,-33431.277,-25317.588,-34004.395,-47240.48,21214.355
956638.8770001782,-63754.234,-81333.336,-22227.703,-33397.46,-25293.621,-34001.305,-47211.875,21225.3
956638.8810001744,-63730.918,-81323.0,-22208.496,-33382.324,-25282.227,-34003.99,-47194.746,21231.975
956638.8850001707,-63749.39,-81344.12,-22226.645,-33403.605,-25297.607,-34006.594,-47205.977,21228.68
956638.8890001669,-63780.56,-81366.26,-22250.611,-33427.695,-25318.441,-34005.168,-47225.465,21225.139
956638.8930001631,-63787.883,-81359.3,-22257.365,-33430.582,-25322.754,-34007.242,-47228.76,21226.156
956638.8970001594,-63767.336,-81338.87,-22241.781,-33412.273,-25302.572,-34011.07,-47208.824,21233.44
956638.9010001556,-63737.387,-81319.5,-22217.49,-33387.86,-25281.576,-34001.832,-47183.473,21245.85
956638.9050001518,-63754.355,-81332.73,-22230.062,-33402.67,-25287.924,-34003.867,-47199.75,21238.852
956638.9090001482,-63782.84,-81348.8,-22255.82,-33429.242,-25315.105,-34000.49,-47227.664,21229.98
956638.9130001444,-63776.938,-81346.68,-22256.104,-33428.266,-25315.918,-33997.844,-47228.355,21231.404
956638.9170001406,-63748.535,-81324.67,-22230.633,-33402.875,-25283.488,-34001.547,-47199.87,21247.193
956638.9210001369,-63731.934,-81312.75,-22210.775,-33382.73,-25263.51,-34002.32,-47178.266,21255.209
956638.9250001331,-63742.473,-81326.01,-22216.553,-33392.62,-25278.361,-33996.094,-47187.582,21244.467
956638.9290001293,-63765.707,-81349.41,-22232.951,-33412.598,-25295.695,-33989.87,-47204.875,21239.543
956638.9330001256,-63766.727,-81347.91,-22232.627,-33412.234,-25293.336,-33987.145,-47206.79,21245.361
956638.9370001218,-63746.625,-81328.375,-22222.941,-33396.2,-25279.826,-33993.125,-47192.953,21251.465
956638.941000118,-63732.383,-81312.586,-22208.13,-33379.965,-25261.11,-33992.594,-47174.195,21262.004
956638.9450001143,-63753.137,-81332.97,-22220.053,-33395.875,-25276.572,-33993.57,-47183.72,21260.824
956638.9490001106,-63770.508,-81355.39,-22241.7,-33422.934,-25299.56,-33994.02,-47210.734,21250.367
956638.9530001068,-63767.418,-81355.59,-22239.828,-33423.016,-25300.498,-33994.754,-47216.758,21245.402
956638.9570001031,-63754.56,-81348.19,-22224.121,-33403.688,-25287.924,-33996.664,-47201.01,21249.879
956638.9610000993,-63736.25,-81333.01,-22206.584,-33386.68,-25276.572,-33997.316,-47189.7,21246.826
956638.9650000955,-63744.305,-81340.66,-22213.014,-33395.59,-25286.012,-33999.797,-47202.395,21234.742
956638.9690000918,-63762.777,-81358.08,-22227.744,-33410.523,-25298.625,-33989.42,-47218.02,21234.295
956638.973000088,-63765.547,-81363.98,-22236.695,-33415.773,-25300.172,-33987.184,-47224.0,21237.59
956638.9770000842,-63756.39,-81356.61,-22234.701,-33409.06,-25297.852,-33997.56,-47215.617,21239.38
956638.9810000805,-63742.72,-81332.484,-22219.727,-33393.598,-25286.703,-33996.34,-47196.332,21249.512
956638.9850000768,-63755.535,-81328.984,-22223.594,-33401.367,-25283.691,-33993.492,-47198.977,21246.297
956638.989000073,-63771.61,-81345.26,-22239.828,-33418.785,-25290.203,-33988.324,-47215.742,21243.611
956638.9930000693,-63765.383,-81347.91,-22235.475,-33417.523,-25301.922,-33988.445,-47216.84,21243.938
956638.9970000655,-63754.965,-81337.73,-22223.553,-33405.316,-25300.09,-33999.023,-47206.625,21246.95
956639.0010000617,-63743.9,-81327.4,-22216.229,-33393.84,-25292.645,-34004.273,-47198.57,21251.059
956639.005000058,-63750.652,-81342.9,-22224.773,-33402.996,-25298.34,-34002.727,-47205.65,21246.46
956639.0090000542,-63779.543,-81369.305,-22248.74,-33427.86,-25317.547,-33999.797,-47229.086,21233.846
956639.0130000504,-63796.633,-81380.695,-22256.756,-33436.28,-25318.97,-33999.105,-47237.227,21236.898
956639.0170000467,-63767.99,-81354.05,-22228.68,-33405.723,-25282.594,-33990.805,-47204.957,21263.143
956639.0210000429,-63736.74,-81337.12,-22203.045,-33382.324,-25266.807,-33989.746,-47185.547,21270.428
956639.0250000393,-63755.86,-81351.484,-22223.553,-33399.008,-25285.809,-33995.117,-47203.047,21257.283
956639.0290000355,-63780.76,-81363.53,-22247.275,-33421.875,-25306.682,-33995.242,-47226.973,21254.354
956639.0330000317,-63789.105,-81358.89,-22243.775,-33419.965,-25302.328,-33991.617,-47234.457,21252.156
956639.037000028,-63773.6,-81343.67,-22223.918,-33396.527,-25283.855,-33990.48,-47220.01,21253.826
956639.0410000242,-63743.086,-81325.52,-22212.281,-33382.0,-25285.482,-33996.176,-47206.34,21256.836
956639.0450000204,-63747.195,-81337.57,-22223.797,-33395.145,-25287.883,-33994.875,-47215.82,21247.518
956639.0490000166,-63769.25,-81356.77,-22241.172,-33412.926,-25295.86,-33988.28,-47230.88,21240.072
956639.0530000129,-63778.117,-81364.79,-22248.373,-33419.15,-25303.59,-33985.598,-47233.4,21240.887
956639.0570000091,-63750.57,-81344.69,-22220.703,-33393.555,-25282.268,-33983.035,-47212.527,21249.023
956639.0610000053,-63735.395,-81331.625,-22203.857,-33377.117,-25269.328,-33986.695,-47199.383,21256.227
956639.0650000017,-63762.047,-81357.71,-22223.309,-33397.34,-25288.371,-33998.414,-47218.71,21249.676
956639.0689999979,-63789.918,-81370.32,-22249.309,-33424.97,-25308.879,-34000.33,-47247.48,21241.13
956639.0729999942,-63791.426,-81367.68,-22254.395,-33433.105,-25312.256,-34004.395,-47257.04,21238.648
956639.0769999904,-63768.477,-81346.27,-22235.557,-33408.043,-25293.418,-34002.035,-47235.312,21245.932
956639.0809999866,-63754.844,-81325.766,-22216.064,-33386.56,-25281.25,-34000.734,-47216.84,21252.889
956639.0849999828,-63754.52,-81330.57,-22218.71,-33393.312,-25294.395,-33997.684,-47220.785,21251.668
956639.0889999791,-63768.965,-81349.29,-22237.63,-33414.227,-25306.234,-33990.97,-47238.61,21244.873
956639.0929999753,-63774.17,-81360.48,-22241.21,-33417.81,-25303.428,-33986.9,-47243.45,21244.14
956639.0969999715,-63762.74,-81353.68,-22227.174,-33403.566,-25292.686,-33994.71,-47230.105,21249.715
956639.1009999679,-63752.81,-81336.96,-22214.6,-33391.195,-25290.365,-33998.25,-47214.48,21257.61
956639.1049999641,-63761.11,-81344.89,-22225.098,-33402.59,-25297.812,-34000.164,-47217.977,21261.719
956639.1089999604,-63780.48,-81364.34,-22241.781,-33422.0,-25313.07,-33999.15,-47234.785,21259.318
956639.1129999566,-63775.188,-81360.516,-22238.322,-33419.68,-25312.379,-33996.625,-47235.8,21252.809
956639.1169999528,-63754.805,-81341.02,-22215.861,-33394.816,-25288.535,-33988.77,-47213.46,21252.93
956639.120999949,-63744.02,-81321.45,-22205.322,-33382.57,-25283.814,-33991.05,-47203.37,21255.615
956639.1249999453,-63754.76,-81330.28,-22218.467,-33397.867,-25300.863,-33999.594,-47215.535,21253.256
956639.1289999415,-63777.754,-81356.24,-22235.637,-33422.49,-25312.094,-33997.438,-47239.137,21248.494
956639.1329999377,-63780.684,-81365.32,-22243.857,-33428.63,-25307.008,-33997.887,-47247.887,21242.432
956639.136999934,-63753.543,-81340.375,-22221.232,-33398.03,-25284.588,-33987.55,-47222.496,21255.494
956639.1409999303,-63737.145,-81317.016,-22203.736,-33377.32,-25274.21,-33980.67,-47203.492,21269.451
956639.1449999266,-63742.516,-81320.44,-22212.852,-33389.12,-25280.314,-33981.61,-47214.234,21262.574
956639.1489999228,-63763.67,-81334.59,-22227.621,-33410.156,-25295.045,-33983.316,-47231.406,21260.865
956639.152999919,-63761.8,-81333.74,-22228.965,-33409.18,-25297.242,-33983.805,-47231.0,21262.29
956639.1569999153,-63740.684,-81317.305,-22211.549,-33389.12,-25283.977,-33986.086,-47211.836,21271.688
956639.1609999115,-63722.535,-81300.62,-22197.227,-33374.88,-25272.258,-33989.34,-47198.855,21272.828
956639.1649999077,-63740.805,-81308.39,-22207.195,-33384.848,-25282.879,-33989.625,-47204.47,21270.508
956639.168999904,-63757.406,-81330.484,-22224.57,-33403.363,-25299.969,-33981.406,-47216.51,21269.979
956639.1729999002,-63760.664,-81339.84,-22225.791,-33409.508,-25309.49,-33968.508,-47216.105,21270.264
956639.1769998964,-63744.875,-81324.016,-22207.52,-33389.527,-25295.98,-33971.11,-47194.05,21282.268
956639.1809998928,-63739.34,-81316.49,-22200.889,-33383.383,-25288.33,-33983.93,-47193.484,21276.326
956639.184999889,-63750.855,-81333.82,-22214.926,-33399.293,-25294.434,-33987.47,-47209.96,21269.654
956639.1889998852,-63770.47,-81359.055,-22231.283,-33416.79,-25309.938,-33983.6,-47224.0,21271.893
956639.1929998815,-63771.445,-81363.04,-22227.865,-33414.062,-25308.594,-33983.36,-47222.617,21275.473
956639.1969998777,-63750.45,-81350.95,-22205.771,-33388.754,-25279.95,-33985.92,-47201.336,21278.605
956639.2009998739,-63735.11,-81330.61,-22198.73,-33376.59,-25275.635,-33990.48,-47191.53,21277.182
956639.2049998702,-63751.508,-81343.18,-22214.111,-33396.242,-25290.895,-33991.902,-47207.195,21267.457
956639.2089998664,-63788.617,-81371.91,-22246.582,-33428.836,-25319.418,-34000.203,-47236.29,21252.727
956639.2129998626,-63798.91,-81376.836,-22253.459,-33437.99,-25330.648,-34003.543,-47246.46,21250.164
956639.2169998589,-63775.758,-81354.82,-22232.707,-33413.21,-25304.363,-34002.36,-47225.223,21262.492
956639.2209998552,-63756.715,-81338.79,-22217.855,-33394.043,-25286.988,-34005.902,-47210.9,21264.69
956639.2249998514,-63764.855,-81345.75,-22225.139,-33402.793,-25287.803,-34004.19,-47220.83,21258.26
956639.2289998477,-63786.906,-81368.734,-22248.047,-33427.246,-25302.328,-33999.31,-47243.086,21244.832
956639.2329998439,-63780.805,-81362.02,-22244.305,-33422.49,-25302.166,-33996.625,-47238.73,21247.479
956639.2369998401,-63768.434,-81346.31,-22226.807,-33404.83,-25290.283,-33996.625,-47221.438,21254.72
956639.2409998364,-63757.855,-81336.63,-22211.467,-33388.266,-25279.297,-33995.934,-47205.28,21263.428
956639.2449998326,-63766.562,-81349.2,-22222.006,-33401.367,-25288.25,-33999.758,-47219.484,21252.482
956639.2489998288,-63786.703,-81377.2,-22242.188,-33424.93,-25301.066,-33999.918,-47239.95,21249.146
956639.252999825,-63792.89,-81378.54,-22250.326,-33433.15,-25312.297,-34002.035,-47251.426,21238.69
956639.2569998214,-63768.555,-81343.23,-22229.98,-33412.152,-25295.98,-34005.37,-47235.19,21239.34
956639.2609998176,-63750.773,-81326.78,-22210.49,-33393.19,-25282.105,-34005.7,-47214.195,21252.768
956639.2649998139,-63752.93,-81332.73,-22216.635,-33399.945,-25291.383,-34001.02,-47218.67,21252.441
956639.2689998101,-63775.88,-81363.89,-22241.904,-33424.97,-25316.123,-34004.883,-47239.586,21253.297
956639.2729998063,-63781.17,-81369.63,-22240.44,-33425.742,-25317.506,-34002.523,-47239.746,21258.545
956639.2769998026,-63754.355,-81340.414,-22212.688,-33397.137,-25293.295,-33997.805,-47218.71,21263.348
956639.2809997988,-63731.934,-81314.21,-22196.9,-33378.258,-25275.473,-33996.582,-47201.824,21264.363
956639.284999795,-63738.69,-81326.13,-22204.428,-33387.535,-25283.123,-33998.78,-47209.516,21259.645
956639.2889997913,-63767.17,-81352.945,-22231.324,-33415.0,-25308.514,-34000.49,-47236.125,21251.018
956639.2929997875,-63777.184,-81359.83,-22240.602,-33421.47,-25315.309,-33997.64,-47244.14,21251.424
956639.2969997838,-63757.977,-81339.766,-22219.076,-33399.332,-25295.777,-33999.473,-47222.496,21260.54
956639.3009997801,-63745.324,-81330.125,-22201.213,-33384.645,-25279.582,-34001.465,-47205.04,21260.133
956639.3049997763,-63764.895,-81352.91,-22215.943,-33403.445,-25291.3,-34002.44,-47216.637,21255.453
956639.3089997725,-63792.2,-81382.33,-22248.414,-33433.51,-25317.791,-34001.305,-47239.504,21254.395
956639.3129997688,-63794.883,-81383.305,-22254.924,-33433.023,-25317.139,-34001.344,-47238.527,21261.719
956639.316999765,-63772.34,-81359.664,-22232.627,-33412.234,-25306.723,-34007.938,-47222.496,21257.895
956639.3209997612,-63751.184,-81336.43,-22214.438,-33394.004,-25299.56,-34011.19,-47206.992,21260.986
956639.3249997575,-63769.086,-81340.62,-22227.865,-33406.656,-25309.693,-34008.504,-47219.28,21256.959
956639.3289997537,-63789.473,-81358.16,-22249.594,-33431.438,-25323.65,-34007.652,-47243.613,21247.355
956639.3329997499,-63785.44,-81362.19,-22252.564,-33434.938,-25321.941,-34007.69,-47252.93,21240.602
956639.3369997463,-63759.848,-81336.02,-22230.389,-33411.703,-25298.34,-34006.227,-47234.54,21248.006
956639.3409997425,-63747.52,-81315.02,-22212.566,-33390.668,-25280.518,-34005.168,-47211.63,21259.277
956639.3449997387,-63759.605,-81327.72,-22224.814,-33402.426,-25290.0,-34005.902,-47222.74,21245.77
956639.348999735,-63778.445,-81347.945,-22243.734,-33422.324,-25307.943,-34006.227,-47241.008,21236.857
956639.3529997312,-63783.613,-81352.3,-22247.764,-33422.28,-25304.281,-34003.867,-47240.887,21239.666
956639.3569997274,-63772.34,-81336.8,-22231.527,-33405.723,-25290.812,-33999.594,-47225.63,21250.855
956639.3609997237,-63750.773,-81319.46,-22211.793,-33387.125,-25265.3,-33998.984,-47210.9,21250.447
956639.3649997199,-63767.09,-81336.75,-22227.58,-33406.09,-25273.031,-34003.133,-47229.82,21232.666
956639.3689997161,-63798.383,-81362.76,-22254.844,-33434.816,-25299.357,-34003.133,-47254.03,21233.684
956639.3729997125,-63789.88,-81363.28,-22251.629,-33431.316,-25299.846,-34001.14,-47251.26,21233.928
956639.3769997087,-63757.203,-81333.336,-22230.918,-33404.094,-25279.379,-34002.848,-47226.848,21246.053
956639.3809997049,-63741.945,-81315.92,-22215.537,-33387.86,-25268.19,-34002.973,-47212.85,21248.21
956639.3849997012,-63758.586,-81334.07,-22224.691,-33403.28,-25280.111,-34002.566,-47224.61,21244.06
956639.3889996974,-63783.49,-81360.96,-22249.268,-33430.91,-25299.113,-34001.87,-47242.88,21243.979
956639.3929996936,-63786.582,-81362.43,-22253.785,-33431.355,-25297.568,-33996.867,-47243.53,21245.158
956639.3969996899,-63764.367,-81342.82,-22229.29,-33406.496,-25282.47,-33995.605,-47220.543,21251.344
956639.4009996861,-63742.188,-81320.03,-22208.904,-33386.07,-25268.719,-33999.51,-47196.7,21257.324
956639.4049996823,-63749.105,-81329.96,-22218.71,-33396.242,-25272.055,-34001.75,-47203.535,21254.72
956639.4089996786,-63776.086,-81354.86,-22242.229,-33423.34,-25294.027,-33997.56,-47223.88,21255.494
956639.4129996749,-63779.582,-81353.6,-22244.102,-33427.207,-25297.201,-33993.613,-47225.383,21262.98
956639.4169996711,-63751.67,-81329.914,-22222.332,-33403.24,-25280.314,-33996.83,-47207.074,21273.967
956639.4209996674,-63736.125,-81313.11,-22209.434,-33387.613,-25272.258,-33998.293,-47193.44,21275.92
956639.4249996636,-63746.992,-81326.664,-22220.867,-33401.246,-25279.46,-34003.215,-47205.69,21271.688
956639.4289996598,-63767.785,-81347.58,-22236.898,-33422.16,-25293.54,-34001.305,-47223.27,21273.52
956639.4329996561,-63772.016,-81348.516,-22238.81,-33421.51,-25292.807,-33998.09,-47225.223,21268.758
956639.4369996523,-63744.305,-81331.22,-22215.658,-33393.27,-25272.178,-33998.047,-47200.32,21268.148
956639.4409996485,-63727.38,-81323.0,-22203.654,-33381.918,-25260.498,-33998.375,-47188.56,21265.137
956639.4449996448,-63745.812,-81333.414,-22220.785,-33402.184,-25272.705,-34000.367,-47204.957,21258.057
956639.448999641,-63771.69,-81351.73,-22245.525,-33425.293,-25293.58,-33999.676,-47222.656,21257.324
956639.4529996373,-63777.184,-81355.96,-22249.35,-33429.117,-25302.166,-33991.7,-47224.938,21264.568
956639.4569996336,-63750.57,-81329.1,-22221.68,-33402.14,-25277.752,-33986.086,-47203.125,21272.746
956639.4609996298,-63729.656,-81314.086,-22202.11,-33383.87,-25262.492,-33985.637,-47182.13,21283.326
956639.464999626,-63747.6,-81333.87,-22216.432,-33397.707,-25272.666,-33989.098,-47194.99,21269.125
956639.4689996223,-63773.887,-81359.055,-22236.41,-33416.344,-25287.803,-33987.47,-47213.83,21266.236
956639.4729996185,-63776.086,-81361.125,-22240.072,-33419.92,-25289.227,-33987.387,-47221.316,21257.488
956639.4769996147,-63755.535,-81338.664,-22218.1,-33397.664,-25269.328,-33987.02,-47204.43,21257.283
956639.480999611,-63737.348,-81317.51,-22199.139,-33378.867,-25255.656,-33986.492,-47187.95,21265.504
956639.4849996072,-63750.816,-81323.29,-22216.96,-33397.42,-25267.295,-33988.324,-47203.125,21260.092
956639.4889996035,-63770.715,-81347.49,-22238.201,-33424.03,-25286.703,-33984.742,-47222.453,21258.3
956639.4929995998,-63773.156,-81348.96,-22241.375,-33424.848,-25292.848,-33984.945,-47225.465,21260.133
956639.496999596,-63754.07,-81332.32,-22219.238,-33400.555,-25279.99,-33985.434,-47205.04,21261.719
956639.5009995922,-63734.582,-81327.31,-22205.322,-33384.074,-25261.191,-33988.934,-47186.28,21271.729
956639.5049995885,-63736.41,-81337.65,-22216.838,-33394.33,-25265.463,-33987.59,-47190.633,21275.96
956639.5089995847,-63764.57,-81351.16,-22241.375,-33421.184,-25286.947,-33984.5,-47211.348,21269.734
956639.5129995809,-63775.312,-81357.625,-22244.264,-33426.676,-25292.725,-33983.645,-47215.457,21263.592
956639.5169995772,-63752.605,-81332.89,-22218.994,-33400.516,-25280.234,-33978.477,-47189.984,21277.1
956639.5209995734,-63727.867,-81307.13,-22198.203,-33376.344,-25262.168,-33975.504,-47163.496,21293.092
956639.5249995696,-63746.094,-81316.94,-22210.49,-33391.562,-25267.822,-33975.3,-47170.613,21296.834
956639.528999566,-63779.992,-81352.016,-22241.293,-33426.758,-25294.842,-33978.516,-47202.92,21275.514
956639.5329995622,-63781.82,-81364.586,-22249.432,-33431.152,-25295.248,-33984.293,-47209.434,21268.475
956639.5369995584,-63760.38,-81351.16,-22228.842,-33408.57,-25276.611,-33984.62,-47187.746,21283.814
956639.5409995547,-63745.973,-81330.81,-22211.182,-33390.098,-25264.648,-33982.953,-47171.67,21288.209
956639.5449995509,-63756.918,-81341.63,-22226.441,-33405.76,-25269.857,-33981.285,-47185.914,21283.0
956639.5489995471,-63780.844,-81366.46,-22250.0,-33431.48,-25295.736,-33978.027,-47210.45,21279.012
956639.5529995434,-63789.758,-81372.234,-22251.75,-33433.188,-25296.672,-33982.06,-47216.023,21273.885
956639.5569995396,-63762.82,-81348.68,-22227.174,-33404.543,-25275.96,-33981.203,-47195.07,21283.285
956639.5609995358,-63739.465,-81335.05,-22205.69,-33380.574,-25260.459,-33979.492,-47173.098,21290.121
956639.5649995321,-63757.367,-81350.586,-22218.67,-33396.2,-25270.06,-33977.582,-47184.652,21284.18
956639.5689995284,-63784.426,-81372.805,-22249.309,-33426.758,-25295.451,-33978.68,-47211.957,21268.352
956639.5729995247,-63794.434,-81377.81,-22257.812,-33436.44,-25305.176,-33981.0,-47223.105,21262.127
956639.5769995209,-63775.312,-81358.805,-22236.084,-33413.37,-25288.453,-33977.906,-47199.992,21274.861
956639.5809995171,-63759.32,-81340.375,-22215.537,-33394.777,-25271.24,-33979.13,-47178.914,21281.453
956639.5849995133,-63772.746,-81355.875,-22225.059,-33404.38,-25277.793,-33979.82,-47186.85,21276.367
956639.5889995096,-63788.74,-81373.78,-22237.957,-33421.305,-25291.912,-33979.94,-47201.62,21270.71
956639.5929995058,-63788.008,-81368.37,-22238.037,-33421.715,-25293.457,-33976.81,-47206.79,21261.719
956639.596999502,-63764.895,-81348.88,-22218.1,-33399.05,-25272.87,-33972.7,-47187.137,21273.723
956639.6009994983,-63750.45,-81338.79,-22208.62,-33387.207,-25264.648,-33976.93,-47170.695,21283.814
956639.6049994945,-63774.58,-81355.555,-22230.469,-33410.605,-25279.705,-33986.086,-47190.227,21272.828
956639.6089994909,-63802.004,-81377.36,-22256.715,-33436.44,-25300.537,-33984.5,-47215.66,21260.377
956639.6129994871,-63800.58,-81376.63,-22255.047,-33435.1,-25300.66,-33982.625,-47216.473,21266.44
956639.6169994833,-63779.258,-81357.47,-22231.162,-33409.996,-25284.18,-33986.246,-47192.953,21272.746
956639.6209994795,-63760.38,-81341.11,-22212.484,-33389.773,-25265.666,-33985.066,-47174.113,21270.387
956639.6249994758,-63766.848,-81345.22,-22222.738,-33402.508,-25273.275,-33987.02,-47185.832,21265.79
956639.628999472,-63792.402,-81363.164,-22243.49,-33424.277,-25291.098,-33983.6,-47209.637,21259.48
956639.6329994682,-63793.133,-81366.414,-22248.984,-33425.58,-25294.963,-33982.383,-47215.984,21250.447
956639.6369994645,-63767.01,-81344.56,-22224.488,-33399.7,-25276.572,-33980.67,-47192.832,21258.668
956639.6409994607,-63753.664,-81327.07,-22205.566,-33382.406,-25263.348,-33984.133,-47174.562,21263.795
956639.644999457,-63762.74,-81336.39,-22213.34,-33395.305,-25271.566,-33984.78,-47185.305,21258.016
956639.6489994533,-63791.465,-81369.59,-22239.463,-33424.4,-25294.475,-33982.016,-47207.848,21255.006
956639.6529994495,-63802.98,-81380.49,-22251.465,-33433.105,-25300.334,-33986.574,-47213.38,21258.627
956639.6569994458,-63774.863,-81352.54,-22230.389,-33408.855,-25277.873,-33982.87,-47188.316,21275.27
956639.660999442,-63753.703,-81327.516,-22208.496,-33388.31,-25263.51,-33979.94,-47164.96,21289.998
956639.6649994382,-63761.516,-81332.12,-22215.17,-33398.48,-25268.107,-33983.6,-47172.406,21289.348
956639.6689994344,-63771.242,-81350.67,-22233.887,-33417.93,-25282.47,-33987.957,-47191.0,21283.855
956639.6729994307,-63765.098,-81344.73,-22228.68,-33411.297,-25275.146,-33981.527,-47185.305,21297.445
956639.6769994269,-63740.36,-81317.18,-22203.248,-33385.785,-25256.064,-33975.26,-47162.844,21306.316
956639.6809994231,-63727.176,-81305.3,-22194.377,-33375.816,-25247.152,-33980.105,-47155.4,21298.87
956639.6849994195,-63745.16,-81320.56,-22210.084,-33394.574,-25264.771,-33983.523,-47174.074,21281.576
956639.6889994157,-63775.555,-81351.69,-22240.195,-33427.41,-25285.85,-33983.523,-47205.28,21269.695
956639.692999412,-63777.508,-81349.66,-22242.432,-33428.957,-25284.262,-33985.312,-47209.473,21271.2
956639.6969994082,-63759.117,-81327.516,-22220.947,-33405.844,-25269.94,-33987.387,-47188.6,21277.629
956639.7009994044,-63742.15,-81314.375,-22198.854,-33383.63,-25254.965,-33985.637,-47166.992,21286.5
956639.7049994007,-63742.96,-81327.07,-22199.26,-33386.56,-25256.104,-33980.387,-47172.16,21288.697
956639.7089993969,-63760.824,-81348.47,-22225.18,-33417.117,-25281.861,-33986.574,-47207.723,21272.746
956639.7129993931,-63780.07,-81357.75,-22240.479,-33429.688,-25297.527,-33994.547,-47222.78,21268.066
956639.7169993893,-63767.742,-81339.07,-22222.088,-33405.03,-25274.293,-33992.434,-47203.41,21275.758
956639.7209993856,-63742.883,-81319.625,-22202.678,-33387.777,-25254.191,-33991.254,-47188.477,21282.715
956639.7249993819,-63750.855,-81329.76,-22219.89,-33408.203,-25276.938,-33997.887,-47203.86,21276.45
956639.7289993782,-63781.66,-81352.83,-22244.834,-33433.594,-25304.688,-33994.996,-47223.715,21271.893
956639.7329993744,-63784.508,-81358.08,-22246.746,-33432.254,-25304.852,-33985.8,-47224.855,21272.299
956639.7369993706,-63766.074,-81332.52,-22222.129,-33406.332,-25284.1,-33981.16,-47205.85,21274.578
956639.7409993669,-63756.676,-81315.06,-22209.434,-33391.24,-25275.555,-33985.395,-47192.344,21280.682
956639.7449993631,-63764.082,-81329.35,-22225.139,-33403.77,-25272.87,-33987.387,-47202.19,21281.697
956639.7489993593,-63783.164,-81347.54,-22241.781,-33424.93,-25283.936,-33982.91,-47221.926,21276.814
956639.7529993556,-63789.55,-81359.83,-22243.613,-33431.48,-25290.812,-33985.8,-47226.523,21279.379
956639.7569993518,-63758.668,-81331.625,-22215.414,-33404.01,-25273.479,-33983.848,-47199.87,21287.518
956639.7609993481,-63730.227,-81302.01,-22192.139,-33377.566,-25252.035,-33979.492,-47173.75,21297.566
956639.7649993444,-63741.58,-81323.29,-22207.805,-33394.816,-25265.586,-33980.51,-47188.6,21289.389
956639.7689993406,-63776.734,-81355.875,-22241.496,-33428.59,-25285.441,-33982.22,-47219.44,21279.95
956639.7729993368,-63791.223,-81363.69,-22249.39,-33434.695,-25297.69,-33988.812,-47231.203,21280.64
956639.7769993331,-63765.992,-81335.414,-22231.406,-33410.848,-25287.436,-33990.316,-47212.402,21291.627
956639.7809993293,-63752.2,-81322.39,-22217.57,-33394.938,-25274.09,-33997.273,-47200.887,21291.26
956639.7849993255,-63771.85,-81342.49,-22230.469,-33412.64,-25282.268,-34000.082,-47217.0,21280.438
956639.7889993218,-63796.145,-81364.99,-22250.123,-33435.793,-25299.44,-33993.9,-47237.836,21273.438
956639.792999318,-63797.16,-81364.016,-22252.85,-33437.703,-25303.02,-33997.56,-47244.223,21263.51
956639.7969993142,-63767.457,-81330.69,-22221.924,-33407.066,-25281.617,-33994.59,-47220.176,21270.672
956639.8009993106,-63743.938,-81303.96,-22198.65,-33384.24,-25266.521,-33993.938,-47203.125,21275.39
956639.8049993068,-63762.98,-81327.31,-22215.332,-33399.332,-25272.705,-33990.805,-47216.23,21270.06
956639.808999303,-63801.72,-81372.234,-22245.932,-33431.234,-25291.586,-33992.066,-47243.855,21263.307
956639.8129992993,-63802.453,-81383.99,-22251.262,-33435.914,-25296.428,-33993.367,-47248.414,21265.38
956639.8169992955,-63780.438,-81352.375,-22231.201,-33410.117,-25274.578,-33986.734,-47225.383,21280.152
956639.8209992917,-63755.902,-81323.08,-22211.264,-33390.992,-25257.203,-33985.637,-47208.496,21289.51
956639.824999288,-63758.18,-81321.01,-22213.217,-33399.7,-25267.416,-33987.305,-47216.066,21283.0
956639.8289992842,-63780.64,-81342.0,-22233.398,-33420.74,-25291.627,-33987.793,-47235.637,21273.846
956639.8329992804,-63780.07,-81342.9,-22231.934,-33417.727,-25290.162,-33988.566,-47231.16,21278.402
956639.8369992767,-63764.527,-81330.04,-22218.059,-33401.734,-25283.855,-33992.96,-47216.637,21283.447
956639.840999273,-63753.625,-81324.51,-22212.402,-33395.836,-25284.668,-33996.746,-47207.805,21281.291
956639.8449992692,-63757.12,-81327.4,-22215.82,-33400.027,-25283.326,-33985.84,-47204.715,21288.006
956639.8489992655,-63783.41,-81353.56,-22237.021,-33423.992,-25298.096,-33977.418,-47226.766,21280.438
956639.8529992617,-63794.516,-81366.21,-22246.135,-33435.14,-25309.734,-33982.016,-47241.58,21271.77
956639.8569992579,-63767.99,-81336.266,-22215.252,-33405.965,-25283.041,-33979.656,-47214.56,21292.074
956639.8609992542,-63744.348,-81317.586,-22198.04,-33386.395,-25265.951,-33980.633,-47195.844,21301.229
956639.8649992504,-63756.836,-81331.34,-22207.969,-33399.945,-25275.758,-33984.66,-47206.383,21296.916
956639.8689992466,-63792.523,-81357.1,-22238.322,-33429.117,-25297.812,-33989.176,-47231.773,21284.424
956639.8729992429,-63799.36,-81363.57,-22244.71,-33427.613,-25295.451,-33985.19,-47232.91,21279.42
956639.8769992391,-63766.727,-81342.49,-22221.07,-33401.695,-25282.39,-33981.773,-47214.438,21281.82
956639.8809992354,-63745.08,-81326.58,-22208.13,-33389.445,-25268.31,-33983.805,-47204.266,21280.64
956639.8849992317,-63760.336,-81332.97,-22218.994,-33403.32,-25278.361,-33986.125,-47215.742,21272.258
956639.8889992279,-63791.504,-81358.36,-22244.793,-33429.484,-25301.799,-33985.637,-47239.586,21266.236
956639.8929992241,-63801.72,-81371.3,-22255.738,-33438.52,-25307.373,-33988.934,-47248.78,21265.219
956639.8969992204,-63780.926,-81352.17,-22236.045,-33416.63,-25291.18,-33988.527,-47228.76,21281.209
956639.9009992166,-63750.53,-81323.81,-22212.484,-33394.53,-25276.775,-33986.004,-47205.566,21290.936
956639.9049992128,-63764.895,-81332.89,-22221.232,-33407.84,-25284.506,-33983.93,-47211.754,21286.744
956639.9089992091,-63790.977,-81356.164,-22238.037,-33426.312,-25296.875,-33979.047,-47227.176,21282.594
956639.9129992053,-63791.79,-81365.52,-22240.031,-33427.695,-25295.98,-33979.492,-47229.25,21290.527
956639.9169992016,-63765.344,-81339.84,-22219.688,-33407.35,-25277.02,-33981.773,-47215.457,21293.865
956639.9209991979,-63744.63,-81312.13,-22199.627,-33387.535,-25258.953,-33979.695,-47198.855,21298.178
956639.9249991941,-63760.867,-81328.375,-22214.6,-33403.2,-25279.746,-33981.285,-47211.508,21290.771
956639.9289991903,-63792.645,-81358.97,-22242.393,-33432.78,-25310.547,-33987.875,-47242.312,21274.17
956639.9329991866,-63794.152,-81350.914,-22239.87,-33429.08,-25301.19,-33980.387,-47239.46,21278.361
956639.9369991828,-63765.465,-81323.65,-22212.037,-33403.77,-25282.512,-33981.0,-47218.71,21285.889
956639.940999179,-63737.875,-81300.91,-22196.615,-33384.277,-25266.562,-33984.418,-47195.926,21300.008
956639.9449991753,-63757.652,-81322.35,-22213.828,-33403.363,-25277.06,-33989.664,-47209.758,21291.951
956639.9489991715,-63792.645,-81358.08,-22243.287,-33434.0,-25301.066,-33987.67,-47236.37,21278.076
956639.9529991677,-63802.453,-81367.19,-22250.896,-33439.414,-25312.053,-33982.992,-47240.03,21271.2
956639.9569991641,-63780.56,-81348.15,-22227.783,-33417.32,-25292.236,-33980.957,-47222.09,21274.334
956639.9609991603,-63756.145,-81324.55,-22203.857,-33394.41,-25271.078,-33979.004,-47195.477,21295.533
956639.9649991565,-63762.574,-81331.26,-22209.84,-33403.688,-25278.281,-33982.586,-47199.18,21299.44
956639.9689991528,-63784.305,-81356.65,-22234.416,-33426.758,-25296.713,-33989.746,-47218.223,21299.195
956639.972999149,-63781.332,-81355.06,-22237.387,-33427.695,-25299.44,-33986.98,-47221.52,21294.88
956639.9769991452,-63764.285,-81343.06,-22220.5,-33411.46,-25283.488,-33985.434,-47211.55,21291.748
956639.9809991415,-63752.16,-81329.47,-22206.707,-33395.957,-25269.736,-33986.574,-47197.145,21298.34
956639.9849991377,-63762.453,-81333.26,-22214.844,-33406.453,-25276.979,-33992.8,-47208.008,21287.8
956639.9889991339,-63785.645,-81359.625,-22239.828,-33430.38,-25292.033,-33996.137,-47232.668,21270.387
956639.9929991302,-63792.48,-81364.625,-22241.66,-33428.914,-25296.184,-33990.36,-47232.06,21274.658
956639.9969991265,-63769.9,-81342.25,-22215.414,-33402.996,-25284.912,-33982.3,-47205.363,21292.156
956640.0009991227,-63746.992,-81325.16,-22198.242,-33386.598,-25272.096,-33981.73,-47189.13,21298.055
956640.004999119,-63767.215,-81334.96,-22214.6,-33406.863,-25281.332,-33988.324,-47207.684,21281.047
956640.0089991152,-63796.184,-81360.44,-22242.432,-33439.09,-25303.428,-33991.496,-47235.273,21270.63
956640.0129991114,-63791.914,-81360.31,-22242.88,-33436.688,-25305.34,-33989.42,-47233.97,21276.57
956640.0169991077,-63763.715,-81345.26,-22219.605,-33409.223,-25287.314,-33987.223,-47209.96,21285.238
956640.0209991039,-63740.113,-81330.2,-22194.865,-33386.477,-25264.445,-33985.395,-47187.46,21291.057
956640.0249991001,-63753.176,-81339.195,-22202.8,-33395.836,-25276.45,-33988.08,-47197.023,21289.021
956640.0289990964,-63782.31,-81362.914,-22224.691,-33421.184,-25302.084,-33984.336,-47215.457,21294.354
956640.0329990927,-63786.95,-81365.766,-22229.492,-33426.395,-25302.49,-33981.363,-47217.53,21300.293
956640.036999089,-63760.05,-81344.69,-22213.42,-33405.438,-25285.482,-33979.168,-47198.73,21301.96
956640.0409990852,-63738.445,-81323.125,-22194.418,-33386.965,-25272.787,-33980.55,-47179.16,21312.094
956640.0449990814,-63750.9,-81329.1,-22200.318,-33399.984,-25278.564,-33981.69,-47190.31,21305.502
956640.0489990776,-63774.58,-81346.73,-22217.082,-33419.68,-25291.992,-33982.18,-47212.363,21295.98
956640.0529990739,-63777.71,-81351.36,-22220.256,-33419.35,-25296.51,-33980.957,-47216.23,21295.37
956640.0569990701,-63762.207,-81342.45,-22208.904,-33402.957,-25279.99,-33989.016,-47205.69,21300.049
956640.0609990663,-63750.938,-81338.055,-22204.266,-33393.84,-25269.613,-34000.285,-47199.504,21294.922
956640.0649990626,-63767.336,-81366.21,-22218.955,-33413.7,-25284.832,-34001.914,-47216.96,21281.697
956640.0689990588,-63795.695,-81392.46,-22247.275,-33443.035,-25309.45,-33997.355,-47240.03,21276.734
956640.0729990551,-63798.26,-81380.17,-22245.729,-33439.58,-25303.387,-33993.004,-47234.66,21283.326
956640.0769990514,-63770.957,-81345.42,-22218.1,-33410.605,-25281.658,-33991.945,-47209.96,21286.906
956640.0809990476,-63751.914,-81325.28,-22195.598,-33388.715,-25264.365,-33997.887,-47189.25,21289.021
956640.0849990438,-63766.562,-81340.414,-22205.322,-33404.703,-25276.45,-33998.863,-47202.56,21279.053
956640.0889990401,-63795.41,-81361.53,-22232.422,-33432.008,-25295.777,-33989.79,-47224.367,21277.629
956640.0929990363,-63805.258,-81371.38,-22245.77,-33440.188,-25300.863,-33989.22,-47230.918,21280.559
956640.0969990325,-63785.605,-81363.12,-22230.795,-33421.55,-25286.541,-33989.87,-47211.996,21284.709
956640.1009990288,-63764.895,-81354.29,-22218.873,-33405.316,-25276.652,-33990.6,-47192.547,21283.65
956640.104999025,-63775.188,-81361.9,-22227.744,-33416.098,-25284.791,-33990.64,-47200.156,21283.65
956640.1089990212,-63794.23,-81374.35,-22241.293,-33432.902,-25290.04,-33984.824,-47216.72,21286.988
956640.1129990176,-63792.766,-81369.71,-22239.055,-33429.117,-25289.795,-33985.15,-47212.402,21300.537
956640.1169990138,-63770.957,-81346.516,-22218.506,-33407.633,-25283.936,-33986.246,-47195.883,21306.479
956640.12099901,-63751.59,-81333.7,-22200.48,-33391.93,-25271.445,-33988.566,-47183.84,21309.246
956640.1249990063,-63752.402,-81343.305,-22208.537,-33404.42,-25274.781,-33989.504,-47198.367,21297.852
956640.1289990025,-63782.715,-81361.33,-22238.404,-33431.844,-25291.912,-33990.4,-47226.81,21283.488
956640.1329989987,-63784.59,-81364.09,-22242.84,-33434.285,-25297.283,-33990.64,-47234.375,21275.799
956640.136998995,-63755.86,-81328.375,-22210.37,-33402.875,-25274.578,-33983.4,-47208.62,21284.506
956640.1409989912,-63734.215,-81310.75,-22185.547,-33381.062,-25259.36,-33985.965,-47187.785,21291.057
956640.1449989874,-63743.043,-81327.516,-22192.953,-33389.12,-25264.486,-33988.61,-47191.61,21288.574
956640.1489989838,-63759.44,-81350.266,-22217.041,-33417.24,-25282.39,-33987.836,-47215.375,21284.465
956640.15299898,-63768.35,-81357.14,-22225.139,-33426.35,-25292.889,-33991.902,-47227.867,21278.523
956640.1569989763,-63751.508,-81327.92,-22205.445,-33403.85,-25276.084,-33994.223,-47208.008,21286.215
956640.1609989725,-63737.633,-81310.38,-22198.771,-33391.97,-25257.488,-33994.59,-47196.047,21288.9
956640.1649989687,-63753.746,-81324.71,-22212.688,-33406.047,-25265.748,-33991.496,-47207.277,21279.623
956640.168998965,-63774.375,-81353.84,-22233.848,-33428.914,-25287.354,-33990.684,-47225.79,21273.885
956640.1729989612,-63779.137,-81356.9,-22235.963,-33428.996,-25290.406,-33988.12,-47221.438,21289.795
956640.1769989574,-63752.727,-81330.08,-22210.205,-33398.4,-25268.19,-33986.86,-47194.05,21303.914
956640.1809989536,-63730.633,-81320.234,-22189.617,-33379.926,-25248.496,-33986.574,-47176.473,21307.455
956640.1849989499,-63746.707,-81338.75,-22203.004,-33397.79,-25259.482,-33985.35,-47188.03,21305.176
956640.1889989462,-63769.125,-81370.04,-22232.219,-33425.17,-25280.518,-33984.254,-47208.863,21298.625
956640.1929989425,-63774.78,-81375.49,-22242.107,-33432.375,-25288.86,-33979.9,-47214.766,21287.273
956640.1969989387,-63766.523,-81361.25,-22223.023,-33416.3,-25279.014,-33981.773,-47200.36,21285.441
956640.2009989349,-63749.72,-81344.16,-22208.172,-33401.33,-25265.79,-33982.87,-47181.074,21298.543
956640.2049989311,-63756.836,-81355.47,-22218.67,-33411.297,-25275.432,-33982.91,-47188.152,21299.357
956640.2089989274,-63781.496,-81378.22,-22242.96,-33434.246,-25290.324,-33979.94,-47210.86,21291.18
956640.2129989236,-63781.7,-81371.26,-22239.178,-33430.42,-25285.564,-33975.71,-47209.473,21294.76
956640.2169989198,-63764.855,-81359.17,-22218.67,-33409.914,-25271.973,-33977.742,-47192.547,21298.992
956640.2209989161,-63755.902,-81345.13,-22206.299,-33396.812,-25265.137,-33985.965,-47179.85,21296.754
956640.2249989123,-63766.81,-81351.81,-22219.932,-33410.074,-25268.719,-33987.387,-47191.652,21288.615
956640.2289989087,-63785.24,-81378.83,-22238.69,-33429.445,-25280.518,-33983.848,-47209.96,21287.273
956640.2329989049,-63783.53,-81374.19,-22234.457,-33425.906,-25283.041,-33983.562,-47211.1,21286.703
956640.2369989011,-63766.6,-81348.72,-22217.082,-33410.89,-25276.002,-33987.918,-47198.12,21291.424
956640.2409988974,-63760.99,-81337.2,-22204.469,-33399.008,-25265.951,-33991.66,-47189.82,21289.998
956640.2449988936,-63767.336,-81347.05,-22213.623,-33407.633,-25273.398,-33989.504,-47202.56,21278.729
956640.2489988898,-63792.848,-81375.61,-22246.543,-33438.113,-25301.352,-33991.254,-47233.97,21264.812
956640.252998886,-63801.68,-81384.195,-22257.53,-33443.44,-25306.275,-33988.73,-47237.184,21269.41
956640.2569988823,-63778.85,-81360.92,-22233.36,-33417.766,-25286.094,-33985.68,-47212.484,21278.402
956640.2609988785,-63754.723,-81337.0,-22212.688,-33396.77,-25265.057,-33984.742,-47197.348,21269.654
956640.2649988747,-63769.94,-81351.81,-22224.57,-33410.605,-25274.008,-33990.887,-47207.195,21266.805
956640.2689988711,-63798.992,-81381.35,-22248.902,-33439.78,-25300.457,-33994.184,-47231.082,21258.18
956640.2729988673,-63801.72,-81388.1,-22252.97,-33443.074,-25307.049,-33989.22,-47232.832,21268.88
956640.2769988636,-63776.29,-81367.15,-22230.592,-33418.66,-25285.32,-33985.066,-47210.004,21282.594
956640.2809988598,-63749.51,-81343.75,-22208.62,-33396.28,-25264.283,-33987.875,-47188.273,21288.777
956640.284998856,-63757.61,-81350.75,-22217.855,-33409.14,-25268.719,-33988.484,-47194.5,21294.068
956640.2889988523,-63783.938,-81373.86,-22238.404,-33432.82,-25287.68,-33983.93,-47213.3,21297.04
956640.2929988485,-63779.867,-81374.72,-22239.34,-33432.945,-25289.674,-33979.94,-47209.555,21306.479
956640.2969988447,-63749.758,-81344.24,-22211.875,-33404.5,-25272.055,-33979.29,-47183.027,21314.047
956640.300998841,-63736.656,-81321.086,-22189.902,-33386.395,-25257.812,-33984.742,-47167.81,21315.389
956640.3049988373,-63748.008,-81326.78,-22202.148,-33396.527,-25265.79,-33987.71,-47176.27,21315.918
956640.3089988335,-63767.297,-81352.22,-22231.73,-33422.527,-25279.176,-33984.01,-47197.957,21315.023
956640.3129988298,-63773.52,-81364.664,-22241.252,-33430.664,-25291.424,-33984.457,-47210.29,21306.152
956640.316998826,-63754.64,-81347.01,-22224.488,-33412.355,-25280.518,-33984.945,-47199.668,21298.137
956640.3209988222,-63742.23,-81332.195,-22214.438,-33399.496,-25276.328,-33989.707,-47189.7,21296.428
956640.3249988185,-63752.688,-81342.086,-22219.932,-33411.95,-25287.354,-33994.59,-47199.586,21288.29
956640.3289988147,-63778.16,-81363.734,-22241.172,-33434.816,-25300.375,-33990.926,-47218.02,21280.885
956640.3329988109,-63778.81,-81367.555,-22242.676,-33436.117,-25298.422,-33985.555,-47213.867,21286.215
956640.3369988071,-63759.605,-81346.44,-22223.838,-33413.902,-25281.047,-33984.17,-47193.28,21293.986
956640.3409988034,-63741.008,-81330.04,-22205.648,-33396.85,-25266.357,-33983.523,-47181.4,21289.186
956640.3449987997,-63751.305,-81344.04,-22213.096,-33408.53,-25276.775,-33987.305,-47189.58,21280.682
956640.348998796,-63776.777,-81364.625,-22229.656,-33426.188,-25292.236,-33985.965,-47199.547,21286.377
956640.3529987922,-63784.06,-81367.516,-22234.945,-33431.684,-25292.36,-33983.316,-47207.4,21290.324
956640.3569987884,-63756.27,-81336.836,-22213.055,-33409.06,-25269.816,-33985.883,-47194.62,21289.715
956640.3609987847,-63735.273,-81315.19,-22197.389,-33392.375,-25257.812,-33984.78,-47179.04,21296.346
956640.3649987809,-63759.605,-81338.87,-22217.246,-33409.87,-25268.393,-33985.477,-47189.94,21292.766
956640.3689987771,-63789.836,-81369.8,-22247.764,-33439.58,-25287.924,-33985.883,-47210.9,21291.586
956640.3729987734,-63793.297,-81376.71,-22251.67,-33439.902,-25292.236,-33981.61,-47207.723,21296.307
956640.3769987696,-63754.113,-81343.1,-22222.982,-33407.88,-25267.375,-33974.652,-47178.914,21310.547
956640.3809987658,-63721.6,-81308.35,-22189.902,-33379.395,-25245.85,-33970.055,-47150.96,21324.586
956640.3849987622,-63740.195,-81333.3,-22204.266,-33393.92,-25259.441,-33969.605,-47158.57,21319.703
956640.3889987584,-63773.766,-81364.18,-22230.43,-33424.4,-25279.094,-33968.06,-47183.39,21309.938
956640.3929987546,-63771.65,-81358.28,-22231.812,-33424.93,-25280.6,-33967.734,-47187.543,21313.72
956640.3969987509,-63753.625,-81335.086,-22217.855,-33408.49,-25270.346,-33971.56,-47172.73,21321.574
956640.4009987471,-63739.465,-81319.945,-22205.566,-33395.754,-25261.842,-33978.92,-47165.61,21314.82
956640.4049987433,-63747.355,-81332.89,-22210.531,-33401.773,-25265.38,-33977.418,-47173.098,21306.396
956640.4089987396,-63773.074,-81357.305,-22230.469,-33426.598,-25283.244,-33974.285,-47191.367,21303.346
956640.4129987358,-63777.344,-81354.05,-22236.248,-33426.066,-25283.164,-33972.94,-47190.39,21306.479
956640.416998732,-63765.547,-81335.05,-22216.432,-33405.113,-25268.799,-33968.63,-47173.42,21309.164
956640.4209987284,-63760.05,-81332.12,-22208.62,-33396.324,-25267.66,-33973.633,-47166.547,21306.193
956640.4249987246,-63775.27,-81352.17,-22230.754,-33413.656,-25280.559,-33976.36,-47182.82,21291.748
956640.4289987208,-63805.83,-81386.64,-22263.428,-33445.72,-25295.654,-33979.74,-47214.277,21273.113
956640.4329987171,-63799.277,-81388.92,-22259.4,-33444.742,-25290.406,-33973.633,-47212.812,21283.162
956640.4369987133,-63760.824,-81352.945,-22219.89,-33405.64,-25267.295,-33960.652,-47176.555,21309.123
956640.4409987095,-63739.992,-81333.91,-22199.79,-33384.562,-25256.145,-33959.473,-47160.156,21314.656
956640.4449987058,-63755.332,-81345.13,-22215.861,-33399.7,-25258.545,-33964.113,-47166.992,21317.668
956640.448998702,-63781.902,-81364.55,-22240.805,-33425.375,-25280.844,-33966.31,-47190.715,21305.623
956640.4529986982,-63789.797,-81374.19,-22244.955,-33428.793,-25287.924,-33967.203,-47196.13,21301.148
956640.4569986945,-63766.156,-81357.47,-22224.082,-33407.594,-25271.322,-33972.008,-47178.836,21303.955
956640.4609986908,-63739.992,-81335.62,-22202.922,-33384.277,-25250.814,-33969.89,-47162.76,21301.514
956640.464998687,-63744.793,-81352.5,-22208.09,-33391.074,-25251.465,-33971.64,-47171.1,21295.37
956640.4689986833,-63766.562,-81373.336,-22224.162,-33411.418,-25271.363,-33970.46,-47187.34,21296.834
956640.4729986795,-63778.484,-81371.18,-22234.863,-33418.945,-25282.023,-33968.305,-47193.848,21295.248
956640.4769986757,-63758.75,-81342.82,-22216.758,-33399.7,-25264.445,-33970.83,-47178.145,21305.055
956640.480998672,-63736.86,-81320.44,-22194.785,-33379.152,-25241.74,-33965.945,-47159.383,21311.361
956640.4849986682,-63751.184,-81335.66,-22209.27,-33396.973,-25252.768,-33969.973,-47172.773,21311.076
956640.4889986644,-63786.543,-81374.39,-22246.502,-33434.164,-25285.809,-33974.855,-47206.465,21297.69
956640.4929986607,-63796.836,-81385.13,-22257.732,-33442.06,-25301.596,-33980.184,-47218.59,21288.574
956640.4969986569,-63781.58,-81367.11,-22242.92,-33421.387,-25285.686,-33982.707,-47206.87,21285.97
956640.5009986532,-63766.727,-81353.72,-22226.727,-33402.914,-25268.19,-33986.816,-47195.477,21286.092
956640.5049986495,-63772.34,-81354.29,-22224.365,-33401.492,-25260.906,-33982.22,-47193.727,21292.48
956640.5089986457,-63796.31,-81383.14,-22250.0,-33427.33,-25283.082,-33979.777,-47216.188,21289.918
956640.5129986419,-63806.848,-81396.53,-22260.906,-33437.137,-25299.643,-33980.594,-47222.617,21295.37
956640.5169986382,-63787.56,-81381.63,-22241.008,-33416.42,-25289.268,-33980.184,-47204.918,21296.346
956640.5209986344,-63770.957,-81360.64,-22223.064,-33399.617,-25274.334,-33976.645,-47191.734,21289.186
956640.5249986306,-63785.402,-81363.734,-22234.498,-33413.414,-25276.775,-33973.145,-47199.75,21282.512
956640.5289986269,-63808.39,-81382.9,-22254.559,-33434.207,-25287.518,-33967.734,-47215.617,21289.795
956640.5329986231,-63805.746,-81386.03,-22251.953,-33432.902,-25285.441,-33970.38,-47213.95,21302.857
956640.5369986194,-63775.88,-81361.05,-22227.133,-33406.21,-25274.21,-33973.062,-47190.594,21310.223
956640.5409986157,-63760.254,-81342.05,-22209.678,-33388.715,-25258.953,-33974.49,-47176.395,21308.35
956640.5449986119,-63760.01,-81345.46,-22216.27,-33399.332,-25256.553,-33971.76,-47185.67,21309.611
956640.5489986081,-63782.227,-81369.836,-22239.502,-33423.83,-25277.914,-33969.81,-47210.777,21306.072
956640.5529986044,-63788.008,-81377.65,-22248.576,-33431.277,-25288.25,-33971.926,-47220.582,21305.258
956640.5569986006,-63765.87,-81358.97,-22229.574,-33412.844,-25268.596,-33979.777,-47206.18,21306.926
956640.5609985968,-63749.84,-81343.71,-22209.473,-33394.004,-25255.371,-33980.715,-47190.227,21302.125
956640.5649985931,-63765.504,-81363.41,-22223.633,-33405.965,-25263.307,-33980.754,-47199.3,21294.312
956640.5689985893,-63795.777,-81408.29,-22255.615,-33436.44,-25292.604,-33983.523,-47225.18,21287.557
956640.5729985855,-63795.13,-81428.06,-22250.611,-33435.223,-25288.047,-33978.516,-47226.402,21293.092
956640.5769985819,-63772.504,-81418.58,-22228.639,-33412.312,-25272.87,-33975.426,-47206.746,21304.443
956640.5809985781,-63750.613,-81394.05,-22208.578,-33389.445,-25257.041,-33975.344,-47185.14,21312.785
956640.5849985743,-63757.406,-81392.984,-22212.12,-33399.332,-25267.05,-33981.69,-47196.902,21299.195
956640.5889985706,-63792.402,-81413.58,-22244.955,-33431.234,-25291.709,-33983.156,-47227.906,21291.463
956640.5929985668,-63797.65,-81416.18,-22247.275,-33430.094,-25291.016,-33978.76,-47230.39,21291.707
956640.596998563,-63768.15,-81387.9,-22223.553,-33399.617,-25271.24,-33974.367,-47205.406,21297.322
956640.6009985593,-63755.453,-81369.875,-22211.914,-33387.168,-25260.254,-33979.492,-47193.035,21296.834
956640.6049985555,-63766.766,-81382.33,-22225.465,-33405.03,-25274.334,-33979.9,-47206.91,21289.47
956640.6089985517,-63797.65,-81398.36,-22252.482,-33432.047,-25297.12,-33976.402,-47226.484,21293.783
956640.612998548,-63799.887,-81404.664,-22254.72,-33434.285,-25305.625,-33974.0,-47228.152,21295.533
956640.6169985443,-63778.85,-81394.414,-22232.951,-33411.133,-25290.08,-33979.086,-47215.332,21287.557
956640.6209985405,-63752.93,-81376.305,-22205.648,-33386.434,-25265.545,-33980.55,-47194.664,21298.219
956640.6249985368,-63769.9,-81385.54,-22223.389,-33404.094,-25275.758,-33987.1,-47209.23,21289.592
956640.628998533,-63796.51,-81403.12,-22249.553,-33431.316,-25297.12,-33981.0,-47230.88,21283.57
956640.6329985292,-63802.125,-81405.32,-22256.43,-33436.16,-25301.23,-33976.2,-47231.0,21293.377
956640.6369985255,-63780.805,-81382.49,-22236.572,-33415.164,-25281.455,-33975.383,-47211.836,21303.875
956640.6409985217,-63758.996,-81367.44,-22212.89,-33391.36,-25262.86,-33973.836,-47189.293,21316.041
956640.6449985179,-63763.715,-81372.97,-22219.482,-33397.664,-25270.834,-33972.535,-47193.36,21314.535
956640.6489985142,-63785.85,-81392.17,-22237.021,-33414.797,-25284.018,-33974.527,-47212.08,21300.578
956640.6529985104,-63795.207,-81408.98,-22242.148,-33422.0,-25290.812,-33978.72,-47222.453,21291.668
956640.6569985067,-63779.055,-81387.086,-22223.43,-33400.84,-25272.584,-33974.938,-47205.08,21300.13
956640.660998503,-63755.984,-81369.02,-22202.434,-33380.7,-25250.326,-33974.977,-47187.297,21310.262
956640.6649984992,-63766.156,-81381.11,-22215.252,-33392.703,-25256.836,-33973.96,-47198.855,21306.316
956640.6689984954,-63796.31,-81403.52,-22244.182,-33423.625,-25281.25,-33978.11,-47229.25,21295.492
956640.6729984917,-63795.004,-81397.016,-22241.984,-33420.125,-25278.605,-33973.918,-47227.05,21303.955
956640.6769984879,-63770.754,-81371.55,-22217.082,-33395.55,-25260.783,-33975.87,-47206.258,21302.857
956640.6809984841,-63748.17,-81351.36,-22200.889,-33380.656,-25251.832,-33975.465,-47192.18,21303.875
956640.6849984804,-63765.22,-81368.53,-22219.117,-33398.48,-25262.9,-33978.92,-47205.16,21297.648
956640.6889984766,-63789.023,-81396.94,-22242.514,-33422.324,-25279.014,-33976.24,-47226.523,21290.406
956640.692998473,-63797.242,-81397.95,-22239.34,-33422.566,-25283.936,-33971.07,-47227.215,21288.371
956640.6969984692,-63778.117,-81376.914,-22216.553,-33399.902,-25270.387,-33974.855,-47209.8,21293.58
956640.7009984654,-63756.27,-81351.28,-22203.37,-33380.168,-25253.867,-33980.754,-47191.12,21298.87
956640.7049984616,-63766.36,-81355.8,-22210.979,-33390.137,-25261.191,-33979.332,-47195.027,21299.275
956640.7089984579,-63797.285,-81392.09,-22247.275,-33428.63,-25291.709,-33987.43,-47231.203,21280.477
956640.7129984541,-63800.863,-81400.72,-22250.123,-33432.008,-25290.812,-33991.375,-47233.562,21291.26
956640.7169984503,-63770.47,-81376.79,-22226.686,-33406.21,-25276.246,-33988.04,-47205.977,21310.67
956640.7209984466,-63755.78,-81361.53,-22216.188,-33394.45,-25269.451,-33990.887,-47194.05,21306.396
956640.7249984428,-63766.32,-81365.234,-22226.645,-33406.82,-25271.648,-33993.082,-47206.992,21293.904
956640.728998439,-63788.008,-81384.93,-22245.932,-33430.543,-25290.61,-33990.36,-47225.14,21298.828
956640.7329984354,-63783.652,-81382.086,-22245.89,-33430.016,-25287.07,-33987.184,-47222.453,21310.303
956640.7369984316,-63752.117,-81355.63,-22213.99,-33397.746,-25261.924,-33981.61,-47195.312,21315.838
956640.7409984278,-63742.11,-81350.51,-22198.406,-33384.81,-25249.756,-33982.992,-47184.41,21310.67
956640.7449984241,-63759.973,-81362.14,-22213.95,-33401.613,-25261.719,-33986.004,-47198.934,21306.885
956640.7489984203,-63783.855,-81385.945,-22242.555,-33429.566,-25288.78,-33993.125,-47223.43,21299.275
956640.7529984165,-63791.953,-81394.45,-22249.188,-33436.65,-25292.93,-33995.445,-47234.945,21290.324
956640.7569984128,-63768.76,-81366.82,-22221.232,-33406.7,-25263.104,-33991.902,-47210.777,21306.479
956640.760998409,-63756.31,-81357.51,-22204.875,-33388.145,-25246.217,-33987.062,-47191.12,21320.15
956640.7649984052,-63758.914,-81359.5,-22210.898,-33398.152,-25253.174,-33984.457,-47200.766,21308.797
956640.7689984015,-63773.074,-81374.63,-22230.795,-33418.457,-25271.445,-33983.36,-47220.176,21291.057
956640.7729983978,-63782.92,-81386.68,-22237.59,-33424.723,-25274.74,-33983.44,-47230.67,21283.203
956640.776998394,-63765.344,-81361.125,-22217.367,-33401.855,-25260.01,-33982.3,-47211.875,21290.527
956640.7809983903,-63749.473,-81345.42,-22196.941,-33381.227,-25248.17,-33983.805,-47193.36,21297.73
956640.7849983865,-63768.516,-81365.69,-22217.326,-33404.297,-25263.877,-33989.22,-47212.04,21289.47
956640.7889983827,-63793.457,-81388.875,-22244.549,-33431.03,-25280.6,-33986.98,-47234.742,21286.053
956640.792998379,-63790.734,-81382.41,-22244.264,-33426.8,-25282.838,-33980.47,-47229.37,21290.283
956640.7969983752,-63765.91,-81355.516,-22218.182,-33401.98,-25262.492,-33977.824,-47206.098,21304.852
956640.8009983714,-63749.676,-81343.914,-22201.621,-33385.824,-25248.7,-33977.297,-47188.477,21307.617
956640.8049983677,-63761.273,-81363.12,-22218.262,-33400.35,-25256.512,-33977.297,-47199.992,21298.055
956640.808998364,-63786.543,-81384.56,-22236.613,-33421.062,-25276.043,-33978.23,-47219.44,21292.033
956640.8129983603,-63784.71,-81376.67,-22232.504,-33416.79,-25275.025,-33978.92,-47218.02,21294.76
956640.8169983565,-63742.35,-81342.82,-22203.818,-33389.12,-25253.988,-33977.176,-47190.188,21312.215
956640.8209983527,-63719.445,-81324.55,-22181.64,-33369.996,-25238.73,-33973.96,-47164.715,21328.29
956640.824998349,-63735.19,-81345.5,-22198.365,-33389.16,-25249.676,-33974.45,-47173.543,21327.352
956640.8289983452,-63770.184,-81374.15,-22230.43,-33419.8,-25276.775,-33974.45,-47198.445,21324.139
956640.8329983414,-63779.664,-81374.07,-22234.172,-33421.1,-25272.055,-33971.64,-47201.824,21323.527
956640.8369983376,-63765.42,-81359.3,-22217.814,-33399.902,-25256.145,-33975.87,-47189.375,21327.678
956640.8409983339,-63746.094,-81340.414,-22198.975,-33381.633,-25244.385,-33978.027,-47179.527,21326.701
956640.8449983301,-63751.996,-81350.95,-22209.96,-33391.766,-25251.303,-33981.0,-47191.773,21319.215
956640.8489983265,-63773.36,-81375.57,-22226.115,-33412.234,-25261.23,-33976.645,-47209.23,21315.47
956640.8529983227,-63778.08,-81381.39,-22228.15,-33415.0,-25267.904,-33983.195,-47212.973,21309.45
956640.8569983189,-63760.215,-81360.35,-22210.287,-33395.957,-25261.639,-33983.766,-47198.324,21308.39
956640.8609983152,-63749.105,-81353.44,-22197.754,-33381.105,-25249.105,-33979.574,-47184.53,21306.52
956640.8649983114,-63765.344,-81364.14,-22209.758,-33394.656,-25254.273,-33979.656,-47196.74,21300.375
956640.8689983076,-63795.207,-81393.72,-22242.393,-33429.484,-25288.209,-33984.293,-47230.51,21284.18
956640.8729983039,-63801.312,-81400.23,-22247.723,-33433.473,-25297.404,-33984.863,-47237.062,21286.58
956640.8769983001,-63772.87,-81379.27,-22223.877,-33408.12,-25273.643,-33983.93,-47214.4,21295.695
956640.8809982963,-63748.742,-81361.164,-22205.04,-33387.004,-25254.191,-33986.086,-47195.312,21299.316
956640.8849982925,-63758.508,-81368.37,-22212.078,-33393.8,-25256.389,-33988.2,-47202.434,21295.695
956640.8889982889,-63784.305,-81390.14,-22238.037,-33420.047,-25270.346,-33987.387,-47226.562,21286.5
956640.8929982851,-63788.332,-81387.33,-22241.252,-33420.98,-25270.672,-33983.4,-47227.418,21293.54
956640.8969982814,-63767.09,-81364.79,-22216.717,-33397.3,-25259.197,-33982.26,-47206.543,21304.24
956640.9009982776,-63756.31,-81350.67,-22201.092,-33383.586,-25247.031,-33987.67,-47193.77,21306.193
956640.9049982738,-63762.98,-81367.48,-22210.572,-33396.65,-25254.803,-33990.52,-47200.766,21305.217
956640.90899827,-63789.31,-81392.78,-22239.87,-33425.17,-25276.45,-33988.934,-47221.355,21304.973
956640.9129982663,-63790.082,-81392.46,-22243.205,-33424.074,-25277.752,-33985.27,-47217.285,21316.244
956640.9169982625,-63768.312,-81360.19,-22215.781,-33396.16,-25250.244,-33982.34,-47194.5,21318.318
956640.9209982587,-63748.21,-81335.984,-22197.186,-33377.89,-25230.225,-33980.67,-47180.176,21318.238
956640.924998255,-63743.652,-81341.92,-22204.346,-33386.23,-25237.59,-33978.883,-47183.35,21320.068
956640.9289982513,-63766.6,-81364.42,-22229.736,-33414.145,-25264.568,-33984.824,-47207.848,21309.611
956640.9329982476,-63775.637,-81366.91,-22238.16,-33423.87,-25280.111,-33990.723,-47214.03,21310.344
956640.9369982438,-63754.76,-81343.02,-22214.805,-33399.54,-25268.922,-33992.72,-47190.227,21318.28
956640.94099824,-63739.87,-81328.01,-22195.68,-33376.508,-25248.658,-33989.098,-47168.824,21321.127
956640.9449982363,-63759.562,-81351.484,-22211.02,-33393.312,-25245.729,-33989.46,-47183.15,21319.824
956640.9489982325,-63785.484,-81382.49,-22232.342,-33421.387,-25267.375,-33985.434,-47206.707,21319.418
956640.9529982287,-63782.31,-81380.66,-22237.06,-33423.098,-25277.467,-33985.434,-47209.96,21311.89
956640.956998225,-63758.3,-81364.22,-22220.826,-33406.21,-25275.025,-33993.164,-47193.81,21317.18
956640.9609982212,-63737.836,-81346.68,-22201.783,-33390.953,-25259.848,-33990.926,-47176.19,21331.014
956640.9649982175,-63751.63,-81357.67,-22213.908,-33403.035,-25259.318,-33987.918,-47188.273,21322.469
956640.9689982138,-63780.684,-81376.266,-22240.154,-33425.457,-25275.717,-33984.05,-47206.016,21317.059
956640.97299821,-63780.56,-81368.9,-22235.8,-33419.965,-25273.398,-33981.812,-47196.74,21321.9
956640.9769982062,-63768.637,-81344.85,-22219.443,-33400.066,-25259.277,-33984.703,-47178.793,21328.045
956640.9809982025,-63746.258,-81323.49,-22204.834,-33385.867,-25242.025,-33985.434,-47169.312,21325.033
956640.9849981987,-63753.625,-81339.44,-22218.547,-33401.246,-25255.168,-33984.99,-47181.6,21316.773
956640.9889981949,-63782.31,-81371.79,-22244.834,-33428.266,-25276.979,-33976.688,-47203.86,21307.576
956640.9929981912,-63792.32,-81378.46,-22247.682,-33432.254,-25283.447,-33972.332,-47208.293,21307.576
956640.9969981874,-63774.824,-81365.64,-22228.271,-33411.906,-25270.02,-33982.22,-47193.28,21311.768
956641.0009981836,-63747.6,-81353.516,-22210.938,-33392.375,-25251.14,-33981.0,-47174.562,21318.97
956641.00499818,-63760.176,-81361.086,-22220.5,-33402.71,-25251.059,-33978.72,-47181.195,21317.668
956641.0089981762,-63783.69,-81386.44,-22239.178,-33422.28,-25268.719,-33978.516,-47200.156,21304.078
956641.0129981724,-63792.36,-81388.59,-22240.643,-33423.625,-25275.555,-33980.875,-47205.977,21297.527
956641.0169981687,-63772.87,-81365.56,-22222.535,-33403.973,-25258.953,-33981.285,-47190.918,21301.96
956641.0209981649,-63751.71,-81344.98,-22207.195,-33387.453,-25256.389,-33984.824,-47174.848,21312.785
956641.0249981611,-63768.35,-81358.16,-22222.25,-33401.613,-25265.38,-33988.04,-47182.742,21316.854
956641.0289981574,-63799.316,-81384.36,-22249.105,-33428.59,-25284.791,-33987.47,-47207.723,21306.52
956641.0329981536,-63801.92,-81389.0,-22252.482,-33435.914,-25287.477,-33983.727,-47217.285,21295.492
956641.0369981498,-63785.484,-81368.98,-22227.092,-33413.535,-25271.893,-33981.04,-47193.2,21307.373
956641.040998146,-63757.977,-81355.59,-22206.137,-33394.41,-25260.498,-33982.586,-47176.84,21311.361
956641.0449981424,-63755.74,-81367.27,-22218.994,-33405.844,-25260.621,-33983.93,-47183.434,21311.402
956641.0489981386,-63779.625,-81382.37,-22243.205,-33426.35,-25266.113,-33983.24,-47201.133,21309.123
956641.0529981349,-63779.785,-81382.53,-22246.135,-33427.29,-25270.834,-33986.33,-47202.15,21311.768
956641.0569981311,-63746.22,-81348.23,-22216.879,-33397.258,-25253.906,-33978.76,-47177.33,21317.059
956641.0609981273,-63740.6,-81332.03,-22205.771,-33386.883,-25251.303,-33980.797,-47169.027,21315.023
956641.0649981236,-63755.293,-81344.69,-22219.2,-33401.285,-25258.506,-33981.0,-47181.844,21309.285
956641.0689981198,-63774.7,-81362.875,-22237.184,-33421.47,-25276.043,-33971.598,-47199.547,21307.008
956641.072998116,-63780.113,-81369.23,-22241.537,-33425.133,-25277.996,-33970.5,-47202.11,21311.809
956641.0769981123,-63766.523,-81356.08,-22226.686,-33408.285,-25264.893,-33977.703,-47188.805,21319.012
956641.0809981086,-63745.28,-81335.29,-22209.27,-33388.1,-25247.152,-33976.523,-47168.867,21325.684
956641.0849981048,-63762.25,-81357.22,-22224.57,-33401.367,-25256.389,-33974.285,-47177.168,21317.383
956641.0889981011,-63794.64,-81383.18,-22244.71,-33421.184,-25270.428,-33969.727,-47192.14,21311.809
956641.0929980973,-63798.91,-81382.0,-22242.229,-33420.98,-25267.986,-33969.156,-47190.88,21315.268
956641.0969980935,-63767.906,-81363.77,-22226.4,-33403.605,-25256.064,-33973.836,-47173.3,21325.195
956641.1009980898,-63742.35,-81343.67,-22206.137,-33384.81,-25244.834,-33974.61,-47150.8,21339.64
956641.104998086,-63756.758,-81355.516,-22224.854,-33404.258,-25258.342,-33979.047,-47165.406,21332.967
956641.1089980822,-63787.273,-81376.06,-22253.5,-33431.234,-25279.135,-33977.05,-47190.188,21317.383
956641.1129980785,-63790.324,-81370.08,-22246.787,-33429.2,-25282.35,-33978.152,-47192.953,21315.023
956641.1169980747,-63765.953,-81348.11,-22220.5,-33405.844,-25267.66,-33979.86,-47175.824,21323.65
956641.120998071,-63745.65,-81332.12,-22200.684,-33384.277,-25250.773,-33982.3,-47160.156,21326.05
956641.1249980673,-63754.723,-81342.61,-22210.938,-33395.145,-25252.402,-33981.285,-47170.004,21325.033
956641.1289980635,-63769.94,-81361.58,-22234.62,-33418.66,-25267.213,-33980.43,-47192.63,21320.15
956641.1329980597,-63774.945,-81363.28,-22238.852,-33421.43,-25268.963,-33976.523,-47194.46,21319.5
956641.136998056,-63753.746,-81343.8,-22219.932,-33403.402,-25256.512,-33977.094,-47176.35,21325.277
956641.1409980522,-63729.86,-81320.84,-22200.156,-33382.082,-25240.234,-33976.48,-47158.0,21331.625
956641.1449980484,-63740.6,-81333.664,-22209.96,-33393.027,-25245.729,-33977.742,-47167.035,21321.248
956641.1489980447,-63765.42,-81352.79,-22229.777,-33414.062,-25262.29,-33977.38,-47181.64,21320.924
956641.1529980409,-63764.977,-81346.766,-22228.842,-33409.953,-25260.05,-33968.953,-47175.703,21332.357
956641.1569980371,-63738.406,-81324.83,-22209.27,-33391.03,-25249.676,-33970.99,-47161.62,21333.945
956641.1609980335,-63727.418,-81321.17,-22198.73,-33384.24,-25238.322,-33977.785,-47155.684,21332.113
956641.1649980297,-63752.2,-81343.55,-22217.652,-33403.363,-25250.488,-33985.27,-47171.797,21322.633
956641.1689980259,-63773.48,-81366.78,-22238.037,-33426.23,-25276.45,-33984.906,-47191.816,21317.22
956641.1729980222,-63774.17,-81371.664,-22242.799,-33426.434,-25280.682,-33979.98,-47190.918,21318.035
956641.1769980184,-63752.85,-81354.45,-22222.494,-33403.688,-25268.799,-33982.79,-47170.25,21319.336
956641.1809980146,-63741.05,-81337.85,-22208.13,-33390.137,-25260.295,-33979.94,-47155.477,21318.482
956641.1849980109,-63755.902,-81341.92,-22220.5,-33404.094,-25263.348,-33973.348,-47159.953,21324.219
956641.1889980071,-63776.29,-81354.33,-22237.672,-33424.562,-25268.922,-33971.598,-47177.574,21323.486
956641.1929980033,-63785.402,-81357.67,-22240.643,-33429.65,-25272.625,-33977.824,-47189.168,21316.895
956641.1969979997,-63761.273,-81336.23,-22215.7,-33405.4,-25257.121,-33979.617,-47171.875,21328.777
956641.2009979959,-63737.266,-81321.86,-22199.586,-33384.523,-25242.92,-33977.215,-47152.996,21337.281
956641.2049979921,-63749.473,-81338.34,-22214.844,-33397.91,-25249.838,-33982.016,-47161.746,21331.299
956641.2089979884,-63778.973,-81371.79,-22241.496,-33423.465,-25276.408,-33982.42,-47182.496,21320.72
956641.2129979846,-63795.74,-81378.625,-22252.809,-33432.78,-25291.83,-33980.266,-47190.96,21314.047
956641.2169979808,-63777.02,-81357.67,-22238.12,-33416.18,-25275.352,-33984.5,-47179.934,21314.656
956641.2209979771,-63754.477,-81336.02,-22223.145,-33400.23,-25258.627,-33992.15,-47171.918,21314.535
956641.2249979733,-63752.81,-81332.36,-22218.75,-33399.05,-25259.727,-33992.188,-47173.137,21315.43
956641.2289979695,-63783.734,-81361.164,-22238.852,-33423.953,-25274.62,-33990.848,-47193.727,21313.803
956641.2329979658,-63790.61,-81371.79,-22250.814,-33432.902,-25272.666,-33988.2,-47199.79,21314.617
956641.2369979621,-63760.95,-81352.74,-22229.086,-33409.465,-25256.959,-33986.086,-47173.91,21325.44
956641.2409979583,-63737.875,-81328.53,-22204.307,-33387.574,-25245.77,-33984.66,-47149.336,21337.281
956641.2449979546,-63743.41,-81333.336,-22209.717,-33395.305,-25256.592,-33981.934,-47158.246,21328.857
956641.2489979508,-63780.48,-81364.38,-22232.545,-33422.85,-25277.1,-33983.848,-47183.516,21319.05
956641.252997947,-63797.73,-81385.09,-22243.775,-33431.152,-25278.24,-33984.742,-47195.56,21316.082
956641.2569979433,-63772.95,-81359.7,-22227.824,-33410.688,-25267.701,-33986.043,-47182.7,21315.797
956641.2609979395,-63748.13,-81330.41,-22206.584,-33389.12,-25246.42,-33987.387,-47168.906,21315.268
956641.2649979357,-63759.44,-81332.36,-22209.922,-33395.348,-25244.59,-33983.24,-47175.254,21315.838
956641.268997932,-63779.297,-81358.805,-22240.602,-33423.79,-25258.75,-33983.24,-47202.516,21309.652
956641.2729979282,-63778.65,-81369.19,-22245.646,-33430.34,-25267.416,-33984.54,-47213.42,21307.008
956641.2769979245,-63760.95,-81352.016,-22221.68,-33409.06,-25260.498,-33983.805,-47193.645,21313.477
956641.2809979208,-63737.957,-81332.84,-22201.621,-33386.598,-25250.285,-33975.465,-47171.47,21322.877
956641.284997917,-63753.297,-81341.88,-22216.514,-33401.816,-25257.324,-33978.56,-47183.105,21312.176
956641.2889979132,-63786.055,-81367.02,-22242.758,-33429.65,-25280.6,-33978.92,-47206.055,21310.791
956641.2929979095,-63782.676,-81365.16,-22239.258,-33425.336,-25283.203,-33977.867,-47204.836,21321.98
956641.2969979057,-63757.855,-81339.84,-22211.549,-33394.816,-25252.32,-33975.668,-47177.574,21336.834
956641.3009979019,-63746.016,-81325.65,-22197.633,-33380.94,-25237.102,-33976.848,-47162.438,21343.832
956641.3049978982,-63763.227,-81341.84,-22216.025,-33397.867,-25252.564,-33977.664,-47179.61,21330.73
956641.3089978944,-63785.645,-81364.18,-22238.525,-33421.348,-25272.38,-33971.477,-47202.11,21319.215
956641.3129978906,-63803.633,-81380.086,-22255.209,-33435.914,-25280.438,-33978.19,-47218.953,21303.02
956641.316997887,-63782.15,-81366.74,-22237.63,-33415.773,-25267.05,-33983.316,-47205.445,21302.328
956641.3209978832,-63762.047,-81346.03,-22218.182,-33393.598,-25246.094,-33982.3,-47186.24,21312.5
956641.3249978794,-63774.66,-81347.05,-22226.035,-33403.2,-25258.057,-33975.383,-47191.855,21311.402
956641.3289978757,-63792.402,-81365.93,-22246.705,-33423.18,-25280.885,-33970.83,-47208.09,21307.537
956641.3329978719,-63805.504,-81378.38,-22256.797,-33432.742,-25284.791,-33976.2,-47217.816,21303.264
956641.3369978681,-63782.88,-81358.195,-22234.783,-33410.605,-25268.434,-33982.504,-47197.676,21312.176
956641.3409978644,-63755.7,-81333.09,-22213.705,-33389.445,-25249.879,-33987.348,-47180.42,21317.586
956641.3449978606,-63767.05,-81342.734,-22227.336,-33406.7,-25263.307,-33990.723,-47194.05,21313.64
956641.3489978568,-63792.44,-81364.26,-22250.53,-33431.355,-25282.959,-33989.3,-47217.695,21309.285
956641.3529978532,-63793.99,-81364.914,-22248.617,-33429.688,-25284.18,-33981.61,-47217.285,21309.979
956641.3569978494,-63773.48,-81349.2,-22228.068,-33407.51,-25270.752,-33983.848,-47199.75,21309.693
956641.3609978457,-63753.906,-81327.76,-22209.27,-33386.8,-25250.123,-33986.98,-47184.082,21311.076
956641.3649978419,-63770.793,-81342.66,-22222.047,-33403.363,-25262.818,-33989.016,-47198.445,21308.309
956641.3689978381,-63795.41,-81368.62,-22244.71,-33428.1,-25281.047,-33982.3,-47220.137,21304.89
956641.3729978343,-63796.836,-81370.77,-22248.373,-33430.867,-25286.621,-33978.92,-47221.844,21304.646
956641.3769978306,-63777.344,-81357.016,-22232.666,-33411.824,-25272.584,-33979.004,-47203.25,21313.436
956641.3809978268,-63759.117,-81349.0,-22218.303,-33394.246,-25257.203,-33980.31,-47187.582,21316.326
956641.384997823,-63772.055,-81352.945,-22225.994,-33403.77,-25258.465,-33980.266,-47193.523,21316.977
956641.3889978193,-63792.32,-81366.336,-22246.055,-33426.15,-25277.14,-33977.215,-47212.73,21315.43
956641.3929978156,-63792.402,-81369.67,-22247.111,-33425.21,-25280.193,-33973.227,-47214.56,21307.414
956641.3969978119,-63776.41,-81354.05,-22226.36,-33403.77,-25261.924,-33981.203,-47198.73,21310.059
956641.4009978081,-63757.734,-81347.945,-22211.06,-33388.062,-25252.238,-33982.75,-47181.234,21322.795
956641.4049978043,-63770.387,-81361.734,-22228.354,-33404.91,-25267.334,-33984.457,-47196.617,21315.674
956641.4089978006,-63796.266,-81376.586,-22253.094,-33430.016,-25291.912,-33986.37,-47220.137,21310.223
956641.4129977968,-63799.6,-81374.72,-22254.6,-33431.805,-25295.86,-33986.453,-47220.95,21311.2
956641.416997793,-63784.547,-81363.37,-22238.322,-33415.69,-25282.797,-33993.082,-47207.97,21307.21
956641.4209977892,-63776.53,-81353.92,-22228.395,-33404.703,-25271.445,-33996.34,-47197.918,21306.967
956641.4249977855,-63784.14,-81367.31,-22239.543,-33416.547,-25274.334,-33990.48,-47202.637,21315.309
956641.4289977817,-63804.85,-81387.62,-22263.104,-33437.137,-25291.504,-33985.883,-47220.297,21313.762
956641.432997778,-63806.36,-81389.61,-22259.562,-33434.53,-25286.541,-33976.81,-47220.785,21314.982
956641.4369977743,-63792.2,-81374.516,-22242.799,-33415.445,-25275.514,-33978.965,-47204.875,21317.465
956641.4409977705,-63777.062,-81354.74,-22228.8,-33399.13,-25264.324,-33982.42,-47191.53,21317.465
956641.4449977668,-63779.867,-81358.52,-22232.707,-33405.07,-25270.875,-33983.074,-47196.004,21314.697
956641.448997763,-63801.598,-81370.73,-22243.734,-33419.84,-25281.129,-33972.414,-47208.008,21318.848
956641.4529977592,-63813.805,-81385.42,-22254.762,-33430.258,-25287.965,-33973.188,-47218.67,21316.977
956641.4569977554,-63792.2,-81376.79,-22240.398,-33416.707,-25276.367,-33979.332,-47207.848,21312.297
956641.4609977517,-63766.645,-81360.4,-22217.693,-33394.656,-25261.598,-33977.906,-47185.832,21320.436
956641.4649977479,-63783.45,-81373.45,-22236.857,-33411.785,-25274.293,-33985.434,-47201.66,21313.477
956641.4689977443,-63810.875,-81392.91,-22261.312,-33436.77,-25286.5,-33985.434,-47225.547,21302.734
956641.4729977405,-63816.69,-81397.914,-22263.225,-33439.047,-25288.006,-33986.86,-47227.418,21310.059
956641.4769977367,-63789.145,-81366.62,-22238.607,-33410.156,-25272.95,-33982.992,-47200.97,21321.248
956641.480997733,-63767.133,-81350.14,-22216.514,-33386.395,-25257.854,-33980.633,-47176.434,21326.742
956641.4849977292,-63785.24,-81371.7,-22230.389,-33404.176,-25260.418,-33980.062,-47190.676,21315.877
956641.4889977254,-63828.695,-81402.23,-22266.684,-33440.594,-25291.424,-33979.41,-47221.64,21307.658
956641.4929977217,-63834.72,-81403.57,-22275.84,-33446.74,-25295.98,-33984.133,-47225.02,21308.27
956641.4969977179,-63791.832,-81370.164,-22245.24,-33418.824,-25268.637,-33982.953,-47199.91,21314.78
956641.5009977141,-63775.39,-81359.5,-22228.8,-33404.5,-25260.783,-33979.41,-47188.03,21320.232
956641.5049977103,-63786.664,-81371.09,-22238.486,-33416.22,-25268.596,-33978.92,-47199.586,21317.791
956641.5089977067,-63811.65,-81394.53,-22259.97,-33438.19,-25285.93,-33977.742,-47220.215,21314.656
956641.5129977029,-63816.164,-81392.984,-22258.586,-33434.652,-25286.418,-33973.633,-47217.773,21315.553
956641.5169976992,-63783.816,-81365.69,-22230.592,-33405.4,-25263.266,-33975.547,-47194.5,21318.93
956641.5209976954,-63754.805,-81346.36,-22208.172,-33383.953,-25241.822,-33975.3,-47172.08,21329.998
956641.5249976916,-63774.008,-81358.08,-22221.518,-33400.027,-25252.564,-33978.965,-47187.867,21321.818
956641.5289976879,-63804.445,-81386.07,-22248.088,-33425.05,-25274.863,-33979.574,-47214.805,21308.064
956641.5329976841,-63809.613,-81388.875,-22256.309,-33430.055,-25276.45,-33979.777,-47224.367,21301.96
956641.5369976803,-63792.24,-81373.74,-22237.102,-33410.605,-25258.342,-33982.707,-47209.516,21308.92
956641.5409976766,-63772.383,-81361.78,-22223.512,-33395.062,-25255.291,-33985.8,-47189.984,21311.28
956641.5449976728,-63782.023,-81369.305,-22234.05,-33409.26,-25265.342,-33986.734,-47198.406,21308.39
956641.5489976691,-63819.95,-81398.07,-22259.318,-33439.047,-25289.47,-33988.04,-47223.96,21301.107
956641.5529976654,-63827.883,-81407.35,-22260.377,-33443.074,-25303.467,-33988.2,-47229.98,21297.893
956641.5569976616,-63792.32,-81381.72,-22234.66,-33416.383,-25274.496,-33983.44,-47206.625,21307.293
956641.5609976578,-63780.234,-81368.25,-22221.885,-33398.684,-25260.254,-33986.574,-47191.61,21309.57
956641.5649976541,-63788.656,-81375.734,-22229.736,-33406.414,-25266.48,-33986.816,-47196.82,21299.887
956641.5689976503,-63812.297,-81395.555,-22256.918,-33434.652,-25287.11,-33986.29,-47218.75,21295.613
956641.5729976465,-63817.18,-81398.27,-22260.865,-33439.78,-25290.812,-33986.695,-47220.38,21296.713
956641.5769976428,-63794.19,-81378.91,-22239.707,-33418.254,-25270.102,-33986.37,-47199.098,21309.326
956641.580997639,-63781.09,-81363.57,-22228.15,-33404.5,-25262.127,-33987.508,-47185.71,21315.877
956641.5849976353,-63792.562,-81368.37,-22239.625,-33413.777,-25268.555,-33983.24,-47193.77,21309.53
956641.5889976316,-63816.895,-81389.41,-22257.365,-33433.473,-25287.395,-33978.56,-47210.86,21306.56
956641.5929976278,-63822.062,-81401.33,-22255.494,-33433.35,-25289.592,-33978.027,-47211.55,21310.182
956641.596997624,-63800.17,-81387.9,-22237.957,-33415.164,-25275.514,-33985.11,-47197.062,21305.299
956641.6009976203,-63785.85,-81364.664,-22228.76,-33401.57,-25265.342,-33986.207,-47182.09,21311.2
956641.6049976165,-63797.04,-81369.14,-22236.37,-33409.223,-25262.818,-33978.434,-47184.9,21313.191
956641.6089976127,-63830.445,-81400.31,-22266.969,-33439.7,-25280.111,-33975.586,-47211.55,21306.56
956641.612997609,-63839.355,-81410.69,-22276.855,-33447.31,-25291.748,-33979.94,-47217.855,21302.734
956641.6169976052,-63805.83,-81384.445,-22252.402,-33423.504,-25276.611,-33982.3,-47198.242,21304.89
956641.6209976014,-63781.7,-81362.875,-22232.504,-33404.42,-25261.068,-33987.387,-47180.258,21311.97
956641.6249975978,-63788.94,-81378.26,-22235.516,-33410.074,-25265.463,-33988.77,-47185.14,21312.826
956641.628997594,-63824.75,-81415.49,-22269.898,-33444.215,-25292.725,-33993.53,-47221.926,21296.021
956641.6329975902,-63832.562,-81409.63,-22275.473,-33444.01,-25297.404,-33988.812,-47224.61,21305.217
956641.6369975865,-63813.03,-81385.016,-22254.6,-33419.56,-25271.201,-33992.15,-47203.25,21312.623
956641.6409975827,-63790.57,-81368.66,-22231.73,-33401.125,-25255.982,-33993.57,-47185.547,21310.1
956641.6449975789,-63793.418,-81374.23,-22234.824,-33406.58,-25259.766,-33987.59,-47184.45,21315.064
956641.6489975752,-63817.996,-81398.766,-22258.18,-33433.39,-25278.525,-33980.754,-47206.3,21308.432
956641.6529975714,-63823.324,-81400.96,-22266.521,-33441.938,-25288.453,-33982.75,-47213.055,21300.537
956641.6569975676,-63798.992,-81376.305,-22245.281,-33420.9,-25275.555,-33983.074,-47188.887,21322.55
956641.6609975639,-63779.016,-81353.44,-22223.023,-33401.125,-25256.186,-33983.684,-47171.062,21326.945
956641.6649975602,-63788.414,-81363.2,-22233.033,-33410.688,-25261.068,-33985.027,-47180.137,21318.4
956641.6689975564,-63817.14,-81389.61,-22257.285,-33436.035,-25279.053,-33984.375,-47203.33,21310.955
956641.6729975527,-63808.27,-81388.1,-22255.088,-33431.844,-25279.094,-33980.062,-47200.523,21313.72
956641.6769975489,-63786.34,-81376.586,-22235.8,-33411.5,-25264.934,-33976.117,-47180.22,21322.592
956641.6809975451,-63778.32,-81366.46,-22225.506,-33399.617,-25255.494,-33978.027,-47167.32,21330.607
956641.6849975414,-63793.297,-81373.86,-22235.434,-33413.453,-25263.672,-33981.324,-47179.688,21322.266
956641.6889975376,-63829.348,-81400.07,-22265.057,-33446.25,-25282.676,-33986.777,-47211.508,21301.717
956641.6929975338,-63831.098,-81397.34,-22267.01,-33446.332,-25286.133,-33987.387,-47216.72,21302.775
956641.6969975301,-63802.53,-81367.88,-22242.188,-33419.477,-25270.346,-33986.246,-47195.56,21310.955
956641.7009975263,-63779.992,-81343.02,-22219.28,-33395.875,-25252.441,-33985.72,-47173.34,21316.61
956641.7049975226,-63776.855,-81346.11,-22220.42,-33398.52,-25256.715,-33977.62,-47170.37,21318.197
956641.7089975189,-63806.316,-81384.73,-22249.635,-33427.246,-25281.047,-33976.81,-47191.53,21317.912
956641.7129975151,-63818.973,-81404.91,-22263.672,-33440.96,-25285.32,-33983.316,-47205.04,21313.64
956641.7169975113,-63794.11,-81380.17,-22237.998,-33414.348,-25263.104,-33983.074,-47183.88,21321.656
956641.7209975076,-63778.527,-81355.76,-22217.367,-33393.312,-25246.787,-33980.918,-47168.945,21326.295
956641.7249975038,-63788.496,-81369.14,-22232.139,-33407.88,-25254.965,-33979.37,-47183.39,21316.365
956641.7289975,-63824.75,-81409.95,-22266.521,-33442.223,-25282.959,-33983.4,-47211.996,21295.777
956641.7329974963,-63820.723,-81395.1,-22263.469,-33439.453,-25284.994,-33979.047,-47204.145,21302.734
956641.7369974925,-63787.273,-81352.3,-22231.69,-33406.332,-25263.469,-33973.633,-47172.65,21324.342
956641.7409974888,-63770.55,-81335.66,-22211.834,-33389.61,-25244.59,-33981.406,-47156.293,21333.74
956641.7449974851,-63789.023,-81361.25,-22227.133,-33406.09,-25247.314,-33985.92,-47170.777,21334.799
956641.7489974813,-63814.414,-81388.266,-22251.303,-33430.258,-25269.816,-33982.016,-47195.07,21320.477
956641.7529974775,-63821.574,-81400.31,-22260.742,-33435.59,-25275.635,-33985.066,-47204.67,21309.855
956641.7569974738,-63805.176,-81385.99,-22247.396,-33416.26,-25262.94,-33983.074,-47183.758,21319.783
956641.76099747,-63788.7,-81366.82,-22230.145,-33401.938,-25253.867,-33982.91,-47168.742,21324.504
956641.7649974662,-63789.062,-81366.945,-22231.324,-33404.95,-25256.104,-33982.098,-47170.695,21324.504
956641.7689974625,-63818.645,-81400.88,-22257.365,-33435.75,-25282.838,-33988.73,-47196.453,21319.174
956641.7729974587,-63820.965,-81408.57,-22260.295,-33440.43,-25287.15,-33991.05,-47200.93,21317.465
956641.7769974549,-63801.516,-81378.42,-22246.135,-33419.92,-25265.79,-33987.305,-47181.562,21322.104
956641.7809974513,-63789.43,-81361.21,-22230.104,-33403.934,-25258.709,-33993.41,-47170.047,21315.268
956641.7849974475,-63793.5,-81369.43,-22239.014,-33412.355,-25267.09,-33991.824,-47179.28,21312.135
956641.7889974437,-63815.27,-81389.695,-22267.822,-33440.227,-25281.738,-33993.652,-47203.125,21305.46
956641.79299744,-63816.0,-81397.87,-22264.486,-33437.664,-25278.77,-33989.95,-47198.12,21313.559
956641.7969974362,-63795.207,-81382.0,-22239.34,-33412.926,-25266.846,-33984.01,-47171.227,21328.654
956641.8009974324,-63771.406,-81363.445,-22218.467,-33395.062,-25257.244,-33976.117,-47154.01,21334.717
956641.8049974287,-63790.367,-81371.5,-22233.48,-33411.62,-25274.496,-33976.93,-47168.215,21325.604
956641.8089974249,-63826.66,-81399.09,-22262.127,-33438.03,-25291.465,-33977.133,-47194.094,21313.355
956641.8129974211,-63830.73,-81405.16,-22265.87,-33440.39,-25286.988,-33976.36,-47199.14,21314.088
956641.8169974174,-63814.902,-81392.414,-22251.22,-33422.69,-25272.705,-33981.69,-47185.957,21317.059
956641.8209974137,-63808.027,-81374.76,-22243.979,-33413.168,-25263.55,-33992.35,-47182.293,21305.258
956641.82499741,-63809.29,-81374.59,-22252.482,-33420.047,-25256.104,-33998.984,-47193.36,21296.957
956641.8289974062,-63826.336,-81394.78,-22273.967,-33442.06,-25272.096,-33995.81,-47214.48,21293.783
956641.8329974024,-63817.465,-81394.62,-22266.48,-33432.17,-25276.531,-33985.637,-47202.312,21305.99
956641.8369973986,-63802.86,-81381.19,-22247.193,-33413.574,-25270.387,-33984.336,-47177.29,21320.15
956641.8409973949,-63791.344,-81367.35,-22236.41,-33403.688,-25259.848,-33985.35,-47161.297,21323.895
956641.8449973911,-63808.15,-81380.58,-22248.008,-33416.91,-25272.38,-33986.29,-47171.918,21322.55
956641.8489973873,-63840.254,-81406.7,-22276.49,-33444.5,-25293.254,-33986.29,-47196.29,21311.768
956641.8529973836,-63841.35,-81405.68,-22279.217,-33446.74,-25293.824,-33986.574,-47202.027,21301.19
956641.8569973799,-63808.88,-81375.57,-22250.652,-33418.418,-25272.787,-33987.266,-47179.242,21311.402
956641.8609973761,-63787.19,-81359.91,-22230.104,-33400.676,-25254.924,-33987.305,-47165.57,21312.623
956641.8649973724,-63798.707,-81375.9,-22244.71,-33415.73,-25266.113,-33989.016,-47176.72,21310.262
956641.8689973686,-63825.523,-81412.36,-22271.81,-33443.605,-25289.674,-33986.656,-47196.902,21309.408
956641.8729973648,-63827.844,-81409.914,-22273.316,-33442.02,-25286.662,-33975.586,-47189.414,21321.86
956641.8769973611,-63810.793,-81381.88,-22250.53,-33418.582,-25267.295,-33974.12,-47166.63,21336.305
956641.8809973573,-63786.297,-81364.22,-22228.639,-33397.34,-25251.22,-33977.54,-47148.152,21342.611
956641.8849973535,-63786.176,-81368.86,-22226.889,-33400.594,-25256.836,-33978.516,-47152.184,21338.746
956641.8889973498,-63813.234,-81392.984,-22252.686,-33429.934,-25276.938,-33980.594,-47177.29,21329.875
956641.892997346,-63815.637,-81388.72,-22262.9,-33436.93,-25286.5,-33977.945,-47181.926,21333.863
956641.8969973424,-63791.26,-81357.586,-22240.764,-33414.348,-25268.434,-33975.79,-47161.297,21345.541
956641.9009973386,-63776.695,-81341.63,-22224.406,-33398.316,-25250.855,-33974.977,-47145.348,21352.092
956641.9049973348,-63781.047,-81353.56,-22236.37,-33409.586,-25262.127,-33974.04,-47154.38,21344.035
956641.908997331,-63796.145,-81383.42,-22258.3,-33431.56,-25287.232,-33969.645,-47175.05,21331.91
956641.9129973273,-63801.92,-81392.664,-22261.23,-33434.45,-25291.79,-33970.83,-47178.223,21333.984
956641.9169973235,-63779.625,-81363.2,-22230.062,-33402.547,-25262.045,-33970.133,-47150.676,21348.594
956641.9209973197,-63770.184,-81344.28,-22219.89,-33389.65,-25248.74,-33975.426,-47139.04,21348.715
956641.924997316,-63788.496,-81360.31,-22240.643,-33413.332,-25261.068,-33979.656,-47157.758,21340.943
956641.9289973122,-63808.105,-81381.555,-22260.05,-33434.816,-25278.77,-33977.01,-47175.293,21337.443
956641.9329973084,-63814.21,-81390.99,-22264.893,-33439.09,-25277.264,-33973.348,-47177.086,21334.96
956641.9369973048,-63793.867,-81375.81,-22245.89,-33420.656,-25263.348,-33975.098,-47161.99,21341.309
956641.940997301,-63777.14,-81357.22,-22234.336,-33407.633,-25253.906,-33980.594,-47151.45,21337.402
956641.9449972973,-63786.664,-81363.41,-22243.328,-33419.15,-25270.549,-33983.848,-47158.977,21333.334
956641.9489972935,-63810.67,-81385.54,-22264.975,-33443.36,-25292.4,-33982.547,-47178.508,21326.13
956641.9529972897,-63812.785,-81389.04,-22262.656,-33438.152,-25289.633,-33977.742,-47173.992,21331.34
956641.956997286,-63796.145,-81366.945,-22242.066,-33413.168,-25270.102,-33976.24,-47152.793,21339.6
956641.9609972822,-63775.92,-81353.766,-22225.586,-33397.586,-25251.709,-33976.074,-47139.324,21343.955
956641.9649972784,-63779.258,-81365.805,-22235.068,-33408.246,-25250.488,-33974.57,-47148.926,21343.994
956641.9689972746,-63814.21,-81399.01,-22262.207,-33439.293,-25277.426,-33975.465,-47177.45,21331.91
956641.972997271,-63819.297,-81404.7,-22265.098,-33446.695,-25293.621,-33975.3,-47184.082,21322.633
956641.9769972672,-63801.516,-81378.625,-22244.549,-33424.44,-25280.111,-33975.586,-47164.797,21326.254
956641.9809972635,-63786.258,-81360.84,-22227.05,-33404.703,-25255.78,-33976.117,-47145.793,21332.195
956641.9849972597,-63789.227,-81366.414,-22232.545,-33411.297,-25255.047,-33977.54,-47148.887,21330.81
956641.9889972559,-63810.47,-81392.46,-22256.309,-33436.973,-25274.375,-33981.977,-47173.098,21324.422
956641.9929972521,-63820.273,-81401.62,-22262.656,-33440.473,-25279.338,-33981.895,-47178.793,21323.568
956641.9969972484,-63791.14,-81379.88,-22242.473,-33418.785,-25276.043,-33985.395,-47159.63,21334.434
956642.0009972446,-63766.727,-81358.32,-22220.947,-33395.957,-25265.87,-33982.83,-47139.977,21337.852
956642.0049972408,-63781.984,-81373.91,-22232.342,-33406.7,-25270.793,-33979.29,-47146.28,21336.752
956642.0089972371,-63820.234,-81401.45,-22264.648,-33439.09,-25289.145,-33985.15,-47173.625,21332.643
956642.0129972334,-63833.05,-81403.445,-22262.86,-33440.43,-25290.771,-33985.027,-47177.41,21325.115
956642.0169972297,-63802.37,-81384.16,-22242.025,-33418.66,-25272.258,-33980.754,-47162.64,21323.08
956642.0209972259,-63771.12,-81362.914,-22219.32,-33399.78,-25257.568,-33979.656,-47142.824,21330.566
956642.0249972221,-63777.14,-81368.695,-22226.482,-33410.2,-25262.86,-33981.61,-47146.77,21331.951
956642.0289972184,-63804.812,-81395.76,-22258.383,-33437.055,-25281.535,-33982.707,-47169.844,21326.336
956642.0329972146,-63807.54,-81388.19,-22256.918,-33431.195,-25280.314,-33980.55,-47165.938,21338.502
956642.0369972108,-63793.297,-81369.8,-22236.695,-33409.668,-25266.44,-33979.047,-47150.92,21347.006
956642.040997207,-63786.46,-81365.73,-22229.533,-33401.082,-25259.36,-33983.93,-47144.816,21344.28
956642.0449972033,-63802.453,-81377.28,-22242.31,-33416.465,-25270.184,-33988.61,-47163.453,21325.318
956642.0489971995,-63824.344,-81403.16,-22263.266,-33440.594,-25283.367,-33987.145,-47187.95,21313.965
956642.0529971959,-63834.23,-81415.24,-22272.137,-33444.5,-25280.396,-33982.504,-47188.926,21322.592
956642.0569971921,-63811.242,-81393.48,-22250.041,-33419.84,-25263.633,-33975.75,-47169.56,21328.777
956642.0609971883,-63788.168,-81375.29,-22234.904,-33404.094,-25253.5,-33975.504,-47158.49,21320.15
956642.0649971846,-63794.598,-81376.06,-22241.7,-33411.176,-25254.395,-33973.88,-47162.844,21317.547
956642.0689971808,-63807.008,-81376.875,-22250.205,-33422.812,-25259.318,-33964.273,-47169.516,21328.492
956642.072997177,-63816.043,-81379.11,-22256.47,-33430.992,-25265.951,-33966.96,-47175.78,21334.393
956642.0769971733,-63797.16,-81362.39,-22235.88,-33412.312,-25253.379,-33966.188,-47158.855,21348.512
956642.0809971695,-63781.78,-81351.52,-22220.623,-33396.324,-25245.729,-33967.652,-47145.266,21358.154
956642.0849971657,-63798.91,-81368.98,-22239.463,-33410.562,-25252.768,-33972.414,-47158.895,21354.615
956642.088997162,-63830.566,-81397.95,-22267.01,-33441.895,-25269.857,-33982.42,-47188.76,21341.309
956642.0929971583,-63827.68,-81395.8,-22268.76,-33440.797,-25275.96,-33984.906,-47193.523,21339.355
956642.0969971545,-63799.645,-81373.09,-22245.646,-33414.062,-25259.562,-33980.957,-47171.797,21349.447
956642.1009971508,-63783.69,-81357.305,-22230.713,-33395.223,-25246.055,-33982.3,-47155.926,21347.168
956642.104997147,-63796.227,-81375.05,-22240.928,-33408.652,-25255.9,-33981.934,-47171.348,21335.45
956642.1089971432,-63821.984,-81395.836,-22262.492,-33431.152,-25267.172,-33973.836,-47193.484,21325.766
956642.1129971395,-63828.41,-81397.75,-22266.846,-33432.457,-25265.87,-33969.973,-47197.957,21320.557
956642.1169971357,-63802.656,-81368.94,-22238.404,-33403.688,-25243.816,-33970.83,-47173.625,21338.95
956642.1209971319,-63782.188,-81345.79,-22215.373,-33381.55,-25232.383,-33967.043,-47152.957,21349.854
956642.1249971282,-63801.15,-81365.07,-22236.492,-33403.973,-25250.0,-33976.523,-47176.19,21333.66
956642.1289971245,-63827.312,-81395.63,-22259.318,-33431.684,-25275.27,-33971.316,-47201.05,21323.283
956642.1329971207,-63826.01,-81397.22,-22265.098,-33431.4,-25282.756,-33968.63,-47205.08,21327.19
956642.136997117,-63803.47,-81377.24,-22245.117,-33408.49,-25268.84,-33969.688,-47189.09,21332.357
956642.1409971132,-63790.0,-81361.66,-22227.988,-33391.805,-25252.768,-33973.227,-47174.52,21339.438
956642.1449971094,-63808.066,-81378.99,-22245.443,-33411.99,-25256.227,-33980.184,-47188.68,21333.66
956642.1489971057,-63831.016,-81402.63,-22271.852,-33436.81,-25269.736,-33978.11,-47209.96,21318.36
956642.1529971019,-63835.734,-81404.99,-22273.193,-33436.28,-25272.422,-33972.74,-47204.633,21320.76
956642.1569970981,-63811.73,-81376.836,-22239.463,-33405.965,-25249.594,-33972.82,-47172.242,21341.473
956642.1609970944,-63791.3,-81349.125,-22217.367,-33385.99,-25232.79,-33974.734,-47153.117,21355.51
956642.1649970906,-63799.4,-81370.69,-22238.73,-33405.76,-25250.53,-33980.266,-47176.395,21331.096
956642.1689970869,-63821.7,-81397.14,-22264.486,-33431.277,-25277.385,-33982.016,-47202.84,21325.848
956642.1729970832,-63830.08,-81401.2,-22267.822,-33435.508,-25277.344,-33978.152,-47205.61,21334.758
956642.1769970794,-63810.67,-81385.17,-22245.688,-33413.777,-25264.445,-33973.227,-47185.426,21347.412
956642.1809970756,-63793.5,-81366.414,-22225.098,-33396.2,-25256.023,-33974.45,-47165.12,21357.139
956642.1849970719,-63809.855,-81374.88,-22238.445,-33409.26,-25259.889,-33976.81,-47175.945,21342.123
956642.1889970681,-63834.15,-81391.44,-22261.354,-33429.527,-25280.438,-33976.89,-47194.215,21335.572
956642.1929970643,-63837.445,-81397.3,-22262.818,-33430.582,-25281.25,-33978.434,-47198.812,21334.96
956642.1969970606,-63815.35,-81381.67,-22240.684,-33408.0,-25265.545,-33973.43,-47180.055,21347.332
956642.2009970568,-63795.168,-81358.32,-22226.318,-33389.363,-25255.576,-33975.426,-47162.312,21351.156
956642.204997053,-63804.242,-81360.07,-22232.463,-33400.35,-25261.76,-33978.477,-47173.42,21346.152
956642.2089970494,-63826.66,-81392.26,-22263.592,-33432.902,-25289.633,-33985.598,-47206.34,21333.984
956642.2129970456,-63830.527,-81397.87,-22271.078,-33436.605,-25299.766,-33987.996,-47216.105,21323.406
956642.2169970418,-63809.57,-81371.55,-22246.908,-33410.035,-25280.926,-33981.977,-47195.438,21330.322
956642.2209970381,-63798.83,-81365.07,-22232.951,-33396.484,-25272.258,-33981.363,-47186.117,21328.41
956642.2249970343,-63808.312,-81377.24,-22241.455,-33406.78,-25272.258,-33978.56,-47193.973,21323.162
956642.2289970305,-63830.285,-81392.984,-22263.389,-33429.2,-25286.703,-33976.727,-47211.305,21323.162
956642.2329970268,-63831.543,-81385.99,-22264.69,-33431.277,-25287.477,-33976.727,-47212.363,21327.516
956642.236997023,-63791.75,-81357.18,-22234.254,-33398.074,-25263.836,-33970.094,-47182.457,21337.566
956642.2409970192,-63776.938,-81343.55,-22218.832,-33380.496,-25247.479,-33963.992,-47167.117,21342.408
956642.2449970156,-63797.69,-81367.11,-22234.58,-33399.496,-25262.33,-33968.996,-47183.516,21329.469
956642.2489970118,-63825.848,-81397.26,-22263.916,-33426.758,-25284.791,-33972.82,-47204.836,21324.545
956642.252997008,-63829.55,-81394.94,-22265.178,-33426.473,-25285.727,-33971.355,-47207.723,21325.848
956642.2569970043,-63809.367,-81371.18,-22242.92,-33405.113,-25272.584,-33976.89,-47191.652,21326.336
956642.2609970005,-63792.81,-81359.42,-22225.098,-33392.824,-25258.709,-33977.945,-47182.05,21333.252
956642.2649969967,-63803.387,-81371.55,-22241.049,-33408.367,-25263.51,-33976.117,-47193.035,21334.596
956642.268996993,-63826.703,-81392.09,-22270.793,-33434.816,-25284.1,-33977.133,-47212.934,21321.98
956642.2729969892,-63826.582,-81393.11,-22272.178,-33438.19,-25299.887,-33976.688,-47212.2,21319.703
956642.2769969854,-63788.74,-81356.9,-22233.807,-33401.53,-25274.822,-33974.082,-47175.17,21339.396
956642.2809969817,-63757.57,-81325.52,-22203.613,-33373.375,-25243.205,-33969.28,-47147.992,21357.748
956642.284996978,-63777.387,-81346.68,-22220.135,-33391.6,-25245.2,-33976.81,-47163.332,21353.312
956642.2889969742,-63808.676,-81372.97,-22245.361,-33416.22,-25259.889,-33972.902,-47190.676,21334.596
956642.2929969705,-63820.03,-81389.41,-22260.092,-33427.492,-25281.658,-33967.977,-47204.266,21326.742
956642.2969969667,-63802.207,-81378.664,-22247.152,-33412.8,-25287.15,-33970.176,-47189.902,21331.299
956642.3009969629,-63776.492,-81354.33,-22221.355,-33391.24,-25263.55,-33977.297,-47169.312,21337.688
956642.3049969592,-63787.273,-81355.15,-22227.906,-33398.195,-25257.324,-33980.875,-47175.66,21333.701
956642.3089969554,-63807.58,-81372.766,-22243.287,-33414.145,-25269.736,-33975.504,-47190.473,21332.684
956642.3129969516,-63799.523,-81374.836,-22243.125,-33413.29,-25265.707,-33971.395,-47191.0,21343.223
956642.3169969479,-63785.688,-81364.46,-22231.406,-33399.17,-25256.268,-33975.098,-47177.004,21350.668
956642.3209969441,-63771.08,-81350.1,-22217.041,-33384.277,-25246.99,-33970.215,-47159.87,21356.486
956642.3249969404,-63789.758,-81370.12,-22231.445,-33400.555,-25258.465,-33971.234,-47171.31,21343.344
956642.3289969367,-63813.152,-81396.12,-22253.135,-33426.758,-25277.832,-33975.953,-47198.04,21330.078
956642.3329969329,-63809.98,-81395.1,-22253.744,-33425.09,-25278.809,-33977.215,-47199.953,21333.008
956642.3369969291,-63787.11,-81378.87,-22232.586,-33399.375,-25256.592,-33974.855,-47178.71,21335.37
956642.3409969254,-63777.02,-81366.3,-22217.285,-33383.87,-25238.852,-33979.37,-47169.395,21330.607
956642.3449969216,-63788.535,-81370.57,-22229.98,-33397.83,-25246.908,-33978.027,-47178.387,21329.305
956642.3489969178,-63814.13,-81382.65,-22251.385,-33423.34,-25270.02,-33970.99,-47193.848,21334.88
956642.3529969141,-63811.65,-81376.914,-22250.977,-33423.953,-25273.926,-33972.332,-47193.24,21340.088
956642.3569969103,-63777.508,-81348.06,-22222.535,-33390.953,-25255.697,-33974.527,-47163.25,21358.195
956642.3609969065,-63767.336,-81340.945,-22213.664,-33382.527,-25246.867,-33986.492,-47155.52,21357.992
956642.3649969029,-63786.38,-81356.24,-22229.574,-33400.555,-25252.197,-33989.746,-47172.895,21351.238
956642.3689968991,-63818.36,-81392.46,-22257.812,-33429.324,-25278.688,-33985.19,-47196.25,21343.914
956642.3729968953,-63820.64,-81403.65,-22263.51,-33434.41,-25283.447,-33984.742,-47199.344,21343.303
956642.3769968916,-63792.24,-81380.984,-22237.957,-33408.33,-25260.215,-33982.06,-47175.17,21357.586
956642.3809968878,-63771.242,-81347.21,-22212.281,-33384.074,-25242.637,-33977.945,-47151.33,21368.164
956642.384996884,-63781.375,-81351.56,-22223.633,-33394.086,-25250.082,-33977.01,-47161.418,21352.662
956642.3889968803,-63805.22,-81383.305,-22250.814,-33419.273,-25268.555,-33979.168,-47189.496,21338.664
956642.3929968765,-63810.875,-81387.29,-22253.379,-33420.86,-25281.861,-33981.73,-47197.715,21338.055
956642.3969968727,-63788.21,-81372.73,-22232.057,-33399.984,-25268.678,-33981.773,-47179.566,21342.45
956642.4009968691,-63765.016,-81347.086,-22209.31,-33379.64,-25253.297,-33980.754,-47155.316,21354.86
956642.4049968653,-63783.246,-81363.57,-22232.139,-33400.27,-25263.225,-33986.246,-47169.434,21352.906
956642.4089968615,-63814.375,-81387.86,-22258.912,-33427.816,-25277.182,-33984.945,-47195.027,21339.479
956642.4129968578,-63817.383,-81395.51,-22261.395,-33429.117,-25271.648,-33979.695,-47197.39,21336.02
956642.416996854,-63789.27,-81366.3,-22236.94,-33403.32,-25257.041,-33976.48,-47177.98,21340.252
956642.4209968502,-63769.613,-81336.836,-22215.861,-33380.086,-25250.814,-33977.99,-47159.344,21345.297
956642.4249968465,-63786.906,-81351.195,-22231.08,-33395.914,-25259.033,-33982.625,-47170.086,21343.71
956642.4289968427,-63806.848,-81379.31,-22257.773,-33424.074,-25272.096,-33978.152,-47188.56,21340.455
956642.4329968389,-63800.293,-81381.836,-22256.389,-33425.05,-25262.33,-33978.76,-47185.344,21345.988
956642.4369968352,-63773.684,-81353.44,-22226.4,-33396.12,-25247.64,-33976.93,-47154.83,21363.363
956642.4409968315,-63757.57,-81333.58,-22208.09,-33377.973,-25242.676,-33974.938,-47139.65,21367.514
956642.4449968277,-63775.96,-81353.11,-22224.57,-33397.504,-25254.803,-33980.67,-47159.305,21354.818
956642.448996824,-63805.504,-81383.18,-22256.023,-33427.207,-25273.275,-33979.492,-47185.957,21345.379
956642.4529968202,-63813.76,-81394.414,-22267.172,-33436.65,-25284.385,-33977.54,-47197.105,21343.182
956642.4569968164,-63793.094,-81377.0,-22247.885,-33413.98,-25268.922,-33978.395,-47178.184,21348.756
956642.4609968127,-63783.53,-81361.21,-22230.918,-33395.145,-25256.836,-33974.164,-47158.285,21357.139
956642.4649968089,-63799.727,-81362.19,-22235.596,-33403.973,-25264.08,-33973.758,-47164.594,21353.15
956642.4689968051,-63810.1,-81369.39,-22253.174,-33419.76,-25270.957,-33966.105,-47178.875,21350.547
956642.4729968014,-63796.023,-81366.46,-22247.682,-33412.965,-25258.383,-33958.496,-47167.684,21363.975
956642.4769967976,-63782.227,-81353.84,-22231.406,-33394.777,-25242.352,-33966.105,-47150.637,21365.479
956642.480996794,-63766.684,-81335.45,-22214.396,-33380.777,-25237.834,-33969.605,-47140.22,21362.225
956642.4849967902,-63775.88,-81345.95,-22220.379,-33393.23,-25251.22,-33969.605,-47152.06,21353.15
956642.4889967864,-63802.125,-81376.02,-22245.525,-33419.273,-25272.217,-33971.395,-47177.938,21340.049
956642.4929967826,-63813.03,-81386.68,-22254.111,-33425.375,-25275.473,-33968.953,-47184.816,21342.611
956642.4969967789,-63791.504,-81362.1,-22237.021,-33402.67,-25253.053,-33974.406,-47166.504,21354.86
956642.5009967751,-63773.156,-81337.69,-22220.703,-33382.49,-25239.502,-33973.96,-47150.39,21364.178
956642.5049967713,-63784.668,-81349.125,-22232.178,-33393.92,-25245.605,-33974.977,-47157.84,21363.975
956642.5089967676,-63809.938,-81384.16,-22253.379,-33417.195,-25257.0,-33973.594,-47177.777,21351.318
956642.5129967638,-63819.824,-81382.33,-22258.424,-33424.03,-25263.916,-33976.523,-47186.117,21349.244
956642.5169967602,-63799.684,-81356.85,-22237.793,-33404.38,-25250.896,-33977.38,-47168.254,21361.572
956642.5209967564,-63765.3,-81333.82,-22205.771,-33374.758,-25222.047,-33969.81,-47137.004,21380.25
956642.5249967526,-63766.44,-81347.29,-22208.822,-33382.977,-25229.453,-33971.844,-47142.215,21366.66
956642.5289967488,-63796.67,-81378.95,-22244.102,-33418.863,-25262.736,-33975.3,-47168.742,21361.045
956642.5329967451,-63801.19,-81381.88,-22251.059,-33423.258,-25269.531,-33973.062,-47169.76,21372.64
956642.5369967413,-63781.008,-81360.72,-22228.557,-33398.6,-25253.094,-33970.867,-47151.613,21371.502
956642.5409967375,-63765.3,-81345.79,-22210.734,-33378.582,-25237.305,-33968.75,-47135.297,21367.514
956642.5449967338,-63761.965,-81349.57,-22214.844,-33383.87,-25243.287,-33975.75,-47141.074,21363.81
