timestamp,Fp1,Fp2,F3,Fz,F4,Cz,Pz,Oz
1223625.9041128461,-61706.383,-75630.17,-22841.879,-17686.932,-22127.93,-11539.0625,-23965.7,18177.37
1223625.9081128412,-61701.66,-75623.375,-22832.887,-17683.797,-22119.346,-11528.809,-23956.748,18175.172
1223625.9121128365,-61707.93,-75619.51,-22827.8,-17683.432,-22115.031,-11523.601,-23952.678,18170.004
1223625.9161128316,-61714.52,-75625.086,-22833.74,-17685.223,-22120.24,-11533.041,-23963.908,18160.238
1223625.9201128269,-61709.598,-75631.06,-22839.682,-17686.605,-22131.268,-11542.969,-23972.412,18166.83
1223625.924112822,-61699.547,-75630.17,-22841.39,-17687.012,-22132.812,-11541.626,-23969.361,18182.537
1223625.928112817,-61699.668,-75626.79,-22836.223,-17686.809,-22121.46,-11530.192,-23955.201,18182.617
1223625.9321128123,-61706.668,-75621.42,-22831.504,-17686.158,-22116.334,-11526.367,-23951.416,18175.701
1223625.9361128074,-61712.2,-75622.93,-22835.775,-17688.477,-22125.53,-11534.018,-23959.107,18174.805
1223625.9401128024,-61708.133,-75630.74,-22841.676,-17689.291,-22135.254,-11544.027,-23968.67,18182.373
1223625.9441127977,-61699.707,-75631.35,-22840.984,-17688.314,-22134.562,-11544.189,-23969.482,18193.523
1223625.9481127928,-61701.66,-75623.78,-22834.96,-17685.426,-22125.45,-11533.244,-23961.305,18186.768
1223625.952112788,-61713.176,-75619.914,-22832.316,-17686.605,-22121.623,-11528.32,-23956.178,18176.393
1223625.9561127832,-61720.094,-75624.555,-22837.89,-17690.105,-22131.389,-11537.558,-23962.322,18174.887
1223625.9601127782,-61713.992,-75630.25,-22841.35,-17690.268,-22136.76,-11546.103,-23968.182,18184.408
1223625.9641127735,-61701.824,-75629.56,-22840.008,-17688.762,-22130.941,-11544.719,-23967.652,18191.61
1223625.9681127686,-61699.098,-75625.2,-22834.352,-17687.947,-22124.473,-11535.767,-23961.67,18184.57
1223625.9721127637,-61708.58,-75624.96,-22830.283,-17689.861,-22124.92,-11530.233,-23959.107,18175.334
1223625.976112759,-61716.188,-75630.54,-22834.84,-17693.318,-22130.82,-11537.639,-23961.875,18173.422
1223625.980112754,-61715.496,-75639.94,-22840.658,-17693.28,-22143.393,-11547.282,-23968.467,18176.19
1223625.9841127493,-61714.152,-75646.0,-22842.408,-17692.303,-22140.748,-11547.282,-23976.36,18178.67
1223625.9881127444,-61717.53,-75643.15,-22840.008,-17691.162,-22134.277,-11538.33,-23972.168,18169.8
1223625.9921127395,-61728.76,-75640.67,-22839.438,-17692.506,-22129.762,-11532.756,-23966.35,18156.291
1223625.9961127348,-61737.957,-75646.81,-22847.697,-17696.574,-22140.586,-11539.795,-23971.803,18157.918
1223626.0001127298,-61738.527,-75653.28,-22854.492,-17698.162,-22149.984,-11549.846,-23982.219,18168.498
1223626.004112725,-61724.977,-75649.5,-22852.744,-17697.918,-22145.957,-11551.147,-23984.295,18171.55
1223626.0081127202,-61716.473,-75641.56,-22844.238,-17692.75,-22133.262,-11541.708,-23973.105,18171.754
1223626.0121127153,-61728.8,-75638.06,-22841.27,-17691.732,-22133.22,-11537.883,-23971.436,18160.768
1223626.0161127103,-61735.027,-75642.87,-22849.447,-17694.865,-22140.79,-11549.357,-23984.13,18154.053
1223626.0201127056,-61733.523,-75654.46,-22854.412,-17697.145,-22149.984,-11560.303,-23989.951,18164.959
1223626.0241127007,-61729.94,-75658.81,-22853.027,-17694.744,-22150.96,-11557.373,-23985.678,18182.008
1223626.028112696,-61727.418,-75649.09,-22847.168,-17692.506,-22139.201,-11546.794,-23975.547,18181.64
1223626.032112691,-61731.934,-75637.78,-22842.246,-17690.877,-22129.559,-11541.057,-23971.232,18175.334
1223626.0361126862,-61738.566,-75645.8,-22847.982,-17694.459,-22135.947,-11550.253,-23981.975,18173.951
1223626.0401126815,-61728.07,-75648.03,-22852.906,-17695.395,-22146.16,-11559.896,-23990.643,18183.188
1223626.0441126765,-61721.64,-75648.484,-22853.354,-17693.441,-22146.16,-11556.274,-23983.195,18190.47
1223626.0481126716,-61719.605,-75640.586,-22846.07,-17690.105,-22138.713,-11541.179,-23970.42,18191.406
1223626.052112667,-61731.977,-75640.625,-22844.443,-17689.738,-22133.465,-11535.319,-23963.502,18184.734
1223626.056112662,-61743.53,-75650.39,-22851.727,-17694.377,-22142.62,-11544.556,-23973.47,18175.781
1223626.0601126573,-61740.97,-75659.34,-22858.398,-17697.225,-22151.246,-11555.624,-23983.725,18184.938
1223626.0641126523,-61731.855,-75658.86,-22858.398,-17695.965,-22149.293,-11555.38,-23982.098,18196.777
1223626.0681126474,-61727.133,-75645.96,-22848.389,-17692.506,-22140.26,-11546.347,-23977.621,18184.205
1223626.0721126427,-61731.73,-75641.52,-22842.246,-17691.895,-22135.58,-11542.114,-23977.744,18167.156
1223626.0761126378,-61738.04,-75647.625,-22846.314,-17695.477,-22141.357,-11551.474,-23986.045,18164.227
1223626.0801126328,-61731.812,-75651.62,-22853.15,-17697.104,-22149.943,-11563.599,-23998.902,18172.648
1223626.0841126281,-61720.746,-75651.53,-22852.5,-17692.586,-22145.549,-11560.547,-23995.973,18193.889
1223626.0881126232,-61720.785,-75646.734,-22848.145,-17690.309,-22134.318,-11551.2295,-23991.13,18182.332
1223626.0921126183,-61733.645,-75644.01,-22846.72,-17691.814,-22130.006,-11548.422,-23992.066,18165.04
1223626.0961126136,-61741.293,-75647.664,-22849.61,-17692.098,-22135.418,-11555.542,-23997.111,18167.807
1223626.1001126086,-61735.07,-75650.59,-22850.586,-17690.268,-22138.633,-11561.32,-23999.188,18184.123
1223626.104112604,-61728.11,-75646.61,-22847.535,-17687.785,-22136.354,-11557.455,-23992.27,18196.33
1223626.108112599,-61728.598,-75641.32,-22844.523,-17687.988,-22130.127,-11550.334,-23986.492,18183.635
1223626.112112594,-61736.535,-75638.47,-22841.146,-17690.512,-22128.012,-11548.544,-23986.248,18162.883
1223626.1161125894,-61741.254,-75643.31,-22844.28,-17693.318,-22136.395,-11557.78,-23995.646,18159.018
1223626.1201125844,-61735.477,-75651.57,-22848.47,-17692.342,-22145.428,-11566.569,-24005.047,18166.951
1223626.1241125795,-61730.836,-75654.055,-22849.162,-17690.594,-22145.752,-11565.1045,-24002.93,18177.938
1223626.1281125748,-61730.918,-75648.32,-22843.182,-17688.559,-22136.719,-11557.089,-23994.182,18168.295
1223626.1321125699,-61738.73,-75644.29,-22841.35,-17687.053,-22131.389,-11554.606,-23994.752,18144.246
1223626.1361125652,-61746.38,-75648.27,-22849.814,-17689.047,-22138.307,-11562.744,-24006.104,18138.104
1223626.1401125602,-61744.348,-75655.07,-22859.54,-17691.977,-22148.357,-11572.021,-24012.94,18151.123
1223626.1441125553,-61733.074,-75656.58,-22858.318,-17691.285,-22145.225,-11570.3125,-24007.121,18162.965
1223626.1481125506,-61733.684,-75653.16,-22852.418,-17690.797,-22135.215,-11560.71,-23997.193,18161.744
1223626.1521125457,-61743.652,-75651.45,-22851.318,-17691.691,-22129.844,-11557.495,-23996.176,18149.252
1223626.1561125407,-61744.062,-75653.85,-22852.092,-17693.074,-22134.562,-11565.227,-24002.646,18150.555
1223626.160112536,-61737.67,-75661.055,-22854.371,-17692.098,-22143.31,-11577.515,-24013.836,18153.2
1223626.164112531,-61729.332,-75661.09,-22851.727,-17689.373,-22142.54,-11576.945,-24013.633,18162.15
1223626.1681125262,-61727.54,-75655.16,-22846.436,-17688.844,-22134.848,-11565.715,-24000.814,18163.33
1223626.1721125215,-61739.18,-75653.12,-22844.688,-17690.47,-22131.715,-11558.269,-23992.066,18153.729
1223626.1761125166,-61746.016,-75653.81,-22851.686,-17694.621,-22137.736,-11565.634,-23998.984,18148.967
1223626.1801125119,-61745.566,-75660.24,-22859.295,-17697.307,-22149.09,-11576.66,-24007.203,18168.986
1223626.184112507,-61733.074,-75655.766,-22855.307,-17693.035,-22145.225,-11575.521,-24004.07,18177.857
1223626.188112502,-61727.258,-75644.695,-22847.78,-17688.314,-22132.121,-11565.349,-23993.816,18177.002
1223626.1921124973,-61740.277,-75644.086,-22846.924,-17690.309,-22126.994,-11561.279,-23992.066,18166.83
1223626.1961124924,-61748.21,-75652.1,-22848.877,-17694.865,-22136.395,-11567.017,-23998.047,18168.865
1223626.2001124874,-61740.887,-75654.664,-22852.05,-17697.186,-22144.857,-11575.603,-24000.938,18187.459
1223626.2041124827,-61731.652,-75653.28,-22847.656,-17697.389,-22142.742,-11572.958,-23996.543,18199.992
1223626.2081124778,-61730.918,-75648.93,-22835.572,-17696.412,-22134.277,-11560.303,-23981.61,18200.684
1223626.212112473,-61737.957,-75644.66,-22831.219,-17696.86,-22125.326,-11553.467,-23973.227,18198.283
1223626.2161124682,-61743.816,-75648.766,-22834.96,-17697.51,-22128.947,-11562.175,-23981.08,18195.557
1223626.2201124632,-61737.227,-75653.65,-22838.705,-17695.598,-22133.83,-11570.598,-23990.031,18198.568
1223626.2241124585,-61727.01,-75653.04,-22834.352,-17691.854,-22131.797,-11570.883,-23992.514,18205.893
1223626.2281124536,-61725.71,-75645.914,-22825.562,-17687.703,-22119.873,-11561.157,-23986.41,18201.62
1223626.2321124487,-61738.12,-75647.586,-22825.766,-17689.453,-22118.45,-11554.77,-23984.336,18191.365
1223626.236112444,-61743.207,-75654.79,-22833.416,-17692.668,-22128.012,-11561.931,-23989.625,18189.738
1223626.240112439,-61736.086,-75659.47,-22838.379,-17693.36,-22135.865,-11571.94,-23997.6,18195.15
1223626.2441124343,-61724.367,-75655.64,-22835.205,-17691.041,-22129.965,-11569.784,-23994.793,18204.225
1223626.2481124294,-61722.617,-75651.164,-22826.986,-17687.297,-22119.996,-11559.082,-23986.045,18205.69
1223626.2521124245,-61730.594,-75649.58,-22820.8,-17686.076,-22113.69,-11554.77,-23984.336,18190.553
1223626.2561124198,-61737.43,-75653.24,-22825.766,-17687.42,-22120.443,-11564.169,-23994.873,18178.996
1223626.2601124148,-61735.19,-75661.055,-22833.375,-17689.453,-22132.406,-11576.05,-24006.674,18184.734
1223626.26411241,-61728.598,-75664.19,-22833.904,-17688.559,-22132.936,-11576.172,-24009.848,18188.355
1223626.2681124052,-61729.004,-75662.68,-22824.748,-17685.344,-22126.67,-11565.186,-24003.135,18179.607
1223626.2721124003,-61737.957,-75663.66,-22821.412,-17686.035,-22128.703,-11561.32,-24002.117,18166.139
1223626.2761123953,-61744.67,-75670.25,-22828.086,-17688.477,-22139.201,-11568.808,-24009.766,18165.04
1223626.2801123906,-61739.707,-75680.42,-22834.96,-17690.268,-22151.164,-11577.597,-24017.863,18177.205
1223626.2841123857,-61729.902,-75680.34,-22832.154,-17689.168,-22149.455,-11574.545,-24014.648,18187.215
1223626.288112381,-61726.484,-75670.45,-22825.807,-17684.041,-22131.715,-11564.169,-24006.389,18176.758
1223626.292112376,-61740.316,-75672.28,-22827.598,-17685.1,-22126.547,-11560.751,-24002.89,18164.592
1223626.2961123711,-61751.59,-75680.38,-22831.828,-17687.215,-22133.953,-11569.54,-24010.092,18166.342
1223626.3001123664,-61749.473,-75689.17,-22837.688,-17687.338,-22144.043,-11579.834,-24016.684,18181.072
1223626.3041123615,-61744.348,-75695.15,-22840.496,-17686.688,-22144.451,-11578.898,-24014.934,18190.756
1223626.3081123566,-61745.527,-75690.35,-22834.96,-17684.611,-22137.412,-11566.691,-24005.82,18186.768
1223626.3121123519,-61751.75,-75685.38,-22829.672,-17685.223,-22132.812,-11561.361,-24001.994,18172.771
1223626.316112347,-61758.344,-75693.195,-22835.531,-17689.006,-22141.521,-11568.563,-24006.715,18169.88
1223626.3201123422,-61754.438,-75701.17,-22843.1,-17691.285,-22153.973,-11576.294,-24010.906,18186.361
1223626.3241123373,-61742.516,-75700.32,-22837.363,-17689.373,-22148.602,-11572.021,-24004.762,18201.05
1223626.3281123324,-61740.316,-75693.445,-22829.55,-17687.338,-22137.371,-11561.6455,-23991.537,18194.54
1223626.3321123277,-61747.56,-75690.96,-22826.54,-17690.512,-22138.998,-11558.1875,-23991.252,18182.943
1223626.3361123228,-61751.875,-75694.055,-22829.63,-17691.53,-22141.357,-11564.575,-24001.14,18178.875
1223626.3401123178,-61751.344,-75700.73,-22835.654,-17691.936,-22150.229,-11573.486,-24007.977,18190.633
1223626.3441123131,-61744.67,-75701.54,-22832.887,-17690.633,-22149.414,-11571.777,-24008.465,18201.783
1223626.3481123082,-61748.21,-75698.125,-22826.621,-17690.023,-22139.242,-11561.32,-24000.814,18194.174
1223626.3521123033,-61762.37,-75702.4,-22827.637,-17692.22,-22137.412,-11557.536,-23998.576,18182.74
1223626.3561122986,-61769.453,-75709.31,-22836.875,-17696.29,-22146.973,-11568.808,-24014.121,18169.598
1223626.3601122936,-61762.98,-75713.016,-22842.979,-17697.186,-22160.117,-11580.526,-24023.438,18179.932
1223626.364112289,-61749.96,-75704.836,-22838.42,-17693.115,-22157.309,-11575.888,-24014.73,18201.457
1223626.368112284,-61748.7,-75695.03,-22831.055,-17692.994,-22145.428,-11563.232,-24001.344,18205.16
1223626.372112279,-61759.89,-75692.1,-22828.451,-17694.824,-22139.527,-11556.274,-23991.252,18197.674
1223626.3761122744,-61769.86,-75698.29,-22832.52,-17698.934,-22146.893,-11565.837,-23998.252,18197.389
1223626.3801122694,-61767.336,-75704.305,-22839.52,-17700.115,-22154.623,-11575.969,-24005.738,18209.799
1223626.3841122645,-61763.227,-75710.164,-22842.855,-17698.771,-22151.002,-11573.69,-24003.135,18224.041
1223626.3881122598,-61759.973,-75705.53,-22835.45,-17693.4,-22136.475,-11564.616,-23996.867,18210.652
1223626.3921122549,-61764.895,-75700.32,-22830.73,-17690.186,-22131.227,-11562.216,-23995.361,18190.674
1223626.3961122502,-61772.87,-75705.77,-22836.143,-17690.023,-22144.857,-11568.848,-24000.326,18191.61
1223626.4001122452,-61767.01,-75708.336,-22841.879,-17689.494,-22154.42,-11576.091,-24004.355,18204.672
1223626.4041122403,-61760.46,-75707.195,-22841.635,-17688.232,-22149.496,-11573.73,-23999.512,18214.355
1223626.4081122356,-61760.62,-75703.9,-22833.09,-17687.338,-22139.527,-11565.308,-23991.008,18209.676
1223626.4121122307,-61763.266,-75698.33,-22827.23,-17687.42,-22133.057,-11561.687,-23987.957,18199.057
1223626.4161122257,-61764.0,-75698.734,-22830.527,-17688.885,-22138.266,-11570.109,-23999.188,18197.55
1223626.420112221,-61760.95,-75706.95,-22836.752,-17690.594,-22147.828,-11577.312,-24007.244,18213.014
1223626.424112216,-61754.113,-75711.14,-22838.664,-17692.262,-22151.855,-11574.179,-24007.121,18220.947
1223626.4281122114,-61756.27,-75705.81,-22833.863,-17689.494,-22138.307,-11563.029,-24001.1,18207.967
1223626.4321122065,-61771.04,-75707.84,-22833.13,-17691.326,-22134.604,-11558.676,-23995.932,18201.416
1223626.4361122015,-61781.293,-75713.99,-22841.105,-17694.58,-22144.736,-11569.906,-24005.656,18197.469
1223626.4401121968,-61778.32,-75717.734,-22846.72,-17695.557,-22152.426,-11579.916,-24015.098,18200.848
1223626.444112192,-61764.04,-75711.67,-22840.455,-17692.303,-22148.602,-11575.521,-24008.18,18214.64
1223626.448112187,-61761.19,-75705.0,-22832.154,-17688.64,-22138.754,-11563.559,-23996.787,18217.53
1223626.4521121823,-61777.793,-75707.89,-22834.434,-17691.447,-22134.074,-11560.141,-23995.729,18205.486
1223626.4561121773,-61783.285,-75714.03,-22840.861,-17696.615,-22144.207,-11571.533,-24008.465,18188.803
1223626.4601121724,-61775.188,-75718.06,-22841.879,-17696.98,-22153.89,-11583.09,-24017.01,18196.492
1223626.4641121677,-61768.637,-75716.27,-22838.623,-17694.174,-22150.146,-11579.875,-24012.371,18209.596
1223626.4681121628,-61766.848,-75709.96,-22833.822,-17692.424,-22139.69,-11568.767,-24001.953,18207.154
1223626.472112158,-61778.73,-75713.5,-22834.678,-17695.395,-22140.057,-11565.227,-23998.129,18199.383
1223626.4761121531,-61787.477,-75723.76,-22839.316,-17698.162,-22147.584,-11572.836,-24005.9,18198.934
1223626.4801121482,-61781.457,-75731.33,-22843.344,-17697.592,-22157.676,-11581.991,-24013.389,18205.975
1223626.4841121435,-61773.438,-75729.58,-22842.45,-17693.645,-22149.943,-11581.462,-24011.271,18220.053
1223626.4881121386,-61772.016,-75720.055,-22836.875,-17690.064,-22137.127,-11574.382,-24004.68,18214.844
1223626.4921121337,-61774.984,-75714.27,-22832.52,-17687.744,-22130.535,-11570.679,-24001.1,18199.342
1223626.496112129,-61775.15,-75714.195,-22833.496,-17686.443,-22133.342,-11580.485,-24007.854,18196.371
1223626.500112124,-61768.477,-75716.19,-22838.096,-17686.158,-22140.83,-11590.861,-24017.986,18205.934
1223626.5041121193,-61756.918,-75713.38,-22834.84,-17685.223,-22136.557,-11587.484,-24015.586,18218.629
1223626.5081121144,-61755.168,-75707.484,-22827.8,-17684.611,-22130.332,-11575.888,-24008.342,18209.352
1223626.5121121095,-61763.754,-75705.04,-22822.55,-17683.064,-22124.676,-11571.045,-24004.762,18197.389
1223626.5161121048,-61768.965,-75712.37,-22826.377,-17684.408,-22133.22,-11581.055,-24011.68,18194.336
1223626.5201120998,-61762.25,-75715.91,-22832.52,-17688.07,-22142.334,-11592.082,-24019.857,18209.432
1223626.524112095,-61753.582,-75710.86,-22830.445,-17686.809,-22138.389,-11590.007,-24014.648,18227.215
1223626.5281120902,-61754.52,-75703.9,-22825.684,-17686.2,-22128.623,-11580.811,-24005.047,18223.674
1223626.5321120853,-61761.395,-75699.34,-22823.242,-17687.664,-22123.373,-11577.922,-24004.111,18206.707
1223626.5361120803,-61768.477,-75703.66,-22827.719,-17689.982,-22130.576,-11585.775,-24011.8,18206.014
1223626.5401120756,-61766.848,-75712.94,-22833.334,-17689.617,-22138.672,-11593.384,-24019.125,18218.873
1223626.5441120707,-61762.332,-75711.02,-22832.44,-17686.28,-22134.93,-11590.21,-24021.363,18219.076
1223626.548112066,-61765.504,-75707.03,-22829.021,-17685.71,-22125.693,-11582.316,-24019.41,18206.014
1223626.552112061,-61776.574,-75708.26,-22826.986,-17688.111,-22126.629,-11579.55,-24017.701,18197.918
1223626.5561120561,-61780.4,-75713.79,-22832.48,-17691.732,-22135.254,-11587.891,-24023.234,18198.08
1223626.5601120514,-61778.32,-75720.87,-22837.932,-17692.627,-22140.422,-11595.012,-24027.305,18211.752
1223626.5641120465,-61772.668,-75725.42,-22835.693,-17690.797,-22142.172,-11588.786,-24020.264,18222.412
1223626.5681120416,-61764.16,-75715.01,-22826.498,-17688.64,-22134.766,-11577.23,-24011.068,18216.96
1223626.5721120369,-61778.81,-75720.016,-22825.074,-17692.098,-22134.36,-11573.324,-24007.977,18210.816
1223626.576112032,-61785.484,-75727.5,-22830.445,-17695.477,-22146.77,-11581.218,-24014.404,18210.002
1223626.5801120272,-61778.688,-75731.445,-22836.264,-17696.371,-22153.484,-11590.251,-24022.46,18220.379
1223626.5841120223,-61769.29,-75728.72,-22834.148,-17692.506,-22145.957,-11588.379,-24018.84,18226.889
1223626.5881120174,-61766.156,-75722.82,-22829.184,-17690.918,-22134.238,-11577.515,-24009.033,18220.703
1223626.5921120127,-61780.723,-75725.67,-22831.543,-17692.791,-22135.58,-11573.649,-24007.0,18212.078
1223626.5961120077,-61788.414,-75731.98,-22838.99,-17695.924,-22146.77,-11584.717,-24019.531,18202.76
1223626.6001120028,-61788.414,-75741.21,-22845.459,-17698.65,-22156.576,-11593.384,-24030.967,18201.498
1223626.604111998,-61782.023,-75744.1,-22843.262,-17697.51,-22154.867,-11589.233,-24029.826,18204.793
1223626.6081119932,-61775.96,-75733.766,-22831.707,-17693.604,-22142.09,-11577.434,-24018.31,18208.13
1223626.6121119885,-61783.938,-75728.516,-22825.684,-17692.303,-22137.98,-11573.649,-24014.283,18202.678
1223626.6161119835,-61788.332,-75732.42,-22829.59,-17692.912,-22145.346,-11582.275,-24023.805,18203.004
1223626.6201119786,-61785.85,-75742.02,-22836.467,-17694.58,-22154.053,-11594.116,-24035.4,18210.896
1223626.624111974,-61778.32,-75742.35,-22838.502,-17694.377,-22150.146,-11591.675,-24032.879,18221.111
1223626.628111969,-61775.39,-75737.02,-22832.072,-17692.139,-22139.771,-11578.613,-24022.38,18216.635
1223626.632111964,-61787.152,-75737.19,-22831.422,-17692.303,-22137.94,-11574.301,-24019.898,18202.963
1223626.6361119593,-61793.457,-75742.88,-22834.922,-17692.465,-22145.264,-11583.293,-24025.758,18205.934
1223626.6401119544,-61788.7,-75750.98,-22838.584,-17692.586,-22151.652,-11590.617,-24027.385,18226.645
1223626.6441119495,-61778.605,-75749.27,-22835.37,-17690.268,-22146.484,-11587.606,-24022.502,18240.072
1223626.6481119448,-61780.195,-75742.76,-22828.248,-17688.64,-22137.207,-11577.353,-24012.9,18232.79
1223626.6521119399,-61790.164,-75742.27,-22825.195,-17689.129,-22137.29,-11572.714,-24009.36,18219.238
1223626.6561119352,-61794.07,-75750.05,-22834.107,-17692.424,-22147.787,-11583.293,-24015.38,18224.162
1223626.6601119302,-61789.594,-75757.37,-22841.879,-17693.238,-22156.129,-11593.588,-24024.496,18236.125
1223626.6641119253,-61783.367,-75757.57,-22841.432,-17691.406,-22156.455,-11590.373,-24025.96,18234.334
1223626.6681119206,-61780.4,-75747.766,-22835.979,-17687.908,-22141.725,-11578.532,-24017.783,18222.78
1223626.6721119157,-61788.496,-75742.07,-22831.299,-17687.215,-22130.25,-11572.551,-24009.238,18220.379
1223626.6761119107,-61792.48,-75746.586,-22833.09,-17690.594,-22144.613,-11580.974,-24013.51,18220.662
1223626.680111906,-61783.734,-75751.34,-22836.467,-17691.162,-22155.193,-11589.355,-24020.834,18233.807
1223626.684111901,-61771.324,-75743.77,-22830.16,-17687.256,-22142.416,-11586.386,-24018.027,18244.752
1223626.6881118964,-61769.168,-75735.805,-22820.924,-17683.797,-22127.32,-11576.945,-24009.318,18237.346
1223626.6921118915,-61780.56,-75734.625,-22819.662,-17683.797,-22126.465,-11574.463,-24007.732,18225.871
1223626.6961118865,-61789.836,-75742.31,-22825.033,-17685.588,-22137.33,-11582.886,-24014.61,18229.004
1223626.7001118818,-61782.023,-75749.516,-22829.062,-17683.879,-22145.06,-11592.489,-24020.996,18242.879
1223626.704111877,-61771.242,-75743.49,-22826.904,-17680.135,-22138.184,-11589.844,-24018.678,18247.967
1223626.708111872,-61769.86,-75734.91,-22820.8,-17677.938,-22127.238,-11578.939,-24012.371,18236.857
1223626.7121118673,-61779.22,-75731.85,-22817.547,-17681.234,-22127.523,-11577.148,-24015.057,18218.547
1223626.7161118623,-61782.51,-75739.305,-22821.209,-17684.896,-22141.887,-11587.565,-24025.555,18218.506
1223626.7201118574,-61780.152,-75748.66,-22827.271,-17688.844,-22149.863,-11597.209,-24032.676,18234.578
1223626.7241118527,-61769.125,-75745.85,-22824.871,-17685.223,-22140.707,-11593.71,-24029.379,18243.572
1223626.7281118478,-61773.848,-75741.01,-22822.307,-17683.96,-22130.82,-11581.381,-24015.504,18237.346
1223626.732111843,-61784.14,-75739.79,-22819.459,-17683.146,-22125.896,-11576.823,-24008.506,18230.55
1223626.7361118381,-61784.59,-75742.76,-22821.29,-17685.182,-22134.115,-11586.792,-24013.062,18234.05
1223626.7401118332,-61778.566,-75749.35,-22823.283,-17684.979,-22140.504,-11593.75,-24017.334,18250.488
1223626.7441118285,-61771.12,-75750.05,-22822.836,-17684.896,-22138.713,-11589.519,-24014.445,18265.219
1223626.7481118236,-61775.27,-75747.234,-22821.738,-17685.832,-22136.271,-11582.275,-24008.709,18257.406
1223626.7521118186,-61784.508,-75745.32,-22820.395,-17684.896,-22129.72,-11582.072,-24011.395,18230.021
1223626.756111814,-61791.344,-75750.125,-22825.848,-17685.223,-22131.309,-11592.163,-24020.428,18229.656
1223626.760111809,-61789.918,-75759.73,-22833.008,-17686.97,-22141.074,-11598.593,-24025.27,18243.45
1223626.7641118043,-61782.31,-75759.93,-22832.154,-17687.053,-22139.771,-11595.134,-24022.096,18250.57
1223626.7681117994,-61779.785,-75752.36,-22822.51,-17684.285,-22128.662,-11585.368,-24015.666,18236.736
1223626.7721117944,-61787.844,-75749.555,-22818.848,-17685.018,-22125.938,-11582.153,-24013.916,18223.023
1223626.7761117897,-61785.645,-75752.24,-22821.494,-17685.994,-22132.0,-11590.129,-24019.41,18226.562
1223626.7801117848,-61778.77,-75756.31,-22824.992,-17685.506,-22138.51,-11597.941,-24022.746,18244.873
1223626.7841117799,-61774.254,-75755.54,-22826.05,-17684.938,-22135.783,-11595.541,-24023.887,18252.482
1223626.7881117752,-61774.457,-75749.96,-22822.43,-17682.496,-22130.453,-11584.229,-24022.096,18239.055
1223626.7921117702,-61783.203,-75748.17,-22820.883,-17682.781,-22128.297,-11582.602,-24024.7,18219.482
1223626.7961117656,-61790.938,-75754.07,-22825.277,-17686.28,-22138.021,-11592.611,-24030.438,18218.547
1223626.8001117606,-61783.613,-75760.26,-22828.94,-17686.605,-22146.363,-11601.074,-24032.676,18234.05
1223626.8041117557,-61776.29,-75757.65,-22825.684,-17683.473,-22145.02,-11597.697,-24029.908,18244.793
1223626.808111751,-61778.04,-75750.695,-22819.703,-17683.064,-22133.262,-11588.501,-24019.654,18238.12
1223626.812111746,-61789.633,-75748.78,-22818.36,-17683.473,-22127.768,-11584.799,-24014.568,18233.44
1223626.8161117411,-61795.004,-75756.19,-22821.697,-17686.2,-22136.924,-11593.262,-24021.81,18236.328
1223626.8201117364,-61785.156,-75763.555,-22825.766,-17687.541,-22144.043,-11602.133,-24030.518,18244.873
1223626.8241117315,-61783.125,-75771.445,-22822.754,-17687.664,-22141.725,-11599.162,-24027.06,18253.053
1223626.8281117266,-61787.11,-75765.75,-22820.11,-17687.012,-22133.262,-11590.414,-24018.066,18248.332
1223626.8321117219,-61784.508,-75752.445,-22816.082,-17683.879,-22122.479,-11588.257,-24014.486,18237.469
1223626.836111717,-61785.93,-75757.57,-22818.482,-17685.71,-22132.041,-11595.744,-24022.055,18234.701
1223626.8401117122,-61780.234,-75762.62,-22820.8,-17686.727,-22140.951,-11604.167,-24031.291,18247.64
1223626.8441117073,-61781.496,-75768.19,-22820.8,-17687.867,-22139.445,-11601.196,-24027.914,18255.78
1223626.8481117024,-61785.363,-75764.445,-22814.697,-17686.523,-22130.9,-11590.129,-24018.148,18250.244
1223626.8521116977,-61792.81,-75761.48,-22814.941,-17688.273,-22128.662,-11587.81,-24018.84,18233.562
1223626.8561116927,-61802.53,-75771.12,-22823.324,-17692.059,-22138.307,-11596.558,-24028.89,18226.562
1223626.8601116878,-61799.48,-75780.07,-22830.852,-17691.977,-22148.479,-11605.266,-24033.285,18241.822
1223626.864111683,-61790.61,-75779.26,-22829.021,-17689.576,-22146.445,-11602.865,-24026.49,18259.725
1223626.8681116782,-61792.81,-75772.79,-22823.324,-17689.373,-22133.75,-11592.367,-24018.84,18256.062
1223626.8721116735,-61801.555,-75770.67,-22820.11,-17689.982,-22133.994,-11587.932,-24018.84,18238.078
1223626.8761116685,-61806.723,-75779.26,-22824.871,-17693.115,-22147.299,-11597.412,-24032.188,18224.732
1223626.8801116636,-61800.906,-75789.23,-22831.26,-17694.662,-22155.152,-11607.87,-24042.604,18231.934
1223626.884111659,-61791.344,-75785.97,-22828.41,-17692.953,-22150.025,-11605.998,-24042.36,18239.258
1223626.888111654,-61791.344,-75777.02,-22822.43,-17689.373,-22137.656,-11595.581,-24032.47,18237.549
1223626.892111649,-61797.324,-75774.13,-22822.55,-17689.78,-22133.506,-11592.937,-24029.785,18231.445
1223626.8961116443,-61801.395,-75779.016,-22828.857,-17693.604,-22140.26,-11601.685,-24039.104,18231.121
1223626.9001116394,-61795.9,-75783.94,-22833.09,-17694.174,-22150.514,-11610.148,-24045.451,18238.16
1223626.9041116345,-61783.977,-75780.03,-22826.865,-17689.494,-22144.98,-11605.876,-24042.156,18242.717
1223626.9081116298,-61783.977,-75772.75,-22819.092,-17687.459,-22136.516,-11594.931,-24031.738,18239.705
1223626.9121116248,-61794.395,-75771.445,-22817.627,-17689.209,-22137.207,-11592.692,-24029.014,18230.104
1223626.9161116201,-61795.695,-75776.94,-22821.615,-17691.895,-22145.834,-11601.767,-24037.436,18231.04
1223626.9201116152,-61789.715,-75779.87,-22828.166,-17694.092,-22152.14,-11609.985,-24043.418,18246.176
1223626.9241116103,-61783.203,-75776.125,-22826.865,-17692.424,-22144.004,-11604.777,-24036.621,18260.133
1223626.9281116056,-61787.68,-75770.59,-22820.232,-17688.64,-22132.244,-11591.838,-24022.99,18259.033
1223626.9321116006,-61797.895,-75769.01,-22817.465,-17687.5,-22127.441,-11591.064,-24021.607,18245.037
1223626.9361115957,-61802.613,-75776.49,-22822.715,-17689.047,-22135.254,-11603.027,-24032.676,18235.637
1223626.940111591,-61797.324,-75782.76,-22828.045,-17690.145,-22145.59,-11611.694,-24039.756,18252.238
1223626.944111586,-61787.68,-75782.15,-22826.377,-17688.6,-22141.725,-11607.463,-24035.361,18264.283
1223626.9481115814,-61787.926,-75776.33,-22818.93,-17688.152,-22127.85,-11597.494,-24024.13,18258.424
1223626.9521115765,-61796.145,-75775.48,-22819.906,-17690.309,-22127.523,-11594.157,-24020.713,18246.502
1223626.9561115715,-61803.996,-75784.016,-22827.598,-17693.523,-22139.16,-11603.516,-24034.18,18236.94
1223626.9601115668,-61802.41,-75791.266,-22832.725,-17695.436,-22145.469,-11612.387,-24041.18,18250.041
1223626.964111562,-61793.742,-75785.97,-22829.754,-17692.18,-22137.412,-11606.689,-24034.22,18261.883
1223626.968111557,-61793.176,-75780.52,-22822.47,-17691.691,-22125.938,-11599.04,-24027.752,18250.53
1223626.9721115523,-61800.375,-75780.44,-22818.076,-17692.912,-22126.547,-11597.656,-24026.367,18240.438
1223626.9761115473,-61803.305,-75784.43,-22821.33,-17694.783,-22135.824,-11605.266,-24031.25,18245.729
1223626.9801115426,-61795.98,-75792.73,-22825.521,-17695.8,-22145.264,-11612.509,-24036.703,18255.453
1223626.9841115377,-61788.78,-75793.5,-22825.195,-17694.012,-22141.398,-11609.579,-24038.086,18252.28
1223626.9881115328,-61792.727,-75787.44,-22821.738,-17692.098,-22130.738,-11600.342,-24032.47,18248.373
1223626.992111528,-61806.36,-75789.35,-22819.865,-17693.441,-22130.332,-11597.046,-24036.174,18226.686
1223626.9961115231,-61816.613,-75799.64,-22825.807,-17697.836,-22140.748,-11607.097,-24047.607,18220.094
1223627.0001115182,-61812.38,-75806.73,-22830.975,-17699.422,-22149.049,-11616.333,-24052.328,18240.398
1223627.0041115135,-61802.004,-75804.89,-22827.637,-17697.307,-22144.613,-11611.654,-24043.418,18254.436
1223627.0081115086,-61802.9,-75801.35,-22822.227,-17695.354,-22137.492,-11599.365,-24032.47,18248.617
1223627.0121115036,-61810.47,-75798.14,-22817.18,-17694.05,-22134.645,-11593.384,-24027.223,18236.043
1223627.016111499,-61809.45,-75801.35,-22819.541,-17692.506,-22138.51,-11601.481,-24034.994,18233.277
1223627.020111494,-61804.77,-75810.43,-22823.975,-17692.709,-22145.875,-11612.305,-24044.068,18246.135
1223627.0241114893,-61798.18,-75808.48,-22819.256,-17690.797,-22140.666,-11609.131,-24040.04,18260.701
1223627.0281114844,-61796.633,-75798.1,-22813.355,-17687.094,-22127.035,-11598.674,-24028.484,18256.795
1223627.0321114794,-61806.48,-75798.305,-22811.973,-17687.459,-22127.97,-11598.349,-24026.734,18245.361
1223627.0361114747,-61811.566,-75804.484,-22814.209,-17688.844,-22136.76,-11607.422,-24034.994,18245.809
1223627.0401114698,-61806.52,-75811.08,-22819.256,-17689.25,-22143.555,-11613.607,-24039.55,18263.225
1223627.0441114649,-61800.863,-75813.03,-22817.994,-17686.443,-22139.73,-11608.317,-24037.15,18269.572
1223627.0481114602,-61806.562,-75809.164,-22815.146,-17686.768,-22129.436,-11599.65,-24031.332,18261.395
1223627.0521114552,-61814.25,-75805.3,-22812.582,-17686.361,-22126.018,-11598.959,-24033.855,18241.74
1223627.0561114505,-61815.594,-75806.03,-22814.209,-17686.28,-22133.098,-11608.603,-24041.424,18239.666
1223627.0601114456,-61805.098,-75807.17,-22816.855,-17685.629,-22142.904,-11616.984,-24045.736,18259.807
1223627.0641114407,-61794.598,-75802.164,-22812.46,-17684.367,-22137.98,-11614.746,-24042.033,18278.564
1223627.068111436,-61793.094,-75793.055,-22804.12,-17680.258,-22122.64,-11603.435,-24029.908,18271.2
1223627.072111431,-61800.863,-75791.95,-22803.71,-17682.332,-22119.914,-11602.214,-24030.03,18250.977
1223627.076111426,-61805.707,-75801.84,-22811.729,-17686.688,-22130.738,-11611.694,-24039.307,18247.803
1223627.0801114214,-61801.92,-75809.62,-22818.848,-17689.373,-22142.62,-11618.49,-24048.38,18262.248
1223627.0841114165,-61796.754,-75805.42,-22816.732,-17687.785,-22140.219,-11614.299,-24045.574,18272.502
1223627.0881114115,-61796.918,-75797.41,-22810.426,-17686.035,-22128.5,-11603.76,-24037.07,18267.254
1223627.0921114068,-61804.65,-75793.87,-22807.943,-17687.459,-22127.117,-11602.255,-24034.1,18256.227
1223627.096111402,-61806.562,-75795.58,-22811.035,-17689.209,-22137.695,-11612.631,-24042.115,18252.97
1223627.1001113972,-61797.61,-75797.04,-22813.273,-17687.459,-22139.73,-11621.582,-24048.91,18267.416
1223627.1041113923,-61789.227,-75794.234,-22809.45,-17685.791,-22138.795,-11616.984,-24044.271,18277.223
1223627.1081113874,-61791.465,-75790.57,-22803.305,-17686.443,-22127.646,-11605.591,-24030.396,18269.043
1223627.1121113827,-61800.824,-75792.89,-22804.484,-17689.088,-22126.059,-11603.435,-24027.549,18258.748
1223627.1161113777,-61804.08,-75800.74,-22810.14,-17691.61,-22136.842,-11611.491,-24035.28,18258.22
1223627.1201113728,-61797.406,-75808.555,-22814.373,-17692.627,-22144.572,-11619.223,-24042.36,18271.2
1223627.124111368,-61792.32,-75810.02,-22811.117,-17690.389,-22137.045,-11613.037,-24032.146,18284.344
1223627.1281113632,-61796.55,-75807.7,-22804.24,-17688.396,-22127.158,-11600.912,-24020.346,18280.07
1223627.1321113585,-61805.664,-75807.17,-22800.781,-17688.355,-22129.803,-11600.505,-24025.758,18264.04
1223627.1361113535,-61814.82,-75815.39,-22808.39,-17691.121,-22142.375,-11611.694,-24039.592,18257.771
1223627.1401113486,-61809.652,-75819.586,-22815.064,-17691.814,-22149.658,-11621.176,-24047.486,18266.643
1223627.144111344,-61799.523,-75813.4,-22813.682,-17688.273,-22145.225,-11616.984,-24043.742,18277.71
1223627.148111339,-61799.97,-75807.45,-22807.578,-17686.646,-22134.36,-11607.219,-24036.826,18269.816
1223627.152111334,-61810.305,-75810.305,-22806.396,-17688.436,-22130.738,-11606.567,-24038.656,18256.307
1223627.1561113293,-61819.95,-75822.23,-22814.617,-17691.447,-22142.742,-11615.234,-24048.3,18253.215
1223627.1601113244,-61812.297,-75824.14,-22819.58,-17688.477,-22142.904,-11621.908,-24048.91,18268.922
1223627.1641113197,-61806.152,-75818.85,-22816.406,-17684.693,-22136.68,-11615.805,-24039.592,18284.465
1223627.1681113148,-61810.184,-75814.086,-22809.043,-17684.367,-22126.588,-11605.876,-24033.082,18274.617
1223627.1721113098,-61820.11,-75813.805,-22807.902,-17685.914,-22125.123,-11603.271,-24032.146,18266.154
1223627.1761113051,-61825.035,-75819.87,-22816.814,-17690.105,-22137.29,-11612.427,-24042.93,18262.736
1223627.1801113002,-61824.344,-75828.695,-22824.342,-17692.506,-22147.828,-11623.983,-24053.59,18265.463
1223627.1841112953,-61818.2,-75826.945,-22821.494,-17689.535,-22147.95,-11620.972,-24050.578,18271.24
1223627.1881112906,-61820.03,-75820.766,-22815.594,-17686.158,-22138.633,-11608.969,-24036.5,18269.166
1223627.1921112856,-61828.168,-75820.766,-22812.826,-17687.867,-22142.172,-11604.574,-24030.396,18261.434
1223627.1961112807,-61836.348,-75831.75,-22816.895,-17690.309,-22146.973,-11613.607,-24039.715,18252.32
1223627.200111276,-61835.816,-75841.8,-22820.842,-17691.406,-22152.182,-11621.46,-24047.283,18259.848
1223627.204111271,-61823.895,-75835.94,-22814.17,-17687.338,-22143.271,-11616.862,-24037.803,18275.31
1223627.2081112664,-61820.844,-75827.03,-22807.617,-17686.28,-22134.156,-11605.469,-24025.188,18272.746
1223627.2121112614,-61828.41,-75825.445,-22805.746,-17690.064,-22135.906,-11603.435,-24025.107,18260.986
1223627.2161112565,-61830.363,-75827.805,-22809.531,-17692.75,-22144.572,-11612.387,-24034.344,18257.895
1223627.2201112518,-61824.992,-75833.46,-22814.82,-17691.732,-22146.16,-11620.443,-24043.498,18265.137
1223627.2241112469,-61822.145,-75832.93,-22815.797,-17692.709,-22145.469,-11616.333,-24042.441,18269.41
1223627.228111242,-61827.516,-75829.305,-22812.744,-17692.262,-22138.348,-11605.185,-24033.691,18256.186
1223627.2321112372,-61834.8,-75824.914,-22813.965,-17692.547,-22135.662,-11603.842,-24030.6,18243.775
1223627.2361112323,-61838.098,-75825.85,-22819.703,-17693.523,-22142.62,-11613.281,-24034.547,18252.727
1223627.2401112276,-61829.43,-75829.71,-22822.633,-17693.93,-22151.246,-11620.361,-24037.273,18272.95
1223627.2441112227,-61820.312,-75828.01,-22816.53,-17691.895,-22145.225,-11615.112,-24031.617,18282.635
1223627.2481112177,-61819.824,-75821.62,-22807.496,-17688.965,-22135.295,-11604.533,-24023.275,18281.291
1223627.252111213,-61831.668,-75824.266,-22807.7,-17690.512,-22135.295,-11603.72,-24025.96,18267.254
1223627.2561112081,-61840.09,-75831.99,-22816.203,-17693.197,-22144.166,-11615.031,-24039.959,18253.744
1223627.2601112032,-61836.184,-75835.77,-22821.533,-17693.441,-22150.514,-11621.664,-24048.545,18257.568
1223627.2641111985,-61828.004,-75832.36,-22817.791,-17691.691,-22145.387,-11616.618,-24042.604,18263.754
1223627.2681111936,-61826.54,-75821.05,-22810.059,-17688.844,-22135.783,-11608.439,-24035.28,18265.219
1223627.2721111886,-61837.89,-75820.48,-22809.043,-17688.885,-22134.197,-11606.567,-24035.32,18258.18
1223627.276111184,-61839.887,-75823.61,-22811.932,-17689.656,-22144.451,-11614.624,-24043.092,18249.756
1223627.280111179,-61833.66,-75828.695,-22814.902,-17690.838,-22153.32,-11623.291,-24048.748,18263.062
1223627.2841111743,-61830.934,-75830.734,-22813.152,-17689.088,-22147.87,-11618.368,-24045.98,18272.625
1223627.2881111694,-61838.625,-75835.94,-22810.182,-17689.412,-22141.113,-11609.782,-24041.22,18261.11
1223627.2921111644,-61844.523,-75837.164,-22808.025,-17691.285,-22139.324,-11608.317,-24039.47,18249.676
1223627.2961111597,-61845.543,-75837.77,-22809.652,-17693.115,-22146.525,-11617.717,-24043.742,18252.523
1223627.3001111548,-61837.688,-75842.45,-22809.938,-17692.424,-22154.623,-11624.1455,-24045.41,18269.49
1223627.3041111499,-61830.445,-75840.17,-22803.834,-17688.355,-22150.107,-11618.734,-24038.453,18280.518
1223627.3081111452,-61835.29,-75837.77,-22799.521,-17688.396,-22143.23,-11608.643,-24029.705,18272.137
1223627.3121111402,-61845.137,-75840.17,-22797.73,-17689.697,-22141.398,-11607.341,-24028.89,18257.527
1223627.3161111355,-61849.082,-75845.18,-22804.24,-17691.121,-22150.92,-11619.263,-24039.268,18257.568
1223627.3201111306,-61841.066,-75850.71,-22808.31,-17691.447,-22155.723,-11627.482,-24043.742,18273.56
1223627.3241111257,-61835.168,-75846.11,-22806.682,-17688.518,-22148.52,-11620.81,-24039.674,18274.822
1223627.328111121,-61837.973,-75837.98,-22802.125,-17683.594,-22137.127,-11609.131,-24031.658,18269.857
1223627.332111116,-61850.832,-75840.21,-22804.24,-17686.28,-22139.527,-11611.003,-24034.1,18259.93
1223627.336111111,-61857.75,-75849.53,-22812.46,-17692.953,-22150.92,-11622.6,-24043.865,18253.826
1223627.3401111064,-61852.582,-75855.92,-22818.28,-17694.336,-22158.447,-11628.337,-24045.98,18274.781
1223627.3441111015,-61847.25,-75853.64,-22816.488,-17691.0,-22152.629,-11622.07,-24039.47,18283.611
1223627.3481110965,-61847.008,-75844.89,-22810.182,-17689.088,-22140.098,-11611.288,-24031.455,18275.229
1223627.3521110918,-61857.504,-75845.586,-22811.729,-17693.36,-22139.975,-11613.119,-24035.686,18260.213
1223627.356111087,-61862.43,-75852.664,-22817.832,-17696.777,-22149.13,-11624.228,-24046.875,18254.354
1223627.3601110822,-61852.297,-75856.24,-22819.012,-17694.418,-22154.826,-11630.046,-24052.37,18269.246
1223627.3641110773,-61842.652,-75853.72,-22815.023,-17692.018,-22148.805,-11625.082,-24051.148,18272.95
1223627.3681110723,-61846.56,-75851.52,-22811.523,-17690.309,-22142.701,-11616.699,-24045.615,18269.816
1223627.3721110676,-61855.145,-75851.93,-22810.955,-17692.871,-22142.172,-11616.171,-24047.812,18253.988
1223627.3761110627,-61858.48,-75856.77,-22815.309,-17695.312,-22149.17,-11625.407,-24057.09,18248.576
1223627.3801110578,-61849.816,-75862.1,-22818.848,-17694.174,-22153.809,-11632.731,-24062.053,18261.598
1223627.384111053,-61841.96,-75860.35,-22815.635,-17690.674,-22145.752,-11625.937,-24055.137,18270.71
1223627.3881110481,-61847.496,-75856.65,-22811.24,-17691.285,-22139.771,-11614.34,-24044.434,18263.998
1223627.3921110434,-61864.22,-75857.914,-22812.705,-17694.336,-22142.783,-11611.9795,-24042.521,18257.406
1223627.3961110385,-61870.484,-75864.14,-22816.65,-17697.104,-22151.652,-11622.763,-24052.695,18254.314
1223627.4001110336,-61860.273,-75866.87,-22817.953,-17694.459,-22154.297,-11628.378,-24056.805,18269.654
1223627.4041110289,-61851.77,-75860.15,-22813.152,-17691.082,-22147.828,-11624.634,-24052.125,18278.646
1223627.408111024,-61852.62,-75855.516,-22806.031,-17687.908,-22139.69,-11614.584,-24043.377,18267.945
1223627.412111019,-61863.895,-75858.65,-22805.42,-17688.803,-22140.26,-11616.13,-24046.062,18251.791
1223627.4161110143,-61863.04,-75863.28,-22809.814,-17688.68,-22149.21,-11625.651,-24057.496,18251.344
1223627.4201110094,-61855.676,-75868.9,-22814.494,-17689.982,-22155.64,-11632.202,-24064.697,18270.02
1223627.4241110047,-61847.09,-75864.83,-22810.303,-17687.094,-22149.09,-11627.971,-24061.035,18280.762
1223627.4281109998,-61845.703,-75855.43,-22800.498,-17682.088,-22135.459,-11617.025,-24050.904,18277.955
1223627.4321109948,-61852.95,-75852.22,-22799.236,-17683.96,-22134.277,-11614.746,-24052.207,18261.271
1223627.4361109901,-61856.367,-75860.76,-22805.746,-17687.785,-22147.705,-11625.122,-24060.873,18263.428
1223627.4401109852,-61849.895,-75867.27,-22807.7,-17688.803,-22155.6,-11633.179,-24064.617,18279.664
1223627.4441109803,-61841.27,-75866.54,-22802.043,-17687.459,-22151.123,-11627.075,-24055.705,18292.604
1223627.4481109756,-61846.965,-75861.66,-22794.883,-17688.965,-22142.01,-11617.1875,-24043.01,18290.936
1223627.4521109706,-61854.82,-75860.64,-22794.15,-17689.25,-22141.277,-11617.595,-24043.662,18275.676
1223627.4561109657,-61854.535,-75864.26,-22799.033,-17687.947,-22151.246,-11627.482,-24054.607,18267.254
1223627.460110961,-61849.53,-75869.06,-22803.305,-17688.64,-22155.273,-11634.644,-24061.646,18278.932
1223627.464110956,-61844.85,-75867.516,-22801.393,-17688.273,-22146.201,-11628.662,-24055.014,18290.65
1223627.4681109514,-61847.375,-75858.36,-22791.504,-17685.588,-22137.127,-11616.903,-24044.068,18289.715
1223627.4721109464,-61854.004,-75851.61,-22789.268,-17684.49,-22135.01,-11616.333,-24041.627,18282.35
1223627.4761109415,-61862.023,-75858.65,-22797.69,-17689.291,-22144.775,-11627.727,-24050.293,18283.0
1223627.4801109368,-61855.633,-75866.74,-22804.078,-17691.203,-22154.95,-11635.214,-24055.014,18300.213
1223627.4841109319,-61841.188,-75858.93,-22797.975,-17686.443,-22148.193,-11628.093,-24045.695,18315.389
1223627.488110927,-61843.14,-75851.12,-22792.197,-17683.594,-22135.865,-11616.537,-24037.11,18306.56
1223627.4921109222,-61855.918,-75855.59,-22795.207,-17685.629,-22135.947,-11615.438,-24036.826,18293.295
1223627.4961109173,-61860.027,-75861.86,-22803.467,-17688.924,-22146.77,-11625.61,-24044.678,18297.527
1223627.5001109126,-61852.01,-75864.95,-22805.38,-17686.727,-22146.934,-11632.243,-24048.34,18315.756
1223627.5041109077,-61849.0,-75867.07,-22802.734,-17683.96,-22144.248,-11629.517,-24044.354,18325.033
1223627.5081109027,-61851.688,-75860.555,-22796.469,-17681.396,-22131.836,-11621.013,-24037.559,18306.52
1223627.512110898,-61856.367,-75854.33,-22792.645,-17681.111,-22125.367,-11620.199,-24035.889,18291.871
1223627.516110893,-61859.99,-75860.68,-22797.648,-17683.473,-22136.271,-11630.819,-24047.324,18287.72
1223627.5201108882,-61854.086,-75866.01,-22803.508,-17681.723,-22144.572,-11637.614,-24056.438,18296.59
1223627.5241108835,-61844.523,-75863.04,-22801.596,-17678.875,-22140.137,-11633.098,-24052.451,18301.31
1223627.5281108785,-61843.305,-75854.21,-22794.068,-17677.328,-22131.836,-11622.966,-24043.213,18296.346
1223627.5321108736,-61852.54,-75852.625,-22793.254,-17679.402,-22131.918,-11623.007,-24043.662,18281.576
1223627.536110869,-61857.586,-75860.44,-22803.102,-17682.537,-22140.26,-11632.8125,-24050.781,18283.732
1223627.540110864,-61848.227,-75868.98,-22808.066,-17681.64,-22144.084,-11639.16,-24053.996,18300.416
1223627.5441108593,-61839.52,-75866.78,-22802.572,-17678.63,-22141.562,-11632.65,-24048.3,18310.262
1223627.5481108543,-61846.477,-75860.516,-22796.184,-17678.102,-22136.312,-11624.064,-24043.58,18300.496
1223627.5521108494,-61853.152,-75862.1,-22794.516,-17677.45,-22132.53,-11624.716,-24049.113,18282.43
1223627.5561108447,-61858.48,-75871.664,-22801.596,-17679.078,-22141.766,-11636.719,-24058.92,18284.139
1223627.5601108398,-61850.63,-75871.42,-22805.258,-17678.264,-22146.201,-11645.549,-24066.162,18295.857
1223627.5641108348,-61840.945,-75868.49,-22801.799,-17677.979,-22139.61,-11641.195,-24063.885,18300.701
1223627.5681108302,-61843.387,-75863.41,-22795.492,-17676.717,-22131.145,-11632.446,-24056.885,18291.748
1223627.5721108252,-61854.414,-75861.66,-22794.557,-17677.979,-22130.982,-11629.68,-24055.87,18280.64
1223627.5761108205,-61857.953,-75866.17,-22801.393,-17680.908,-22138.957,-11636.719,-24059.814,18281.494
1223627.5801108156,-61847.332,-75867.88,-22803.59,-17678.59,-22138.836,-11642.66,-24062.297,18295.533
1223627.5841108107,-61843.1,-75867.8,-22799.846,-17676.96,-22133.83,-11636.76,-24059.043,18305.95
1223627.588110806,-61850.14,-75864.26,-22795.818,-17676.27,-22130.291,-11626.872,-24049.969,18301.107
1223627.592110801,-61859.05,-75865.4,-22798.504,-17678.467,-22132.324,-11629.599,-24055.299,18280.396
1223627.596110796,-61857.953,-75867.59,-22804.037,-17678.59,-22138.713,-11639.648,-24068.768,18271.81
1223627.6001107914,-61850.586,-75868.94,-22808.717,-17679.484,-22142.62,-11645.468,-24070.598,18291.18
1223627.6041107865,-61842.938,-75866.336,-22803.223,-17678.875,-22136.76,-11640.544,-24066.326,18303.914
1223627.6081107818,-61844.402,-75857.305,-22794.23,-17675.62,-22127.035,-11629.721,-24059.164,18295.574
1223627.6121107768,-61854.902,-75859.375,-22792.277,-17677.37,-22129.68,-11627.686,-24055.95,18286.053
1223627.616110772,-61863.16,-75872.56,-22800.13,-17682.496,-22141.684,-11638.469,-24063.152,18291.707
1223627.6201107672,-61853.438,-75873.21,-22803.793,-17683.146,-22150.229,-11645.63,-24067.344,18305.379
1223627.6241107623,-61846.234,-75871.75,-22801.758,-17682.129,-22146.69,-11637.777,-24057.984,18318.28
1223627.6281107573,-61848.188,-75865.16,-22798.422,-17680.379,-22132.324,-11628.012,-24049.154,18312.744
1223627.6321107526,-61854.086,-75861.984,-22798.584,-17679.322,-22129.72,-11628.134,-24052.207,18294.557
1223627.6361107477,-61866.62,-75873.45,-22806.846,-17682.049,-22139.283,-11638.55,-24064.576,18289.389
1223627.6401107428,-61860.027,-75874.76,-22808.188,-17680.623,-22145.305,-11646.688,-24071.86,18299.357
1223627.644110738,-61849.938,-75869.95,-22801.352,-17678.387,-22140.38,-11643.433,-24067.465,18303.67
1223627.6481107331,-61851.77,-75861.58,-22794.475,-17675.984,-22129.395,-11633.139,-24057.781,18297.975
1223627.6521107284,-61860.76,-75860.84,-22796.225,-17678.346,-22128.947,-11636.19,-24060.1,18285.604
1223627.6561107235,-61861.535,-75865.12,-22804.852,-17678.793,-22135.906,-11647.502,-24067.832,18284.383
1223627.6601107186,-61857.79,-75870.41,-22809.814,-17678.06,-22140.951,-11652.466,-24073.812,18298.34
1223627.6641107139,-61853.07,-75867.88,-22806.967,-17676.596,-22134.562,-11645.752,-24068.28,18305.787
1223627.668110709,-61860.11,-75865.32,-22802.084,-17676.637,-22127.523,-11635.905,-24061.932,18299.56
1223627.672110704,-61870.28,-75863.08,-22801.475,-17676.596,-22127.402,-11635.742,-24065.023,18282.959
1223627.6761106993,-61872.684,-75867.64,-22805.096,-17678.793,-22136.395,-11645.793,-24073.121,18286.662
1223627.6801106944,-61859.99,-75872.03,-22806.031,-17677.572,-22140.463,-11652.06,-24075.807,18304.078
1223627.6841106897,-61853.07,-75867.48,-22801.23,-17674.398,-22133.668,-11646.322,-24068.36,18312.256
1223627.6881106847,-61856.324,-75861.25,-22795.777,-17674.072,-22125.693,-11637.411,-24059.367,18303.02
1223627.6921106798,-61860.76,-75859.055,-22795.492,-17676.96,-22128.053,-11637.045,-24057.496,18294.23
1223627.696110675,-61858.523,-75862.06,-22799.521,-17678.305,-22135.865,-11643.2295,-24062.135,18301.84
1223627.7001106702,-61852.99,-75867.31,-22801.84,-17678.914,-22139.568,-11647.217,-24065.879,18314.697
1223627.7041106652,-61847.902,-75866.5,-22797.69,-17676.922,-22133.994,-11642.538,-24062.582,18314.82
1223627.7081106605,-61851.156,-75860.805,-22790.0,-17675.822,-22124.676,-11634.644,-24057.008,18306.6
1223627.7121106556,-61858.93,-75859.664,-22789.47,-17675.09,-22123.617,-11636.801,-24060.71,18292.4
1223627.7161106507,-61861.004,-75866.3,-22796.672,-17678.59,-22134.074,-11647.299,-24071.371,18289.227
1223627.720110646,-61854.29,-75872.52,-22803.305,-17680.217,-22143.555,-11653.809,-24074.342,18304.443
1223627.724110641,-61844.85,-75868.9,-22801.88,-17679.89,-22138.145,-11647.258,-24067.588,18315.594
1223627.7281106364,-61849.33,-75865.234,-22797.607,-17680.502,-22128.703,-11637.533,-24058.025,18311.443
1223627.7321106314,-61861.047,-75865.64,-22796.63,-17680.34,-22131.145,-11636.923,-24059.246,18301.025
1223627.7361106265,-61864.87,-75871.42,-22802.41,-17681.031,-22139.69,-11645.02,-24068.36,18303.67
1223627.7401106218,-61860.637,-75882.0,-22807.822,-17683.96,-22148.56,-11654.541,-24075.074,18316.977
1223627.7441106169,-61853.312,-75880.54,-22801.107,-17681.764,-22142.498,-11650.229,-24069.662,18326.62
1223627.748110612,-61852.785,-75873.17,-22793.54,-17679.484,-22131.104,-11639.038,-24060.508,18321.33
1223627.7521106072,-61858.195,-75873.3,-22790.691,-17677.572,-22129.111,-11636.394,-24060.547,18305.95
1223627.7561106023,-61862.023,-75881.02,-22795.248,-17679.24,-22136.027,-11644.857,-24069.988,18302.572
1223627.7601105976,-61858.97,-75888.76,-22799.44,-17683.514,-22145.428,-11653.076,-24076.172,18317.83
1223627.7641105927,-61849.855,-75880.82,-22794.678,-17681.6,-22137.492,-11646.159,-24068.4,18326.05
1223627.7681105877,-61848.39,-75870.61,-22786.826,-17681.355,-22128.418,-11637.207,-24059.896,18316.773
1223627.772110583,-61857.016,-75871.42,-22787.639,-17683.594,-22130.371,-11636.435,-24058.555,18309.979
1223627.776110578,-61860.637,-75878.38,-22795.451,-17683.473,-22136.719,-11645.915,-24065.43,18313.803
1223627.7801105732,-61856.73,-75882.086,-22797.893,-17680.014,-22141.357,-11652.1,-24074.912,18321.209
1223627.7841105685,-61855.266,-75881.15,-22794.963,-17678.467,-22136.23,-11646.811,-24073.65,18324.707
1223627.7881105635,-61863.69,-75880.62,-22789.062,-17676.96,-22131.104,-11637.004,-24065.023,18311.97
1223627.7921105588,-61874.88,-75884.56,-22788.738,-17680.014,-22131.227,-11637.533,-24065.594,18299.725
1223627.796110554,-61875.285,-75886.92,-22793.742,-17680.705,-22138.877,-11647.421,-24073.203,18306.723
1223627.800110549,-61867.23,-75892.21,-22798.178,-17678.59,-22144.248,-11650.961,-24072.266,18326.54
1223627.8041105443,-61860.598,-75892.375,-22796.062,-17675.62,-22134.482,-11642.7,-24062.379,18335.816
1223627.8081105393,-61861.29,-75882.04,-22789.348,-17674.764,-22123.291,-11633.586,-24052.49,18330.525
1223627.8121105344,-61865.766,-75880.17,-22788.291,-17673.91,-22121.543,-11634.685,-24050.254,18328.004
1223627.8161105297,-61865.156,-75885.22,-22793.092,-17673.828,-22131.023,-11645.468,-24060.059,18331.055
1223627.8201105248,-61859.17,-75894.78,-22797.12,-17674.602,-22138.633,-11653.931,-24067.832,18340.047
1223627.8241105198,-61854.492,-75895.96,-22793.742,-17673.26,-22136.395,-11651.205,-24067.424,18337.117
1223627.8281105151,-61862.184,-75894.086,-22790.895,-17671.428,-22129.477,-11642.66,-24062.217,18324.748
1223627.8321105102,-61876.996,-75899.54,-22793.945,-17672.975,-22134.441,-11642.822,-24063.762,18312.947
1223627.8361105055,-61882.57,-75906.414,-22800.498,-17676.434,-22144.166,-11651.815,-24073.162,18309.938
1223627.8401105006,-61874.637,-75911.336,-22804.078,-17676.717,-22150.27,-11658.447,-24079.998,18318.686
1223627.8441104956,-61869.957,-75909.836,-22801.799,-17676.148,-22147.502,-11653.076,-24077.434,18326.336
1223627.848110491,-61869.387,-75901.414,-22794.842,-17674.928,-22135.01,-11644.694,-24071.006,18315.43
1223627.852110486,-61874.676,-75899.664,-22791.992,-17676.88,-22134.441,-11644.816,-24069.256,18304.607
1223627.856110481,-61877.727,-75903.89,-22796.916,-17679.281,-22144.613,-11651.53,-24075.4,18306.844
1223627.8601104764,-61874.434,-75909.586,-22803.549,-17681.111,-22153.484,-11656.779,-24081.91,18319.459
1223627.8641104714,-61866.7,-75905.36,-22800.334,-17677.775,-22140.951,-11650.717,-24076.783,18325.48
1223627.8681104667,-61867.758,-75895.67,-22794.719,-17674.154,-22134.033,-11641.195,-24068.768,18321.453
1223627.8721104618,-61879.438,-75896.41,-22795.533,-17675.213,-22128.826,-11640.3,-24069.256,18305.055
1223627.876110457,-61887.047,-75906.3,-22802.613,-17677.37,-22143.107,-11651.327,-24080.242,18299.44
1223627.8801104522,-61879.926,-75910.81,-22806.193,-17676.27,-22148.887,-11658.407,-24083.496,18323.365
1223627.8841104473,-61873.008,-75909.51,-22803.184,-17674.398,-22142.578,-11652.06,-24074.545,18336.223
1223627.8881104423,-61877.484,-75905.805,-22800.13,-17677.002,-22135.947,-11643.2705,-24067.668,18327.148
1223627.8921104376,-61886.76,-75906.984,-22801.922,-17680.34,-22137.33,-11642.944,-24068.604,18319.662
1223627.8961104327,-61885.664,-75910.16,-22807.7,-17680.908,-22141.643,-11652.304,-24074.992,18320.436
1223627.9001104278,-61881.836,-75917.6,-22812.95,-17682.129,-22145.225,-11660.238,-24078.41,18324.951
1223627.904110423,-61878.582,-75918.54,-22809.896,-17682.129,-22141.725,-11655.681,-24076.865,18331.666
1223627.9081104181,-61885.742,-75914.06,-22804.852,-17679.688,-22137.086,-11644.165,-24065.715,18328.695
1223627.9121104134,-61894.168,-75912.44,-22802.084,-17677.693,-22137.33,-11643.066,-24067.791,18313.924
1223627.9161104085,-61897.258,-75920.86,-22809.205,-17680.746,-22146.973,-11652.792,-24074.016,18312.338
1223627.9201104036,-61888.062,-75924.03,-22815.064,-17682.373,-22152.67,-11661.052,-24077.88,18326.863
1223627.9241103989,-61879.316,-75919.64,-22808.105,-17679.77,-22145.834,-11654.541,-24072.836,18336.426
1223627.928110394,-61883.465,-75917.766,-22802.207,-17678.387,-22139.69,-11644.735,-24065.186,18331.014
1223627.932110389,-61894.086,-75917.93,-22803.428,-17681.234,-22140.707,-11646.77,-24068.809,18315.389
1223627.9361103843,-61895.875,-75922.69,-22810.14,-17681.355,-22149.984,-11655.925,-24080.527,18309.246
1223627.9401103794,-61892.742,-75927.9,-22814.576,-17680.584,-22159.262,-11663.127,-24089.355,18324.3
1223627.9441103747,-61887.82,-75925.336,-22809.082,-17677.775,-22150.188,-11655.3955,-24082.969,18334.717
1223627.9481103697,-61893.312,-75921.06,-22802.451,-17676.637,-22137.127,-11643.84,-24070.15,18328.492
1223627.9521103648,-61906.21,-75925.375,-22802.816,-17677.979,-22138.836,-11642.7,-24071.818,18316.814
1223627.95611036,-61909.547,-75933.92,-22810.264,-17681.52,-22151.287,-11654.135,-24082.275,18314.982
1223627.9601103552,-61899.293,-75937.586,-22813.762,-17681.193,-22153.564,-11660.971,-24083.74,18333.334
1223627.9641103502,-61891.97,-75931.73,-22811.768,-17677.572,-22145.752,-11653.687,-24073.854,18343.262
1223627.9681103455,-61896.04,-75924.12,-22807.049,-17677.49,-22136.312,-11644.775,-24066.773,18334.188
1223627.9721103406,-61904.582,-75924.16,-22806.275,-17680.623,-22140.87,-11647.502,-24069.662,18320.068
1223627.976110336,-61911.055,-75934.49,-22810.71,-17682.984,-22150.96,-11656.576,-24078.695,18322.918
1223627.980110331,-61904.46,-75941.29,-22815.43,-17684.367,-22158.652,-11662.883,-24081.38,18333.578
1223627.984110326,-61899.496,-75937.55,-22813.926,-17683.514,-22153.809,-11656.942,-24080.852,18335.49
1223627.9881103213,-61906.09,-75935.34,-22808.799,-17683.35,-22145.63,-11647.868,-24073.527,18324.748
1223627.9921103164,-61913.902,-75935.1,-22806.193,-17684.123,-22144.857,-11648.153,-24069.621,18314.656
1223627.9961103115,-61916.63,-75938.4,-22812.053,-17685.588,-22152.344,-11658.366,-24076.58,18320.271
1223628.0001103068,-61909.06,-75941.0,-22814.78,-17685.832,-22156.943,-11665.08,-24081.26,18334.555
1223628.0041103018,-61899.742,-75937.75,-22807.09,-17683.146,-22150.066,-11656.982,-24072.795,18350.139
1223628.008110297,-61902.426,-75932.87,-22801.596,-17680.664,-22139.812,-11645.346,-24060.1,18352.01
1223628.0121102922,-61909.18,-75930.75,-22801.719,-17679.89,-22139.445,-11646.24,-24061.24,18340.535
1223628.0161102873,-61911.46,-75935.59,-22806.438,-17681.52,-22150.596,-11657.187,-24074.586,18329.834
1223628.0201102826,-61907.715,-75941.0,-22811.564,-17682.373,-22157.756,-11665.365,-24082.928,18338.867
1223628.0241102776,-61902.957,-75939.13,-22809.814,-17680.908,-22151.328,-11662.231,-24081.91,18339.396
1223628.0281102727,-61902.223,-75933.59,-22802.37,-17677.084,-22141.807,-11652.832,-24077.516,18325.562
1223628.032110268,-61909.953,-75932.3,-22801.637,-17677.654,-22141.195,-11654.501,-24078.777,18316.854
1223628.036110263,-61910.44,-75931.84,-22807.21,-17678.793,-22150.555,-11664.714,-24086.467,18316.814
1223628.0401102582,-61906.21,-75934.49,-22811.32,-17679.078,-22156.373,-11670.939,-24089.275,18326.62
1223628.0441102535,-61900.11,-75933.19,-22809.326,-17675.62,-22150.31,-11664.226,-24083.945,18335.043
1223628.0481102485,-61901.574,-75926.68,-22804.12,-17675.008,-22142.822,-11657.553,-24079.469,18327.596
1223628.0521102438,-61914.105,-75930.055,-22807.21,-17677.979,-22145.346,-11657.268,-24078.41,18318.889
1223628.056110239,-61912.598,-75935.34,-22814.047,-17680.34,-22154.094,-11667.033,-24085.734,18319.662
1223628.060110234,-61898.562,-75939.58,-22814.209,-17680.42,-22158.773,-11672.404,-24088.95,18339.07
1223628.0641102293,-61886.64,-75934.125,-22805.625,-17676.96,-22147.95,-11666.708,-24081.787,18355.957
1223628.0681102243,-61888.105,-75925.414,-22797.12,-17674.928,-22133.871,-11657.675,-24071.615,18353.312
1223628.0721102194,-61896.12,-75926.15,-22794.11,-17676.434,-22134.645,-11658.61,-24072.836,18340.984
1223628.0761102147,-61895.227,-75930.71,-22798.137,-17677.654,-22144.736,-11669.23,-24082.48,18336.14
1223628.0801102098,-61888.145,-75934.62,-22801.514,-17676.596,-22150.146,-11673.869,-24084.19,18353.475
1223628.0841102048,-61883.547,-75931.07,-22797.04,-17675.008,-22142.05,-11666.545,-24075.195,18368.043
1223628.0881102001,-61885.176,-75921.51,-22789.592,-17672.975,-22132.568,-11657.1045,-24066.65,18365.275
1223628.0921101952,-61897.586,-75925.055,-22791.953,-17674.113,-22133.83,-11659.424,-24071.086,18346.6
1223628.0961101905,-61903.65,-75938.805,-22799.928,-17676.678,-22144.531,-11670.898,-24085.002,18332.52
1223628.1001101856,-61898.723,-75945.92,-22803.223,-17675.334,-22152.264,-11676.27,-24087.443,18355.307
1223628.1041101806,-61891.562,-75937.38,-22795.615,-17670.37,-22146.363,-11667.236,-24075.645,18361.451
1223628.108110176,-61898.684,-75933.48,-22792.236,-17672.893,-22137.695,-11660.441,-24073.162,18342.652
1223628.112110171,-61908.164,-75937.55,-22794.516,-17675.334,-22139.893,-11661.987,-24077.23,18328.207
1223628.116110166,-61910.484,-75942.95,-22803.102,-17677.572,-22149.74,-11671.631,-24086.143,18326.05
1223628.1201101614,-61905.887,-75948.98,-22809.814,-17678.508,-22155.926,-11677.409,-24090.21,18335.125
1223628.1241101564,-61899.133,-75947.47,-22805.908,-17677.166,-22150.146,-11671.997,-24085.49,18341.92
1223628.1281101517,-61905.438,-75944.09,-22800.537,-17675.66,-22141.684,-11663.981,-24078.125,18335.328
1223628.1321101468,-61920.047,-75947.76,-22802.49,-17679.688,-22147.096,-11663.859,-24079.957,18325.643
1223628.1361101419,-61922.527,-75954.02,-22811.035,-17683.594,-22158.203,-11675.09,-24089.031,18323.283
1223628.1401101372,-61917.402,-75958.945,-22814.861,-17685.467,-22163.291,-11679.729,-24091.96,18339.479
1223628.1441101322,-61908.57,-75953.734,-22808.188,-17682.537,-22151.611,-11670.573,-24081.016,18347.209
1223628.1481101273,-61912.03,-75946.82,-22801.799,-17680.014,-22140.137,-11660.849,-24071.818,18342.938
1223628.1521101226,-61921.43,-75949.55,-22801.434,-17680.34,-22141.928,-11661.459,-24075.236,18331.87
1223628.1561101177,-61925.54,-75957.805,-22808.555,-17683.39,-22154.582,-11672.7295,-24088.623,18319.988
1223628.160110113,-61921.836,-75964.52,-22811.973,-17682.943,-22160.889,-11678.183,-24094.28,18327.678
1223628.164110108,-61920.332,-75965.25,-22808.594,-17681.64,-22155.844,-11672.7295,-24090.252,18335.816
1223628.168110103,-61923.668,-75957.73,-22805.137,-17680.95,-22144.613,-11664.307,-24081.584,18326.172
1223628.1721100984,-61930.992,-75957.28,-22806.438,-17679.688,-22142.09,-11663.493,-24079.713,18316.53
1223628.1761100935,-61933.594,-75963.586,-22811.646,-17679.729,-22149.049,-11670.817,-24085.328,18319.5
1223628.1801100885,-61925.375,-75966.27,-22816.814,-17679.322,-22155.926,-11677.938,-24088.46,18336.426
1223628.1841100839,-61918.176,-75962.94,-22810.832,-17675.904,-22149.09,-11672.934,-24081.504,18343.344
1223628.188110079,-61920.41,-75957.32,-22801.84,-17673.951,-22138.754,-11661.743,-24071.615,18339.193
1223628.192110074,-61929.28,-75958.54,-22801.555,-17675.578,-22140.748,-11661.459,-24072.51,18327.8
1223628.1961100693,-61928.71,-75964.6,-22805.87,-17677.572,-22150.188,-11671.713,-24081.463,18325.277
1223628.2001100644,-61922.445,-75969.85,-22809.734,-17677.654,-22154.95,-11677.531,-24084.799,18341.432
1223628.2041100597,-61917.2,-75968.266,-22802.084,-17673.992,-22147.137,-11668.986,-24075.318,18352.05
1223628.2081100547,-61919.11,-75963.3,-22791.18,-17672.363,-22137.736,-11661.459,-24066.814,18343.832
1223628.2121100498,-61927.98,-75963.18,-22790.771,-17673.584,-22138.307,-11664.592,-24066.814,18336.223
1223628.216110045,-61927.37,-75965.945,-22797.69,-17673.504,-22145.06,-11674.276,-24074.586,18343.547
1223628.2201100402,-61913.047,-75965.17,-22799.316,-17673.055,-22148.234,-11679.159,-24077.516,18359.416
1223628.2241100352,-61905.56,-75959.39,-22794.354,-17672.201,-22140.79,-11671.997,-24068.889,18365.846
1223628.2281100305,-61909.832,-75953.414,-22788.982,-17669.23,-22131.715,-11660.645,-24056.885,18360.922
1223628.2321100256,-61915.61,-75953.734,-22789.674,-17671.55,-22135.092,-11664.022,-24060.955,18347.494
1223628.236110021,-61919.56,-75961.305,-22795.492,-17675.537,-22147.746,-11675.375,-24073.242,18345.703
1223628.240110016,-61916.668,-75966.555,-22798.79,-17675.457,-22154.582,-11680.908,-24077.637,18357.666
1223628.244110011,-61909.953,-75964.12,-22795.166,-17673.422,-22146.81,-11676.311,-24071.412,18361.287
1223628.2481100063,-61915.812,-75957.484,-22791.057,-17672.852,-22137.412,-11667.888,-24063.72,18353.598
1223628.2521100014,-61926.598,-75957.97,-22796.387,-17675.945,-22138.307,-11669.963,-24068.28,18342.814
1223628.2561099965,-61924.156,-75963.7,-22804.648,-17677.816,-22146.566,-11679.77,-24075.645,18342.814
1223628.2601099918,-61911.664,-75964.36,-22803.264,-17674.928,-22149.781,-11682.495,-24074.79,18356.324
1223628.2641099868,-61907.39,-75962.164,-22796.307,-17672.69,-22143.148,-11673.259,-24062.338,18371.826
1223628.268109982,-61913.21,-75960.125,-22791.057,-17671.51,-22136.395,-11662.558,-24053.59,18364.46
1223628.2721099772,-61922.04,-75962.52,-22790.527,-17672.648,-22140.87,-11664.0625,-24057.09,18346.72
1223628.2761099723,-61926.395,-75971.73,-22798.057,-17673.87,-22150.31,-11674.4795,-24063.762,18350.3
1223628.2801099676,-61916.14,-75972.45,-22801.066,-17673.504,-22154.135,-11680.339,-24067.303,18364.584
1223628.2841099626,-61907.715,-75967.29,-22798.3,-17671.875,-22144.125,-11675.659,-24063.232,18366.334
1223628.2881099577,-61909.793,-75960.66,-22791.098,-17669.598,-22131.512,-11666.911,-24055.176,18357.586
1223628.292109953,-61919.312,-75961.875,-22792.521,-17672.16,-22131.43,-11670.858,-24061.158,18343.018
1223628.296109948,-61926.883,-75972.13,-22801.393,-17676.066,-22148.805,-11682.089,-24073.527,18339.844
1223628.3001099431,-61921.105,-75976.61,-22801.799,-17672.771,-22150.066,-11686.361,-24077.027,18354.451
1223628.3041099384,-61917.156,-75972.414,-22795.777,-17669.312,-22143.475,-11679.932,-24070.232,18361.857
1223628.3081099335,-61922.082,-75968.875,-22789.633,-17669.8,-22136.963,-11670.898,-24060.1,18358.928
1223628.3121099288,-61926.312,-75969.2,-22789.55,-17669.963,-22139.365,-11672.445,-24060.955,18351.441
1223628.3161099239,-61926.637,-75975.51,-22796.469,-17671.428,-22148.887,-11681.234,-24070.395,18347.088
1223628.320109919,-61922.242,-75982.55,-22802.979,-17674.887,-22156.25,-11686.32,-24073.936,18358.195
1223628.3241099142,-61917.523,-75980.23,-22799.887,-17672.975,-22152.264,-11678.549,-24066.53,18359.62
1223628.3281099093,-61923.91,-75978.68,-22794.76,-17672.934,-22147.91,-11668.213,-24057.74,18348.47
1223628.3321099044,-61935.223,-75983.805,-22797.73,-17676.96,-22145.957,-11670.858,-24063.682,18332.072
1223628.3361098997,-61936.81,-75990.44,-22805.664,-17678.06,-22156.21,-11682.699,-24077.11,18325.887
1223628.3401098948,-61930.3,-75994.55,-22809.775,-17678.06,-22163.656,-11685.507,-24075.115,18343.953
1223628.34410989,-61929.2,-75990.484,-22807.373,-17678.102,-22159.791,-11677.979,-24061.035,18351.562
1223628.3481098851,-61935.793,-75986.49,-22801.066,-17674.846,-22147.828,-11667.929,-24053.184,18347.494
1223628.3521098802,-61946.617,-75990.56,-22800.863,-17676.922,-22149.863,-11671.103,-24055.096,18341.635
1223628.3561098755,-61949.707,-75997.195,-22808.39,-17680.867,-22160.076,-11682.089,-24068.889,18329.387
1223628.3601098706,-61939.535,-75996.79,-22811.24,-17680.014,-22162.924,-11687.622,-24070.273,18342.041
1223628.3641098656,-61929.73,-75991.21,-22804.2,-17677.246,-22155.518,-11680.746,-24062.379,18353.354
1223628.368109861,-61931.64,-75986.164,-22798.057,-17675.62,-22144.775,-11670.614,-24056.805,18346.15
1223628.372109856,-61940.023,-75987.23,-22800.578,-17678.387,-22147.828,-11673.747,-24061.768,18332.357
1223628.376109851,-61945.438,-75998.01,-22808.188,-17680.135,-22165.568,-11685.141,-24069.256,18336.59
1223628.3801098464,-61941.816,-76001.71,-22810.832,-17679.484,-22168.092,-11690.512,-24067.75,18352.377
1223628.3841098414,-61934.53,-75996.46,-22802.613,-17675.213,-22156.535,-11683.228,-24057.943,18362.102
1223628.3881098367,-61938.4,-75989.625,-22795.533,-17675.334,-22149.658,-11674.438,-24050.254,18359.498
1223628.3921098318,-61947.918,-75993.21,-22797.73,-17678.264,-22154.705,-11676.514,-24052.979,18353.271
1223628.3961098269,-61945.68,-76001.14,-22804.16,-17679.525,-22162.191,-11686.483,-24065.309,18345.785
1223628.4001098222,-61937.543,-76003.83,-22808.758,-17679.932,-22162.762,-11692.831,-24073.691,18348.959
1223628.4041098172,-61929.2,-75997.4,-22805.746,-17678.59,-22158.447,-11688.518,-24065.39,18353.312
1223628.4081098123,-61933.027,-75990.03,-22799.725,-17675.822,-22152.14,-11677.165,-24054.037,18351.115
1223628.4121098076,-61941.33,-75991.54,-22801.27,-17677.654,-22152.996,-11677.897,-24052.734,18343.059
1223628.4161098027,-61944.133,-75999.23,-22809.408,-17681.52,-22164.959,-11687.988,-24058.676,18343.994
1223628.420109798,-61935.184,-75998.3,-22812.785,-17680.746,-22169.639,-11691.162,-24058.39,18360.84
1223628.424109793,-61926.027,-75992.27,-22805.34,-17678.06,-22160.482,-11682.129,-24047.852,18372.03
1223628.428109788,-61927.613,-75988.04,-22799.44,-17677.205,-22154.176,-11674.968,-24042.645,18362.508
1223628.4321097834,-61932.336,-75985.19,-22803.428,-17678.426,-22155.438,-11678.142,-24045.451,18354.736
1223628.4361097785,-61932.66,-75985.68,-22808.555,-17680.379,-22163.453,-11689.413,-24055.42,18355.062
1223628.4401097735,-61925.17,-75988.28,-22807.496,-17679.402,-22164.836,-11694.377,-24055.828,18372.682
1223628.4441097688,-61917.2,-75984.13,-22801.066,-17676.19,-22154.867,-11683.594,-24044.434,18388.387
1223628.448109764,-61918.703,-75978.27,-22794.312,-17675.252,-22148.072,-11674.113,-24037.314,18375.814
1223628.452109759,-61928.836,-75982.83,-22795.492,-17676.678,-22150.514,-11675.497,-24038.982,18362.752
1223628.4561097543,-61932.496,-75991.21,-22803.223,-17678.71,-22158.691,-11686.768,-24048.545,18367.146
1223628.4601097493,-61926.027,-75992.516,-22807.09,-17677.287,-22164.023,-11691.977,-24048.3,18385.254
1223628.4641097446,-61918.254,-75985.805,-22798.748,-17673.992,-22157.39,-11683.31,-24036.621,18394.328
1223628.4681097397,-61923.18,-75978.68,-22791.871,-17673.422,-22142.822,-11674.805,-24029.867,18384.889
1223628.4721097348,-61932.54,-75978.805,-22794.271,-17675.863,-22143.922,-11678.752,-24036.338,18370.809
1223628.47610973,-61934.125,-75986.66,-22800.498,-17678.508,-22151.084,-11689.372,-24048.016,18371.338
1223628.4801097251,-61926.15,-75989.51,-22802.531,-17677.938,-22154.95,-11694.052,-24051.475,18384.236
1223628.4841097202,-61921.875,-75986.21,-22794.842,-17676.352,-22147.096,-11685.873,-24044.354,18389.771
1223628.4881097155,-61926.027,-75980.47,-22789.633,-17676.678,-22144.736,-11678.793,-24040.65,18376.588
1223628.4921097106,-61932.05,-75981.57,-22791.912,-17677.654,-22147.34,-11681.56,-24046.713,18366.658
1223628.496109706,-61933.312,-75988.12,-22798.707,-17679.729,-22154.99,-11690.634,-24048.992,18372.967
1223628.500109701,-61926.27,-75993.62,-22800.457,-17680.096,-22154.582,-11695.761,-24047.975,18387.818
1223628.504109696,-61923.586,-75988.04,-22795.654,-17676.434,-22144.94,-11686.076,-24039.227,18394.084
1223628.5081096913,-61929.406,-75982.625,-22788.86,-17672.771,-22135.092,-11675.741,-24030.803,18388.672
1223628.5121096864,-61936.117,-75983.65,-22787.354,-17672.648,-22135.174,-11676.799,-24032.268,18381.389
1223628.5161096815,-61934.082,-75989.914,-22790.365,-17674.602,-22144.328,-11683.92,-24034.424,18387.166
1223628.5201096768,-61925.742,-75996.34,-22794.639,-17676.434,-22147.38,-11688.925,-24033.082,18412.518
1223628.5241096718,-61920.332,-75993.21,-22792.236,-17676.148,-22138.916,-11681.356,-24022.584,18423.422
1223628.528109667,-61922.16,-75985.48,-22784.953,-17673.543,-22128.418,-11669.963,-24012.656,18416.26
1223628.5321096622,-61929.363,-75981.94,-22783.57,-17674.48,-22133.75,-11670.695,-24016.236,18404.908
1223628.5361096573,-61935.47,-75992.48,-22789.918,-17677.775,-22144.328,-11681.967,-24026.367,18400.838
1223628.5401096526,-61930.504,-75999.59,-22793.945,-17678.182,-22152.588,-11687.46,-24029.826,18413.656
1223628.5441096476,-61922.977,-75992.516,-22789.55,-17675.62,-22143.352,-11679.647,-24021.973,18425.172
1223628.5481096427,-61929.527,-75989.83,-22786.906,-17676.434,-22137.33,-11672.812,-24018.678,18415.283
1223628.552109638,-61942.914,-75996.83,-22792.236,-17680.828,-22143.434,-11678.061,-24026.531,18398.805
1223628.556109633,-61943.117,-76003.664,-22799.277,-17681.764,-22150.025,-11688.803,-24039.062,18395.59
1223628.5601096281,-61929.895,-76005.82,-22796.469,-17678.914,-22150.879,-11692.953,-24043.865,18407.674
1223628.5641096234,-61920.656,-76000.125,-22788.78,-17675.822,-22145.225,-11684.937,-24032.309,18416.83
1223628.5681096185,-61923.91,-75993.57,-22782.797,-17674.48,-22137.168,-11674.968,-24022.422,18413.453
1223628.5721096138,-61933.758,-75994.14,-22784.832,-17675.13,-22138.021,-11677.49,-24023.193,18404.42
1223628.5761096089,-61936.688,-76004.195,-22794.271,-17677.166,-22150.432,-11690.308,-24033.367,18400.594
1223628.580109604,-61932.54,-76011.35,-22798.422,-17676.107,-22153.2,-11695.435,-24036.338,18416.748
1223628.5841095992,-61928.918,-76010.46,-22794.922,-17674.031,-22144.613,-11687.988,-24030.518,18422.486
1223628.5881095943,-61937.094,-76008.06,-22791.3,-17674.154,-22141.398,-11680.827,-24027.344,18410.238
1223628.5921095894,-61947.188,-76012.86,-22793.824,-17677.166,-22147.178,-11683.838,-24033.57,18395.508
1223628.5961095847,-61945.234,-76018.805,-22798.707,-17676.148,-22152.67,-11693.522,-24041.139,18400.838
1223628.6001095797,-61935.875,-76019.9,-22798.504,-17675.375,-22153.361,-11698.975,-24045.94,18413.574
1223628.604109575,-61927.86,-76013.266,-22791.627,-17672.69,-22144.736,-11691.122,-24039.268,18416.18
1223628.60810957,-61932.008,-76006.63,-22785.809,-17671.062,-22131.877,-11683.105,-24031.943,18404.541
1223628.6121095652,-61938.965,-76006.15,-22789.55,-17670.207,-22128.418,-11687.338,-24036.703,18386.8
1223628.6161095605,-61938.76,-76010.99,-22797.73,-17670.654,-22136.15,-11697.754,-24045.004,18389.04
1223628.6201095555,-61935.875,-76015.71,-22801.475,-17671.713,-22145.672,-11700.888,-24046.63,18404.541
1223628.6241095506,-61934.043,-76014.61,-22797.12,-17670.451,-22140.586,-11692.627,-24041.465,18407.105
1223628.628109546,-61937.91,-76011.03,-22791.18,-17670.654,-22135.05,-11687.175,-24040.568,18384.766
1223628.632109541,-61944.215,-76014.484,-22789.55,-17672.283,-22140.463,-11691.528,-24045.533,18371.908
1223628.636109536,-61941.082,-76018.07,-22792.93,-17671.63,-22145.428,-11703.451,-24053.06,18373.943
1223628.6401095313,-61929.688,-76019.33,-22793.824,-17668.824,-22145.508,-11707.602,-24052.898,18389.975
1223628.6441095264,-61922.04,-76011.234,-22787.559,-17664.674,-22133.424,-11697.266,-24042.033,18403.973
1223628.6481095217,-61922.69,-76002.69,-22780.355,-17661.703,-22123.373,-11686.239,-24030.193,18403.158
1223628.6521095168,-61933.15,-76007.734,-22781.943,-17663.533,-22128.053,-11688.721,-24033.082,18394.166
1223628.6561095119,-61936.08,-76017.21,-22786.459,-17664.348,-22137.94,-11699.301,-24043.213,18386.963
1223628.6601095072,-61931.03,-76022.99,-22789.55,-17664.348,-22144.207,-11705.078,-24047.445,18406.006
1223628.6641095022,-61928.918,-76020.836,-22786.703,-17664.348,-22139.934,-11699.057,-24044.557,18401.938
1223628.6681094973,-61932.617,-76016.08,-22781.738,-17663.127,-22132.041,-11693.075,-24042.848,18382.324
1223628.6721094926,-61939.535,-76015.79,-22785.361,-17662.312,-22129.762,-11698.161,-24047.812,18377.197
1223628.6761094877,-61945.152,-76023.73,-22794.516,-17663.29,-22137.127,-11707.561,-24055.87,18378.053
1223628.680109483,-61938.844,-76029.55,-22798.096,-17663.656,-22142.213,-11710.368,-24056.56,18386.842
1223628.684109478,-61929.363,-76023.93,-22792.725,-17661.824,-22135.05,-11701.823,-24051.31,18386.516
1223628.688109473,-61938.6,-76019.33,-22788.982,-17662.883,-22128.582,-11693.359,-24046.998,18376.018
1223628.6921094684,-61945.438,-76018.6,-22790.61,-17664.51,-22131.633,-11696.533,-24050.904,18366.822
1223628.6961094635,-61940.227,-76021.81,-22796.51,-17664.47,-22137.736,-11705.688,-24056.602,18374.309
1223628.7001094585,-61934.492,-76023.52,-22797.893,-17664.633,-22137.33,-11708.415,-24055.42,18390.666
1223628.7041094538,-61927.33,-76017.54,-22792.686,-17660.523,-22128.541,-11701.172,-24044.842,18403.85
1223628.708109449,-61933.555,-76013.02,-22788.127,-17658.977,-22122.479,-11695.272,-24038.127,18399.984
1223628.712109444,-61942.02,-76017.336,-22790.0,-17662.72,-22130.332,-11700.888,-24042.441,18389.852
1223628.7161094393,-61941.57,-76027.06,-22796.592,-17664.51,-22140.545,-11709.677,-24049.357,18395.143
1223628.7201094343,-61936.32,-76036.336,-22800.09,-17665.975,-22144.084,-11710.002,-24046.51,18407.715
1223628.7241094296,-61934.367,-76033.37,-22796.875,-17666.098,-22137.695,-11702.067,-24041.424,18407.023
1223628.7281094247,-61940.96,-76028.12,-22791.18,-17666.707,-22133.18,-11695.72,-24038.9,18395.508
1223628.7321094198,-61951.906,-76030.805,-22789.227,-17667.521,-22135.133,-11698.486,-24040.854,18386.8
1223628.736109415,-61947.797,-76032.19,-22792.807,-17668.58,-22142.701,-11709.025,-24047.568,18387.574
1223628.7401094101,-61937.176,-76034.914,-22795.898,-17668.701,-22145.834,-11714.4375,-24049.236,18400.39
1223628.7441094052,-61927.574,-76028.0,-22789.186,-17666.586,-22136.191,-11706.706,-24041.504,18407.553
1223628.7481094005,-61933.555,-76025.27,-22784.465,-17665.121,-22128.379,-11698.771,-24035.686,18402.467
1223628.7521093956,-61941.33,-76025.555,-22786.621,-17665.283,-22127.32,-11699.789,-24036.621,18396.77
1223628.7561093909,-61940.88,-76032.68,-22793.783,-17669.312,-22137.615,-11710.856,-24047.08,18397.95
1223628.760109386,-61937.42,-76038.49,-22794.23,-17670.166,-22144.166,-11714.111,-24045.492,18422.16
1223628.764109381,-61934.652,-76035.52,-22786.582,-17669.148,-22139.73,-11706.259,-24031.902,18435.018
1223628.7681093763,-61938.273,-76029.91,-22779.338,-17668.54,-22130.9,-11697.185,-24023.602,18429.322
1223628.7721093714,-61946.168,-76029.91,-22783.164,-17670.613,-22133.018,-11702.108,-24027.223,18421.795
1223628.7761093664,-61943.402,-76029.91,-22787.232,-17668.701,-22140.26,-11711.874,-24035.28,18423.828
1223628.7801093617,-61930.383,-76028.32,-22785.523,-17666.3,-22143.23,-11715.251,-24038.615,18433.838
1223628.7841093568,-61919.72,-76018.805,-22778.77,-17661.703,-22134.848,-11706.055,-24032.064,18429.973
1223628.788109352,-61925.457,-76014.9,-22775.96,-17661.621,-22133.018,-11697.266,-24024.21,18418.133
1223628.7921093472,-61939.13,-76021.57,-22780.111,-17663.533,-22135.05,-11699.829,-24026.652,18404.176
1223628.7961093422,-61940.676,-76025.96,-22786.256,-17665.854,-22142.09,-11711.548,-24038.9,18400.758
1223628.8001093375,-61931.766,-76027.59,-22787.72,-17666.504,-22144.816,-11713.542,-24035.564,18421.59
1223628.8041093326,-61924.277,-76023.32,-22782.959,-17663.818,-22136.68,-11704.062,-24024.049,18436.117
1223628.8081093277,-61927.53,-76018.76,-22777.873,-17662.72,-22132.936,-11697.47,-24016.48,18432.17
1223628.812109323,-61941.043,-76023.07,-22784.791,-17667.074,-22134.4,-11702.026,-24023.887,18415.365
1223628.816109318,-61947.754,-76031.45,-22794.639,-17670.533,-22142.986,-11712.484,-24034.912,18414.062
1223628.8201093131,-61943.117,-76035.85,-22797.08,-17670.125,-22148.479,-11716.309,-24038.291,18427.654
1223628.8241093084,-61939.25,-76034.914,-22793.945,-17671.875,-22140.748,-11710.653,-24034.059,18428.305
1223628.8281093035,-61945.03,-76029.09,-22787.842,-17670.98,-22134.115,-11702.434,-24027.549,18420.248
1223628.8321092988,-61951.17,-76030.766,-22786.826,-17671.184,-22136.719,-11703.044,-24027.914,18417.928
1223628.8361092939,-61948.324,-76039.47,-22791.3,-17674.398,-22146.484,-11713.949,-24034.303,18421.062
1223628.840109289,-61937.01,-76040.81,-22791.342,-17671.59,-22151.408,-11718.1,-24033.367,18431.152
1223628.8441092842,-61931.438,-76036.055,-22784.668,-17669.312,-22144.37,-11709.229,-24019.287,18444.906
1223628.8481092793,-61940.594,-76031.66,-22781.006,-17671.469,-22138.104,-11702.719,-24014.16,18431.6
1223628.8521092744,-61951.742,-76035.85,-22785.441,-17675.252,-22144.736,-11709.106,-24023.193,18411.092
1223628.8561092697,-61954.184,-76044.97,-22791.871,-17677.246,-22153.89,-11719.035,-24034.994,18409.75
1223628.8601092647,-61949.22,-76051.68,-22793.418,-17677.084,-22157.553,-11724.243,-24040.162,18423.422
1223628.86410926,-61941.33,-76047.0,-22787.11,-17674.52,-22149.781,-11716.594,-24035.97,18424.887
1223628.868109255,-61944.055,-76041.22,-22782.064,-17673.178,-22141.684,-11708.049,-24032.146,18409.506
1223628.8721092502,-61950.93,-76044.27,-22782.188,-17674.602,-22145.264,-11709.595,-24035.28,18401.246
1223628.8761092455,-61949.504,-76049.36,-22786.297,-17676.229,-22156.047,-11721.273,-24045.533,18400.838
1223628.8801092405,-61940.27,-76050.09,-22787.803,-17674.195,-22159.547,-11725.342,-24048.422,18412.8
1223628.8841092356,-61937.46,-76045.375,-22783.896,-17671.062,-22148.398,-11716.146,-24039.389,18415.73
1223628.888109231,-61944.46,-76040.9,-22780.438,-17671.346,-22142.457,-11707.927,-24028.402,18410.809
1223628.892109226,-61955.285,-76045.984,-22785.523,-17673.91,-22147.055,-11710.897,-24028.646,18410.441
1223628.896109221,-61953.98,-76054.57,-22793.336,-17676.96,-22155.559,-11720.541,-24037.07,18412.395
1223628.9001092163,-61943.93,-76055.625,-22793.662,-17676.27,-22158.691,-11722.778,-24037.924,18424.398
1223628.9041092114,-61936.81,-76053.34,-22785.727,-17673.219,-22152.914,-11713.095,-24025.188,18440.594
1223628.9081092067,-61939.74,-76048.42,-22778.646,-17672.486,-22144.816,-11704.794,-24015.87,18441.406
1223628.9121092018,-61947.918,-76053.1,-22779.785,-17672.648,-22148.113,-11708.74,-24017.62,18431.438
1223628.9161091968,-61949.707,-76060.06,-22786.133,-17673.584,-22156.455,-11720.053,-24025.107,18433.309
1223628.9201091921,-61944.258,-76062.336,-22787.354,-17673.38,-22159.912,-11724.609,-24027.467,18444.783
1223628.9241091872,-61942.996,-76056.69,-22782.35,-17671.957,-22149.455,-11714.111,-24018.027,18451.701
1223628.9281091823,-61947.51,-76051.92,-22778.605,-17669.963,-22140.137,-11704.143,-24008.22,18447.836
1223628.9321091776,-61956.42,-76058.11,-22782.268,-17669.434,-22141.398,-11706.828,-24009.441,18442.18
1223628.9361091726,-61961.71,-76066.37,-22791.098,-17670.695,-22153.32,-11714.844,-24015.748,18448.975
1223628.940109168,-61956.137,-76069.99,-22793.01,-17670.045,-22155.518,-11718.628,-24020.469,18446.574
1223628.944109163,-61944.746,-76062.38,-22784.588,-17666.016,-22146.16,-11710.531,-24012.9,18454.793
1223628.948109158,-61947.31,-76055.664,-22778.2,-17664.55,-22139.121,-11701.742,-24003.338,18455.566
1223628.9521091534,-61955.406,-76055.95,-22779.42,-17665.975,-22142.742,-11703.654,-24004.395,18454.021
1223628.9561091485,-61953.25,-76060.55,-22787.232,-17668.133,-22153.402,-11715.861,-24018.516,18446.004
1223628.9601091435,-61949.016,-76065.72,-22789.268,-17669.068,-22156.455,-11722.046,-24023.723,18453.328
1223628.9641091388,-61949.707,-76060.23,-22786.256,-17667.277,-22147.666,-11715.454,-24017.783,18456.584
1223628.968109134,-61956.75,-76055.55,-22782.756,-17664.348,-22137.818,-11708.374,-24012.492,18447.145
1223628.9721091292,-61965.7,-76056.16,-22784.873,-17664.062,-22140.137,-11710.653,-24016.48,18434.57
1223628.9761091243,-61963.38,-76058.35,-22787.314,-17664.47,-22149.252,-11719.849,-24024.008,18430.543
1223628.9801091193,-61949.098,-76059.05,-22786.418,-17663.982,-22152.67,-11723.267,-24024.13,18448.324
1223628.9841091146,-61944.824,-76056.36,-22781.291,-17665.73,-22149.537,-11716.064,-24015.057,18461.02
1223628.9881091097,-61949.098,-76053.76,-22776.734,-17667.156,-22145.469,-11707.927,-24010.174,18451.742
1223628.9921091048,-61955.566,-76055.79,-22779.46,-17668.824,-22150.84,-11709.473,-24013.795,18440.715
1223628.9961091,-61961.957,-76065.72,-22790.04,-17671.795,-22160.28,-11719.6045,-24023.398,18438.762
1223629.0001090951,-61956.87,-76072.06,-22792.807,-17671.55,-22160.564,-11722.656,-24027.588,18452.922
1223629.0041090902,-61955.12,-76068.97,-22787.232,-17670.045,-22151.652,-11715.129,-24019.695,18462.078
1223629.0081090855,-61963.22,-76062.38,-22782.756,-17669.88,-22144.492,-11708.659,-24012.412,18454.957
1223629.0121090806,-61969.89,-76062.09,-22785.645,-17671.754,-22147.787,-11713.501,-24017.822,18439.25
1223629.0161090759,-61969.688,-76068.81,-22793.945,-17673.666,-22155.885,-11723.999,-24029.258,18433.35
1223629.020109071,-61958.254,-76069.38,-22795.98,-17672.078,-22153.443,-11727.051,-24032.553,18448.854
1223629.024109066,-61948.977,-76063.93,-22786.297,-17666.83,-22143.84,-11717.001,-24024.008,18461.549
1223629.0281090613,-61953.168,-76060.06,-22778.77,-17664.674,-22140.463,-11708.252,-24012.94,18454.875
1223629.0321090564,-61961.957,-76061.08,-22780.723,-17666.586,-22141.48,-11711.06,-24015.26,18443.97
1223629.0361090514,-61962.934,-76068.52,-22787.559,-17668.742,-22151.45,-11722.25,-24025.635,18443.848
1223629.0401090467,-61953.492,-76071.58,-22789.062,-17668.416,-22153.564,-11725.424,-24024.375,18461.508
1223629.0441090418,-61945.312,-76063.31,-22784.059,-17666.3,-22141.277,-11715.698,-24014.242,18463.95
1223629.048109037,-61952.19,-76058.31,-22780.396,-17665.527,-22129.477,-11706.909,-24004.273,18457.56
1223629.0521090322,-61965.58,-76065.43,-22783.652,-17669.637,-22137.615,-11709.066,-24005.615,18446.9
1223629.0561090272,-61966.84,-76073.04,-22789.062,-17670.98,-22149.943,-11717.773,-24011.395,18452.027
1223629.0601090225,-61962.12,-76079.76,-22793.457,-17672.404,-22157.188,-11721.924,-24013.266,18468.832
1223629.0641090176,-61959.555,-76078.86,-22789.268,-17671.672,-22152.385,-11716.146,-24007.854,18471.762
1223629.0681090127,-61962.812,-76072.35,-22782.959,-17670.125,-22146.934,-11709.106,-24000.896,18466.756
1223629.072109008,-61971.113,-76076.42,-22786.094,-17671.834,-22148.154,-11712.932,-24005.82,18452.596
1223629.076109003,-61975.87,-76083.336,-22794.842,-17673.178,-22155.803,-11721.924,-24014.201,18452.19
1223629.080108998,-61971.4,-76087.24,-22798.057,-17673.38,-22157.512,-11724.528,-24016.48,18464.682
1223629.0841089934,-61970.95,-76086.1,-22794.027,-17672.16,-22150.555,-11717.489,-24010.662,18469.605
1223629.0881089885,-61972.7,-76082.6,-22786.582,-17672.527,-22143.596,-11710.612,-24005.412,18462.566
1223629.0921089838,-61977.215,-76083.375,-22788.86,-17673.178,-22147.258,-11716.757,-24012.94,18442.018
1223629.0961089788,-61978.598,-76090.375,-22798.707,-17673.992,-22156.7,-11727.783,-24024.578,18441.691
1223629.100108974,-61972.13,-76091.555,-22800.701,-17673.543,-22158.164,-11730.917,-24028.076,18453.94
1223629.1041089692,-61970.99,-76087.484,-22796.51,-17672.078,-22150.025,-11721.477,-24018.678,18459.96
1223629.1081089643,-61976.484,-76079.836,-22792.115,-17672.607,-22145.428,-11712.6875,-24009.36,18461.508
1223629.1121089594,-61981.773,-76079.63,-22794.354,-17672.404,-22146.078,-11714.03,-24009.36,18458.578
1223629.1161089547,-61981.04,-76087.0,-22797.527,-17673.504,-22156.738,-11724.854,-24020.672,18450.033
1223629.1201089497,-61968.547,-76087.0,-22795.33,-17672.566,-22157.309,-11727.702,-24021.69,18463.014
1223629.124108945,-61959.19,-76082.44,-22786.418,-17670.166,-22147.87,-11718.018,-24007.285,18474.854
1223629.12810894,-61966.23,-76078.375,-22780.234,-17670.492,-22140.057,-11709.473,-23999.756,18471.803
1223629.1321089352,-61979.74,-76084.07,-22784.1,-17673.219,-22147.299,-11715.576,-24007.488,18459.717
1223629.1361089305,-61985.516,-76093.586,-22793.418,-17674.928,-22155.03,-11726.156,-24017.254,18454.428
1223629.1401089255,-61978.312,-76095.79,-22794.475,-17673.422,-22153.564,-11726.848,-24014.365,18479.127
1223629.1441089206,-61975.465,-76091.68,-22787.518,-17671.021,-22147.666,-11717.489,-24002.238,18488.934
1223629.148108916,-61982.832,-76090.945,-22785.523,-17671.916,-22146.24,-11711.833,-23996.623,18483.48
1223629.152108911,-61991.008,-76092.29,-22789.674,-17674.969,-22153.77,-11716.675,-24001.832,18477.621
1223629.1561089063,-61988.77,-76093.51,-22792.156,-17675.252,-22164.104,-11724.976,-24011.23,18478.271
1223629.1601089013,-61977.418,-76093.23,-22790.203,-17672.445,-22166.22,-11729.94,-24014.201,18484.416
1223629.1641088964,-61974.652,-76090.87,-22784.262,-17668.54,-22155.518,-11723.918,-24006.186,18484.498
1223629.1681088917,-61982.79,-76088.55,-22781.494,-17667.48,-22148.926,-11720.5,-24006.268,18465.943
1223629.1721088868,-61990.52,-76088.625,-22785.686,-17666.504,-22150.514,-11724.528,-24018.596,18446.736
1223629.1761088818,-61991.21,-76096.48,-22795.045,-17670.37,-22162.11,-11735.189,-24032.064,18446.371
1223629.1801088771,-61985.273,-76098.8,-22798.707,-17672.201,-22165.08,-11738.525,-24033.408,18462.605
1223629.1841088722,-61980.836,-76091.68,-22793.05,-17671.795,-22156.291,-11731.201,-24023.193,18468.588
1223629.1881088673,-61987.55,-76087.57,-22787.518,-17675.213,-22152.14,-11724.609,-24017.62,18461.508
1223629.1921088626,-61998.254,-76091.48,-22791.83,-17677.084,-22159.629,-11727.824,-24023.072,18450.562
1223629.1961088576,-61997.152,-76097.17,-22798.91,-17676.758,-22165.365,-11737.061,-24030.6,18450.725
1223629.200108853,-61984.785,-76097.7,-22798.38,-17675.822,-22162.11,-11739.868,-24029.541,18465.74
1223629.204108848,-61980.633,-76092.29,-22792.48,-17672.486,-22153.646,-11732.138,-24021.445,18469.28
1223629.208108843,-61984.906,-76086.02,-22788.697,-17672.363,-22147.258,-11727.905,-24015.666,18461.752
1223629.2121088384,-61989.016,-76088.42,-22787.72,-17673.422,-22154.379,-11732.829,-24022.096,18449.627
1223629.2161088334,-61984.703,-76099.0,-22790.771,-17676.473,-22166.627,-11741.984,-24031.902,18451.254
1223629.2201088285,-61974.938,-76097.086,-22789.55,-17676.229,-22166.504,-11743.408,-24031.535,18468.262
1223629.2241088238,-61966.188,-76086.19,-22779.217,-17671.957,-22155.355,-11732.463,-24019.736,18478.11
1223629.2281088189,-61972.656,-76081.79,-22774.537,-17671.875,-22145.752,-11724.284,-24013.348,18473.756
1223629.2321088142,-61983.24,-76087.57,-22779.867,-17674.44,-22151.855,-11727.946,-24018.19,18459.393
1223629.2361088092,-61984.5,-76099.66,-22789.674,-17677.37,-22161.947,-11739.624,-24027.67,18461.834
1223629.2401088043,-61980.47,-76103.03,-22794.354,-17678.914,-22166.18,-11744.629,-24030.723,18476.318
1223629.2441087996,-61976.77,-76096.03,-22788.615,-17677.654,-22159.1,-11736.288,-24019.572,18483.44
1223629.2481087947,-61978.312,-76086.39,-22781.617,-17677.166,-22155.438,-11729.208,-24009.197,18479.248
1223629.2521087897,-61988.977,-76090.78,-22786.826,-17681.355,-22160.93,-11733.154,-24012.004,18475.465
1223629.256108785,-61991.58,-76099.81,-22792.318,-17681.885,-22161.865,-11738.77,-24021.852,18473.309
1223629.26010878,-61984.99,-76101.97,-22792.156,-17679.729,-22162.03,-11740.275,-24025.229,18477.377
1223629.2641087752,-61981.0,-76094.28,-22785.727,-17677.979,-22149.74,-11731.527,-24017.09,18484.01
1223629.2681087705,-61982.26,-76085.77,-22778.361,-17676.434,-22144.004,-11724.162,-24010.459,18476.074
1223629.2721087656,-61984.54,-76084.35,-22778.24,-17678.549,-22150.758,-11727.702,-24011.639,18471.6
1223629.2761087609,-61982.42,-76090.05,-22783.652,-17678.549,-22159.912,-11736.613,-24015.87,18486.654
1223629.280108756,-61979.332,-76093.43,-22788.574,-17678.102,-22161.215,-11738.566,-24013.307,18505.78
1223629.284108751,-61975.996,-76089.32,-22783.285,-17676.84,-22150.635,-11728.679,-24003.174,18509.441
1223629.2881087463,-61981.04,-76086.1,-22779.297,-17674.928,-22142.945,-11722.046,-23996.95,18499.594
1223629.2921087414,-61991.863,-76090.62,-22780.803,-17675.62,-22148.398,-11727.905,-24004.844,18482.992
1223629.2961087364,-61995.89,-76099.57,-22786.215,-17677.287,-22157.268,-11736.491,-24015.057,18485.434
1223629.3001087317,-61985.11,-76099.29,-22786.215,-17676.96,-22158.896,-11734.945,-24011.475,18504.518
1223629.3041087268,-61975.426,-76090.13,-22778.973,-17672.69,-22150.432,-11725.139,-24000.082,18511.11
1223629.308108722,-61984.17,-76090.58,-22778.32,-17673.016,-22147.91,-11721.64,-23998.332,18502.686
1223629.3121087172,-61994.184,-76098.92,-22782.756,-17673.219,-22150.514,-11726.44,-24007.203,18489.096
1223629.3161087122,-61992.27,-76106.445,-22787.07,-17671.998,-22156.332,-11737.834,-24018.88,18481.283
1223629.3201087075,-61985.23,-76107.42,-22787.924,-17668.172,-22155.193,-11739.136,-24019.084,18493.734
1223629.3241087026,-61989.22,-76108.56,-22783.041,-17667.889,-22149.537,-11730.754,-24014.445,18494.508
1223629.3281086977,-62001.59,-76112.836,-22778.605,-17671.184,-22152.223,-11725.546,-24014.365,18480.021
1223629.332108693,-62011.76,-76122.93,-22782.959,-17674.805,-22162.803,-11730.307,-24022.096,18465.82
1223629.336108688,-62015.992,-76136.64,-22794.8,-17678.996,-22173.625,-11740.194,-24031.373,18469.197
1223629.3401086833,-62009.117,-76142.01,-22799.521,-17679.2,-22177.002,-11740.356,-24030.64,18483.807
1223629.3441086784,-62006.797,-76137.695,-22794.639,-17677.898,-22169.557,-11731.201,-24024.62,18484.701
1223629.3481086735,-62016.6,-76132.86,-22790.771,-17678.182,-22165.08,-11725.749,-24020.875,18473.553
1223629.3521086688,-62032.27,-76139.28,-22796.713,-17680.379,-22171.754,-11733.643,-24029.826,18457.805
1223629.3561086638,-62035.402,-76146.32,-22803.549,-17682.049,-22182.049,-11747.111,-24043.498,18454.957
1223629.360108659,-62026.734,-76148.36,-22802.207,-17682.129,-22183.105,-11748.901,-24043.986,18473.43
1223629.3641086542,-62026.246,-76145.305,-22799.56,-17683.35,-22175.537,-11740.642,-24037.72,18473.959
1223629.3681086493,-62034.465,-76144.086,-22796.266,-17684.367,-22170.004,-11732.463,-24030.193,18472.576
1223629.3721086443,-62041.71,-76149.82,-22799.725,-17688.191,-22178.71,-11736.084,-24034.1,18462.281
1223629.3761086396,-62036.582,-76152.34,-22805.055,-17688.314,-22184.611,-11743.896,-24041.3,18461.264
1223629.3801086347,-62026.246,-76152.836,-22806.764,-17685.71,-22181.967,-11746.704,-24043.418,18470.988
1223629.38410863,-62024.78,-76146.24,-22803.63,-17684.367,-22170.695,-11737.915,-24035.197,18475.139
1223629.388108625,-62027.875,-76139.0,-22796.387,-17682.129,-22162.639,-11729.94,-24027.344,18468.994
1223629.3921086201,-62034.996,-76145.19,-22797.568,-17684.164,-22169.312,-11735.434,-24032.959,18452.922
1223629.3961086154,-62036.906,-76155.27,-22805.99,-17687.012,-22178.59,-11744.955,-24044.842,18449.83
1223629.4001086105,-62027.59,-76151.62,-22805.543,-17683.146,-22178.508,-11747.07,-24047.201,18463.299
1223629.4041086056,-62022.055,-76143.96,-22797.527,-17679.525,-22169.557,-11737.061,-24034.994,18477.54
1223629.4081086009,-62028.81,-76141.73,-22794.354,-17678.508,-22160.28,-11727.905,-24025.96,18473.023
1223629.412108596,-62034.465,-76143.39,-22799.602,-17682.17,-22165.527,-11734.05,-24030.234,18463.055
1223629.4161085912,-62028.934,-76145.305,-22805.258,-17681.764,-22173.219,-11744.833,-24035.076,18469.482
1223629.4201085863,-62015.3,-76142.945,-22802.94,-17678.59,-22170.41,-11744.995,-24030.926,18488.77
1223629.4241085814,-62007.734,-76132.61,-22797.08,-17674.969,-22158.732,-11737.427,-24023.072,18496.338
1223629.4281085767,-62010.336,-76125.25,-22792.93,-17671.672,-22151.531,-11730.347,-24011.639,18496.379
1223629.4321085718,-62016.645,-76127.08,-22795.86,-17674.805,-22158.53,-11735.881,-24018.271,18480.836
1223629.4361085668,-62013.31,-76133.34,-22798.463,-17676.434,-22166.668,-11745.932,-24029.502,18477.824
1223629.4401085621,-62002.484,-76131.63,-22794.639,-17671.266,-22162.842,-11745.85,-24025.31,18495.85
1223629.4441085572,-61996.867,-76122.4,-22786.744,-17668.457,-22153.2,-11734.985,-24010.986,18510.092
1223629.4481085523,-61999.27,-76117.15,-22783.164,-17667.889,-22152.588,-11730.0625,-24007.324,18499.39
1223629.4521085476,-62004.03,-76116.91,-22786.5,-17668.824,-22156.7,-11736.776,-24017.701,18485.027
1223629.4561085426,-62004.355,-76119.875,-22796.51,-17672.201,-22163.697,-11746.298,-24028.77,18485.84
1223629.460108538,-62000.773,-76123.7,-22801.107,-17673.625,-22165.283,-11746.298,-24028.281,18493.002
1223629.464108533,-62001.184,-76122.48,-22796.021,-17673.178,-22161.256,-11737.224,-24019.328,18495.89
1223629.468108528,-62006.348,-76119.63,-22790.854,-17671.59,-22157.268,-11731.039,-24013.428,18489.014
1223629.4721085234,-62016.727,-76125.57,-22793.418,-17674.398,-22162.314,-11735.474,-24019.451,18472.86
1223629.4761085184,-62016.156,-76132.734,-22798.625,-17676.107,-22173.666,-11742.31,-24026.775,18475.709
1223629.4801085135,-62011.152,-76136.4,-22799.766,-17678.387,-22176.148,-11742.1875,-24026.693,18493.734
1223629.4841085088,-62008.18,-76133.016,-22794.434,-17679.688,-22169.354,-11734.66,-24016.887,18503.377
1223629.4881085039,-62016.93,-76135.336,-22792.36,-17680.664,-22164.55,-11730.51,-24012.451,18495.729
1223629.4921084992,-62026.53,-76142.055,-22799.357,-17681.885,-22168.54,-11737.549,-24024.008,18475.709
1223629.4961084942,-62027.47,-76148.12,-22807.008,-17684.041,-22178.508,-11748.657,-24039.592,18463.787
1223629.5001084893,-62020.996,-76152.55,-22806.234,-17683.229,-22175.537,-11749.756,-24038.738,18476.766
1223629.5041084846,-62019.695,-76151.98,-22799.48,-17682.21,-22171.875,-11741.618,-24030.111,18486.125
1223629.5081084797,-62027.387,-76147.51,-22795.086,-17680.502,-22166.79,-11734.375,-24022.38,18483.033
1223629.5121084747,-62034.668,-76152.71,-22798.178,-17683.838,-22173.91,-11739.055,-24024.414,18479.248
1223629.51610847,-62032.31,-76158.29,-22802.166,-17684.773,-22180.176,-11746.664,-24028.281,18482.504
1223629.520108465,-62019.492,-76159.305,-22799.766,-17683.514,-22179.607,-11747.519,-24026.123,18500.285
1223629.5241084604,-62018.066,-76156.45,-22794.516,-17681.111,-22169.719,-11740.072,-24013.672,18509.969
1223629.5281084555,-62027.754,-76156.86,-22789.307,-17681.396,-22166.098,-11734.863,-24010.377,18500.408
1223629.5321084505,-62037.316,-76159.79,-22790.732,-17680.828,-22168.945,-11741.903,-24019.816,18487.428
1223629.5361084458,-62039.43,-76163.66,-22797.12,-17681.64,-22176.596,-11753.337,-24032.715,18482.79
1223629.540108441,-62029.746,-76161.99,-22798.748,-17679.932,-22178.508,-11756.104,-24033.041,18497.762
1223629.544108436,-62021.28,-76152.23,-22791.627,-17675.537,-22168.254,-11745.565,-24021.484,18506.348
1223629.5481084313,-62022.87,-76142.625,-22785.727,-17674.44,-22162.559,-11739.746,-24014.61,18499.47
1223629.5521084263,-62026.33,-76141.93,-22787.518,-17675.13,-22164.348,-11743.042,-24016.725,18495.281
1223629.5561084214,-62029.176,-76151.05,-22793.418,-17678.752,-22173.26,-11752.197,-24024.74,18493.816
1223629.5601084167,-62025.312,-76157.555,-22794.883,-17678.549,-22176.352,-11752.686,-24027.182,18501.75
1223629.5641084118,-62025.39,-76154.016,-22787.559,-17676.025,-22168.295,-11744.182,-24022.014,18501.18
1223629.568108407,-62033.57,-76149.664,-22782.023,-17673.707,-22161.338,-11740.601,-24020.469,18486.451
1223629.5721084021,-62044.76,-76152.51,-22789.674,-17676.393,-22168.213,-11748.983,-24030.844,18469.076
1223629.5761083972,-62042.117,-76157.63,-22796.795,-17677.979,-22177.775,-11759.521,-24037.518,18476.197
1223629.5801083925,-62025.39,-76156.5,-22794.922,-17676.27,-22175.986,-11759.807,-24030.64,18502.93
1223629.5841083876,-62015.098,-76146.28,-22787.11,-17673.748,-22162.72,-11746.704,-24014.73,18517.578
1223629.5881083827,-62020.918,-76143.39,-22780.682,-17672.893,-22160.727,-11738.7295,-24005.86,18507.936
1223629.592108378,-62032.023,-76151.2,-22783.041,-17674.44,-22166.709,-11745.28,-24015.38,18493.123
1223629.596108373,-62035.363,-76162.195,-22786.338,-17673.422,-22171.062,-11753.337,-24026.572,18486.287
1223629.6001083683,-62026.734,-76164.516,-22784.791,-17670.207,-22170.94,-11756.43,-24029.014,18496.541
1223629.6041083634,-62021.934,-76159.305,-22778.605,-17668.54,-22162.314,-11750.326,-24020.549,18505.818
1223629.6081083585,-62026.613,-76157.02,-22774.74,-17667.48,-22156.658,-11743.9375,-24011.475,18500.936
1223629.6121083538,-62030.6,-76158.0,-22778.77,-17670.574,-22165.406,-11749.35,-24015.79,18493.287
1223629.6161083488,-62029.297,-76162.16,-22782.838,-17672.527,-22173.545,-11756.43,-24022.38,18503.988
1223629.620108344,-62018.72,-76157.516,-22781.291,-17671.795,-22170.533,-11755.249,-24019.816,18522.787
1223629.6241083392,-62015.098,-76150.8,-22775.596,-17670.777,-22153.525,-11746.176,-24009.97,18523.967
1223629.6281083343,-62024.336,-76148.89,-22774.7,-17672.566,-22148.723,-11740.683,-24006.145,18513.672
1223629.6321083293,-62031.17,-76154.09,-22776.816,-17673.422,-22156.21,-11746.704,-24012.371,18505.291
1223629.6361083246,-62027.55,-76158.04,-22779.623,-17671.795,-22161.582,-11754.965,-24018.76,18508.3
1223629.6401083197,-62018.35,-76156.5,-22776.775,-17669.842,-22164.756,-11755.412,-24018.799,18521.24
1223629.644108315,-62015.832,-76155.03,-22768.678,-17670.41,-22162.436,-11745.565,-24008.465,18526.408
1223629.64810831,-62027.062,-76153.0,-22764.527,-17672.771,-22159.465,-11740.683,-24005.982,18516.357
1223629.6521083051,-62034.26,-76157.72,-22770.06,-17674.805,-22166.586,-11749.309,-24016.807,18504.191
1223629.6561083004,-62030.6,-76162.195,-22774.62,-17674.969,-22174.316,-11756.552,-24023.193,18509.033
1223629.6601082955,-62022.46,-76162.36,-22774.822,-17672.73,-22170.777,-11753.825,-24020.672,18520.834
1223629.6641082906,-62017.785,-76154.79,-22768.719,-17667.684,-22155.152,-11747.152,-24016.48,18518.963
1223629.6681082859,-62022.87,-76153.28,-22763.836,-17665.283,-22149.008,-11742.839,-24012.9,18514.568
1223629.672108281,-62028.65,-76159.1,-22764.893,-17666.707,-22158.488,-11748.82,-24019.857,18507.732
1223629.6761082762,-62023.766,-76162.805,-22766.398,-17666.463,-22163.535,-11758.261,-24027.873,18513.021
1223629.6801082713,-62015.22,-76166.22,-22765.545,-17666.83,-22165.771,-11760.214,-24028.24,18524.902
1223629.6841082664,-62017.58,-76161.13,-22757.406,-17664.795,-22161.133,-11749.553,-24017.13,18531.414
1223629.6881082617,-62028.28,-76158.57,-22754.273,-17662.72,-22155.07,-11744.629,-24013.428,18525.229
1223629.6921082567,-62033.69,-76162.88,-22756.959,-17662.883,-22161.418,-11751.343,-24023.398,18504.273
1223629.6961082518,-62029.746,-76169.88,-22759.033,-17662.436,-22167.969,-11759.848,-24033.611,18502.809
1223629.700108247,-62018.598,-76166.71,-22754.15,-17659.627,-22165.203,-11759.5625,-24032.39,18521.2
1223629.7041082422,-62016.81,-76161.09,-22748.047,-17659.139,-22158.447,-11749.431,-24024.496,18528.2
1223629.7081082372,-62024.7,-76160.36,-22743.979,-17660.197,-22154.379,-11743.652,-24021.363,18521.932
1223629.7121082325,-62030.56,-76162.6,-22746.543,-17661.297,-22161.012,-11750.122,-24027.793,18510.377
1223629.7161082276,-62033.33,-76172.484,-22755.697,-17662.72,-22172.404,-11757.121,-24034.424,18512.898
1223629.720108223,-62027.59,-76176.39,-22758.18,-17664.55,-22174.154,-11755.534,-24032.227,18523.926
1223629.724108218,-62024.902,-76170.21,-22751.588,-17665.162,-22166.586,-11745.6875,-24020.793,18532.43
1223629.728108213,-62028.08,-76162.97,-22742.676,-17664.51,-22162.965,-11738.037,-24011.598,18530.232
1223629.7321082084,-62037.355,-76166.14,-22747.926,-17666.912,-22168.254,-11744.995,-24017.54,18516.928
1223629.7361082034,-62039.758,-76174.89,-22754.883,-17669.11,-22176.799,-11753.906,-24028.484,18509.441
1223629.7401081985,-62036.094,-76181.195,-22757.895,-17670.166,-22181.316,-11754.599,-24029.867,18520.549
1223629.7441081938,-62033.57,-76178.96,-22752.605,-17669.271,-22173.992,-11748.251,-24027.264,18512.492
1223629.7481081889,-62039.96,-76177.86,-22747.07,-17667.684,-22169.963,-11742.1875,-24021.69,18510.906
1223629.7521081842,-62046.348,-76180.99,-22749.594,-17669.23,-22179.078,-11745.646,-24025.31,18502.441
1223629.7561081792,-62042.156,-76182.13,-22752.686,-17669.557,-22183.92,-11755.331,-24031.658,18503.012
1223629.7601081743,-62034.305,-76179.65,-22751.1,-17667.928,-22181.56,-11757.121,-24031.535,18511.842
1223629.7641081696,-62036.34,-76179.28,-22746.623,-17666.26,-22173.016,-11747.314,-24022.828,18514.648
1223629.7681081647,-62042.605,-76177.734,-22740.684,-17664.918,-22165.812,-11742.514,-24021.729,18502.156
1223629.7721081597,-62048.91,-76179.85,-22740.154,-17664.836,-22170.94,-11746.745,-24029.664,18491.578
1223629.776108155,-62048.465,-76186.445,-22743.084,-17665.936,-22180.95,-11756.836,-24040.771,18496.053
1223629.78010815,-62035.566,-76181.69,-22740.56,-17663.127,-22181.316,-11759.074,-24041.383,18509.074
1223629.7841081454,-62031.13,-76175.5,-22732.26,-17659.791,-22171.469,-11749.919,-24031.21,18514.445
1223629.7881081405,-62031.332,-76167.56,-22723.877,-17656.494,-22162.477,-11744.711,-24023.887,18513.51
1223629.7921081355,-62032.35,-76166.71,-22723.512,-17656.535,-22165.812,-11750.082,-24027.914,18503.744
1223629.7961081308,-62032.15,-76175.375,-22729.29,-17659.588,-22175.334,-11759.074,-24036.5,18504.07
1223629.800108126,-62026.125,-76176.07,-22727.336,-17659.18,-22176.148,-11761.068,-24033.53,18524.17
1223629.804108121,-62022.79,-76168.17,-22721.152,-17656.535,-22164.633,-11753.581,-24023.52,18528.932
1223629.8081081163,-62032.35,-76166.1,-22718.955,-17658.447,-22160.32,-11747.681,-24017.783,18521.037
1223629.8121081113,-62045.86,-76171.23,-22725.75,-17663.33,-22169.23,-11754.191,-24024.049,18515.219
1223629.8161081064,-62044.72,-76176.72,-22731.08,-17665.486,-22178.184,-11766.195,-24035.32,18520.06
1223629.8201081017,-62036.01,-76178.96,-22728.8,-17663.941,-22178.59,-11765.178,-24034.059,18536.336
1223629.8241080968,-62030.926,-76174.69,-22722.129,-17663.006,-22169.639,-11755.859,-24026.855,18528.117
1223629.828108092,-62039.023,-76171.63,-22717.814,-17662.03,-22161.621,-11747.152,-24019.94,18520.875
1223629.8321080871,-62052.695,-76181.32,-22720.623,-17664.633,-22169.271,-11749.512,-24023.479,18516.398
1223629.8361080822,-62050.457,-76188.4,-22724.732,-17666.504,-22179.2,-11759.929,-24033.814,18514.812
1223629.8401080775,-62039.227,-76185.67,-22720.703,-17664.348,-22177.043,-11761.638,-24033.164,18533.406
1223629.8441080726,-62038.74,-76184.05,-22713.502,-17663.33,-22169.354,-11752.197,-24026.164,18538.29
1223629.8481080676,-62049.24,-76186.28,-22712.2,-17664.348,-22166.342,-11747.152,-24027.873,18521.16
1223629.852108063,-62058.27,-76191.9,-22717.367,-17667.521,-22175.66,-11755.656,-24038.168,18507.244
1223629.856108058,-62056.848,-76195.31,-22721.03,-17668.254,-22186.85,-11765.341,-24047.934,18504.842
1223629.8601080533,-62045.453,-76191.86,-22719.768,-17665.854,-22185.791,-11763.754,-24045.574,18513.104
1223629.8641080484,-62043.05,-76187.18,-22713.217,-17662.15,-22169.475,-11752.157,-24030.355,18527.791
1223629.8681080434,-62048.42,-76184.37,-22710.328,-17662.639,-22169.76,-11746.704,-24022.299,18522.664
1223629.8721080387,-62055.22,-76186.57,-22712.81,-17663.453,-22177.043,-11753.134,-24028.688,18506.43
1223629.8761080338,-62056.52,-76196.25,-22715.373,-17663.453,-22182.455,-11760.132,-24035.28,18505.9
1223629.8801080289,-62048.016,-76198.08,-22710.693,-17662.965,-22184.002,-11759.033,-24033.773,18521.688
1223629.8841080242,-62044.516,-76192.266,-22702.027,-17660.686,-22177.654,-11748.169,-24023.887,18526.287
1223629.8881080193,-62054.688,-76189.82,-22697.715,-17660.809,-22172.08,-11742.514,-24017.863,18523.479
1223629.8921080143,-62063.887,-76192.67,-22703.695,-17663.494,-22178.467,-11750.57,-24025.84,18519.084
1223629.8961080096,-62065.96,-76197.67,-22712.24,-17666.139,-22189.453,-11761.108,-24035.035,18525.96
1223629.9001080047,-62060.71,-76199.586,-22714.52,-17665.283,-22186.32,-11761.271,-24032.064,18541.139
1223629.904108,-62061.117,-76191.81,-22711.63,-17665.283,-22175.66,-11751.791,-24021.484,18542.725
1223629.908107995,-62076.254,-76196.984,-22712.81,-17666.79,-22174.887,-11745.28,-24014.73,18539.389
1223629.9121079901,-62076.703,-76192.99,-22715.455,-17666.504,-22175.172,-11753.784,-24029.053,18517.701
1223629.9161079854,-62060.14,-76188.234,-22717.246,-17664.674,-22176.107,-11761.882,-24039.592,18512.248
1223629.9201079805,-62063.64,-76202.234,-22718.385,-17667.277,-22183.879,-11761.3125,-24036.541,18529.95
1223629.9241079756,-62059.53,-76197.19,-22711.426,-17665.242,-22178.102,-11753.906,-24031.455,18533.041
1223629.9281079709,-62062.746,-76193.41,-22707.805,-17664.186,-22172.812,-11750.244,-24029.42,18522.625
1223629.932107966,-62069.664,-76196.86,-22711.875,-17665.65,-22177.084,-11756.348,-24037.07,18503.988
1223629.9361079612,-62066.977,-76202.07,-22719.809,-17666.992,-22183.92,-11767.66,-24046.104,18503.459
1223629.9401079563,-62061.85,-76206.914,-22719.361,-17665.486,-22182.334,-11769.165,-24043.945,18516.154
1223629.9441079514,-62062.664,-76205.0,-22713.664,-17664.633,-22175.375,-11759.115,-24031.535,18521.281
1223629.9481079467,-62070.19,-76200.445,-22709.393,-17664.674,-22175.822,-11753.337,-24028.932,18516.44
1223629.9521079417,-62071.168,-76199.42,-22709.717,-17665.527,-22178.834,-11758.383,-24034.912,18513.307
1223629.9561079368,-62067.75,-76206.34,-22712.12,-17667.277,-22186.605,-11767.456,-24044.639,18512.98
1223629.960107932,-62058.758,-76203.05,-22710.49,-17666.79,-22187.338,-11769.857,-24044.678,18524.861
1223629.9641079272,-62057.66,-76194.336,-22705.81,-17663.738,-22176.88,-11761.597,-24034.018,18532.39
1223629.9681079225,-62064.25,-76193.195,-22703.207,-17663.9,-22175.334,-11758.627,-24031.455,18527.426
1223629.9721079175,-62066.773,-76197.23,-22705.363,-17664.918,-22187.582,-11765.585,-24039.43,18519.002
1223629.9761079126,-62063.64,-76201.7,-22708.984,-17664.55,-22190.146,-11772.665,-24044.557,18520.996
1223629.980107908,-62056.438,-76200.65,-22707.887,-17664.307,-22186.768,-11772.217,-24038.982,18540.691
1223629.984107903,-62053.266,-76193.97,-22702.516,-17665.242,-22175.986,-11763.062,-24030.03,18545.94
1223629.988107898,-62059.98,-76189.25,-22699.83,-17666.912,-22172.08,-11758.871,-24024.902,18532.023
1223629.9921078933,-62062.746,-76190.48,-22700.645,-17666.3,-22174.154,-11765.3,-24028.158,18531.088
1223629.9961078884,-62055.22,-76192.71,-22700.645,-17662.354,-22177.246,-11772.543,-24033.285,18539.795
1223630.0001078835,-62044.72,-76192.63,-22696.533,-17661.297,-22177.654,-11772.827,-24028.2,18553.834
1223630.0041078788,-62041.098,-76188.4,-22688.559,-17659.1,-22167.4,-11762.939,-24018.963,18561.85
1223630.0081078738,-62049.035,-76186.32,-22684.164,-17659.627,-22163.86,-11758.22,-24015.26,18555.867
1223630.0121078691,-62055.95,-76188.07,-22689.535,-17661.256,-22168.945,-11765.707,-24024.13,18544.354
1223630.0161078642,-62051.19,-76192.79,-22696.818,-17662.477,-22177.41,-11775.269,-24036.297,18539.918
1223630.0201078593,-62043.5,-76194.42,-22697.715,-17663.045,-22177.37,-11775.1875,-24034.059,18555.664
1223630.0241078546,-62041.953,-76187.79,-22691.326,-17661.621,-22164.715,-11764.608,-24022.46,18567.22
1223630.0281078496,-62048.547,-76182.05,-22685.629,-17659.344,-22161.541,-11759.399,-24017.742,18555.584
1223630.0321078447,-62055.707,-76185.67,-22687.053,-17659.709,-22167.604,-11763.632,-24021.648,18550.008
1223630.03610784,-62054.28,-76192.34,-22691.285,-17661.5,-22176.475,-11769.694,-24026.205,18559.285
1223630.040107835,-62046.594,-76195.84,-22690.594,-17662.191,-22177.084,-11768.148,-24021.648,18576.375
1223630.0441078304,-62047.285,-76194.09,-22685.1,-17661.58,-22169.557,-11759.115,-24013.469,18576.01
1223630.0481078255,-62054.812,-76191.86,-22682.21,-17660.686,-22165.203,-11753.459,-24008.18,18572.43
1223630.0521078205,-62057.457,-76199.1,-22683.31,-17660.686,-22169.922,-11758.871,-24013.389,18567.465
1223630.0561078158,-62056.152,-76208.26,-22690.105,-17660.97,-22178.834,-11768.433,-24025.758,18559.082
1223630.060107811,-62048.79,-76204.836,-22692.627,-17657.756,-22178.467,-11769.247,-24025.92,18567.018
1223630.064107806,-62051.312,-76201.3,-22687.95,-17655.111,-22167.4,-11759.888,-24012.533,18573.812
1223630.0681078013,-62063.234,-76203.33,-22688.64,-17655.111,-22163.33,-11755.981,-24006.715,18569.865
1223630.0721077963,-62067.793,-76206.22,-22691.162,-17654.338,-22171.469,-11762.655,-24014.73,18556.355
1223630.0761077914,-62066.164,-76214.52,-22695.273,-17654.094,-22180.584,-11771.24,-24022.096,18552.816
1223630.0801077867,-62057.375,-76215.66,-22696.371,-17652.264,-22175.537,-11772.258,-24021.363,18565.674
1223630.0841077818,-62051.477,-76208.74,-22689.047,-17646.77,-22165.812,-11763.754,-24014.365,18570.232
1223630.088107777,-62057.293,-76204.39,-22684.979,-17644.49,-22161.703,-11760.254,-24013.795,18559.49
1223630.0921077721,-62064.617,-76211.266,-22690.918,-17647.664,-22169.76,-11766.724,-24021.852,18550.578
1223630.0961077672,-62061.85,-76216.68,-22696.574,-17648.152,-22177.451,-11775.065,-24029.379,18552.938
1223630.1001077625,-62057.375,-76219.89,-22699.057,-17646.566,-22179.607,-11776.489,-24030.07,18566.814
1223630.1041077576,-62059.816,-76221.766,-22695.15,-17647.34,-22176.596,-11768.555,-24027.02,18571.045
1223630.1081077526,-62066.53,-76220.46,-22692.303,-17647.46,-22172.648,-11764.079,-24022.87,18564.373
1223630.112107748,-62068.523,-76222.05,-22695.395,-17648.52,-22176.555,-11771.403,-24026.979,18552.693
1223630.116107743,-62068.24,-76228.195,-22700.36,-17647.38,-22181.764,-11780.559,-24032.227,18555.908
1223630.1201077383,-62065.88,-76228.44,-22698.854,-17646.12,-22181.438,-11782.1045,-24033.652,18565.959
1223630.1241077334,-62064.863,-76221.07,-22691.936,-17644.531,-22173.504,-11774.333,-24027.832,18565.715
1223630.1281077284,-62069.38,-76217.41,-22689.658,-17644.287,-22169.678,-11767.375,-24021.525,18559.123
1223630.1321077237,-62074.22,-76219.32,-22695.15,-17645.834,-22177.775,-11773.967,-24027.955,18554.852
1223630.1361077188,-62071.7,-76224.9,-22698.447,-17647.096,-22186.361,-11782.1455,-24034.912,18558.717
1223630.1401077139,-62060.996,-76224.81,-22696.29,-17647.055,-22186.443,-11781.698,-24028.525,18570.8
1223630.1441077092,-62055.746,-76219.65,-22692.506,-17647.137,-22175.13,-11772.909,-24018.637,18581.463
1223630.1481077042,-62065.758,-76216.68,-22691.53,-17646.648,-22166.912,-11767.741,-24013.184,18573.162
1223630.1521076995,-62072.188,-76222.01,-22696.86,-17647.664,-22174.766,-11775.676,-24022.543,18561.727
1223630.1561076946,-62069.055,-76224.94,-22704.225,-17647.258,-22181.479,-11785.727,-24033.652,18560.71
1223630.1601076897,-62061.445,-76224.734,-22706.055,-17646.443,-22180.625,-11785.156,-24032.227,18571.697
1223630.164107685,-62057.66,-76217.66,-22699.748,-17643.555,-22172.283,-11774.333,-24019.451,18576.457
1223630.16810768,-62058.637,-76215.25,-22696.371,-17642.578,-22166.992,-11769.857,-24014.812,18577.84
1223630.172107675,-62060.914,-76217.98,-22697.918,-17642.822,-22173.707,-11776.083,-24022.625,18572.795
1223630.1761076704,-62060.793,-76224.53,-22705.242,-17645.916,-22185.832,-11785.278,-24029.582,18577.393
1223630.1801076655,-62055.83,-76224.61,-22706.38,-17646.322,-22183.514,-11784.831,-24027.264,18590.008
1223630.1841076605,-62051.23,-76215.91,-22699.871,-17644.002,-22171.672,-11776.611,-24021.24,18589.559
1223630.1881076558,-62057.863,-76216.68,-22696.33,-17642.66,-22162.598,-11773.275,-24021.607,18575.074
1223630.192107651,-62064.17,-76220.87,-22702.76,-17643.84,-22170.695,-11781.454,-24030.438,18561.117
1223630.1961076462,-62060.06,-76228.72,-22710.613,-17644.979,-22180.828,-11790.446,-24035.523,18571.574
1223630.2001076413,-62049.113,-76229.125,-22710.531,-17644.207,-22178.143,-11789.348,-24030.314,18587.85
1223630.2041076364,-62045.492,-76225.71,-22704.062,-17642.62,-22169.15,-11779.989,-24019.816,18588.217
1223630.2081076317,-62053.957,-76226.766,-22705.527,-17644.002,-22170.045,-11773.926,-24015.342,18580.975
1223630.2121076267,-62060.223,-76231.61,-22712.729,-17647.746,-22176.475,-11778.891,-24021.81,18570.312
1223630.2161076218,-62060.59,-76240.766,-22721.191,-17650.799,-22185.547,-11788.168,-24033.164,18568.197
1223630.220107617,-62057.54,-76243.98,-22722.941,-17650.146,-22183.066,-11789.958,-24032.838,18576.336
1223630.2241076122,-62054.527,-76237.836,-22715.373,-17646.729,-22171.795,-11778.036,-24020.59,18588.826
1223630.2281076075,-62056.64,-76231.04,-22707.928,-17646.363,-22165.936,-11770.468,-24011.027,18588.217
1223630.2321076025,-62059.734,-76232.67,-22710.693,-17648.152,-22174.846,-11777.385,-24017.742,18576.783
1223630.2361075976,-62064.047,-76241.54,-22718.467,-17650.717,-22185.914,-11787.436,-24026.043,18581.463
1223630.240107593,-62060.305,-76244.43,-22721.477,-17651.408,-22184.408,-11787.72,-24030.885,18589.031
1223630.244107588,-62056.48,-76234.13,-22713.379,-17647.828,-22172.486,-11779.175,-24026.002,18583.537
1223630.248107583,-62059.777,-76231.2,-22708.537,-17645.752,-22165.691,-11774.536,-24020.428,18581.38
1223630.2521075783,-62062.543,-76233.03,-22712.484,-17646.81,-22171.062,-11781.738,-24026.084,18579.51
1223630.2561075734,-62058.312,-76236.86,-22718.588,-17647.95,-22175.213,-11791.586,-24036.297,18580.486
1223630.2601075685,-62049.277,-76236.53,-22717.938,-17647.42,-22174.805,-11791.342,-24032.635,18596.924
1223630.2641075638,-62051.516,-76231.77,-22713.055,-17644.816,-22167.4,-11782.675,-24023.643,18596.6
1223630.2681075588,-62061.445,-76232.18,-22711.305,-17643.799,-22164.674,-11779.013,-24022.299,18580.607
1223630.2721075541,-62074.992,-76241.78,-22718.629,-17648.396,-22172.283,-11784.18,-24028.973,18570.639
1223630.2761075492,-62079.67,-76249.836,-22726.4,-17652.182,-22183.799,-11792.766,-24038.78,18577.475
1223630.2801075443,-62067.14,-76246.3,-22725.586,-17648.682,-22181.846,-11790.527,-24037.232,18589.64
1223630.2841075396,-62063.723,-76243.57,-22721.844,-17648.357,-22172.975,-11783.651,-24030.438,18591.309
1223630.2881075346,-62068.24,-76241.54,-22719.32,-17649.414,-22168.336,-11780.151,-24027.264,18586.59
1223630.2921075297,-62071.29,-76241.7,-22722.088,-17651.002,-22176.799,-11789.429,-24037.965,18567.059
1223630.296107525,-62066.164,-76244.34,-22727.295,-17650.758,-22179.648,-11798.991,-24044.963,18564.82
1223630.30010752,-62065.35,-76246.14,-22730.062,-17649.414,-22178.467,-11798.91,-24043.01,18577.637
1223630.3041075154,-62066.734,-76241.26,-22725.627,-17647.014,-22167.604,-11790.609,-24034.506,18580.12
1223630.3081075104,-62068.28,-76236.66,-22719.809,-17645.875,-22165.977,-11787.68,-24029.867,18575.48
1223630.3121075055,-62069.95,-76239.305,-22720.908,-17647.908,-22174.725,-11792.277,-24036.785,18564.941
1223630.3161075008,-62069.582,-76247.48,-22729.168,-17649.617,-22180.46,-11800.212,-24045.818,18572.43
1223630.3201074959,-62064.82,-76245.77,-22730.062,-17649.617,-22179.404,-11799.602,-24043.336,18587.158
1223630.324107491,-62062.01,-76241.21,-22724.365,-17649.373,-22173.504,-11791.26,-24037.03,18582.56
1223630.3281074862,-62064.008,-76238.24,-22720.582,-17650.105,-22166.992,-11787.883,-24029.826,18576.092
1223630.3321074813,-62069.01,-76240.4,-22725.018,-17653.768,-22175.334,-11792.685,-24034.18,18571.412
1223630.3361074766,-62067.1,-76247.36,-22729.777,-17655.273,-22182.008,-11797.934,-24042.441,18577.8
1223630.3401074717,-62058.594,-76249.02,-22730.266,-17653.361,-22179.688,-11796.509,-24041.424,18590.129
1223630.3441074667,-62059.613,-76246.5,-22724.65,-17649.861,-22169.639,-11786.54,-24032.023,18592.693
1223630.348107462,-62073.242,-76243.37,-22722.982,-17649.984,-22164.674,-11781.088,-24028.281,18578.736
1223630.3521074571,-62090.7,-76247.07,-22729.33,-17652.426,-22172.486,-11789.714,-24038.209,18562.053
1223630.3561074522,-62090.332,-76255.91,-22737.754,-17654.338,-22184.611,-11802.897,-24048.79,18560.506
1223630.3601074475,-62077.19,-76256.47,-22735.271,-17652.67,-22182.252,-11804.24,-24046.795,18579.266
1223630.3641074426,-62067.223,-76248.05,-22724.895,-17647.217,-22170.86,-11795.37,-24035.809,18585.734
1223630.3681074376,-62070.56,-76244.59,-22719.523,-17646.404,-22166.545,-11788.452,-24030.273,18581.463
1223630.372107433,-62077.273,-76250.695,-22724.53,-17650.105,-22175.822,-11795.248,-24032.35,18580.69
1223630.376107428,-62074.016,-76255.54,-22729.33,-17650.799,-22189.453,-11804.892,-24039.756,18585.164
1223630.3801074233,-62066.367,-76254.93,-22728.516,-17649.252,-22186.32,-11804.362,-24039.756,18603.516
1223630.3841074184,-62068.44,-76249.15,-22723.145,-17647.746,-22173.707,-11795.207,-24028.89,18597.127
1223630.3881074134,-62078.41,-76249.96,-22723.594,-17648.152,-22164.47,-11792.155,-24032.797,18568.482
1223630.3921074087,-62084.516,-76256.47,-22727.5,-17649.414,-22170.898,-11799.561,-24042.686,18557.455
1223630.3961074038,-62081.383,-76263.92,-22731.445,-17648.967,-22179.525,-11808.513,-24051.475,18562.338
1223630.4001073989,-62076.094,-76265.83,-22730.55,-17647.34,-22178.672,-11807.251,-24049.113,18577.516
1223630.4041073942,-62078.047,-76258.51,-22723.309,-17647.34,-22167.236,-11796.265,-24035.605,18587.973
1223630.4081073892,-62087.973,-76254.11,-22719.809,-17647.746,-22163.697,-11789.511,-24027.752,18582.316
1223630.4121073845,-62096.113,-76261.27,-22724.977,-17648.967,-22169.475,-11797.648,-24038.535,18565.309
1223630.4161073796,-62095.625,-76269.05,-22730.877,-17647.46,-22175.578,-11805.461,-24048.3,18562.988
1223630.4201073747,-62090.617,-76271.41,-22728.842,-17646.973,-22178.102,-11802.45,-24045.492,18574.586
1223630.42410737,-62089.805,-76269.29,-22724.57,-17648.275,-22173.79,-11794.516,-24037.314,18586.06
1223630.428107365,-62101.074,-76269.29,-22724.285,-17648.396,-22173.016,-11792.196,-24036.947,18571.127
1223630.43210736,-62109.54,-76278.52,-22729.453,-17648.56,-22179.037,-11799.765,-24044.8,18554.525
1223630.4361073554,-62104.332,-76277.63,-22732.91,-17648.805,-22183.879,-11807.739,-24050.863,18555.99
1223630.4401073505,-62100.383,-76274.664,-22733.318,-17646.77,-22181.56,-11804.565,-24045.371,18572.592
1223630.4441073455,-62104.004,-76272.87,-22729.412,-17644.94,-22179.281,-11794.922,-24038.574,18571.492
1223630.4481073408,-62111.453,-76272.14,-22727.215,-17643.596,-22174.643,-11791.626,-24039.307,18558.838
1223630.452107336,-62114.22,-76269.125,-22728.639,-17642.66,-22179.729,-11799.072,-24045.898,18552.775
1223630.4561073312,-62116.375,-76275.72,-22736.166,-17644.898,-22188.07,-11808.554,-24052.246,18560.018
1223630.4601073263,-62109.5,-76279.87,-22736.166,-17642.213,-22187.094,-11806.926,-24049.928,18572.348
1223630.4641073213,-62105.348,-76272.14,-22728.477,-17638.957,-22177.979,-11796.428,-24038.535,18578.004
1223630.4681073166,-62111.29,-76268.07,-22726.28,-17639.527,-22172.73,-11793.498,-24037.803,18568.441
1223630.4721073117,-62115.156,-76273.69,-22732.871,-17638.672,-22174.44,-11801.596,-24046.795,18564.168
1223630.4761073068,-62113.85,-76280.07,-22738.322,-17638.143,-22182.21,-11810.629,-24054.037,18570.76
1223630.480107302,-62106.164,-76277.914,-22735.557,-17637.898,-22183.188,-11808.105,-24050.578,18588.787
1223630.4841072971,-62102.297,-76272.625,-22729.453,-17638.754,-22176.963,-11800.497,-24041.79,18598.836
1223630.4881072924,-62107.63,-76271.0,-22728.15,-17639.771,-22175.701,-11798.381,-24042.725,18586.834
1223630.4921072875,-62115.156,-76278.65,-22735.352,-17643.066,-22185.1,-11807.658,-24055.502,18572.225
1223630.4961072826,-62112.43,-76283.734,-22742.432,-17645.387,-22192.791,-11816.936,-24062.094,18573.771
1223630.5001072779,-62101.523,-76278.73,-22738.486,-17641.48,-22189.291,-11812.175,-24054.2,18590.617
1223630.504107273,-62100.223,-76273.84,-22734.58,-17639.324,-22178.955,-11801.27,-24042.318,18595.541
1223630.508107268,-62111.695,-76277.67,-22738.201,-17641.316,-22176.352,-11798.259,-24039.674,18586.467
1223630.5121072633,-62120.812,-76287.92,-22745.525,-17644.654,-22183.92,-11807.007,-24047.08,18574.91
1223630.5161072584,-62118.41,-76292.195,-22750.488,-17644.531,-22191.326,-11816.366,-24054.16,18577.19
1223630.5201072537,-62111.168,-76292.56,-22750.45,-17641.44,-22188.438,-11816.04,-24052.816,18588.99
1223630.5241072488,-62108.93,-76288.9,-22745.24,-17638.916,-22181.031,-11806.804,-24043.945,18590.252
1223630.5281072438,-62120.2,-76292.484,-22746.135,-17641.48,-22181.234,-11803.874,-24043.418,18575.725
1223630.5321072391,-62127.44,-76297.734,-22747.885,-17640.79,-22185.832,-11807.943,-24048.137,18566.732
1223630.5361072342,-62124.51,-76299.234,-22754.232,-17641.766,-22194.947,-11817.383,-24054.648,18570.557
1223630.5401072293,-62114.91,-76294.11,-22752.238,-17640.463,-22192.709,-11816.569,-24053.834,18580.12
1223630.5441072246,-62116.984,-76288.66,-22748.291,-17640.504,-22184.693,-11806.152,-24046.143,18580.69
