timestamp,Fp1,Fp2,F3,Fz,F4,Cz,Pz,Oz
1224283.1473165532,-102197.72,-111239.99,-22395.305,-66290.164,-714.7624,-48475.383,-49540.812,-507.64975
1224283.1513165482,-102201.42,-111240.28,-22393.434,-66291.016,-710.1237,-48470.785,-49538.086,-535.7666
1224283.1553165433,-102223.35,-111267.26,-22405.438,-66303.39,-725.2197,-48493.695,-49560.1,-522.2982
1224283.1593165386,-102228.4,-111278.65,-22406.047,-66307.09,-730.7129,-48505.414,-49573.04,-489.17645
1224283.1633165337,-102218.39,-111273.36,-22397.502,-66302.05,-725.9115,-48494.062,-49564.453,-485.2702
1224283.1673165287,-102203.53,-111254.73,-22389.404,-66293.01,-717.77344,-48474.652,-49550.54,-518.51404
1224283.171316524,-102203.9,-111251.06,-22391.562,-66296.71,-716.39,-48473.633,-49548.34,-539.1032
1224283.175316519,-102223.88,-111270.555,-22402.914,-66307.54,-724.8535,-48491.54,-49556.926,-499.2269
1224283.1793165142,-102236.58,-111288.58,-22411.988,-66316.04,-735.6771,-48506.39,-49567.586,-462.28027
1224283.1833165095,-102226.04,-111284.02,-22406.861,-66310.586,-730.0619,-48495.65,-49561.035,-472.9004
1224283.1873165045,-102211.96,-111265.99,-22396.729,-66302.25,-717.041,-48478.64,-49551.27,-518.7582
1224283.1913164998,-102214.52,-111265.83,-22395.305,-66303.71,-717.2445,-48479.82,-49550.62,-535.8887
1224283.195316495,-102236.66,-111290.9,-22408.773,-66316.77,-735.88055,-48503.38,-49567.914,-523.5189
1224283.19931649,-102240.28,-111303.96,-22415.365,-66320.35,-744.7103,-48517.945,-49581.79,-509.68427
1224283.2033164853,-102222.01,-111294.84,-22407.676,-66312.664,-734.5378,-48508.14,-49573.49,-503.90628
1224283.2073164803,-102207.85,-111272.055,-22401.367,-66304.81,-718.13965,-48487.508,-49559.207,-535.31903
1224283.2113164754,-102214.64,-111270.23,-22402.588,-66309.164,-715.861,-48486.492,-49556.03,-553.75165
1224283.2153164707,-102231.98,-111289.63,-22410.97,-66320.84,-728.43427,-48507.652,-49569.05,-528.27966
1224283.2193164658,-102241.664,-111304.41,-22419.068,-66329.63,-744.50684,-48520.754,-49580.527,-500.56967
1224283.223316461,-102232.875,-111300.5,-22412.598,-66324.914,-743.65234,-48508.87,-49572.47,-498.57587
1224283.2273164561,-102221.88,-111288.7,-22403.646,-66317.266,-733.07294,-48486.86,-49556.48,-530.68036
1224283.2313164512,-102224.086,-111287.31,-22402.793,-66316.24,-730.67224,-48484.785,-49557.457,-552.85645
1224283.2353164465,-102242.48,-111302.9,-22413.086,-66327.15,-740.8041,-48505.332,-49573.164,-533.8542
1224283.2393164416,-102249.64,-111315.59,-22418.092,-66331.26,-743.9779,-48517.703,-49579.875,-506.22562
1224283.2433164367,-102234.945,-111305.625,-22411.662,-66321.45,-735.7992,-48508.668,-49570.19,-499.91864
1224283.247316432,-102224.66,-111291.22,-22402.832,-66314.21,-726.0742,-48487.55,-49553.633,-528.76794
1224283.251316427,-102230.43,-111292.56,-22404.46,-66320.15,-724.73145,-48486.125,-49554.402,-541.9108
1224283.255316422,-102248.5,-111310.875,-22413.9,-66332.32,-735.6364,-48503.99,-49564.902,-511.6374
1224283.2593164174,-102263.836,-111332.234,-22424.357,-66340.984,-749.47107,-48519.94,-49575.24,-477.49838
1224283.2633164125,-102255.01,-111324.55,-22420.98,-66336.305,-746.09375,-48512.004,-49572.227,-484.78192
1224283.2673164078,-102244.23,-111304.57,-22411.662,-66329.63,-728.2715,-48494.266,-49563.438,-538.81836
1224283.2713164028,-102244.266,-111296.63,-22410.97,-66330.85,-719.84863,-48494.02,-49567.06,-573.6898
1224283.275316398,-102261.31,-111316.66,-22421.713,-66340.25,-737.3454,-48513.594,-49578.86,-541.3412
1224283.2793163932,-102273.69,-111337.12,-22431.602,-66349.77,-748.291,-48531.94,-49590.332,-506.75458
1224283.2833163883,-102262.086,-111329.02,-22428.264,-66343.75,-740.43787,-48522.504,-49582.074,-502.40073
1224283.2873163833,-102243.695,-111307.375,-22420.736,-66334.64,-724.08044,-48503.582,-49572.023,-545.41016
1224283.2913163786,-102244.23,-111302.86,-22418.701,-66333.54,-715.1693,-48497.684,-49568.402,-559.52966
1224283.2953163737,-102267.09,-111325.12,-22433.105,-66343.63,-724.77216,-48514.285,-49581.18,-532.06384
1224283.299316369,-102280.89,-111344.61,-22442.18,-66352.375,-732.5033,-48528.2,-49593.75,-503.49936
1224283.303316364,-102274.7,-111341.72,-22440.879,-66351.16,-730.67224,-48524.375,-49594.81,-519.8568
1224283.3073163591,-102258.875,-111321.05,-22426.31,-66337.77,-713.5417,-48503.582,-49579.67,-561.60486
1224283.3113163544,-102260.016,-111312.016,-22422.363,-66335.62,-706.38025,-48499.676,-49575.156,-578.45056
1224283.3153163495,-102277.06,-111328.82,-22432.943,-66349.49,-718.66864,-48521.406,-49589.48,-551.1068
1224283.3193163446,-102286.75,-111345.46,-22442.344,-66358.12,-732.7067,-48537.355,-49601.645,-525.5534
1224283.3233163399,-102278.85,-111340.09,-22444.824,-66354.086,-730.67224,-48528.363,-49592.816,-529.50037
1224283.327316335,-102268.31,-111319.46,-22438.477,-66344.61,-712.8906,-48506.836,-49577.92,-556.88477
1224283.3313163302,-102274.91,-111319.055,-22440.146,-66347.54,-708.41473,-48507.0,-49576.742,-579.30505
1224283.3353163253,-102285.93,-111334.555,-22450.684,-66356.41,-714.9658,-48530.355,-49588.504,-548.8281
1224283.3393163204,-102287.56,-111345.14,-22457.316,-66357.914,-725.30115,-48544.76,-49597.86,-507.8939
1224283.3433163157,-102269.984,-111330.65,-22447.754,-66349.04,-717.4072,-48534.793,-49592.207,-515.4216
1224283.3473163107,-102255.82,-111311.89,-22437.012,-66338.87,-698.7712,-48512.29,-49576.785,-553.0192
1224283.3513163058,-102259.32,-111311.24,-22430.705,-66337.61,-695.23114,-48508.26,-49576.05,-576.6195
1224283.355316301,-102265.22,-111321.945,-22433.473,-66346.07,-704.3864,-48527.47,-49593.06,-554.11786
1224283.3593162962,-102269.734,-111336.14,-22436.402,-66352.79,-716.3086,-48542.605,-49604.94,-516.60156
1224283.3633162912,-102257.24,-111335.086,-22428.346,-66351.445,-721.06934,-48536.824,-49601.766,-515.2995
1224283.3673162865,-102237.51,-111310.59,-22431.316,-66343.14,-710.32715,-48515.3,-49583.09,-545.7357
1224283.3713162816,-102225.79,-111298.305,-22421.754,-66337.69,-700.765,-48507.324,-49568.562,-544.1081
1224283.375316277,-102231.65,-111310.59,-22424.805,-66340.66,-707.60095,-48520.918,-49571.29,-506.79526
1224283.379316272,-102234.336,-111325.195,-22427.979,-66344.98,-720.0928,-48534.668,-49583.984,-499.02344
1224283.383316267,-102217.66,-111312.09,-22416.424,-66335.164,-715.41345,-48523.438,-49575.277,-499.5931
1224283.3873162623,-102203.66,-111292.484,-22403.443,-66323.85,-701.7416,-48500.53,-49555.746,-532.5114
1224283.3913162574,-102211.59,-111295.45,-22407.146,-66327.35,-705.15955,-48499.27,-49554.28,-546.1019
1224283.3953162525,-102224.77,-111308.31,-22409.994,-66332.6,-713.98926,-48516.6,-49567.223,-529.2969
1224283.3993162478,-102236.01,-111325.97,-22416.057,-66340.86,-731.486,-48533.938,-49580.934,-505.53387
1224283.4033162429,-102230.8,-111324.75,-22418.213,-66338.99,-732.17773,-48528.117,-49579.957,-508.91116
1224283.4073162382,-102212.81,-111300.13,-22406.82,-66324.47,-714.7624,-48503.133,-49562.625,-533.7728
1224283.4113162332,-102221.36,-111303.305,-22411.174,-66326.78,-713.0941,-48502.363,-49561.65,-552.00195
1224283.4153162283,-102242.234,-111327.15,-22418.54,-66337.85,-733.6019,-48518.598,-49573.04,-527.4252
1224283.4193162236,-102254.73,-111346.88,-22419.8,-66343.67,-745.40204,-48534.465,-49586.793,-503.29593
1224283.4233162187,-102241.21,-111339.07,-22413.168,-66336.75,-741.0482,-48522.83,-49577.07,-499.91864
1224283.4273162137,-102220.99,-111316.82,-22401.205,-66325.766,-729.1667,-48498.617,-49557.05,-515.2995
1224283.431316209,-102228.16,-111315.84,-22401.693,-66327.88,-730.5502,-48496.582,-49556.277,-539.83563
1224283.435316204,-102239.055,-111330.77,-22410.564,-66337.52,-743.8151,-48515.91,-49566.246,-510.94565
1224283.4393161992,-102241.62,-111341.92,-22416.342,-66342.98,-755.65594,-48527.63,-49573.855,-481.6081
1224283.4433161945,-102227.016,-111329.8,-22409.1,-66336.71,-751.058,-48517.133,-49566.69,-493.4489
1224283.4473161895,-102203.53,-111305.51,-22393.027,-66322.266,-734.904,-48490.645,-49544.965,-520.874
1224283.4513161848,-102202.195,-111298.83,-22384.521,-66317.55,-730.4281,-48483.195,-49536.258,-529.7445
1224283.45531618,-102217.94,-111316.41,-22392.54,-66327.11,-743.571,-48503.094,-49550.906,-500.8138
1224283.459316175,-102230.72,-111336.51,-22398.234,-66337.04,-758.42285,-48519.98,-49566.33,-479.77704
1224283.4633161703,-102225.1,-111330.49,-22394.37,-66331.55,-755.0863,-48510.99,-49562.91,-483.31708
1224283.4673161653,-102206.586,-111307.54,-22383.709,-66317.47,-742.3503,-48488.363,-49544.637,-515.7064
1224283.4713161604,-102209.39,-111305.79,-22381.389,-66318.32,-738.48474,-48486.41,-49541.504,-538.8591
1224283.4753161557,-102229.62,-111327.48,-22388.55,-66329.51,-751.3021,-48504.477,-49553.71,-520.79266
1224283.4793161508,-102240.16,-111345.87,-22394.248,-66338.3,-768.31055,-48521.363,-49565.188,-493.65234
1224283.483316146,-102221.56,-111330.85,-22390.748,-66331.016,-764.32294,-48508.465,-49550.984,-484.98535
1224283.4873161411,-102201.3,-111305.34,-22370.117,-66315.72,-747.84344,-48484.457,-49533.246,-511.88153
1224283.4913161362,-102205.98,-111301.15,-22369.71,-66315.555,-743.69305,-48482.75,-49537.926,-550.2523
1224283.4953161315,-102229.695,-111327.4,-22387.045,-66328.53,-758.09735,-48506.145,-49559.492,-535.35974
1224283.4993161266,-102244.875,-111347.78,-22395.916,-66340.01,-774.94305,-48523.113,-49573.855,-515.09607
1224283.5033161216,-102232.625,-111338.38,-22393.271,-66335.49,-770.6299,-48514.242,-49564.74,-514.52637
1224283.507316117,-102218.43,-111317.95,-22380.535,-66323.77,-753.4994,-48490.766,-49543.582,-541.82947
1224283.511316112,-102219.98,-111314.66,-22375.367,-66318.93,-744.3441,-48483.766,-49537.926,-568.6035
1224283.5153161073,-102240.97,-111338.51,-22391.236,-66334.555,-762.1664,-48505.414,-49553.145,-547.15985
1224283.5193161024,-102250.05,-111354.74,-22399.578,-66345.95,-781.00586,-48520.305,-49563.4,-519.4499
1224283.5233160974,-102230.67,-111336.02,-22386.924,-66337.32,-777.9541,-48505.496,-49544.965,-494.3034
1224283.5273160927,-102212.2,-111307.74,-22380.535,-66326.3,-762.8174,-48482.06,-49517.09,-507.32425
1224283.5313160878,-102213.95,-111305.18,-22380.25,-66327.4,-758.95184,-48478.965,-49510.742,-523.76306
1224283.5353160829,-102232.305,-111325.89,-22388.795,-66337.85,-767.61884,-48498.09,-49528.688,-509.39944
1224283.5393160782,-102250.53,-111348.555,-22402.508,-66346.11,-774.90234,-48512.86,-49542.605,-494.05927
1224283.5433160733,-102247.07,-111351.2,-22399.943,-66344.12,-776.2451,-48508.87,-49539.676,-497.63998
1224283.5473160683,-102231.94,-111330.61,-22387.248,-66331.016,-757.3242,-48486.33,-49525.027,-530.9245
1224283.5513160636,-102227.46,-111320.36,-22385.824,-66327.805,-753.7435,-48481.855,-49522.055,-543.6605
1224283.5553160587,-102242.44,-111337.41,-22394.613,-66336.71,-769.9382,-48502.28,-49536.215,-513.5905
1224283.559316054,-102248.87,-111351.04,-22397.95,-66341.39,-779.7038,-48514.57,-49543.54,-485.5957
1224283.563316049,-102231.94,-111339.484,-22389.201,-66333.984,-772.17615,-48501.832,-49532.758,-486.4502
1224283.5673160441,-102217.57,-111321.49,-22378.094,-66325.16,-759.3994,-48476.93,-49510.945,-504.39456
1224283.5713160394,-102220.13,-111318.85,-22377.93,-66327.96,-756.06287,-48473.797,-49509.36,-525.5127
1224283.5753160345,-102242.88,-111341.35,-22386.924,-66341.31,-767.7002,-48494.14,-49529.22,-513.87537
1224283.5793160296,-102254.6,-111366.01,-22385.418,-66352.91,-790.975,-48509.035,-49543.38,-482.50327
1224283.5833160249,-102237.8,-111352.95,-22383.424,-66345.13,-781.16864,-48494.47,-49533.367,-484.70053
1224283.58731602,-102210.78,-111325.445,-22377.686,-66330.98,-763.14294,-48469.973,-49505.86,-501.91245
1224283.5913160152,-102212.37,-111319.42,-22373.902,-66326.17,-760.2946,-48461.875,-49499.39,-519.2871
1224283.5953160103,-102239.016,-111349.45,-22359.092,-66334.64,-777.4658,-48481.895,-49520.633,-507.77182
1224283.5993160054,-102250.25,-111362.67,-22378.623,-66340.17,-787.23145,-48495.402,-49528.973,-476.31836
1224283.6033160007,-102218.71,-111337.94,-22404.99,-66331.75,-777.7914,-48489.258,-49520.67,-474.40594
1224283.6073159957,-102208.54,-111325.52,-22383.018,-66322.43,-762.4105,-48469.363,-49505.656,-516.3168
1224283.6113159908,-102219.04,-111328.414,-22374.35,-66325.56,-765.2588,-48462.973,-49500.734,-529.62244
1224283.615315986,-102247.84,-111357.06,-22383.994,-66338.83,-773.0713,-48480.39,-49514.65,-509.88773
1224283.6193159812,-102243.62,-111362.875,-22394.572,-66346.4,-793.49774,-48490.234,-49511.68,-465.4948
1224283.6233159762,-102227.664,-111350.79,-22389.08,-66341.07,-783.7321,-48477.336,-49495.605,-459.14716
1224283.6273159715,-102222.336,-111344.0,-22374.309,-66334.11,-781.8197,-48454.023,-49480.266,-488.28125
1224283.6313159666,-102221.32,-111332.56,-22380.168,-66333.375,-769.7754,-48452.598,-49476.81,-503.3773
1224283.635315962,-102232.55,-111349.33,-22380.332,-66342.53,-788.12665,-48474.773,-49498.74,-491.17026
1224283.639315957,-102244.914,-111373.5,-22380.047,-66350.016,-795.0033,-48491.7,-49511.72,-465.8203
1224283.643315952,-102221.84,-111350.47,-22354.453,-66336.95,-796.0612,-48478.64,-49498.535,-454.4271
1224283.6473159473,-102206.38,-111322.39,-22360.88,-66324.34,-776.8962,-48453.125,-49481.16,-475.4232
1224283.6513159424,-102220.87,-111323.29,-22369.385,-66325.56,-753.54004,-48449.832,-49480.67,-496.2972
1224283.6553159375,-102235.234,-111349.29,-22353.15,-66332.484,-790.975,-48470.582,-49497.76,-485.55502
1224283.6593159328,-102229.375,-111362.47,-22358.074,-66337.24,-828.9795,-48485.68,-49509.035,-455.89194
1224283.6633159278,-102215.05,-111345.055,-22366.7,-66330.484,-823.85254,-48475.953,-49502.32,-449.01532
1224283.6673159231,-102210.984,-111337.0,-22360.475,-66320.766,-818.15594,-48452.516,-49484.05,-482.21844
1224283.6713159182,-102213.22,-111333.17,-22340.576,-66315.15,-807.251,-48453.207,-49492.88,-512.4105
1224283.6753159133,-102240.36,-111357.586,-22360.596,-66332.484,-829.834,-48471.64,-49506.96,-494.95444
1224283.6793159086,-102246.46,-111375.695,-22338.543,-66339.32,-853.23083,-48486.37,-49519.94,-471.2728
1224283.6833159036,-102234.336,-111366.375,-22354.615,-66334.92,-854.8991,-48470.746,-49508.63,-474.03973
1224283.6873158987,-102194.87,-111317.43,-22368.002,-66320.44,-836.75134,-48447.754,-49472.047,-456.62436
1224283.691315894,-102202.68,-111320.805,-22336.102,-66319.375,-824.9512,-48447.836,-49474.938,-486.93848
1224283.695315889,-102236.375,-111350.79,-22323.61,-66333.26,-836.54785,-48467.57,-49494.754,-473.91766
1224283.6993158844,-102238.85,-111369.39,-22367.393,-66343.06,-858.3578,-48477.95,-49496.83,-431.47787
1224283.7033158795,-102235.92,-111370.57,-22366.578,-66336.914,-840.4541,-48467.043,-49494.062,-452.51465
1224283.7073158745,-102205.164,-111332.08,-22316.53,-66322.47,-853.23083,-48444.38,-49477.05,-494.6289
1224283.7113158698,-102218.06,-111328.984,-22359.13,-66328.86,-826.9857,-48446.086,-49476.766,-516.07263
1224283.715315865,-102246.586,-111358.08,-22382.285,-66348.02,-850.5453,-48470.055,-49489.707,-499.83725
1224283.71931586,-102252.65,-111380.984,-22369.14,-66355.63,-883.42285,-48485.395,-49500.125,-466.38998
1224283.7233158553,-102246.055,-111373.01,-22331.748,-66347.74,-882.3242,-48479.25,-49506.27,-474.528
1224283.7273158503,-102240.85,-111348.8,-22333.457,-66337.32,-839.5996,-48458.05,-49497.03,-515.90985
1224283.7313158454,-102212.41,-111325.36,-22345.744,-66327.19,-793.7419,-48461.062,-49486.777,-511.27118
1224283.7353158407,-102236.45,-111354.86,-22310.264,-66339.84,-849.528,-48476.484,-49513.387,-518.4733
1224283.7393158358,-102243.57,-111365.16,-22353.516,-66347.62,-855.99774,-48481.285,-49504.316,-471.1914
1224283.743315831,-102234.5,-111364.305,-22382.203,-66343.55,-838.7858,-48472.496,-49491.945,-457.80438
1224283.7473158261,-102214.32,-111345.55,-22285.035,-66333.01,-857.2998,-48454.918,-49487.43,-503.8249
1224283.7513158212,-102220.625,-111297.29,-22330.566,-66329.23,-830.81055,-48457.684,-49485.72,-505.65594
1224283.7553158165,-102246.83,-111374.11,-22338.787,-66350.18,-889.72986,-48474.773,-49501.223,-487.83368
1224283.7593158116,-102248.01,-111386.766,-22290.691,-66350.18,-868.85583,-48491.984,-49518.758,-479.20737
1224283.7633158066,-102230.43,-111338.75,-22442.383,-66345.3,-823.1201,-48476.24,-49484.297,-441.44696
1224283.767315802,-102206.75,-111335.53,-22372.275,-66332.28,-834.7982,-48450.4,-49465.617,-468.01758
1224283.771315797,-102219.41,-111358.93,-22204.957,-66329.96,-902.05896,-48447.47,-49471.926,-496.09375
1224283.7753157923,-102253.13,-111365.93,-22345.459,-66349.33,-873.6572,-48463.504,-49489.18,-490.5599
1224283.7793157874,-102248.45,-111371.46,-22423.3,-66354.375,-845.0928,-48485.273,-49491.05,-444.74286
1224283.7833157824,-102253.586,-111393.4,-22361.29,-66353.234,-893.1885,-48472.453,-49485.312,-444.58008
1224283.7873157777,-102210.414,-111363.484,-22316.367,-66333.3,-873.20966,-48454.67,-49474.082,-481.28256
1224283.7913157728,-102240.97,-111358.69,-22327.963,-66334.96,-865.2751,-48455.977,-49480.55,-512.4512
1224283.7953157679,-102303.1,-111412.36,-22314.494,-66349.9,-875.77313,-48474.69,-49505.78,-512.1257
1224283.7993157632,-102273.32,-111396.734,-22425.01,-66356.94,-871.8262,-48482.547,-49488.04,-440.22626
1224283.8033157582,-102249.31,-111372.484,-22403.809,-66344.81,-828.4912,-48477.867,-49483.32,-442.78973
1224283.8073157533,-102238.85,-111361.05,-22338.34,-66333.74,-843.7907,-48455.16,-49463.055,-463.13477
1224283.8113157486,-102249.92,-111365.32,-22220.582,-66329.23,-871.7041,-48459.11,-49478.72,-498.82
1224283.8153157437,-102284.18,-111398.16,-22400.758,-66357.75,-877.31934,-48467.285,-49470.543,-464.72168
1224283.819315739,-102256.72,-111366.01,-22455.934,-66353.6,-861.6537,-48487.793,-49469.566,-409.5866
1224283.823315734,-102233.04,-111353.16,-22385.824,-66335.734,-853.2715,-48481.285,-49474.895,-422.2412
1224283.827315729,-102239.34,-111363.98,-22300.62,-66323.125,-836.9955,-48460.246,-49485.35,-499.55243
1224283.8313157244,-102230.8,-111347.984,-22360.475,-66326.625,-838.9079,-48449.992,-49468.875,-493.20477
1224283.8353157195,-102245.0,-111363.9,-22404.135,-66339.56,-849.03973,-48463.867,-49469.24,-456.70575
1224283.8393157145,-102260.99,-111373.87,-22402.629,-66342.98,-837.6872,-48488.973,-49486.656,-431.19305
1224283.8433157098,-102235.4,-111360.07,-22385.824,-66340.375,-856.0791,-48474.773,-49472.82,-427.6937
1224283.847315705,-102230.06,-111343.02,-22377.402,-66331.14,-841.39,-48451.582,-49457.316,-456.90918
1224283.8513157002,-102259.195,-111359.016,-22357.79,-66333.17,-840.90173,-48451.62,-49462.566,-481.03842
1224283.8553156953,-102265.266,-111385.625,-22374.92,-66346.07,-861.1247,-48471.113,-49472.008,-460.65268
1224283.8593156904,-102257.734,-111394.375,-22373.78,-66348.23,-871.25653,-48486.613,-49482.87,-440.51108
1224283.8633156857,-102259.52,-111374.72,-22395.508,-66341.59,-859.0495,-48471.03,-49463.016,-424.0316
1224283.8673156807,-102243.086,-111361.414,-22369.264,-66328.734,-830.9326,-48451.01,-49446.37,-443.6849
1224283.8713156758,-102257.98,-111373.13,-22348.715,-66332.766,-847.4935,-48449.547,-49442.305,-468.50586
1224283.875315671,-102283.05,-111395.06,-22339.805,-66338.586,-848.51074,-48472.74,-49468.06,-463.9079
1224283.8793156662,-102260.5,-111385.79,-22406.088,-66345.74,-863.85095,-48482.79,-49467.695,-409.30176
1224283.8833156615,-102257.98,-111372.93,-22397.99,-66339.27,-841.43066,-48472.047,-49458.54,-411.01074
1224283.8873156565,-102251.47,-111365.52,-22363.363,-66330.04,-838.5824,-48449.383,-49444.906,-453.73535
1224283.8913156516,-102238.33,-111342.125,-22366.008,-66324.95,-823.6084,-48446.94,-49440.105,-464.15204
1224283.895315647,-102258.266,-111371.42,-22361.41,-66335.695,-846.7204,-48462.566,-49449.79,-439.41245
1224283.899315642,-102268.88,-111397.34,-22361.29,-66340.414,-864.2578,-48474.773,-49462.04,-425.9847
1224283.903315637,-102255.945,-111382.94,-22365.072,-66332.84,-850.0163,-48468.26,-49460.125,-428.18198
1224283.9073156323,-102244.02,-111364.51,-22347.209,-66322.875,-828.5319,-48449.707,-49449.22,-458.9437
1224283.9113156274,-102260.17,-111378.75,-22341.39,-66331.22,-838.8672,-48445.027,-49448.57,-482.13705
1224283.9153156225,-102265.99,-111378.42,-22365.887,-66338.42,-845.0928,-48467.734,-49461.14,-446.00424
1224283.9193156178,-102276.62,-111395.76,-22365.764,-66345.09,-858.6426,-48487.754,-49479.535,-418.98602
1224283.9233156128,-102265.51,-111395.92,-22352.336,-66336.34,-855.63153,-48472.984,-49476.562,-435.79102
1224283.9273156081,-102243.37,-111365.52,-22346.03,-66324.625,-830.363,-48450.645,-49458.78,-477.4577
1224283.9313156032,-102247.73,-111363.41,-22346.885,-66328.9,-819.37665,-48451.297,-49456.258,-483.76465
1224283.9353155983,-102271.734,-111392.87,-22358.887,-66345.18,-847.6156,-48472.332,-49470.418,-449.58496
1224283.9393155936,-102283.41,-111409.8,-22357.016,-66351.89,-859.33435,-48489.18,-49485.68,-428.1006
1224283.9433155886,-102265.586,-111395.8,-22357.627,-66345.38,-848.3887,-48478.027,-49480.594,-447.26562
1224283.9473155837,-102252.41,-111377.93,-22356.121,-66339.27,-838.7451,-48459.883,-49468.06,-471.47626
1224283.951315579,-102268.48,-111385.42,-22358.033,-66346.234,-834.83887,-48464.195,-49472.902,-493.81512
1224283.955315574,-102281.87,-111398.36,-22363.525,-66355.02,-844.2383,-48485.395,-49490.848,-475.74872
1224283.9593155694,-102286.13,-111404.75,-22364.258,-66356.98,-849.1618,-48496.582,-49503.418,-456.17676
1224283.9633155644,-102273.64,-111400.92,-22363.73,-66353.64,-841.43066,-48485.84,-49494.793,-456.62436
1224283.9673155595,-102251.43,-111371.26,-22356.201,-66346.11,-837.97205,-48465.13,-49474.367,-479.4922
1224283.9713155548,-102255.7,-111365.195,-22356.121,-66346.805,-823.3236,-48461.793,-49470.906,-487.264
1224283.9753155499,-102276.57,-111388.516,-22352.54,-66357.95,-841.6748,-48483.44,-49488.203,-467.40723
1224283.979315545,-102275.68,-111396.85,-22358.928,-66361.82,-846.06934,-48492.96,-49489.95,-445.3125
1224283.9833155402,-102267.625,-111386.805,-22351.115,-66357.875,-834.9203,-48483.156,-49485.434,-452.55536
1224283.9873155353,-102243.62,-111360.84,-22353.027,-66348.76,-825.60223,-48465.984,-49472.293,-480.7536
1224283.9913155304,-102253.625,-111370.2,-22334.066,-66350.34,-827.2705,-48468.387,-49486.25,-520.58923
1224283.9953155257,-102273.32,-111387.13,-22355.55,-66360.76,-833.9437,-48489.79,-49499.88,-499.06415
1224283.9993155207,-102272.586,-111395.63,-22370.037,-66366.58,-840.90173,-48503.258,-49506.758,-467.93622
1224284.003315516,-102267.54,-111394.82,-22355.186,-66360.76,-835.7341,-48493.45,-49505.453,-477.49838
1224284.0073155111,-102255.414,-111371.914,-22347.047,-66351.28,-828.9795,-48470.094,-49486.125,-507.97528
1224284.0113155062,-102256.516,-111367.07,-22343.588,-66354.82,-822.0622,-48474.938,-49489.91,-534.79004
1224284.0153155015,-102281.09,-111391.445,-22360.312,-66370.484,-836.0596,-48500.203,-49515.22,-518.35126
1224284.0193154966,-102292.766,-111407.555,-22355.633,-66371.99,-836.5072,-48511.64,-49529.95,-492.7165
1224284.0233154916,-102283.77,-111402.59,-22347.25,-66362.875,-830.9733,-48493.938,-49515.22,-486.4909
1224284.027315487,-102251.06,-111367.72,-22357.83,-66350.875,-809.6924,-48474.61,-49499.27,-520.06024
1224284.031315482,-102254.6,-111370.69,-22352.58,-66350.99,-796.7529,-48477.215,-49502.035,-533.3659
1224284.0353154773,-102288.13,-111415.45,-22353.598,-66368.29,-825.236,-48499.023,-49524.617,-524.98376
1224284.0393154724,-102294.48,-111424.56,-22357.219,-66374.59,-843.75,-48524.21,-49534.59,-505.53387
1224284.0433154674,-102280.805,-111410.81,-22371.055,-66366.13,-823.40497,-48556.4,-49514.69,-494.14062
1224284.0473154627,-102258.95,-111384.484,-22357.666,-66356.57,-806.071,-48571.047,-49505.496,-533.5287
1224284.0513154578,-102255.91,-111370.734,-22358.969,-66354.82,-798.38055,-48584.23,-49501.63,-539.917
1224284.0553154529,-102280.16,-111398.16,-22366.375,-66370.69,-821.0043,-48610.92,-49518.637,-516.72363
1224284.0593154482,-102295.375,-111420.45,-22373.496,-66380.45,-835.2458,-48629.03,-49531.496,-501.3428
1224284.0633154432,-102277.59,-111407.31,-22376.832,-66375.53,-824.58496,-48618.734,-49517.78,-501.46487
1224284.0673154385,-102261.84,-111381.72,-22360.516,-66365.64,-811.93036,-48599.324,-49501.75,-532.6335
1224284.0713154336,-102277.8,-111391.32,-22350.75,-66369.02,-811.19794,-48602.46,-49505.293,-551.35095
1224284.0753154287,-102297.24,-111415.33,-22361.654,-66383.586,-822.9574,-48627.77,-49523.48,-531.9418
1224284.079315424,-102293.586,-111418.055,-22372.682,-66387.414,-829.7526,-48638.266,-49526.207,-497.76205
1224284.083315419,-102290.0,-111407.48,-22387.533,-66381.875,-822.5912,-48634.2,-49535.81,-505.4932
1224284.087315414,-102270.71,-111389.57,-22354.615,-66369.266,-814.7787,-48612.957,-49514.527,-525.79755
1224284.0913154094,-102264.9,-111382.125,-22354.777,-66371.42,-810.791,-48615.195,-49518.68,-551.83923
1224284.0953154045,-102288.086,-111401.62,-22368.572,-66382.445,-815.5111,-48639.445,-49530.4,-521.403
1224284.0993153995,-102306.28,-111428.67,-22374.512,-66394.414,-838.1755,-48648.152,-49548.91,-513.46844
1224284.1033153948,-102278.73,-111406.74,-22408.611,-66391.12,-816.2842,-48637.047,-49520.918,-476.96942
1224284.10731539,-102282.72,-111399.375,-22360.963,-66380.29,-806.15234,-48611.777,-49511.516,-523.72235
1224284.1113153852,-102280.195,-111392.91,-22364.463,-66380.45,-802.85645,-48610.516,-49509.074,-554.362
1224284.1153153803,-102282.63,-111398.766,-22388.021,-66387.49,-801.7985,-48641.44,-49534.793,-523.76306
1224284.1193153753,-102297.49,-111429.69,-22389.08,-66397.42,-825.27673,-48648.074,-49538.574,-497.27377
1224284.1233153706,-102288.58,-111425.5,-22326.092,-66388.43,-831.33954,-48640.586,-49534.793,-502.76694
1224284.1273153657,-102295.945,-111404.42,-22349.285,-66384.52,-826.2533,-48615.926,-49523.36,-553.0192
1224284.1313153608,-102276.05,-111381.02,-22411.053,-66388.23,-804.7282,-48611.86,-49507.938,-553.5482
1224284.135315356,-102309.164,-111431.84,-22300.375,-66395.96,-835.53064,-48637.656,-49548.504,-566.6911
1224284.1393153511,-102328.17,-111445.516,-22376.14,-66408.29,-840.8203,-48648.887,-49556.52,-531.779
1224284.1433153464,-102272.55,-111401.37,-22425.498,-66392.46,-797.404,-48639.69,-49525.23,-502.84833
1224284.1473153415,-102291.586,-111401.01,-22379.518,-66387.945,-809.611,-48615.52,-49517.375,-543.45703
1224284.1513153366,-102315.63,-111415.57,-22360.8,-66394.695,-806.7627,-48620.973,-49534.63,-572.30634
1224284.1553153319,-102298.22,-111411.18,-22446.371,-66409.71,-816.4877,-48642.703,-49533.246,-523.3154
1224284.159315327,-102312.22,-111431.484,-22413.168,-66412.97,-828.08435,-48658.49,-49553.59,-512.8988
1224284.163315322,-102332.766,-111446.54,-22403.932,-66415.734,-831.1361,-48639.363,-49546.145,-537.6791
1224284.1673153173,-102310.02,-111408.734,-22438.885,-66406.58,-801.5137,-48622.355,-49525.516,-556.35583
1224284.1713153124,-102301.64,-111404.71,-22399.822,-66404.18,-798.4619,-48624.676,-49535.93,-576.6195
1224284.1753153075,-102344.65,-111453.086,-22377.076,-66420.05,-828.8168,-48642.418,-49555.22,-568.4408
1224284.1793153028,-102339.32,-111456.1,-22363.566,-66419.555,-834.0251,-48652.59,-49558.473,-542.5619
1224284.1833152978,-102303.836,-111410.41,-22454.713,-66410.97,-790.8529,-48639.812,-49533.613,-509.35873
1224284.1873152931,-102291.06,-111397.51,-22425.172,-66402.34,-786.9873,-48621.582,-49529.258,-557.4951
1224284.1913152882,-102332.12,-111431.73,-22334.066,-66406.66,-816.2435,-48622.52,-49542.562,-605.7129
1224284.1953152833,-102357.914,-111449.34,-22451.133,-66425.7,-825.5615,-48637.535,-49542.684,-565.9994
1224284.1993152786,-102352.46,-111455.53,-22440.838,-66428.305,-829.30505,-48652.59,-49550.254,-531.3314
1224284.2033152736,-102316.45,-111436.37,-22421.63,-66416.22,-816.1621,-48642.418,-49548.504,-536.37695
1224284.2073152687,-102331.914,-111424.484,-22427.41,-66408.2,-801.3916,-48616.902,-49536.62,-570.8822
1224284.211315264,-102299.65,-111381.31,-22450.236,-66402.34,-770.95544,-48622.234,-49531.293,-573.93396
1224284.215315259,-102318.56,-111411.42,-22446.127,-66414.76,-788.65564,-48644.9,-49549.074,-563.8428
1224284.2193152544,-102353.07,-111447.02,-22439.494,-66425.58,-808.0241,-48656.25,-49558.31,-534.34247
1224284.2233152494,-102339.36,-111439.13,-22402.629,-66414.15,-809.0007,-48636.355,-49552.168,-547.32263
1224284.2273152445,-102300.3,-111403.85,-22417.074,-66400.84,-776.69275,-48617.473,-49527.06,-548.86884
1224284.2313152398,-102321.54,-111417.61,-22393.434,-66404.79,-786.1735,-48614.137,-49532.43,-583.5368
1224284.2353152349,-102331.016,-111406.7,-22438.803,-66417.195,-782.6335,-48641.562,-49550.133,-557.8207
1224284.23931523,-102332.766,-111424.89,-22437.988,-66420.58,-792.9281,-48657.227,-49567.547,-535.31903
1224284.2433152252,-102330.2,-111434.734,-22366.172,-66410.16,-803.75165,-48645.918,-49567.75,-550.8627
1224284.2473152203,-102322.88,-111407.64,-22446.168,-66408.81,-777.7507,-48619.14,-49542.523,-579.9154
1224284.2513152154,-102341.84,-111420.66,-22453.898,-66415.57,-781.90106,-48615.562,-49540.812,-592.85486
1224284.2553152107,-102359.3,-111449.06,-22426.88,-66425.3,-799.7233,-48640.26,-49566.043,-578.8574
1224284.2593152057,-102373.01,-111470.625,-22386.719,-66429.2,-814.2497,-48655.56,-49587.445,-579.1423
1224284.263315201,-102348.11,-111444.3,-22443.768,-66421.23,-798.38055,-48640.586,-49566.33,-556.9662
1224284.267315196,-102321.82,-111412.4,-22440.918,-66410.97,-777.181,-48614.95,-49542.36,-578.4912
1224284.2713151912,-102351.85,-111423.47,-22450.889,-66416.914,-782.2673,-48612.918,-49550.215,-606.73016
1224284.2753151865,-102358.04,-111440.07,-22431.967,-66423.055,-794.23016,-48637.332,-49575.277,-600.4232
1224284.2793151815,-102364.55,-111456.14,-22437.135,-66429.24,-810.4248,-48651.45,-49584.11,-578.2471
1224284.2833151766,-102358.16,-111442.914,-22463.543,-66426.39,-802.57166,-48635.945,-49570.965,-569.8242
1224284.287315172,-102347.7,-111425.26,-22439.576,-66418.01,-788.8591,-48613.973,-49559.45,-613.1592
1224284.291315167,-102357.14,-111426.27,-22413.412,-66417.28,-784.87146,-48612.508,-49559.207,-622.35516
1224284.2953151623,-102366.414,-111445.16,-22434.531,-66427.45,-795.3695,-48632.49,-49569.582,-572.5505
1224284.2993151573,-102364.99,-111455.445,-22434.938,-66430.22,-803.9144,-48645.918,-49591.35,-570.1091
1224284.3033151524,-102362.43,-111447.43,-22422.648,-66421.35,-794.35223,-48632.406,-49580.49,-580.6071
1224284.3073151477,-102382.04,-111455.734,-22367.107,-66416.99,-799.4385,-48601.93,-49562.582,-612.95575
1224284.3113151428,-102355.11,-111420.25,-22479.004,-66423.625,-771.7285,-48605.55,-49544.273,-584.7982
1224284.3153151379,-102363.04,-111438.56,-22457.928,-66429.94,-783.0404,-48634.605,-49563.355,-559.52966
1224284.3193151332,-102391.85,-111474.164,-22449.545,-66440.72,-806.3151,-48641.805,-49580.363,-542.5619
1224284.3233151282,-102364.55,-111448.49,-22473.309,-66432.375,-787.8825,-48628.01,-49568.523,-546.5902
1224284.3273151235,-102344.0,-111423.18,-22448.283,-66421.1,-772.7458,-48606.324,-49556.926,-587.44305
1224284.3313151186,-102368.53,-111436.89,-22438.6,-66428.43,-778.93066,-48604.902,-49561.89,-610.83984
1224284.3353151137,-102366.414,-111442.18,-22472.576,-66434.125,-783.24384,-48627.117,-49569.62,-576.2533
1224284.339315109,-102371.664,-111458.74,-22432.334,-66435.55,-800.45575,-48641.195,-49590.535,-565.55176
1224284.343315104,-102375.086,-111465.09,-22432.334,-66432.78,-801.63574,-48622.316,-49581.79,-579.5085
1224284.347315099,-102339.84,-111432.13,-22402.955,-66417.195,-774.821,-48603.72,-49568.93,-611.9385
1224284.3513150944,-102341.39,-111427.086,-22423.38,-66422.734,-773.19336,-48603.598,-49559.367,-609.5785
1224284.3553150895,-102366.46,-111459.19,-22427.695,-66436.73,-793.2129,-48619.67,-49569.824,-586.8327
1224284.3593150845,-102379.64,-111467.33,-22469.402,-66441.77,-794.9219,-48625.734,-49572.55,-545.61365
1224284.3633150798,-102351.445,-111444.54,-22455.12,-66427.49,-780.27344,-48616.09,-49564.656,-549.6826
1224284.367315075,-102347.66,-111437.14,-22433.473,-66421.96,-777.9541,-48598.188,-49560.914,-604.81775
1224284.3713150702,-102357.47,-111441.2,-22445.965,-66428.14,-781.0873,-48599.53,-49557.008,-609.61914
1224284.3753150653,-102378.625,-111455.08,-22463.705,-66439.984,-790.56805,-48620.363,-49562.867,-579.22363
1224284.3793150603,-102376.266,-111463.75,-22446.127,-66441.37,-799.3978,-48632.367,-49582.4,-567.8711
1224284.3833150556,-102368.25,-111451.74,-22446.209,-66437.664,-795.6543,-48613.406,-49571.777,-577.4333
1224284.3873150507,-102343.18,-111424.32,-22425.213,-66422.33,-778.6459,-48596.926,-49563.355,-603.92255
1224284.3913150458,-102357.47,-111427.984,-22426.719,-66424.52,-778.4424,-48595.867,-49558.92,-620.76825
1224284.395315041,-102375.57,-111443.52,-22452.8,-66437.055,-786.9873,-48616.336,-49576.375,-585.69336
1224284.3993150361,-102374.76,-111450.445,-22460.572,-66441.57,-794.3115,-48631.836,-49589.195,-556.3151
1224284.4033150314,-102363.37,-111438.64,-22447.998,-66434.82,-789.266,-48616.496,-49580.977,-569.5801
1224284.4073150265,-102346.84,-111415.94,-22431.682,-66425.414,-775.7162,-48597.293,-49563.273,-599.5687
1224284.4113150216,-102357.42,-111418.79,-22422.404,-66427.45,-779.45966,-48594.77,-49563.64,-615.682
1224284.4153150169,-102365.28,-111429.28,-22427.531,-66434.695,-786.7839,-48613.28,-49571.656,-581.54297
1224284.419315012,-102369.39,-111436.65,-22455.527,-66439.086,-789.02185,-48626.06,-49577.965,-558.1462
1224284.423315007,-102353.07,-111431.28,-22439.658,-66430.79,-790.60876,-48612.508,-49575.32,-573.89325
1224284.4273150023,-102333.21,-111402.06,-22439.78,-66419.88,-767.7816,-48590.66,-49557.13,-591.55273
1224284.4313149974,-102342.53,-111403.0,-22438.477,-66425.375,-768.51404,-48590.375,-49556.97,-606.6488
1224284.4353149924,-102367.555,-111430.22,-22446.086,-66436.2,-787.80115,-48606.367,-49564.902,-570.92285
1224284.4393149877,-102387.25,-111451.3,-22455.771,-66442.305,-800.82196,-48620.117,-49574.992,-542.806
1224284.4433149828,-102335.82,-111414.555,-22427.125,-66423.664,-779.09344,-48610.516,-49568.562,-546.9564
1224284.447314978,-102318.32,-111386.11,-22429.893,-66414.67,-759.1553,-48583.54,-49551.637,-588.4603
1224284.4513149732,-102339.52,-111399.375,-22417.807,-66423.914,-766.23535,-48579.875,-49548.504,-605.0212
1224284.4553149682,-102350.75,-111423.51,-22424.357,-66437.016,-783.28455,-48603.68,-49563.273,-569.70215
1224284.4593149635,-102364.914,-111452.72,-22421.754,-66444.586,-798.86884,-48613.77,-49576.254,-552.9785
1224284.4633149586,-102354.05,-111436.81,-22417.36,-66439.58,-791.2191,-48593.914,-49556.074,-558.79724
1224284.4673149537,-102331.95,-111400.805,-22432.496,-66428.55,-766.154,-48575.035,-49545.535,-582.4382
1224284.471314949,-102322.15,-111386.48,-22430.502,-66425.414,-753.41797,-48579.43,-49541.06,-581.17676
1224284.475314944,-102348.23,-111417.41,-22433.92,-66438.44,-772.6644,-48597.453,-49561.65,-562.5
1224284.4793149394,-102374.48,-111450.28,-22405.355,-66449.38,-801.26953,-48610.066,-49584.92,-560.5876
1224284.4833149344,-102359.83,-111443.12,-22426.637,-66443.32,-802.2868,-48592.246,-49572.797,-572.4691
1224284.4873149295,-102318.98,-111396.98,-22448.04,-66427.414,-765.38086,-48572.266,-49544.273,-584.0658
1224284.4913149248,-102336.39,-111409.75,-22431.52,-66433.8,-775.47205,-48579.55,-49564.496,-616.1296
1224284.4953149199,-102359.26,-111443.12,-22438.72,-66449.83,-792.8874,-48601.117,-49580.49,-595.78455
1224284.499314915,-102368.66,-111459.96,-22451.133,-66457.4,-803.6703,-48611.94,-49584.312,-570.8822
1224284.5033149102,-102349.29,-111445.93,-22429.24,-66447.8,-799.3164,-48602.582,-49586.67,-587.1989
1224284.5073149053,-102341.35,-111428.914,-22434.814,-66438.68,-785.72595,-48575.562,-49571.37,-625.529
1224284.5113149006,-102355.39,-111432.336,-22439.697,-66440.11,-785.19696,-48569.785,-49566.855,-644.16504
1224284.5153148957,-102348.39,-111431.44,-22451.133,-66441.61,-779.94794,-48589.56,-49567.14,-589.2741
1224284.5193148907,-102371.75,-111462.89,-22430.055,-66452.27,-803.6703,-48599.812,-49580.934,-559.2041
1224284.523314886,-102344.04,-111444.18,-22444.947,-66444.46,-792.806,-48590.293,-49572.47,-544.18945
1224284.527314881,-102338.95,-111428.8,-22429.893,-66434.33,-782.22656,-48566.12,-49560.63,-594.1569
1224284.5313148762,-102328.05,-111417.52,-22444.744,-66434.61,-771.932,-48569.906,-49556.766,-608.1543
1224284.5353148715,-102358.24,-111443.73,-22455.322,-66449.34,-787.028,-48593.305,-49578.086,-595.21484
1224284.5393148665,-102361.25,-111454.76,-22455.566,-66453.9,-797.3633,-48608.645,-49595.99,-575.43945
1224284.5433148616,-102345.83,-111443.445,-22432.21,-66443.766,-794.55566,-48593.953,-49583.906,-577.9216
1224284.547314857,-102336.914,-111425.664,-22430.34,-66437.664,-781.6162,-48571.617,-49571.29,-613.28125
1224284.551314852,-102349.734,-111427.05,-22440.715,-66440.39,-779.98865,-48572.633,-49574.504,-629.76074
1224284.5553148473,-102366.87,-111447.8,-22455.893,-66449.14,-786.9873,-48592.977,-49585.816,-608.07294
1224284.5593148423,-102375.164,-111464.4,-22468.71,-66456.055,-799.76404,-48604.207,-49599.203,-600.66736
1224284.5633148374,-102355.8,-111442.06,-22451.945,-66445.195,-790.6901,-48592.57,-49592.082,-604.4922
1224284.5673148327,-102342.05,-111422.41,-22430.787,-66431.234,-770.42645,-48567.14,-49575.195,-622.2331
1224284.5713148278,-102354.82,-111427.9,-22442.588,-66439.086,-775.47205,-48567.87,-49568.848,-638.3871
1224284.5753148228,-102367.234,-111444.42,-22456.951,-66447.72,-781.8197,-48589.887,-49578.086,-600.4232
1224284.5793148181,-102387.984,-111472.25,-22450.928,-66453.05,-797.7702,-48601.36,-49596.723,-581.74646
1224284.5833148132,-102367.96,-111457.195,-22425.172,-66441.04,-793.33496,-48585.246,-49590.82,-601.3591
1224284.5873148085,-102349.0,-111438.766,-22428.428,-66432.66,-778.9714,-48562.99,-49570.926,-630.33044
1224284.5913148036,-102357.95,-111434.82,-22462.607,-66438.56,-770.7113,-48565.633,-49566.203,-634.64355
1224284.5953147986,-102373.54,-111453.9,-22465.496,-66451.46,-782.4707,-48595.258,-49590.414,-608.6833
1224284.599314794,-102376.63,-111472.414,-22434.531,-66450.85,-795.93915,-48606.65,-49604.414,-590.2914
1224284.603314789,-102369.71,-111457.195,-22454.63,-66443.93,-785.1156,-48585.043,-49586.266,-595.74384
1224284.607314784,-102347.984,-111433.96,-22432.09,-66433.555,-768.4733,-48561.484,-49570.516,-633.3008
1224284.6113147794,-102347.01,-111427.375,-22445.598,-66436.2,-763.42773,-48567.586,-49568.402,-639.4857
1224284.6153147744,-102376.1,-111459.96,-22448.73,-66449.99,-789.7543,-48588.3,-49586.754,-614.13574
1224284.6193147695,-102378.18,-111472.82,-22453.451,-66454.14,-801.3916,-48597.656,-49595.01,-590.5355
1224284.6233147648,-102349.49,-111443.98,-22448.04,-66442.016,-782.38934,-48579.43,-49571.617,-572.876
1224284.62731476,-102346.4,-111429.125,-22444.621,-66436.0,-771.7692,-48554.85,-49553.67,-602.2543
1224284.6313147552,-102356.94,-111435.39,-22443.197,-66442.14,-776.48926,-48561.85,-49567.02,-636.39325
1224284.6353147503,-102376.02,-111463.664,-22441.447,-66454.14,-797.404,-48585.246,-49586.02,-614.0544
1224284.6393147453,-102386.97,-111477.87,-22446.574,-66459.76,-807.5358,-48593.63,-49589.316,-581.9092
1224284.6433147406,-102351.52,-111446.375,-22451.01,-66446.375,-788.5742,-48578.004,-49568.77,-577.14844
1224284.6473147357,-102345.18,-111436.164,-22431.479,-66442.305,-778.56445,-48555.664,-49551.11,-610.1074
1224284.6513147308,-102357.016,-111433.35,-22430.99,-66444.17,-776.9369,-48559.652,-49553.223,-617.10614
1224284.655314726,-102384.73,-111460.86,-22437.744,-66455.77,-794.4336,-48578.25,-49572.918,-601.88806
1224284.6593147211,-102379.84,-111464.89,-22462.037,-66462.89,-796.30536,-48589.926,-49576.785,-562.78485
1224284.6633147164,-102360.31,-111448.41,-22451.336,-66450.234,-786.90594,-48576.297,-49572.023,-569.6615
1224284.6673147115,-102345.55,-111428.76,-22434.938,-66438.84,-776.001,-48555.992,-49557.984,-606.32324
1224284.6713147066,-102357.22,-111437.75,-22427.246,-66444.625,-783.3659,-48558.39,-49564.047,-624.75586
1224284.6753147019,-102369.96,-111448.445,-22453.613,-66452.11,-793.17224,-48579.55,-49576.457,-588.13477
1224284.679314697,-102366.21,-111454.836,-22447.754,-66450.28,-796.3867,-48590.66,-49584.676,-558.75653
1224284.683314692,-102351.56,-111438.97,-22429.81,-66436.73,-785.9701,-48572.676,-49573.855,-570.8008
1224284.6873146873,-102341.27,-111417.61,-22422.73,-66428.1,-772.86786,-48550.293,-49562.625,-610.18884
1224284.6913146824,-102346.27,-111416.14,-22429.322,-66431.73,-770.75195,-48550.906,-49564.21,-627.4414
1224284.6953146777,-102366.78,-111443.41,-22441.285,-66446.21,-787.27216,-48573.977,-49575.81,-601.9694
1224284.6993146727,-102364.18,-111455.94,-22439.78,-66450.445,-794.8812,-48585.207,-49575.887,-560.2621
1224284.7033146678,-102346.44,-111440.8,-22427.246,-66440.92,-788.9404,-48571.82,-49570.11,-561.8083
1224284.707314663,-102336.305,-111424.6,-22418.457,-66430.09,-777.3031,-48550.008,-49554.402,-599.1211
1224284.7113146582,-102348.63,-111430.83,-22419.842,-66433.96,-776.69275,-48550.496,-49558.027,-616.5365
1224284.7153146532,-102370.08,-111453.17,-22431.64,-66446.49,-792.9281,-48571.453,-49575.684,-601.5625
1224284.7193146485,-102359.99,-111458.21,-22450.928,-66452.84,-798.8281,-48586.957,-49586.348,-582.6416
1224284.7233146436,-102360.03,-111452.31,-22454.875,-66450.12,-794.75916,-48572.918,-49577.07,-585.2865
1224284.7273146387,-102352.42,-111434.53,-22441.447,-66442.99,-784.7494,-48553.348,-49563.438,-617.7572
1224284.731314634,-102368.33,-111441.66,-22430.502,-66445.766,-787.59766,-48554.12,-49567.547,-639.4857
1224284.735314629,-102370.0,-111445.805,-22460.125,-66455.37,-789.38806,-48581.22,-49586.996,-599.03973
1224284.7393146243,-102373.78,-111462.484,-22453.29,-66456.79,-803.8737,-48588.91,-49586.836,-557.41376
1224284.7433146194,-102356.9,-111448.94,-22445.8,-66446.49,-791.5853,-48571.574,-49568.523,-562.45935
1224284.7473146145,-102343.63,-111426.555,-22437.379,-66433.92,-775.1872,-48548.625,-49549.848,-606.1198
1224284.7513146098,-102357.99,-111435.914,-22428.428,-66440.68,-781.9418,-48551.19,-49547.0,-615.6006
1224284.7553146048,-102374.96,-111453.9,-22455.81,-66457.6,-793.53845,-48574.383,-49559.41,-576.2533
1224284.7593146,-102369.19,-111458.74,-22438.273,-66458.414,-800.82196,-48587.812,-49569.582,-555.1758
1224284.7633145952,-102350.14,-111439.17,-22441.203,-66447.15,-788.9404,-48570.027,-49559.207,-562.9069
1224284.7673145903,-102336.914,-111412.68,-22433.432,-66436.61,-772.86786,-48549.277,-49547.73,-600.708
1224284.7713145856,-102340.984,-111411.664,-22434.979,-66441.81,-771.24023,-48554.242,-49550.54,-615.2344
1224284.7753145806,-102364.34,-111439.87,-22447.836,-66457.195,-789.4694,-48576.824,-49569.38,-592.6921
1224284.7793145757,-102364.586,-111451.13,-22443.93,-66457.89,-798.7875,-48588.992,-49578.98,-566.44696
1224284.783314571,-102351.16,-111441.77,-22410.889,-66447.35,-794.9219,-48575.523,-49572.633,-577.7995
1224284.787314566,-102328.33,-111413.25,-22420.898,-66435.18,-770.75195,-48553.633,-49553.266,-599.1618
1224284.7913145612,-102333.7,-111412.195,-22432.252,-66437.336,-768.7582,-48555.95,-49553.996,-607.58466
1224284.7953145565,-102354.82,-111438.36,-22445.395,-66449.75,-789.2253,-48577.56,-49573.203,-583.8623
1224284.7993145515,-102355.19,-111449.016,-22445.354,-66454.47,-798.4619,-48588.707,-49583.863,-564.81934
1224284.8033145466,-102336.02,-111425.22,-22430.543,-66443.445,-787.43494,-48571.13,-49572.715,-574.0153
1224284.807314542,-102322.67,-111402.02,-22421.916,-66433.92,-770.79266,-48546.754,-49552.45,-605.2246
1224284.811314537,-102335.45,-111409.8,-22415.162,-66437.87,-772.2575,-48552.86,-49558.35,-623.90137
1224284.8153145323,-102357.875,-111434.33,-22440.635,-66453.53,-790.20184,-48580.16,-49580.12,-599.6501
1224284.8193145273,-102368.66,-111454.305,-22445.762,-66461.02,-805.50134,-48591.066,-49589.355,-567.30145
1224284.8233145224,-102342.125,-111427.9,-22436.809,-66445.195,-786.7025,-48573.977,-49573.285,-562.5407
1224284.8273145177,-102330.57,-111410.08,-22429.648,-66433.68,-771.11816,-48553.02,-49563.4,-601.88806
1224284.8313145128,-102340.91,-111417.81,-22423.463,-66436.98,-772.90857,-48555.34,-49565.066,-623.0469
1224284.8353145078,-102362.555,-111440.07,-22437.46,-66447.72,-786.09216,-48574.87,-49581.91,-608.9274
1224284.8393145031,-102370.94,-111455.41,-22443.482,-66453.05,-793.4164,-48588.176,-49592.773,-586.4665
1224284.8433144982,-102353.07,-111434.29,-22437.582,-66442.1,-778.1169,-48573.934,-49575.97,-576.9857
1224284.8473144935,-102342.734,-111419.44,-22430.055,-66434.29,-765.38086,-48554.484,-49562.867,-616.21094
1224284.8513144886,-102354.62,-111429.61,-22432.334,-66439.375,-767.61884,-48557.984,-49565.918,-630.33044
1224284.8553144836,-102371.99,-111450.65,-22443.889,-66451.3,-783.56934,-48581.91,-49578.695,-596.5983
1224284.859314479,-102382.9,-111467.29,-22446.29,-66456.75,-803.6703,-48594.566,-49592.53,-574.0153
1224284.863314474,-102375.125,-111458.26,-22442.709,-66450.6,-795.695,-48580.406,-49581.746,-580.32227
1224284.867314469,-102353.6,-111431.73,-22435.67,-66438.64,-774.6989,-48558.516,-49566.043,-613.64746
1224284.8713144644,-102361.53,-111434.29,-22430.217,-66443.24,-774.53613,-48562.297,-49572.594,-634.27734
1224284.8753144594,-102383.79,-111460.66,-22442.383,-66457.36,-791.25977,-48586.184,-49590.254,-607.91016
1224284.8793144547,-102386.766,-111470.5,-22449.098,-66459.31,-797.933,-48594.117,-49598.066,-585.69336
1224284.8833144498,-102372.93,-111453.9,-22449.586,-66450.65,-789.87634,-48581.3,-49586.754,-588.1755
1224284.8873144449,-102365.64,-111439.09,-22433.514,-66441.125,-776.9369,-48560.875,-49574.14,-625.6918
1224284.8913144402,-102372.32,-111442.71,-22427.857,-66441.81,-771.64716,-48558.758,-49572.266,-643.7988
1224284.8953144352,-102385.7,-111459.92,-22456.422,-66454.51,-779.8666,-48580.324,-49585.613,-619.1
1224284.8993144303,-102389.37,-111472.984,-22460.816,-66461.71,-792.1957,-48595.094,-49597.414,-584.0658
1224284.9033144256,-102370.98,-111454.35,-22445.518,-66448.81,-783.0404,-48577.395,-49582.562,-577.88086
1224284.9073144207,-102365.93,-111439.91,-22433.473,-66443.89,-773.4782,-48558.72,-49571.98,-624.8373
1224284.9113144157,-102370.77,-111439.3,-22433.146,-66446.58,-772.17615,-48563.273,-49575.195,-645.5485
1224284.915314411,-102381.63,-111456.42,-22444.215,-66454.35,-783.93555,-48582.723,-49589.195,-611.613
1224284.919314406,-102379.73,-111461.71,-22447.877,-66458.82,-792.27704,-48592.0,-49593.184,-571.5739
1224284.9233144014,-102356.164,-111437.3,-22436.2,-66448.77,-784.66797,-48575.93,-49581.258,-576.9857
1224284.9273143965,-102342.734,-111415.9,-22431.64,-66439.086,-771.7285,-48553.47,-49564.008,-614.7868
1224284.9313143915,-102357.75,-111419.36,-22432.74,-66444.13,-768.0664,-48556.6,-49561.484,-628.90625
1224284.9353143869,-102380.62,-111447.88,-22435.467,-66458.62,-783.65076,-48582.52,-49580.65,-599.73145
1224284.939314382,-102390.22,-111466.11,-22460.084,-66466.15,-795.8578,-48593.996,-49588.95,-568.4408
1224284.943314377,-102369.39,-111451.016,-22455.486,-66455.65,-788.0453,-48576.336,-49576.254,-573.36426
1224284.9473143723,-102351.04,-111430.95,-22437.176,-66442.42,-770.9961,-48553.957,-49562.543,-612.46747
1224284.9513143674,-102365.69,-111441.2,-22431.967,-66447.59,-775.6755,-48558.72,-49566.61,-628.4994
1224284.9553143627,-102386.36,-111458.46,-22447.754,-66460.53,-793.2943,-48581.707,-49585.816,-600.95215
1224284.9593143577,-102383.836,-111460.33,-22457.113,-66465.09,-801.0254,-48594.727,-49589.887,-557.1696
1224284.9633143528,-102356.57,-111439.87,-22443.482,-66451.5,-786.7025,-48576.215,-49569.785,-559.0414
1224284.967314348,-102346.64,-111423.42,-22435.14,-66442.67,-771.4437,-48554.73,-49554.04,-600.26044
1224284.9713143432,-102364.14,-111434.086,-22435.791,-66447.8,-778.56445,-48559.45,-49559.816,-619.4255
1224284.9753143382,-102379.36,-111457.97,-22441.082,-66458.7,-796.224,-48583.742,-49579.387,-593.099
1224284.9793143335,-102385.625,-111466.555,-22443.115,-66461.875,-800.2523,-48592.9,-49589.03,-564.33105
1224284.9833143286,-102373.945,-111449.67,-22447.348,-66456.914,-790.975,-48578.98,-49577.11,-567.8711
1224284.9873143237,-102358.97,-111428.59,-22446.9,-66448.24,-775.0244,-48561.117,-49564.94,-602.8646
1224284.991314319,-102369.71,-111434.66,-22441.244,-66450.03,-775.5534,-48561.688,-49567.63,-619.7103
1224284.995314314,-102389.61,-111454.305,-22453.857,-66462.73,-788.4115,-48583.254,-49578.37,-591.5121
1224284.9993143093,-102382.24,-111456.99,-22457.357,-66464.195,-793.13153,-48594.035,-49582.074,-561.93036
1224285.0033143044,-102359.83,-111436.37,-22443.523,-66451.375,-784.2611,-48576.785,-49570.11,-569.0918
1224285.0073142995,-102338.99,-111413.13,-22433.229,-66442.47,-768.1478,-48555.504,-49552.86,-602.37634
1224285.0113142948,-102358.93,-111416.914,-22442.506,-66448.57,-770.8334,-48557.66,-49552.777,-616.4551
1224285.0153142898,-102379.195,-111443.89,-22450.236,-66459.84,-791.6667,-48579.023,-49571.332,-590.4948
1224285.019314285,-102373.87,-111447.8,-22455.69,-66461.875,-797.7702,-48589.926,-49575.727,-548.2585
1224285.0233142802,-102361.49,-111436.94,-22451.783,-66457.93,-789.7543,-48578.086,-49568.035,-564.6566
1224285.0273142753,-102348.72,-111414.836,-22432.617,-66444.79,-770.8334,-48555.95,-49554.445,-608.80536
1224285.0313142706,-102351.56,-111411.18,-22443.727,-66448.41,-771.11816,-48560.184,-49552.9,-611.5316
1224285.0353142656,-102369.63,-111440.68,-22449.504,-66461.67,-791.9108,-48580.812,-49563.844,-576.37537
1224285.0393142607,-102380.78,-111460.86,-22449.992,-66468.79,-805.9489,-48593.02,-49576.05,-560.34344
1224285.043314256,-102363.65,-111444.38,-22431.56,-66457.73,-793.6605,-48575.81,-49564.7,-559.52966
1224285.047314251,-102342.86,-111414.836,-22438.682,-66448.125,-772.17615,-48553.062,-49543.582,-584.14716
1224285.0513142461,-102356.53,-111423.305,-22443.809,-66454.76,-776.0417,-48558.84,-49552.043,-609.7819
1224285.0553142414,-102378.22,-111451.7,-22441.732,-66467.45,-792.27704,-48585.938,-49581.79,-597.5342
1224285.0593142365,-102379.88,-111456.95,-22451.824,-66470.18,-798.74677,-48594.566,-49586.754,-574.78845
1224285.0633142318,-102358.484,-111437.14,-22451.416,-66462.445,-786.58044,-48581.3,-49572.023,-583.5775
1224285.0673142269,-102349.164,-111416.266,-22447.186,-66454.43,-774.821,-48559.207,-49548.707,-606.36395
1224285.071314222,-102354.9,-111416.18,-22442.627,-66457.12,-776.4486,-48565.715,-49554.12,-616.6992
1224285.0753142172,-102383.51,-111446.78,-22456.787,-66471.64,-796.3867,-48589.152,-49575.562,-591.91895
1224285.0793142123,-102378.79,-111451.17,-22459.678,-66470.91,-799.64197,-48600.344,-49579.348,-560.791
1224285.0833142074,-102363.445,-111434.45,-22451.01,-66458.17,-788.81836,-48583.457,-49567.305,-584.8796
1224285.0873142027,-102356.734,-111423.38,-22429.566,-66451.01,-776.2858,-48562.99,-49552.777,-617.63513
1224285.0913141978,-102371.38,-111428.305,-22442.709,-66459.27,-778.89,-48571.492,-49555.707,-626.50555
1224285.0953141928,-102389.125,-111448.81,-22463.867,-66471.84,-796.46814,-48596.76,-49576.62,-597.4121
1224285.0993141881,-102384.484,-111454.8,-22471.191,-66473.02,-800.45575,-48604.453,-49580.85,-564.209
1224285.1033141832,-102370.24,-111438.6,-22453.898,-66464.73,-786.90594,-48587.445,-49566.164,-570.27185
1224285.1073141785,-102355.39,-111416.71,-22441.244,-66455.41,-771.4844,-48568.727,-49551.473,-605.5502
1224285.1113141736,-102368.984,-111415.086,-22453.37,-66461.43,-770.42645,-48574.3,-49557.17,-623.3317
1224285.1153141686,-102375.98,-111431.73,-22455.283,-66469.41,-778.23895,-48595.01,-49571.574,-592.0817
1224285.119314164,-102380.984,-111450.484,-22457.764,-66473.555,-789.1032,-48601.035,-49576.094,-562.5
1224285.123314159,-102358.89,-111430.016,-22450.44,-66462.98,-775.63477,-48583.54,-49559.773,-564.04626
1224285.127314154,-102350.43,-111412.4,-22444.133,-66453.78,-762.28845,-48562.664,-49539.836,-592.5293
1224285.1313141494,-102363.94,-111420.984,-22453.166,-66461.875,-768.67676,-48571.13,-49546.387,-601.84735
1224285.1353141444,-102379.84,-111440.31,-22472.047,-66478.44,-784.46454,-48598.594,-49568.117,-573.93396
1224285.1393141397,-102387.945,-111455.04,-22462.932,-66484.375,-796.5495,-48610.11,-49581.18,-567.5049
1224285.1433141348,-102365.6,-111430.38,-22466.92,-66470.016,-779.78516,-48584.27,-49561.16,-567.098
1224285.1473141299,-102340.87,-111402.23,-22440.553,-66454.43,-758.62634,-48565.51,-49543.54,-593.34314
1224285.1513141252,-102350.016,-111404.83,-22445.842,-66458.21,-759.5215,-48571.25,-49542.402,-592.7328
1224285.1553141202,-102368.05,-111429.57,-22449.342,-66469.2,-777.2217,-48593.793,-49564.21,-578.89813
1224285.1593141153,-102376.75,-111444.5,-22449.098,-66471.6,-791.05634,-48605.754,-49578.37,-566.97595
1224285.1633141106,-102356.85,-111419.27,-22462.525,-66463.18,-774.94305,-48586.508,-49560.59,-579.10156
1224285.1673141057,-102338.75,-111397.42,-22449.79,-66452.27,-754.76074,-48564.13,-49538.414,-605.95703
1224285.1713141007,-102353.97,-111409.67,-22445.312,-66458.09,-757.28357,-48569.215,-49545.047,-619.18134
1224285.175314096,-102378.586,-111439.375,-22455.201,-66475.22,-781.20935,-48595.664,-49565.51,-594.07556
1224285.179314091,-102392.46,-111456.75,-22453.29,-66479.375,-795.2881,-48605.836,-49572.105,-562.0524
1224285.1833140864,-102381.15,-111443.445,-22460.45,-66472.945,-783.97626,-48589.234,-49559.367,-566.3249
1224285.1873140815,-102360.97,-111409.266,-22455.04,-66465.09,-764.72986,-48574.91,-49549.4,-603.43427
1224285.1913140765,-102366.21,-111401.94,-22446.127,-66468.14,-760.86426,-48583.336,-49563.19,-637.3291
1224285.1953140718,-102396.2,-111435.8,-22460.531,-66481.08,-781.2907,-48605.062,-49583.58,-626.709
1224285.199314067,-102381.35,-111437.42,-22473.594,-66479.74,-781.4128,-48615.887,-49582.48,-583.74023
1224285.203314062,-102354.984,-111416.71,-22457.928,-66467.164,-771.7285,-48597.617,-49571.332,-589.681
1224285.2073140573,-102352.42,-111397.75,-22448.527,-66459.59,-761.75946,-48580.406,-49555.016,-610.7585
1224285.2113140523,-102356.85,-111396.164,-22452.312,-66465.336,-763.99744,-48587.605,-49558.27,-623.69794
1224285.2153140476,-102375.62,-111419.88,-22468.914,-66476.85,-779.2969,-48611.74,-49576.66,-606.7709
1224285.2193140427,-102379.07,-111432.055,-22472.78,-66481.08,-788.8591,-48622.684,-49585.207,-580.2816
1224285.2233140378,-102363.61,-111411.79,-22450.195,-66467.57,-778.6865,-48601.81,-49566.45,-582.03125
1224285.227314033,-102354.01,-111394.125,-22444.092,-66463.26,-766.5609,-48585.164,-49555.055,-614.99023
1224285.2313140281,-102356.0,-111390.266,-22454.998,-66467.2,-758.26013,-48594.363,-49560.184,-625.77313
1224285.2353140232,-102368.45,-111411.42,-22461.793,-66473.8,-769.20575,-48616.66,-49575.48,-594.7673
1224285.2393140185,-102365.195,-111422.98,-22455.404,-66474.65,-781.8197,-48625.246,-49584.516,-572.0215
1224285.2433140136,-102349.086,-111405.69,-22445.842,-66466.23,-775.9196,-48606.242,-49575.195,-587.07684
1224285.247314009,-102340.336,-111387.82,-22446.941,-66459.19,-762.98016,-48585.86,-49557.457,-615.6413
1224285.251314004,-102345.79,-111391.97,-22445.557,-66462.69,-763.83466,-48591.188,-49563.477,-620.6869
1224285.255313999,-102366.375,-111416.95,-22462.322,-66478.234,-780.63965,-48617.516,-49584.11,-590.0879
1224285.2593139943,-102375.125,-111432.055,-22457.52,-66481.04,-794.23016,-48626.305,-49588.707,-574.25946
1224285.2633139894,-102343.1,-111395.23,-22437.297,-66455.41,-768.0664,-48592.938,-49561.605,-565.0635
1224285.2673139845,-102305.586,-111347.945,-22418.701,-66432.25,-736.04333,-48555.992,-49527.793,-585.7341
1224285.2713139798,-102316.57,-111345.664,-22415.162,-66432.25,-732.21844,-48555.992,-49525.72,-592.00037
1224285.2753139748,-102337.41,-111370.89,-22425.416,-66444.26,-746.62274,-48580.77,-49542.645,-566.6911
1224285.27931397,-102345.46,-111393.27,-22435.791,-66453.53,-760.57947,-48595.38,-49553.55,-543.3757
1224285.2833139652,-102334.234,-111381.68,-22419.922,-66443.445,-751.50555,-48575.32,-49541.14,-550.49646
1224285.2873139603,-102317.875,-111362.96,-22410.645,-66434.45,-737.3047,-48553.836,-49524.78,-575.64294
1224285.2913139556,-102324.836,-111365.93,-22425.578,-66438.64,-735.9619,-48561.566,-49529.01,-593.34314
1224285.2953139506,-102338.83,-111380.13,-22425.578,-66446.945,-746.0531,-48584.96,-49544.11,-558.26825
1224285.2993139457,-102340.74,-111387.74,-22432.781,-66449.14,-751.9125,-48592.695,-49549.36,-530.1921
1224285.303313941,-102324.22,-111370.484,-22430.34,-66436.41,-736.8571,-48573.04,-49531.496,-530.5583
1224285.307313936,-102312.664,-111350.95,-22417.766,-66426.555,-721.6797,-48554.85,-49516.24,-562.0524
1224285.3113139311,-102331.625,-111364.914,-22429.322,-66437.91,-730.14325,-48564.7,-49531.17,-595.459
1224285.3153139264,-102345.7,-111386.27,-22439.453,-66449.55,-747.15173,-48590.457,-49563.152,-576.4567
1224285.3193139215,-102343.266,-111392.09,-22436.688,-66450.69,-755.2084,-48599.203,-49559.855,-540.8122
1224285.3233139168,-102333.945,-111372.12,-22429.363,-66439.05,-743.4082,-48575.645,-49536.746,-546.9157
1224285.3273139119,-102310.59,-111341.15,-22420.736,-66428.23,-722.37146,-48550.742,-49510.867,-572.7539
1224285.331313907,-102320.234,-111347.66,-22415.936,-66431.766,-724.9756,-48553.508,-49510.664,-579.183
1224285.3353139022,-102339.234,-111369.59,-22430.096,-66442.875,-738.76953,-48574.63,-49525.72,-553.8737
1224285.3393138973,-102338.79,-111377.52,-22431.602,-66446.29,-747.64,-48586.387,-49538.13,-531.49414
1224285.3433138924,-102326.22,-111359.22,-22420.736,-66435.34,-734.0902,-48570.19,-49524.945,-534.4238
1224285.3473138877,-102309.0,-111335.21,-22409.994,-66422.41,-715.9831,-48551.35,-49511.273,-572.14355
1224285.3513138827,-102321.62,-111344.08,-22412.68,-66427.33,-720.0114,-48556.234,-49516.684,-586.4258
1224285.3553138778,-102340.375,-111371.87,-22424.48,-66442.305,-733.6426,-48579.227,-49533.773,-560.87244
1224285.359313873,-102334.68,-111380.375,-22414.104,-66443.52,-740.39716,-48587.89,-49541.87,-532.959
1224285.3633138682,-102308.84,-111356.57,-22415.61,-66431.32,-726.88806,-48568.727,-49524.09,-538.16736
1224285.3673138635,-102308.64,-111344.57,-22409.059,-66427.49,-720.1335,-48554.65,-49516.727,-576.945
1224285.3713138585,-102321.375,-111349.81,-22413.412,-66430.99,-725.66736,-48561.77,-49534.18,-606.5674
1224285.3753138536,-102336.02,-111372.4,-22418.174,-66443.81,-739.3799,-48583.54,-49554.402,-585.53064
1224285.379313849,-102337.28,-111379.88,-22431.805,-66446.86,-741.78064,-48591.676,-49556.113,-552.20544
1224285.383313844,-102330.445,-111371.55,-22419.922,-66441.81,-737.0199,-48572.88,-49541.992,-557.90204
1224285.387313839,-102307.21,-111343.75,-22398.031,-66427.49,-719.6859,-48550.66,-49524.984,-587.03613
1224285.3913138343,-102315.836,-111347.984,-22404.664,-66429.85,-722.00525,-48559.855,-49530.07,-592.2038
1224285.3953138294,-102335.33,-111372.234,-22418.092,-66441.66,-736.9385,-48584.434,-49542.684,-559.7331
1224285.3993138247,-102333.3,-111376.55,-22417.115,-66444.54,-745.1986,-48591.023,-49542.32,-535.19696
1224285.4033138198,-102309.82,-111349.61,-22399.13,-66429.28,-733.27637,-48569.582,-49520.996,-539.2253
1224285.4073138149,-102292.4,-111325.08,-22390.342,-66417.445,-711.54785,-48546.227,-49499.715,-569.4987
1224285.4113138102,-102310.23,-111338.46,-22403.605,-66428.305,-715.2507,-48555.867,-49510.297,-585.53064
1224285.4153138052,-102332.89,-111362.1,-22418.783,-66441.2,-729.0039,-48579.754,-49528.89,-559.4076
1224285.4193138003,-102332.52,-111367.64,-22421.348,-66443.08,-737.99646,-48589.03,-49530.805,-528.72723
1224285.4233137956,-102319.42,-111352.79,-22407.92,-66432.66,-732.58466,-48570.312,-49513.594,-528.1576
1224285.4273137907,-102305.38,-111333.5,-22390.422,-66422.08,-718.8721,-48546.836,-49495.363,-557.1696
1224285.4313137857,-102312.22,-111337.164,-22402.467,-66426.72,-718.9535,-48552.246,-49495.89,-567.83044
1224285.435313781,-102326.99,-111356.695,-22409.465,-66438.03,-735.83984,-48575.766,-49512.492,-539.7543
1224285.439313776,-102329.8,-111367.03,-22423.137,-66442.1,-744.05927,-48584.555,-49519.695,-513.5905
1224285.4433137714,-102304.85,-111341.39,-22406.17,-66430.3,-729.7363,-48566.33,-49504.76,-522.50165
1224285.4473137665,-102296.92,-111327.11,-22396.404,-66425.46,-717.00037,-48552.37,-49497.4,-560.87244
1224285.4513137615,-102318.766,-111340.664,-22407.838,-66431.48,-722.29004,-48561.81,-49512.004,-578.36914
1224285.4553137568,-102341.88,-111366.01,-22420.045,-66440.88,-738.1592,-48586.914,-49535.117,-562.2152
1224285.459313752,-102344.73,-111376.14,-22420.29,-66444.54,-746.5007,-48594.93,-49542.32,-529.2969
1224285.463313747,-102320.516,-111353.4,-22417.197,-66433.59,-727.21356,-48576.5,-49518.84,-521.64716
1224285.4673137423,-102300.46,-111331.305,-22401.164,-66422.85,-711.58856,-48557.902,-49503.664,-550.5371
1224285.4713137373,-102315.72,-111338.55,-22401.979,-66428.63,-713.3789,-48562.5,-49502.035,-559.12274
1224285.4753137326,-102341.76,-111365.03,-22424.113,-66444.13,-733.8867,-48588.625,-49520.918,-538.9404
1224285.4793137277,-102342.164,-111374.68,-22427.695,-66448.41,-740.76337,-48596.76,-49527.184,-516.3168
1224285.4833137228,-102331.914,-111359.375,-22416.953,-66439.78,-727.4577,-48574.06,-49510.742,-523.1527
1224285.487313718,-102319.5,-111337.04,-22408.326,-66431.84,-713.5824,-48558.96,-49506.145,-564.86005
1224285.4913137131,-102331.875,-111343.34,-22406.78,-66435.47,-713.8672,-48564.535,-49514.203,-582.03125
1224285.4953137082,-102356.94,-111372.27,-22416.83,-66449.47,-734.33435,-48590.863,-49534.87,-552.04266
1224285.4993137035,-102357.625,-111381.76,-22427.857,-66453.05,-744.05927,-48599.69,-49535.77,-526.4079
1224285.5033136986,-102332.195,-111359.17,-22417.807,-66441.33,-730.5502,-48580.69,-49518.477,-536.7839
1224285.5073136939,-102324.305,-111342.45,-22414.023,-66435.875,-718.66864,-48561.24,-49505.453,-571.85876
1224285.511313689,-102344.85,-111355.15,-22418.986,-66444.74,-722.29004,-48568.605,-49513.47,-587.7279
1224285.515313684,-102365.32,-111377.52,-22431.479,-66457.64,-733.724,-48590.66,-49524.008,-554.4841
1224285.5193136793,-102361.945,-111382.61,-22434.043,-66459.72,-738.1999,-48600.63,-49527.957,-525.79755
1224285.5233136744,-102345.055,-111361.58,-22420.86,-66447.555,-725.30115,-48582.766,-49510.742,-524.57684
1224285.5273136694,-102340.58,-111348.96,-22416.3,-66440.92,-717.48865,-48565.84,-49497.195,-562.41864
1224285.5313136647,-102354.78,-111361.29,-22418.254,-66450.484,-724.2025,-48576.863,-49501.508,-574.21875
1224285.5353136598,-102356.85,-111372.56,-22429.443,-66456.586,-730.3874,-48597.168,-49512.695,-535.0342
1224285.5393136549,-102355.06,-111378.34,-22430.828,-66456.18,-734.70056,-48607.3,-49518.434,-512.77673
1224285.5433136502,-102336.914,-111357.95,-22416.139,-66443.12,-720.0928,-48585.86,-49500.613,-511.84085
1224285.5473136452,-102328.66,-111338.664,-22403.32,-66433.39,-706.33954,-48565.023,-49491.863,-550.6185
1224285.5513136405,-102343.23,-111348.35,-22409.75,-66442.95,-712.1989,-48578.453,-49501.71,-565.6738
1224285.5553136356,-102357.79,-111370.445,-22427.734,-66455.37,-726.3591,-48600.098,-49516.316,-541.1377
1224285.5593136307,-102360.07,-111379.84,-22429.281,-66456.99,-731.1605,-48604.94,-49519.086,-511.39325
1224285.563313626,-102340.3,-111358.97,-22415.812,-66445.56,-719.03485,-48589.355,-49507.45,-522.17615
1224285.567313621,-102326.09,-111335.53,-22413.33,-66437.54,-704.67126,-48570.56,-49494.832,-553.182
1224285.5713136161,-102338.79,-111341.8,-22410.117,-66442.14,-707.19403,-48576.742,-49502.727,-576.66016
1224285.5753136114,-102357.83,-111366.984,-22416.22,-66455.98,-724.2025,-48604.414,-49524.66,-551.7985
1224285.5793136065,-102365.97,-111381.27,-22426.475,-66458.945,-731.5674,-48612.145,-49531.496,-528.19824
1224285.5833136018,-102351.16,-111366.83,-22421.307,-66447.59,-719.3197,-48592.938,-49517.66,-540.16113
1224285.5873135969,-102347.3,-111350.43,-22417.969,-66442.14,-711.3037,-48575.93,-49509.848,-585.8154
1224285.591313592,-102359.91,-111359.016,-22423.584,-66450.56,-716.7155,-48585.98,-49519.207,-601.80664
1224285.5953135872,-102377.41,-111382.0,-22437.42,-66461.34,-730.5502,-48610.516,-49538.617,-578.8574
1224285.5993135823,-102374.76,-111388.836,-22438.64,-66461.67,-735.18884,-48615.97,-49538.617,-546.9971
1224285.6033135774,-102362.06,-111375.77,-22428.752,-66454.35,-725.58594,-48597.656,-49525.39,-555.7048
1224285.6073135727,-102352.99,-111359.42,-22424.357,-66450.65,-715.77966,-48583.984,-49512.37,-584.10645
1224285.6113135677,-102366.78,-111367.03,-22428.428,-66458.375,-722.4121,-48594.81,-49513.875,-589.15204
1224285.6153135628,-102373.414,-111380.3,-22435.752,-66469.04,-731.85223,-48618.613,-49526.41,-551.67645
1224285.619313558,-102367.64,-111382.66,-22434.043,-66468.06,-735.02606,-48624.758,-49530.805,-520.10095
1224285.6233135532,-102351.36,-111370.53,-22431.723,-66459.72,-724.528,-48606.285,-49517.78,-539.7949
1224285.6273135485,-102338.99,-111347.74,-22420.207,-66449.95,-711.54785,-48587.445,-49506.633,-580.363
1224285.6313135435,-102352.91,-111350.75,-22423.707,-66452.19,-711.3444,-48594.16,-49511.477,-596.80176
1224285.6353135386,-102371.42,-111368.9,-22436.564,-66463.18,-722.6156,-48619.832,-49527.793,-576.416
1224285.639313534,-102372.73,-111375.695,-22439.17,-66467.086,-731.03845,-48631.96,-49535.117,-545.3288
1224285.643313529,-102358.85,-111356.53,-22427.857,-66455.94,-719.4824,-48613.566,-49521.566,-544.9219
1224285.647313524,-102349.66,-111340.82,-22420.207,-66446.01,-707.03125,-48594.566,-49510.05,-577.3519
1224285.6513135193,-102356.81,-111348.96,-22428.71,-66452.88,-705.6071,-48604.902,-49517.375,-593.9128
1224285.6553135144,-102372.07,-111373.17,-22439.25,-66466.48,-723.02246,-48630.78,-49543.17,-584.96094
1224285.6593135097,-102372.89,-111382.125,-22441.082,-66470.3,-733.11365,-48637.168,-49546.875,-559.3669
1224285.6633135048,-102354.29,-111362.266,-22427.328,-66456.586,-720.8659,-48616.62,-49528.934,-572.4284
1224285.6673134998,-102349.164,-111348.07,-22420.33,-66451.984,-711.4258,-48601.562,-49519.41,-602.2949
1224285.6713134951,-102361.21,-111357.67,-22415.732,-66458.5,-715.1286,-48608.97,-49524.984,-606.4453
1224285.6753134902,-102379.44,-111383.34,-22436.932,-66470.87,-728.39355,-48633.465,-49541.63,-568.68494
1224285.6793134853,-102378.016,-111388.92,-22447.47,-66472.66,-732.74744,-48638.145,-49542.81,-546.30536
1224285.6833134806,-102360.4,-111365.73,-22432.658,-66461.266,-722.81903,-48617.88,-49527.02,-557.6172
1224285.6873134756,-102351.08,-111344.77,-22429.973,-66454.14,-710.32715,-48598.473,-49508.832,-587.60583
1224285.691313471,-102363.77,-111353.31,-22427.572,-66456.34,-712.2396,-48603.516,-49510.38,-598.999
1224285.695313466,-102384.445,-111377.93,-22439.861,-66468.95,-728.75977,-48628.99,-49531.09,-571.0043
1224285.699313461,-102386.64,-111389.33,-22445.477,-66472.375,-733.5205,-48639.285,-49537.598,-536.37695
1224285.7033134564,-102366.46,-111369.34,-22435.752,-66460.05,-724.8942,-48621.91,-49519.9,-546.3867
1224285.7073134515,-102359.78,-111353.31,-22424.56,-66454.14,-716.3086,-48603.56,-49506.51,-589.4369
1224285.7113134465,-102373.13,-111361.05,-22435.752,-66462.37,-719.93005,-48613.566,-49514.49,-604.5329
1224285.7153134418,-102385.91,-111383.016,-22447.145,-66471.516,-734.1716,-48635.906,-49532.555,-580.32227
1224285.719313437,-102383.06,-111389.81,-22448.73,-66472.25,-738.1185,-48639.49,-49534.953,-548.74677
1224285.723313432,-102372.27,-111375.164,-22439.658,-66463.87,-724.73145,-48619.062,-49519.53,-563.11035
1224285.7273134273,-102363.445,-111357.305,-22428.875,-66456.55,-714.1113,-48600.914,-49504.598,-590.90173
1224285.7313134223,-102380.5,-111366.87,-22434.652,-66467.57,-722.29004,-48613.73,-49513.875,-607.25916
1224285.7353134176,-102400.15,-111389.94,-22450.156,-66480.836,-739.13574,-48639.49,-49528.973,-581.70575
1224285.7393134127,-102399.87,-111396.125,-22457.316,-66481.24,-746.3786,-48645.918,-49533.734,-555.0537
1224285.7433134078,-102378.38,-111377.32,-22449.219,-66471.516,-735.92126,-48625.855,-49519.207,-565.4297
1224285.747313403,-102374.59,-111362.59,-22442.75,-66463.99,-721.9238,-48605.184,-49503.094,-593.75
1224285.7513133981,-102386.92,-111372.64,-22445.068,-66468.95,-721.11005,-48612.184,-49511.07,-611.613
1224285.7553133932,-102404.055,-111394.33,-22456.34,-66481.61,-738.1592,-48638.023,-49530.234,-585.612
1224285.7593133885,-102407.59,-111400.92,-22456.504,-66485.27,-746.8262,-48648.438,-49541.26,-552.4496
1224285.7633133836,-102387.29,-111381.516,-22449.18,-66475.875,-736.77576,-48629.723,-49529.664,-565.6332
1224285.7673133789,-102378.42,-111367.84,-22439.453,-66468.75,-728.23083,-48610.477,-49518.11,-602.2949
1224285.771313374,-102388.19,-111378.016,-22444.703,-66474.94,-728.88184,-48619.875,-49525.105,-617.7572
1224285.775313369,-102405.805,-111401.57,-22459.758,-66485.35,-744.05927,-48643.516,-49539.55,-590.4948
1224285.7793133643,-102402.875,-111409.38,-22459.066,-66485.48,-748.8607,-48652.14,-49543.17,-563.1918
1224285.7833133594,-102383.75,-111390.016,-22451.621,-66474.24,-736.04333,-48633.26,-49531.535,-570.8822
1224285.7873133544,-102366.414,-111363.37,-22443.115,-66463.3,-718.8314,-48614.543,-49514.895,-603.3122
1224285.7913133497,-102375.33,-111365.03,-22443.97,-66468.586,-719.4824,-48622.48,-49520.918,-618.9779
1224285.7953133448,-102400.516,-111392.016,-22459.88,-66482.83,-735.3109,-48647.383,-49541.707,-600.4232
1224285.7993133399,-102406.984,-111406.82,-22459.148,-66484.74,-743.7744,-48656.17,-49547.363,-570.4346
1224285.8033133352,-102383.14,-111382.9,-22446.777,-66470.18,-728.475,-48636.72,-49527.14,-565.22626
1224285.8073133302,-102369.59,-111365.69,-22443.238,-66463.625,-716.5121,-48620.65,-49516.44,-605.2246
1224285.8113133255,-102378.016,-111374.39,-22445.639,-66472.86,-723.6735,-48633.504,-49527.14,-615.1123
1224285.8153133206,-102390.99,-111395.35,-22455.12,-66481.85,-739.54266,-48654.95,-49540.164,-579.95605
1224285.8193133157,-102390.51,-111400.59,-22459.799,-66483.4,-745.5241,-48659.305,-49538.047,-545.695
1224285.823313311,-102367.96,-111377.73,-22444.092,-66473.47,-732.5033,-48636.72,-49521.934,-556.19305
1224285.827313306,-102356.49,-111356.57,-22432.7,-66464.6,-718.4245,-48616.09,-49505.496,-589.02997
1224285.831313301,-102369.47,-111361.66,-22439.414,-66472.086,-723.3073,-48625.164,-49512.207,-603.1901
1224285.8353132964,-102387.125,-111388.35,-22445.639,-66482.83,-736.04333,-48649.58,-49528.566,-571.8994
1224285.8393132915,-102388.8,-111396.65,-22441.367,-66482.914,-744.2627,-48658.734,-49535.89,-548.5026
1224285.8433132868,-102365.89,-111370.65,-22443.4,-66472.01,-726.88806,-48639.895,-49520.633,-556.55927
1224285.8473132818,-102358.65,-111354.01,-22433.31,-66465.25,-713.9079,-48623.617,-49513.957,-605.95703
1224285.851313277,-102371.09,-111364.55,-22438.803,-66471.48,-718.75,-48634.117,-49522.586,-614.54266
1224285.8553132722,-102390.18,-111391.52,-22452.678,-66486.414,-739.9089,-48659.793,-49536.99,-580.7292
1224285.8593132673,-102390.55,-111399.26,-22447.592,-66488.28,-749.2676,-48665.812,-49543.01,-557.90204
1224285.8633132624,-102371.18,-111382.0,-22443.564,-66478.516,-737.42676,-48643.637,-49525.39,-563.1918
1224285.8673132577,-102365.89,-111369.51,-22437.379,-66473.23,-723.14453,-48625.164,-49510.133,-599.6094
1224285.8713132527,-102377.65,-111381.15,-22442.1,-66480.15,-732.17773,-48636.965,-49520.793,-618.5303
1224285.875313248,-102390.55,-111398.766,-22451.66,-66488.57,-743.16406,-48660.32,-49537.598,-595.4997
1224285.879313243,-102389.37,-111405.195,-22455.527,-66490.07,-743.32684,-48663.656,-49537.723,-567.098
1224285.8833132382,-102374.92,-111388.8,-22444.906,-66483.73,-735.7178,-48644.37,-49522.383,-574.42224
1224285.8873132335,-102364.34,-111366.945,-22434.367,-66475.875,-722.16797,-48625.938,-49506.797,-595.62177
1224285.8913132285,-102379.195,-111380.3,-22441.447,-66483.12,-729.24805,-48639.324,-49519.41,-609.5785
1224285.8953132236,-102402.1,-111409.305,-22458.781,-66495.77,-747.35516,-48663.37,-49539.43,-583.25195
1224285.899313219,-102404.016,-111418.83,-22462.852,-66499.48,-753.8249,-48669.598,-49542.36,-558.1869
1224285.903313214,-102376.305,-111395.76,-22457.52,-66488.53,-736.2875,-48650.35,-49524.008,-570.516
1224285.907313209,-102373.45,-111385.336,-22453.248,-66482.016,-726.3591,-48632.61,-49508.547,-602.2949
1224285.9113132043,-102390.83,-111396.65,-22461.71,-66490.16,-731.5674,-48643.27,-49519.41,-617.51306
1224285.9153131994,-102410.56,-111426.03,-22475.627,-66506.516,-753.1332,-48672.65,-49543.297,-595.58105
1224285.9193131947,-102407.84,-111431.16,-22473.959,-66502.445,-757.8939,-48675.906,-49545.9,-562.9069
1224285.9233131898,-102391.73,-111408.98,-22465.293,-66490.44,-747.84344,-48654.83,-49532.35,-575.765
1224285.9273131848,-102384.08,-111397.38,-22455.078,-66486.49,-737.58954,-48638.715,-49524.008,-616.1703
1224285.9313131801,-102396.81,-111407.76,-22464.234,-66492.19,-734.29364,-48648.97,-49533.45,-634.9691
1224285.9353131752,-102394.9,-111412.73,-22471.559,-66501.016,-742.391,-48677.41,-49560.508,-616.9027
1224285.9393131703,-102394.17,-111409.1,-22481.242,-66502.85,-748.291,-48685.75,-49563.56,-580.6885
1224285.9433131656,-102379.31,-111391.805,-22474.162,-66491.05,-735.55505,-48665.895,-49546.797,-582.6416
1224285.9473131606,-102357.22,-111365.4,-22459.596,-66479.984,-717.65137,-48648.766,-49537.477,-620.60547
1224285.951313156,-102356.94,-111361.53,-22461.63,-66485.64,-718.66864,-48662.68,-49548.137,-636.556
1224285.955313151,-102369.63,-111379.16,-22472.82,-66495.69,-731.9743,-48685.387,-49563.438,-608.27637
1224285.959313146,-102362.836,-111379.27,-22472.697,-66497.03,-736.084,-48691.57,-49570.598,-590.0879
1224285.9633131414,-102341.555,-111354.414,-22462.24,-66484.78,-721.47626,-48670.086,-49548.016,-594.36035
1224285.9673131364,-102324.625,-111327.07,-22453.37,-66474.0,-706.4616,-48649.824,-49527.47,-617.0248
1224285.9713131315,-102333.664,-111334.234,-22459.27,-66478.97,-712.03613,-48661.258,-49536.664,-632.487
1224285.9753131268,-102350.016,-111358.08,-22475.75,-66492.88,-727.6205,-48690.473,-49564.25,-613.3627
1224285.9793131219,-102346.36,-111362.59,-22479.045,-66496.09,-731.4453,-48697.55,-49566.33,-582.4382
1224285.983313117,-102328.74,-111341.07,-22464.844,-66485.11,-720.21484,-48676.598,-49549.727,-585.89685
1224285.9873131122,-102320.195,-111326.79,-22450.44,-66474.53,-706.6244,-48658.613,-49536.094,-622.9248
1224285.9913131073,-102333.74,-111338.34,-22455.69,-66480.76,-707.3568,-48667.035,-49537.68,-639.0788
1224285.9953131026,-102354.21,-111362.15,-22468.791,-66495.28,-724.2025,-48693.2,-49553.836,-610.1074
1224285.9993130977,-102351.56,-111362.23,-22473.594,-66498.58,-728.5156,-48695.312,-49547.527,-570.96356
1224286.0033130927,-102336.47,-111342.164,-22459.717,-66486.58,-716.43066,-48671.1,-49521.242,-569.8649
1224286.007313088,-102332.32,-111324.914,-22453.207,-66478.88,-703.2471,-48651.9,-49511.76,-602.0915
1224286.011313083,-102340.984,-111333.26,-22456.91,-66484.78,-708.45544,-48661.176,-49522.79,-612.63025
1224286.0153130782,-102359.74,-111358.484,-22469.688,-66496.46,-724.73145,-48685.957,-49537.438,-587.11755
1224286.0193130735,-102365.16,-111364.305,-22475.098,-66498.25,-732.91016,-48693.89,-49542.035,-554.8096
1224286.0233130686,-102346.36,-111347.01,-22467.367,-66489.09,-721.1914,-48676.598,-49528.242,-566.56903
1224286.0273130639,-102339.44,-111334.555,-22461.346,-66482.625,-710.53064,-48660.36,-49514.65,-602.21356
1224286.031313059,-102359.91,-111350.38,-22470.135,-66492.27,-715.2914,-48671.51,-49522.992,-614.8275
1224286.035313054,-102384.28,-111376.8,-22483.848,-66504.68,-729.61426,-48695.07,-49541.504,-584.2285
1224286.0393130493,-102386.64,-111382.33,-22486.125,-66504.234,-737.3454,-48700.32,-49542.32,-553.4668
1224286.0433130444,-102367.64,-111364.305,-22475.139,-66492.68,-724.2025,-48681.113,-49523.52,-566.6504
1224286.0473130394,-102356.41,-111349.94,-22469.523,-66486.66,-712.11755,-48666.547,-49514.203,-598.7956
1224286.0513130347,-102367.84,-111358.24,-22474.244,-66490.97,-717.2038,-48675.703,-49520.223,-611.084
1224286.0553130298,-102383.79,-111378.34,-22485.88,-66499.92,-730.2246,-48697.797,-49536.664,-586.5072
1224286.059313025,-102382.57,-111385.46,-22486.94,-66498.13,-732.8288,-48703.453,-49540.406,-554.28064
1224286.0633130202,-102366.91,-111364.83,-22479.412,-66486.164,-718.3838,-48683.23,-49527.63,-571.85876
1224286.0673130152,-102359.58,-111348.516,-22473.186,-66480.63,-706.2988,-48668.01,-49521.28,-620.60547
1224286.0713130105,-102371.95,-111358.08,-22476.156,-66488.37,-713.82654,-48680.22,-49531.25,-638.916
1224286.0753130056,-102391.89,-111387.54,-22489.463,-66503.664,-732.4626,-48707.316,-49550.984,-610.02606
1224286.0793130007,-102395.19,-111397.34,-22490.764,-66503.99,-740.2751,-48713.95,-49561.117,-587.7279
1224286.083312996,-102380.17,-111380.21,-22480.021,-66491.336,-729.2074,-48694.62,-49545.332,-602.4984
1224286.087312991,-102370.57,-111361.78,-22474.041,-66483.6,-713.33826,-48675.984,-49530.195,-630.8594
1224286.091312986,-102379.11,-111368.33,-22478.72,-66488.2,-716.59344,-48685.305,-49535.645,-640.38086
1224286.0953129814,-102397.22,-111391.85,-22492.31,-66498.984,-731.36395,-48707.277,-49550.293,-611.40955
1224286.0993129765,-102412.4,-111407.07,-22503.297,-66503.336,-738.9323,-48710.37,-49549.97,-580.6478
1224286.1033129718,-102391.73,-111389.94,-22489.666,-66495.85,-728.06805,-48690.066,-49532.715,-589.3148
1224286.1073129668,-102363.85,-111356.98,-22472.168,-66488.12,-715.00653,-48673.953,-49519.41,-624.2269
1224286.111312962,-102380.984,-111367.84,-22481.812,-66495.52,-723.59216,-48686.035,-49530.926,-637.4105
1224286.1153129572,-102402.63,-111397.016,-22494.914,-66508.75,-740.8447,-48712.73,-49547.895,-609.7819
1224286.1193129523,-102389.08,-111396.28,-22491.822,-66509.195,-748.73865,-48718.426,-49552.938,-584.14716
1224286.1233129473,-102371.79,-111379.36,-22477.703,-66499.39,-736.3281,-48696.98,-49540.324,-597.29004
1224286.1273129426,-102357.75,-111356.9,-22470.988,-66491.13,-721.3949,-48682.375,-49535.484,-636.71875
1224286.1313129377,-102375.77,-111374.27,-22480.51,-66499.836,-726.4404,-48696.777,-49546.31,-647.9899
1224286.135312933,-102397.95,-111401.29,-22495.402,-66514.164,-742.47235,-48721.477,-49562.625,-620.80896
1224286.139312928,-102395.96,-111404.46,-22498.252,-66514.164,-745.80896,-48726.766,-49563.152,-589.88446
1224286.1433129231,-102377.57,-111386.27,-22484.58,-66502.97,-733.1543,-48703.695,-49542.645,-600.58594
1224286.1473129184,-102366.62,-111371.42,-22470.176,-66495.65,-719.52313,-48685.184,-49527.59,-638.79395
1224286.1513129135,-102373.82,-111377.98,-22475.506,-66500.49,-721.11005,-48695.64,-49533.734,-641.1133
1224286.1553129086,-102391.89,-111403.445,-22487.143,-66512.86,-740.5192,-48720.215,-49548.707,-605.2246
1224286.1593129039,-102401.25,-111419.31,-22493.246,-66516.484,-752.6042,-48727.703,-49554.324,-574.5443
1224286.163312899,-102385.91,-111403.12,-22483.887,-66504.88,-741.9027,-48708.54,-49539.594,-589.3148
1224286.167312894,-102371.914,-111382.734,-22473.715,-66496.38,-726.1149,-48689.984,-49523.4,-631.1442
1224286.1713128893,-102387.945,-111393.76,-22483.969,-66505.86,-730.14325,-48703.125,-49533.57,-645.6706
1224286.1753128844,-102404.26,-111415.0,-22495.402,-66518.805,-742.96063,-48730.47,-49555.79,-616.5365
1224286.1793128797,-102405.89,-111424.03,-22500.977,-66521.69,-753.41797,-48737.59,-49561.402,-586.22235
1224286.1833128748,-102388.06,-111403.85,-22489.096,-66510.09,-737.8744,-48713.867,-49544.23,-596.63904
1224286.1873128698,-102377.89,-111382.45,-22482.178,-66501.266,-719.808,-48694.094,-49530.723,-639.20087
1224286.1913128651,-102393.76,-111392.664,-22490.195,-66509.24,-723.51074,-48705.12,-49536.5,-648.8444
1224286.1953128602,-102411.54,-111416.99,-22503.947,-66523.48,-741.65857,-48730.633,-49558.84,-618.042
1224286.1993128553,-102408.49,-111425.13,-22505.78,-66522.87,-746.9076,-48734.785,-49562.137,-593.5466
1224286.2033128506,-102388.76,-111404.46,-22496.99,-66512.25,-737.91504,-48712.242,-49541.26,-605.9164
1224286.2073128456,-102380.54,-111389.734,-22479.777,-66504.31,-727.0508,-48691.164,-49525.72,-635.9863
1224286.211312841,-102393.07,-111398.766,-22485.637,-66510.99,-728.6377,-48702.477,-49533.773,-646.64716
1224286.215312836,-102407.39,-111417.445,-22501.832,-66523.44,-745.4834,-48727.742,-49548.668,-609.9447
1224286.219312831,-102403.85,-111423.305,-22503.215,-66524.91,-753.25525,-48732.344,-49550.457,-572.1029
1224286.2233128264,-102371.87,-111393.07,-22483.033,-66509.12,-737.5488,-48709.35,-49536.418,-588.62305
1224286.2273128214,-102360.07,-111365.03,-22474.814,-66500.29,-717.44794,-48690.96,-49518.516,-622.4365
1224286.2313128165,-102374.555,-111377.57,-22484.416,-66510.5,-721.7204,-48703.453,-49524.902,-627.03455
1224286.2353128118,-102387.82,-111400.59,-22496.299,-66520.71,-736.04333,-48727.133,-49544.434,-610.51434
1224286.2393128069,-102382.37,-111400.64,-22494.955,-66518.805,-738.0778,-48731.977,-49553.59,-596.1914
1224286.2433128022,-102364.34,-111378.87,-22483.115,-66506.59,-719.72656,-48712.527,-49536.297,-602.5798
1224286.2473127972,-102353.36,-111362.305,-22476.807,-66500.53,-709.9203,-48695.844,-49523.074,-628.7435
1224286.2513127923,-102374.92,-111382.33,-22486.207,-66512.29,-725.8708,-48706.42,-49533.125,-635.13184
1224286.2553127876,-102396.484,-111412.4,-22498.008,-66525.555,-748.7793,-48727.867,-49550.254,-614.70544
1224286.2593127827,-102389.61,-111410.61,-22495.322,-66523.48,-753.7435,-48731.367,-49549.645,-585.2051
1224286.2633127777,-102365.12,-111388.35,-22480.713,-66508.305,-737.99646,-48709.27,-49530.52,-601.6439
1224286.267312773,-102356.445,-111373.664,-22476.318,-66500.61,-719.88934,-48692.547,-49514.242,-633.58563
1224286.271312768,-102372.6,-111384.16,-22481.812,-66508.83,-725.8301,-48705.08,-49521.242,-638.46844
1224286.2753127632,-102391.93,-111410.52,-22492.637,-66523.32,-746.94824,-48731.934,-49543.54,-609.7819
1224286.2793127585,-102393.03,-111418.945,-22493.938,-66525.23,-753.8656,-48736.207,-49547.08,-582.1127
1224286.2833127535,-102377.16,-111402.1,-22488.77,-66515.18,-744.4662,-48715.457,-49531.74,-592.57
1224286.2873127488,-102368.21,-111387.9,-22482.545,-66506.92,-733.96814,-48696.7,-49519.453,-631.6325
1224286.291312744,-102382.94,-111401.29,-22490.723,-66517.01,-739.33923,-48707.52,-49526.004,-644.4906
1224286.295312739,-102403.2,-111423.99,-22504.314,-66530.68,-751.709,-48733.32,-49544.312,-615.153
1224286.2993127343,-102399.46,-111423.016,-22505.453,-66528.41,-753.90625,-48738.61,-49545.86,-589.7217
1224286.3033127293,-102377.16,-111399.664,-22486.777,-66514.33,-737.58954,-48715.742,-49529.297,-602.17285
1224286.3073127244,-102367.72,-111382.086,-22479.33,-66506.8,-721.7204,-48697.39,-49519.246,-642.5781
1224286.3113127197,-102383.875,-111391.85,-22485.719,-66514.94,-728.6377,-48710.9,-49531.58,-657.34863
1224286.3153127148,-102402.23,-111416.016,-22498.414,-66529.016,-747.84344,-48736.043,-49552.86,-631.7546
1224286.31931271,-102405.56,-111425.42,-22504.232,-66533.695,-756.2663,-48746.746,-49562.46,-603.55634
1224286.3233127051,-102387.17,-111407.11,-22493.816,-66520.76,-740.43787,-48727.133,-49542.36,-615.2751
1224286.3273127002,-102377.41,-111391.73,-22489.38,-66512.66,-727.01013,-48711.426,-49526.004,-647.7458
1224286.3313126955,-102392.54,-111401.53,-22498.82,-66521.484,-734.375,-48726.523,-49541.832,-657.5928
1224286.3353126906,-102408.98,-111422.57,-22509.807,-66532.19,-748.37244,-48748.457,-49555.176,-616.9027
1224286.3393126857,-102403.12,-111429.41,-22504.518,-66531.74,-753.54004,-48751.465,-49556.277,-586.792
1224286.343312681,-102386.11,-111409.63,-22493.205,-66520.02,-743.36755,-48729.047,-49539.594,-602.417
1224286.347312676,-102380.91,-111393.6,-22485.678,-66511.11,-725.057,-48710.98,-49522.137,-644.16504
1224286.351312671,-102392.984,-111400.84,-22491.334,-66518.92,-725.58594,-48724.812,-49534.87,-652.4658
1224286.3553126664,-102412.36,-111423.34,-22506.023,-66533.49,-742.2282,-48753.01,-49557.008,-625.3662
1224286.3593126615,-102406.3,-111424.93,-22504.07,-66529.38,-744.2627,-48756.348,-49562.01,-595.25555
1224286.3633126568,-102388.67,-111406.414,-22494.67,-66516.97,-734.82263,-48733.848,-49543.418,-602.4984
1224286.3673126518,-102380.45,-111394.9,-22485.23,-66509.445,-724.2025,-48715.58,-49531.13,-637.98016
1224286.371312647,-102394.49,-111408.53,-22491.578,-66518.44,-731.73016,-48731.445,-49547.65,-668.2943
1224286.3753126422,-102413.13,-111429.69,-22502.28,-66529.55,-747.1924,-48755.293,-49570.395,-649.1293
1224286.3793126373,-102407.31,-111429.08,-22503.5,-66527.23,-747.2331,-48757.49,-49568.2,-612.46747
1224286.3833126323,-102383.914,-111404.26,-22490.928,-66512.734,-731.85223,-48735.477,-49545.25,-618.7744
1224286.3873126276,-102376.75,-111390.22,-22483.36,-66508.016,-720.459,-48723.594,-49536.38,-654.7038
1224286.3913126227,-102397.586,-111412.07,-22494.873,-66521.164,-732.8695,-48742.84,-49555.543,-676.0661
1224286.395312618,-102416.99,-111434.734,-22508.506,-66533.66,-749.6745,-48765.098,-49571.004,-641.3168
1224286.399312613,-102418.54,-111440.88,-22512.451,-66536.54,-758.016,-48767.336,-49570.926,-616.3737
1224286.4033126081,-102396.53,-111419.6,-22502.32,-66522.586,-744.05927,-48742.84,-49553.508,-630.5339
1224286.4073126034,-102382.53,-111399.055,-22492.96,-66512.53,-727.70184,-48726.035,-49541.016,-662.1908
1224286.4113125985,-102399.82,-111414.43,-22500.367,-66521.04,-733.5612,-48740.926,-49552.816,-675.29297
1224286.4153125936,-102416.51,-111437.34,-22513.469,-66532.92,-746.8262,-48763.754,-49568.93,-641.3574
1224286.4193125889,-102414.47,-111440.27,-22512.451,-66533.81,-750.1628,-48766.766,-49569.54,-608.3171
1224286.423312584,-102393.516,-111416.67,-22499.146,-66521.164,-736.3281,-48743.777,-49548.22,-610.9619
1224286.4273125792,-102384.89,-111395.96,-22487.834,-66512.734,-716.43066,-48724.324,-49535.24,-646.80994
1224286.4313125743,-102400.64,-111406.945,-22493.816,-66520.76,-711.9548,-48735.434,-49545.047,-656.00586
1224286.4353125694,-102413.54,-111428.1,-22503.174,-66529.18,-729.3701,-48757.49,-49560.02,-624.3083
1224286.4393125647,-102414.35,-111435.39,-22507.568,-66531.414,-749.7966,-48765.18,-49564.25,-610.433
1224286.4433125597,-102395.1,-111410.69,-22498.455,-66520.875,-732.015,-48747.52,-49550.54,-625.4069
1224286.4473125548,-102384.56,-111393.11,-22487.428,-66511.92,-720.0521,-48730.67,-49535.645,-654.7445
1224286.45131255,-102402.59,-111408.2,-22494.67,-66521.89,-726.6032,-48743.53,-49546.387,-661.41766
1224286.4553125452,-102416.875,-111428.51,-22504.07,-66533.125,-743.4896,-48765.707,-49563.844,-633.3822
1224286.4593125402,-102416.305,-111435.8,-22505.78,-66535.89,-749.5117,-48766.44,-49561.688,-608.6019
1224286.4633125355,-102400.39,-111419.88,-22498.008,-66527.266,-737.3047,-48745.77,-49542.074,-616.65857
1224286.4673125306,-102395.67,-111410.36,-22488.078,-66521.04,-724.36523,-48731.324,-49534.547,-653.361
1224286.471312526,-102410.77,-111420.45,-22494.59,-66530.52,-729.24805,-48743.043,-49542.523,-659.7087
1224286.475312521,-102427.734,-111437.914,-22508.506,-66542.28,-743.2455,-48765.75,-49554.65,-618.36755
1224286.479312516,-102426.4,-111444.75,-22515.137,-66544.48,-750.0,-48771.934,-49559.9,-592.1631
1224286.4833125114,-102408.37,-111424.73,-22506.064,-66533.734,-738.81024,-48751.1,-49544.477,-609.29364
1224286.4873125064,-102397.305,-111402.875,-22497.314,-66524.21,-723.71423,-48732.547,-49529.38,-644.9789
1224286.4913125015,-102412.31,-111413.78,-22503.012,-66532.68,-730.2653,-48744.02,-49539.145,-663.2487
1224286.4953124968,-102433.35,-111439.984,-22517.375,-66546.836,-748.7793,-48772.504,-49562.215,-640.4216
1224286.4993124919,-102428.35,-111442.75,-22518.719,-66547.28,-755.3711,-48779.543,-49565.51,-609.4971
1224286.5033124872,-102403.2,-111417.41,-22502.158,-66532.76,-737.06055,-48755.37,-49542.44,-616.9027
1224286.5073124822,-102393.76,-111400.92,-22495.646,-66526.125,-720.4997,-48738.895,-49531.66,-655.8838
1224286.5113124773,-102410.98,-111408.77,-22503.867,-66534.34,-724.77216,-48748.617,-49538.82,-658.0404
1224286.5153124726,-102433.64,-111435.23,-22515.545,-66549.234,-746.5414,-48774.293,-49560.426,-631.71387
1224286.5193124677,-102425.17,-111436.85,-22509.4,-66544.92,-749.5524,-48775.105,-49561.445,-603.10876
1224286.5233124627,-102398.64,-111413.7,-22499.268,-66529.7,-729.61426,-48749.88,-49541.14,-620.40204
1224286.527312458,-102389.57,-111393.27,-22490.195,-66521.28,-717.85486,-48733.24,-49526.855,-648.4782
1224286.531312453,-102401.21,-111403.484,-22493.775,-66527.75,-722.1273,-48748.008,-49534.63,-652.83203
1224286.5353124482,-102416.95,-111425.26,-22503.297,-66537.56,-732.54395,-48769.98,-49548.75,-623.0469
1224286.5393124435,-102412.48,-111432.78,-22503.947,-66537.766,-738.1999,-48772.95,-49550.418,-600.057
1224286.5433124385,-102393.92,-111409.266,-22491.822,-66525.11,-723.59216,-48748.008,-49532.066,-610.5957
1224286.5473124338,-102397.18,-111403.12,-22491.21,-66522.46,-709.7575,-48735.312,-49526.652,-650.0651
1224286.551312429,-102412.805,-111418.42,-22498.82,-66531.54,-717.7328,-48753.094,-49542.195,-664.83563
1224286.555312424,-102421.96,-111432.945,-22504.03,-66539.47,-732.4626,-48773.03,-49554.12,-623.8607
1224286.5593124193,-102417.766,-111440.68,-22508.75,-66541.914,-742.63513,-48778.2,-49557.78,-595.25555
1224286.5633124143,-102399.13,-111420.336,-22497.723,-66528.32,-727.0508,-48756.023,-49542.402,-608.2357
1224286.5673124094,-102394.66,-111406.62,-22491.416,-66519.37,-713.4603,-48739.95,-49527.754,-648.68164
1224286.5713124047,-102413.29,-111419.97,-22502.28,-66530.52,-721.9238,-48755.414,-49538.332,-662.1501
1224286.5753123998,-102436.28,-111446.29,-22518.922,-66543.055,-737.95575,-48777.957,-49554.73,-639.1195
1224286.579312395,-102435.14,-111452.234,-22523.031,-66545.125,-740.2344,-48781.617,-49555.746,-604.2074
1224286.5833123901,-102409.836,-111426.64,-22506.633,-66529.5,-723.59216,-48756.594,-49533.938,-601.84735
1224286.5873123852,-102403.04,-111413.086,-22498.129,-66523.52,-712.5651,-48742.72,-49525.72,-641.0319
1224286.5913123805,-102416.63,-111421.35,-22503.297,-66533.37,-719.56384,-48757.367,-49537.19,-649.90234
1224286.5953123756,-102431.89,-111442.38,-22515.26,-66545.25,-734.0902,-48780.477,-49552.777,-617.51306
1224286.5993123706,-102426.92,-111447.76,-22513.916,-66544.234,-737.3861,-48784.75,-49555.016,-592.2445
1224286.603312366,-102407.48,-111425.01,-22500.123,-66530.31,-719.36035,-48762.25,-49540.773,-613.8916
1224286.607312361,-102400.76,-111407.48,-22492.799,-66523.93,-706.17676,-48746.34,-49531.58,-650.1465
1224286.611312356,-102418.26,-111422.41,-22500.326,-66535.08,-719.36035,-48762.777,-49543.54,-664.87634
1224286.6153123514,-102433.35,-111446.58,-22511.76,-66546.39,-731.6488,-48783.938,-49553.59,-627.76697
1224286.6193123464,-102432.5,-111449.836,-22514.73,-66550.055,-739.0137,-48789.55,-49552.29,-593.8721
1224286.6233123417,-102404.55,-111420.125,-22499.39,-66535.04,-722.9818,-48765.87,-49536.01,-605.3874
1224286.6273123368,-102400.555,-111403.28,-22493.45,-66528.61,-709.96094,-48750.33,-49525.516,-639.445
1224286.6313123319,-102415.61,-111413.78,-22501.182,-66536.5,-713.8672,-48763.387,-49539.715,-656.16864
1224286.6353123272,-102430.18,-111432.26,-22511.842,-66544.84,-728.23083,-48784.344,-49560.06,-636.1491
1224286.6393123223,-102434.695,-111442.8,-22517.904,-66547.734,-737.8744,-48790.812,-49562.055,-606.6081
1224286.6433123173,-102418.586,-111422.0,-22508.342,-66539.67,-724.73145,-48775.594,-49550.008,-620.80896
1224286.6473123126,-102407.59,-111402.305,-22500.0,-66531.91,-708.903,-48760.05,-49537.19,-649.6582
1224286.6513123077,-102420.695,-111417.41,-22508.75,-66540.125,-716.3493,-48772.83,-49548.137,-657.1452
1224286.655312303,-102434.66,-111439.87,-22520.387,-66551.19,-730.3467,-48795.125,-49566.367,-642.2526
1224286.659312298,-102430.18,-111444.54,-22519.125,-66552.49,-732.4219,-48797.773,-49565.797,-608.5612
1224286.6633122931,-102413.01,-111427.49,-22507.568,-66542.32,-719.3197,-48775.555,-49544.027,-617.5944
1224286.6673122884,-102405.68,-111413.17,-22499.96,-66534.55,-708.2113,-48759.074,-49527.875,-650.47205
1224286.6713122835,-102423.625,-111428.1,-22509.727,-66542.97,-719.36035,-48774.863,-49540.938,-663.81836
1224286.6753122786,-102438.44,-111450.61,-22519.98,-66553.34,-734.7819,-48796.59,-49556.766,-631.34766
1224286.6793122739,-102430.305,-111448.0,-22517.822,-66550.945,-736.4909,-48794.844,-49555.746,-600.057
1224286.683312269,-102416.875,-111434.125,-22510.459,-66539.96,-721.11005,-48770.996,-49540.285,-616.78064
1224286.6873122642,-102409.75,-111418.945,-22504.314,-66531.984,-707.6416,-48755.984,-49530.273,-657.91833
1224286.6913122593,-102427.21,-111430.914,-22512.086,-66540.98,-718.9128,-48772.016,-49542.684,-671.0612
1224286.6953122544,-102443.2,-111452.6,-22519.451,-66550.74,-734.4971,-48795.125,-49561.484,-640.8285
1224286.6993122497,-102435.02,-111450.28,-22515.992,-66549.16,-736.613,-48797.566,-49562.746,-613.2406
1224286.7033122447,-102410.0,-111423.83,-22503.297,-66534.71,-719.4824,-48775.312,-49539.348,-622.84344
1224286.7073122398,-102397.18,-111404.18,-22497.6,-66527.95,-708.6996,-48759.688,-49527.266,-649.3734
1224286.711312235,-102411.26,-111422.37,-22502.482,-66536.945,-715.33203,-48771.61,-49539.836,-660.4411
1224286.7153122302,-102426.44,-111449.266,-22513.51,-66547.94,-728.75977,-48793.824,-49560.14,-639.8519
1224286.7193122252,-102422.33,-111449.79,-22512.94,-66545.58,-731.0791,-48793.824,-49559.9,-606.9336
1224286.7233122205,-102408.25,-111432.91,-22502.727,-66535.73,-721.11005,-48775.434,-49543.133,-623.6572
1224286.7273122156,-102403.2,-111418.586,-22494.59,-66529.99,-709.9203,-48761.355,-49530.477,-660.0342
1224286.731312211,-102426.555,-111435.02,-22507.08,-66540.41,-719.6045,-48777.06,-49544.434,-677.9785
1224286.735312206,-102440.8,-111453.17,-22514.527,-66547.53,-729.9398,-48797.04,-49557.54,-642.5781
1224286.739312201,-102426.31,-111444.26,-22513.957,-66546.914,-731.36395,-48798.992,-49559.734,-615.8447
1224286.7433121963,-102409.1,-111423.016,-22507.041,-66536.42,-718.099,-48779.664,-49544.965,-629.6794
1224286.7473121914,-102403.24,-111405.234,-22500.53,-66530.48,-703.5319,-48766.766,-49535.2,-659.9935
1224286.7513121865,-102417.85,-111416.18,-22507.162,-66538.78,-707.1533,-48781.453,-49552.613,-676.35095
1224286.7553121818,-102441.695,-111446.414,-22521.201,-66552.62,-727.4984,-48808.23,-49576.418,-656.69763
1224286.7593121768,-102436.37,-111447.39,-22522.096,-66553.67,-733.5205,-48812.137,-49578.816,-621.45996
1224286.7633121721,-102412.88,-111422.37,-22508.545,-66538.74,-718.4245,-48788.777,-49559.57,-633.016
1224286.7673121672,-102406.984,-111408.66,-22504.518,-66533.24,-712.93134,-48776.41,-49552.125,-675.3337
1224286.7713121623,-102427.05,-111422.29,-22515.178,-66542.24,-717.8955,-48789.023,-49564.656,-692.78973
1224286.7753121576,-102446.86,-111447.43,-22528.037,-66555.914,-733.07294,-48812.137,-49583.05,-668.3757
1224286.7793121526,-102440.43,-111445.766,-22525.514,-66555.95,-734.13086,-48812.703,-49579.67,-631.7546
1224286.7833121477,-102421.8,-111419.31,-22510.621,-66542.36,-718.0583,-48789.797,-49563.438,-651.8962
1224286.787312143,-102419.72,-111410.08,-22506.797,-66538.984,-713.5417,-48778.363,-49556.723,-684.2855
1224286.791312138,-102434.37,-111424.805,-22514.934,-66547.61,-721.9238,-48790.527,-49559.652,-685.38416
1224286.7953121332,-102447.31,-111445.68,-22525.025,-66560.43,-738.1999,-48814.94,-49571.777,-648.3154
1224286.7993121285,-102444.83,-111453.82,-22527.955,-66562.055,-746.8262,-48818.688,-49573.203,-613.76953
1224286.8033121235,-102423.71,-111433.44,-22515.422,-66549.44,-733.07294,-48795.94,-49553.836,-624.6745
1224286.8073121188,-102416.42,-111416.51,-22507.568,-66543.945,-719.88934,-48782.555,-49543.297,-660.2377
1224286.811312114,-102431.52,-111427.734,-22511.842,-66547.85,-719.84863,-48793.133,-49549.03,-670.7357
1224286.815312109,-102446.13,-111451.055,-22525.555,-66561.77,-730.7536,-48818.035,-49567.71,-642.13055
1224286.8193121043,-102441.94,-111454.43,-22527.832,-66563.16,-733.11365,-48820.516,-49569.54,-613.1592
1224286.8233120993,-102424.36,-111433.88,-22518.148,-66552.33,-720.0114,-48799.562,-49551.395,-619.6289
1224286.8273120944,-102408.61,-111410.69,-22503.582,-66542.32,-704.7526,-48784.1,-49534.383,-652.91345
1224286.8313120897,-102417.36,-111420.05,-22510.05,-66548.87,-712.11755,-48798.016,-49543.582,-657.43005
1224286.8353120848,-102439.91,-111443.81,-22524.781,-66562.13,-729.24805,-48822.918,-49561.24,-632.8939
1224286.83931208,-102437.83,-111447.23,-22525.066,-66559.695,-731.486,-48825.887,-49564.496,-610.18884
1224286.8433120751,-102413.78,-111426.555,-22512.574,-66545.984,-715.77966,-48802.33,-49547.08,-624.1455
1224286.8473120702,-102410.08,-111415.086,-22506.268,-66541.016,-708.6996,-48787.598,-49541.547,-668.7826
1224286.8513120655,-102430.79,-111432.984,-22516.725,-66550.62,-718.5466,-48802.656,-49557.496,-685.34344
1224286.8553120606,-102450.16,-111456.1,-22529.582,-66560.06,-733.6833,-48821.82,-49570.027,-655.8838
1224286.8593120556,-102446.17,-111458.7,-22528.076,-66558.15,-733.6833,-48821.902,-49568.24,-628.2959
1224286.863312051,-102427.49,-111439.87,-22519.531,-66550.7,-721.80176,-48803.145,-49551.066,-637.20703
1224286.867312046,-102425.625,-111427.86,-22512.451,-66546.06,-711.1003,-48788.496,-49541.465,-669.4743
1224286.8713120413,-102440.96,-111439.21,-22523.072,-66555.14,-720.25555,-48805.258,-49559.004,-684.44824
1224286.8753120364,-102457.805,-111463.664,-22536.865,-66566.81,-740.03094,-48832.03,-49579.023,-656.6162
1224286.8793120314,-102451.945,-111463.51,-22534.22,-66565.31,-742.391,-48831.42,-49575.48,-627.4414
1224286.8833120267,-102432.54,-111442.38,-22522.666,-66554.28,-730.95703,-48807.457,-49556.887,-641.1947
1224286.8873120218,-102421.72,-111428.47,-22514.975,-66548.664,-720.58105,-48793.457,-49549.52,-678.38544
1224286.8913120169,-102434.49,-111438.44,-22522.46,-66556.36,-723.9584,-48808.516,-49559.207,-683.7158
1224286.8953120122,-102451.83,-111458.42,-22532.92,-66568.12,-734.65985,-48831.668,-49575.195,-650.8789
1224286.8993120072,-102448.98,-111457.73,-22531.943,-66565.43,-735.7585,-48831.746,-49571.004,-617.8793
1224286.9033120023,-102428.96,-111432.336,-22519.898,-66552.33,-720.4997,-48809.043,-49548.992,-623.0469
1224286.9073119976,-102420.54,-111413.91,-22515.625,-66548.38,-712.2803,-48796.836,-49539.55,-656.53485
1224286.9113119927,-102432.7,-111425.83,-22520.834,-66557.375,-719.7673,-48811.81,-49552.695,-664.71356
1224286.915311988,-102443.69,-111448.29,-22527.793,-66567.266,-732.9916,-48836.508,-49572.918,-634.2367
1224286.919311983,-102432.336,-111447.11,-22523.154,-66564.66,-733.43915,-48839.926,-49574.87,-614.99023
1224286.923311978,-102412.56,-111425.78,-22512.045,-66554.57,-721.51697,-48817.098,-49558.555,-637.0443
1224286.9273119734,-102404.055,-111410.24,-22503.094,-66547.125,-708.5775,-48798.668,-49548.098,-673.2992
1224286.9313119685,-102420.086,-111425.01,-22510.742,-66553.23,-715.4541,-48811.2,-49557.945,-681.7627
1224286.9353119635,-102438.97,-111450.24,-22523.438,-66568.32,-729.8584,-48834.516,-49571.37,-646.932
1224286.9393119588,-102432.336,-111449.42,-22526.287,-66568.89,-733.3578,-48837.65,-49575.32,-626.54626
1224286.943311954,-102414.88,-111429.28,-22516.154,-66555.26,-720.0114,-48816.082,-49559.082,-643.1071
1224286.9473119492,-102408.2,-111413.336,-22507.488,-66548.016,-706.9906,-48803.47,-49549.645,-667.31775
1224286.9513119443,-102417.52,-111421.875,-22512.248,-66555.14,-711.71063,-48819.176,-49559.773,-671.224
1224286.9553119394,-102432.01,-111444.09,-22522.666,-66566.37,-726.3591,-48841.84,-49579.51,-651.8962
1224286.9593119347,-102427.164,-111448.04,-22521.69,-66564.7,-729.8991,-48841.105,-49578.33,-631.958
1224286.9633119297,-102408.29,-111427.086,-22510.133,-66553.71,-719.2383,-48817.71,-49562.055,-650.26855
1224286.9673119248,-102405.766,-111414.555,-22504.518,-66549.36,-708.29266,-48806.64,-49551.96,-684.16345
1224286.97131192,-102421.63,-111424.69,-22514.04,-66555.055,-712.6465,-48821.902,-49559.207,-697.5912
1224286.9753119152,-102436.69,-111440.68,-22528.32,-66568.04,-729.65497,-48846.152,-49578.695,-666.0156
1224286.9793119102,-102426.6,-111434.125,-22528.117,-66566.0,-730.83496,-48847.617,-49580.812,-636.3119
1224286.9833119055,-102401.49,-111405.32,-22512.615,-66552.37,-713.62305,-48825.727,-49565.918,-649.3734
1224286.9873119006,-102397.1,-111391.36,-22505.371,-66548.34,-702.22986,-48812.215,-49556.684,-675.5371
1224286.991311896,-102414.72,-111407.35,-22514.893,-66560.8,-712.11755,-48826.785,-49568.973,-685.75037
1224286.995311891,-102430.99,-111430.46,-22526.328,-66573.85,-731.1198,-48850.14,-49586.875,-662.59766
1224286.999311886,-102426.76,-111430.42,-22525.758,-66574.55,-735.1074,-48850.668,-49585.207,-636.5153
1224287.0033118813,-102408.53,-111408.29,-22512.9,-66561.12,-720.459,-48825.97,-49563.6,-647.9492
1224287.0073118764,-102403.57,-111397.26,-22508.3,-66554.52,-706.9906,-48812.297,-49550.984,-678.05994
1224287.0113118715,-102417.08,-111409.875,-22517.13,-66563.44,-712.11755,-48829.023,-49561.035,-681.8034
1224287.0153118668,-102428.836,-111426.44,-22525.799,-66574.47,-724.36523,-48850.79,-49574.91,-652.6286
1224287.0193118618,-102425.3,-111425.87,-22521.404,-66572.35,-724.2839,-48848.918,-49569.258,-621.62274
1224287.0233118571,-102406.05,-111405.89,-22509.521,-66562.5,-711.4665,-48828.695,-49554.12,-634.3994
1224287.0273118522,-102401.53,-111394.21,-22506.268,-66557.13,-702.71814,-48816.203,-49547.773,-672.48535
1224287.0313118473,-102416.875,-111408.9,-22519.41,-66567.63,-712.5651,-48832.44,-49563.438,-682.5358
1224287.0353118426,-102426.03,-111427.66,-22526.693,-66577.76,-726.6846,-48851.44,-49575.684,-641.683
1224287.0393118376,-102417.16,-111423.1,-22523.967,-66574.95,-724.2839,-48850.87,-49576.254,-624.43036
1224287.0433118327,-102388.266,-111393.07,-22511.11,-66560.71,-704.5085,-48828.168,-49558.188,-646.1996
1224287.047311828,-102375.77,-111376.305,-22503.135,-66553.55,-693.11523,-48813.4,-49547.65,-678.58887
1224287.051311823,-102387.125,-111383.06,-22509.4,-66564.414,-699.0153,-48828.613,-49553.67,-686.849
1224287.0553118184,-102386.15,-111392.87,-22517.01,-66573.61,-711.6699,-48850.586,-49570.8,-653.5238
1224287.0593118134,-102375.45,-111393.97,-22517.578,-66573.53,-719.36035,-48852.215,-49576.457,-625.3662
1224287.0633118085,-102351.16,-111373.25,-22507.203,-66561.98,-707.07196,-48829.793,-49560.914,-640.21814
1224287.0673118038,-102336.71,-111352.83,-22499.838,-66557.25,-692.098,-48816.53,-49550.133,-678.05994
1224287.0713117989,-102333.414,-111345.46,-22509.033,-66562.54,-693.6442,-48835.574,-49566.203,-691.77246
1224287.075311794,-102335.29,-111353.234,-22522.746,-66572.1,-707.19403,-48860.19,-49588.79,-671.875
1224287.0793117892,-102336.02,-111361.45,-22527.588,-66571.45,-713.501,-48858.727,-49588.42,-646.5251
1224287.0833117843,-102308.8,-111334.48,-22511.639,-66555.625,-694.6615,-48833.54,-49567.344,-664.67285
1224287.0873117794,-102288.086,-111313.234,-22497.682,-66548.586,-678.6296,-48822.918,-49557.902,-703.9795
1224287.0913117747,-102300.01,-111326.375,-22506.064,-66558.43,-690.6738,-48841.797,-49572.188,-711.26306
1224287.0953117697,-102315.27,-111351.73,-22516.766,-66569.87,-707.8044,-48864.91,-49588.664,-680.78613
1224287.099311765,-102303.59,-111348.19,-22509.156,-66564.086,-707.7637,-48862.47,-49590.21,-651.7334
1224287.1033117601,-102289.76,-111328.33,-22497.926,-66551.31,-694.70215,-48838.258,-49571.82,-660.1156
1224287.1073117552,-102294.15,-111320.07,-22496.217,-66548.87,-685.5469,-48826.133,-49566.285,-706.6244
1224287.1113117505,-102315.39,-111333.87,-22505.78,-66555.22,-692.2201,-48838.176,-49574.91,-712.7279
1224287.1153117456,-102333.414,-111355.59,-22517.66,-66564.7,-704.95605,-48859.17,-49587.2,-675.5371
1224287.1193117406,-102339.195,-111362.59,-22523.764,-66569.336,-711.5072,-48863.566,-49594.44,-656.2907
1224287.123311736,-102324.1,-111345.14,-22512.777,-66558.48,-699.3002,-48839.48,-49573.0,-660.8887
1224287.127311731,-102322.47,-111333.09,-22508.22,-66553.39,-689.4531,-48824.91,-49556.97,-692.99316
1224287.1313117263,-102345.46,-111354.45,-22519.98,-66563.31,-697.8353,-48839.48,-49566.977,-702.59607
1224287.1353117214,-102363.61,-111380.21,-22529.746,-66576.09,-712.40234,-48859.297,-49576.62,-663.0046
1224287.1393117164,-102355.23,-111380.13,-22523.926,-66573.125,-711.18164,-48856.69,-49565.676,-627.8076
1224287.1433117117,-102342.49,-111361.29,-22513.998,-66562.13,-702.474,-48835.777,-49551.15,-644.89746
1224287.1473117068,-102347.62,-111353.93,-22515.178,-66560.47,-693.4001,-48826.945,-49548.87,-689.209
1224287.1513117019,-102360.03,-111363.98,-22520.713,-66565.68,-695.3125,-48839.887,-49563.6,-700.3174
1224287.1553116972,-102384.28,-111391.766,-22534.75,-66576.7,-712.48376,-48861.695,-49576.457,-669.2709
1224287.1593116922,-102385.336,-111396.65,-22536.947,-66577.15,-718.0583,-48863.566,-49581.992,-643.31055
1224287.1633116873,-102363.94,-111375.62,-22523.234,-66565.19,-702.18915,-48842.367,-49562.543,-652.2624
1224287.1673116826,-102359.22,-111359.58,-22515.951,-66560.51,-691.12146,-48828.613,-49552.168,-680.2165
1224287.1713116777,-102379.766,-111376.39,-22526.408,-66570.92,-702.18915,-48844.035,-49565.594,-697.99805
1224287.175311673,-102400.555,-111403.81,-22538.818,-66583.82,-719.72656,-48866.945,-49583.62,-666.9922
1224287.179311668,-102397.83,-111405.195,-22537.477,-66581.38,-719.9707,-48865.316,-49579.754,-638.50916
1224287.183311663,-102382.98,-111384.73,-22526.287,-66572.23,-703.6133,-48845.094,-49563.07,-656.00586
1224287.1873116584,-102384.89,-111373.87,-22525.066,-66570.11,-694.4987,-48838.176,-49559.613,-695.23114
1224287.1913116535,-102400.76,-111388.02,-22534.344,-66575.805,-702.3926,-48852.215,-49568.727,-698.40497
1224287.1953116485,-102413.86,-111406.21,-22545.166,-66585.33,-717.2445,-48871.543,-49579.67,-656.49414
1224287.1993116438,-102405.03,-111403.04,-22542.807,-66583.5,-718.22107,-48870.402,-49574.547,-627.31934
1224287.203311639,-102381.35,-111379.03,-22526.855,-66570.31,-703.2878,-48848.43,-49558.594,-644.2871
1224287.2073116342,-102380.82,-111372.64,-22523.479,-66568.61,-697.34705,-48838.3,-49552.492,-685.4655
1224287.2113116293,-102399.78,-111392.17,-22529.95,-66578.53,-707.96716,-48854.656,-49567.586,-701.29395
1224287.2153116243,-102417.97,-111420.62,-22542.604,-66591.92,-725.46387,-48879.273,-49586.754,-681.3965
1224287.2193116196,-102413.62,-111423.305,-22544.719,-66592.57,-728.10876,-48879.477,-49583.66,-651.4079
1224287.2233116147,-102398.84,-111403.2,-22536.094,-66580.65,-714.5996,-48856.57,-49567.383,-665.6901
1224287.2273116098,-102390.42,-111390.586,-22530.193,-66574.26,-696.77734,-48843.387,-49557.78,-698.7712
1224287.231311605,-102400.31,-111398.16,-22537.803,-66579.47,-698.1608,-48856.773,-49568.973,-707.2754
1224287.2353116001,-102414.39,-111419.97,-22553.143,-66589.52,-713.1755,-48879.965,-49586.67,-677.04266
1224287.2393115954,-102411.38,-111424.766,-22552.084,-66589.97,-715.9831,-48882.285,-49585.207,-641.5609
1224287.2433115905,-102391.12,-111399.17,-22536.418,-66576.336,-699.42224,-48858.074,-49564.332,-649.8617
1224287.2473115856,-102386.07,-111383.47,-22533.488,-66570.516,-687.0524,-48843.305,-49550.62,-681.7627
1224287.2513115809,-102400.07,-111394.82,-22537.03,-66578.414,-694.8242,-48857.098,-49561.605,-692.5863
1224287.255311576,-102418.016,-111413.91,-22546.998,-66589.195,-709.67615,-48877.727,-49579.305,-670.61365
1224287.259311571,-102420.49,-111418.42,-22551.148,-66593.38,-716.7155,-48882.285,-49584.555,-651.4079
1224287.2633115663,-102400.96,-111397.664,-22540.283,-66580.85,-702.22986,-48858.6,-49568.117,-667.3584
1224287.2673115614,-102393.48,-111387.78,-22531.129,-66572.35,-690.4704,-48846.07,-49560.426,-707.51953
1224287.2713115565,-102415.125,-111405.03,-22542.807,-66583.375,-698.89325,-48865.926,-49578.086,-722.7783
1224287.2753115518,-102435.14,-111429.77,-22551.475,-66592.33,-714.35547,-48885.54,-49595.5,-686.32
1224287.2793115468,-102430.18,-111430.055,-22550.254,-66592.98,-719.6045,-48886.19,-49596.52,-660.9701
1224287.2833115421,-102409.38,-111404.055,-22537.762,-66581.87,-706.01404,-48863.65,-49578.86,-673.2178
1224287.2873115372,-102405.93,-111390.34,-22534.465,-66578.086,-695.4346,-48852.906,-49566.69,-698.3236
1224287.2913115323,-102424.28,-111403.04,-22544.639,-66587.12,-701.2126,-48866.133,-49574.504,-700.7243
1224287.2953115276,-102447.266,-111433.8,-22557.74,-66596.11,-717.9769,-48884.766,-49590.7,-679.5248
1224287.2993115226,-102440.76,-111440.15,-22559.45,-66597.86,-724.1618,-48889.04,-49596.03,-660.5632
1224287.3033115177,-102419.68,-111419.44,-22547.975,-66587.41,-713.9486,-48869.55,-49582.805,-681.23376
1224287.307311513,-102418.99,-111410.41,-22544.475,-66583.17,-706.74646,-48859.133,-49575.48,-719.56384
1224287.311311508,-102432.58,-111424.03,-22549.969,-66591.48,-714.35547,-48875.203,-49586.71,-726.0742
1224287.3153115034,-102448.98,-111451.5,-22560.303,-66603.15,-731.03845,-48896.73,-49602.336,-692.4235
1224287.3193114984,-102444.625,-111454.96,-22559.123,-66602.336,-731.32324,-48896.363,-49599.812,-664.2253
1224287.3233114935,-102425.46,-111429.04,-22544.19,-66587.2,-714.2741,-48869.266,-49575.48,-672.5668
1224287.3273114888,-102427.01,-111425.42,-22540.691,-66584.44,-709.67615,-48859.215,-49562.83,-699.6664
1224287.3313114839,-102443.85,-111439.45,-22551.758,-66594.98,-712.5651,-48878.746,-49575.645,-703.4912
1224287.335311479,-102461.63,-111461.8,-22568.197,-66608.03,-729.8584,-48905.64,-49598.51,-671.0205
1224287.3393114742,-102453.05,-111457.56,-22566.123,-66604.375,-730.50946,-48903.08,-49595.5,-651.4079
1224287.3433114693,-102434.53,-111431.16,-22551.84,-66592.57,-716.3493,-48879.316,-49575.32,-664.0625
1224287.3473114644,-102429.04,-111418.586,-22543.986,-66588.22,-703.93884,-48867.637,-49568.117,-703.6133
1224287.3513114597,-102441.41,-111430.055,-22549.072,-66597.414,-709.8796,-48882.734,-49578.41,-708.08923
1224287.3553114547,-102452.48,-111444.18,-22559.287,-66602.945,-721.6797,-48904.867,-49591.594,-673.9502
1224287.35931145,-102443.81,-111438.97,-22554.648,-66597.74,-719.1569,-48902.547,-49585.938,-646.7285
1224287.363311445,-102428.555,-111417.41,-22543.05,-66586.95,-701.2533,-48877.727,-49564.617,-651.4486
1224287.3673114402,-102427.01,-111408.37,-22540.244,-66582.32,-692.1794,-48866.742,-49560.957,-691.44696
1224287.3713114355,-102445.16,-111425.336,-22546.957,-66592.164,-703.6947,-48884.605,-49578.613,-715.4948
1224287.3753114305,-102464.03,-111452.805,-22555.99,-66605.06,-721.3542,-48908.734,-49597.74,-684.2855
1224287.3793114256,-102456.51,-111454.266,-22555.34,-66602.79,-722.33075,-48909.71,-49595.703,-654.3783
1224287.383311421,-102433.39,-111434.37,-22542.645,-66590.66,-706.8685,-48885.254,-49572.188,-656.49414
1224287.387311416,-102428.06,-111421.06,-22537.803,-66585.086,-694.9463,-48868.652,-49555.504,-681.88477
1224287.3913114113,-102445.56,-111434.9,-22547.527,-66593.875,-704.7526,-48882.895,-49566.57,-682.1289
1224287.3953114063,-102464.234,-111456.26,-22562.744,-66608.56,-722.2494,-48907.227,-49586.223,-656.90106
1224287.3993114014,-102460.9,-111452.516,-22557.902,-66608.484,-724.4873,-48906.293,-49585.53,-643.67676
1224287.4033113967,-102440.31,-111428.71,-22545.615,-66595.3,-709.432,-48883.18,-49567.71,-666.46326
1224287.4073113918,-102436.57,-111415.86,-22540.527,-66589.44,-701.9857,-48871.297,-49559.285,-705.7292
1224287.4113113869,-102460.086,-111438.766,-22550.701,-66602.54,-714.6403,-48890.016,-49574.22,-706.01404
1224287.4153113822,-102478.4,-111463.625,-22565.186,-66616.91,-725.7894,-48914.88,-49594.727,-679.60614
1224287.4193113772,-102472.25,-111465.945,-22566.611,-66616.21,-733.3171,-48915.855,-49594.89,-652.38446
1224287.4233113725,-102455.0,-111445.766,-22559.855,-66606.08,-721.15076,-48892.863,-49574.42,-668.5791
1224287.4273113676,-102446.74,-111429.0,-22554.16,-66599.49,-703.2064,-48879.965,-49564.21,-709.14716
1224287.4313113627,-102463.22,-111441.94,-22563.803,-66607.914,-709.432,-48900.594,-49581.22,-717.6921
1224287.435311358,-102476.41,-111459.68,-22570.639,-66617.19,-724.6094,-48921.387,-49598.31,-691.2435
1224287.439311353,-102470.664,-111461.67,-22567.018,-66616.5,-733.07294,-48919.76,-49596.07,-664.02185
1224287.443311348,-102459.76,-111446.945,-22559.246,-66609.46,-724.24316,-48899.984,-49582.766,-681.4779
1224287.4473113434,-102461.8,-111439.13,-22557.455,-66606.81,-716.59344,-48890.34,-49577.35,-718.66864
1224287.4513113385,-102478.16,-111453.695,-22566.0,-66617.8,-723.55145,-48907.27,-49587.973,-719.7673
1224287.4553113335,-102490.44,-111473.555,-22575.236,-66626.23,-735.5957,-48928.47,-49605.105,-691.4877
1224287.4593113288,-102486.53,-111473.68,-22574.26,-66622.32,-734.29364,-48927.492,-49604.617,-668.5791
1224287.463311324,-102466.59,-111447.39,-22561.564,-66608.36,-717.2038,-48902.06,-49585.492,-691.77246
1224287.4673113192,-102464.64,-111437.055,-22555.908,-66607.22,-712.44305,-48891.805,-49579.227,-726.5625
1224287.4713113143,-102479.086,-111453.21,-22563.111,-66616.17,-721.3135,-48908.406,-49592.367,-723.4294
1224287.4753113093,-102495.0,-111476.61,-22574.912,-66626.23,-738.8916,-48929.77,-49608.035,-692.5049
1224287.4793113046,-102491.336,-111475.914,-22571.656,-66624.27,-740.3158,-48929.2,-49610.84,-680.7048
1224287.4833112997,-102473.23,-111454.96,-22557.049,-66612.02,-724.73145,-48904.38,-49592.613,-695.8008
1224287.4873112948,-102472.17,-111446.945,-22556.113,-66608.56,-716.0238,-48892.66,-49583.78,-734.9447
1224287.49131129,-102490.4,-111465.62,-22566.814,-66622.36,-724.6094,-48912.03,-49597.86,-741.65857
1224287.4953112851,-102501.914,-111486.01,-22578.37,-66631.516,-739.0544,-48933.35,-49614.42,-703.08435
1224287.4993112804,-102496.38,-111486.695,-22577.027,-66631.39,-740.6006,-48931.234,-49614.016,-681.7627
1224287.5033112755,-102476.56,-111464.32,-22566.488,-66618.33,-726.1963,-48906.74,-49595.297,-700.80566
1224287.5073112706,-102477.5,-111455.08,-22565.023,-66616.414,-716.1865,-48896.73,-49586.02,-738.1592
1224287.5113112659,-102494.59,-111471.03,-22578.37,-66629.68,-729.2074,-48915.12,-49600.06,-744.3034
1224287.515311261,-102497.93,-111481.61,-22583.252,-66636.516,-738.973,-48931.4,-49608.4,-702.71814
1224287.519311256,-102487.836,-111476.24,-22576.05,-66631.836,-737.0199,-48927.246,-49600.914,-674.4385
1224287.5233112513,-102468.1,-111452.44,-22562.256,-66621.38,-722.4935,-48903.035,-49581.18,-687.45935
1224287.5273112464,-102464.195,-111441.41,-22559.408,-66619.836,-714.1113,-48894.734,-49574.87,-726.3591
1224287.5313112414,-102481.53,-111455.37,-22567.465,-66624.43,-720.9066,-48911.99,-49591.96,-735.2295
1224287.5353112367,-102497.52,-111476.61,-22577.678,-66633.55,-739.0951,-48935.75,-49612.918,-706.2988
1224287.5393112318,-102491.21,-111472.21,-22574.383,-66630.13,-743.28613,-48934.246,-49611.816,-678.5482
1224287.543311227,-102469.24,-111445.48,-22564.209,-66619.63,-728.8412,-48912.312,-49595.215,-689.33105
1224287.5473112222,-102459.35,-111430.55,-22555.99,-66611.66,-713.501,-48898.277,-49583.17,-720.3776
1224287.5513112172,-102476.56,-111445.6,-22562.826,-66619.1,-720.8659,-48916.3,-49599.203,-736.57227
1224287.5553112125,-102489.46,-111466.76,-22570.965,-66628.87,-733.11365,-48940.066,-49617.23,-705.32227
1224287.5593112076,-102481.85,-111467.45,-22567.18,-66623.82,-730.3467,-48935.305,-49608.81,-682.8207
1224287.5633112027,-102460.62,-111443.89,-22550.781,-66607.55,-710.8154,-48909.793,-49588.992,-695.1498
1224287.567311198,-102461.305,-111438.03,-22546.998,-66606.37,-707.23474,-48901.33,-49583.496,-721.3949
1224287.571311193,-102485.4,-111461.35,-22562.785,-66622.36,-720.988,-48923.465,-49603.76,-738.6882
1224287.5753111884,-102501.38,-111485.64,-22574.098,-66635.625,-739.7868,-48945.76,-49622.355,-711.9955
1224287.5793111834,-102494.14,-111485.31,-22571.697,-66631.23,-741.08887,-48940.676,-49613.566,-677.6937
1224287.5833111785,-102478.11,-111467.37,-22562.256,-66623.13,-729.45154,-48919.355,-49598.758,-700.96844
1224287.5873111738,-102474.2,-111454.59,-22558.676,-66619.14,-719.84863,-48908.652,-49590.902,-744.01855
1224287.5913111689,-102492.234,-111463.71,-22569.256,-66628.7,-732.05566,-48925.336,-49601.32,-744.7103
1224287.595311164,-102505.375,-111484.87,-22582.887,-66641.28,-748.6166,-48947.88,-49612.227,-706.54297
1224287.5993111592,-102496.99,-111482.1,-22580.607,-66637.05,-745.9717,-48942.63,-49603.8,-679.07715
1224287.6033111543,-102484.99,-111462.734,-22572.389,-66626.34,-734.0902,-48920.37,-49586.67,-691.40625
1224287.6073111496,-102488.53,-111453.62,-22569.824,-66625.57,-725.8708,-48908.855,-49582.562,-736.6537
1224287.6113111447,-102508.71,-111474.86,-22580.242,-66637.33,-737.5488,-48926.35,-49600.508,-763.916
1224287.6153111397,-102534.06,-111510.664,-22598.633,-66652.836,-761.6781,-48954.715,-49623.375,-732.7881
1224287.619311135,-102526.25,-111507.695,-22595.459,-66647.83,-758.7484,-48952.23,-49622.03,-704.1423
1224287.62331113,-102500.98,-111480.516,-22582.887,-66632.33,-739.21716,-48928.914,-49607.383,-720.1335
1224287.6273111252,-102499.19,-111467.94,-22578.207,-66628.055,-728.06805,-48919.516,-49600.223,-751.0173
1224287.6313111205,-102508.95,-111478.44,-22586.223,-66637.29,-734.82263,-48936.24,-49609.58,-750.4883
1224287.6353111155,-102519.734,-111498.3,-22596.68,-66644.984,-747.64,-48956.34,-49622.316,-711.3037
1224287.6393111106,-102510.42,-111496.22,-22591.594,-66641.08,-749.02344,-48951.457,-49616.457,-689.86005
1224287.643311106,-102491.7,-111473.68,-22576.621,-66628.42,-734.13086,-48925.984,-49597.453,-706.8278
1224287.647311101,-102491.83,-111467.77,-22570.883,-66624.8,-725.30115,-48914.754,-49588.504,-739.9496
1224287.6513110963,-102506.8,-111486.17,-22580.322,-66636.4,-735.51434,-48933.797,-49600.465,-747.51794
1224287.6553110913,-102520.39,-111502.37,-22595.379,-66647.3,-748.73865,-48957.805,-49619.387,-711.0189
1224287.6593110864,-102512.05,-111500.53,-22594.932,-66646.2,-750.24414,-48956.016,-49616.17,-685.01794
1224287.6633110817,-102491.26,-111477.22,-22578.818,-66634.93,-734.70056,-48932.54,-49599.164,-702.3519
1224287.6673110768,-102486.33,-111462.77,-22570.15,-66628.26,-724.3246,-48921.348,-49593.223,-737.3454
1224287.6713110718,-102505.45,-111477.54,-22578.818,-66638.35,-736.613,-48938.965,-49606.65,-747.31445
1224287.6753110671,-102517.17,-111499.72,-22588.787,-66650.43,-754.39453,-48959.188,-49620.688,-721.47626
1224287.6793110622,-102512.78,-111501.51,-22586.02,-66648.234,-756.6325,-48953.535,-49613.324,-687.09314
1224287.6833110575,-102497.93,-111480.02,-22575.645,-66633.99,-737.46747,-48927.492,-49591.35,-704.58984
1224287.6873110526,-102497.56,-111468.14,-22570.72,-66629.72,-726.3591,-48916.504,-49583.984,-740.8041
1224287.6913110476,-102519.78,-111487.47,-22582.643,-66641.805,-741.4551,-48938.438,-49602.46,-747.02966
1224287.695311043,-102534.43,-111508.47,-22592.205,-66650.8,-754.6794,-48961.223,-49620.402,-719.84863
1224287.699311038,-102525.35,-111501.55,-22589.844,-66648.6,-754.43524,-48961.266,-49620.04,-694.0918
1224287.703311033,-102504.16,-111472.414,-22576.54,-66635.91,-736.40955,-48937.055,-49599.45,-701.0498
1224287.7073110284,-102501.02,-111459.805,-22569.459,-66630.984,-722.69696,-48924.6,-49589.277,-732.3405
1224287.7113110234,-102516.445,-111478.48,-22578.41,-66641.6,-735.35156,-48942.223,-49604.574,-746.09375
1224287.7153110185,-102527.06,-111500.2,-22587.525,-66646.12,-751.99384,-48957.97,-49615.645,-712.44305
1224287.7193110138,-102516.32,-111491.17,-22582.643,-66636.68,-742.63513,-48949.668,-49608.24,-677.7344
1224287.723311009,-102493.414,-111462.04,-22571.045,-66622.195,-719.6859,-48926.15,-49588.91,-699.1374
1224287.7273110042,-102488.37,-111451.055,-22562.623,-66620.08,-712.03613,-48916.914,-49580.04,-731.2419
1224287.7313109993,-102500.0,-111464.28,-22567.668,-66628.055,-721.3542,-48934.45,-49590.254,-726.0742
1224287.7353109943,-102506.06,-111477.74,-22573.527,-66637.01,-731.9743,-48955.363,-49604.453,-699.8698
1224287.7393109896,-102494.34,-111475.95,-22569.418,-66634.805,-732.015,-48953.574,-49595.746,-658.44727
1224287.7433109847,-102480.47,-111457.36,-22563.682,-66626.23,-717.3666,-48932.984,-49575.156,-664.4287
1224287.7473109798,-102478.68,-111445.36,-22560.588,-66622.4,-708.903,-48923.992,-49572.227,-710.2458
1224287.751310975,-102490.4,-111458.625,-22567.953,-66630.45,-720.459,-48939.375,-49583.09,-709.67615
1224287.7553109701,-102505.13,-111481.65,-22580.16,-66640.26,-737.99646,-48961.55,-49596.316,-674.3978
1224287.7593109654,-102500.41,-111479.86,-22579.387,-66636.31,-738.6882,-48958.984,-49588.83,-641.72363
1224287.7633109605,-102484.83,-111455.24,-22572.145,-66625.29,-719.40106,-48936.2,-49570.76,-660.8887
