timestamp,Fp1,Fp2,F3,Fz,F4,Cz,Pz,Oz
1226893.2630769496,-98408.05,-118951.74,-29457.928,-24271.484,-27846.64,-26588.908,-21522.584,-23527.02
1226893.2670769468,-98402.51,-118949.914,-29471.844,-24266.725,-27848.756,-26596.03,-21524.658,-23496.99
1226893.271076944,-98401.25,-118945.48,-29472.656,-24266.357,-27833.66,-26594.97,-21528.361,-23498.78
1226893.2750769411,-98423.22,-118960.94,-29465.984,-24273.072,-27830.242,-26588.502,-21528.443,-23528.402
1226893.2790769383,-98445.48,-118974.57,-29463.867,-24280.152,-27838.258,-26585.775,-21527.182,-23543.092
1226893.2830769354,-98434.086,-118958.625,-29467.979,-24275.188,-27844.97,-26592.082,-21526.775,-23510.621
1226893.2870769326,-98411.055,-118936.445,-29476.889,-24267.945,-27843.1,-26599.773,-21529.99,-23475.709
1226893.2910769298,-98423.34,-118949.47,-29489.014,-24271.24,-27837.973,-26595.541,-21529.135,-23478.924
1226893.295076927,-98458.414,-118981.49,-29480.145,-24280.273,-27843.75,-26586.182,-21525.596,-23499.879
1226893.299076924,-98462.57,-118987.266,-29469.688,-24283.408,-27845.908,-26584.96,-21524.09,-23517.742
1226893.3030769213,-98438.93,-118967.82,-29473.512,-24278.809,-27851.848,-26596.559,-21531.658,-23527.793
1226893.3070769184,-98418.54,-118947.72,-29481.324,-24272.828,-27853.924,-26602.783,-21537.03,-23510.58
1226893.3110769156,-98443.85,-118970.586,-29486.084,-24277.832,-27850.668,-26595.744,-21535.156,-23500.123
1226893.3150769125,-98452.97,-118973.84,-29472.656,-24283.488,-27846.762,-26587.81,-21529.217,-23511.027
1226893.3190769097,-98446.29,-118964.484,-29461.834,-24285.727,-27847.738,-26586.264,-21527.955,-23532.756
1226893.3230769068,-98450.32,-118977.664,-29471.844,-24285.156,-27868.246,-26591.838,-21529.42,-23513.633
1226893.327076904,-98442.266,-118976.41,-29482.016,-24280.234,-27871.543,-26600.953,-21536.377,-23492.637
1226893.3310769012,-98429.33,-118966.96,-29476.562,-24275.92,-27854.697,-26599.773,-21537.842,-23498.008
1226893.3350768983,-98442.305,-118975.63,-29466.39,-24280.682,-27843.1,-26589.56,-21529.826,-23517.54
1226893.3390768955,-98471.234,-118996.75,-29464.438,-24287.598,-27848.43,-26587.566,-21520.957,-23526.49
1226893.3430768927,-98464.234,-118990.32,-29470.012,-24283.977,-27863.934,-26593.385,-21516.928,-23489.137
1226893.3470768898,-98428.43,-118962.85,-29474.041,-24274.74,-27862.998,-26600.627,-21519.492,-23454.63
1226893.351076887,-98433.234,-118966.11,-29474.162,-24274.781,-27852.256,-26595.215,-21522.258,-23469.932
1226893.3550768842,-98457.32,-118980.92,-29470.947,-24283.0,-27847.861,-26587.81,-21523.113,-23503.338
1226893.3590768813,-98464.6,-118984.7,-29464.234,-24285.97,-27857.707,-26586.426,-21520.02,-23506.959
1226893.3630768785,-98451.54,-118973.516,-29471.191,-24280.885,-27862.225,-26594.89,-21518.23,-23477.744
1226893.3670768756,-98439.66,-118965.414,-29480.51,-24274.781,-27859.783,-26599.53,-21520.63,-23457.805
1226893.3710768728,-98443.2,-118968.39,-29480.145,-24275.27,-27852.744,-26595.135,-21526.572,-23474.406
1226893.37507687,-98459.234,-118976.61,-29470.094,-24279.908,-27845.012,-26587.078,-21524.455,-23501.873
1226893.3790768671,-98475.586,-118987.35,-29469.89,-24284.262,-27848.756,-26583.984,-21520.469,-23505.615
1226893.3830768643,-98469.2,-118984.586,-29479.736,-24282.715,-27856.934,-26592.367,-21521.363,-23476.197
1226893.3870768615,-98454.43,-118974.0,-29487.102,-24276.611,-27861.166,-26597.941,-21519.613,-23448.447
1226893.3910768586,-98465.87,-118984.375,-29489.584,-24277.873,-27857.383,-26592.896,-21518.19,-23456.707
1226893.3950768558,-98489.664,-118999.88,-29485.434,-24284.344,-27853.312,-26585.002,-21517.295,-23499.105
1226893.399076853,-98503.55,-119001.305,-29482.098,-24289.186,-27856.854,-26583.13,-21513.957,-23510.986
1226893.40307685,-98486.695,-118990.93,-29484.213,-24285.361,-27865.643,-26592.938,-21514.283,-23475.424
1226893.4070768473,-98464.84,-118981.445,-29495.281,-24279.46,-27864.38,-26598.594,-21515.91,-23445.436
1226893.4110768444,-98483.73,-119000.414,-29497.926,-24280.273,-27858.521,-26591.39,-21515.219,-23454.63
1226893.4150768416,-98509.16,-119014.49,-29490.113,-24287.191,-27856.934,-26585.166,-21519.004,-23496.258
1226893.4190768388,-98510.42,-119004.36,-29483.074,-24289.227,-27857.627,-26586.387,-21516.562,-23501.22
1226893.423076836,-98499.555,-118991.87,-29492.676,-24284.912,-27863.648,-26594.158,-21510.703,-23463.014
1226893.427076833,-98497.93,-118994.02,-29502.93,-24279.785,-27861.816,-26598.35,-21509.277,-23432.74
1226893.4310768303,-98517.91,-119020.836,-29503.053,-24280.926,-27855.186,-26591.92,-21509.482,-23441.65
1226893.4350768274,-98536.87,-119033.695,-29491.537,-24287.273,-27851.93,-26581.87,-21507.488,-23480.51
1226893.4390768246,-98528.94,-119016.766,-29483.48,-24289.348,-27855.51,-26581.91,-21508.139,-23497.355
1226893.4430768217,-98507.57,-119001.02,-29487.672,-24284.344,-27861.736,-26588.746,-21503.541,-23457.398
1226893.447076819,-98504.68,-119010.18,-29499.879,-24281.17,-27866.578,-26590.82,-21500.326,-23413.535
1226893.451076816,-98522.38,-119027.47,-29504.762,-24284.14,-27859.701,-26584.637,-21502.727,-23430.176
1226893.4550768132,-98542.85,-119042.12,-29495.361,-24290.65,-27861.98,-26574.871,-21501.303,-23466.879
1226893.4590768102,-98546.1,-119047.53,-29482.992,-24291.668,-27868.979,-26571.494,-21496.176,-23466.96
1226893.4630768073,-98523.03,-119026.164,-29483.928,-24284.424,-27867.229,-26579.754,-21494.102,-23437.379
1226893.4670768045,-98508.266,-119015.18,-29490.52,-24278.117,-27870.525,-26582.44,-21495.89,-23425.822
1226893.4710768017,-98514.61,-119022.46,-29488.12,-24277.832,-27864.543,-26576.701,-21496.217,-23437.338
1226893.4750767988,-98532.516,-119034.43,-29476.482,-24283.691,-27862.102,-26567.994,-21496.135,-23464.64
1226893.479076796,-98536.83,-119032.84,-29466.96,-24286.215,-27864.219,-26566.123,-21494.59,-23473.715
1226893.4830767931,-98525.555,-119023.234,-29471.72,-24282.92,-27869.223,-26573.08,-21498.17,-23449.057
1226893.4870767903,-98512.66,-119016.766,-29475.059,-24276.043,-27869.549,-26577.434,-21498.74,-23420.98
1226893.4910767875,-98518.76,-119024.21,-29470.664,-24276.246,-27864.014,-26574.912,-21499.473,-23439.414
1226893.4950767846,-98534.67,-119037.27,-29460.613,-24282.105,-27862.225,-26568.889,-21503.582,-23478.883
1226893.4990767818,-98538.945,-119039.836,-29454.307,-24285.85,-27867.432,-26570.395,-21503.012,-23484.945
1226893.503076779,-98527.71,-119032.8,-29460.043,-24282.39,-27876.303,-26577.23,-21502.809,-23451.213
1226893.5070767761,-98518.31,-119026.37,-29470.176,-24278.525,-27878.623,-26581.707,-21503.988,-23422.771
1226893.5110767733,-98530.44,-119036.91,-29472.576,-24281.006,-27871.014,-26574.3,-21500.814,-23437.217
1226893.5150767704,-98548.34,-119049.52,-29464.56,-24288.25,-27868.979,-26563.926,-21496.582,-23468.14
1226893.5190767676,-98555.55,-119049.766,-29458.375,-24290.244,-27873.17,-26561.2,-21493.408,-23469.28
1226893.5230767648,-98542.445,-119037.766,-29465.861,-24285.85,-27876.873,-26569.459,-21490.928,-23433.717
1226893.527076762,-98529.09,-119030.234,-29474.854,-24280.234,-27878.744,-26572.836,-21493.857,-23414.756
1226893.531076759,-98536.625,-119037.48,-29478.883,-24283.732,-27875.164,-26566.203,-21497.764,-23436.809
1226893.5350767563,-98551.4,-119046.02,-29472.656,-24289.43,-27869.182,-26559.205,-21496.217,-23467.652
1226893.5390767534,-98553.914,-119046.76,-29469.238,-24290.936,-27877.646,-26560.791,-21494.873,-23478.68
1226893.5430767506,-98542.04,-119038.66,-29475.262,-24286.826,-27883.139,-26569.785,-21496.258,-23454.428
1226893.5470767478,-98528.61,-119027.266,-29484.172,-24280.559,-27881.309,-26574.139,-21498.861,-23425.945
1226893.551076745,-98539.39,-119031.664,-29487.266,-24280.355,-27872.234,-26569.174,-21500.205,-23435.629
1226893.555076742,-98561.57,-119047.53,-29481.04,-24287.68,-27869.06,-26561.688,-21496.867,-23460.002
1226893.5590767392,-98567.55,-119054.33,-29476.482,-24290.365,-27878.012,-26560.71,-21492.637,-23461.914
1226893.5630767364,-98552.53,-119046.63,-29482.016,-24285.645,-27887.86,-26566.895,-21492.717,-23442.832
1226893.5670767336,-98538.336,-119037.805,-29490.316,-24280.682,-27886.354,-26571.818,-21497.111,-23428.508
1226893.5710767307,-98544.92,-119044.03,-29492.229,-24281.17,-27877.238,-26568.604,-21502.32,-23459.229
1226893.575076728,-98561.32,-119051.76,-29481.61,-24286.297,-27872.193,-26564.209,-21501.262,-23494.59
1226893.579076725,-98563.805,-119044.64,-29476.482,-24289.023,-27878.094,-26564.982,-21496.135,-23494.71
1226893.5830767222,-98547.164,-119027.43,-29483.684,-24284.912,-27882.854,-26573.365,-21495.443,-23458.62
1226893.5870767194,-98533.05,-119019.82,-29491.66,-24278.932,-27878.785,-26579.143,-21501.22,-23437.988
1226893.5910767165,-98543.375,-119031.62,-29493.49,-24280.885,-27869.67,-26574.016,-21505.127,-23452.11
1226893.5950767137,-98563.07,-119049.6,-29485.475,-24285.727,-27869.346,-26565.43,-21502.361,-23480.877
1226893.5990767109,-98570.11,-119051.76,-29477.865,-24289.104,-27877.28,-26565.35,-21496.582,-23489.707
1226893.6030767078,-98557.58,-119044.56,-29485.23,-24286.826,-27887.98,-26575.277,-21499.635,-23462.484
1226893.607076705,-98543.87,-119036.95,-29494.385,-24281.576,-27889.854,-26581.992,-21503.867,-23435.385
1226893.6110767021,-98553.06,-119042.97,-29493.37,-24281.576,-27880.291,-26579.469,-21505.738,-23451.783
1226893.6150766993,-98570.31,-119053.836,-29484.54,-24287.273,-27874.309,-26572.348,-21504.314,-23485.76
1226893.6190766965,-98572.88,-119052.29,-29480.062,-24289.674,-27880.088,-26570.395,-21496.623,-23486.045
1226893.6230766936,-98555.586,-119035.12,-29485.352,-24286.703,-27887.492,-26577.963,-21492.188,-23447.754
1226893.6270766908,-98544.48,-119025.84,-29493.652,-24280.355,-27886.11,-26582.236,-21490.56,-23417.197
1226893.631076688,-98553.14,-119039.555,-29490.113,-24280.273,-27877.441,-26575.969,-21492.27,-23432.822
1226893.635076685,-98570.805,-119052.21,-29481.201,-24288.25,-27876.914,-26566.611,-21486.207,-23462.24
1226893.6390766823,-98570.4,-119050.336,-29474.814,-24291.22,-27881.268,-26567.059,-21479.248,-23470.379
1226893.6430766794,-98550.625,-119036.75,-29477.947,-24285.117,-27887.615,-26575.156,-21479.98,-23451.416
1226893.6470766766,-98538.05,-119029.42,-29488.566,-24279.867,-27885.662,-26581.137,-21480.348,-23415.812
1226893.6510766738,-98545.695,-119035.93,-29492.555,-24281.17,-27874.188,-26574.18,-21480.389,-23419.883
1226893.655076671,-98564.5,-119051.11,-29484.213,-24286.133,-27873.414,-26567.344,-21481.324,-23466.27
1226893.659076668,-98562.99,-119046.02,-29476.768,-24288.453,-27879.518,-26571.209,-21482.504,-23478.965
1226893.6630766653,-98556.44,-119039.836,-29484.254,-24283.652,-27886.312,-26578.451,-21477.947,-23435.914
1226893.6670766624,-98559.37,-119046.67,-29494.71,-24279.541,-27886.963,-26581.787,-21475.709,-23411.541
1226893.6710766596,-98551.27,-119037.195,-29491.008,-24278.037,-27876.588,-26579.266,-21478.639,-23425.66
1226893.6750766567,-98563.48,-119040.0,-29483.318,-24286.053,-27872.396,-26571.615,-21478.312,-23460.572
1226893.679076654,-98565.68,-119038.74,-29477.662,-24289.307,-27876.629,-26571.006,-21474.365,-23474.365
1226893.683076651,-98544.516,-119025.6,-29483.604,-24285.564,-27884.93,-26581.992,-21472.332,-23438.885
1226893.6870766482,-98518.64,-119011.93,-29489.787,-24278.932,-27885.418,-26586.63,-21474.041,-23411.582
1226893.6910766454,-98526.695,-119022.95,-29489.38,-24280.682,-27881.592,-26583.049,-21475.262,-23426.963
1226893.6950766426,-98549.12,-119039.31,-29480.145,-24286.988,-27878.338,-26575.277,-21468.994,-23453.654
1226893.6990766397,-98550.78,-119034.63,-29473.145,-24287.314,-27881.145,-26574.545,-21460.205,-23455.975
1226893.703076637,-98534.875,-119023.32,-29478.924,-24282.309,-27886.23,-26583.74,-21459.799,-23425.986
1226893.707076634,-98527.19,-119019.49,-29490.52,-24278.2,-27885.662,-26591.025,-21466.635,-23403.361
1226893.7110766312,-98536.38,-119026.734,-29490.154,-24278.525,-27875.488,-26587.363,-21471.924,-23420.98
1226893.7150766284,-98554.445,-119036.79,-29477.865,-24283.53,-27873.088,-26583.701,-21473.674,-23459.148
1226893.7190766255,-98561.57,-119041.016,-29471.152,-24285.28,-27879.803,-26587.2,-21469.564,-23462.037
1226893.7230766227,-98544.68,-119033.086,-29474.895,-24280.682,-27887.127,-26597.453,-21468.426,-23422.08
1226893.7270766199,-98531.87,-119031.7,-29482.098,-24277.588,-27889.893,-26603.232,-21470.135,-23388.307
1226893.731076617,-98547.0,-119043.74,-29481.568,-24279.135,-27884.4,-26598.268,-21471.885,-23396.24
1226893.7350766142,-98569.99,-119056.32,-29475.75,-24285.93,-27884.074,-26589.844,-21467.285,-23413.006
1226893.7390766114,-98572.15,-119057.46,-29470.947,-24289.348,-27888.916,-26591.879,-21464.193,-23436.932
1226893.7430766085,-98551.4,-119041.1,-29474.732,-24284.953,-27896.12,-26603.477,-21471.762,-23461.387
1226893.7470766054,-98540.86,-119031.82,-29484.986,-24282.594,-27895.184,-26609.945,-21477.5,-23433.39
1226893.7510766026,-98551.88,-119043.945,-29484.904,-24285.117,-27887.695,-26606.895,-21476.889,-23434.693
1226893.7550765998,-98572.02,-119060.8,-29475.139,-24291.953,-27884.807,-26602.215,-21471.314,-23463.176
1226893.759076597,-98586.555,-119071.54,-29468.344,-24296.672,-27892.62,-26600.547,-21463.217,-23457.48
1226893.763076594,-98565.35,-119054.94,-29471.273,-24290.895,-27893.027,-26610.027,-21460.45,-23410.441
1226893.7670765913,-98539.92,-119034.95,-29480.021,-24284.547,-27889.365,-26620.973,-21466.432,-23385.824
1226893.7710765884,-98557.5,-119054.0,-29484.254,-24288.697,-27886.11,-26617.92,-21470.541,-23406.21
1226893.7750765856,-98579.51,-119060.51,-29473.227,-24296.184,-27884.521,-26613.281,-21469.117,-23439.373
1226893.7790765828,-98577.31,-119052.375,-29462.525,-24299.236,-27893.76,-26617.352,-21468.182,-23446.412
1226893.78307658,-98557.414,-119045.05,-29473.553,-24296.836,-27903.525,-26625.732,-21465.21,-23412.762
1226893.787076577,-98552.49,-119043.38,-29482.79,-24293.662,-27903.605,-26629.559,-21463.787,-23389.08
1226893.7910765742,-98551.72,-119039.35,-29478.924,-24293.58,-27890.098,-26624.756,-21465.332,-23402.549
1226893.7950765714,-98568.766,-119053.15,-29470.379,-24299.602,-27890.79,-26618.246,-21460.41,-23425.334
1226893.7990765686,-98576.055,-119057.54,-29464.072,-24304.322,-27898.193,-26619.02,-21453.207,-23428.916
1226893.8030765657,-98565.72,-119046.875,-29471.68,-24303.102,-27908.082,-26630.209,-21452.393,-23398.52
1226893.807076563,-98557.414,-119043.87,-29480.307,-24297.771,-27905.355,-26636.68,-21453.777,-23368.287
1226893.81107656,-98570.72,-119052.01,-29481.65,-24299.48,-27894.654,-26633.3,-21454.346,-23385.986
1226893.8150765572,-98596.16,-119071.7,-29475.994,-24310.547,-27896.81,-26628.826,-21453.451,-23419.8
1226893.8190765544,-98602.91,-119078.01,-29471.924,-24317.18,-27906.291,-26632.854,-21452.842,-23435.14
1226893.8230765515,-98584.03,-119062.75,-29477.459,-24315.594,-27915.447,-26644.572,-21449.83,-23408.447
1226893.8270765487,-98572.72,-119058.92,-29487.184,-24314.453,-27914.512,-26651.002,-21446.25,-23370.605
1226893.8310765459,-98589.805,-119073.57,-29487.672,-24319.541,-27910.361,-26647.666,-21451.66,-23392.457
1226893.835076543,-98608.69,-119085.125,-29478.72,-24326.66,-27907.594,-26643.596,-21452.76,-23442.871
1226893.8390765402,-98606.85,-119079.76,-29474.854,-24332.031,-27913.453,-26647.625,-21448.568,-23443.889
1226893.8430765374,-98578.945,-119060.34,-29478.271,-24327.434,-27922.04,-26659.14,-21449.139,-23402.67
1226893.8470765345,-98568.16,-119059.086,-29485.19,-24324.586,-27922.975,-26669.19,-21454.346,-23375.732
1226893.8510765317,-98583.625,-119071.5,-29487.225,-24328.857,-27917.848,-26669.475,-21459.88,-23402.549
1226893.8550765289,-98604.984,-119083.336,-29476.074,-24335.205,-27920.777,-26666.504,-21462.89,-23445.72
1226893.859076526,-98606.29,-119082.69,-29470.297,-24338.867,-27929.566,-26670.166,-21459.637,-23445.03
1226893.8630765232,-98585.164,-119068.89,-29477.783,-24335.572,-27930.828,-26679.322,-21457.52,-23406.129
1226893.8670765203,-98577.64,-119065.96,-29490.723,-24333.537,-27931.805,-26685.02,-21461.426,-23384.686
1226893.8710765175,-98595.625,-119078.74,-29496.705,-24338.096,-27929.443,-26685.752,-21467.938,-23410.523
1226893.8750765147,-98615.97,-119089.484,-29489.096,-24344.158,-27926.922,-26680.746,-21467.979,-23442.059
1226893.8790765118,-98615.69,-119087.53,-29485.23,-24347.697,-27930.258,-26681.602,-21460.41,-23427.734
1226893.883076509,-98597.17,-119075.56,-29490.072,-24345.135,-27935.873,-26691.814,-21459.434,-23388.754
1226893.8870765062,-98584.88,-119067.836,-29497.275,-24339.355,-27939.129,-26698.04,-21463.379,-23380.127
1226893.891076503,-98598.92,-119079.47,-29497.967,-24340.293,-27933.799,-26695.762,-21463.787,-23400.31
1226893.8950765003,-98616.984,-119091.64,-29489.584,-24345.623,-27929.037,-26688.152,-21455.69,-23436.28
1226893.8990764974,-98618.45,-119088.586,-29483.115,-24347.576,-27933.879,-26687.217,-21442.953,-23420.492
1226893.9030764946,-98606.125,-119076.26,-29487.793,-24343.303,-27940.674,-26693.645,-21432.74,-23355.957
1226893.9070764917,-98595.18,-119072.63,-29497.682,-24338.135,-27943.441,-26701.254,-21436.729,-23346.232
1226893.911076489,-98600.836,-119079.836,-29493.37,-24338.46,-27932.373,-26700.725,-21445.924,-23406.658
1226893.915076486,-98620.77,-119090.54,-29483.643,-24344.361,-27927.695,-26696.615,-21445.232,-23440.838
1226893.9190764832,-98624.68,-119087.484,-29481.65,-24348.715,-27936.85,-26699.627,-21443.115,-23431.479
1226893.9230764804,-98611.53,-119080.24,-29490.44,-24343.14,-27945.191,-26713.746,-21448.65,-23399.578
1226893.9270764776,-98608.85,-119086.35,-29502.402,-24339.926,-27946.941,-26721.152,-21456.787,-23379.762
1226893.9310764747,-98625.49,-119102.664,-29504.273,-24342.693,-27939.82,-26718.426,-21467.164,-23406.455
1226893.935076472,-98649.7,-119117.92,-29496.746,-24347.9,-27938.518,-26714.152,-21468.67,-23443.36
1226893.939076469,-98649.78,-119116.21,-29492.758,-24351.074,-27949.668,-26717.164,-21464.193,-23440.715
1226893.9430764662,-98633.71,-119104.17,-29502.523,-24347.617,-27957.154,-26726.28,-21462.2,-23402.344
1226893.9470764634,-98630.29,-119105.63,-29510.906,-24344.646,-27957.602,-26730.795,-21465.293,-23380.006
1226893.9510764605,-98646.89,-119119.555,-29507.773,-24345.379,-27947.715,-26725.668,-21470.826,-23402.426
1226893.9550764577,-98666.47,-119134.484,-29503.297,-24353.15,-27943.645,-26718.018,-21467.082,-23438.844
1226893.9590764549,-98673.67,-119135.99,-29502.238,-24359.54,-27957.195,-26718.059,-21458.496,-23433.799
1226893.963076452,-98660.28,-119130.21,-29512.127,-24355.836,-27967.49,-26724.0,-21451.498,-23395.06
1226893.9670764492,-98646.2,-119120.445,-29522.422,-24352.744,-27966.514,-26728.639,-21455.404,-23372.52
1226893.9710764464,-98658.29,-119127.89,-29521.893,-24354.9,-27957.44,-26726.441,-21461.346,-23395.143
1226893.9750764435,-98685.67,-119147.46,-29508.709,-24362.021,-27956.38,-26721.191,-21462.646,-23432.902
1226893.9790764407,-98684.734,-119143.48,-29505.738,-24363.648,-27963.217,-26720.053,-21456.584,-23427.287
1226893.9830764378,-98671.47,-119130.45,-29514.324,-24360.393,-27968.832,-26731.324,-21457.764,-23394.043
1226893.987076435,-98662.6,-119127.52,-29525.635,-24358.521,-27969.32,-26737.021,-21464.275,-23376.1
1226893.9910764322,-98671.555,-119137.82,-29525.717,-24362.143,-27964.967,-26731.242,-21468.832,-23391.154
1226893.9950764293,-98695.36,-119148.52,-29515.38,-24370.525,-27963.502,-26720.582,-21457.887,-23399.537
1226893.9990764265,-98702.516,-119146.37,-29513.021,-24373.455,-27972.453,-26716.39,-21444.947,-23390.666
1226894.0030764237,-98687.99,-119133.14,-29518.88,-24369.264,-27981.242,-26726.318,-21448.65,-23368.408
1226894.0070764208,-98677.05,-119128.586,-29524.252,-24363.975,-27979.209,-26730.307,-21456.178,-23379.15
1226894.011076418,-98688.4,-119140.914,-29520.916,-24367.432,-27977.988,-26725.586,-21466.553,-23420.777
1226894.0150764151,-98709.07,-119152.914,-29509.521,-24374.92,-27975.342,-26718.018,-21467.53,-23452.068
1226894.0190764123,-98712.2,-119145.92,-29502.28,-24376.018,-27980.998,-26719.117,-21461.67,-23449.342
1226894.0230764095,-98707.56,-119132.86,-29507.732,-24372.355,-27986.816,-26726.97,-21462.484,-23416.627
1226894.0270764066,-98722.82,-119134.69,-29511.15,-24370.361,-27987.266,-26728.15,-21467.773,-23402.264
1226894.0310764038,-98712.57,-119150.31,-29513.916,-24371.176,-27980.225,-26722.697,-21472.738,-23418.133
1226894.0350764007,-98720.664,-119165.37,-29506.592,-24374.023,-27976.238,-26716.35,-21469.809,-23446.533
1226894.039076398,-98721.48,-119163.05,-29503.297,-24376.1,-27982.83,-26716.473,-21464.6,-23441.123
1226894.043076395,-98710.82,-119156.46,-29506.877,-24373.088,-27996.664,-26723.47,-21460.775,-23406.494
1226894.0470763922,-98703.9,-119156.62,-29509.033,-24369.834,-27998.7,-26729.045,-21463.787,-23386.883
1226894.0510763894,-98720.75,-119173.875,-29504.03,-24373.047,-27993.531,-26724.65,-21470.908,-23411.906
1226894.0550763865,-98741.336,-119187.83,-29489.502,-24379.111,-27993.572,-26714.56,-21468.955,-23447.836
1226894.0590763837,-98745.77,-119186.2,-29481.121,-24379.559,-27996.258,-26713.543,-21460.938,-23443.93
1226894.0630763809,-98727.99,-119172.61,-29485.271,-24372.967,-27999.797,-26724.203,-21459.84,-23405.885
1226894.067076378,-98714.234,-119170.336,-29491.416,-24367.637,-27999.92,-26732.219,-21467.773,-23389.934
1226894.0710763752,-98724.41,-119182.01,-29480.307,-24368.652,-27991.008,-26726.318,-21470.176,-23412.436
1226894.0750763724,-98750.2,-119198.98,-29465.984,-24373.984,-27985.922,-26719.402,-21466.229,-23444.662
1226894.0790763695,-98763.47,-119200.89,-29470.053,-24375.855,-27996.623,-26717.938,-21455.852,-23440.39
1226894.0830763667,-98747.73,-119195.6,-29484.58,-24373.047,-28007.041,-26725.139,-21452.393,-23401.979
1226894.0870763639,-98723.43,-119177.05,-29487.469,-24366.293,-28000.041,-26733.36,-21464.682,-23384.441
1226894.091076361,-98728.48,-119180.625,-29481.04,-24366.416,-27988.975,-26729.371,-21471.72,-23404.99
1226894.0950763582,-98759.73,-119206.55,-29475.342,-24374.879,-27989.625,-26720.988,-21467.164,-23426.352
1226894.0990763553,-98771.53,-119211.8,-29473.959,-24378.094,-28000.896,-26718.994,-21458.578,-23412.15
1226894.1030763525,-98758.63,-119200.56,-29482.504,-24375.285,-28007.895,-26726.36,-21453.898,-23371.258
1226894.1070763497,-98742.31,-119191.37,-29490.195,-24370.361,-28007.773,-26729.371,-21457.805,-23373.984
1226894.1110763468,-98755.05,-119205.98,-29488.363,-24373.414,-28001.018,-26721.396,-21466.473,-23416.016
1226894.115076344,-98778.65,-119223.516,-29485.23,-24379.924,-28000.244,-26712.729,-21466.514,-23444.092
1226894.1190763412,-98779.664,-119222.25,-29483.277,-24381.348,-28011.557,-26711.02,-21461.467,-23447.592
1226894.1230763383,-98766.73,-119214.234,-29493.49,-24379.6,-28024.578,-26721.559,-21462.363,-23416.79
1226894.1270763355,-98760.46,-119214.08,-29506.43,-24378.906,-28021.566,-26727.824,-21472.209,-23409.912
1226894.1310763326,-98773.64,-119226.77,-29506.186,-24380.576,-28011.436,-26722.982,-21479.574,-23437.582
1226894.1350763298,-98788.82,-119230.516,-29498.17,-24386.598,-28005.332,-26715.049,-21476.4,-23462.81
1226894.139076327,-98788.7,-119227.586,-29493.734,-24387.98,-28014.08,-26718.182,-21468.71,-23459.148
1226894.1430763241,-98771.61,-119214.97,-29500.652,-24383.424,-28024.252,-26727.05,-21466.35,-23423.707
1226894.1470763213,-98758.34,-119204.35,-29510.986,-24378.623,-28015.87,-26732.219,-21469.035,-23390.545
1226894.1510763185,-98769.53,-119213.305,-29512.086,-24378.541,-28007.244,-26730.225,-21477.133,-23414.715
1226894.1550763156,-98785.28,-119223.88,-29503.174,-24381.715,-28006.553,-26724.326,-21479.656,-23458.62
1226894.1590763128,-98785.69,-119219.0,-29501.385,-24385.05,-28014.16,-26726.197,-21474.691,-23456.422
1226894.16307631,-98769.734,-119205.98,-29511.842,-24380.86,-28022.502,-26737.428,-21475.586,-23414.918
1226894.167076307,-98760.46,-119203.375,-29519.857,-24375.57,-28016.846,-26744.752,-21483.725,-23396.852
1226894.1710763043,-98769.9,-119213.305,-29515.219,-24375.855,-28009.197,-26739.219,-21489.422,-23426.066
1226894.1750763014,-98790.29,-119226.41,-29504.883,-24381.836,-28009.604,-26731.283,-21484.54,-23454.469
1226894.1790762984,-98789.43,-119221.805,-29500.732,-24384.766,-28019.492,-26731.445,-21476.523,-23445.842
1226894.1830762955,-98769.9,-119204.02,-29505.576,-24378.906,-28023.643,-26738.77,-21473.35,-23404.258
1226894.1870762927,-98757.49,-119189.945,-29513.021,-24373.17,-28018.84,-26742.717,-21479.533,-23383.465
1226894.1910762899,-98767.625,-119195.88,-29508.953,-24374.023,-28011.8,-26737.346,-21483.195,-23409.912
1226894.195076287,-98784.8,-119207.73,-29500.53,-24380.697,-28010.662,-26729.004,-21479.615,-23444.012
1226894.1990762842,-98782.39,-119205.164,-29496.746,-24382.08,-28015.748,-26727.906,-21469.646,-23423.748
1226894.2030762814,-98762.945,-119193.85,-29502.482,-24377.686,-28023.398,-26735.719,-21469.97,-23397.096
1226894.2070762785,-98752.0,-119192.14,-29510.54,-24374.838,-28018.475,-26742.555,-21478.477,-23399.09
1226894.2110762757,-98763.555,-119203.74,-29510.58,-24375.611,-28011.598,-26736.736,-21477.783,-23409.994
1226894.2150762728,-98780.6,-119211.71,-29501.018,-24380.127,-28011.924,-26731.73,-21475.953,-23434.979
1226894.21907627,-98781.17,-119212.69,-29498.332,-24381.348,-28018.066,-26735.19,-21474.488,-23433.025
1226894.2230762672,-98761.766,-119203.945,-29504.6,-24376.914,-28022.258,-26745.361,-21478.477,-23411.012
1226894.2270762643,-98749.64,-119197.8,-29510.865,-24373.658,-28023.357,-26748.78,-21481.73,-23392.375
1226894.2310762615,-98759.12,-119206.38,-29508.506,-24373.902,-28013.877,-26741.21,-21484.13,-23407.309
1226894.2350762587,-98780.07,-119220.46,-29500.408,-24380.941,-28014.283,-26732.178,-21481.406,-23433.96
1226894.2390762558,-98782.02,-119217.984,-29497.52,-24383.83,-28022.502,-26733.725,-21475.424,-23429.037
1226894.243076253,-98760.22,-119205.98,-29505.576,-24377.686,-28028.117,-26742.514,-21473.594,-23389.61
1226894.2470762501,-98751.38,-119202.11,-29514.324,-24373.82,-28028.77,-26746.094,-21479.98,-23372.885
1226894.2510762473,-98767.055,-119216.8,-29514.404,-24377.28,-28021.404,-26740.684,-21486.94,-23406.78
1226894.2550762445,-98782.59,-119228.11,-29507.406,-24382.812,-28014.975,-26733.033,-21486.857,-23445.965
1226894.2590762416,-98780.195,-119224.29,-29502.809,-24384.033,-28022.096,-26732.748,-21479.127,-23437.297
1226894.2630762388,-98760.83,-119210.94,-29508.953,-24380.209,-28025.92,-26739.543,-21474.244,-23399.334
1226894.267076236,-98754.31,-119209.68,-29517.986,-24375.123,-28025.39,-26744.305,-21480.145,-23379.762
1226894.2710762331,-98774.3,-119227.5,-29520.184,-24378.215,-28023.113,-26738.525,-21486.695,-23401.816
1226894.2750762303,-98800.42,-119246.09,-29515.057,-24386.8,-28025.229,-26728.557,-21484.863,-23436.117
1226894.2790762275,-98800.87,-119239.26,-29512.29,-24390.016,-28028.77,-26729.248,-21482.383,-23442.303
1226894.2830762246,-98767.055,-119208.13,-29515.545,-24382.365,-28027.588,-26740.154,-21483.887,-23411.826
1226894.2870762218,-98757.695,-119207.56,-29524.414,-24377.28,-28024.455,-26741.943,-21488.078,-23389.568
1226894.291076219,-98778.484,-119223.48,-29523.56,-24380.941,-28022.705,-26736.613,-21495.85,-23414.877
1226894.295076216,-98799.52,-119235.88,-29517.863,-24387.86,-28022.99,-26731.445,-21495.322,-23452.598
1226894.2990762133,-98792.12,-119224.125,-29514.854,-24389.69,-28027.793,-26731.812,-21486.207,-23446.533
1226894.3030762104,-98771.2,-119205.9,-29519.166,-24382.854,-28031.006,-26737.59,-21480.348,-23402.914
1226894.3070762076,-98760.945,-119200.12,-29527.832,-24377.28,-28022.787,-26740.967,-21483.848,-23373.943
1226894.3110762048,-98775.68,-119210.984,-29528.32,-24380.412,-28013.754,-26734.457,-21486.572,-23395.06
1226894.315076202,-98793.13,-119223.68,-29518.516,-24383.424,-28014.771,-26727.377,-21483.643,-23421.957
1226894.319076199,-98790.53,-119216.39,-29512.818,-24383.506,-28023.438,-26731.445,-21480.186,-23428.916
1226894.323076196,-98773.4,-119200.81,-29519.004,-24378.338,-28024.74,-26742.596,-21482.178,-23408.244
1226894.3270761932,-98762.78,-119194.586,-29525.717,-24374.39,-28020.02,-26746.055,-21492.393,-23408.488
1226894.3310761903,-98773.84,-119202.766,-29525.229,-24376.994,-28012.451,-26740.723,-21498.17,-23422.04
1226894.3350761875,-98791.95,-119208.17,-29513.836,-24382.773,-28009.562,-26733.318,-21494.834,-23448.854
1226894.3390761847,-98794.15,-119201.22,-29511.76,-24385.459,-28016.725,-26732.219,-21482.383,-23438.885
1226894.3430761818,-98765.016,-119186.04,-29523.154,-24381.797,-28021.484,-26738.322,-21475.83,-23385.865
1226894.347076179,-98751.305,-119179.2,-29528.281,-24375.977,-28017.498,-26740.275,-21477.418,-23363.607
1226894.3510761762,-98762.414,-119187.055,-29525.473,-24376.506,-28008.262,-26735.719,-21480.754,-23387.94
1226894.3550761733,-98776.33,-119198.04,-29516.643,-24382.406,-28007.812,-26729.9,-21477.744,-23414.715
1226894.3590761705,-98775.8,-119197.72,-29513.51,-24384.441,-28014.893,-26731.975,-21471.924,-23413.574
1226894.3630761676,-98762.45,-119187.79,-29524.293,-24381.756,-28025.025,-26740.805,-21473.877,-23382.812
1226894.3670761648,-98757.086,-119188.07,-29533.203,-24377.117,-28024.414,-26745.484,-21481.73,-23365.928
1226894.371076162,-98770.39,-119194.79,-29528.117,-24378.541,-28013.55,-26741.7,-21488.404,-23390.422
1226894.3750761591,-98787.6,-119201.38,-29518.393,-24386.23,-28011.639,-26736.37,-21483.318,-23410.889
1226894.3790761563,-98786.79,-119197.15,-29516.398,-24389.324,-28016.725,-26736.207,-21472.332,-23395.305
1226894.3830761535,-98767.945,-119182.78,-29526.205,-24383.383,-28024.537,-26743.572,-21472.656,-23374.717
1226894.3870761506,-98756.96,-119176.6,-29533.326,-24379.559,-28022.543,-26748.291,-21481.121,-23375.082
1226894.3910761478,-98771.94,-119187.26,-29528.361,-24382.365,-28014.486,-26741.984,-21485.475,-23397.543
1226894.395076145,-98790.24,-119197.19,-29520.02,-24387.412,-28012.86,-26735.393,-21483.44,-23425.334
1226894.399076142,-98791.55,-119193.28,-29516.846,-24389.404,-28021.363,-26737.754,-21478.15,-23415.568
1226894.4030761393,-98780.36,-119182.54,-29524.822,-24386.719,-28030.152,-26747.275,-21477.092,-23372.396
1226894.4070761364,-98771.24,-119179.77,-29532.715,-24384.521,-28028.117,-26750.164,-21480.469,-23357.422
1226894.4110761336,-98783.0,-119191.94,-29533.123,-24388.469,-28019.898,-26742.107,-21482.178,-23393.352
1226894.4150761308,-98799.73,-119201.945,-29523.602,-24394.613,-28022.91,-26733.969,-21477.377,-23425.863
1226894.419076128,-98796.67,-119198.9,-29521.525,-24395.02,-28028.24,-26734.213,-21472.535,-23416.3
1226894.423076125,-98779.42,-119185.76,-29529.705,-24390.707,-28031.291,-26742.393,-21473.43,-23386.15
1226894.4270761223,-98769.9,-119182.414,-29535.238,-24386.354,-28027.467,-26746.502,-21480.348,-23369.793
1226894.4310761194,-98784.14,-119196.54,-29531.738,-24387.451,-28019.451,-26741.904,-21484.05,-23392.172
1226894.4350761166,-98798.47,-119205.98,-29523.887,-24391.277,-28015.422,-26734.172,-21481.365,-23423.545
1226894.4390761137,-98796.96,-119201.945,-29519.94,-24394.816,-28022.46,-26733.604,-21473.064,-23409.953
1226894.443076111,-98779.75,-119189.74,-29528.973,-24391.113,-28033.0,-26740.723,-21472.129,-23367.758
1226894.447076108,-98779.34,-119200.08,-29540.08,-24390.992,-28033.285,-26744.14,-21479.615,-23351.074
1226894.4510761052,-98793.17,-119214.766,-29538.574,-24392.863,-28020.957,-26739.34,-21487.143,-23391.766
1226894.4550761024,-98813.766,-119224.05,-29530.396,-24396.201,-28018.76,-26732.139,-21485.393,-23431.52
1226894.4590760996,-98815.59,-119220.46,-29529.46,-24398.764,-28024.781,-26734.986,-21480.062,-23424.846
1226894.4630760965,-98794.64,-119204.76,-29534.506,-24393.352,-28030.64,-26745.361,-21480.389,-23387.94
1226894.4670760937,-98786.055,-119198.66,-29542.725,-24389.324,-28028.402,-26749.92,-21485.148,-23372.031
1226894.4710760908,-98797.28,-119204.06,-29541.139,-24390.707,-28019.857,-26743.613,-21492.025,-23402.793
1226894.475076088,-98810.59,-119213.1,-29533.326,-24396.69,-28019.084,-26737.305,-21491.66,-23435.385
1226894.4790760851,-98810.1,-119216.35,-29533.936,-24399.863,-28027.182,-26739.625,-21486.004,-23424.033
1226894.4830760823,-98791.55,-119207.03,-29543.295,-24394.125,-28030.314,-26747.479,-21483.115,-23394.572
1226894.4870760795,-98785.56,-119204.516,-29550.457,-24390.342,-28027.914,-26751.791,-21489.91,-23383.018
1226894.4910760766,-98802.58,-119213.625,-29547.363,-24391.357,-28015.504,-26746.094,-21488.445,-23390.178
1226894.4950760738,-98816.164,-119215.7,-29536.174,-24396.12,-28011.11,-26738.648,-21480.918,-23408.367
1226894.499076071,-98804.98,-119203.125,-29529.95,-24395.346,-28012.574,-26740.398,-21474.041,-23416.016
1226894.5030760681,-98778.89,-119183.31,-29536.5,-24387.533,-28015.3,-26749.023,-21475.262,-23397.178
1226894.5070760653,-98768.516,-119176.88,-29544.842,-24383.098,-28018.352,-26754.436,-21483.766,-23376.22
1226894.5110760625,-98786.22,-119196.54,-29543.01,-24387.777,-28012.574,-26749.432,-21491.863,-23399.496
1226894.5150760596,-98805.46,-119213.22,-29533.447,-24394.043,-28013.998,-26742.514,-21490.072,-23430.46
1226894.5190760568,-98799.52,-119207.85,-29530.314,-24394.531,-28022.705,-26744.264,-21481.61,-23417.562
1226894.523076054,-98776.125,-119188.56,-29537.232,-24387.9,-28026.531,-26753.053,-21479.656,-23379.314
1226894.527076051,-98769.17,-119182.414,-29542.969,-24382.812,-28019.451,-26756.553,-21484.54,-23364.055
1226894.5310760483,-98787.4,-119189.945,-29538.006,-24384.807,-28009.074,-26748.332,-21486.695,-23388.266
1226894.5350760454,-98804.65,-119201.26,-29529.502,-24392.863,-28011.11,-26741.293,-21483.154,-23416.871
1226894.5390760426,-98800.74,-119196.78,-29528.402,-24394.654,-28018.027,-26741.822,-21473.268,-23402.14
1226894.5430760398,-98781.984,-119181.6,-29537.639,-24391.277,-28018.596,-26749.105,-21466.838,-23349.895
1226894.547076037,-98776.086,-119179.57,-29546.63,-24389.893,-28020.469,-26751.67,-21469.89,-23334.84
1226894.551076034,-98790.41,-119192.266,-29547.16,-24392.742,-28009.36,-26745.77,-21476.074,-23370.85
1226894.5550760312,-98806.56,-119201.016,-29537.03,-24397.178,-28014.201,-26738.12,-21474.082,-23410.076
1226894.5590760284,-98802.66,-119192.914,-29531.576,-24398.682,-28027.996,-26739.463,-21466.676,-23398.805
1226894.5630760256,-98786.18,-119184.86,-29540.244,-24393.88,-28031.7,-26747.031,-21467.246,-23366.09
1226894.5670760227,-98782.59,-119193.2,-29549.398,-24391.807,-28025.432,-26751.67,-21475.262,-23356.406
1226894.57107602,-98797.164,-119207.93,-29545.94,-24394.654,-28018.76,-26745.443,-21480.55,-23382.121
1226894.575076017,-98815.15,-119214.97,-29537.15,-24399.414,-28015.137,-26738.525,-21476.4,-23402.549
1226894.5790760142,-98807.945,-119205.734,-29532.146,-24399.17,-28022.828,-26741.781,-21470.215,-23393.393
1226894.5830760114,-98786.09,-119191.086,-29539.145,-24393.84,-28027.588,-26750.938,-21472.535,-23367.96
1226894.5870760086,-98777.71,-119189.945,-29545.654,-24389.812,-28027.996,-26751.14,-21481.283,-23364.91
1226894.5910760057,-98792.61,-119202.68,-29540.854,-24392.172,-28020.508,-26744.02,-21488.201,-23394.125
1226894.5950760029,-98805.586,-119211.875,-29530.152,-24399.496,-28018.637,-26738.242,-21486.695,-23422.934
1226894.599076,-98799.93,-119208.664,-29523.764,-24400.39,-28025.635,-26743.328,-21480.186,-23411.947
1226894.6030759972,-98782.555,-119191.05,-29527.955,-24393.31,-28028.85,-26750.326,-21476.318,-23372.234
1226894.6070759941,-98777.75,-119187.46,-29537.395,-24389.69,-28025.27,-26751.994,-21484.742,-23359.336
1226894.6110759913,-98796.59,-119203.945,-29540.691,-24393.963,-28017.334,-26748.78,-21495.81,-23392.822
1226894.6150759885,-98812.99,-119212.28,-29532.838,-24400.92,-28017.863,-26741.781,-21490.52,-23420.045
1226894.6190759856,-98807.54,-119200.93,-29527.914,-24400.27,-28023.398,-26741.293,-21482.422,-23404.826
1226894.6230759828,-98786.625,-119186.08,-29532.797,-24393.678,-28024.62,-26749.268,-21481.854,-23374.229
1226894.62707598,-98780.6,-119184.29,-29539.227,-24389.975,-28027.426,-26753.418,-21488.404,-23360.312
1226894.631075977,-98798.79,-119201.5,-29531.455,-24393.066,-28024.09,-26747.396,-21491.455,-23384.686
1226894.6350759743,-98814.86,-119214.64,-29517.66,-24398.846,-28021.934,-26741.172,-21487.998,-23414.674
1226894.6390759714,-98805.99,-119203.29,-29508.912,-24400.514,-28029.746,-26742.229,-21477.947,-23400.31
1226894.6430759686,-98784.18,-119189.58,-29513.307,-24395.387,-28033.732,-26748.78,-21470.5,-23355.592
1226894.6470759658,-98779.016,-119188.766,-29516.357,-24391.033,-28029.582,-26748.21,-21474.203,-23344.28
1226894.651075963,-98795.86,-119200.89,-29513.225,-24394.695,-28019.695,-26739.543,-21478.598,-23371.014
1226894.65507596,-98812.5,-119207.65,-29502.238,-24399.578,-28016.725,-26732.463,-21474.854,-23401.979
1226894.6590759573,-98807.01,-119202.03,-29499.229,-24399.293,-28021.81,-26735.027,-21469.402,-23399.09
1226894.6630759544,-98785.04,-119185.23,-29505.25,-24393.434,-28025.39,-26742.84,-21467.49,-23356.65
1226894.6670759516,-98777.71,-119180.55,-29510.986,-24387.98,-28019.207,-26746.094,-21469.605,-23314.82
1226894.6710759487,-98794.44,-119188.4,-29507.977,-24390.951,-28017.66,-26743.408,-21478.191,-23336.63
1226894.675075946,-98809.37,-119194.336,-29498.984,-24397.34,-28018.475,-26740.479,-21482.016,-23414.268
1226894.679075943,-98795.62,-119183.68,-29495.281,-24396.973,-28023.398,-26742.92,-21481.69,-23433.105
1226894.6830759402,-98774.87,-119167.12,-29502.402,-24390.951,-28026.816,-26750.57,-21481.527,-23401.043
1226894.6870759374,-98766.08,-119163.414,-29507.285,-24385.865,-28024.863,-26753.703,-21484.66,-23380.453
1226894.6910759346,-98779.055,-119174.97,-29504.355,-24387.492,-28019.613,-26752.158,-21494.629,-23403.688
1226894.6950759317,-98794.234,-119182.5,-29494.467,-24392.578,-28017.986,-26746.623,-21493.125,-23428.184
1226894.699075929,-98789.39,-119176.516,-29493.45,-24396.037,-28027.588,-26749.797,-21485.475,-23416.383
1226894.703075926,-98772.18,-119165.33,-29499.676,-24391.521,-28034.424,-26756.959,-21483.643,-23378.053
1226894.7070759232,-98769.17,-119163.086,-29507.121,-24387.492,-28030.152,-26759.482,-21491.008,-23367.107
1226894.7110759204,-98785.85,-119173.18,-29506.186,-24390.625,-28022.299,-26754.395,-21499.473,-23398.113
1226894.7150759175,-98801.84,-119181.16,-29498.047,-24396.24,-28021.281,-26746.787,-21496.135,-23428.184
1226894.7190759147,-98802.45,-119176.72,-29494.873,-24398.234,-28027.508,-26749.309,-21485.637,-23413.656
1226894.7230759119,-98793.016,-119170.414,-29505.047,-24392.822,-28038.127,-26758.709,-21483.969,-23372.193
1226894.727075909,-98781.78,-119166.14,-29508.75,-24387.533,-28036.744,-26762.736,-21488.242,-23358.643
1226894.7310759062,-98780.16,-119161.95,-29501.059,-24387.574,-28025.432,-26758.424,-21495.89,-23387.695
1226894.7350759034,-98800.26,-119175.22,-29492.27,-24396.729,-28026.49,-26753.703,-21493.287,-23419.678
1226894.7390759005,-98795.86,-119175.26,-29488.281,-24397.543,-28033.367,-26753.867,-21483.521,-23403.77
1226894.7430758977,-98770.8,-119159.02,-29496.787,-24390.38,-28036.865,-26761.719,-21482.016,-23365.195
1226894.7470758948,-98772.625,-119166.67,-29509.033,-24388.795,-28036.582,-26767.578,-21491.252,-23358.033
1226894.7510758918,-98788.21,-119179.734,-29505.656,-24391.684,-28027.955,-26761.475,-21497.479,-23388.957
1226894.755075889,-98803.06,-119189.3,-29495.688,-24397.95,-28026.205,-26756.268,-21496.42,-23419.598
1226894.759075886,-98799.52,-119184.49,-29491.13,-24400.188,-28037.518,-26757.61,-21487.59,-23405.762
1226894.7630758833,-98782.59,-119173.42,-29500.082,-24395.549,-28042.889,-26762.94,-21483.643,-23365.031
1226894.7670758804,-98782.02,-119176.805,-29508.586,-24391.48,-28041.26,-26764.16,-21488.69,-23354.127
1226894.7710758776,-98800.54,-119192.34,-29505.9,-24394.004,-28035.117,-26759.277,-21496.176,-23387.412
1226894.7750758748,-98817.51,-119201.625,-29498.047,-24400.596,-28037.273,-26753.947,-21495.402,-23419.883
1226894.779075872,-98810.43,-119190.27,-29496.46,-24401.693,-28045.207,-26755.291,-21486.248,-23411.5
1226894.783075869,-98783.82,-119166.34,-29501.426,-24393.271,-28042.441,-26760.986,-21480.795,-23368.816
1226894.7870758662,-98782.02,-119169.07,-29508.098,-24390.748,-28037.191,-26763.55,-21484.295,-23353.557
1226894.7910758634,-98802.21,-119189.3,-29505.941,-24396.24,-28032.635,-26761.76,-21492.758,-23384.766
1226894.7950758606,-98817.266,-119198.77,-29499.064,-24403.932,-28033.732,-26757.041,-21491.537,-23414.756
1226894.7990758577,-98814.74,-119196.45,-29502.727,-24404.785,-28040.977,-26760.54,-21484.742,-23400.107
1226894.803075855,-98799.36,-119187.586,-29513.428,-24399.09,-28046.836,-26769.37,-21483.115,-23353.271
1226894.807075852,-98791.51,-119184.21,-29520.02,-24394.531,-28043.01,-26770.916,-21486.248,-23340.129
1226894.8110758492,-98804.41,-119195.234,-29517.742,-24398.479,-28032.432,-26764.69,-21492.066,-23376.506
1226894.8150758464,-98816.086,-119199.71,-29507.977,-24402.508,-28030.518,-26759.115,-21489.422,-23405.6
1226894.8190758436,-98812.625,-119194.91,-29504.883,-24402.385,-28038.168,-26760.418,-21480.998,-23390.057
1226894.8230758407,-98797.77,-119183.27,-29510.05,-24396.12,-28040.812,-26766.807,-21479.29,-23359.66
1226894.8270758379,-98795.62,-119184.45,-29515.87,-24393.31,-28040.568,-26769.287,-21489.746,-23353.557
1226894.831075835,-98811.73,-119199.55,-29514.16,-24398.031,-28033.855,-26764.934,-21497.885,-23381.47
1226894.8350758322,-98828.82,-119212.0,-29507.732,-24403.77,-28035.85,-26758.79,-21497.844,-23419.76
1226894.8390758294,-98822.59,-119205.98,-29506.959,-24405.273,-28042.36,-26761.23,-21490.764,-23406.78
1226894.8430758265,-98803.39,-119191.164,-29512.574,-24398.764,-28046.062,-26769.98,-21485.84,-23362.51
1226894.8470758237,-98801.516,-119189.87,-29518.678,-24394.736,-28041.545,-26774.74,-21492.637,-23350.912
1226894.8510758209,-98819.74,-119198.086,-29517.213,-24395.59,-28030.152,-26767.945,-21498.7,-23381.47
1226894.855075818,-98834.234,-119205.85,-29507.732,-24401.205,-28030.152,-26762.656,-21497.723,-23416.709
1226894.8590758152,-98828.945,-119198.086,-29503.135,-24402.1,-28039.307,-26765.3,-21488.404,-23401.328
1226894.8630758123,-98813.44,-119185.55,-29513.998,-24397.258,-28047.812,-26773.723,-21484.54,-23364.38
1226894.8670758095,-98804.89,-119186.65,-29522.137,-24393.76,-28041.627,-26776.164,-21488.73,-23350.22
1226894.8710758067,-98817.43,-119198.45,-29517.172,-24393.31,-28029.664,-26768.719,-21496.379,-23379.314
1226894.8750758038,-98836.02,-119213.016,-29512.207,-24400.92,-28033.732,-26765.463,-21497.031,-23409.018
1226894.879075801,-98835.164,-119211.59,-29512.33,-24402.588,-28042.236,-26769.248,-21490.154,-23397.787
1226894.8830757982,-98816.98,-119200.41,-29519.898,-24396.525,-28048.584,-26775.188,-21487.51,-23362.06
1226894.8870757953,-98813.805,-119203.21,-29528.89,-24394.287,-28045.29,-26779.785,-21496.826,-23358.766
1226894.8910757925,-98831.95,-119218.836,-29528.646,-24398.887,-28041.586,-26775.473,-21503.338,-23391.195
1226894.8950757894,-98843.06,-119224.2,-29516.725,-24404.42,-28040.65,-26767.54,-21495.24,-23412.924
1226894.8990757866,-98834.516,-119215.3,-29512.33,-24403.443,-28046.55,-26767.295,-21484.13,-23392.334
1226894.9030757837,-98816.734,-119200.89,-29519.37,-24397.258,-28049.072,-26774.943,-21480.998,-23341.105
1226894.907075781,-98815.88,-119199.67,-29525.92,-24394.898,-28044.719,-26779.867,-21489.543,-23326.701
1226894.911075778,-98831.22,-119211.305,-29522.014,-24397.87,-28040.406,-26774.822,-21499.512,-23382.365
1226894.9150757752,-98845.79,-119220.75,-29508.75,-24402.71,-28044.963,-26768.84,-21496.582,-23420.533
1226894.9190757724,-98845.13,-119218.02,-29509.562,-24404.502,-28053.549,-26771.484,-21488.12,-23404.217
1226894.9230757696,-98827.03,-119207.85,-29517.254,-24400.025,-28054.973,-26781.373,-21486.248,-23371.217
1226894.9270757667,-98818.73,-119207.445,-29522.055,-24396.24,-28051.393,-26784.912,-21493.49,-23359.13
1226894.931075764,-98832.16,-119217.62,-29516.48,-24398.357,-28042.725,-26776.816,-21495.24,-23377.402
1226894.935075761,-98848.72,-119225.43,-29505.088,-24405.438,-28042.236,-26771.607,-21493.775,-23411.826
1226894.9390757582,-98842.29,-119218.19,-29502.93,-24406.82,-28050.904,-26776.979,-21488.281,-23400.514
1226894.9430757554,-98824.016,-119202.234,-29508.342,-24398.805,-28057.902,-26783.652,-21483.44,-23362.51
1226894.9470757525,-98817.51,-119199.1,-29516.357,-24395.225,-28056.275,-26785.238,-21493.084,-23352.377
1226894.9510757497,-98835.49,-119219.41,-29517.09,-24402.914,-28053.264,-26783.691,-21505.576,-23383.994
1226894.9550757469,-98852.3,-119236.82,-29508.424,-24410.686,-28055.787,-26778.361,-21502.035,-23412.842
1226894.959075744,-98847.375,-119233.81,-29507.65,-24412.395,-28064.414,-26781.373,-21493.084,-23398.643
1226894.9630757412,-98826.17,-119220.3,-29516.357,-24407.268,-28066.65,-26790.527,-21493.084,-23366.252
1226894.9670757384,-98827.195,-119219.08,-29522.422,-24404.135,-28062.623,-26792.156,-21500.326,-23364.625
1226894.9710757355,-98845.91,-119228.97,-29518.352,-24407.35,-28057.537,-26785.32,-21510.498,-23401.572
1226894.9750757327,-98862.47,-119238.164,-29511.068,-24413.412,-28059.652,-26779.258,-21507.812,-23425.498
1226894.9790757298,-98858.85,-119230.63,-29512.98,-24414.062,-28069.133,-26780.559,-21498.984,-23406.78
1226894.983075727,-98843.95,-119220.7,-29524.984,-24408.691,-28077.148,-26788.291,-21501.14,-23381.389
1226894.9870757242,-98838.664,-119224.29,-29533.57,-24404.99,-28070.518,-26790.203,-21509.562,-23376.953
1226894.9910757213,-98857.1,-119239.67,-29533.082,-24409.1,-28062.297,-26785.197,-21515.3,-23402.955
1226894.9950757185,-98868.45,-119246.46,-29525.432,-24414.959,-28059.326,-26780.111,-21509.562,-23426.148
1226894.9990757157,-98853.516,-119228.88,-29520.549,-24414.186,-28065.756,-26782.594,-21495.729,-23404.053
1226895.0030757128,-98835.086,-119215.74,-29527.467,-24407.838,-28069.256,-26792.766,-21492.107,-23363.69
1226895.00707571,-98831.42,-119214.484,-29533.57,-24403.2,-28065.553,-26796.469,-21498.17,-23344.89
1226895.0110757072,-98850.836,-119228.31,-29530.273,-24406.982,-28058.635,-26790.04,-21510.05,-23382.162
1226895.0150757043,-98868.984,-119240.6,-29524.496,-24414.023,-28059.775,-26787.598,-21511.516,-23424.643
1226895.0190757015,-98857.67,-119235.11,-29522.95,-24416.22,-28069.621,-26791.871,-21499.92,-23394.248
1226895.0230756986,-98837.24,-119219.73,-29532.512,-24409.994,-28075.604,-26799.805,-21497.031,-23365.072
1226895.0270756958,-98836.02,-119219.08,-29540.568,-24406.373,-28071.777,-26802.49,-21511.639,-23384.074
1226895.031075693,-98854.86,-119232.22,-29536.297,-24409.018,-28065.35,-26798.3,-21523.072,-23420.33
1226895.0350756901,-98870.94,-119238.49,-29526.043,-24415.365,-28065.797,-26792.686,-21514.568,-23432.861
1226895.039075687,-98861.125,-119229.62,-29524.21,-24415.04,-28068.076,-26792.969,-21501.709,-23403.77
1226895.0430756842,-98838.14,-119212.08,-29531.738,-24409.994,-28073.486,-26798.748,-21496.135,-23363.12
1226895.0470756814,-98830.125,-119205.85,-29537.559,-24406.7,-28068.686,-26801.393,-21501.344,-23357.178
1226895.0510756786,-98840.17,-119212.41,-29533.0,-24409.629,-28059.652,-26796.836,-21508.018,-23388.184
1226895.0550756757,-98852.625,-119218.305,-29521.404,-24414.836,-28064.617,-26792.277,-21504.03,-23412.518
1226895.0590756729,-98845.38,-119211.47,-29519.98,-24416.342,-28074.83,-26794.719,-21493.775,-23394.816
1226895.06307567,-98823.53,-119193.77,-29528.2,-24410.564,-28075.236,-26800.701,-21489.951,-23356.201
1226895.0670756672,-98821.086,-119194.586,-29536.947,-24408.123,-28072.754,-26801.434,-21496.623,-23346.232
1226895.0710756644,-98838.42,-119211.23,-29535.564,-24413.86,-28069.744,-26795.777,-21503.135,-23376.1
1226895.0750756615,-98852.38,-119221.16,-29525.676,-24422.527,-28071.412,-26791.83,-21501.018,-23402.832
1226895.0790756587,-98841.72,-119212.98,-29524.049,-24422.568,-28079.59,-26793.865,-21494.182,-23396.77
1226895.0830756559,-98827.555,-119210.695,-29531.902,-24415.162,-28089.152,-26802.328,-21493.084,-23367.229
1226895.087075653,-98828.05,-119215.09,-29536.459,-24411.582,-28083.496,-26805.99,-21500.773,-23357.422
1226895.0910756502,-98830.65,-119206.305,-29529.502,-24411.988,-28066.162,-26801.84,-21513.51,-23393.84
1226895.0950756473,-98843.95,-119207.03,-29523.234,-24419.19,-28066.082,-26799.195,-21515.137,-23426.352
1226895.0990756445,-98839.52,-119198.29,-29528.688,-24420.94,-28077.19,-26805.258,-21510.986,-23414.389
1226895.1030756417,-98818.0,-119174.36,-29540.324,-24415.283,-28078.574,-26814.006,-21509.482,-23370.85
1226895.1070756388,-98802.25,-119159.59,-29547.607,-24411.418,-28070.842,-26816.447,-21513.266,-23330.078
1226895.111075636,-98799.69,-119148.65,-29543.254,-24412.273,-28057.984,-26814.78,-21524.049,-23361.045
1226895.1150756332,-98791.95,-119128.586,-29532.146,-24414.023,-28053.672,-26812.744,-21532.268,-23448.73
1226895.1190756303,-98769.695,-119099.086,-29527.832,-24411.785,-28062.012,-26816.203,-21531.047,-23465.373
1226895.1230756275,-98729.9,-119062.3,-29530.926,-24402.223,-28060.955,-26823.65,-21530.234,-23426.678
1226895.1270756247,-98713.22,-119050.54,-29536.174,-24397.543,-28053.223,-26829.916,-21543.174,-23432.658
1226895.1310756218,-98717.9,-119046.555,-29531.17,-24399.7,-28043.295,-26828.857,-21557.129,-23462.89
1226895.135075619,-98714.03,-119037.07,-29517.863,-24403.32,-28042.48,-26824.912,-21554.729,-23485.516
1226895.1390756161,-98700.28,-119024.46,-29515.057,-24402.873,-28052.043,-26828.37,-21544.434,-23461.67
1226895.1430756133,-98673.1,-118996.18,-29521.078,-24395.672,-28053.834,-26837.24,-21544.475,-23425.172
1226895.1470756105,-98662.805,-118984.625,-29526.45,-24391.48,-28044.271,-26840.21,-21556.113,-23422.934
1226895.1510756076,-98674.56,-118997.69,-29524.822,-24396.281,-28039.836,-26833.66,-21561.768,-23454.021
1226895.1550756048,-98681.03,-119001.75,-29514.854,-24400.717,-28039.918,-26826.457,-21555.176,-23476.523
1226895.159075602,-98664.555,-118986.21,-29511.639,-24400.066,-28047.08,-26829.713,-21546.021,-23460.613
1226895.1630755991,-98637.414,-118962.94,-29519.94,-24392.822,-28048.748,-26839.682,-21543.01,-23423.3
1226895.1670755963,-98621.71,-118953.29,-29524.781,-24387.736,-28042.604,-26841.797,-21549.846,-23421.795
1226895.1710755934,-98639.9,-118964.93,-29520.793,-24391.725,-28035.28,-26835.979,-21559.896,-23463.705
1226895.1750755906,-98661.54,-118975.836,-29513.795,-24397.99,-28034.709,-26829.387,-21557.17,-23493.979
1226895.1790755878,-98661.22,-118980.47,-29513.916,-24397.34,-28047.893,-26836.508,-21551.19,-23475.342
1226895.1830755847,-98628.016,-118960.94,-29514.08,-24388.51,-28051.025,-26848.389,-21554.729,-23442.303
1226895.1870755819,-98614.42,-118948.61,-29514.201,-24384.238,-28047.975,-26851.848,-21566.285,-23438.03
1226895.191075579,-98624.43,-118955.41,-29507.324,-24386.598,-28041.342,-26843.426,-21566.936,-23447.55
1226895.1950755762,-98639.37,-118970.42,-29496.705,-24392.863,-28044.8,-26832.764,-21549.725,-23433.676
1226895.1990755734,-98623.87,-118951.87,-29493.613,-24391.562,-28050.293,-26833.252,-21543.662,-23451.824
1226895.2030755705,-98583.09,-118917.32,-29499.879,-24382.488,-28048.87,-26842.326,-21556.602,-23483.115
1226895.2070755677,-98575.93,-118913.54,-29505.615,-24378.867,-28042.48,-26844.2,-21565.186,-23478.271
1226895.2110755648,-98587.41,-118922.734,-29495.89,-24380.25,-28033.285,-26837.363,-21568.076,-23493.328
1226895.215075562,-98602.83,-118934.984,-29484.863,-24386.395,-28035.85,-26829.59,-21558.717,-23501.67
1226895.2190755592,-98592.0,-118923.18,-29478.8,-24384.727,-28043.092,-26830.404,-21548.951,-23483.521
1226895.2230755563,-98575.89,-118911.55,-29482.79,-24378.582,-28048.38,-26837.158,-21550.254,-23453.207
1226895.2270755535,-98567.75,-118913.01,-29481.201,-24375.285,-28042.969,-26837.363,-21557.008,-23449.098
1226895.2310755507,-98580.94,-118920.78,-29474.203,-24378.338,-28034.629,-26833.09,-21563.844,-23481.486
1226895.2350755478,-98587.164,-118916.67,-29458.496,-24381.797,-28033.082,-26827.475,-21556.357,-23498.414
1226895.239075545,-98569.22,-118906.87,-29447.266,-24378.338,-28040.121,-26828.898,-21541.383,-23466.188
1226895.2430755422,-98543.79,-118889.57,-29451.295,-24372.314,-28043.377,-26832.969,-21536.377,-23424.969
1226895.2470755393,-98544.31,-118887.78,-29456.137,-24369.467,-28037.803,-26832.764,-21545.166,-23422.527
1226895.2510755365,-98576.625,-118913.78,-29455.078,-24375.082,-28038.818,-26826.416,-21551.799,-23458.13
1226895.2550755336,-98589.64,-118925.13,-29444.215,-24381.918,-28038.78,-26819.541,-21548.666,-23481.73
1226895.2590755308,-98565.35,-118904.26,-29440.35,-24380.576,-28043.457,-26823.568,-21541.709,-23456.91
1226895.263075528,-98541.875,-118887.78,-29448.242,-24373.943,-28046.998,-26831.137,-21543.457,-23431.275
1226895.2670755251,-98546.92,-118896.65,-29453.98,-24372.152,-28041.871,-26830.242,-21553.875,-23441.936
1226895.2710755223,-98568.2,-118918.625,-29449.707,-24378.338,-28042.889,-26822.959,-21560.223,-23474.406
1226895.2750755195,-98586.23,-118931.52,-29442.424,-24385.336,-28045.166,-26816.57,-21550.457,-23489.828
1226895.2790755166,-98581.38,-118915.77,-29443.115,-24384.645,-28045.94,-26819.744,-21536.5,-23453.695
1226895.2830755138,-98564.82,-118901.05,-29453.451,-24379.03,-28048.26,-26827.271,-21533.896,-23411.459
1226895.287075511,-98562.75,-118899.7,-29460.775,-24374.268,-28043.254,-26830.363,-21546.957,-23411.744
1226895.291075508,-98578.375,-118909.95,-29458.578,-24377.197,-28035.238,-26825.195,-21557.334,-23459.758
1226895.2950755053,-98589.52,-118919.11,-29451.092,-24381.553,-28034.953,-26819.744,-21552.37,-23495.361
1226895.2990755024,-98578.33,-118905.766,-29454.59,-24380.453,-28041.383,-26823.527,-21539.307,-23469.605
1226895.3030754996,-98559.734,-118893.88,-29463.543,-24373.82,-28042.562,-26832.236,-21535.28,-23436.932
1226895.3070754968,-98550.5,-118893.35,-29465.332,-24370.402,-28037.03,-26831.26,-21538.982,-23429.973
1226895.311075494,-98565.96,-118904.38,-29459.799,-24374.879,-28034.629,-26824.871,-21542.074,-23456.178
1226895.315075491,-98570.516,-118906.13,-29448.568,-24378.826,-28035.523,-26820.354,-21537.762,-23477.662
1226895.3190754883,-98550.21,-118889.164,-29443.727,-24376.344,-28041.504,-26826.213,-21531.82,-23469.035
1226895.3230754854,-98535.24,-118877.0,-29451.133,-24369.71,-28044.8,-26833.496,-21527.832,-23427.002
1226895.3270754823,-98542.73,-118889.695,-29461.508,-24368.164,-28044.598,-26836.346,-21537.11,-23425.254
1226895.3310754795,-98568.28,-118906.78,-29462.688,-24374.473,-28041.545,-26832.072,-21547.568,-23461.955
1226895.3350754767,-98582.32,-118907.555,-29456.666,-24380.982,-28044.068,-26827.027,-21544.271,-23486.492
1226895.3390754738,-98566.86,-118891.97,-29453.818,-24380.168,-28052.043,-26831.34,-21536.133,-23461.834
1226895.343075471,-98547.04,-118876.67,-29461.508,-24374.064,-28055.299,-26837.037,-21532.838,-23423.463
1226895.3470754682,-98549.234,-118884.32,-29470.135,-24373.373,-28051.025,-26838.623,-21542.48,-23421.387
1226895.3510754653,-98577.11,-118902.47,-29470.256,-24377.89,-28043.295,-26835.084,-21552.857,-23458.049
1226895.3550754625,-98592.57,-118911.75,-29464.316,-24383.953,-28043.457,-26832.969,-21548.504,-23481.162
1226895.3590754597,-98577.64,-118894.945,-29461.426,-24381.836,-28050.213,-26835.125,-21537.314,-23454.184
1226895.3630754568,-98555.99,-118884.445,-29468.14,-24376.994,-28057.09,-26840.537,-21531.658,-23411.094
1226895.367075454,-98558.31,-118885.99,-29473.838,-24374.553,-28055.137,-26842.53,-21541.18,-23407.023
1226895.3710754511,-98577.92,-118901.414,-29471.885,-24379.15,-28043.457,-26840.781,-21555.217,-23455.975
1226895.3750754483,-98584.96,-118903.77,-29462.484,-24382.285,-28040.324,-26836.508,-21553.223,-23491.09
1226895.3790754455,-98577.97,-118894.17,-29462.81,-24381.47,-28044.598,-26838.258,-21541.098,-23464.844
1226895.3830754426,-98562.7,-118884.16,-29473.512,-24376.344,-28046.836,-26846.396,-21541.953,-23430.34
1226895.3870754398,-98560.14,-118888.39,-29477.824,-24373.861,-28048.91,-26848.797,-21550.578,-23429.525
1226895.391075437,-98570.44,-118898.766,-29468.059,-24376.303,-28046.713,-26842.45,-21559.002,-23466.432
1226895.3950754341,-98576.46,-118900.64,-29456.992,-24381.674,-28046.916,-26837.525,-21554.12,-23492.676
1226895.3990754313,-98567.836,-118889.81,-29458.984,-24382.162,-28054.443,-26841.473,-21542.277,-23472.332
1226895.4030754284,-98546.92,-118876.59,-29467.611,-24376.588,-28059.896,-26849.365,-21544.23,-23433.879
1226895.4070754256,-98539.76,-118873.984,-29469.076,-24374.023,-28055.502,-26851.28,-21554.322,-23425.049
1226895.4110754228,-98565.48,-118897.75,-29467.246,-24377.482,-28049.846,-26843.303,-21558.188,-23456.748
1226895.41507542,-98572.92,-118897.99,-29459.758,-24381.959,-28048.666,-26836.305,-21547.242,-23480.55
1226895.419075417,-98553.71,-118879.195,-29458.049,-24380.332,-28051.23,-26840.293,-21535.768,-23462.688
1226895.4230754143,-98534.23,-118864.79,-29467.611,-24375.57,-28051.555,-26848.512,-21533.57,-23421.957
1226895.4270754114,-98541.875,-118872.52,-29475.18,-24372.438,-28055.543,-26849.447,-21541.18,-23422.893
1226895.4310754086,-98564.5,-118890.71,-29471.396,-24377.686,-28053.102,-26842.855,-21550.742,-23461.346
1226895.4350754058,-98585.29,-118906.58,-29462.607,-24385.865,-28055.87,-26835.328,-21544.434,-23480.918
1226895.439075403,-98575.12,-118901.734,-29462.646,-24385.783,-28064.047,-26835.898,-21530.479,-23452.434
1226895.4430754,-98548.875,-118881.96,-29470.094,-24378.826,-28061.158,-26842.734,-21525.352,-23414.592
1226895.4470753972,-98546.72,-118880.7,-29472.535,-24375.205,-28048.26,-26843.506,-21532.676,-23415.283
1226895.4510753944,-98568.41,-118891.81,-29468.262,-24380.047,-28045.41,-26838.95,-21541.668,-23452.637
1226895.4550753916,-98583.26,-118899.21,-29461.346,-24386.312,-28052.49,-26834.799,-21535.727,-23475.383
1226895.4590753887,-98578.05,-118897.46,-29464.764,-24385.418,-28061.28,-26838.623,-21524.17,-23447.186
1226895.463075386,-98569.79,-118889.24,-29477.012,-24381.268,-28065.35,-26847.088,-21526.531,-23418.05
1226895.467075383,-98570.4,-118893.48,-29475.83,-24379.314,-28062.012,-26849.691,-21539.145,-23421.266
1226895.47107538,-98577.03,-118896.445,-29465.7,-24381.023,-28052.531,-26845.988,-21550.334,-23461.264
1226895.4750753772,-98576.17,-118889.2,-29454.062,-24383.627,-28047.69,-26843.14,-21545.41,-23487.957
1226895.4790753743,-98560.63,-118873.87,-29453.818,-24382.406,-28057.455,-26846.152,-21533.896,-23456.543
1226895.4830753715,-98549.89,-118868.49,-29463.787,-24378.744,-28064.738,-26850.668,-21529.502,-23408.164
1226895.4870753686,-98548.14,-118873.54,-29465.496,-24376.547,-28057.902,-26853.477,-21539.389,-23410.686
1226895.4910753658,-98568.73,-118890.06,-29462.729,-24380.656,-28052.654,-26848.389,-21548.38,-23446.494
1226895.495075363,-98583.01,-118899.78,-29453.29,-24384.238,-28048.91,-26842.408,-21542.318,-23469.2
1226895.4990753601,-98564.375,-118873.58,-29450.766,-24380.86,-28051.555,-26849.0,-21534.424,-23455.486
1226895.5030753573,-98553.914,-118868.86,-29459.19,-24374.635,-28060.508,-26853.965,-21532.064,-23423.87
1226895.5070753545,-98554.57,-118874.39,-29464.6,-24372.438,-28055.99,-26854.818,-21543.945,-23427.979
1226895.5110753516,-98572.88,-118889.33,-29462.89,-24378.338,-28052.613,-26852.05,-21556.885,-23464.234
1226895.5150753488,-98592.53,-118901.125,-29456.87,-24384.686,-28056.764,-26847.697,-21551.23,-23486.816
1226895.519075346,-98584.76,-118895.19,-29458.781,-24384.197,-28067.627,-26849.488,-21538.615,-23468.344
1226895.523075343,-98572.67,-118890.836,-29468.791,-24381.389,-28076.986,-26852.744,-21536.094,-23430.096
1226895.5270753403,-98571.05,-118886.07,-29473.674,-24379.191,-28066.447,-26854.492,-21546.104,-23439.617
1226895.5310753374,-98586.47,-118892.58,-29470.988,-24382.0,-28058.635,-26853.516,-21559.896,-23485.678
1226895.5350753346,-98596.44,-118891.93,-29463.623,-24387.127,-28057.943,-26852.865,-21560.629,-23513.266
1226895.5390753318,-98583.54,-118877.24,-29462.973,-24384.033,-28064.006,-26856.568,-21552.207,-23488.69
1226895.543075329,-98575.08,-118870.484,-29474.406,-24379.111,-28070.068,-26862.549,-21549.846,-23448.61
1226895.547075326,-98588.18,-118881.19,-29486.248,-24380.047,-28068.809,-26862.957,-21560.385,-23442.791
1226895.5510753233,-98605.31,-118897.75,-29481.61,-24384.848,-28063.477,-26858.928,-21569.703,-23472.576
1226895.5550753204,-98597.82,-118889.33,-29465.617,-24387.371,-28058.717,-26855.225,-21564.494,-23498.17
1226895.5590753176,-98576.016,-118870.81,-29459.88,-24383.912,-28062.217,-26858.604,-21551.922,-23475.586
1226895.5630753147,-98559.125,-118856.53,-29466.879,-24376.791,-28066.162,-26864.584,-21547.893,-23438.965
1226895.567075312,-98568.65,-118863.61,-29473.145,-24375.896,-28063.926,-26864.87,-21553.875,-23432.984
1226895.571075309,-98590.336,-118880.7,-29470.256,-24381.592,-28062.988,-26860.393,-21560.629,-23460.898
1226895.5750753062,-98597.7,-118883.305,-29460.938,-24388.266,-28065.879,-26854.533,-21553.387,-23483.154
1226895.5790753034,-98587.08,-118878.91,-29458.904,-24386.883,-28075.807,-26855.104,-21534.588,-23445.72
1226895.5830753006,-98569.26,-118866.26,-29465.496,-24380.738,-28077.068,-26860.271,-21528.158,-23400.799
1226895.5870752977,-98561.484,-118858.195,-29467.123,-24376.385,-28066.367,-26861.533,-21534.912,-23394.043
1226895.591075295,-98570.03,-118865.85,-29462.729,-24380.576,-28057.822,-26857.627,-21543.213,-23431.072
1226895.595075292,-98583.58,-118871.22,-29456.543,-24386.8,-28059.043,-26853.11,-21537.395,-23459.107
1226895.5990752892,-98585.86,-118870.33,-29459.717,-24385.906,-28066.406,-26855.713,-21524.7,-23434.734
1226895.6030752864,-98574.79,-118864.1,-29468.14,-24380.82,-28070.11,-26862.225,-21528.525,-23410.117
1226895.6070752835,-98566.77,-118862.96,-29467.814,-24377.727,-28064.861,-26865.643,-21543.377,-23428.996
1226895.6110752807,-98582.195,-118872.84,-29462.24,-24380.332,-28059.652,-26860.393,-21549.44,-23458.904
1226895.6150752776,-98591.39,-118877.04,-29454.184,-24386.76,-28063.193,-26855.307,-21541.139,-23467.326
1226895.6190752748,-98577.92,-118864.71,-29453.166,-24385.05,-28072.186,-26858.969,-21531.658,-23450.604
1226895.623075272,-98559.94,-118857.914,-29461.834,-24379.762,-28080.607,-26865.316,-21533.855,-23431.275
1226895.6270752691,-98563.03,-118872.56,-29467.123,-24380.291,-28076.254,-26867.676,-21544.15,-23430.217
1226895.6310752663,-98582.32,-118879.64,-29463.379,-24384.115,-28063.844,-26863.975,-21554.484,-23465.658
1226895.6350752634,-98594.28,-118880.82,-29456.422,-24389.242,-28062.582,-26859.742,-21549.44,-23490.44
1226895.6390752606,-98584.03,-118876.836,-29459.922,-24388.428,-28076.701,-26862.387,-21540.203,-23463.217
1226895.6430752578,-98561.98,-118863.61,-29467.773,-24381.268,-28082.602,-26869.996,-21537.436,-23423.3
1226895.647075255,-98559.62,-118859.586,-29466.838,-24377.605,-28069.215,-26870.443,-21543.945,-23421.021
1226895.651075252,-98575.85,-118866.625,-29459.27,-24381.797,-28064.047,-26863.852,-21550.13,-23452.475
1226895.6550752493,-98586.19,-118875.125,-29449.504,-24388.469,-28069.297,-26860.107,-21540.977,-23467.49
1226895.6590752464,-98576.3,-118867.516,-29450.562,-24386.436,-28078.41,-26863.037,-21525.676,-23433.105
1226895.6630752436,-98565.48,-118865.28,-29465.008,-24383.018,-28085.205,-26872.6,-21524.62,-23389.771
1226895.6670752408,-98562.87,-118861.33,-29471.477,-24381.715,-28079.102,-26875.367,-21537.232,-23396.24
1226895.671075238,-98575.93,-118865.12,-29466.105,-24385.498,-28071.656,-26871.99,-21551.84,-23438.844
1226895.675075235,-98580.94,-118864.914,-29458.945,-24389.404,-28070.965,-26867.107,-21545.451,-23454.469
1226895.6790752322,-98577.11,-118860.84,-29464.56,-24388.389,-28080.527,-26868.164,-21531.943,-23428.996
1226895.6830752294,-98572.39,-118858.08,-29476.807,-24384.727,-28082.725,-26873.7,-21533.408,-23408.855
1226895.6870752266,-98565.11,-118864.016,-29478.72,-24383.83,-28078.451,-26873.129,-21543.377,-23410.97
1226895.6910752237,-98578.695,-118872.4,-29473.35,-24387.412,-28071.494,-26869.346,-21547.404,-23443.97
1226895.695075221,-98592.0,-118876.875,-29465.781,-24391.969,-28072.998,-26863.445,-21536.662,-23456.787
1226895.699075218,-98580.484,-118867.555,-29465.537,-24391.277,-28083.375,-26864.34,-21524.74,-23432.455
1226895.7030752152,-98565.23,-118859.336,-29473.43,-24386.76,-28083.457,-26868.938,-21526.896,-23411.5
1226895.7070752124,-98573.98,-118871.83,-29479.209,-24386.475,-28078.94,-26870.484,-21539.145,-23421.592
1226895.7110752095,-98591.23,-118885.26,-29473.553,-24391.154,-28075.645,-26865.723,-21547.324,-23443.686
1226895.7150752067,-98592.94,-118881.23,-29462.2,-24396.404,-28078.33,-26862.63,-21539.55,-23450.318
1226895.7190752039,-98577.44,-118869.67,-29462.12,-24394.328,-28085.084,-26869.182,-21535.686,-23450.928
1226895.723075201,-98572.15,-118866.87,-29472.332,-24389.73,-28092.123,-26878.135,-21539.145,-23418.865
1226895.7270751982,-98579.8,-118875.29,-29478.924,-24390.3,-28089.479,-26880.615,-21548.096,-23419.557
1226895.7310751954,-98596.56,-118890.67,-29474.447,-24394.492,-28083.049,-26875.082,-21555.055,-23453.37
1226895.7350751925,-98605.92,-118893.805,-29465.576,-24397.87,-28083.13,-26869.305,-21546.225,-23475.424
1226895.7390751897,-98586.06,-118870.33,-29465.984,-24394.654,-28086.834,-26875.488,-21538.574,-23456.666
1226895.7430751869,-98568.52,-118862.76,-29477.215,-24389.893,-28092.53,-26882.691,-21537.15,-23406.17
1226895.747075184,-98571.414,-118869.02,-29481.121,-24387.168,-28084.066,-26884.277,-21547.12,-23409.873
1226895.7510751812,-98588.914,-118879.84,-29475.75,-24391.113,-28078.451,-26882.0,-21556.479,-23454.51
1226895.7550751783,-98596.44,-118879.97,-29465.049,-24397.502,-28078.736,-26877.85,-21550.254,-23472.209
1226895.7590751753,-98585.9,-118866.13,-29463.99,-24397.014,-28091.025,-26882.162,-21539.592,-23447.348
1226895.7630751724,-98579.43,-118862.76,-29474.041,-24393.678,-28098.309,-26886.963,-21535.889,-23415.527
1226895.7670751696,-98585.78,-118873.87,-29476.97,-24392.66,-28087.688,-26885.742,-21545.615,-23421.916
1226895.7710751668,-98591.19,-118883.43,-29468.344,-24394.695,-28078.736,-26879.762,-21558.105,-23462.566
1226895.775075164,-98598.92,-118886.48,-29457.275,-24398.887,-28080.852,-26874.229,-21549.887,-23479.615
1226895.779075161,-98594.65,-118879.07,-29458.375,-24397.46,-28091.514,-26879.314,-21538.168,-23451.498
1226895.7830751583,-98573.61,-118865.445,-29464.805,-24392.416,-28094.564,-26887.086,-21538.86,-23415.977
1226895.7870751554,-98572.88,-118870.69,-29467.408,-24390.137,-28089.926,-26884.197,-21546.55,-23420.98
1226895.7910751526,-98597.375,-118890.875,-29459.19,-24395.916,-28086.996,-26875.408,-21553.387,-23454.795
1226895.7950751497,-98607.55,-118892.055,-29448.04,-24400.514,-28084.799,-26870.2,-21541.83,-23468.873
1226895.799075147,-98593.305,-118876.875,-29444.012,-24397.705,-28094.646,-26874.473,-21532.553,-23450.074
1226895.803075144,-98578.58,-118865.85,-29447.592,-24389.975,-28097.291,-26879.15,-21532.879,-23418.701
1226895.8070751412,-98584.27,-118874.59,-29449.627,-24388.633,-28089.885,-26877.076,-21545.166,-23419.271
1226895.8110751384,-98602.38,-118893.31,-29439.373,-24392.334,-28085.693,-26872.111,-21554.81,-23452.393
1226895.8150751356,-98611.66,-118898.12,-29427.166,-24399.781,-28092.814,-26868.49,-21549.033,-23475.83
1226895.8190751327,-98603.16,-118889.57,-29429.16,-24398.723,-28103.477,-26870.525,-21535.482,-23448.895
1226895.8230751299,-98588.625,-118877.85,-29433.229,-24392.863,-28106.365,-26874.023,-21529.705,-23411.744
1226895.827075127,-98589.27,-118880.78,-29433.105,-24389.934,-28096.152,-26873.902,-21538.371,-23414.023
1226895.8310751242,-98611.33,-118893.6,-29427.572,-24393.23,-28092.734,-26869.873,-21545.248,-23445.15
1226895.8350751214,-98621.26,-118892.79,-29417.277,-24395.387,-28091.27,-26865.316,-21540.04,-23472.047
1226895.8390751185,-98602.87,-118874.8,-29413.656,-24391.725,-28096.72,-26869.629,-21530.844,-23443.035
1226895.8430751157,-98579.59,-118855.76,-29419.068,-24385.01,-28096.6,-26875.57,-21527.223,-23400.025
1226895.8470751129,-98583.625,-118862.8,-29423.38,-24384.238,-28091.27,-26875.57,-21536.5,-23401.775
1226895.85107511,-98608.766,-118880.375,-29420.492,-24390.098,-28085.125,-26871.582,-21546.348,-23445.15
1226895.8550751072,-98614.664,-118879.97,-29411.582,-24395.713,-28087.646,-26869.996,-21539.674,-23469.402
1226895.8590751044,-98600.79,-118865.6,-29416.342,-24394.166,-28097.697,-26873.414,-21529.908,-23445.8
1226895.8630751015,-98596.88,-118868.78,-29431.764,-24392.05,-28103.312,-26878.215,-21529.623,-23408.855
1226895.8670750987,-98606.29,-118884.12,-29438.965,-24391.236,-28099.61,-26876.75,-21537.762,-23406.291
1226895.8710750958,-98613.41,-118894.21,-29428.752,-24394.004,-28093.14,-26871.258,-21543.742,-23439.17
1226895.875075093,-98608.85,-118886.766,-29416.465,-24396.484,-28092.693,-26867.066,-21533.652,-23458.496
1226895.8790750902,-98588.3,-118866.625,-29416.098,-24393.31,-28097.697,-26871.176,-21523.926,-23432.617
1226895.8830750873,-98580.484,-118860.195,-29428.346,-24390.219,-28099.773,-26878.541,-21525.514,-23397.584
1226895.8870750845,-98582.12,-118866.42,-29431.438,-24387.656,-28095.297,-26879.762,-21538.656,-23414.756
1226895.8910750817,-98603.11,-118886.44,-29427.816,-24393.637,-28095.379,-26875.488,-21548.016,-23451.783
1226895.8950750788,-98619.43,-118898.195,-29424.725,-24399.822,-28099.406,-26872.314,-21537.07,-23456.87
1226895.8990750758,-98606.04,-118882.94,-29426.148,-24398.438,-28106.69,-26877.117,-21521.566,-23419.842
1226895.903075073,-98590.74,-118871.79,-29437.908,-24394.328,-28108.195,-26882.53,-21521.566,-23384.074
1226895.90707507,-98592.82,-118875.45,-29442.139,-24391.846,-28100.75,-26882.447,-21535.117,-23393.516
1226895.9110750672,-98621.26,-118891.28,-29441.691,-24395.387,-28095.867,-26879.72,-21545.898,-23439.25
1226895.9150750644,-98627.04,-118890.34,-29436.729,-24398.764,-28096.273,-26878.135,-21541.342,-23464.193
1226895.9190750616,-98611.375,-118878.7,-29438.559,-24397.422,-28104.004,-26883.75,-21530.6,-23434.57
1226895.9230750587,-98599.98,-118871.71,-29449.545,-24394.084,-28115.031,-26889.934,-21534.059,-23401.855
1226895.927075056,-98606.65,-118876.63,-29454.795,-24393.475,-28109.295,-26892.742,-21551.799,-23432.293
1226895.931075053,-98635.83,-118894.01,-29453.492,-24399.008,-28103.312,-26890.992,-21564.617,-23472.9
1226895.9350750502,-98645.47,-118900.6,-29443.441,-24402.996,-28105.348,-26887.9,-21557.049,-23481.895
1226895.9390750474,-98628.7,-118896.65,-29442.139,-24400.066,-28115.031,-26891.766,-21548.707,-23461.67
1226895.9430750445,-98614.95,-118888.836,-29450.033,-24396.201,-28119.264,-26896.893,-21548.666,-23434.611
1226895.9470750417,-98618.33,-118893.195,-29452.8,-24393.963,-28112.834,-26895.793,-21557.74,-23440.105
1226895.9510750389,-98637.62,-118908.49,-29444.215,-24397.46,-28109.172,-26890.422,-21566.244,-23472.738
1226895.955075036,-98639.81,-118910.2,-29434.123,-24401.45,-28113.73,-26888.307,-21556.805,-23482.3
1226895.9590750332,-98621.79,-118895.836,-29436.117,-24401.164,-28119.182,-26893.799,-21544.719,-23448.975
1226895.9630750304,-98605.72,-118887.54,-29445.965,-24397.217,-28115.072,-26900.514,-21544.354,-23411.662
1226895.9670750275,-98613.9,-118898.73,-29450.236,-24394.166,-28108.969,-26900.676,-21553.346,-23412.842
1226895.9710750247,-98632.164,-118906.62,-29446.494,-24399.049,-28103.436,-26897.502,-21565.39,-23455.566
1226895.9750750219,-98632.2,-118897.34,-29435.67,-24401.734,-28104.492,-26893.393,-21559.896,-23477.012
1226895.979075019,-98610.805,-118877.93,-29436.443,-24398.193,-28113.852,-26898.438,-21549.033,-23449.871
1226895.9830750162,-98603.48,-118877.04,-29445.842,-24393.963,-28122.396,-26903.525,-21546.348,-23412.559
1226895.9870750133,-98608.08,-118883.875,-29448.975,-24394.166,-28116.334,-26903.605,-21557.861,-23425.66
1226895.9910750105,-98624.59,-118892.87,-29445.273,-24399.17,-28110.88,-26899.375,-21568.848,-23470.459
1226895.9950750077,-98638.59,-118901.78,-29437.176,-24404.502,-28115.275,-26893.799,-21558.188,-23481.406
1226895.9990750048,-98628.7,-118896.24,-29441.203,-24403.037,-28126.385,-26896.24,-21543.945,-23448.691
1226896.003075002,-98613.53,-118885.664,-29452.719,-24397.584,-28130.453,-26903.564,-21546.55,-23432.455
1226896.0070749992,-98630.29,-118900.03,-29460.898,-24397.99,-28125.53,-26904.338,-21560.914,-23454.469
1226896.0110749963,-98652.1,-118924.65,-29455.078,-24404.297,-28122.031,-26899.252,-21568.482,-23484.375
1226896.0150749935,-98650.03,-118920.54,-29443.93,-24407.512,-28121.258,-26893.76,-21559.57,-23493.693
1226896.0190749906,-98629.805,-118896.734,-29444.703,-24405.07,-28127.238,-26898.846,-21549.766,-23465.088
1226896.0230749878,-98610.195,-118884.766,-29449.219,-24399.252,-28130.494,-26906.78,-21550.578,-23432.781
1226896.027074985,-98609.91,-118889.04,-29448.08,-24396.037,-28126.914,-26908.123,-21564.902,-23445.15
1226896.0310749821,-98624.31,-118898.08,-29441.406,-24402.1,-28125.205,-26905.355,-21577.842,-23492.352
1226896.0350749793,-98641.445,-118908.82,-29437.5,-24407.635,-28133.586,-26900.27,-21566.041,-23499.146
1226896.0390749765,-98624.84,-118893.07,-29438.926,-24404.217,-28136.312,-26901.49,-21550.945,-23462.402
1226896.0430749734,-98597.86,-118868.86,-29445.72,-24398.031,-28133.18,-26909.344,-21550.334,-23425.498
1226896.0470749706,-98605.11,-118878.18,-29448.486,-24398.031,-28128.623,-26908.53,-21560.303,-23428.223
1226896.0510749677,-98618.25,-118884.56,-29443.441,-24401.938,-28119.467,-26903.564,-21568.686,-23457.846
1226896.0550749649,-98626.75,-118886.03,-29440.227,-24407.023,-28118.408,-26900.555,-21557.7,-23462.484
1226896.059074962,-98617.234,-118874.88,-29445.477,-24405.682,-28127.564,-26904.746,-21543.945,-23430.46
1226896.0630749592,-98613.24,-118871.71,-29457.48,-24401.002,-28131.674,-26908.203,-21541.627,-23407.47
1226896.0670749564,-98610.88,-118877.04,-29459.19,-24400.025,-28126.629,-26908.53,-21553.223,-23419.027
1226896.0710749535,-98608.805,-118870.734,-29449.139,-24401.287,-28120.85,-26904.746,-21565.023,-23463.299
1226896.0750749507,-98610.31,-118870.77,-29439.861,-24406.576,-28124.188,-26902.588,-21559.855,-23484.416
1226896.0790749479,-98600.1,-118857.18,-29438.682,-24402.955,-28128.094,-26904.785,-21544.557,-23445.068
1226896.083074945,-98586.59,-118845.09,-29446.33,-24398.438,-28133.506,-26909.709,-21545.777,-23410.809
1226896.0870749422,-98592.9,-118853.93,-29448.936,-24400.676,-28129.355,-26910.889,-21559.531,-23425.986
1226896.0910749394,-98616.13,-118873.7,-29444.58,-24406.576,-28126.426,-26905.926,-21568.889,-23465.21
1226896.0950749365,-98624.8,-118874.39,-29439.129,-24410.768,-28129.72,-26904.053,-21562.379,-23485.107
1226896.0990749337,-98605.31,-118855.555,-29440.064,-24406.576,-28135.54,-26910.686,-21554.81,-23466.064
1226896.1030749308,-98593.836,-118849.734,-29447.715,-24403.32,-28140.3,-26916.83,-21549.805,-23434.57
1226896.107074928,-98605.63,-118869.02,-29454.184,-24404.338,-28137.248,-26914.47,-21554.322,-23432.334
1226896.1110749252,-98621.26,-118883.34,-29445.03,-24408.0,-28131.145,-26908.0,-21559.611,-23454.143
1226896.1150749223,-98611.984,-118869.914,-29429.363,-24408.53,-28131.633,-26906.576,-21552.49,-23461.67
1226896.1190749195,-98590.336,-118850.63,-29428.549,-24406.047,-28139.527,-26913.25,-21542.4,-23437.053
1226896.1230749167,-98585.695,-118853.07,-29438.885,-24403.525,-28142.66,-26917.889,-21538.291,-23405.803
1226896.1270749138,-98600.43,-118871.99,-29447.47,-24404.582,-28136.271,-26917.033,-21548.545,-23413.615
1226896.131074911,-98613.9,-118872.03,-29441.447,-24407.188,-28130.86,-26916.465,-21559.734,-23452.312
1226896.1350749081,-98609.5,-118857.1,-29431.926,-24410.361,-28132.53,-26915.812,-21552.287,-23459.84
1226896.1390749053,-98603.27,-118846.48,-29435.467,-24409.14,-28141.725,-26918.498,-21539.756,-23419.475
1226896.1430749025,-98589.12,-118838.38,-29442.506,-24401.938,-28141.318,-26922.486,-21538.006,-23388.307
1226896.1470748996,-98584.44,-118840.09,-29443.768,-24399.008,-28135.254,-26920.98,-21552.695,-23408.977
1226896.1510748968,-98600.586,-118847.91,-29440.594,-24404.746,-28134.727,-26913.9,-21560.1,-23442.668
1226896.155074894,-98602.586,-118846.52,-29427.572,-24409.22,-28137.656,-26911.133,-21550.049,-23452.393
1226896.1590748911,-98582.6,-118834.72,-29427.166,-24407.635,-28146.852,-26916.424,-21540.61,-23427.531
1226896.1630748883,-98564.3,-118824.14,-29433.758,-24402.752,-28152.344,-26920.94,-21540.121,-23397.299
1226896.1670748855,-98581.305,-118843.875,-29438.518,-24402.832,-28151.979,-26918.01,-21546.916,-23407.35
1226896.1710748826,-98609.17,-118872.97,-29437.744,-24409.18,-28147.258,-26911.174,-21555.176,-23441.611
1226896.1750748798,-98616.87,-118878.055,-29432.537,-24414.795,-28146.893,-26908.488,-21549.602,-23453.94
1226896.179074877,-98600.43,-118860.44,-29433.35,-24411.865,-28150.146,-26913.086,-21539.268,-23420.045
1226896.183074874,-98587.61,-118854.13,-29439.576,-24406.291,-28149.293,-26917.562,-21538.453,-23392.213
1226896.187074871,-98593.23,-118857.99,-29444.541,-24406.129,-28143.027,-26919.395,-21549.643,-23402.914
1226896.1910748682,-98610.72,-118867.88,-29440.797,-24410.4,-28143.922,-26914.186,-21560.223,-23447.959
1226896.1950748654,-98627.484,-118874.516,-29438.559,-24415.895,-28145.469,-26909.424,-21550.457,-23457.643
1226896.1990748625,-98618.734,-118865.16,-29442.953,-24415.244,-28147.258,-26913.615,-21536.297,-23418.621
1226896.2030748597,-98595.664,-118851.81,-29446.86,-24409.344,-28150.879,-26921.957,-21538.9,-23390.463
1226896.2070748569,-98600.14,-118856.086,-29445.068,-24407.188,-28145.225,-26924.521,-21555.42,-23412.15
1226896.211074854,-98611.45,-118863.53,-29437.908,-24410.768,-28137.695,-26919.883,-21565.594,-23450.848
1226896.2150748512,-98612.96,-118861.25,-29432.334,-24414.145,-28138.916,-26917.969,-21555.137,-23453.004
1226896.2190748483,-98607.38,-118856.57,-29438.64,-24412.07,-28147.299,-26923.828,-21544.271,-23421.713
1226896.2230748455,-98598.96,-118852.3,-29447.55,-24408.082,-28150.596,-26929.607,-21544.068,-23394.451
1226896.2270748427,-98604.21,-118863.33,-29447.43,-24407.105,-28147.666,-26929.484,-21556.275,-23416.748
1226896.2310748398,-98616.375,-118872.84,-29437.988,-24410.768,-28141.766,-26926.514,-21566.895,-23458.334
1226896.235074837,-98607.75,-118858.93,-29424.195,-24413.494,-28140.992,-26924.684,-21559.246,-23469.809
1226896.2390748342,-98589.12,-118843.47,-29425.822,-24411.582,-28148.682,-26929.12,-21549.113,-23442.059
1226896.2430748313,-98580.164,-118837.734,-29437.135,-24406.494,-28150.514,-26931.764,-21546.307,-23405.885
1226896.2470748285,-98594.85,-118851.484,-29440.594,-24406.78,-28143.76,-26929.2,-21552.695,-23404.867
1226896.2510748256,-98614.83,-118865.36,-29434.246,-24411.5,-28140.504,-26925.578,-21562.256,-23440.43
1226896.2550748228,-98615.32,-118857.586,-29427.979,-24414.959,-28143.393,-26922.648,-21549.725,-23448.854
1226896.25907482,-98606.164,-118847.62,-29432.617,-24413.047,-28152.305,-26927.94,-21537.762,-23419.354
1226896.2630748171,-98597.74,-118846.27,-29442.303,-24408.773,-28152.832,-26931.805,-21540.0,-23389.648
1226896.2670748143,-98603.195,-118851.28,-29447.592,-24407.838,-28143.799,-26929.852,-21552.775,-23391.807
1226896.2710748115,-98618.45,-118857.18,-29442.018,-24412.803,-28137.9,-26926.555,-21563.232,-23434.938
1226896.2750748086,-98619.34,-118851.93,-29430.584,-24416.953,-28141.44,-26924.969,-21556.072,-23461.59
1226896.2790748058,-98610.35,-118845.79,-29435.182,-24415.04,-28150.229,-26927.531,-21537.559,-23414.104
1226896.283074803,-98602.38,-118837.53,-29445.842,-24409.303,-28149.17,-26928.71,-21528.117,-23367.717
1226896.2870748,-98613.484,-118846.56,-29450.033,-24410.523,-28144.816,-26924.846,-21534.385,-23377.646
1226896.2910747973,-98630.74,-118860.11,-29443.197,-24415.732,-28143.393,-26920.248,-21542.889,-23417.033
1226896.2950747944,-98628.75,-118859.54,-29436.729,-24421.143,-28147.34,-26921.428,-21539.877,-23422.324
1226896.2990747916,-98617.19,-118853.88,-29440.47,-24418.742,-28159.18,-26930.299,-21531.25,-23392.01
1226896.3030747888,-98605.555,-118847.74,-29444.662,-24412.598,-28159.832,-26937.623,-21534.832,-23376.67
1226896.307074786,-98608.97,-118854.13,-29445.518,-24411.418,-28152.793,-26936.605,-21548.096,-23395.916
1226896.311074783,-98638.72,-118879.766,-29444.053,-24418.498,-28153.809,-26929.281,-21556.031,-23432.781
1226896.3150747803,-98651.62,-118892.22,-29441.488,-24425.537,-28160.809,-26923.992,-21544.271,-23447.227
1226896.3190747774,-98643.03,-118889.81,-29446.494,-24424.56,-28165.04,-26927.166,-21527.752,-23411.133
1226896.3230747746,-98626.06,-118875.77,-29453.654,-24418.986,-28162.924,-26934.49,-21524.74,-23381.186
1226896.3270747717,-98634.12,-118880.58,-29456.34,-24418.986,-28155.111,-26932.049,-21531.78,-23391.44
1226896.3310747687,-98648.56,-118888.8,-29451.945,-24422.363,-28148.602,-26925.62,-21538.494,-23424.521
1226896.3350747658,-98662.93,-118902.1,-29450.521,-24428.102,-28155.559,-26920.207,-21524.7,-23429.852
1226896.339074763,-98655.16,-118895.23,-29454.998,-24428.549,-28162.518,-26922.201,-21507.977,-23389.73
1226896.3430747602,-98641.445,-118883.914,-29459.758,-24421.713,-28158.896,-26924.277,-21506.186,-23356.08
1226896.3470747573,-98657.31,-118901.734,-29460.898,-24421.754,-28153.646,-26918.498,-21510.54,-23361.125
1226896.3510747545,-98683.76,-118919.44,-29457.236,-24426.84,-28148.438,-26912.72,-21516.602,-23389.527
1226896.3550747517,-98701.3,-118928.305,-29452.434,-24432.658,-28155.479,-26907.797,-21504.803,-23393.434
1226896.3590747488,-98692.18,-118919.234,-29457.684,-24430.584,-28163.941,-26911.865,-21492.88,-23353.557
1226896.363074746,-98681.4,-118910.57,-29463.46,-24423.79,-28162.72,-26916.992,-21492.025,-23308.92
1226896.3670747431,-98702.07,-118930.51,-29465.088,-24423.422,-28158.367,-26913.941,-21507.488,-23328.125
1226896.3710747403,-98719.445,-118944.79,-29455.607,-24427.287,-28157.146,-26908.244,-21521.81,-23377.482
1226896.3750747375,-98723.06,-118945.4,-29445.232,-24428.305,-28161.094,-26906.006,-21516.277,-23393.434
1226896.3790747346,-98716.59,-118944.586,-29445.354,-24426.922,-28168.295,-26910.482,-21509.521,-23367.27
1226896.3830747318,-98706.83,-118942.1,-29450.4,-24422.527,-28165.812,-26916.057,-21510.174,-23340.332
1226896.387074729,-98719.32,-118953.82,-29449.342,-24422.08,-28159.547,-26913.086,-21520.264,-23350.75
1226896.3910747261,-98737.266,-118966.68,-29438.803,-24426.84,-28159.14,-26907.797,-21532.676,-23394.94
1226896.3950747233,-98741.09,-118967.164,-29427.979,-24430.584,-28164.592,-26906.088,-21530.193,-23417.074
1226896.3990747205,-98725.1,-118954.72,-29426.352,-24426.434,-28167.48,-26907.594,-21517.62,-23380.006
1226896.4030747176,-98713.22,-118950.28,-29432.861,-24419.434,-28168.457,-26911.174,-21515.38,-23349.854
1226896.4070747148,-98722.336,-118965.54,-29435.629,-24421.184,-28166.709,-26910.889,-21525.879,-23369.182
1226896.411074712,-98741.74,-118983.61,-29429.566,-24426.393,-28163.168,-26907.064,-21531.21,-23401.734
1226896.415074709,-98747.805,-118978.766,-29423.016,-24429.363,-28167.36,-26903.361,-21518.066,-23402.914
1226896.4190747063,-98732.266,-118958.13,-29423.91,-24425.742,-28169.8,-26908.814,-21504.477,-23366.984
1226896.4230747034,-98718.34,-118948.94,-29428.549,-24418.742,-28170.41,-26912.68,-21498.658,-23329.021
1226896.4270747006,-98725.875,-118956.055,-29428.59,-24417.562,-28164.47,-26909.22,-21508.018,-23341.432
1226896.4310746978,-98746.95,-118969.28,-29424.684,-24424.072,-28163.33,-26904.582,-21515.91,-23376.629
1226896.435074695,-98749.68,-118969.52,-29418.01,-24427.572,-28168.174,-26901.979,-21504.232,-23376.14
1226896.439074692,-98731.29,-118953.86,-29419.312,-24422.771,-28169.639,-26907.023,-21489.87,-23338.502
1226896.4430746892,-98715.78,-118940.516,-29426.596,-24417.521,-28169.922,-26912.11,-21489.543,-23312.867
1226896.4470746864,-98731.94,-118955.53,-29429.281,-24419.719,-28165.203,-26912.07,-21504.844,-23332.56
1226896.4510746836,-98760.09,-118978.31,-29427.084,-24426.148,-28163.738,-26908.041,-21517.54,-23369.59
1226896.4550746807,-98766.445,-118981.04,-29424.072,-24430.787,-28172.69,-26905.479,-21512.533,-23381.43
1226896.459074678,-98753.42,-118971.4,-29429.484,-24428.549,-28180.828,-26911.865,-21503.379,-23353.8
1226896.463074675,-98741.3,-118965.13,-29437.256,-24422.975,-28180.908,-26918.906,-21506.633,-23330.404
1226896.4670746722,-98748.54,-118973.63,-29436.24,-24422.527,-28176.23,-26918.336,-21519.084,-23349.814
1226896.4710746694,-98765.875,-118986.74,-29431.764,-24428.834,-28172.486,-26914.633,-21528.89,-23385.783
1226896.4750746663,-98768.31,-118983.04,-29426.963,-24434.693,-28175.254,-26911.174,-21516.318,-23387.615
1226896.4790746635,-98754.234,-118972.336,-29434.164,-24433.025,-28183.35,-26916.057,-21501.506,-23351.807
1226896.4830746606,-98748.945,-118971.4,-29444.744,-24430.42,-28183.92,-26921.672,-21502.646,-23327.637
1226896.4870746578,-98755.7,-118979.91,-29444.824,-24429.729,-28177.002,-26920.41,-21515.219,-23351.807
1226896.491074655,-98774.664,-118992.88,-29439.414,-24435.832,-28178.387,-26917.156,-21527.385,-23388.916
1226896.4950746521,-98784.305,-118999.39,-29436.523,-24440.146,-28185.1,-26915.121,-21518.393,-23398.602
1226896.4990746493,-98768.4,-118986.49,-29438.762,-24436.32,-28191.162,-26920.004,-21507.65,-23361.572
1226896.5030746465,-98753.83,-118975.67,-29443.441,-24430.502,-28191.895,-26925.742,-21504.355,-23315.674
1226896.5070746436,-98767.375,-118988.9,-29444.377,-24430.055,-28188.6,-26924.521,-21514.486,-23332.56
1226896.5110746408,-98785.56,-119002.164,-29438.803,-24434.652,-28184.45,-26922.242,-21530.518,-23398.154
1226896.515074638,-98784.586,-118996.95,-29431.846,-24438.762,-28185.71,-26919.312,-21522.217,-23402.14
1226896.519074635,-98764.29,-118984.625,-29433.31,-24435.996,-28190.105,-26924.398,-21510.906,-23361.328
1226896.5230746323,-98747.97,-118974.77,-29442.344,-24430.176,-28192.303,-26928.06,-21512.492,-23330.16
1226896.5270746294,-98752.28,-118979.86,-29441.773,-24430.502,-28188.844,-26927.654,-21524.902,-23349.977
1226896.5310746266,-98767.984,-118992.07,-29433.758,-24435.02,-28184.49,-26924.521,-21532.797,-23385.498
1226896.5350746238,-98772.99,-118991.54,-29426.84,-24438.111,-28186.523,-26923.178,-21524.21,-23387.533
1226896.539074621,-98755.78,-118977.625,-29430.096,-24434.002,-28193.727,-26929.404,-21512.086,-23355.145
1226896.543074618,-98745.0,-118970.3,-29439.941,-24428.996,-28195.72,-26933.758,-21511.068,-23322.998
1226896.5470746153,-98753.5,-118977.42,-29444.5,-24430.42,-28186.89,-26932.252,-21524.943,-23341.432
1226896.5510746124,-98774.375,-118989.51,-29440.797,-24435.223,-28182.537,-26927.94,-21532.268,-23376.465
1226896.5550746096,-98777.63,-118991.664,-29439.129,-24439.576,-28187.988,-26926.31,-21519.125,-23378.215
1226896.5590746067,-98757.37,-118976.61,-29439.82,-24436.523,-28197.795,-26930.176,-21505.371,-23347.129
1226896.563074604,-98740.32,-118967.86,-29444.906,-24430.38,-28197.795,-26931.396,-21502.93,-23322.918
1226896.567074601,-98752.69,-118982.914,-29446.574,-24432.21,-28194.865,-26932.496,-21519.084,-23342.326
1226896.5710745982,-98773.03,-118996.22,-29440.715,-24436.564,-28190.715,-26929.81,-21530.885,-23378.785
1226896.5750745954,-98770.71,-118992.6,-29436.24,-24437.744,-28193.97,-26929.607,-21521.12,-23382.203
1226896.5790745926,-98751.47,-118975.67,-29437.744,-24434.693,-28197.918,-26936.117,-21507.324,-23341.432
1226896.5830745897,-98732.34,-118960.05,-29441.162,-24428.752,-28194.541,-26942.262,-21506.959,-23317.018
1226896.587074587,-98731.24,-118959.84,-29441.162,-24426.758,-28187.176,-26940.797,-21522.87,-23339.723
1226896.591074584,-98740.484,-118965.54,-29433.879,-24430.87,-28183.229,-26934.734,-21531.861,-23373.496
1226896.5950745812,-98737.266,-118959.76,-29425.537,-24433.676,-28187.826,-26931.438,-21518.88,-23365.154
1226896.5990745784,-98714.36,-118942.55,-29426.963,-24430.176,-28194.541,-26936.564,-21504.762,-23318.564
1226896.6030745755,-98700.36,-118937.46,-29433.717,-24424.521,-28195.312,-26939.576,-21507.121,-23296.469
1226896.6070745727,-98723.31,-118960.05,-29434.611,-24426.514,-28190.756,-26936.402,-21523.805,-23342.49
1226896.6110745699,-98735.35,-118967.164,-29425.701,-24433.27,-28187.623,-26934.611,-21539.348,-23398.072
1226896.615074567,-98720.055,-118944.586,-29414.512,-24435.182,-28188.803,-26937.338,-21536.418,-23403.729
1226896.619074564,-98701.055,-118928.67,-29418.092,-24431.234,-28194.256,-26942.588,-21524.13,-23367.473
1226896.6230745611,-98689.86,-118916.63,-29423.422,-24422.893,-28190.553,-26946.574,-21523.887,-23340.129
1226896.6270745583,-98697.43,-118919.516,-29426.637,-24421.875,-28184.45,-26945.965,-21539.348,-23367.799
1226896.6310745555,-98717.62,-118936.81,-29427.043,-24429.363,-28187.094,-26941.936,-21544.639,-23402.223
1226896.6350745526,-98727.3,-118937.95,-29421.266,-24435.264,-28193.441,-26938.314,-21532.268,-23396.607
1226896.6390745498,-98699.51,-118913.66,-29419.434,-24429.443,-28196.777,-26942.383,-21519.043,-23353.557
1226896.643074547,-98687.79,-118908.29,-29427.166,-24425.945,-28194.824,-26946.697,-21516.766,-23325.318
1226896.647074544,-98708.945,-118933.72,-29430.746,-24427.613,-28190.879,-26944.662,-21527.832,-23339.355
1226896.6510745413,-98716.27,-118932.7,-29423.79,-24430.176,-28186.646,-26941.285,-21539.145,-23382.121
1226896.6550745384,-98713.016,-118923.016,-29416.504,-24432.861,-28188.64,-26939.25,-21532.35,-23392.457
1226896.6590745356,-98705.24,-118912.84,-29422.363,-24428.752,-28192.1,-26942.832,-21519.166,-23356.365
1226896.6630745328,-98696.25,-118916.43,-29431.072,-24424.48,-28194.336,-26949.342,-21518.84,-23327.922
1226896.66707453,-98687.75,-118918.54,-29429.078,-24422.445,-28189.047,-26951.824,-21535.117,-23350.994
1226896.671074527,-98692.875,-118920.375,-29421.387,-24425.172,-28181.723,-26950.195,-21545.086,-23387.574
1226896.6750745242,-98702.68,-118921.96,-29416.912,-24427.979,-28187.826,-26947.836,-21533.447,-23388.836
1226896.6790745214,-98695.234,-118913.58,-29423.096,-24426.025,-28195.354,-26950.521,-21516.195,-23345.988
1226896.6830745186,-98687.75,-118914.39,-29430.137,-24423.137,-28193.197,-26954.469,-21513.916,-23314.414
1226896.6870745157,-98697.59,-118926.44,-29431.234,-24425.01,-28189.291,-26954.713,-21528.24,-23333.172
1226896.691074513,-98724.66,-118946.66,-29427.328,-24431.234,-28192.424,-26950.195,-21538.25,-23364.707
1226896.69507451,-98732.38,-118947.43,-29425.01,-24434.775,-28196.494,-26948.812,-21531.861,-23370.85
1226896.6990745072,-98735.516,-118949.63,-29432.578,-24434.123,-28206.137,-26951.945,-21515.79,-23331.34
1226896.7030745044,-98737.35,-118949.875,-29439.209,-24430.705,-28203.492,-26954.428,-21514.365,-23311.564
1226896.7070745016,-98762.17,-118973.76,-29444.133,-24435.385,-28203.736,-26951.66,-21529.094,-23344.076
1226896.7110744987,-98790.66,-118992.76,-29441.773,-24442.383,-28202.271,-26944.703,-21532.553,-23361.207
1226896.7150744959,-98786.055,-118979.375,-29433.838,-24443.076,-28200.521,-26943.523,-21519.41,-23360.963
1226896.719074493,-98782.63,-118975.47,-29442.18,-24442.303,-28207.236,-26947.266,-21503.947,-23332.969
1226896.7230744902,-98789.88,-118987.67,-29451.336,-24439.617,-28209.19,-26946.9,-21497.234,-23304.078
1226896.7270744874,-98808.76,-119005.78,-29452.19,-24441.611,-28205.975,-26942.588,-21504.559,-23315.918
1226896.7310744845,-98840.21,-119026.86,-29451.54,-24449.83,-28205.04,-26938.07,-21511.312,-23342.123
1226896.7350744817,-98834.72,-119016.4,-29442.303,-24452.922,-28207.764,-26937.5,-21500.652,-23344.482
1226896.7390744789,-98808.72,-118997.07,-29441.773,-24448.447,-28213.746,-26942.383,-21489.666,-23310.752
1226896.743074476,-98796.8,-118992.6,-29446.371,-24442.791,-28211.06,-26946.045,-21490.928,-23283.652
1226896.7470744732,-98796.43,-118996.055,-29441.773,-24442.709,-28208.09,-26945.232,-21506.756,-23303.305
1226896.7510744703,-98807.46,-119004.805,-29431.682,-24446.697,-28205.893,-26942.506,-21518.637,-23339.031
1226896.7550744675,-98802.125,-118997.195,-29427.531,-24452.434,-28214.52,-26942.791,-21511.516,-23335.37
1226896.7590744647,-98783.77,-118986.25,-29431.682,-24451.213,-28224.365,-26946.86,-21501.914,-23297.812
1226896.7630744616,-98774.055,-118986.695,-29440.594,-24446.29,-28220.785,-26953.574,-21508.586,-23289.43
1226896.7670744588,-98784.266,-118997.234,-29444.662,-24445.883,-28216.105,-26954.63,-21523.479,-23317.059
1226896.771074456,-98802.164,-119004.6,-29442.871,-24452.434,-28213.217,-26952.027,-21535.809,-23353.354
1226896.775074453,-98802.78,-118998.3,-29440.47,-24456.219,-28216.635,-26947.389,-21524.334,-23354.33
1226896.7790744503,-98786.586,-118986.086,-29445.068,-24452.88,-28226.318,-26949.627,-21509.766,-23323.242
1226896.7830744474,-98778.2,-118984.625,-29453.41,-24448.73,-28223.838,-26952.719,-21510.092,-23301.514
1226896.7870744446,-98793.3,-118993.414,-29460.246,-24450.604,-28212.281,-26951.01,-21522.46,-23326.58
1226896.7910744417,-98813.16,-119006.8,-29456.219,-24456.055,-28215.781,-26946.045,-21524.496,-23364.34
1226896.795074439,-98813.766,-119003.22,-29448.527,-24460.287,-28221.803,-26943.32,-21508.75,-23359.824
1226896.799074436,-98797.9,-118989.55,-29451.133,-24456.422,-28229.248,-26949.139,-21496.094,-23322.592
1226896.8030744332,-98791.55,-118990.56,-29458.863,-24451.701,-28233.887,-26955.852,-21500.205,-23303.996
1226896.8070744304,-98806.03,-119004.766,-29461.102,-24451.457,-28225.098,-26953.818,-21513.145,-23318.115
1226896.8110744276,-98812.016,-119003.5,-29450.115,-24453.695,-28216.553,-26954.307,-21527.873,-23362.59
1226896.8150744247,-98807.58,-119001.19,-29439.006,-24455.527,-28218.71,-26954.51,-21516.969,-23364.178
1226896.819074422,-98797.125,-118994.71,-29442.424,-24451.783,-28225.83,-26957.236,-21497.275,-23319.459
1226896.823074419,-98783.695,-118983.73,-29446.656,-24445.842,-28222.697,-26962.566,-21497.844,-23295.533
1226896.8270744162,-98781.984,-118980.96,-29443.97,-24443.115,-28213.34,-26961.793,-21511.23,-23314.78
1226896.8310744134,-98800.58,-118990.85,-29440.023,-24447.47,-28210.49,-26958.863,-21519.654,-23343.547
1226896.8350744105,-98805.18,-118992.64,-29435.71,-24451.54,-28219.28,-26959.352,-21511.475,-23332.072
1226896.8390744077,-98779.34,-118971.16,-29437.338,-24446.982,-28225.059,-26965.576,-21500.938,-23293.498
1226896.8430744049,-98769.29,-118970.18,-29444.256,-24443.115,-28223.105,-26967.855,-21501.465,-23274.496
1226896.847074402,-98786.055,-118988.734,-29446.86,-24444.012,-28217.45,-26964.6,-21514.08,-23307.822
1226896.8510743992,-98807.13,-119005.17,-29441.285,-24448.203,-28214.193,-26959.514,-21519.654,-23343.629
1226896.8550743964,-98809.37,-119002.65,-29437.785,-24451.416,-28217.408,-26957.357,-21506.389,-23334.922
1226896.8590743935,-98796.43,-118989.51,-29442.953,-24449.383,-28225.424,-26962.566,-21491.984,-23286.826
1226896.8630743907,-98788.82,-118986.414,-29449.219,-24444.621,-28229.453,-26969.035,-21498.78,-23277.752
1226896.8670743878,-98804.08,-119006.02,-29450.44,-24446.656,-28226.035,-26970.012,-21520.672,-23329.266
1226896.871074385,-98823.81,-119026.53,-29447.51,-24453.98,-28224.285,-26965.496,-21530.682,-23370.281
1226896.8750743822,-98827.4,-119026.21,-29446.453,-24458.984,-28225.75,-26963.176,-21517.62,-23374.268
1226896.8790743793,-98807.74,-119011.07,-29453.045,-24456.137,-28232.057,-26965.82,-21501.344,-23337.646
1226896.8830743765,-98792.32,-118996.87,-29458.904,-24450.969,-28229.004,-26967.773,-21496.746,-23302.084
1226896.8870743737,-98803.266,-119005.78,-29460.654,-24451.58,-28223.309,-26966.229,-21510.662,-23317.832
1226896.8910743708,-98821.29,-119017.99,-29459.393,-24458.049,-28225.262,-26963.055,-21520.469,-23360.434
1226896.895074368,-98820.68,-119017.7,-29457.275,-24461.67,-28228.436,-26961.508,-21509.848,-23369.305
1226896.8990743652,-98805.09,-119007.45,-29463.99,-24458.09,-28237.387,-26964.885,-21492.84,-23325.156
1226896.9030743623,-98796.06,-119006.76,-29473.145,-24455.566,-28237.143,-26968.506,-21491.252,-23296.795
1226896.9070743592,-98806.32,-119016.24,-29475.871,-24457.398,-28232.545,-26968.018,-21504.803,-23317.1
1226896.9110743564,-98820.4,-119021.125,-29470.947,-24461.752,-28229.248,-26966.39,-21513.836,-23345.703
1226896.9150743536,-98816.734,-119013.88,-29464.6,-24464.396,-28230.754,-26964.152,-21501.506,-23336.02
1226896.9190743507,-98799.6,-119002.12,-29466.92,-24459.19,-28231.975,-26966.27,-21488.934,-23297.201
1226896.923074348,-98793.26,-119003.46,-29475.547,-24455.607,-28233.521,-26971.314,-21494.629,-23280.111
1226896.927074345,-98808.35,-119020.875,-29479.453,-24456.748,-28230.754,-26969.85,-21510.58,-23307.414
1226896.9310743422,-98826.3,-119031.46,-29472.82,-24460.205,-28229.86,-26965.576,-21519.451,-23341.797
1226896.9350743394,-98825.65,-119027.59,-29467.938,-24463.014,-28236.451,-26964.234,-21506.836,-23342.45
1226896.9390743366,-98804.2,-119011.03,-29467.45,-24457.887,-28240.398,-26968.75,-21491.049,-23308.066
1226896.9430743337,-98787.31,-118995.33,-29468.018,-24451.824,-28240.52,-26971.396,-21491.293,-23288.656
1226896.9470743309,-98786.75,-118994.71,-29461.549,-24449.707,-28234.904,-26966.229,-21500.326,-23300.742
1226896.951074328,-98804.57,-119009.89,-29454.062,-24456.016,-28232.178,-26960.287,-21504.395,-23317.139
1226896.9550743252,-98805.09,-119008.75,-29447.836,-24458.904,-28236.736,-26958.049,-21491.781,-23305.38
1226896.9590743224,-98783.2,-118991.26,-29446.29,-24454.795,-28243.979,-26963.135,-21482.504,-23275.229
1226896.9630743195,-98764.9,-118977.46,-29449.627,-24449.748,-28244.914,-26970.053,-21490.44,-23273.357
1226896.9670743167,-98775.92,-118986.695,-29447.998,-24448.283,-28237.305,-26967.979,-21510.621,-23342.082
1226896.9710743139,-98785.69,-118989.38,-29438.72,-24451.254,-28231.527,-26962.852,-21522.99,-23400.352
1226896.975074311,-98766.32,-118974.45,-29426.025,-24451.01,-28234.66,-26960.246,-21512.695,-23391.074
1226896.9790743082,-98738.164,-118950.28,-29423.707,-24446.168,-28241.863,-26963.299,-21500.57,-23347.291
1226896.9830743053,-98720.79,-118937.46,-29423.178,-24439.453,-28238.486,-26965.82,-21500.408,-23318.32
1226896.9870743025,-98736.45,-118950.65,-29423.504,-24441.041,-28233.48,-26964.396,-21514.61,-23337.566
1226896.9910742997,-98748.7,-118953.945,-29417.848,-24444.174,-28226.604,-26962.2,-21525.31,-23362.305
1226896.9950742968,-98741.13,-118948.53,-29406.902,-24447.51,-28235.271,-26962.852,-21511.475,-23353.436
1226896.999074294,-98729.01,-118937.26,-29409.994,-24445.762,-28241.66,-26966.432,-21496.623,-23311.158
1226897.0030742912,-98721.84,-118929.81,-29416.139,-24442.262,-28239.299,-26969.646,-21498.658,-23288.006
1226897.0070742883,-98738.734,-118942.836,-29417.889,-24444.459,-28232.178,-26968.547,-21513.836,-23311.24
1226897.0110742855,-98755.91,-118955.57,-29413.25,-24448.527,-28229.045,-26966.27,-21526.043,-23347.617
1226897.0150742827,-98755.5,-118944.83,-29411.865,-24451.945,-28230.674,-26969.28,-21518.393,-23352.662
1226897.0190742798,-98763.59,-118950.36,-29424.521,-24451.742,-28241.09,-26972.9,-21505.941,-23323.61
1226897.023074277,-98761.234,-118961.23,-29433.799,-24447.715,-28246.217,-26976.93,-21513.225,-23314.658
1226897.0270742741,-98750.53,-118957.73,-29427.002,-24443.36,-28237.549,-26978.516,-21537.924,-23352.5
1226897.0310742713,-98767.58,-118970.79,-29421.143,-24446.574,-28236.572,-26978.271,-21550.498,-23390.707
1226897.0350742685,-98772.83,-118976.445,-29416.465,-24448.936,-28241.984,-26976.768,-21538.33,-23387.94
1226897.0390742656,-98754.07,-118964.52,-29418.418,-24445.557,-28251.994,-26980.957,-21523.926,-23355.186
1226897.0430742628,-98741.664,-118956.38,-29425.09,-24440.553,-28249.023,-26989.422,-21531.861,-23342.855
1226897.04707426,-98759.24,-118976.61,-29426.514,-24440.635,-28247.111,-26989.91,-21546.021,-23367.514
1226897.051074257,-98777.51,-118990.16,-29423.096,-24444.865,-28246.135,-26988.037,-21553.467,-23412.15
1226897.055074254,-98775.19,-118982.305,-29418.621,-24447.104,-28250.57,-26987.713,-21542.562,-23407.432
1226897.0590742512,-98754.56,-118962.37,-29422.812,-24441.53,-28257.203,-26992.27,-21527.426,-23358.318
1226897.0630742484,-98748.45,-118956.266,-29431.438,-24437.95,-28255.576,-26993.572,-21524.414,-23331.992
1226897.0670742455,-98764.77,-118970.5,-29433.432,-24439.697,-28251.1,-26989.219,-21530.6,-23339.6
1226897.0710742427,-98764.81,-118971.89,-29421.55,-24443.727,-28245.361,-26985.107,-21532.715,-23358.521
1226897.0750742399,-98756.31,-118959.805,-29415.324,-24444.377,-28248.373,-26984.01,-21521.078,-23353.354
1226897.079074237,-98741.945,-118954.516,-29418.54,-24439.861,-28255.209,-26985.312,-21510.295,-23323.04
1226897.0830742342,-98738.24,-118961.47,-29425.13,-24437.826,-28253.662,-26988.201,-21512.533,-23305.584
1226897.0870742314,-98752.32,-118973.84,-29423.3,-24438.314,-28246.908,-26985.027,-21525.758,-23339.682
1226897.0910742285,-98763.15,-118972.62,-29416.383,-24441.488,-28245.605,-26981.854,-21538.209,-23384.686
1226897.0950742257,-98763.836,-118964.484,-29415.732,-24444.703,-28250.896,-26981.08,-21524.049,-23374.838
1226897.0990742228,-98756.59,-118957.73,-29421.184,-24442.912,-28252.564,-26983.887,-21509.562,-23334.148
1226897.10307422,-98740.4,-118941.2,-29426.148,-24436.443,-28246.502,-26986.816,-21511.76,-23310.791
1226897.1070742172,-98746.46,-118945.234,-29425.13,-24437.826,-28245.688,-26983.521,-21524.943,-23332.072
1226897.1110742143,-98775.8,-118965.17,-29424.928,-24447.062,-28251.303,-26980.225,-21533.896,-23366.375
1226897.1150742115,-98795.82,-118978.73,-29429.281,-24454.225,-28261.354,-26978.598,-21523.52,-23365.44
1226897.1190742087,-98777.06,-118968.1,-29432.455,-24451.295,-28265.422,-26980.754,-21507.812,-23329.021
1226897.1230742058,-98755.21,-118951.38,-29432.658,-24444.947,-28258.912,-26983.277,-21506.268,-23310.059
1226897.127074203,-98765.305,-118959.92,-29431.396,-24447.51,-28253.826,-26981.242,-21519.531,-23332.398
1226897.1310742002,-98776.414,-118969.32,-29424.521,-24453.533,-28255.047,-26979.818,-21530.152,-23370.037
1226897.1350741973,-98776.414,-118967.94,-29422.648,-24456.34,-28262.127,-26979.941,-21520.549,-23368.979
1226897.1390741945,-98761.48,-118958.83,-29428.549,-24452.842,-28267.783,-26983.398,-21507.121,-23329.713
1226897.1430741916,-98749.64,-118945.88,-29433.96,-24448.203,-28266.521,-26987.59,-21508.75,-23310.223
1226897.1470741888,-98762.74,-118956.875,-29434.367,-24450.521,-28266.277,-26986.777,-21523.316,-23332.52
1226897.151074186,-98781.17,-118970.09,-29429.688,-24453.654,-28265.057,-26982.342,-21530.396,-23365.195
1226897.1550741831,-98779.95,-118961.06,-29427.857,-24457.44,-28269.207,-26981.771,-21515.992,-23355.104
1226897.1590741803,-98762.086,-118947.19,-29430.217,-24453.94,-28273.479,-26986.004,-21499.229,-23311.646
1226897.1630741775,-98750.98,-118941.41,-29433.229,-24448.975,-28267.498,-26988.281,-21498.17,-23283.53
1226897.1670741746,-98765.42,-118957.69,-29433.676,-24450.848,-28262.371,-26985.312,-21510.498,-23305.42
1226897.1710741718,-98784.67,-118968.67,-29430.908,-24455.934,-28262.045,-26983.684,-21520.305,-23344.28
1226897.175074169,-98782.92,-118961.35,-29427.979,-24458.172,-28265.057,-26986.045,-21510.986,-23339.193
1226897.179074166,-98768.15,-118950.24,-29435.467,-24457.48,-28272.705,-26990.643,-21496.46,-23299.56
1226897.1830741633,-98764.734,-118951.336,-29441.691,-24453.857,-28274.008,-26990.357,-21496.094,-23284.547
1226897.1870741604,-98783.125,-118964.93,-29441.244,-24453.33,-28267.375,-26984.986,-21512.656,-23316.0
1226897.1910741576,-98806.97,-118978.64,-29439.576,-24459.514,-28265.87,-26982.666,-21523.398,-23358.848
1226897.1950741545,-98811.65,-118974.86,-29438.232,-24463.176,-28272.543,-26982.545,-21512.574,-23351.482
1226897.1990741517,-98786.016,-118956.71,-29437.297,-24457.969,-28278.158,-26986.777,-21499.838,-23319.174
1226897.2030741489,-98771.125,-118950.65,-29440.227,-24452.963,-28276.408,-26989.543,-21505.371,-23319.092
1226897.207074146,-98784.71,-118964.805,-29440.756,-24453.451,-28271.363,-26986.451,-21520.102,-23347.412
1226897.2110741432,-98793.26,-118972.45,-29431.967,-24458.049,-28267.904,-26983.969,-21532.838,-23384.521
1226897.2150741403,-98794.11,-118971.68,-29431.316,-24463.623,-28277.549,-26985.027,-21524.13,-23377.605
1226897.2190741375,-98794.88,-118971.805,-29440.146,-24465.008,-28288.615,-26987.672,-21509.36,-23338.664
1226897.2230741347,-98783.53,-118958.42,-29447.43,-24460.613,-28283.123,-26988.77,-21505.412,-23310.832
1226897.2270741318,-98783.49,-118955.98,-29444.662,-24459.717,-28273.846,-26987.143,-21520.225,-23333.172
1226897.231074129,-98802.53,-118969.0,-29436.28,-24464.844,-28274.74,-26985.148,-21528.605,-23354.453
1226897.2350741262,-98805.99,-118972.21,-29434.531,-24467.611,-28279.826,-26986.654,-21514.771,-23336.549
1226897.2390741233,-98782.72,-118948.45,-29435.182,-24461.752,-28282.756,-26993.49,-21506.309,-23321.412
1226897.2430741205,-98774.984,-118942.836,-29441.406,-24458.701,-28279.908,-26998.576,-21512.412,-23319.785
1226897.2470741177,-98791.55,-118954.72,-29445.15,-24462.443,-28277.67,-26998.332,-21525.432,-23337.402
1226897.2510741148,-98808.96,-118964.6,-29439.658,-24467.938,-28276.002,-26996.014,-21531.332,-23359.254
1226897.255074112,-98804.81,-118960.01,-29433.879,-24468.506,-28277.955,-26997.314,-21515.586,-23346.68
1226897.2590741091,-98784.75,-118943.93,-29435.1,-24463.867,-28284.018,-26999.756,-21496.826,-23302.002
1226897.2630741063,-98775.07,-118937.71,-29438.232,-24460.328,-28281.738,-27002.402,-21498.902,-23286.988
1226897.2670741035,-98794.84,-118952.31,-29441.611,-24465.82,-28279.99,-27001.182,-21519.125,-23318.32
1226897.2710741006,-98816.0,-118966.15,-29437.338,-24470.541,-28279.664,-26998.291,-21531.332,-23360.068
1226897.2750740978,-98812.22,-118960.45,-29432.129,-24471.07,-28283.326,-26996.42,-21520.508,-23357.627
1226897.279074095,-98797.08,-118950.04,-29436.117,-24467.611,-28295.615,-26998.74,-21505.006,-23318.115
1226897.2830740921,-98790.445,-118946.7,-29439.658,-24463.787,-28296.875,-27001.182,-21507.285,-23304.078
1226897.2870740893,-98799.52,-118954.92,-29437.094,-24465.984,-28288.25,-27002.441,-21525.84,-23342.652
1226897.2910740864,-98819.91,-118966.92,-29433.799,-24471.07,-28285.93,-27000.611,-21532.064,-23372.111
1226897.2950740836,-98817.06,-118960.21,-29430.787,-24471.72,-28289.023,-26999.512,-21517.62,-23362.672
1226897.2990740808,-98799.08,-118947.266,-29436.076,-24468.588,-28293.01,-27001.75,-21503.947,-23331.748
1226897.303074078,-98794.07,-118946.25,-29444.459,-24464.152,-28290.527,-27005.412,-21510.174,-23319.662
1226897.307074075,-98806.195,-118957.4,-29445.03,-24466.39,-28285.809,-27006.104,-21525.229,-23337.2
1226897.3110740723,-98818.52,-118966.39,-29438.438,-24469.482,-28280.479,-27004.232,-21532.35,-23358.562
1226897.3150740694,-98814.62,-118959.31,-29435.264,-24471.68,-28283.082,-27004.803,-21524.09,-23365.031
1226897.3190740666,-98797.53,-118945.766,-29440.715,-24468.67,-28291.3,-27009.482,-21511.516,-23323.447
1226897.3230740638,-98793.586,-118945.4,-29448.486,-24465.17,-28289.268,-27013.795,-21514.771,-23293.824
1226897.327074061,-98811.57,-118962.65,-29450.115,-24468.467,-28284.14,-27008.342,-21526.531,-23307.781
1226897.331074058,-98824.95,-118974.086,-29443.645,-24474.936,-28284.953,-27004.803,-21534.791,-23343.059
1226897.335074055,-98818.61,-118968.266,-29441.082,-24476.686,-28287.436,-27004.68,-21522.99,-23347.209
1226897.3390740522,-98799.85,-118950.16,-29443.93,-24471.314,-28290.162,-27010.295,-21507.691,-23303.305
1226897.3430740493,-98794.31,-118944.26,-29448.73,-24467.611,-28287.762,-27013.795,-21511.23,-23302.572
1226897.3470740465,-98811.24,-118960.17,-29447.186,-24467.164,-28281.943,-27009.686,-21525.352,-23331.787
1226897.3510740437,-98827.35,-118968.75,-29439.78,-24470.703,-28281.535,-27006.797,-21528.2,-23349.773
1226897.3550740408,-98828.17,-118965.62,-29435.996,-24474.773,-28291.668,-27008.139,-21509.277,-23315.879
1226897.359074038,-98814.17,-118955.445,-29441.367,-24472.78,-28296.348,-27015.545,-21498.008,-23288.9
1226897.3630740352,-98813.68,-118959.03,-29450.033,-24469.605,-28295.898,-27023.193,-21509.766,-23303.916
1226897.3670740323,-98832.08,-118975.305,-29455.12,-24472.412,-28290.812,-27025.229,-21534.994,-23348.268
1226897.3710740295,-98847.414,-118988.28,-29450.195,-24477.621,-28291.383,-27020.387,-21545.33,-23375.123
1226897.3750740266,-98845.79,-118984.625,-29448.568,-24480.754,-28298.26,-27020.225,-21532.146,-23359.092
1226897.3790740238,-98828.21,-118972.13,-29451.865,-24477.5,-28301.23,-27022.95,-21517.172,-23321.982
1226897.383074021,-98821.984,-118974.86,-29455.607,-24472.82,-28298.463,-27022.258,-21516.766,-23309.205
1226897.3870740181,-98834.68,-118987.35,-29455.242,-24474.977,-28295.86,-27019.572,-21527.71,-23330.607
1226897.3910740153,-98850.55,-118997.234,-29451.865,-24479.697,-28292.48,-27014.04,-21532.756,-23358.807
1226897.3950740125,-98849.53,-118996.95,-29448.854,-24482.057,-28300.457,-27012.29,-21518.719,-23352.256
1226897.3990740096,-98834.19,-118987.555,-29455.445,-24480.348,-28304.525,-27014.08,-21505.209,-23312.705
1226897.4030740068,-98831.875,-118986.9,-29462.729,-24477.336,-28302.451,-27015.26,-21507.812,-23302.246
1226897.407074004,-98848.63,-118999.64,-29461.955,-24478.924,-28307.74,-27012.29,-21519.94,-23320.068
1226897.411074001,-98863.734,-119006.68,-29456.34,-24482.992,-28305.42,-27007.773,-21523.398,-23346.273
1226897.4150739983,-98857.016,-118998.3,-29454.834,-24484.54,-28305.787,-27009.441,-21507.53,-23341.432
1226897.4190739954,-98835.125,-118981.24,-29459.107,-24479.818,-28305.87,-27013.916,-21486.451,-23293.092
1226897.4230739926,-98831.1,-118980.59,-29465.82,-24477.54,-28305.705,-27015.38,-21482.627,-23264.242
1226897.4270739898,-98846.07,-118989.875,-29464.316,-24479.533,-28300.049,-27011.68,-21495.402,-23287.559
1226897.431073987,-98864.14,-119002.52,-29460.572,-24485.23,-28299.195,-27009.562,-21504.191,-23319.256
1226897.435073984,-98858.85,-118998.78,-29460.734,-24487.387,-28303.793,-27012.777,-21493.49,-23311.32
1226897.4390739813,-98837.81,-118984.74,-29463.746,-24483.318,-28307.252,-27018.19,-21480.592,-23282.227
1226897.4430739784,-98838.46,-118984.74,-29470.988,-24481.69,-28304.24,-27019.043,-21484.01,-23267.904
1226897.4470739756,-98858.32,-118998.5,-29472.82,-24483.887,-28300.254,-27014.61,-21500.326,-23291.586
1226897.4510739727,-98873.945,-119006.02,-29467.57,-24487.143,-28299.236,-27011.963,-21509.115,-23326.05
1226897.45507397,-98864.79,-118997.28,-29461.508,-24486.94,-28300.742,-27010.336,-21492.148,-23320.232
1226897.459073967,-98845.586,-118983.08,-29462.646,-24482.342,-28303.834,-27015.016,-21475.262,-23277.914
1226897.4630739642,-98840.3,-118982.016,-29467.408,-24478.883,-28302.898,-27017.457,-21475.75,-23260.742
1226897.4670739614,-98855.266,-118995.61,-29467.693,-24481.895,-28300.986,-27014.975,-21489.096,-23283.123
1226897.4710739586,-98869.71,-119002.98,-29461.346,-24486.328,-28300.13,-27011.68,-21497.885,-23316.691
1226897.4750739557,-98861.375,-118990.65,-29456.016,-24485.8,-28303.508,-27010.418,-21482.383,-23304.77
1226897.4790739527,-98842.0,-118975.836,-29459.596,-24482.91,-28311.035,-27013.877,-21471.924,-23268.637
1226897.4830739498,-98834.19,-118973.68,-29464.355,-24479.004,-28309.408,-27015.342,-21475.22,-23248.129
1226897.487073947,-98849.81,-118986.49,-29462.2,-24479.86,-28302.979,-27014.812,-21491.904,-23280.396
1226897.4910739441,-98860.555,-118994.23,-29456.951,-24482.627,-28296.387,-27014.73,-21503.012,-23320.8
1226897.4950739413,-98854.82,-118987.47,-29456.016,-24482.83,-28296.957,-27014.404,-21484.824,-23311.076
1226897.4990739385,-98837.445,-118971.64,-29461.63,-24481.445,-28304.729,-27017.498,-21467.652,-23268.148
1226897.5030739356,-98832.97,-118972.3,-29466.92,-24478.354,-28303.916,-27019.572,-21469.727,-23252.238
1226897.5070739328,-98848.31,-118986.74,-29463.746,-24478.72,-28299.44,-27016.562,-21484.742,-23281.943
1226897.51107393,-98866.664,-119001.55,-29457.357,-24482.3,-28299.805,-27012.207,-21490.967,-23307.373
1226897.5150739271,-98863.81,-118997.93,-29456.055,-24485.271,-28306.764,-27010.662,-21476.115,-23291.504
1226897.5190739243,-98843.1,-118980.96,-29457.031,-24480.307,-28311.2,-27014.812,-21463.217,-23257.691
1226897.5230739214,-98840.5,-118980.266,-29459.84,-24478.027,-28309.367,-27017.375,-21469.646,-23251.914
1226897.5270739186,-98862.43,-119001.836,-29458.781,-24479.492,-28305.34,-27016.033,-21490.195,-23280.518
1226897.5310739158,-98880.375,-119012.78,-29451.172,-24483.887,-28303.875,-27011.436,-21496.746,-23304.77
1226897.535073913,-98870.734,-118998.984,-29443.564,-24483.887,-28310.914,-27009.115,-21481.486,-23301.84
1226897.53907391,-98849.86,-118987.43,-29440.47,-24480.062,-28314.414,-27011.354,-21465.7,-23277.793
1226897.5430739073,-98843.55,-118984.54,-29442.22,-24475.547,-28303.996,-27010.742,-21468.994,-23267.62
1226897.5470739044,-98862.35,-118994.914,-29439.982,-24477.703,-28300.781,-27008.057,-21482.627,-23289.795
1226897.5510739016,-98882.2,-119009.12,-29431.967,-24483.969,-28303.508,-27005.982,-21488.201,-23320.639
1226897.5550738988,-98879.48,-119005.82,-29425.457,-24484.62,-28312.42,-27006.227,-21475.709,-23311.523
1226897.559073896,-98860.15,-118989.95,-29425.293,-24478.354,-28313.6,-27010.092,-21461.02,-23269.695
1226897.563073893,-98851.36,-118985.88,-29425.945,-24472.738,-28310.467,-27011.883,-21465.088,-23256.47
1226897.5670738902,-98865.805,-118998.375,-29421.469,-24474.691,-28306.967,-27010.498,-21484.863,-23285.523
1226897.5710738874,-98883.1,-119014.81,-29415.488,-24480.266,-28310.426,-27007.812,-21493.408,-23311.484
1226897.5750738846,-98880.86,-119008.79,-29413.25,-24481.568,-28316.406,-27005.78,-21478.842,-23295.615
1226897.5790738817,-98866.414,-118993.414,-29418.621,-24478.72,-28320.15,-27008.018,-21463.135,-23252.93
1226897.583073879,-98861.05,-118994.8,-29424.684,-24477.783,-28319.621,-27008.668,-21463.34,-23229.004
1226897.587073876,-98871.914,-119004.766,-29424.033,-24477.215,-28309.45,-27005.371,-21481.201,-23265.951
1226897.5910738732,-98886.31,-119012.13,-29422.568,-24480.021,-28305.217,-27005.291,-21494.752,-23321.574
1226897.5950738704,-98878.22,-119004.234,-29421.63,-24481.283,-28308.066,-27003.053,-21479.127,-23315.594
1226897.5990738675,-98858.65,-118987.72,-29425.498,-24476.768,-28312.988,-27002.605,-21460.857,-23268.922
1226897.6030738647,-98852.945,-118990.234,-29430.705,-24473.633,-28314.861,-27005.006,-21465.129,-23257.0
1226897.6070738619,-98870.12,-119003.34,-29430.137,-24473.553,-28308.146,-27004.844,-21483.277,-23279.379
1226897.611073859,-98880.086,-119007.86,-29425.375,-24477.174,-28306.967,-27003.826,-21489.178,-23306.234
1226897.6150738562,-98871.95,-119001.02,-29421.469,-24479.736,-28313.273,-27003.459,-21477.133,-23296.998
1226897.6190738534,-98859.5,-118990.52,-29428.387,-24477.215,-28318.645,-27008.383,-21469.117,-23263.795
1226897.6230738503,-98859.09,-118990.93,-29432.658,-24474.326,-28319.58,-27013.184,-21479.941,-23260.906
1226897.6270738475,-98878.016,-119007.25,-29431.846,-24475.791,-28315.146,-27013.592,-21501.1,-23294.395
1226897.6310738446,-98894.62,-119017.17,-29426.514,-24481.69,-28314.17,-27012.371,-21513.55,-23326.986
1226897.6350738418,-98887.82,-119012.13,-29425.01,-24482.178,-28322.715,-27012.98,-21503.662,-23319.988
1226897.639073839,-98872.48,-119003.09,-29429.281,-24479.86,-28329.55,-27018.31,-21493.002,-23285.238
1226897.643073836,-98870.57,-119006.02,-29432.617,-24477.621,-28327.312,-27017.295,-21495.322,-23267.09
1226897.6470738333,-98883.914,-119021.57,-29432.21,-24480.754,-28325.44,-27012.9,-21511.924,-23295.086
1226897.6510738304,-98896.04,-119030.84,-29428.346,-24485.352,-28322.55,-27012.533,-21520.346,-23335.002
1226897.6550738276,-98884.56,-119017.58,-29426.31,-24485.434,-28324.79,-27013.957,-21504.395,-23318.727
1226897.6590738248,-98865.234,-119003.055,-29427.898,-24479.9,-28328.492,-27016.154,-21488.852,-23275.432
1226897.663073822,-98864.83,-119004.88,-29431.234,-24477.54,-28328.94,-27019.816,-21494.834,-23272.299
1226897.667073819,-98882.94,-119018.15,-29429.12,-24477.865,-28319.947,-27018.148,-21513.348,-23299.072
1226897.6710738163,-98900.31,-119031.87,-29424.44,-24482.26,-28320.842,-27014.648,-21519.248,-23321.006
1226897.6750738134,-98898.234,-119026.25,-29424.316,-24486.37,-28327.598,-27011.191,-21503.379,-23303.264
1226897.6790738106,-98880.05,-119010.7,-29424.725,-24479.941,-28330.975,-27015.3,-21492.31,-23274.7
1226897.6830738077,-98877.73,-119013.516,-29425.986,-24476.604,-28331.178,-27019.736,-21499.717,-23270.916
1226897.687073805,-98892.984,-119028.164,-29422.363,-24479.533,-28328.533,-27019.94,-21517.295,-23297.201
1226897.691073802,-98904.914,-119037.766,-29413.697,-24485.393,-28327.719,-27018.271,-21526.734,-23330.283
1226897.6950737992,-98899.21,-119021.37,-29407.92,-24486.736,-28338.096,-27020.469,-21518.393,-23333.537
1226897.6990737964,-98881.06,-119006.27,-29410.28,-24483.684,-28340.293,-27024.21,-21509.889,-23303.06
1226897.7030737936,-98881.19,-119009.85,-29412.314,-24480.674,-28335.246,-27025.514,-21516.521,-23293.742
1226897.7070737907,-98898.195,-119026.21,-29410.93,-24482.139,-28333.213,-27027.182,-21536.5,-23323.527
1226897.7110737879,-98911.99,-119036.5,-29406.943,-24488.486,-28338.299,-27029.217,-21543.01,-23349.854
1226897.715073785,-98904.18,-119030.84,-29403.443,-24490.398,-28345.744,-27031.738,-21527.264,-23332.398
1226897.7190737822,-98887.414,-119016.484,-29404.582,-24485.719,-28346.152,-27035.523,-21513.55,-23301.23
1226897.7230737794,-98882.53,-119017.22,-29406.7,-24482.871,-28346.924,-27039.43,-21521.445,-23298.463
1226897.7270737765,-98898.08,-119032.555,-29403.281,-24483.684,-28348.064,-27042.197,-21544.678,-23327.068
1226897.7310737737,-98914.43,-119043.54,-29395.957,-24489.178,-28349.041,-27047.648,-21558.473,-23356.406
1226897.7350737709,-98909.55,-119037.11,-29392.172,-24492.555,-28358.074,-27052.246,-21547.363,-23353.598
1226897.739073768,-98899.09,-119029.99,-29399.252,-24489.666,-28365.967,-27057.984,-21536.703,-23323.203
1226897.7430737652,-98899.055,-119032.27,-29404.42,-24486.777,-28370.24,-27063.64,-21545.371,-23318.768
1226897.7470737624,-98905.93,-119038.45,-29399.578,-24487.184,-28359.457,-27063.6,-21565.797,-23355.186
1226897.7510737595,-98923.18,-119046.92,-29395.508,-24493.693,-28358.928,-27062.379,-21573.936,-23384.97
1226897.7550737567,-98920.49,-119043.09,-29393.475,-24497.111,-28370.2,-27065.594,-21562.826,-23379.355
1226897.7590737538,-98904.83,-119039.555,-29396.24,-24495.281,-28378.541,-27069.58,-21546.387,-23345.785
1226897.763073751,-98898.84,-119043.336,-29398.846,-24492.555,-28375.693,-27072.266,-21554.322,-23340.088
1226897.767073748,-98909.18,-119047.29,-29392.742,-24494.102,-28371.055,-27072.389,-21575.48,-23370.24
1226897.771073745,-98920.74,-119047.49,-29389.121,-24498.373,-28371.95,-27072.186,-21583.334,-23393.352
1226897.7750737423,-98907.07,-119027.96,-29386.598,-24499.717,-28380.332,-27074.912,-21570.312,-23381.918
1226897.7790737394,-98903.484,-119019.414,-29398.56,-24499.39,-28386.8,-27079.346,-21559.326,-23350.75
1226897.7830737366,-98913.01,-119036.95,-29407.635,-24499.553,-28385.783,-27082.805,-21568.482,-23347.617
1226897.7870737338,-98915.695,-119044.07,-29403.037,-24500.082,-28380.127,-27085.816,-21591.432,-23379.477
1226897.791073731,-98924.65,-119048.06,-29395.916,-24504.965,-28382.203,-27089.967,-21600.506,-23406.332
1226897.795073728,-98925.26,-119054.53,-29392.254,-24509.318,-28390.992,-27092.938,-21584.555,-23396.69
1226897.7990737252,-98908.734,-119043.586,-29396.973,-24506.959,-28397.46,-27095.664,-21569.662,-23362.793
1226897.8030737224,-98906.01,-119044.44,-29399.863,-24504.03,-28398.479,-27099.895,-21577.271,-23356.812
1226897.8070737196,-98930.71,-119064.54,-29397.95,-24507.447,-28395.875,-27102.418,-21597.25,-23384.318
1226897.8110737167,-98951.5,-119075.41,-29394.207,-24512.207,-28395.63,-27107.383,-21605.307,-23411.541
1226897.815073714,-98948.9,-119068.484,-29393.76,-24514.73,-28404.502,-27108.928,-21589.316,-23396.363
1226897.819073711,-98939.7,-119059.695,-29404.502,-24516.113,-28411.377,-27113.242,-21577.434,-23361.248
1226897.8230737082,-98946.91,-119066.33,-29412.11,-24515.219,-28414.307,-27118.49,-21587.77,-23365.357
1226897.8270737054,-98956.83,-119078.62,-29405.479,-24515.422,-28410.197,-27120.85,-21609.375,-23403.932
1226897.8310737025,-98959.64,-119080.53,-29397.828,-24518.555,-28406.861,-27121.867,-21620.484,-23433.96
1226897.8350736997,-98949.14,-119068.28,-29397.258,-24520.713,-28413.127,-27125.855,-21609.701,-23414.959
1226897.8390736969,-98945.68,-119063.69,-29404.705,-24518.719,-28422.486,-27131.836,-21601.93,-23385.254
