timestamp,Fp1,Fp2,F3,Fz,F4,Cz,Pz,Oz
1226960.0150295007,-103671.516,-120530.89,-27031.7,-26977.5,-36322.184,-30630.25,-22001.873,-19002.4
1226960.0190294979,-103665.81,-120530.32,-27031.738,-26977.947,-36315.555,-30626.303,-22000.0,-19014.12
1226960.023029495,-103688.27,-120550.26,-27033.855,-26987.549,-36315.145,-30625.977,-22024.455,-19056.844
1226960.0270294922,-103693.484,-120550.91,-27035.605,-26990.805,-36321.695,-30631.064,-22039.268,-19071.736
1226960.0310294894,-103668.17,-120526.21,-27034.262,-26985.434,-36325.195,-30636.842,-22025.39,-19025.31
1226960.0350294865,-103640.875,-120500.94,-27032.838,-26980.957,-36323.203,-30638.795,-22005.9,-18985.88
1226960.0390294837,-103637.66,-120494.875,-27035.85,-26980.633,-36318.44,-30635.133,-22003.135,-18994.67
1226960.0430294808,-103653.37,-120509.36,-27039.145,-26988.607,-36325.24,-30631.797,-22023.56,-19037.354
1226960.047029478,-103662.16,-120509.56,-27040.691,-26995.117,-36330.12,-30635.498,-22037.273,-19058.025
1226960.0510294752,-103632.98,-120477.22,-27039.307,-26990.031,-36327.477,-30643.678,-22026.652,-19033.244
1226960.0550294723,-103589.93,-120443.41,-27036.377,-26981.121,-36321.453,-30648.479,-22006.877,-18993.367
1226960.0590294695,-103584.805,-120437.87,-27036.418,-26981.406,-36315.227,-30645.713,-22008.627,-18999.105
1226960.0630294667,-103598.72,-120447.06,-27039.145,-26988.975,-36318.766,-30642.62,-22035.4,-19051.96
1226960.0670294638,-103600.67,-120443.41,-27041.953,-26992.84,-36320.027,-30643.84,-22051.19,-19064.941
1226960.071029461,-103571.82,-120418.016,-27041.748,-26987.06,-36323.406,-30649.252,-22037.395,-19029.217
1226960.0750294582,-103521.89,-120374.555,-27035.809,-26976.97,-36315.31,-30651.367,-22014.404,-19003.621
1226960.0790294553,-103508.47,-120358.16,-27035.197,-26976.97,-36306.64,-30646.12,-22010.783,-19010.213
1226960.0830294525,-103528.28,-120372.16,-27037.03,-26984.416,-36310.06,-30640.057,-22023.438,-19027.14
1226960.0870294496,-103527.51,-120372.93,-27039.186,-26989.299,-36313.883,-30641.398,-22035.156,-19032.309
1226960.0910294466,-103501.34,-120346.73,-27041.465,-26985.596,-36317.02,-30650.31,-22028.402,-19020.264
1226960.0950294437,-103472.13,-120319.625,-27041.383,-26978.11,-36313.316,-30655.273,-22010.295,-18998.494
1226960.099029441,-103473.88,-120324.266,-27042.48,-26980.062,-36307.984,-30649.984,-22006.674,-18990.805
1226960.103029438,-103501.02,-120342.37,-27045.29,-26987.549,-36309.043,-30644.531,-22027.955,-19031.658
1226960.1070294352,-103512.54,-120346.56,-27047.363,-26991.943,-36316.57,-30647.87,-22046.104,-19064.576
1226960.1110294324,-103491.74,-120324.18,-27048.545,-26985.434,-36319.215,-30653.443,-22033.896,-19021.607
1226960.1150294296,-103469.57,-120305.55,-27049.113,-26978.395,-36312.055,-30652.914,-22006.715,-18973.023
1226960.1190294267,-103478.56,-120313.97,-27052.49,-26981.283,-36307.332,-30646.404,-22001.791,-18975.668
1226960.1230294239,-103509.61,-120341.92,-27055.217,-26990.723,-36310.75,-30638.877,-22018.393,-19007.854
1226960.127029421,-103532.76,-120362.516,-27060.832,-26996.787,-36313.113,-30635.986,-22027.1,-19009.604
1226960.1310294182,-103517.3,-120352.18,-27063.232,-26991.008,-36315.31,-30641.318,-22011.475,-18968.385
1226960.1350294154,-103494.14,-120335.01,-27062.826,-26984.336,-36315.758,-30642.742,-21989.258,-18953.125
1226960.1390294125,-103501.1,-120345.055,-27066.53,-26987.184,-36312.543,-30636.475,-21985.23,-18967.53
1226960.1430294097,-103542.93,-120381.516,-27077.068,-26996.826,-36316.773,-30633.383,-22003.662,-19000.691
1226960.1470294069,-103564.54,-120397.71,-27081.951,-27001.75,-36321.535,-30635.54,-22014.527,-19014.648
1226960.151029404,-103546.76,-120381.02,-27085.938,-26996.094,-36319.95,-30639.527,-21999.39,-18981.934
1226960.1550294012,-103528.04,-120369.71,-27085.613,-26988.201,-36317.426,-30640.016,-21975.139,-18941.53
1226960.1590293983,-103541.305,-120384.24,-27090.82,-26991.74,-36315.27,-30636.312,-21970.379,-18940.023
1226960.1630293955,-103572.19,-120408.57,-27096.03,-27001.588,-36317.547,-30631.348,-21988.037,-18966.146
1226960.1670293927,-103586.67,-120417.24,-27097.291,-27005.047,-36322.145,-30632.691,-21998.129,-18980.348
1226960.1710293898,-103569.016,-120398.56,-27097.738,-26998.861,-36323.773,-30636.354,-21981.242,-18949.83
1226960.175029387,-103551.31,-120386.64,-27098.838,-26993.652,-36319.95,-30635.824,-21954.143,-18905.559
1226960.1790293842,-103563.4,-120397.38,-27100.83,-26995.932,-36314.984,-30630.168,-21951.621,-18905.477
1226960.1830293813,-103601.61,-120432.58,-27107.016,-27006.145,-36318.81,-30626.344,-21971.64,-18939.332
1226960.1870293785,-103624.23,-120455.9,-27114.502,-27013.916,-36329.59,-30629.559,-21986.004,-18959.88
1226960.1910293757,-103607.71,-120441.05,-27117.188,-27007.854,-36330.895,-30635.947,-21975.383,-18935.182
1226960.1950293728,-103586.23,-120422.04,-27117.432,-27002.035,-36326.742,-30638.877,-21952.678,-18909.465
1226960.19902937,-103595.34,-120429.69,-27119.834,-27004.68,-36323.895,-30632.406,-21944.5,-18913.777
1226960.2030293671,-103628.586,-120455.65,-27125.652,-27013.062,-36326.62,-30628.662,-21968.994,-18955.852
1226960.2070293643,-103640.914,-120468.266,-27127.97,-27018.596,-36332.684,-30630.656,-21988.81,-18981.08
1226960.2110293615,-103618.86,-120450.97,-27126.344,-27012.656,-36336.875,-30636.639,-21973.633,-18946.086
1226960.2150293586,-103602.38,-120436.0,-27126.018,-27006.592,-36337.973,-30637.777,-21949.139,-18909.383
1226960.2190293558,-103616.5,-120447.02,-27131.633,-27008.506,-36331.746,-30633.3,-21946.25,-18910.768
1226960.223029353,-103644.94,-120472.74,-27136.516,-27017.254,-36334.473,-30630.332,-21966.838,-18943.035
1226960.2270293501,-103660.32,-120482.836,-27139.934,-27022.422,-36343.793,-30630.982,-21974.244,-18952.596
1226960.2310293473,-103641.766,-120463.75,-27139.324,-27019.248,-36347.7,-30636.516,-21959.596,-18915.242
1226960.2350293442,-103620.57,-120449.43,-27138.633,-27013.145,-36342.53,-30635.54,-21936.809,-18891.643
1226960.2390293414,-103630.58,-120459.555,-27141.887,-27014.854,-36338.016,-30629.639,-21932.984,-18891.357
1226960.2430293385,-103660.32,-120485.31,-27145.875,-27024.049,-36337.73,-30627.197,-21946.25,-18891.277
1226960.2470293357,-103674.28,-120492.07,-27149.13,-27027.182,-36340.293,-30631.348,-21957.236,-18905.926
1226960.2510293329,-103651.21,-120473.07,-27149.62,-27019.775,-36343.02,-30640.545,-21952.148,-18921.957
1226960.25502933,-103627.445,-120454.59,-27150.025,-27014.365,-36340.293,-30645.63,-21937.217,-18907.146
1226960.2590293272,-103634.89,-120463.625,-27153.402,-27020.184,-36338.582,-30641.887,-21939.576,-18908.244
1226960.2630293244,-103663.49,-120489.22,-27155.314,-27029.42,-36343.14,-30636.76,-21959.434,-18929.688
1226960.2670293215,-103676.6,-120501.8,-27155.518,-27031.414,-36352.742,-30639.121,-21967.367,-18919.19
1226960.2710293187,-103658.94,-120489.26,-27153.24,-27026.002,-36360.68,-30647.787,-21953.695,-18876.629
1226960.2750293158,-103639.734,-120472.45,-27149.17,-27021.24,-36356.285,-30651.734,-21936.484,-18875.57
1226960.279029313,-103650.68,-120480.836,-27147.705,-27024.496,-36351.766,-30647.137,-21942.139,-18905.477
1226960.2830293102,-103680.586,-120506.15,-27151.45,-27033.936,-36354.25,-30643.148,-21968.873,-18937.459
1226960.2870293073,-103697.67,-120516.69,-27156.291,-27039.55,-36361.574,-30644.654,-21983.725,-18949.871
1226960.2910293045,-103678.555,-120503.99,-27156.455,-27034.344,-36366.66,-30649.984,-21968.547,-18919.354
1226960.2950293017,-103659.55,-120495.08,-27153.89,-27030.396,-36364.664,-30650.27,-21947.715,-18891.969
1226960.2990292988,-103677.164,-120510.625,-27154.176,-27033.936,-36363.566,-30647.217,-21948.895,-18900.799
1226960.303029296,-103707.234,-120534.51,-27154.176,-27040.895,-36368.777,-30644.695,-21969.035,-18935.75
1226960.3070292932,-103720.26,-120542.61,-27152.182,-27044.922,-36373.863,-30648.031,-21979.941,-18960.002
1226960.3110292903,-103696.86,-120527.914,-27151.123,-27038.697,-36375.69,-30654.908,-21965.902,-18932.293
1226960.3150292875,-103673.75,-120510.95,-27149.414,-27033.041,-36368.777,-30657.756,-21946.738,-18906.047
1226960.3190292846,-103684.57,-120521.61,-27149.496,-27035.523,-36364.586,-30650.229,-21948.568,-18920.451
1226960.3230292818,-103718.43,-120554.37,-27152.264,-27046.754,-36372.64,-30645.672,-21971.559,-18955.404
1226960.327029279,-103731.125,-120562.625,-27152.629,-27053.59,-36378.336,-30649.09,-21988.281,-18975.506
1226960.3310292761,-103708.7,-120545.17,-27153.688,-27048.584,-36383.504,-30656.373,-21974.365,-18933.105
1226960.3350292733,-103687.42,-120529.625,-27153.564,-27042.848,-36379.56,-30657.635,-21950.969,-18898.602
1226960.3390292705,-103695.84,-120533.086,-27153.443,-27044.639,-36376.223,-30651.896,-21951.742,-18924.928
1226960.3430292676,-103723.63,-120555.26,-27153.932,-27053.264,-36381.105,-30647.828,-21975.994,-18967.938
1226960.3470292648,-103730.555,-120560.34,-27151.246,-27056.602,-36387.168,-30649.578,-21988.566,-18976.93
1226960.351029262,-103706.51,-120540.37,-27148.398,-27051.19,-36390.625,-30655.762,-21976.28,-18938.07
1226960.355029259,-103683.35,-120519.695,-27143.271,-27045.045,-36384.645,-30655.234,-21954.307,-18908.0
1226960.3590292563,-103689.05,-120528.77,-27139.934,-27047.363,-36382.082,-30650.39,-21957.56,-18928.67
1226960.3630292534,-103717.66,-120559.125,-27138.957,-27055.664,-36387.695,-30647.055,-21979.615,-18970.174
1226960.3670292506,-103729.82,-120572.15,-27132.0,-27059.408,-36392.58,-30648.682,-21991.984,-18981.648
1226960.3710292478,-103712.28,-120554.164,-27127.361,-27054.443,-36394.168,-30652.71,-21978.11,-18942.75
1226960.375029245,-103688.4,-120534.55,-27122.885,-27049.113,-36389.16,-30654.46,-21955.404,-18901.611
1226960.3790292419,-103696.91,-120542.41,-27119.955,-27049.44,-36383.383,-30651.043,-21958.049,-18918.945
1226960.383029239,-103722.3,-120567.34,-27116.049,-27055.664,-36388.59,-30648.643,-21985.434,-18973.186
1226960.3870292362,-103731.98,-120571.74,-27110.027,-27059.49,-36393.68,-30651.205,-22001.1,-18987.63
1226960.3910292333,-103708.83,-120550.91,-27104.086,-27052.654,-36397.055,-30655.355,-21986.207,-18948.527
1226960.3950292305,-103682.46,-120527.23,-27096.924,-27044.678,-36392.496,-30653.932,-21957.764,-18902.426
1226960.3990292277,-103684.66,-120529.87,-27089.193,-27045.533,-36387.29,-30648.682,-21956.299,-18914.145
1226960.4030292248,-103708.3,-120548.47,-27082.846,-27054.443,-36392.945,-30641.236,-21975.465,-18952.557
1226960.407029222,-103717.29,-120547.125,-27077.434,-27058.758,-36398.277,-30640.586,-21982.3,-18958.984
1226960.4110292192,-103694.625,-120524.945,-27073.73,-27051.88,-36401.816,-30646.607,-21969.688,-18921.143
1226960.4150292163,-103674.16,-120507.45,-27071.086,-27044.842,-36397.176,-30648.926,-21949.342,-18883.627
1226960.4190292135,-103681.93,-120515.55,-27069.092,-27045.94,-36394.86,-30644.37,-21952.475,-18907.512
1226960.4230292107,-103709.72,-120536.95,-27065.838,-27054.607,-36398.03,-30639.893,-21972.373,-18948.121
1226960.4270292078,-103718.875,-120543.5,-27063.518,-27058.35,-36404.664,-30640.83,-21980.998,-18948.527
1226960.431029205,-103698.445,-120525.03,-27060.385,-27052.246,-36402.957,-30646.607,-21966.025,-18902.223
1226960.4350292021,-103675.58,-120502.0,-27057.578,-27044.516,-36395.426,-30646.648,-21939.453,-18867.514
1226960.4390291993,-103682.87,-120509.61,-27054.281,-27046.021,-36391.44,-30636.475,-21935.832,-18879.924
1226960.4430291965,-103710.984,-120531.17,-27052.654,-27052.857,-36395.754,-30632.08,-21958.252,-18920.654
1226960.4470291936,-103720.55,-120536.586,-27054.443,-27056.031,-36400.105,-30636.15,-21974.936,-18936.932
1226960.4510291908,-103701.74,-120519.49,-27057.334,-27052.207,-36402.914,-30642.822,-21963.258,-18892.537
1226960.455029188,-103676.03,-120496.09,-27054.688,-27044.516,-36396.363,-30642.375,-21935.629,-18844.89
1226960.4590291851,-103680.09,-120496.586,-27052.084,-27045.86,-36389.363,-30635.824,-21933.676,-18867.555
1226960.4630291823,-103710.734,-120517.42,-27054.281,-27054.12,-36392.17,-30632.285,-21959.434,-18924.031
1226960.4670291794,-103717.695,-120521.77,-27053.387,-27058.27,-36398.97,-30634.033,-21972.291,-18937.42
1226960.4710291766,-103697.555,-120502.89,-27054.729,-27052.979,-36397.867,-30639.934,-21955.69,-18890.666
1226960.4750291738,-103680.55,-120489.22,-27055.258,-27047.771,-36394.29,-30639.975,-21927.734,-18851.848
1226960.479029171,-103694.22,-120500.57,-27054.281,-27052.695,-36391.684,-30635.215,-21928.793,-18875.285
1226960.483029168,-103722.91,-120523.16,-27055.055,-27060.791,-36395.754,-30632.977,-21952.88,-18910.076
1226960.4870291653,-103731.37,-120528.32,-27055.299,-27060.71,-36403.24,-30636.842,-21968.994,-18929.729
1226960.4910291624,-103706.914,-120505.3,-27054.973,-27054.078,-36406.656,-30642.863,-21955.852,-18894.654
1226960.4950291596,-103682.74,-120487.92,-27055.42,-27049.113,-36404.42,-30644.654,-21933.27,-18856.283
1226960.4990291568,-103686.2,-120496.51,-27054.729,-27049.887,-36396.324,-30641.48,-21940.756,-18879.762
1226960.503029154,-103714.97,-120523.73,-27054.037,-27058.35,-36399.58,-30637.371,-21966.92,-18921.875
1226960.507029151,-103726.65,-120532.39,-27053.184,-27061.729,-36408.246,-30638.307,-21975.668,-18918.377
1226960.5110291482,-103703.78,-120509.08,-27055.299,-27055.34,-36410.402,-30643.922,-21957.602,-18885.742
1226960.5150291454,-103680.14,-120488.65,-27053.143,-27048.748,-36404.258,-30643.352,-21934.082,-18863.404
1226960.5190291426,-103691.81,-120499.64,-27055.014,-27051.27,-36399.7,-30635.377,-21936.32,-18875.408
1226960.5230291395,-103717.33,-120524.54,-27059.57,-27059.002,-36401.57,-30630.371,-21958.457,-18909.344
1226960.5270291367,-103725.06,-120531.984,-27059.49,-27062.744,-36409.06,-30634.115,-21971.844,-18924.44
1226960.5310291338,-103701.055,-120511.48,-27055.908,-27053.996,-36407.96,-30639.527,-21958.578,-18892.213
1226960.535029131,-103681.6,-120493.94,-27054.852,-27047.893,-36405.19,-30640.91,-21940.146,-18862.549
1226960.5390291282,-103693.16,-120505.945,-27056.396,-27051.678,-36405.4,-30636.271,-21943.727,-18878.215
1226960.5430291253,-103723.68,-120532.27,-27059.164,-27061.2,-36408.652,-30632.936,-21963.46,-18908.041
1226960.5470291225,-103727.87,-120534.23,-27056.396,-27062.338,-36413.414,-30634.807,-21972.291,-18915.121
1226960.5510291196,-103700.93,-120511.03,-27056.479,-27054.607,-36411.05,-30640.545,-21959.514,-18886.354
1226960.5550291168,-103677.66,-120490.16,-27058.717,-27047.893,-36404.258,-30640.586,-21934.652,-18847.412
1226960.559029114,-103686.41,-120497.28,-27061.2,-27050.457,-36399.82,-30633.75,-21930.787,-18854.94
1226960.5630291111,-103711.875,-120517.945,-27061.973,-27056.846,-36402.06,-30627.076,-21948.975,-18890.584
1226960.5670291083,-103716.27,-120523.12,-27058.799,-27056.846,-36408.367,-30628.623,-21959.352,-18899.373
1226960.5710291055,-103690.63,-120503.3,-27058.105,-27049.48,-36408.855,-30636.557,-21947.307,-18865.887
1226960.5750291026,-103668.055,-120480.23,-27057.008,-27043.54,-36401.207,-30635.54,-21926.637,-18844.809
1226960.5790290998,-103677.29,-120485.88,-27058.146,-27046.021,-36399.496,-30628.297,-21922.975,-18852.947
1226960.583029097,-103701.945,-120508.34,-27057.578,-27053.508,-36400.105,-30622.396,-21937.705,-18873.658
1226960.587029094,-103706.1,-120508.71,-27057.049,-27056.113,-36400.15,-30625.164,-21944.744,-18888.387
1226960.5910290913,-103681.56,-120484.5,-27060.67,-27049.725,-36399.7,-30629.395,-21930.502,-18857.992
1226960.5950290884,-103659.95,-120467.45,-27062.744,-27042.93,-36393.8,-30629.436,-21907.023,-18817.627
1226960.5990290856,-103669.4,-120477.38,-27063.07,-27045.371,-36389.08,-30622.64,-21906.047,-18825.318
1226960.6030290828,-103692.63,-120497.84,-27063.844,-27051.719,-36390.543,-30620.322,-21933.473,-18871.338
1226960.60702908,-103696.86,-120502.0,-27062.664,-27052.734,-36393.555,-30621.787,-21946.168,-18885.662
1226960.611029077,-103675.17,-120482.016,-27067.262,-27046.266,-36395.55,-30628.623,-21935.508,-18849.162
1226960.6150290743,-103654.79,-120466.31,-27069.662,-27040.691,-36392.133,-30628.867,-21915.324,-18819.662
1226960.6190290714,-103662.88,-120474.86,-27069.133,-27043.701,-36385.215,-30622.803,-21914.756,-18831.828
1226960.6230290686,-103691.125,-120496.09,-27069.133,-27052.287,-36388.062,-30618.125,-21936.32,-18865.846
1226960.6270290657,-103702.15,-120501.8,-27073.203,-27054.648,-36395.836,-30618.49,-21943.727,-18867.555
1226960.631029063,-103678.23,-120477.336,-27073.242,-27047.486,-36394.492,-30621.582,-21927.654,-18838.055
1226960.63502906,-103656.25,-120458.26,-27074.668,-27042.033,-36389.65,-30623.82,-21906.902,-18810.914
1226960.6390290572,-103665.24,-120468.19,-27074.18,-27044.678,-36383.79,-30619.305,-21905.111,-18816.65
1226960.6430290544,-103691.164,-120490.805,-27075.645,-27052.654,-36388.633,-30613.281,-21923.992,-18853.23
1226960.6470290516,-103699.42,-120497.6,-27076.092,-27054.893,-36393.92,-30612.713,-21932.617,-18859.822
1226960.6510290487,-103674.56,-120478.195,-27076.701,-27049.766,-36389.934,-30619.67,-21918.092,-18823.854
1226960.6550290459,-103654.83,-120460.414,-27077.312,-27044.271,-36383.344,-30620.729,-21894.166,-18799.928
1226960.659029043,-103665.49,-120471.27,-27076.904,-27049.602,-36383.426,-30615.316,-21889.121,-18808.064
1226960.6630290402,-103694.3,-120497.16,-27077.8,-27058.188,-36387.37,-30610.963,-21905.682,-18839.193
1226960.6670290371,-103700.04,-120497.89,-27080.69,-27062.338,-36391.44,-30612.305,-21915.244,-18853.883
1226960.6710290343,-103672.81,-120474.86,-27079.834,-27053.71,-36392.17,-30618.125,-21899.09,-18811.688
1226960.6750290315,-103651.414,-120456.47,-27081.26,-27046.184,-36387.574,-30617.107,-21876.791,-18781.129
1226960.6790290286,-103666.836,-120470.26,-27086.467,-27051.393,-36384.645,-30609.092,-21877.28,-18812.379
1226960.6830290258,-103694.5,-120494.875,-27089.234,-27059.979,-36388.67,-30604.127,-21897.137,-18842.205
1226960.687029023,-103702.68,-120497.03,-27091.105,-27062.623,-36392.293,-30608.154,-21909.994,-18847.412
1226960.6910290201,-103677.82,-120473.31,-27092.896,-27056.479,-36392.54,-30614.258,-21896.24,-18807.82
1226960.6950290173,-103657.39,-120455.0,-27092.123,-27048.992,-36385.457,-30616.416,-21878.623,-18799.113
1226960.6990290144,-103670.49,-120464.195,-27091.146,-27051.555,-36380.047,-30611.736,-21882.65,-18824.748
1226960.7030290116,-103694.22,-120489.18,-27096.314,-27059.123,-36384.36,-30607.586,-21904.705,-18856.365
1226960.7070290088,-103701.46,-120494.43,-27101.604,-27062.094,-36390.83,-30611.41,-21916.342,-18861.248
1226960.711029006,-103678.71,-120469.2,-27104.574,-27055.096,-36389.445,-30621.217,-21905.152,-18830.12
1226960.715029003,-103662.6,-120452.97,-27105.186,-27048.3,-36386.312,-30623.902,-21887.045,-18804.484
1226960.7190290003,-103674.89,-120463.99,-27105.348,-27051.434,-36379.965,-30616.822,-21884.97,-18808.676
1226960.7230289974,-103701.42,-120490.195,-27108.154,-27060.385,-36383.098,-30613.81,-21908.611,-18853.924
1226960.7270289946,-103708.17,-120498.74,-27110.434,-27065.39,-36393.11,-30615.928,-21920.777,-18863.77
1226960.7310289918,-103686.0,-120478.97,-27112.51,-27060.629,-36394.816,-30621.867,-21902.549,-18820.312
1226960.735028989,-103664.88,-120461.305,-27113.975,-27053.916,-36388.43,-30623.455,-21881.104,-18790.65
1226960.739028986,-103676.84,-120470.34,-27116.252,-27057.049,-36383.63,-30617.717,-21880.941,-18793.336
1226960.7430289832,-103706.51,-120495.445,-27120.729,-27065.512,-36389.61,-30615.684,-21904.014,-18826.05
1226960.7470289804,-103717.49,-120502.77,-27124.676,-27068.93,-36397.543,-30620.361,-21921.428,-18859.213
1226960.7510289776,-103693.484,-120484.99,-27126.67,-27060.955,-36396.402,-30624.188,-21908.936,-18820.271
1226960.7550289747,-103670.21,-120466.88,-27126.994,-27055.584,-36389.445,-30621.338,-21886.312,-18789.43
1226960.759028972,-103684.05,-120478.36,-27129.68,-27060.67,-36387.25,-30614.463,-21886.963,-18806.152
1226960.763028969,-103713.83,-120500.45,-27134.482,-27070.03,-36388.918,-30610.475,-21911.418,-18862.305
1226960.7670289662,-103717.82,-120502.2,-27132.854,-27072.021,-36393.027,-30612.549,-21921.875,-18884.236
1226960.7710289634,-103692.266,-120480.43,-27134.318,-27064.494,-36396.73,-30620.81,-21909.18,-18841.92
1226960.7750289605,-103672.57,-120467.414,-27137.207,-27058.066,-36389.406,-30619.955,-21887.29,-18802.654
1226960.7790289577,-103690.07,-120486.62,-27139.527,-27063.965,-36391.52,-30617.148,-21891.846,-18817.383
1226960.7830289549,-103717.695,-120510.3,-27142.375,-27073.121,-36400.39,-30610.88,-21909.832,-18853.8
1226960.787028952,-103723.48,-120512.21,-27142.13,-27075.969,-36406.414,-30614.299,-21918.906,-18856.893
1226960.7910289492,-103700.52,-120493.9,-27144.043,-27069.703,-36408.12,-30621.867,-21905.518,-18817.303
1226960.7950289464,-103684.57,-120482.06,-27145.549,-27063.232,-36402.184,-30623.414,-21885.54,-18789.715
1226960.7990289435,-103696.54,-120492.03,-27145.428,-27066.406,-36399.375,-30620.361,-21891.154,-18816.895
1226960.8030289407,-103724.0,-120516.04,-27146.484,-27073.61,-36401.938,-30618.125,-21914.836,-18857.098
1226960.8070289376,-103731.04,-120519.86,-27149.334,-27076.986,-36407.797,-30621.014,-21924.195,-18859.416
1226960.8110289348,-103703.25,-120494.305,-27149.984,-27068.156,-36406.414,-30627.85,-21909.465,-18811.727
1226960.815028932,-103679.61,-120476.08,-27148.398,-27061.158,-36401.613,-30628.744,-21886.76,-18765.748
1226960.819028929,-103692.266,-120488.77,-27149.496,-27064.941,-36398.562,-30622.193,-21884.441,-18774.334
1226960.8230289263,-103717.82,-120510.016,-27151.652,-27074.3,-36401.125,-30619.385,-21908.53,-18828.572
1226960.8270289234,-103720.664,-120512.62,-27151.408,-27074.424,-36405.844,-30622.559,-21921.592,-18852.174
1226960.8310289206,-103694.54,-120492.44,-27151.896,-27065.797,-36407.633,-30628.379,-21907.309,-18813.232
1226960.8350289178,-103672.734,-120474.86,-27149.09,-27059.164,-36401.734,-30628.5,-21889.934,-18809.49
1226960.839028915,-103682.09,-120481.33,-27144.857,-27062.135,-36398.234,-30622.844,-21892.783,-18835.205
1226960.843028912,-103707.85,-120502.69,-27143.84,-27069.256,-36404.38,-30618.084,-21911.5,-18855.307
1226960.8470289093,-103710.695,-120504.12,-27141.48,-27069.662,-36409.75,-30621.582,-21919.639,-18852.377
1226960.8510289064,-103682.336,-120478.48,-27139.771,-27060.996,-36405.844,-30628.906,-21902.467,-18814.982
1226960.8550289036,-103663.78,-120463.1,-27141.807,-27056.396,-36401.125,-30630.25,-21880.86,-18779.582
1226960.8590289007,-103676.68,-120476.98,-27142.375,-27060.303,-36396.61,-30622.844,-21880.82,-18791.992
1226960.863028898,-103707.65,-120502.0,-27146.16,-27070.72,-36402.223,-30619.955,-21901.246,-18826.254
1226960.867028895,-103717.125,-120507.57,-27149.74,-27073.324,-36408.938,-30623.332,-21914.227,-18831.951
1226960.8710288922,-103695.03,-120488.9,-27151.979,-27066.611,-36409.87,-30628.826,-21899.7,-18795.533
1226960.8750288894,-103676.72,-120474.98,-27151.49,-27061.973,-36406.78,-30630.209,-21880.941,-18771.932
1226960.8790288866,-103692.47,-120486.414,-27149.943,-27064.414,-36401.773,-30627.158,-21888.062,-18796.307
1226960.8830288837,-103718.914,-120506.35,-27151.979,-27070.924,-36402.67,-30625.205,-21910.035,-18833.375
1226960.8870288809,-103719.52,-120503.09,-27148.643,-27070.598,-36405.68,-30625.693,-21914.592,-18840.78
1226960.891028878,-103691.9,-120478.16,-27148.193,-27061.24,-36403.035,-30632.568,-21897.828,-18798.787
1226960.8950288752,-103672.37,-120462.41,-27148.52,-27056.152,-36399.7,-30634.115,-21878.662,-18763.184
1226960.8990288724,-103688.56,-120473.19,-27150.514,-27060.467,-36397.46,-30629.559,-21879.965,-18777.629
1226960.9030288695,-103714.84,-120493.29,-27148.887,-27068.523,-36394.125,-30625.488,-21899.7,-18808.838
1226960.9070288667,-103718.95,-120495.94,-27146.69,-27068.97,-36398.48,-30626.018,-21906.414,-18806.438
1226960.9110288639,-103694.016,-120476.69,-27145.02,-27062.664,-36400.473,-30633.424,-21895.63,-18783.447
1226960.915028861,-103673.55,-120460.17,-27143.393,-27058.35,-36393.598,-30634.604,-21879.924,-18764.812
1226960.9190288582,-103683.59,-120471.27,-27143.352,-27061.768,-36389.406,-30627.686,-21882.691,-18774.414
1226960.9230288554,-103707.234,-120494.63,-27144.328,-27069.541,-36392.293,-30623.617,-21901.572,-18806.885
1226960.9270288525,-103711.47,-120496.71,-27144.166,-27071.9,-36399.617,-30625.977,-21912.354,-18819.947
1226960.9310288497,-103682.05,-120467.25,-27143.719,-27062.867,-36396.65,-30635.01,-21899.902,-18792.195
1226960.9350288468,-103660.0,-120446.78,-27142.498,-27056.64,-36388.266,-30632.65,-21876.953,-18756.959
1226960.939028844,-103673.055,-120460.414,-27141.684,-27060.059,-36386.273,-30623.332,-21877.197,-18774.578
1226960.9430288412,-103699.71,-120485.195,-27142.822,-27068.97,-36390.34,-30620.117,-21899.17,-18820.232
1226960.9470288383,-103702.72,-120487.92,-27143.719,-27071.494,-36397.504,-30623.332,-21910.4,-18830.566
1226960.9510288353,-103683.8,-120470.7,-27145.346,-27064.414,-36401.125,-30626.629,-21894.898,-18784.668
1226960.9550288324,-103675.26,-120460.29,-27144.207,-27060.264,-36398.48,-30625.977,-21872.193,-18740.193
1226960.9590288296,-103690.836,-120477.5,-27146.973,-27064.576,-36396.812,-30620.973,-21881.43,-18768.799
1226960.9630288268,-103717.37,-120503.22,-27149.822,-27075.074,-36405.64,-30619.873,-21910.97,-18829.021
1226960.967028824,-103718.8,-120500.414,-27145.957,-27074.748,-36407.35,-30623.17,-21918.824,-18832.684
1226960.971028821,-103693.484,-120475.02,-27145.428,-27067.059,-36407.51,-30630.412,-21902.1,-18779.908
1226960.9750288182,-103672.445,-120456.875,-27142.904,-27059.855,-36398.195,-30630.412,-21881.836,-18744.71
1226960.9790288154,-103686.81,-120471.27,-27142.295,-27064.82,-36396.2,-30624.879,-21890.422,-18782.309
1226960.9830288126,-103711.875,-120497.07,-27143.352,-27073.406,-36402.47,-30623.78,-21916.016,-18830.69
1226960.9870288097,-103718.18,-120502.52,-27145.264,-27073.08,-36408.773,-30625.693,-21921.63,-18824.992
1226960.991028807,-103692.55,-120484.26,-27145.387,-27065.268,-36408.61,-30632.568,-21904.95,-18779.541
1226960.995028804,-103672.04,-120468.63,-27147.34,-27062.826,-36406.168,-30634.848,-21889.04,-18758.383
1226960.9990288012,-103686.12,-120478.48,-27149.902,-27069.459,-36400.027,-30628.662,-21892.457,-18774.658
1226961.0030287984,-103710.984,-120499.31,-27151.043,-27078.451,-36401.41,-30622.844,-21912.68,-18812.215
1226961.0070287955,-103712.04,-120496.71,-27152.344,-27079.143,-36408.285,-30625.896,-21921.348,-18816.447
1226961.0110287927,-103683.44,-120473.59,-27151.734,-27070.883,-36406.82,-30635.377,-21906.373,-18776.043
1226961.0150287899,-103664.59,-120461.43,-27147.99,-27065.064,-36401.45,-30635.295,-21884.482,-18744.14
1226961.019028787,-103683.76,-120478.48,-27147.055,-27069.988,-36403.363,-30628.338,-21886.639,-18761.719
1226961.0230287842,-103712.65,-120503.95,-27149.334,-27078.898,-36407.88,-30624.635,-21908.488,-18798.38
1226961.0270287814,-103712.445,-120500.98,-27146.16,-27078.574,-36409.793,-30626.832,-21914.307,-18798.178
1226961.0310287785,-103687.22,-120476.98,-27143.027,-27070.8,-36406.617,-30633.18,-21897.95,-18760.05
1226961.0350287757,-103663.21,-120453.66,-27139.201,-27064.902,-36400.23,-30630.412,-21873.82,-18727.865
1226961.0390287729,-103671.875,-120463.51,-27135.459,-27069.053,-36395.914,-30619.996,-21874.838,-18738.484
1226961.04302877,-103700.32,-120487.59,-27135.215,-27077.8,-36400.027,-30615.398,-21896.934,-18775.473
1226961.0470287672,-103703.62,-120490.93,-27137.492,-27080.12,-36406.332,-30617.432,-21905.762,-18772.46
1226961.0510287643,-103677.82,-120468.55,-27138.021,-27072.186,-36408.977,-30624.268,-21888.877,-18737.549
1226961.0550287615,-103661.5,-120452.234,-27133.953,-27065.227,-36403.81,-30626.67,-21875.652,-18732.137
1226961.0590287587,-103679.41,-120463.26,-27131.674,-27068.564,-36400.27,-30621.217,-21882.406,-18756.186
1226961.0630287558,-103708.26,-120483.445,-27128.662,-27076.213,-36402.75,-30618.164,-21904.053,-18789.186
1226961.067028753,-103712.89,-120485.6,-27125.285,-27077.393,-36406.496,-30622.396,-21915.977,-18795.818
1226961.0710287502,-103688.4,-120467.25,-27122.52,-27070.03,-36406.863,-30632.162,-21901.938,-18752.482
1226961.0750287473,-103668.7,-120450.04,-27114.584,-27064.494,-36398.887,-30630.453,-21879.314,-18723.309
1226961.0790287445,-103684.164,-120462.61,-27108.848,-27069.58,-36400.92,-30624.023,-21886.883,-18764.445
1226961.0830287416,-103711.76,-120484.016,-27109.13,-27078.492,-36407.023,-30619.752,-21908.0,-18800.293
1226961.0870287388,-103710.25,-120480.43,-27106.406,-27078.207,-36411.176,-30621.582,-21913.941,-18788.9
1226961.091028736,-103679.484,-120456.42,-27103.436,-27068.482,-36410.973,-30627.523,-21900.473,-18754.15
1226961.095028733,-103664.23,-120441.164,-27100.547,-27063.355,-36408.0,-30625.855,-21880.656,-18725.22
1226961.09902873,-103684.77,-120459.6,-27099.447,-27068.156,-36405.273,-30618.164,-21883.545,-18741.375
1226961.1030287272,-103715.05,-120485.27,-27098.838,-27078.207,-36407.594,-30613.77,-21903.973,-18775.39
1226961.1070287244,-103716.64,-120484.336,-27096.518,-27078.451,-36415.445,-30613.363,-21907.838,-18776.814
1226961.1110287216,-103683.19,-120457.12,-27093.67,-27069.092,-36414.47,-30618.652,-21890.504,-18742.96
1226961.1150287187,-103663.414,-120445.6,-27092.246,-27063.64,-36412.273,-30619.752,-21867.148,-18704.305
1226961.1190287159,-103676.555,-120460.82,-27091.594,-27068.523,-36408.043,-30613.404,-21871.338,-18718.465
1226961.123028713,-103705.98,-120485.11,-27094.523,-27077.11,-36408.734,-30609.62,-21898.072,-18766.44
1226961.1270287102,-103713.18,-120485.31,-27097.168,-27079.102,-36415.445,-30615.031,-21911.947,-18782.47
1226961.1310287074,-103688.195,-120464.44,-27101.93,-27073.203,-36418.99,-30623.291,-21902.832,-18752.605
1226961.1350287045,-103670.45,-120453.125,-27102.092,-27067.871,-36415.285,-30621.746,-21881.715,-18721.03
1226961.1390287017,-103684.62,-120468.14,-27100.668,-27071.494,-36411.336,-30613.281,-21882.0,-18733.602
1226961.1430286989,-103708.984,-120488.28,-27099.082,-27078.086,-36412.926,-30610.271,-21902.71,-18766.969
1226961.147028696,-103715.13,-120494.39,-27100.465,-27080.16,-36418.742,-30614.463,-21912.273,-18772.34
1226961.1510286932,-103691.29,-120472.5,-27102.906,-27074.463,-36421.754,-30624.146,-21896.16,-18731.648
1226961.1550286904,-103676.88,-120459.555,-27104.453,-27070.068,-36413.453,-30626.22,-21881.145,-18716.146
1226961.1590286875,-103697.02,-120475.914,-27109.375,-27074.83,-36409.465,-30620.646,-21893.799,-18756.268
1226961.1630286847,-103727.664,-120501.06,-27115.846,-27085.125,-36415.49,-30619.467,-21920.451,-18795.857
1226961.1670286818,-103730.875,-120504.52,-27117.88,-27085.938,-36422.363,-30623.047,-21929.973,-18792.969
1226961.171028679,-103701.87,-120479.984,-27118.857,-27077.922,-36421.348,-30629.232,-21916.139,-18753.297
1226961.1750286762,-103687.22,-120468.23,-27119.955,-27074.26,-36419.965,-30630.615,-21899.863,-18735.23
1226961.1790286733,-103705.734,-120486.05,-27122.355,-27079.225,-36421.266,-30625.285,-21907.635,-18762.615
1226961.1830286705,-103736.086,-120508.67,-27122.967,-27088.46,-36426.92,-30621.42,-21931.438,-18803.426
1226961.1870286677,-103741.58,-120510.016,-27122.64,-27089.723,-36433.555,-30626.385,-21937.705,-18804.2
1226961.1910286648,-103715.375,-120486.82,-27122.111,-27081.26,-36432.008,-30633.22,-21919.271,-18758.871
1226961.195028662,-103696.945,-120471.52,-27120.117,-27075.725,-36424.316,-30633.424,-21901.611,-18733.074
1226961.1990286591,-103713.87,-120482.55,-27119.629,-27079.834,-36420.33,-30625.773,-21908.367,-18757.812
1226961.2030286563,-103741.13,-120503.42,-27122.275,-27086.71,-36423.055,-30624.432,-21929.281,-18795.451
1226961.2070286535,-103738.9,-120500.164,-27121.42,-27087.037,-36429.973,-30629.518,-21938.438,-18801.88
1226961.2110286506,-103710.9,-120474.0,-27120.402,-27080.445,-36430.625,-30636.15,-21918.336,-18752.28
1226961.2150286478,-103695.11,-120461.67,-27117.84,-27075.115,-36424.848,-30634.889,-21897.38,-18726.156
1226961.219028645,-103712.28,-120478.56,-27117.555,-27082.195,-36425.496,-30627.93,-21906.738,-18763.957
1226961.2230286421,-103737.96,-120501.19,-27116.66,-27090.455,-36428.02,-30624.553,-21927.125,-18796.469
1226961.2270286393,-103737.875,-120499.02,-27116.578,-27089.885,-36432.457,-30630.332,-21933.799,-18786.703
1226961.2310286365,-103709.39,-120471.56,-27115.195,-27079.469,-36431.56,-30638.104,-21915.812,-18741.863
1226961.2350286336,-103692.23,-120455.49,-27111.29,-27072.918,-36424.4,-30637.86,-21895.305,-18717.326
1226961.2390286305,-103708.336,-120469.41,-27109.13,-27077.475,-36423.18,-30629.07,-21900.92,-18737.63
1226961.2430286277,-103741.21,-120496.87,-27111.613,-27089.64,-36428.754,-30628.988,-21926.27,-18777.02
1226961.2470286249,-103742.234,-120497.12,-27112.51,-27088.867,-36435.75,-30634.97,-21939.617,-18789.795
1226961.251028622,-103715.375,-120475.63,-27116.375,-27079.346,-36438.965,-30642.904,-21923.096,-18747.438
1226961.2550286192,-103701.83,-120464.28,-27118.408,-27076.54,-36437.137,-30645.428,-21905.396,-18727.703
1226961.2590286164,-103718.1,-120479.78,-27118.408,-27082.154,-36433.15,-30640.016,-21913.535,-18756.877
1226961.2630286135,-103740.56,-120503.99,-27118.693,-27089.316,-36436.2,-30633.3,-21934.57,-18791.871
1226961.2670286107,-103740.52,-120508.02,-27122.152,-27091.92,-36444.582,-30632.812,-21937.5,-18783.203
1226961.2710286079,-103714.07,-120487.266,-27124.594,-27083.293,-36444.582,-30638.104,-21913.656,-18739.258
1226961.275028605,-103694.83,-120470.14,-27122.479,-27077.027,-36436.402,-30635.906,-21889.04,-18718.22
1226961.2790286022,-103710.984,-120485.56,-27122.031,-27081.463,-36433.023,-30631.959,-21896.12,-18743.49
1226961.2830285993,-103737.836,-120507.9,-27121.746,-27090.129,-36434.0,-30631.309,-21922.283,-18779.379
1226961.2870285965,-103738.98,-120507.37,-27124.797,-27090.82,-36437.99,-30635.783,-21929.322,-18775.229
1226961.2910285937,-103713.83,-120486.125,-27126.465,-27082.154,-36440.39,-30642.945,-21910.768,-18730.916
1226961.2950285908,-103695.516,-120469.2,-27124.188,-27078.125,-36435.59,-30641.44,-21891.357,-18707.154
1226961.299028588,-103707.52,-120477.54,-27120.484,-27083.496,-36433.31,-30633.627,-21892.578,-18727.01
1226961.3030285852,-103729.54,-120494.266,-27118.084,-27092.205,-36437.297,-30629.762,-21913.615,-18766.357
1226961.3070285823,-103725.55,-120491.055,-27115.316,-27092.855,-36440.227,-30631.592,-21916.504,-18751.303
1226961.3110285795,-103698.086,-120472.01,-27117.96,-27085.043,-36440.555,-30637.695,-21895.184,-18694.703
1226961.3150285766,-103682.336,-120462.734,-27119.305,-27080.852,-36440.633,-30636.557,-21873.74,-18671.387
1226961.3190285738,-103700.484,-120478.36,-27120.322,-27087.77,-36440.633,-30628.215,-21879.924,-18708.496
1226961.323028571,-103722.01,-120495.57,-27120.932,-27094.402,-36441.773,-30624.879,-21904.502,-18768.596
1226961.3270285681,-103722.984,-120496.22,-27121.094,-27093.71,-36445.68,-30630.332,-21915.691,-18769.613
1226961.3310285653,-103699.1,-120476.89,-27123.7,-27086.508,-36445.76,-30638.104,-21901.367,-18725.545
1226961.3350285625,-103682.984,-120463.14,-27122.031,-27080.934,-36441.61,-30634.93,-21882.041,-18693.523
1226961.3390285596,-103704.06,-120481.57,-27120.402,-27086.996,-36441.734,-30627.93,-21887.127,-18710.205
1226961.3430285568,-103734.17,-120502.57,-27121.135,-27095.744,-36446.29,-30626.629,-21911.5,-18754.395
1226961.347028554,-103735.11,-120500.086,-27124.553,-27096.72,-36454.47,-30633.3,-21919.842,-18751.912
1226961.351028551,-103705.61,-120473.07,-27124.797,-27088.379,-36454.43,-30640.504,-21901.287,-18709.96
1226961.3550285483,-103688.68,-120455.61,-27122.234,-27081.787,-36444.703,-30639.61,-21880.86,-18694.824
1226961.3590285454,-103708.26,-120469.41,-27122.275,-27087.281,-36441.367,-30633.465,-21886.068,-18720.053
1226961.3630285426,-103736.734,-120494.14,-27124.146,-27097.209,-36449.22,-30630.291,-21909.465,-18760.945
1226961.3670285398,-103738.164,-120497.6,-27125.814,-27097.412,-36454.836,-30634.277,-21920.492,-18759.521
1226961.371028537,-103711.06,-120476.98,-27125.896,-27089.682,-36453.043,-30639.893,-21905.234,-18722.82
1226961.375028534,-103689.66,-120462.41,-27123.291,-27085.166,-36449.22,-30638.389,-21882.854,-18693.97
1226961.3790285313,-103704.19,-120478.68,-27121.543,-27090.293,-36449.22,-30631.797,-21884.318,-18706.828
1226961.3830285282,-103729.9,-120501.19,-27121.502,-27098.877,-36452.8,-30628.256,-21904.746,-18742.432
1226961.3870285254,-103734.87,-120500.94,-27123.617,-27099.53,-36455.363,-30633.18,-21912.354,-18749.756
1226961.3910285225,-103710.125,-120478.234,-27125.123,-27090.658,-36454.43,-30641.033,-21894.613,-18701.13
1226961.3950285197,-103689.62,-120462.61,-27122.438,-27085.328,-36448.61,-30640.463,-21872.396,-18672.242
1226961.3990285168,-103701.945,-120470.87,-27120.688,-27091.35,-36445.64,-30632.812,-21877.686,-18704.387
1226961.403028514,-103729.336,-120489.51,-27121.826,-27099.814,-36452.11,-30630.412,-21901.246,-18746.014
1226961.4070285112,-103728.64,-120484.09,-27120.566,-27100.83,-36457.805,-30635.54,-21909.629,-18744.344
1226961.4110285083,-103699.1,-120457.03,-27121.135,-27090.82,-36452.516,-30642.01,-21891.766,-18700.604
1226961.4150285055,-103685.95,-120446.17,-27123.252,-27086.71,-36445.56,-30640.422,-21869.59,-18666.26
1226961.4190285027,-103706.875,-120459.234,-27125.082,-27093.467,-36444.336,-30633.953,-21873.902,-18682.7
1226961.4230284998,-103736.29,-120482.586,-27127.646,-27102.215,-36449.137,-30631.348,-21895.996,-18712.2
1226961.427028497,-103739.71,-120489.79,-27130.535,-27104.209,-36458.008,-30636.271,-21904.42,-18721.273
1226961.4310284941,-103711.39,-120470.14,-27130.412,-27094.768,-36460.613,-30641.521,-21885.824,-18685.873
1226961.4350284913,-103696.984,-120460.375,-27130.615,-27092.246,-36455.363,-30640.91,-21865.072,-18663.453
1226961.4390284885,-103715.984,-120479.49,-27133.139,-27098.47,-36452.066,-30633.586,-21872.234,-18690.43
1226961.4430284856,-103742.03,-120501.47,-27135.703,-27107.504,-36457.156,-30631.592,-21895.63,-18722.209
1226961.4470284828,-103741.83,-120502.445,-27140.91,-27109.01,-36464.52,-30638.266,-21906.82,-18728.963
1226961.45102848,-103716.48,-120479.25,-27143.88,-27099.285,-36462.28,-30647.217,-21895.387,-18697.713
1226961.4550284771,-103706.42,-120467.29,-27145.428,-27093.791,-36457.03,-30650.717,-21883.424,-18679.158
1226961.4590284743,-103728.68,-120489.586,-27147.91,-27101.156,-36457.195,-30646.81,-21897.95,-18708.416
1226961.4630284715,-103757.86,-120517.74,-27149.13,-27112.266,-36464.76,-30645.346,-21923.79,-18748.373
1226961.4670284686,-103760.87,-120519.086,-27151.123,-27110.76,-36472.453,-30651.49,-21927.49,-18736.492
1226961.4710284658,-103737.76,-120497.97,-27152.344,-27100.383,-36470.38,-30659.14,-21910.4,-18694.988
1226961.475028463,-103718.914,-120481.0,-27146.893,-27094.89,-36462.445,-30655.111,-21890.422,-18685.873
1226961.47902846,-103733.97,-120494.305,-27145.957,-27101.562,-36461.67,-30649.578,-21896.12,-18711.996
1226961.4830284573,-103762.49,-120517.42,-27150.31,-27109.13,-36467.734,-30649.781,-21921.143,-18751.873
1226961.4870284544,-103764.24,-120517.5,-27151.531,-27109.54,-36471.844,-30655.803,-21933.594,-18752.645
1226961.4910284516,-103736.17,-120496.09,-27152.344,-27099.488,-36470.418,-30664.756,-21918.986,-18708.09
1226961.4950284488,-103717.94,-120482.79,-27149.863,-27094.2,-36467.45,-30663.453,-21898.072,-18682.617
1226961.499028446,-103735.4,-120501.71,-27147.422,-27101.197,-36466.555,-30656.455,-21903.646,-18714.64
1226961.503028443,-103759.73,-120523.766,-27146.81,-27109.05,-36470.906,-30656.047,-21928.06,-18756.55
1226961.5070284402,-103759.195,-120517.625,-27147.096,-27106.568,-36471.07,-30659.873,-21931.234,-18748.006
1226961.5110284374,-103729.82,-120487.35,-27148.234,-27096.885,-36465.74,-30666.709,-21911.785,-18702.88
1226961.5150284346,-103712.69,-120474.41,-27147.95,-27092.205,-36454.918,-30665.324,-21893.19,-18677.613
1226961.5190284317,-103730.23,-120486.74,-27146.607,-27096.396,-36449.832,-30655.193,-21895.469,-18694.377
1226961.523028429,-103755.29,-120503.38,-27145.63,-27104.98,-36458.133,-30650.635,-21912.883,-18727.133
1226961.5270284258,-103749.76,-120495.98,-27141.602,-27105.389,-36466.023,-30655.234,-21920.207,-18736.004
1226961.531028423,-103721.27,-120471.48,-27142.09,-27096.6,-36465.13,-30664.307,-21904.746,-18698.406
1226961.5350284202,-103702.15,-120459.31,-27140.38,-27092.652,-36460.043,-30662.395,-21884.033,-18670.736
1226961.5390284173,-103718.06,-120470.625,-27142.904,-27100.383,-36458.62,-30653.85,-21887.86,-18695.232
1226961.5430284145,-103746.016,-120494.14,-27144.736,-27109.742,-36464.887,-30649.414,-21908.326,-18735.027
1226961.5470284116,-103746.055,-120491.7,-27145.225,-27110.434,-36470.38,-30654.541,-21912.598,-18729.736
1226961.5510284088,-103719.98,-120467.94,-27147.95,-27103.436,-36469.363,-30660.32,-21894.125,-18683.309
1226961.555028406,-103707.93,-120459.35,-27148.479,-27101.28,-36466.555,-30658.326,-21874.105,-18652.508
1226961.5590284031,-103728.195,-120477.87,-27148.887,-27106.895,-36465.17,-30648.479,-21878.135,-18672.771
1226961.5630284003,-103752.52,-120493.125,-27148.357,-27114.178,-36468.14,-30645.387,-21899.455,-18711.182
1226961.5670283975,-103753.13,-120489.95,-27150.514,-27112.957,-36474.246,-30649.293,-21905.479,-18710.164
1226961.5710283946,-103730.72,-120470.22,-27154.785,-27107.383,-36475.016,-30653.729,-21886.639,-18670.41
1226961.5750283918,-103717.125,-120458.984,-27153.688,-27103.68,-36467.164,-30650.717,-21866.008,-18634.725
1226961.579028389,-103736.695,-120474.82,-27152.752,-27110.88,-36468.387,-30646.404,-21875.45,-18667.236
1226961.583028386,-103763.836,-120494.02,-27153.158,-27120.525,-36474.04,-30647.299,-21904.541,-18721.273
1226961.5870283833,-103760.87,-120490.65,-27152.385,-27118.205,-36480.31,-30652.873,-21912.477,-18717.488
1226961.5910283804,-103734.016,-120468.06,-27152.14,-27107.992,-36478.11,-30661.662,-21895.225,-18676.717
1226961.5950283776,-103721.97,-120458.945,-27151.043,-27104.004,-36473.594,-30661.703,-21878.256,-18659.22
1226961.5990283748,-103739.51,-120476.16,-27151.328,-27110.271,-36474.0,-30656.006,-21886.436,-18685.588
1226961.603028372,-103760.13,-120494.02,-27150.188,-27118.896,-36475.18,-30651.816,-21906.332,-18708.455
1226961.607028369,-103752.28,-120487.555,-27148.072,-27115.316,-36475.87,-30656.17,-21910.361,-18698.812
1226961.6110283663,-103724.81,-120464.6,-27149.62,-27107.545,-36474.57,-30664.715,-21893.596,-18653.076
1226961.6150283634,-103708.74,-120456.22,-27146.566,-27104.004,-36472.047,-30664.227,-21877.238,-18638.469
1226961.6190283606,-103725.75,-120477.586,-27144.084,-27110.352,-36470.215,-30658.123,-21885.54,-18678.467
1226961.6230283577,-103747.93,-120496.51,-27142.375,-27116.822,-36472.332,-30657.756,-21908.447,-18718.1
1226961.627028355,-103746.38,-120494.67,-27140.748,-27115.52,-36478.92,-30661.947,-21915.854,-18708.09
1226961.631028352,-103722.984,-120476.08,-27141.44,-27108.195,-36484.418,-30669.516,-21900.107,-18671.795
1226961.6350283492,-103713.625,-120466.555,-27143.516,-27105.713,-36481.895,-30668.498,-21884.604,-18657.635
1226961.6390283464,-103734.016,-120483.16,-27144.328,-27110.922,-36476.32,-30659.385,-21891.562,-18678.508
1226961.6430283436,-103763.76,-120504.88,-27145.184,-27118.979,-36479.168,-30657.432,-21914.959,-18725.057
1226961.6470283407,-103764.49,-120500.29,-27146.69,-27118.775,-36485.883,-30662.72,-21923.79,-18732.951
1226961.651028338,-103736.734,-120477.42,-27149.822,-27110.068,-36486.29,-30670.248,-21908.0,-18697.266
1226961.655028335,-103724.125,-120466.96,-27150.107,-27106.406,-36478.92,-30667.645,-21889.404,-18677.693
1226961.6590283322,-103745.484,-120483.36,-27148.193,-27113.201,-36476.848,-30661.988,-21895.957,-18695.312
1226961.6630283294,-103772.87,-120504.97,-27145.59,-27120.729,-36482.953,-30660.768,-21917.562,-18728.395
1226961.6670283265,-103770.1,-120503.664,-27145.346,-27118.652,-36490.48,-30665.936,-21925.416,-18727.662
1226961.6710283235,-103743.164,-120480.72,-27146.648,-27111.045,-36489.79,-30674.113,-21908.53,-18691.162
1226961.6750283206,-103729.01,-120470.26,-27145.752,-27107.219,-36485.027,-30673.748,-21888.836,-18670.004
1226961.6790283178,-103751.305,-120487.92,-27147.91,-27113.201,-36482.79,-30667.074,-21894.37,-18694.621
1226961.683028315,-103779.75,-120511.93,-27150.352,-27122.6,-36487.387,-30664.55,-21916.79,-18728.312
1226961.6870283121,-103775.19,-120508.51,-27153.605,-27123.7,-36495.117,-30668.54,-21923.178,-18717.082
1226961.6910283093,-103746.625,-120481.37,-27154.582,-27114.951,-36493.492,-30674.398,-21904.99,-18672.16
1226961.6950283065,-103731.445,-120468.02,-27151.734,-27108.643,-36490.684,-30674.033,-21889.283,-18663.168
1226961.6990283036,-103750.98,-120487.63,-27152.588,-27115.56,-36487.793,-30666.057,-21897.34,-18697.145
1226961.7030283008,-103779.055,-120513.19,-27156.129,-27126.385,-36490.64,-30663.656,-21920.818,-18731.16
1226961.707028298,-103780.44,-120508.67,-27159.506,-27126.709,-36499.637,-30668.824,-21928.346,-18722.78
1226961.711028295,-103756.02,-120484.7,-27160.564,-27117.637,-36501.547,-30676.555,-21914.43,-18683.838
1226961.7150282923,-103741.3,-120470.87,-27155.803,-27112.672,-36489.504,-30672.893,-21896.973,-18667.766
1226961.7190282894,-103759.61,-120485.766,-27151.775,-27120.322,-36485.758,-30663.697,-21901.205,-18695.965
1226961.7230282866,-103781.09,-120505.25,-27149.13,-27129.273,-36490.36,-30658.082,-21917.521,-18727.54
1226961.7270282838,-103778.69,-120500.82,-27146.607,-27125.205,-36498.09,-30665.244,-21919.8,-18728.271
1226961.731028281,-103748.664,-120475.43,-27142.904,-27114.096,-36493.53,-30672.975,-21902.549,-18687.297
1226961.735028278,-103731.57,-120463.34,-27137.9,-27111.045,-36485.68,-30669.8,-21883.098,-18655.965
1226961.7390282752,-103749.23,-120477.79,-27136.271,-27117.27,-36484.62,-30660.035,-21890.422,-18685.182
1226961.7430282724,-103772.305,-120496.87,-27135.58,-27125.488,-36491.863,-30654.746,-21911.865,-18721.68
1226961.7470282696,-103767.46,-120497.28,-27135.906,-27125.326,-36495.973,-30660.28,-21916.383,-18700.928
1226961.7510282667,-103738.125,-120472.58,-27133.424,-27116.62,-36491.254,-30665.771,-21897.787,-18652.914
1226961.755028264,-103723.39,-120457.445,-27126.465,-27109.66,-36483.4,-30663.291,-21881.836,-18649.578
1226961.759028261,-103742.555,-120476.77,-27123.861,-27117.596,-36481.977,-30656.047,-21886.719,-18675.537
1226961.7630282582,-103766.65,-120498.05,-27120.85,-27126.426,-36487.754,-30651.896,-21906.982,-18707.44
1226961.7670282554,-103760.3,-120491.625,-27116.578,-27123.576,-36495.605,-30657.594,-21915.324,-18706.666
1226961.7710282526,-103729.82,-120468.71,-27113.69,-27112.713,-36492.39,-30664.348,-21899.375,-18667.889
1226961.7750282497,-103719.65,-120458.664,-27109.498,-27106.812,-36483.766,-30660.28,-21877.523,-18638.387
1226961.7790282469,-103742.96,-120474.82,-27107.586,-27113.525,-36482.707,-30652.832,-21882.203,-18659.832
1226961.783028244,-103772.055,-120498.7,-27107.219,-27123.129,-36494.184,-30648.234,-21901.979,-18697.021
1226961.7870282412,-103770.1,-120495.41,-27106.406,-27121.055,-36500.406,-30651.123,-21904.135,-18682.617
1226961.7910282384,-103739.99,-120469.12,-27100.668,-27109.742,-36495.934,-30658.53,-21885.783,-18633.709
1226961.7950282355,-103723.27,-120453.21,-27097.412,-27106.121,-36487.875,-30657.635,-21871.014,-18635.092
1226961.7990282327,-103742.76,-120470.26,-27098.145,-27113.69,-36484.05,-30648.723,-21880.047,-18670.33
1226961.8030282299,-103771.85,-120494.35,-27098.756,-27121.014,-36492.473,-30643.678,-21901.816,-18693.28
1226961.807028227,-103768.234,-120490.4,-27099.365,-27119.305,-36496.22,-30647.625,-21905.355,-18682.82
1226961.8110282242,-103735.6,-120460.94,-27097.861,-27109.13,-36490.562,-30653.932,-21884.033,-18637.492
1226961.815028221,-103718.836,-120446.945,-27096.191,-27105.225,-36485.395,-30651.408,-21864.219,-18613.525
1226961.8190282183,-103741.74,-120467.01,-27096.191,-27112.875,-36485.23,-30643.596,-21873.455,-18651.814
1226961.8230282154,-103771.57,-120489.83,-27097.006,-27121.746,-36494.1,-30640.951,-21896.729,-18691.488
1226961.8270282126,-103767.87,-120488.04,-27099.244,-27121.338,-36502.44,-30647.625,-21903.89,-18686.89
1226961.8310282098,-103740.03,-120467.414,-27103.8,-27110.963,-36499.27,-30655.234,-21885.05,-18644.043
1226961.835028207,-103731.98,-120460.375,-27104.086,-27107.342,-36493.125,-30653.932,-21869.752,-18625.082
1226961.839028204,-103755.945,-120477.87,-27103.191,-27115.031,-36491.457,-30647.422,-21880.78,-18648.56
1226961.8430282013,-103781.7,-120498.01,-27103.965,-27123.78,-36497.76,-30644.695,-21900.879,-18677.45
1226961.8470281984,-103776.94,-120492.555,-27104.371,-27121.705,-36504.883,-30650.879,-21907.594,-18674.602
1226961.8510281956,-103748.54,-120466.03,-27105.348,-27112.754,-36503.176,-30659.1,-21893.719,-18646.281
1226961.8550281927,-103737.67,-120457.08,-27104.574,-27109.66,-36498.984,-30658.164,-21878.012,-18628.703
1226961.85902819,-103757.45,-120473.63,-27103.76,-27115.195,-36493.695,-30652.426,-21888.592,-18664.227
1226961.863028187,-103781.17,-120491.984,-27101.115,-27120.729,-36487.793,-30649.902,-21909.059,-18693.93
1226961.8670281842,-103775.88,-120487.15,-27099.895,-27118.816,-36497.76,-30657.023,-21917.236,-18677.246
1226961.8710281814,-103747.07,-120461.875,-27102.174,-27110.23,-36499.27,-30665.244,-21903.361,-18642.01
1226961.8750281786,-103732.875,-120451.09,-27100.22,-27106.08,-36499.188,-30661.703,-21882.447,-18628.174
1226961.8790281757,-103752.57,-120469.57,-27099.732,-27114.707,-36498.008,-30650.799,-21889.365,-18664.633
1226961.883028173,-103776.33,-120492.76,-27099.977,-27123.455,-36502.36,-30646.525,-21910.076,-18699.992
1226961.88702817,-103772.34,-120489.586,-27100.18,-27121.99,-36510.17,-30652.426,-21912.803,-18683.35
1226961.8910281672,-103742.44,-120466.88,-27099.936,-27112.225,-36507.12,-30657.188,-21891.113,-18631.47
1226961.8950281644,-103728.72,-120455.77,-27098.512,-27108.318,-36501.305,-30654.746,-21872.234,-18612.957
1226961.8990281615,-103751.47,-120473.07,-27096.844,-27113.322,-36499.227,-30644.207,-21873.047,-18627.809
1226961.9030281587,-103776.9,-120496.51,-27100.262,-27123.17,-36502.645,-30643.23,-21895.916,-18673.422
1226961.9070281559,-103769.01,-120490.195,-27101.848,-27120.322,-36504.965,-30649.537,-21905.559,-18680.908
1226961.911028153,-103742.19,-120466.15,-27101.36,-27109.54,-36504.477,-30655.762,-21885.254,-18629.924
1226961.9150281502,-103734.58,-120455.29,-27097.941,-27105.998,-36495.445,-30653.85,-21866.334,-18608.074
1226961.9190281474,-103757.24,-120468.875,-27097.9,-27114.014,-36494.14,-30647.137,-21873.088,-18626.994
1226961.9230281445,-103780.805,-120488.164,-27100.059,-27121.46,-36501.75,-30644.775,-21896.322,-18662.068
1226961.9270281417,-103771.53,-120482.47,-27100.83,-27121.135,-36512.492,-30650.758,-21904.135,-18655.6
1226961.9310281388,-103742.68,-120457.03,-27102.621,-27112.59,-36509.645,-30659.14,-21889.121,-18624.47
1226961.935028136,-103735.44,-120452.72,-27104.248,-27110.312,-36503.785,-30659.424,-21875.0,-18611.492
1226961.9390281332,-103759.195,-120471.64,-27104.98,-27116.984,-36502.117,-30652.549,-21884.93,-18644.734
1226961.9430281303,-103784.67,-120495.85,-27107.178,-27124.838,-36508.668,-30651.205,-21904.541,-18679.688
1226961.9470281275,-103773.44,-120490.08,-27105.186,-27121.379,-36509.684,-30653.361,-21903.281,-18653.85
1226961.9510281247,-103739.664,-120462.65,-27104.33,-27110.23,-36507.324,-30657.105,-21881.715,-18601.727
1226961.9550281218,-103723.23,-120449.75,-27103.76,-27105.469,-36500.203,-30655.6,-21863.69,-18590.373
1226961.9590281188,-103743.66,-120464.56,-27101.807,-27112.102,-36496.707,-30648.643,-21870.605,-18620.688
1226961.963028116,-103767.625,-120479.91,-27101.848,-27120.729,-36505.496,-30644.898,-21890.38,-18649.7
1226961.967028113,-103764.49,-120477.26,-27104.248,-27119.71,-36518.473,-30650.188,-21895.916,-18632.447
1226961.9710281102,-103735.35,-120455.2,-27106.242,-27110.8,-36513.348,-30658.814,-21880.86,-18602.58
1226961.9750281074,-103722.3,-120443.98,-27103.557,-27106.486,-36505.168,-30658.57,-21867.066,-18598.104
1226961.9790281046,-103745.734,-120465.055,-27102.947,-27115.805,-36505.21,-30650.107,-21876.914,-18622.885
1226961.9830281017,-103773.08,-120489.1,-27105.633,-27124.838,-36513.715,-30647.625,-21897.828,-18654.46
1226961.987028099,-103771.53,-120486.086,-27108.115,-27125.285,-36521.2,-30654.258,-21904.664,-18647.746
1226961.991028096,-103743.86,-120462.445,-27110.352,-27115.195,-36520.508,-30659.668,-21886.963,-18604.695
1226961.9950280932,-103733.65,-120451.336,-27110.637,-27111.98,-36513.43,-30655.762,-21870.688,-18586.793
1226961.9990280904,-103758.79,-120471.89,-27113.322,-27119.71,-36512.74,-30648.031,-21881.592,-18621.502
1226962.0030280876,-103784.43,-120489.875,-27114.055,-27126.547,-36518.434,-30646.322,-21905.6,-18664.836
1226962.0070280847,-103777.836,-120482.71,-27111.898,-27123.17,-36522.38,-30652.426,-21910.035,-18658.814
1226962.0110280819,-103750.29,-120460.05,-27109.66,-27113.322,-36517.254,-30660.97,-21887.412,-18607.219
1226962.015028079,-103739.914,-120452.15,-27106.854,-27108.643,-36512.98,-30657.227,-21866.496,-18582.643
1226962.0190280762,-103763.59,-120468.266,-27103.924,-27115.44,-36510.99,-30647.95,-21873.252,-18620.443
1226962.0230280734,-103789.63,-120488.08,-27105.43,-27124.023,-36512.37,-30645.428,-21891.236,-18646.12
1226962.0270280705,-103783.25,-120483.766,-27107.586,-27122.479,-36520.02,-30650.799,-21892.986,-18628.174
1226962.0310280677,-103754.31,-120458.46,-27107.83,-27113.242,-36518.35,-30654.867,-21874.39,-18595.988
1226962.0350280649,-103743.78,-120449.79,-27108.766,-27110.596,-36514.812,-30652.67,-21861.695,-18593.14
1226962.039028062,-103766.16,-120469.52,-27110.88,-27117.432,-36513.184,-30648.438,-21874.432,-18628.865
1226962.0430280592,-103790.49,-120489.55,-27111.572,-27124.473,-36517.293,-30646.12,-21894.084,-18659.344
1226962.0470280563,-103786.79,-120487.555,-27115.602,-27123.455,-36523.684,-30653.158,-21895.63,-18635.05
1226962.0510280535,-103757.734,-120465.82,-27115.072,-27114.787,-36524.7,-30659.832,-21873.496,-18582.195
1226962.0550280507,-103748.87,-120458.945,-27112.184,-27111.654,-36519.043,-30656.658,-21857.342,-18572.104
1226962.0590280478,-103771.69,-120478.88,-27111.898,-27119.06,-36518.434,-30646.934,-21868.613,-18609.783
1226962.063028045,-103791.99,-120497.32,-27111.451,-27126.709,-36523.684,-30644.207,-21890.87,-18646.443
1226962.0670280422,-103780.84,-120489.38,-27112.672,-27124.35,-36527.957,-30649.658,-21895.264,-18629.883
1226962.0710280393,-103754.766,-120465.21,-27115.723,-27115.56,-36524.742,-30656.7,-21873.617,-18574.79
1226962.0750280365,-103745.2,-120460.086,-27114.91,-27112.793,-36522.38,-30654.867,-21857.992,-18567.139
1226962.0790280337,-103765.586,-120482.42,-27113.69,-27118.938,-36520.184,-30646.484,-21868.043,-18613.281
1226962.0830280308,-103788.66,-120506.07,-27113.893,-27126.75,-36526.367,-30647.055,-21891.195,-18654.664
1226962.087028028,-103776.29,-120494.96,-27111.898,-27122.723,-36528.28,-30654.379,-21894.572,-18648.031
1226962.0910280251,-103741.09,-120466.555,-27111.045,-27112.51,-36523.723,-30661.256,-21872.111,-18595.338
1226962.0950280223,-103733.445,-120458.83,-27112.672,-27110.922,-36517.496,-30657.959,-21856.406,-18577.88
1226962.0990280195,-103760.87,-120481.9,-27114.584,-27119.264,-36518.758,-30650.879,-21870.566,-18620.77
1226962.1030280164,-103788.01,-120502.77,-27116.66,-27128.459,-36530.19,-30649.252,-21891.357,-18655.03
1226962.1070280136,-103782.43,-120499.27,-27117.107,-27127.482,-36534.63,-30655.885,-21896.201,-18636.312
1226962.1110280107,-103753.55,-120474.29,-27119.752,-27119.752,-36533.367,-30663.127,-21878.053,-18589.764
1226962.115028008,-103746.5,-120469.0,-27118.816,-27116.822,-36528.973,-30662.07,-21864.502,-18579.469
1226962.119028005,-103768.15,-120487.19,-27116.66,-27122.885,-36528.363,-30654.785,-21876.385,-18619.508
1226962.1230280022,-103786.75,-120501.95,-27117.555,-27128.785,-36531.047,-30651.531,-21894.816,-18646.973
1226962.1270279994,-103777.836,-120492.6,-27120.117,-27126.465,-36535.89,-30657.105,-21895.02,-18625.936
1226962.1310279965,-103749.96,-120469.89,-27120.402,-27116.863,-36534.547,-30665.812,-21876.67,-18585.287
1226962.1350279937,-103743.94,-120463.22,-27119.914,-27114.543,-36529.99,-30665.08,-21864.746,-18573.283
1226962.1390279909,-103770.59,-120483.28,-27121.299,-27122.844,-36529.5,-30656.7,-21877.93,-18610.027
1226962.143027988,-103794.44,-120500.77,-27121.014,-27129.883,-36536.01,-30654.217,-21898.193,-18651.49
1226962.1470279852,-103787.31,-120489.83,-27122.479,-27126.465,-36536.703,-30660.361,-21899.863,-18642.781
1226962.1510279824,-103758.79,-120466.92,-27122.885,-27116.984,-36532.35,-30668.621,-21880.82,-18596.883
1226962.1550279795,-103753.55,-120462.41,-27121.42,-27114.746,-36531.21,-30666.139,-21864.178,-18573.486
1226962.1590279767,-103779.18,-120482.75,-27120.973,-27122.844,-36531.863,-30659.75,-21874.553,-18603.475
1226962.1630279738,-103796.39,-120496.18,-27119.385,-27129.883,-36534.06,-30658.164,-21897.625,-18645.916
1226962.167027971,-103787.4,-120486.25,-27118.287,-27125.0,-36537.8,-30664.55,-21901.002,-18630.127
1226962.1710279682,-103755.62,-120461.19,-27116.66,-27114.625,-36533.938,-30669.719,-21882.65,-18592.814
1226962.1750279653,-103750.2,-120456.55,-27117.96,-27115.357,-36533.406,-30664.512,-21865.928,-18581.38
1226962.1790279625,-103776.37,-120480.72,-27119.223,-27122.926,-36537.8,-30656.17,-21876.953,-18613.16
1226962.1830279597,-103797.445,-120498.945,-27116.049,-27131.023,-36541.79,-30656.535,-21897.746,-18642.66
1226962.1870279568,-103783.49,-120488.33,-27112.875,-27127.93,-36545.98,-30666.992,-21902.1,-18635.783
1226962.191027954,-103750.66,-120462.53,-27112.51,-27116.66,-36541.016,-30675.537,-21881.756,-18587.81
1226962.1950279512,-103743.37,-120460.58,-27113.16,-27113.566,-36536.906,-30669.516,-21861.004,-18563.232
1226962.1990279483,-103769.33,-120486.86,-27113.607,-27122.885,-36535.688,-30659.668,-21871.502,-18602.336
1226962.2030279455,-103795.25,-120510.54,-27112.672,-27130.656,-36540.203,-30657.756,-21895.225,-18647.014
1226962.2070279426,-103789.63,-120501.875,-27113.934,-27128.988,-36546.67,-30664.633,-21900.39,-18634.318
1226962.2110279398,-103761.36,-120476.85,-27116.13,-27120.281,-36543.906,-30673.87,-21884.197,-18591.838
1226962.215027937,-103752.12,-120470.99,-27112.998,-27115.602,-36535.36,-30669.598,-21867.717,-18573.365
1226962.2190279341,-103777.836,-120494.19,-27110.352,-27123.861,-36537.312,-30660.686,-21880.168,-18602.254
1226962.2230279313,-103800.945,-120511.6,-27111.898,-27135.174,-36548.543,-30661.174,-21903.525,-18639.771
1226962.2270279285,-103787.07,-120497.28,-27112.793,-27130.088,-36551.676,-30668.05,-21906.047,-18628.256
1226962.2310279256,-103758.63,-120470.34,-27113.73,-27118.693,-36545.41,-30673.951,-21883.586,-18585.45
1226962.2350279228,-103752.69,-120465.21,-27113.404,-27117.799,-36537.965,-30670.41,-21865.723,-18572.877
1226962.23902792,-103776.25,-120486.9,-27114.137,-27125.488,-36537.234,-30661.053,-21875.896,-18609.578
1226962.2430279169,-103800.336,-120508.914,-27116.13,-27136.312,-36548.016,-30661.338,-21899.008,-18636.639
1226962.247027914,-103792.81,-120500.33,-27117.148,-27132.447,-36551.92,-30668.174,-21903.85,-18622.6
1226962.2510279112,-103764.37,-120474.53,-27118.246,-27121.867,-36548.992,-30675.334,-21888.672,-18590.21
1226962.2550279084,-103757.695,-120472.78,-27115.764,-27119.834,-36542.645,-30672.69,-21869.955,-18569.621
1226962.2590279055,-103782.39,-120491.625,-27113.975,-27127.441,-36540.12,-30664.836,-21876.303,-18596.965
1226962.2630279027,-103805.79,-120509.41,-27113.12,-27135.58,-36546.55,-30662.314,-21894.572,-18624.715
1226962.2670278999,-103796.266,-120500.734,-27114.828,-27133.912,-36552.207,-30670.207,-21893.678,-18603.924
1226962.271027897,-103764.85,-120477.336,-27117.148,-27124.553,-36548.504,-30677.979,-21874.473,-18569.988
1226962.2750278942,-103750.25,-120470.46,-27114.178,-27121.299,-36542.93,-30676.88,-21861.166,-18563.314
1226962.2790278913,-103773.4,-120487.15,-27112.184,-27127.076,-36540.04,-30671.184,-21876.262,-18604.615
1226962.2830278885,-103796.06,-120505.78,-27113.078,-27134.033,-36547.08,-30672.08,-21898.846,-18633.504
1226962.2870278857,-103785.36,-120493.984,-27114.38,-27126.832,-36551.96,-30679.363,-21900.514,-18609.986
1226962.2910278828,-103760.7,-120470.14,-27116.13,-27118.328,-36548.016,-30687.541,-21885.215,-18572.186
1226962.29502788,-103755.45,-120470.055,-27118.938,-27118.816,-36542.848,-30684.57,-21874.229,-18564.006
1226962.2990278772,-103782.516,-120492.805,-27121.42,-27128.744,-36545.047,-30676.514,-21886.191,-18594.32
1226962.3030278743,-103807.414,-120507.45,-27123.047,-27137.656,-36549.887,-30673.545,-21907.959,-18639.607
1226962.3070278715,-103793.625,-120498.01,-27122.152,-27134.36,-36554.812,-30679.566,-21910.035,-18634.115
1226962.3110278687,-103761.195,-120475.836,-27121.787,-27124.797,-36553.266,-30683.229,-21885.498,-18578.451
1226962.3150278658,-103752.08,-120471.03,-27120.281,-27123.373,-36550.254,-30679.525,-21868.328,-18561.646
1226962.319027863,-103774.375,-120491.984,-27117.637,-27130.25,-36547.73,-30671.143,-21877.605,-18599.895
1226962.3230278601,-103797.49,-120512.86,-27118.857,-27136.719,-36552.207,-30670.492,-21897.746,-18638.754
1226962.3270278573,-103789.68,-120503.91,-27121.908,-27133.953,-36558.27,-30678.793,-21904.379,-18627.4
1226962.3310278545,-103766.32,-120482.67,-27125.814,-27126.953,-36556.684,-30686.688,-21886.395,-18581.584
1226962.3350278516,-103761.27,-120480.23,-27126.1,-27124.35,-36551.35,-30683.31,-21873.78,-18567.262
1226962.3390278488,-103786.54,-120503.3,-27128.541,-27132.812,-36550.945,-30677.37,-21886.68,-18608.766
1226962.343027846,-103810.19,-120519.17,-27130.006,-27142.01,-36560.02,-30676.719,-21906.576,-18635.742
1226962.3470278431,-103799.4,-120511.56,-27129.273,-27138.754,-36565.227,-30684.123,-21907.023,-18620.646
1226962.3510278403,-103770.8,-120489.79,-27130.738,-27128.418,-36561.566,-30692.22,-21887.86,-18576.498
1226962.3550278374,-103767.58,-120484.83,-27132.977,-27129.355,-36557.414,-30691.977,-21876.22,-18562.785
1226962.3590278346,-103796.35,-120510.87,-27133.22,-27140.666,-36560.1,-30686.85,-21890.463,-18598.47
1226962.3630278318,-103816.86,-120529.46,-27134.156,-27147.178,-36567.02,-30685.547,-21912.598,-18643.025
1226962.367027829,-103806.84,-120517.58,-27134.97,-27141.928,-36568.727,-30691.691,-21915.977,-18633.627
1226962.371027826,-103780.36,-120491.664,-27133.75,-27131.227,-36563.316,-30697.674,-21895.06,-18582.479
1226962.3750278233,-103775.555,-120484.22,-27132.08,-27130.006,-36558.96,-30694.256,-21879.965,-18571.615
1226962.3790278204,-103799.08,-120504.73,-27129.232,-27137.533,-36560.71,-30683.31,-21887.045,-18601.238
1226962.3830278176,-103826.13,-120527.02,-27130.576,-27148.52,-36567.953,-30681.56,-21908.244,-18628.377
1226962.3870278145,-103815.88,-120517.016,-27127.117,-27146.445,-36572.43,-30686.523,-21909.303,-18609.09
1226962.3910278117,-103784.23,-120489.99,-27122.52,-27134.238,-36569.05,-30691.488,-21889.69,-18559.896
1226962.3950278088,-103778.2,-120486.086,-27118.49,-27132.244,-36564.414,-30689.902,-21879.436,-18559.326
1226962.399027806,-103806.84,-120509.69,-27114.096,-27140.137,-36568.117,-30680.95,-21893.555,-18606.16
1226962.4030278032,-103833.91,-120528.77,-27111.492,-27147.422,-36575.81,-30679.648,-21917.807,-18646.525
1226962.4070278003,-103820.516,-120514.2,-27108.807,-27140.666,-36575.848,-30687.012,-21921.63,-18626.668
1226962.4110277975,-103785.445,-120483.85,-27104.574,-27129.03,-36570.027,-30691.406,-21898.234,-18570.354
1226962.4150277947,-103775.11,-120477.336,-27099.814,-27126.344,-36563.273,-30688.926,-21881.918,-18567.465
1226962.4190277918,-103794.31,-120496.55,-27097.088,-27132.895,-36560.387,-30682.129,-21890.951,-18593.303
1226962.423027789,-103811.12,-120509.12,-27092.773,-27139.324,-36566.652,-30678.955,-21904.46,-18613.404
1226962.4270277862,-103800.78,-120494.47,-27092.326,-27137.615,-36574.26,-30685.467,-21905.6,-18608.969
1226962.4310277833,-103772.99,-120471.16,-27090.902,-27129.07,-36573.73,-30691.65,-21891.357,-18567.709
1226962.4350277805,-103766.32,-120468.43,-27086.67,-27125.408,-36566.406,-30685.71,-21879.559,-18559.246
1226962.4390277776,-103790.61,-120493.25,-27083.701,-27133.668,-36566.61,-30677.002,-21892.578,-18600.383
1226962.4430277748,-103812.664,-120509.93,-27083.701,-27140.83,-36570.312,-30673.584,-21912.518,-18632.568
1226962.447027772,-103803.02,-120501.51,-27086.955,-27138.145,-36578.86,-30678.996,-21911.988,-18606.73
1226962.4510277691,-103775.48,-120481.86,-27087.037,-27129.803,-36579.754,-30685.955,-21891.969,-18558.92
1226962.4550277663,-103773.234,-120479.86,-27085.979,-27128.012,-36575.24,-30684.326,-21878.215,-18557.984
1226962.4590277635,-103804.94,-120503.625,-27085.857,-27137.168,-36574.22,-30676.107,-21889.568,-18593.426
1226962.4630277606,-103829.836,-120523.85,-27087.77,-27146.281,-36582.6,-30673.828,-21909.18,-18620.037
1226962.4670277578,-103816.695,-120511.11,-27089.723,-27142.13,-36589.438,-30680.584,-21910.727,-18601.848
1226962.471027755,-103787.16,-120488.33,-27091.146,-27133.627,-36586.387,-30684.896,-21889.201,-18558.025
1226962.475027752,-103778.08,-120485.88,-27091.025,-27132.65,-36580.445,-30677.451,-21868.857,-18540.486
1226962.4790277493,-103800.91,-120507.164,-27092.57,-27139.08,-36579.67,-30668.783,-21879.314,-18567.791
1226962.4830277464,-103824.305,-120523.16,-27091.797,-27144.736,-36585.45,-30668.133,-21899.822,-18591.105
1226962.4870277436,-103810.71,-120512.17,-27089.6,-27139.648,-36591.676,-30678.467,-21906.129,-18590.943
1226962.4910277408,-103780.6,-120486.945,-27089.64,-27130.291,-36584.72,-30685.629,-21885.418,-18550.172
1226962.495027738,-103774.87,-120478.6,-27087.77,-27128.541,-36573.934,-30680.705,-21866.334,-18542.684
1226962.499027735,-103798.95,-120497.69,-27084.066,-27134.482,-36570.883,-30672.16,-21873.82,-18581.096
1226962.5030277323,-103816.98,-120511.88,-27080.771,-27139.365,-36575.48,-30673.584,-21894.166,-18610.76
1226962.5070277294,-103804.98,-120495.77,-27081.992,-27135.092,-36582.52,-30682.861,-21898.275,-18592.814
1226962.5110277266,-103779.664,-120468.8,-27083.09,-27123.414,-36576.785,-30685.426,-21876.873,-18550.578
1226962.5150277237,-103773.32,-120465.945,-27080.852,-27123.252,-36569.664,-30679.281,-21858.074,-18535.076
1226962.519027721,-103791.875,-120485.27,-27076.66,-27131.715,-36569.133,-30668.01,-21865.723,-18568.889
1226962.523027718,-103809.57,-120503.42,-27072.633,-27137.656,-36573.65,-30666.18,-21883.627,-18594.117
1226962.5270277152,-103796.72,-120494.1,-27073.203,-27133.057,-36578.74,-30674.357,-21885.742,-18572.266
1226962.5310277122,-103769.17,-120466.48,-27077.354,-27122.479,-36573.773,-30682.252,-21873.008,-18541.504
1226962.5350277093,-103766.28,-120464.766,-27076.254,-27120.729,-36569.38,-30679.607,-21866.21,-18532.674
1226962.5390277065,-103793.87,-120490.766,-27078.898,-27129.803,-36570.438,-30669.027,-21879.15,-18567.627
1226962.5430277037,-103818.98,-120510.42,-27082.969,-27138.877,-36579.67,-30668.174,-21896.363,-18599.691
1226962.5470277008,-103813.44,-120500.53,-27084.19,-27136.719,-36585.164,-30677.775,-21898.113,-18576.498
1226962.551027698,-103788.82,-120476.89,-27086.143,-27128.012,-36582.887,-30683.92,-21880.332,-18537.232
1226962.5550276951,-103785.56,-120475.63,-27087.607,-27127.89,-36578.37,-30680.908,-21868.287,-18534.506
1226962.5590276923,-103813.68,-120499.88,-27087.77,-27137.9,-36584.516,-30673.34,-21883.465,-18571.209
1226962.5630276895,-103836.47,-120515.18,-27091.39,-27145.06,-36591.188,-30670.492,-21901.328,-18607.016
1226962.5670276866,-103825.32,-120504.03,-27095.297,-27140.625,-36593.953,-30677.979,-21902.1,-18599.121
1226962.5710276838,-103803.96,-120486.17,-27100.262,-27133.018,-36590.21,-30687.908,-21889.201,-18560.75
1226962.575027681,-103803.35,-120486.62,-27101.807,-27133.83,-36587.2,-30685.914,-21879.924,-18553.223
1226962.5790276781,-103833.01,-120513.43,-27101.768,-27143.719,-36593.02,-30677.451,-21892.05,-18582.234
1226962.5830276753,-103855.15,-120532.68,-27103.436,-27150.555,-36602.664,-30674.684,-21908.488,-18606.975
1226962.5870276724,-103840.984,-120517.79,-27103.11,-27146.322,-36603.355,-30682.578,-21908.041,-18590.008
1226962.5910276696,-103807.414,-120490.6,-27105.104,-27137.168,-36598.676,-30689.17,-21887.94,-18553.143
1226962.5950276668,-103802.25,-120488.85,-27104.736,-27136.312,-36596.598,-30683.879,-21873.455,-18539.389
1226962.599027664,-103831.14,-120515.836,-27104.371,-27145.143,-36598.27,-30675.498,-21888.713,-18576.295
1226962.603027661,-103856.49,-120538.58,-27105.674,-27152.344,-36602.54,-30676.066,-21914.633,-18617.229
1226962.6070276583,-103846.32,-120528.94,-27108.277,-27148.56,-36606.65,-30685.303,-21916.383,-18609.01
1226962.6110276554,-103819.87,-120502.65,-27106.73,-27140.219,-36603.76,-30692.506,-21898.56,-18566.773
1226962.6150276526,-103817.47,-120498.87,-27104.533,-27138.957,-36599.773,-30689.209,-21889.121,-18558.229
1226962.6190276498,-103843.51,-120524.13,-27102.621,-27146.852,-36598.39,-30681.682,-21900.92,-18601.156
1226962.623027647,-103865.16,-120543.74,-27101.686,-27154.094,-36605.31,-30681.234,-21918.742,-18635.701
1226962.627027644,-103856.77,-120534.55,-27104.209,-27149.578,-36612.508,-30688.232,-21917.686,-18616.822
1226962.6310276412,-103829.1,-120508.586,-27106.445,-27140.178,-36608.24,-30695.762,-21901.205,-18570.883
1226962.6350276384,-103823.61,-120507.164,-27106.406,-27139.404,-36603.19,-30691.367,-21887.818,-18554.158
1226962.6390276356,-103849.57,-120529.51,-27103.8,-27146.12,-36602.62,-30684.57,-21898.275,-18589.355
1226962.6430276327,-103867.15,-120544.31,-27100.912,-27151.855,-36605.836,-30686.2,-21917.562,-18627.686
1226962.64702763,-103851.766,-120531.21,-27097.861,-27146.893,-36608.684,-30694.621,-21921.672,-18604.045
1226962.651027627,-103825.85,-120506.15,-27098.959,-27136.963,-36607.137,-30699.912,-21903.24,-18559.367
1226962.6550276242,-103820.93,-120497.4,-27097.861,-27137.492,-36601.848,-30694.785,-21889.365,-18557.576
1226962.6590276214,-103843.02,-120513.836,-27095.623,-27145.834,-36599.938,-30686.564,-21900.799,-18598.715
1226962.6630276185,-103861.53,-120530.44,-27095.785,-27151.123,-36607.504,-30683.96,-21914.023,-18615.56
1226962.6670276157,-103847.91,-120521.81,-27099.0,-27146.363,-36611.613,-30690.797,-21913.574,-18590.943
1226962.6710276129,-103818.81,-120500.66,-27101.848,-27137.412,-36608.4,-30699.424,-21899.17,-18561.89
1226962.6750276098,-103816.695,-120498.26,-27102.336,-27137.371,-36602.664,-30694.621,-21881.389,-18546.916
1226962.679027607,-103843.875,-120517.625,-27101.562,-27146.16,-36600.18,-30684.531,-21889.69,-18577.557
1226962.6830276041,-103860.555,-120528.445,-27097.047,-27151.734,-36603.355,-30682.617,-21905.762,-18607.87
1226962.6870276013,-103839.69,-120513.47,-27094.768,-27145.672,-36606.406,-30690.105,-21902.508,-18582.723
1226962.6910275985,-103807.21,-120488.37,-27093.547,-27135.418,-36602.336,-30695.354,-21882.568,-18537.11
1226962.6950275956,-103800.21,-120480.88,-27091.758,-27134.36,-36596.76,-30688.477,-21863.81,-18523.52
1226962.6990275928,-103822.516,-120500.94,-27091.229,-27144.41,-36597.332,-30678.63,-21873.617,-18566.895
1226962.70302759,-103841.64,-120518.805,-27088.867,-27152.467,-36602.5,-30677.166,-21891.887,-18589.723
1226962.707027587,-103826.99,-120503.99,-27091.594,-27147.38,-36606.65,-30685.059,-21890.422,-18561.646
1226962.7110275843,-103800.945,-120482.34,-27095.379,-27137.533,-36602.418,-30691.773,-21871.42,-18520.346
1226962.7150275814,-103799.36,-120481.24,-27093.67,-27136.598,-36596.64,-30687.094,-21858.115,-18508.342
1226962.7190275786,-103821.54,-120500.77,-27090.943,-27143.799,-36596.926,-30679.648,-21870.2,-18548.422
1226962.7230275758,-103840.09,-120515.22,-27089.723,-27148.316,-36599.12,-30679.932,-21890.951,-18584.393
1226962.727027573,-103827.15,-120501.266,-27092.041,-27143.516,-36602.133,-30688.314,-21892.822,-18562.908
1226962.73102757,-103797.41,-120476.32,-27093.223,-27133.465,-36600.3,-30696.777,-21875.57,-18513.875
1226962.7350275673,-103793.79,-120476.445,-27092.773,-27133.465,-36594.523,-30693.197,-21863.893,-18514.607
1226962.7390275644,-103819.95,-120499.15,-27090.861,-27142.783,-36597.984,-30684.938,-21879.15,-18562.582
1226962.7430275616,-103835.53,-120515.67,-27090.537,-27148.52,-36603.355,-30683.39,-21896.24,-18586.264
1226962.7470275587,-103820.88,-120504.52,-27091.309,-27142.172,-36606.12,-30692.588,-21894.898,-18560.75
1226962.751027556,-103788.21,-120478.4,-27090.373,-27130.86,-36601.32,-30701.254,-21876.67,-18517.578
1226962.755027553,-103785.24,-120475.95,-27088.908,-27129.559,-36597.94,-30701.172,-21867.84,-18522.299
1226962.7590275502,-103814.78,-120499.07,-27086.834,-27136.475,-36596.234,-30694.418,-21880.006,-18557.861
1226962.7630275474,-103830.0,-120512.17,-27081.748,-27139.365,-36600.79,-30694.215,-21902.914,-18592.611
1226962.7670275446,-103810.75,-120495.69,-27077.8,-27125.53,-36601.277,-30703.492,-21903.076,-18563.436
1226962.7710275417,-103784.02,-120472.5,-27079.225,-27109.54,-36596.76,-30708.578,-21881.47,-18514.607
1226962.7750275389,-103778.57,-120469.12,-27077.23,-27106.162,-36588.38,-30702.76,-21867.107,-18506.836
1226962.779027536,-103801.84,-120488.85,-27077.557,-27113.404,-36590.74,-30694.133,-21877.93,-18546.875
1226962.7830275332,-103820.195,-120504.93,-27076.742,-27119.182,-36598.39,-30690.756,-21892.986,-18578.29
1226962.7870275304,-103806.6,-120492.88,-27078.33,-27113.16,-36602.867,-30697.43,-21887.451,-18548.34
1226962.7910275275,-103776.94,-120466.88,-27078.33,-27103.11,-36600.63,-30703.004,-21864.258,-18496.582
1226962.7950275247,-103775.27,-120463.26,-27076.783,-27101.604,-36592.9,-30700.156,-21850.871,-18492.27
1226962.7990275219,-103800.336,-120484.87,-27072.998,-27109.05,-36591.676,-30692.588,-21865.887,-18540.283
1226962.803027519,-103818.0,-120501.43,-27070.354,-27116.984,-36595.83,-30695.191,-21887.9,-18572.877
1226962.8070275162,-103802.125,-120485.195,-27070.395,-27108.969,-36598.918,-30702.354,-21886.557,-18548.748
1226962.8110275134,-103774.17,-120459.234,-27070.477,-27096.844,-36595.99,-30706.625,-21867.188,-18500.367
1226962.8150275105,-103772.055,-120454.76,-27069.824,-27097.168,-36588.91,-30703.29,-21856.65,-18492.31
1226962.8190275074,-103799.03,-120475.23,-27068.441,-27106.08,-36587.688,-30696.777,-21873.658,-18538.412
1226962.8230275046,-103815.31,-120490.36,-27066.65,-27112.754,-36594.484,-30696.494,-21897.46,-18574.992
1226962.8270275018,-103798.016,-120473.68,-27066.611,-27106.527,-36597.13,-30705.81,-21898.072,-18550.252
1226962.831027499,-103769.9,-120445.44,-27068.32,-27094.97,-36592.734,-30711.549,-21878.215,-18509.318
1226962.835027496,-103765.83,-120443.93,-27066.57,-27093.873,-36587.81,-30703.574,-21860.475,-18500.977
1226962.8390274933,-103793.09,-120470.22,-27066.936,-27103.72,-36587.85,-30692.344,-21870.037,-18533.041
1226962.8430274904,-103817.1,-120487.305,-27067.344,-27110.678,-36594.688,-30691.082,-21886.271,-18558.146
1226962.8470274876,-103809.66,-120475.75,-27069.459,-27105.713,-36599.61,-30697.918,-21886.76,-18541.545
1226962.8510274848,-103777.55,-120453.74,-27070.354,-27094.768,-36592.082,-30702.19,-21868.328,-18503.418
1226962.855027482,-103770.305,-120451.016,-27068.156,-27094.238,-36584.758,-30697.062,-21854.004,-18491.658
1226962.859027479,-103794.15,-120474.734,-27066.855,-27103.965,-36585.652,-30688.803,-21864.096,-18528.076
1226962.8630274762,-103810.55,-120490.28,-27065.715,-27111.492,-36594.2,-30687.5,-21883.994,-18559.45
1226962.8670274734,-103791.914,-120474.49,-27067.139,-27104.86,-36595.95,-30696.777,-21885.498,-18537.477
1226962.8710274706,-103765.266,-120450.24,-27066.814,-27094.85,-36591.39,-30702.271,-21865.805,-18484.172
1226962.8750274677,-103761.805,-120449.22,-27065.146,-27093.262,-36587.363,-30698.324,-21852.703,-18474.203
1226962.879027465,-103788.49,-120472.17,-27063.844,-27102.744,-36589.926,-30693.32,-21871.217,-18529.42
1226962.883027462,-103810.39,-120488.77,-27064.17,-27109.783,-36596.926,-30693.97,-21894.084,-18560.467
1226962.8870274592,-103797.49,-120474.49,-27067.506,-27105.633,-36603.516,-30701.213,-21895.63,-18530.926
1226962.8910274564,-103773.195,-120448.24,-27070.068,-27095.703,-36598.105,-30703.98,-21875.367,-18485.88
1226962.8950274535,-103772.055,-120444.99,-27070.395,-27096.518,-36591.676,-30700.236,-21861.451,-18478.883
1226962.8990274507,-103798.875,-120468.02,-27069.174,-27105.754,-36589.805,-30693.97,-21872.844,-18518.963
1226962.9030274479,-103817.51,-120485.07,-27068.93,-27112.754,-36600.18,-30694.053,-21888.795,-18542.684
1226962.907027445,-103799.97,-120469.81,-27068.035,-27107.992,-36607.3,-30700.156,-21884.482,-18509.562
1226962.9110274422,-103773.89,-120446.336,-27071.209,-27099.365,-36607.34,-30706.26,-21864.87,-18469.197
1226962.9150274394,-103774.984,-120447.92,-27071.453,-27098.674,-36602.05,-30700.684,-21853.924,-18471.924
1226962.9190274365,-103802.164,-120471.48,-27070.395,-27108.725,-36600.586,-30692.18,-21870.2,-18514.363
1226962.9230274337,-103819.99,-120487.23,-27070.883,-27116.252,-36606.812,-30691.488,-21892.09,-18546.387
1226962.9270274309,-103805.016,-120471.27,-27073.406,-27109.416,-36607.91,-30698.691,-21891.48,-18524.414
1226962.931027428,-103777.06,-120445.48,-27073.242,-27099.447,-36604.25,-30702.8,-21871.582,-18484.334
1226962.9350274252,-103776.125,-120446.5,-27071.982,-27098.838,-36601.645,-30695.762,-21860.027,-18481.324
1226962.9390274223,-103802.33,-120470.016,-27071.777,-27108.277,-36605.55,-30690.47,-21876.914,-18528.523
1226962.9430274195,-103821.086,-120484.7,-27067.627,-27112.305,-36609.133,-30690.268,-21893.434,-18550.822
1226962.9470274167,-103808.84,-120472.5,-27069.744,-27105.674,-36611.9,-30699.668,-21892.01,-18525.514
1226962.9510274138,-103784.8,-120451.54,-27074.707,-27096.518,-36612.633,-30706.178,-21876.588,-18484.457
1226962.955027411,-103787.03,-120454.96,-27075.156,-27098.47,-36608.36,-30700.36,-21868.734,-18479.86
1226962.9590274082,-103818.08,-120481.04,-27077.19,-27110.068,-36612.793,-30693.197,-21881.756,-18518.31
1226962.963027405,-103835.78,-120496.71,-27076.986,-27116.537,-36618.41,-30693.848,-21901.49,-18559.205
1226962.9670274023,-103818.04,-120483.97,-27078.451,-27110.557,-36622.805,-30702.475,-21899.822,-18535.93
1226962.9710273994,-103794.64,-120462.484,-27081.625,-27100.383,-36620.32,-30709.717,-21881.674,-18485.596
1226962.9750273966,-103793.3,-120462.125,-27081.137,-27101.28,-36610.027,-30706.055,-21872.764,-18490.967
1226962.9790273937,-103819.46,-120483.16,-27079.672,-27111.492,-36611.004,-30696.533,-21884.156,-18530.438
1226962.983027391,-103836.305,-120498.26,-27078.736,-27118.613,-36622.6,-30697.389,-21902.385,-18547.607
1226962.987027388,-103821.05,-120487.63,-27081.666,-27112.549,-36631.43,-30706.748,-21903.77,-18528.564
1226962.9910273852,-103796.875,-120468.39,-27085.246,-27104.33,-36627.32,-30714.805,-21885.865,-18497.355
1226962.9950273824,-103797.08,-120468.914,-27083.375,-27104.29,-36621.094,-30711.346,-21873.617,-18494.467
1226962.9990273796,-103826.945,-120496.586,-27083.537,-27115.52,-36623.414,-30704.307,-21885.498,-18530.762
1226963.0030273767,-103845.09,-120511.44,-27084.717,-27124.39,-36632.12,-30703.654,-21902.264,-18556.316
1226963.0070273739,-103829.23,-120492.555,-27085.938,-27120.322,-36637.29,-30712.77,-21900.27,-18531.291
1226963.011027371,-103802.78,-120469.52,-27088.135,-27110.027,-36631.676,-30719.768,-21882.568,-18492.635
1226963.0150273682,-103801.555,-120472.375,-27085.816,-27109.54,-36628.01,-30717.205,-21876.182,-18495.117
1226963.0190273654,-103832.56,-120495.734,-27085.734,-27119.508,-36630.37,-30711.426,-21893.393,-18529.785
1226963.0230273625,-103855.266,-120513.35,-27085.734,-27127.482,-36640.18,-30715.7,-21915.61,-18556.355
1226963.0270273597,-103837.734,-120500.695,-27088.176,-27122.031,-36643.84,-30725.465,-21912.477,-18531.941
1226963.0310273569,-103807.21,-120475.51,-27089.926,-27115.234,-36641.36,-30731.568,-21890.219,-18487.549
1226963.035027354,-103803.06,-120471.766,-27088.014,-27115.928,-36634.402,-30725.627,-21871.42,-18478.436
1226963.0390273512,-103831.79,-120493.66,-27086.752,-27126.547,-36635.094,-30716.92,-21881.959,-18519.816
1226963.0430273484,-103849.45,-120508.75,-27088.34,-27134.4,-36644.777,-30718.426,-21903.32,-18551.717
1226963.0470273455,-103832.805,-120492.234,-27088.502,-27128.785,-36648.926,-30729.736,-21902.752,-18528.035
1226963.0510273427,-103807.54,-120470.83,-27090.088,-27119.02,-36645.348,-30738.363,-21885.295,-18481.527
1226963.0550273398,-103808.84,-120474.45,-27085.125,-27119.549,-36639.895,-30735.84,-21871.867,-18477.621
1226963.059027337,-103836.875,-120498.13,-27079.59,-27128.053,-36640.83,-30728.965,-21884.521,-18522.299
1226963.0630273342,-103853.44,-120514.33,-27077.842,-27135.906,-36649.008,-30729.818,-21904.297,-18555.34
1226963.0670273313,-103835.01,-120500.086,-27078.857,-27131.633,-36652.71,-30740.479,-21901.693,-18535.523
1226963.0710273285,-103809.57,-120475.8,-27079.062,-27122.07,-36648.316,-30746.99,-21882.53,-18497.273
1226963.0750273257,-103812.42,-120475.71,-27079.184,-27121.908,-36644.168,-30742.92,-21869.346,-18490.275
1226963.0790273228,-103836.43,-120495.89,-27075.928,-27129.68,-36640.79,-30735.312,-21880.088,-18524.861
1226963.08302732,-103855.59,-120510.74,-27072.307,-27135.215,-36646.73,-30735.068,-21896.648,-18542.277
1226963.0870273171,-103832.85,-120494.19,-27068.889,-27127.238,-36650.23,-30742.555,-21894.37,-18513.266
1226963.0910273143,-103802.66,-120468.14,-27067.303,-27118.613,-36646.566,-30751.018,-21878.256,-18472.168
1226963.0950273115,-103805.016,-120473.31,-27063.926,-27119.182,-36640.34,-30744.59,-21867.96,-18473.43
1226963.0990273086,-103834.555,-120499.02,-27062.541,-27130.127,-36644.125,-30735.475,-21880.697,-18510.986
1226963.1030273058,-103853.64,-120509.98,-27059.164,-27134.238,-36655.926,-30738.078,-21900.596,-18529.46
1226963.1070273027,-103838.87,-120500.21,-27060.385,-27129.68,-36663.777,-30748.496,-21901.205,-18499.553
1226963.1110273,-103812.34,-120479.78,-27057.7,-27120.85,-36659.02,-30751.709,-21879.639,-18455.242
1226963.115027297,-103814.45,-120482.586,-27054.484,-27121.664,-36649.66,-30745.078,-21868.572,-18463.135
1226963.1190272942,-103840.87,-120505.17,-27051.393,-27131.023,-36651.45,-30733.643,-21882.53,-18512.33
1226963.1230272914,-103856.77,-120518.15,-27048.584,-27135.986,-36660.035,-30731.365,-21895.02,-18522.055
1226963.1270272885,-103836.43,-120503.95,-27052.246,-27130.291,-36667.4,-30741.13,-21893.148,-18500.0
1226963.1310272857,-103809.82,-120480.43,-27050.945,-27121.582,-36663.29,-30747.64,-21875.45,-18467.285
1226963.1350272829,-103814.66,-120484.17,-27045.33,-27121.867,-36657.188,-30741.008,-21866.049,-18462.81
1226963.13902728,-103842.37,-120508.266,-27041.79,-27132.121,-36656.332,-30731.406,-21879.762,-18504.314
1226963.1430272772,-103861.375,-120524.26,-27042.562,-27138.104,-36664.47,-30730.266,-21899.375,-18527.344
1226963.1470272744,-103845.79,-120511.4,-27044.719,-27131.797,-36671.51,-30738.16,-21898.072,-18500.732
1226963.1510272715,-103817.67,-120485.88,-27045.94,-27123.984,-36669.273,-30742.676,-21877.28,-18458.537
1226963.1550272687,-103817.43,-120483.12,-27045.29,-27123.902,-36660.81,-30736.572,-21862.834,-18452.922
1226963.1590272659,-103842.57,-120503.83,-27042.4,-27132.812,-36663.414,-30728.11,-21876.67,-18494.588
1226963.163027263,-103861.17,-120518.97,-27044.395,-27140.91,-36673.18,-30728.965,-21895.387,-18520.387
1226963.1670272602,-103841.02,-120501.875,-27044.922,-27133.953,-36673.258,-30737.143,-21893.271,-18498.129
1226963.1710272573,-103812.09,-120478.36,-27045.98,-27125.367,-36667.562,-30740.398,-21870.688,-18452.596
1226963.1750272545,-103815.59,-120482.75,-27044.842,-27127.197,-36665.0,-30731.895,-21856.568,-18438.68
1226963.1790272517,-103841.92,-120508.305,-27043.092,-27136.516,-36666.586,-30725.627,-21875.693,-18481.121
1226963.1830272488,-103854.375,-120519.375,-27041.26,-27139.61,-36671.836,-30728.924,-21903.564,-18532.879
1226963.187027246,-103831.83,-120496.055,-27039.756,-27131.797,-36674.562,-30739.137,-21905.844,-18514.812
1226963.1910272432,-103799.93,-120466.76,-27037.314,-27121.258,-36667.156,-30744.873,-21883.79,-18460.816
1226963.1950272403,-103801.555,-120470.09,-27033.123,-27122.559,-36661.05,-30739.422,-21870.037,-18451.457
1226963.1990272375,-103830.41,-120495.04,-27032.188,-27130.78,-36663.82,-30730.389,-21882.0,-18484.172
1226963.2030272346,-103846.73,-120507.29,-27031.738,-27135.254,-36671.59,-30730.021,-21898.398,-18514.04
1226963.2070272318,-103823.94,-120489.26,-27032.756,-27127.035,-36673.625,-30738.607,-21893.76,-18483.277
1226963.211027229,-103790.0,-120461.875,-27029.746,-27116.416,-36668.785,-30744.182,-21872.64,-18438.6
1226963.2150272261,-103790.77,-120460.375,-27025.717,-27116.049,-36664.023,-30739.99,-21861.654,-18436.523
1226963.2190272233,-103822.516,-120483.08,-27027.02,-27125.488,-36664.51,-30733.562,-21879.03,-18475.22
1226963.2230272205,-103843.43,-120496.83,-27027.914,-27130.697,-36672.04,-30732.26,-21896.201,-18497.803
1226963.2270272176,-103826.26,-120484.3,-27029.217,-27122.559,-36674.074,-30740.275,-21894.41,-18480.916
1226963.2310272148,-103799.93,-120461.8,-27031.129,-27113.73,-36665.69,-30748.332,-21877.809,-18451.213
1226963.235027212,-103801.72,-120460.53,-27030.07,-27115.357,-36660.81,-30744.955,-21866.74,-18444.174
1226963.239027209,-103831.055,-120484.3,-27029.014,-27124.96,-36663.37,-30736.451,-21878.094,-18470.703
1226963.2430272063,-103851.56,-120498.82,-27028.77,-27131.145,-36670.004,-30738.16,-21898.479,-18508.992
1226963.2470272034,-103830.2,-120481.445,-27029.785,-27123.576,-36675.457,-30746.95,-21898.805,-18490.234
1226963.2510272004,-103801.555,-120458.91,-27030.07,-27112.305,-36671.633,-30753.012,-21879.762,-18440.389
1226963.2550271975,-103805.18,-120461.59,-27030.479,-27114.584,-36662.273,-30747.234,-21869.346,-18435.344
1226963.2590271947,-103836.555,-120489.1,-27031.373,-27125.326,-36667.074,-30737.021,-21885.092,-18485.475
1226963.2630271919,-103855.23,-120499.96,-27032.432,-27131.186,-36677.613,-30734.62,-21900.146,-18508.83
1226963.267027189,-103839.805,-120487.76,-27039.062,-27125.53,-36681.48,-30743.979,-21897.99,-18479.818
1226963.2710271862,-103813.36,-120469.2,-27043.498,-27116.334,-36677.004,-30752.809,-21883.424,-18447.307
1226963.2750271834,-103817.914,-120476.36,-27043.295,-27117.758,-36672.566,-30746.338,-21873.861,-18448.121
1226963.2790271805,-103848.72,-120500.53,-27045.574,-27129.355,-36675.863,-30737.916,-21889.812,-18488.322
1226963.2830271777,-103866.055,-120513.92,-27048.26,-27134.033,-36679.527,-30737.549,-21906.7,-18507.488
1226963.2870271748,-103846.16,-120499.76,-27050.66,-27126.709,-36684.855,-30748.658,-21903.85,-18474.568
1226963.291027172,-103816.695,-120473.72,-27050.537,-27116.334,-36679.566,-30755.656,-21886.68,-18430.787
1226963.2950271692,-103814.336,-120468.39,-27048.016,-27117.352,-36670.33,-30750.082,-21876.262,-18434.53
1226963.2990271663,-103841.35,-120486.375,-27045.86,-27127.727,-36670.695,-30739.99,-21888.877,-18478.883
1226963.3030271635,-103855.76,-120495.89,-27043.701,-27131.633,-36678.59,-30737.916,-21905.396,-18507.0
1226963.3070271607,-103838.71,-120481.86,-27046.104,-27125.977,-36683.15,-30749.309,-21902.832,-18472.576
1226963.3110271578,-103815.27,-120458.46,-27046.104,-27116.13,-36679.566,-30757.324,-21883.506,-18420.654
1226963.315027155,-103818.41,-120461.47,-27043.742,-27116.863,-36675.293,-30754.273,-21877.361,-18431.682
1226963.3190271521,-103845.586,-120486.33,-27042.48,-27125.855,-36672.65,-30745.646,-21891.846,-18474.895
1226963.3230271493,-103861.33,-120496.22,-27039.918,-27129.436,-36677.29,-30744.873,-21907.188,-18489.95
1226963.3270271465,-103842.77,-120483.16,-27043.498,-27123.008,-36684.855,-30754.844,-21906.25,-18464.885
1226963.3310271436,-103817.836,-120463.46,-27047.975,-27114.422,-36681.277,-30762.29,-21891.725,-18437.094
1226963.3350271408,-103818.52,-120459.03,-27045.98,-27116.416,-36673.016,-30756.553,-21884.807,-18442.018
1226963.339027138,-103844.445,-120482.18,-27040.65,-27124.39,-36674.074,-30746.746,-21898.56,-18480.021
1226963.3430271351,-103861.375,-120499.44,-27039.023,-27130.656,-36684.45,-30745.81,-21915.65,-18502.441
1226963.3470271323,-103839.195,-120487.43,-27042.686,-27124.188,-36689.656,-30756.104,-21913.818,-18475.506
1226963.3510271295,-103814.54,-120466.35,-27044.15,-27115.357,-36686.08,-30762.9,-21896.484,-18432.129
1226963.3550271266,-103819.79,-120466.48,-27044.719,-27115.928,-36680.992,-30756.512,-21885.133,-18433.717
1226963.3590271238,-103850.38,-120492.11,-27047.568,-27127.158,-36682.13,-30749.838,-21899.863,-18476.97
1226963.363027121,-103868.086,-120505.09,-27048.707,-27134.156,-36691.652,-30750.611,-21920.371,-18507.732
1226963.367027118,-103847.086,-120487.15,-27049.521,-27127.768,-36697.43,-30758.709,-21916.953,-18479.98
1226963.3710271153,-103823.445,-120468.305,-27050.701,-27120.24,-36693.562,-30765.342,-21896.363,-18434.123
1226963.3750271124,-103826.79,-120472.78,-27050.66,-27122.559,-36688.438,-30763.021,-21889.404,-18436.238
1226963.3790271096,-103856.57,-120499.44,-27049.602,-27133.3,-36691.812,-30756.918,-21908.326,-18478.842
1226963.3830271068,-103873.87,-120509.65,-27048.057,-27138.754,-36699.586,-30757.324,-21927.002,-18505.697
1226963.387027104,-103849.45,-120488.2,-27045.654,-27130.168,-36700.97,-30765.463,-21922.975,-18473.756
1226963.391027101,-103818.41,-120462.484,-27042.725,-27118.652,-36694.54,-30772.584,-21902.02,-18422.486
1226963.395027098,-103819.42,-120461.96,-27041.627,-27121.258,-36687.297,-30768.799,-21889.201,-18426.352
1226963.3990270952,-103847.17,-120485.35,-27042.318,-27132.936,-36691.285,-30761.271,-21905.314,-18477.133
1226963.4030270923,-103861.29,-120496.586,-27040.771,-27136.23,-36699.668,-30759.889,-21920.533,-18499.676
1226963.4070270895,-103840.62,-120478.516,-27040.324,-27126.914,-36702.965,-30767.13,-21913.33,-18454.021
1226963.4110270867,-103815.516,-120456.42,-27045.33,-27119.385,-36694.742,-30774.62,-21894.531,-18415.08
1226963.4150270838,-103820.16,-120462.08,-27045.777,-27122.926,-36688.355,-30770.916,-21888.592,-18430.055
1226963.419027081,-103853.11,-120489.38,-27046.387,-27132.936,-36691.164,-30763.469,-21908.326,-18477.336
1226963.4230270782,-103873.984,-120504.195,-27045.86,-27136.557,-36698.855,-30763.307,-21928.996,-18503.377
1226963.4270270753,-103855.516,-120488.53,-27047.893,-27129.72,-36703.453,-30773.072,-21926.19,-18470.5
1226963.4310270725,-103828.9,-120465.7,-27049.805,-27122.479,-36702.35,-30781.617,-21908.53,-18430.46
1226963.4350270696,-103833.7,-120467.49,-27046.713,-27124.432,-36697.47,-30777.223,-21901.408,-18444.215
1226963.4390270668,-103856.24,-120489.26,-27044.11,-27132.406,-36696.82,-30768.19,-21915.447,-18478.436
1226963.443027064,-103867.48,-120503.664,-27041.871,-27136.436,-36702.76,-30769.531,-21932.049,-18487.793
1226963.4470270611,-103847.01,-120484.87,-27046.143,-27129.355,-36704.55,-30782.432,-21935.303,-18469.197
1226963.4510270583,-103817.18,-120459.11,-27048.79,-27120.037,-36698.61,-30787.639,-21918.701,-18442.627
1226963.4550270555,-103824.14,-120466.92,-27049.684,-27124.39,-36696.492,-30782.146,-21905.803,-18435.467
1226963.4590270526,-103856.9,-120494.8,-27051.475,-27136.598,-36702.11,-30773.154,-21919.678,-18467.408
1226963.4630270498,-103871.79,-120508.95,-27048.504,-27143.148,-36711.305,-30774.822,-21939.373,-18505.127
1226963.467027047,-103850.99,-120487.06,-27049.48,-27134.645,-36715.74,-30783.123,-21931.152,-18477.58
1226963.471027044,-103827.234,-120463.75,-27053.916,-27127.32,-36712.28,-30787.762,-21910.686,-18428.387
1226963.4750270413,-103833.375,-120467.29,-27055.787,-27129.559,-36708.54,-30784.75,-21904.053,-18426.799
1226963.4790270384,-103860.11,-120488.94,-27054.932,-27139.568,-36708.254,-30778.688,-21922.73,-18480.877
1226963.4830270356,-103875.45,-120501.39,-27055.34,-27146.648,-36717.082,-30779.99,-21942.059,-18505.494
1226963.4870270328,-103857.47,-120484.42,-27058.146,-27142.701,-36724.285,-30786.703,-21936.523,-18463.176
1226963.49102703,-103830.37,-120465.17,-27060.547,-27136.068,-36724.082,-30792.48,-21920.248,-18423.748
1226963.495027027,-103827.84,-120465.984,-27056.602,-27137.818,-36715.984,-30785.889,-21910.686,-18435.506
1226963.4990270243,-103855.15,-120488.98,-27053.184,-27144.613,-36717.203,-30774.863,-21921.469,-18472.371
1226963.5030270214,-103869.8,-120502.61,-27055.625,-27150.717,-36724.938,-30777.832,-21941.203,-18485.393
1226963.5070270186,-103851.97,-120483.56,-27060.996,-27145.752,-36727.785,-30791.79,-21945.15,-18465.861
1226963.5110270157,-103828.695,-120462.61,-27064.453,-27138.184,-36721.68,-30797.812,-21930.828,-18445.027
1226963.515027013,-103834.555,-120465.17,-27064.291,-27139.975,-36718.02,-30790.691,-21922.568,-18451.742
1226963.51902701,-103859.83,-120487.47,-27063.111,-27151.367,-36722.496,-30781.617,-21935.1,-18486.41
1226963.5230270072,-103874.07,-120499.96,-27061.932,-27155.64,-36729.168,-30781.414,-21947.998,-18500.936
1226963.5270270044,-103847.984,-120479.74,-27061.117,-27146.852,-36732.137,-30789.633,-21938.03,-18464.355
1226963.5310270016,-103818.81,-120458.42,-27062.541,-27139.527,-36724.285,-30795.29,-21919.883,-18421.63
1226963.5350269987,-103826.79,-120469.12,-27063.518,-27142.904,-36720.055,-30791.139,-21914.512,-18431.805
1226963.5390269957,-103854.984,-120492.03,-27058.96,-27152.549,-36725.223,-30783.977,-21928.63,-18472.738
1226963.5430269928,-103870.94,-120502.08,-27056.723,-27157.676,-36735.8,-30783.57,-21941.203,-18487.875
1226963.54702699,-103850.55,-120487.39,-27058.514,-27150.717,-36738.973,-30792.848,-21939.658,-18465.943
1226963.5510269871,-103821.78,-120464.44,-27062.867,-27142.822,-36737.02,-30797.486,-21923.992,-18431.275
1226963.5550269843,-103830.0,-120469.57,-27062.338,-27146.852,-36729.207,-30791.26,-21917.969,-18441.936
1226963.5590269815,-103861.78,-120493.164,-27061.28,-27158.53,-36728.8,-30783.367,-21931.152,-18479.574
1226963.5630269786,-103875.49,-120503.34,-27057.373,-27163.33,-36737.836,-30783.691,-21945.273,-18490.846
1226963.5670269758,-103854.945,-120487.555,-27058.96,-27157.838,-36743.492,-30794.639,-21942.75,-18455.363
1226963.571026973,-103832.03,-120467.29,-27061.28,-27151.49,-36739.664,-30799.846,-21924.033,-18418.01
1226963.5750269701,-103837.2,-120472.7,-27060.914,-27154.705,-36735.883,-30791.912,-21915.283,-18433.553
1226963.5790269673,-103865.56,-120494.39,-27061.605,-27165.244,-36738.363,-30783.447,-21933.35,-18489.543
1226963.5830269645,-103880.21,-120505.82,-27063.762,-27170.574,-36746.5,-30785.93,-21954.307,-18515.91
1226963.5870269616,-103859.375,-120487.43,-27065.512,-27163.535,-36749.637,-30796.592,-21952.637,-18480.713
1226963.5910269588,-103833.58,-120466.19,-27068.727,-27156.617,-36746.99,-30803.752,-21934.652,-18433.39
1226963.595026956,-103839.16,-120471.234,-27068.115,-27160.117,-36740.848,-30796.916,-21926.107,-18441.691
1226963.599026953,-103869.96,-120491.7,-27065.756,-27171.469,-36742.92,-30786.297,-21939.17,-18485.88
1226963.6030269503,-103886.4,-120500.94,-27065.674,-27177.695,-36753.418,-30785.361,-21956.26,-18508.871
1226963.6070269474,-103865.64,-120481.695,-27067.383,-27169.068,-36755.535,-30794.312,-21950.848,-18481.324
1226963.6110269446,-103841.64,-120462.484,-27069.459,-27161.865,-36747.477,-30799.643,-21932.7,-18445.72
1226963.6150269418,-103843.34,-120466.31,-27066.162,-27163.86,-36739.79,-30790.771,-21924.887,-18448.486
1226963.619026939,-103871.14,-120492.92,-27063.844,-27174.44,-36743.246,-30782.023,-21940.268,-18489.666
1226963.623026936,-103886.68,-120506.02,-27064.861,-27180.34,-36751.18,-30783.652,-21958.252,-18521.322
1226963.6270269332,-103864.46,-120486.33,-27068.32,-27172.771,-36754.883,-30796.184,-21957.48,-18489.787
1226963.6310269304,-103837.484,-120465.09,-27069.297,-27164.47,-36752.156,-30803.916,-21938.438,-18448.854
1226963.6350269276,-103845.664,-120468.14,-27067.424,-27169.271,-36751.547,-30798.951,-21929.525,-18456.87
1226963.6390269247,-103872.16,-120489.875,-27063.559,-27178.02,-36750.164,-30787.191,-21944.703,-18499.023
1226963.643026922,-103887.17,-120501.71,-27065.064,-27182.17,-36755.37,-30787.598,-21959.514,-18514.242
1226963.647026919,-103870.28,-120485.31,-27070.15,-27175.172,-36757.61,-30798.91,-21956.463,-18488.445
1226963.6510269162,-103846.36,-120463.75,-27074.83,-27167.197,-36751.832,-30803.793,-21937.297,-18447.795
1226963.6550269134,-103855.23,-120467.57,-27073.527,-27170.654,-36746.543,-30794.475,-21926.148,-18450.643
1226963.6590269106,-103889.98,-120496.18,-27072.145,-27183.066,-36752.727,-30785.197,-21941.0,-18494.14
1226963.6630269077,-103907.43,-120508.914,-27072.877,-27192.22,-36762.656,-30785.564,-21960.572,-18527.467
1226963.6670269049,-103886.07,-120493.62,-27075.115,-27183.594,-36767.133,-30795.451,-21959.514,-18505.453
1226963.671026902,-103865.234,-120482.34,-27080.73,-27176.19,-36768.555,-30804.281,-21941.895,-18464.52
1226963.6750268992,-103875.41,-120488.445,-27076.904,-27179.607,-36764.73,-30798.3,-21930.87,-18472.25
1226963.6790268961,-103904.3,-120510.7,-27073.162,-27189.697,-36763.797,-30789.633,-21944.744,-18515.707
1226963.6830268933,-103918.625,-120520.8,-27073.936,-27193.809,-36768.066,-30790.283,-21962.852,-18538.168
1226963.6870268905,-103894.734,-120499.96,-27076.824,-27186.158,-36768.758,-30798.178,-21956.055,-18502.768
1226963.6910268876,-103867.64,-120476.24,-27078.004,-27177.979,-36762.207,-30802.734,-21930.176,-18453.328
1226963.6950268848,-103877.24,-120482.67,-27076.54,-27179.607,-36759.848,-30798.463,-21921.55,-18460.734
1226963.699026882,-103905.36,-120504.12,-27071.371,-27187.46,-36759.766,-30789.836,-21936.035,-18505.412
1226963.703026879,-103917.61,-120515.1,-27069.744,-27192.262,-36768.555,-30790.0,-21953.125,-18528.605
1226963.7070268763,-103903.08,-120502.28,-27071.818,-27184.855,-36775.105,-30803.264,-21954.916,-18494.914
1226963.7110268734,-103879.16,-120481.24,-27071.371,-27175.537,-36766.562,-30811.484,-21938.762,-18458.904
1226963.7150268706,-103882.45,-120487.06,-27068.32,-27177.084,-36759.156,-30803.834,-21931.805,-18467.0
1226963.7190268678,-103907.63,-120513.67,-27063.885,-27187.094,-36761.273,-30793.213,-21941.895,-18496.867
1226963.723026865,-103914.47,-120519.17,-27058.758,-27189.902,-36765.87,-30790.162,-21951.457,-18512.29
1226963.727026862,-103893.31,-120499.11,-27061.605,-27184.082,-36769.45,-30800.537,-21949.016,-18488.893
1226963.7310268593,-103872.36,-120480.06,-27064.982,-27176.963,-36766.074,-30806.682,-21933.799,-18451.824
1226963.7350268564,-103880.82,-120490.28,-27061.973,-27180.258,-36761.312,-30798.828,-21927.94,-18467.041
1226963.7390268536,-103909.71,-120515.71,-27057.496,-27187.623,-36762.82,-30784.873,-21939.861,-18499.512
1226963.7430268507,-103888.63,-120493.414,-27021.24,-27143.516,-36725.914,-30749.188,-21919.312,-18478.11
1226963.747026848,-103823.94,-120433.64,-26979.9,-27076.986,-36680.664,-30719.402,-21876.506,-18414.389
1226963.751026845,-103788.984,-120403.94,-26969.035,-27055.99,-36667.727,-30716.758,-21846.68,-18372.518
1226963.7550268422,-103792.4,-120404.38,-26961.143,-27053.549,-36661.62,-30709.229,-21836.02,-18381.959
1226963.7590268394,-103818.2,-120427.86,-26956.828,-27061.2,-36660.93,-30700.562,-21848.877,-18420.41
1226963.7630268366,-103834.516,-120439.945,-26956.828,-27067.547,-36666.504,-30697.51,-21861.94,-18434.773
1226963.7670268337,-103816.29,-120425.78,-26958.496,-27060.873,-36669.72,-30707.44,-21859.783,-18401.326
1226963.771026831,-103791.47,-120404.664,-26956.178,-27051.555,-36662.965,-30712.566,-21840.984,-18359.62
1226963.775026828,-103796.43,-120410.16,-26950.277,-27053.672,-36661.01,-30702.19,-21831.543,-18364.258
1226963.7790268252,-103825.28,-120434.49,-26945.639,-27065.186,-36665.773,-30690.47,-21846.355,-18400.96
1226963.7830268224,-103837.65,-120442.8,-26944.012,-27070.518,-36672.934,-30690.146,-21859.213,-18413.25
1226963.7870268195,-103816.05,-120424.28,-26944.215,-27063.03,-36676.676,-30701.66,-21856.975,-18379.883
1226963.7910268167,-103788.54,-120399.414,-26944.092,-27052.166,-36668.945,-30706.666,-21835.41,-18336.873
1226963.7950268139,-103793.664,-120399.54,-26938.72,-27053.467,-36663.535,-30697.227,-21822.754,-18338.787
1226963.799026811,-103821.945,-120422.24,-26935.873,-27064.332,-36662.926,-30686.523,-21835.938,-18374.47
1226963.8030268082,-103832.73,-120428.875,-26933.758,-27066.488,-36667.727,-30684.896,-21847.129,-18385.621
1226963.8070268054,-103808.31,-120406.74,-26933.758,-27055.95,-36669.273,-30693.768,-21839.723,-18346.965
1226963.8110268025,-103783.45,-120387.25,-26935.1,-27047.04,-36663.86,-30700.44,-21821.738,-18305.908
1226963.8150267997,-103790.24,-120394.414,-26933.27,-27048.504,-36657.27,-30693.035,-21815.023,-18326.254
1226963.8190267968,-103820.36,-120422.734,-26931.479,-27060.955,-36664.188,-30686.523,-21834.758,-18378.053
1226963.8230267938,-103827.805,-120427.21,-26929.2,-27065.47,-36667.035,-30685.914,-21848.389,-18388.266
1226963.827026791,-103799.484,-120401.9,-26928.955,-27056.56,-36668.66,-30696.697,-21840.373,-18345.5
1226963.831026788,-103773.03,-120379.93,-26928.875,-27048.38,-36665.0,-30702.11,-21821.656,-18303.63
1226963.8350267853,-103774.7,-120382.98,-26927.451,-27050.293,-36661.133,-30694.906,-21817.791,-18323.934
1226963.8390267824,-103798.914,-120405.12,-26924.236,-27060.223,-36664.266,-30686.402,-21834.025,-18368.896
1226963.8430267796,-103814.375,-120412.88,-26922.201,-27065.309,-36672.65,-30691.203,-21852.621,-18383.83
1226963.8470267768,-103790.9,-120390.06,-26924.805,-27055.096,-36674.156,-30705.242,-21852.133,-18354.656
1226963.851026774,-103770.15,-120374.02,-26929.566,-27048.3,-36670.29,-30712.688,-21837.525,-18322.713
1226963.855026771,-103781.375,-120384.89,-26930.055,-27053.02,-36665.61,-30704.307,-21832.275,-18340.088
1226963.8590267682,-103810.914,-120411.83,-26928.752,-27063.762,-36669.477,-30693.156,-21845.256,-18385.133
1226963.8630267654,-103824.914,-120421.02,-26929.688,-27068.97,-36677.125,-30694.824,-21860.312,-18399.822
1226963.8670267626,-103799.56,-120400.44,-26931.846,-27060.71,-36678.63,-30704.63,-21851.562,-18359.213
1226963.8710267597,-103774.91,-120383.914,-26934.002,-27053.428,-36675.496,-30710.287,-21832.969,-18319.256
1226963.875026757,-103784.63,-120392.13,-26935.223,-27057.334,-36670.695,-30702.8,-21829.428,-18334.717
1226963.879026754,-103816.61,-120418.18,-26932.74,-27065.797,-36671.957,-30693.4,-21847.576,-18385.05
1226963.8830267512,-103830.04,-120426.76,-26929.607,-27068.645,-36678.508,-30693.4,-21862.51,-18395.223
1226963.8870267484,-103810.305,-120408.9,-26934.123,-27062.623,-36683.23,-30706.055,-21857.586,-18358.846
1226963.8910267456,-103789.15,-120390.51,-26938.6,-27056.234,-36679.89,-30712.484,-21840.537,-18319.54
1226963.8950267427,-103799.97,-120399.664,-26939.861,-27061.402,-36674.44,-30705.607,-21833.781,-18324.3
1226963.8990267399,-103829.72,-120423.305,-26937.5,-27070.354,-36674.97,-30697.715,-21849.326,-18377.361
1226963.903026737,-103842.125,-120432.3,-26935.14,-27073.812,-36686.08,-30701.54,-21865.195,-18397.705
1226963.9070267342,-103817.63,-120412.4,-26936.89,-27064.982,-36690.96,-30712.607,-21860.23,-18354.86
1226963.9110267314,-103791.586,-120392.79,-26938.64,-27057.334,-36682.902,-30717.53,-21845.176,-18320.312
1226963.9150267285,-103802.45,-120402.875,-26937.46,-27060.914,-36680.83,-30710.205,-21839.438,-18336.02
1226963.9190267257,-103833.21,-120429.33,-26937.908,-27071.412,-36683.39,-30700.521,-21853.191,-18370.281
1226963.9230267229,-103846.11,-120439.54,-26940.756,-27076.172,-36688.395,-30701.945,-21868.043,-18390.178
1226963.92702672,-103827.44,-120420.21,-26946.086,-27069.541,-36695.312,-30714.479,-21864.258,-18358.113
1226963.9310267172,-103802.734,-120395.266,-26950.44,-27059.979,-36688.113,-30720.744,-21849.121,-18324.992
1226963.9350267143,-103809.94,-120401.29,-26949.3,-27062.705,-36684.41,-30714.764,-21846.68,-18336.223
1226963.9390267115,-103843.06,-120429.484,-26946.453,-27074.463,-36691.57,-30707.072,-21865.398,-18382.527
1226963.9430267087,-103853.6,-120438.12,-26945.03,-27078.207,-36697.55,-30706.422,-21879.111,-18395.996
1226963.9470267058,-103830.445,-120420.25,-26948.406,-27071.045,-36699.832,-30717.652,-21876.953,-18360.475
1226963.951026703,-103805.42,-120401.37,-26949.951,-27062.867,-36695.11,-30724.57,-21860.719,-18330.77
1226963.9550267002,-103820.234,-120412.6,-26948.61,-27067.139,-36689.09,-30718.018,-21849.082,-18341.96
1226963.9590266973,-103855.06,-120443.2,-26946.574,-27075.562,-36693.277,-30708.09,-21861.125,-18385.377
1226963.9630266945,-103857.79,-120450.41,-26942.871,-27079.225,-36701.09,-30710.41,-21879.15,-18401.734
1226963.9670266914,-103830.164,-120425.664,-26944.377,-27071.25,-36705.12,-30719.402,-21871.95,-18354.248
1226963.9710266886,-103805.22,-120407.76,-26946.9,-27061.402,-36699.06,-30722.861,-21848.797,-18310.588
1226963.9750266857,-103806.234,-120413.086,-26942.994,-27063.559,-36691.773,-30716.514,-21842.326,-18333.578
1226963.979026683,-103837.81,-120435.55,-26943.035,-27076.986,-36694.01,-30708.213,-21858.887,-18385.295
1226963.98302668,-103846.84,-120437.625,-26943.482,-27080.566,-36703.125,-30709.717,-21873.455,-18397.746
1226963.9870266772,-103822.35,-120413.78,-26946.697,-27070.068,-36708.254,-30722.088,-21872.844,-18359.498
1226963.9910266744,-103801.234,-120396.77,-26949.098,-27062.053,-36700.93,-30729.533,-21859.783,-18330.037
1226963.9950266716,-103813.12,-120406.375,-26948.04,-27067.953,-36697.957,-30722.82,-21856.975,-18344.32
1226963.9990266687,-103841.23,-120429.37,-26942.912,-27077.922,-36700.32,-30714.275,-21874.064,-18387.207
1226964.003026666,-103846.27,-120435.96,-26942.383,-27080.16,-36705.973,-30714.844,-21885.986,-18397.299
1226964.007026663,-103815.72,-120413.984,-26941.367,-27067.1,-36702.8,-30718.75,-21873.82,-18348.145
1226964.0110266602,-103794.11,-120395.63,-26943.28,-27058.27,-36696.82,-30723.309,-21855.062,-18314.168
1226964.0150266574,-103806.73,-120402.19,-26942.791,-27061.688,-36694.133,-30714.844,-21850.262,-18326.58
1226964.0190266545,-103836.875,-120426.84,-26938.72,-27070.273,-36695.965,-30704.266,-21863.201,-18369.426
1226964.0230266517,-103844.69,-120431.766,-26935.914,-27072.836,-36701.54,-30705.771,-21874.635,-18384.889
1226964.0270266489,-103821.91,-120409.8,-26938.682,-27064.17,-36704.145,-30717.367,-21867.148,-18352.621
1226964.031026646,-103797.445,-120390.99,-26939.494,-27055.299,-36697.836,-30721.924,-21849.447,-18313.559
1226964.0350266432,-103802.62,-120396.41,-26934.896,-27057.781,-36691.57,-30714.111,-21843.1,-18319.662
1226964.0390266404,-103826.5,-120421.59,-26930.584,-27066.936,-36694.582,-30703.818,-21856.445,-18348.389
1226964.0430266375,-103832.44,-120428.51,-26931.357,-27069.744,-36701.375,-30703.33,-21867.025,-18355.348
1226964.0470266347,-103810.19,-120410.28,-26932.781,-27060.426,-36705.203,-30712.77,-21863.078,-18329.021
1226964.0510266318,-103790.53,-120395.51,-26938.193,-27053.467,-36701.945,-30718.67,-21852.012,-18303.59
1226964.055026629,-103803.914,-120407.59,-26941.285,-27056.152,-36698.812,-30711.426,-21848.389,-18322.225
1226964.0590266262,-103835.78,-120435.76,-26938.926,-27067.791,-36705.934,-30703.574,-21864.666,-18367.27
1226964.0630266233,-103845.664,-120445.88,-26936.768,-27071.738,-36711.02,-30705.363,-21874.432,-18371.664
1226964.0670266205,-103817.75,-120418.83,-26936.523,-27059.531,-36710.492,-30715.17,-21867.555,-18336.629
1226964.0710266177,-103791.34,-120393.31,-26939.332,-27048.504,-36704.715,-30721.273,-21852.988,-18308.025
1226964.0750266148,-103802.53,-120399.26,-26938.07,-27051.719,-36696.82,-30713.502,-21846.844,-18318.686
1226964.079026612,-103831.99,-120422.49,-26937.135,-27062.338,-36701.297,-30705.73,-21863.486,-18356.61
1226964.0830266092,-103841.11,-120432.414,-26937.012,-27064.82,-36709.758,-30708.252,-21876.873,-18366.863
1226964.0870266063,-103816.0,-120415.53,-26937.744,-27056.52,-36712.73,-30718.1,-21871.99,-18326.457
1226964.0910266035,-103789.31,-120395.63,-26938.314,-27047.893,-36707.4,-30721.64,-21854.941,-18296.916
1226964.0950266006,-103797.57,-120402.266,-26937.297,-27050.578,-36700.887,-30713.664,-21846.477,-18309.205
1226964.0990265978,-103826.79,-120426.44,-26934.367,-27061.2,-36704.957,-30704.795,-21860.271,-18354.574
1226964.103026595,-103834.68,-120431.766,-26932.537,-27064.17,-36708.54,-30705.852,-21873.7,-18378.377
1226964.1070265921,-103812.7,-120411.75,-26935.059,-27056.072,-36711.266,-30718.547,-21865.357,-18330.607
1226964.111026589,-103789.23,-120391.81,-26940.635,-27047.812,-36704.67,-30724.121,-21846.559,-18290.486
1226964.1150265862,-103798.55,-120399.21,-26940.594,-27052.654,-36698.49,-30717.082,-21841.594,-18311.361
1226964.1190265834,-103826.46,-120418.586,-26937.744,-27062.541,-36698.977,-30706.016,-21852.256,-18347.209
1226964.1230265805,-103836.305,-120424.89,-26936.89,-27066.691,-36706.625,-30705.445,-21864.99,-18368.205
1226964.1270265777,-103812.26,-120406.945,-26940.959,-27058.555,-36709.555,-30715.658,-21860.76,-18333.74
1226964.1310265749,-103790.66,-120390.42,-26943.727,-27050.334,-36703.33,-30720.379,-21845.459,-18295.574
1226964.135026572,-103800.336,-120399.625,-26940.43,-27052.328,-36697.67,-30712.932,-21839.438,-18310.832
1226964.1390265692,-103830.53,-120426.03,-26937.744,-27064.25,-36703.37,-30706.951,-21856.365,-18353.557
1226964.1430265664,-103843.55,-120435.34,-26938.355,-27067.912,-36717.0,-30711.59,-21870.77,-18364.705
1226964.1470265635,-103816.57,-120412.84,-26941.936,-27057.334,-36717.0,-30722.9,-21865.52,-18325.154
1226964.1510265607,-103793.83,-120392.3,-26943.645,-27049.684,-36705.406,-30728.516,-21851.686,-18295.166
1226964.1550265579,-103803.67,-120400.07,-26940.553,-27052.734,-36699.504,-30720.176,-21847.82,-18309.57
1226964.159026555,-103828.984,-120422.37,-26936.605,-27062.135,-36699.18,-30709.678,-21859.375,-18349.0
1226964.1630265522,-103834.72,-120426.805,-26935.467,-27064.576,-36705.812,-30707.846,-21868.37,-18361.004
1226964.1670265493,-103808.88,-120403.85,-26938.477,-27055.746,-36708.05,-30718.182,-21860.271,-18321.371
1226964.1710265465,-103782.59,-120389.98,-26939.25,-27046.754,-36704.184,-30726.156,-21844.85,-18285.686
1226964.1750265437,-103792.81,-120402.43,-26934.531,-27051.84,-36704.348,-30717.855,-21841.064,-18307.293
1226964.1790265408,-103826.13,-120427.01,-26931.805,-27061.646,-36707.234,-30710.125,-21858.848,-18354.451
1226964.183026538,-103831.22,-120431.28,-26930.502,-27063.559,-36713.746,-30711.223,-21870.566,-18357.91
1226964.1870265352,-103804.69,-120408.164,-26932.537,-27054.688,-36716.188,-30725.424,-21867.637,-18325.074
1226964.1910265323,-103779.664,-120386.07,-26933.27,-27044.516,-36705.934,-30729.98,-21848.633,-18289.877
1226964.1950265295,-103786.87,-120390.99,-26932.049,-27047.69,-36697.062,-30721.844,-21842.285,-18297.648
1226964.1990265267,-103814.58,-120412.68,-26932.617,-27059.408,-36699.625,-30714.64,-21860.596,-18344.93
1226964.2030265238,-103822.31,-120414.8,-26928.752,-27061.729,-36707.6,-30716.35,-21875.367,-18374.227
1226964.207026521,-103799.32,-120393.11,-26929.893,-27050.375,-36709.473,-30726.807,-21869.346,-18333.375
1226964.2110265181,-103779.664,-120375.25,-26933.717,-27041.586,-36702.15,-30731.73,-21853.477,-18295.33
1226964.2150265153,-103794.31,-120384.61,-26931.152,-27047.568,-36697.227,-30719.97,-21843.914,-18304.81
1226964.2190265125,-103827.03,-120412.48,-26931.64,-27059.164,-36700.727,-30709.025,-21855.307,-18339.52
1226964.2230265096,-103833.01,-120413.45,-26929.566,-27060.791,-36704.633,-30709.637,-21863.445,-18348.836
1226964.2270265068,-103802.375,-120386.195,-26931.56,-27049.316,-36706.586,-30720.664,-21856.527,-18312.135
1226964.231026504,-103774.62,-120364.305,-26931.885,-27040.447,-36699.22,-30725.059,-21839.56,-18281.861
1226964.2350265011,-103784.266,-120372.766,-26928.996,-27046.55,-36693.562,-30714.234,-21833.74,-18292.725
1226964.2390264983,-103809.77,-120394.945,-26925.09,-27057.09,-36698.57,-30704.916,-21851.562,-18333.455
1226964.2430264954,-103816.695,-120400.31,-26923.666,-27057.902,-36705.363,-30707.56,-21866.416,-18358.44
1226964.2470264926,-103795.58,-120381.68,-26927.084,-27048.178,-36707.6,-30719.117,-21860.922,-18327.678
1226964.2510264898,-103776.01,-120366.83,-26930.705,-27040.244,-36703.33,-30723.918,-21845.582,-18292.928
1226964.2550264867,-103788.21,-120378.79,-26927.734,-27044.11,-36695.72,-30714.967,-21841.879,-18310.303
1226964.2590264839,-103819.5,-120400.72,-26923.504,-27052.816,-36697.918,-30707.44,-21859.01,-18350.22
1226964.263026481,-103824.914,-120401.086,-26919.395,-27052.166,-36703.53,-30711.752,-21869.385,-18358.113
1226964.2670264782,-103794.31,-120376.14,-26922.648,-27041.342,-36703.168,-30721.559,-21859.336,-18320.354
1226964.2710264754,-103774.17,-120358.69,-26927.37,-27034.873,-36695.64,-30722.656,-21838.705,-18276.45
1226964.2750264725,-103783.9,-120367.234,-26927.37,-27039.43,-36691.938,-30712.607,-21833.945,-18298.625
1226964.2790264697,-103807.82,-120386.44,-26923.87,-27048.3,-36687.95,-30701.945,-21848.186,-18342.285
1226964.2830264668,-103817.02,-120388.06,-26924.277,-27052.979,-36695.883,-30702.842,-21855.713,-18340.129
1226964.287026464,-103795.29,-120366.78,-26929.688,-27045.695,-36702.72,-30713.584,-21848.186,-18299.195
1226964.2910264612,-103774.62,-120352.016,-26928.875,-27038.494,-36695.273,-30717.205,-21834.393,-18273.602
1226964.2950264583,-103790.86,-120363.734,-26926.31,-27042.969,-36689.7,-30710.734,-21836.955,-18305.096
1226964.2990264555,-103818.93,-120388.15,-26922.486,-27052.979,-36696.207,-30702.393,-21854.818,-18350.912
1226964.3030264527,-103826.99,-120394.86,-26921.348,-27054.81,-36701.254,-30703.045,-21866.62,-18355.957
1226964.3070264498,-103799.4,-120375.57,-26923.38,-27043.295,-36699.91,-30711.426,-21853.191,-18306.6
1226964.311026447,-103773.84,-120354.91,-26923.584,-27034.385,-36694.906,-30715.576,-21834.066,-18271.932
1226964.3150264442,-103786.3,-120365.89,-26922.242,-27038.738,-36690.918,-30708.457,-21831.828,-18282.553
1226964.3190264413,-103818.484,-120392.83,-26920.615,-27049.521,-36692.87,-30700.521,-21845.744,-18322.633
1226964.3230264385,-103823.53,-120398.36,-26916.871,-27050.822,-36699.465,-30703.166,-21857.26,-18327.596
1226964.3270264356,-103795.25,-120377.65,-26917.969,-27041.586,-36701.54,-30713.46,-21853.271,-18304.443
1226964.3310264328,-103774.91,-120362.72,-26919.354,-27033.652,-36694.094,-30717.53,-21842.246,-18279.217
1226964.33502643,-103786.336,-120373.54,-26916.912,-27038.086,-36689.047,-30709.066,-21839.031,-18284.668
1226964.3390264271,-103814.13,-120396.33,-26914.348,-27046.55,-36694.176,-30699.79,-21854.533,-18332.928
1226964.3430264243,-103822.47,-120402.06,-26915.527,-27049.725,-36701.62,-30700.928,-21864.014,-18346.15
1226964.3470264215,-103797.164,-120381.76,-26919.8,-27042.562,-36710.855,-30712.12,-21853.354,-18303.793
1226964.3510264186,-103773.84,-120363.57,-26922.363,-27036.174,-36703.453,-30718.223,-21836.955,-18269.37
1226964.3550264158,-103790.41,-120372.89,-26919.678,-27039.674,-36696.414,-30710.41,-21835.166,-18286.703
1226964.359026413,-103817.43,-120392.13,-26913.615,-27047.16,-36697.145,-30700.848,-21852.133,-18331.584
1226964.36302641,-103827.555,-120397.18,-26912.11,-27050.62,-36704.67,-30703.492,-21868.164,-18346.314
1226964.3670264073,-103804.65,-120376.67,-26913.127,-27040.65,-36706.668,-30714.6,-21864.096,-18309.693
1226964.3710264044,-103781.62,-120360.88,-26911.865,-27033.041,-36701.09,-30719.035,-21850.22,-18282.553
1226964.3750264016,-103792.69,-120374.76,-26906.861,-27038.78,-36696.574,-30710.043,-21845.744,-18303.346
1226964.3790263988,-103818.12,-120400.03,-26900.596,-27049.236,-36701.66,-30700.36,-21857.545,-18334.84
1226964.383026396,-103826.375,-120403.53,-26899.334,-27049.643,-36704.67,-30701.865,-21864.707,-18334.92
1226964.387026393,-103803.39,-120380.336,-26902.223,-27038.818,-36705.527,-30712.281,-21852.295,-18295.94
1226964.3910263903,-103780.52,-120357.95,-26904.582,-27030.559,-36697.715,-30713.096,-21834.066,-18277.832
1226964.3950263874,-103794.56,-120367.68,-26902.385,-27036.094,-36691.977,-30701.295,-21828.533,-18296.916
1226964.3990263843,-103830.04,-120395.59,-26903.402,-27047.934,-36698.367,-30690.227,-21844.32,-18325.643
1226964.4030263815,-103838.46,-120401.05,-26900.31,-27050.375,-36706.18,-30686.729,-21852.906,-18327.271
1226964.4070263787,-103812.5,-120382.05,-26897.543,-27041.79,-36710.043,-30697.715,-21845.176,-18293.457
1226964.4110263758,-103790.57,-120363.2,-26896.893,-27034.994,-36702.516,-30703.166,-21832.56,-18276.814
1226964.415026373,-103805.71,-120378.99,-26891.725,-27039.512,-36698.977,-30693.156,-21830.283,-18290.324
1226964.4190263702,-103834.39,-120401.25,-26887.695,-27050.537,-36703.37,-30684.611,-21847.209,-18327.557
1226964.4230263673,-103839.03,-120399.13,-26883.912,-27052.207,-36711.14,-30688.965,-21862.184,-18339.314
1226964.4270263645,-103813.56,-120378.5,-26885.986,-27042.074,-36715.863,-30701.05,-21857.342,-18298.584
1226964.4310263616,-103791.47,-120363.445,-26885.215,-27034.994,-36710.613,-30703.898,-21842.938,-18264.201
1226964.4350263588,-103802.94,-120374.84,-26879.15,-27040.977,-36705.73,-30695.557,-21841.838,-18288.33
1226964.439026356,-103828.984,-120396.77,-26871.623,-27047.16,-36702.555,-30686.729,-21855.877,-18335.084
1226964.4430263531,-103835.734,-120401.984,-26869.793,-27048.79,-36712.28,-30688.314,-21864.502,-18338.014
1226964.4470263503,-103807.336,-120376.14,-26870.77,-27039.877,-36713.83,-30696.371,-21855.713,-18297.445
1226964.4510263475,-103782.72,-120353.64,-26871.502,-27033.408,-36705.08,-30698.08,-21834.637,-18259.807
1226964.4550263446,-103794.6,-120360.56,-26870.646,-27038.25,-36697.957,-30686.85,-21824.79,-18268.393
1226964.4590263418,-103823.94,-120387.01,-26869.67,-27048.096,-36702.555,-30678.63,-21841.717,-18310.629
1226964.463026339,-103831.26,-120395.1,-26869.834,-27050.945,-36710.855,-30682.7,-21855.186,-18321.168
1226964.4670263361,-103803.555,-120373.78,-26871.582,-27040.0,-36715.332,-30693.848,-21850.953,-18288.25
1226964.4710263333,-103782.19,-120359.79,-26874.023,-27034.385,-36711.71,-30699.098,-21836.955,-18256.959
1226964.4750263304,-103795.82,-120371.87,-26871.705,-27039.55,-36706.91,-30689.738,-21833.66,-18282.959
1226964.4790263276,-103823.94,-120393.15,-26869.996,-27050.701,-36713.992,-30679.81,-21847.697,-18325.318
1226964.4830263248,-103829.96,-120396.61,-26869.14,-27052.287,-36724.04,-30681.602,-21858.684,-18328.98
1226964.487026322,-103806.84,-120375.53,-26873.576,-27043.377,-36723.27,-30693.97,-21854.209,-18288.045
1226964.491026319,-103788.945,-120360.234,-26876.1,-27035.809,-36715.17,-30699.26,-21838.828,-18257.324
1226964.4950263163,-103805.42,-120374.59,-26877.564,-27042.725,-36710.98,-30693.97,-21839.764,-18272.828
1226964.4990263134,-103832.85,-120398.32,-26875.164,-27050.742,-36715.047,-30685.547,-21851.686,-18306.6
1226964.5030263106,-103838.664,-120401.9,-26872.844,-27053.346,-36724.855,-30687.705,-21862.957,-18324.666
1226964.5070263078,-103813.64,-120380.25,-26875.693,-27044.354,-36727.457,-30699.748,-21861.857,-18302.205
1226964.511026305,-103793.79,-120366.26,-26881.309,-27039.186,-36721.64,-30705.852,-21848.715,-18271.77
1226964.515026302,-103809.164,-120379.56,-26879.15,-27045.086,-36717.855,-30696.168,-21846.6,-18289.266
1226964.5190262992,-103839.484,-120407.64,-26876.791,-27055.787,-36724.0,-30686.932,-21864.463,-18333.252
1226964.5230262964,-103843.266,-120413.3,-26878.906,-27057.496,-36728.883,-30691.773,-21877.28,-18335.246
1226964.5270262936,-103821.66,-120394.05,-26887.086,-27048.707,-36732.87,-30703.574,-21871.379,-18292.236
1226964.5310262907,-103807.26,-120380.82,-26891.887,-27045.371,-36728.72,-30708.09,-21856.365,-18264.08
1226964.535026288,-103821.78,-120389.695,-26889.893,-27050.66,-36722.13,-30697.836,-21854.697,-18286.215
1226964.539026285,-103849.29,-120411.13,-26885.824,-27059.611,-36725.547,-30687.826,-21865.479,-18320.72
1226964.543026282,-103853.805,-120414.96,-26883.506,-27060.385,-36734.375,-30690.674,-21877.32,-18327.719
1226964.5470262791,-103824.75,-120389.37,-26884.197,-27049.602,-36737.02,-30701.945,-21870.2,-18289.795
1226964.5510262763,-103805.09,-120371.46,-26885.092,-27043.701,-36730.55,-30708.172,-21853.8,-18265.096
1226964.5550262735,-103815.02,-120382.05,-26880.78,-27049.44,-36723.918,-30697.186,-21845.664,-18280.314
1226964.5590262706,-103843.43,-120405.4,-26878.297,-27060.303,-36728.72,-30687.338,-21862.06,-18322.307
