timestamp,Fp1,Fp2,F3,Fz,F4,Cz,Pz,Oz
1214652.8455017374,-33870.934,-67120.65,1377.4822,-18320.68,-45663.414,-43622.316,-50886.72,-24852.703
1214652.8495017323,-33868.98,-67129.516,1378.2146,-18320.271,-45665.57,-43630.008,-50888.062,-24846.965
1214652.8535017269,-33869.793,-67129.6,1383.4229,-18317.424,-45658.938,-43624.92,-50894.33,-24862.713
1214652.8575017215,-33867.35,-67128.055,1393.8802,-18313.518,-45658.855,-43615.156,-50900.434,-24884.115
1214652.8615017163,-33866.902,-67137.984,1401.3265,-18314.78,-45672.527,-43615.48,-50899.902,-24873.984
1214652.865501711,-33869.344,-67158.37,1405.4769,-18313.191,-45671.67,-43623.82,-50898.4,-24861.29
1214652.8695017057,-33867.594,-67141.32,1404.7852,-18314.291,-45662.395,-43627.44,-50898.926,-24873.496
1214652.8735017003,-33873.332,-67135.99,1406.9824,-18311.158,-45659.06,-43620.04,-50898.723,-24877.402
1214652.877501695,-33871.34,-67147.71,1417.033,-18308.39,-45655.76,-43616.09,-50901.652,-24874.553
1214652.8815016898,-33863.16,-67155.68,1416.0564,-18306.111,-45654.137,-43618.45,-50902.996,-24875.53
1214652.8855016844,-33856.73,-67135.58,1405.8838,-18307.943,-45656.17,-43624.84,-50894.816,-24851.727
1214652.8895016792,-33851.727,-67154.625,1406.8197,-18309.164,-45655.316,-43628.582,-50893.598,-24868.002
1214652.8935016738,-33858.48,-67152.18,1413.737,-18305.95,-45651.98,-43621.176,-50897.87,-24887.94
1214652.8975016684,-33858.523,-67144.62,1417.806,-18302.531,-45646.08,-43613.12,-50900.473,-24885.295
1214652.9015016633,-33856.73,-67143.39,1421.8344,-18302.084,-45654.46,-43616.293,-50904.625,-24889.812
1214652.9055016579,-33859.742,-67160.81,1414.1033,-18305.176,-45659.953,-43625.49,-50905.316,-24896.566
1214652.9095016525,-33866.78,-67150.555,1411.9873,-18306.275,-45660.566,-43628.906,-50905.52,-24895.63
1214652.9135016473,-33873.984,-67155.88,1412.8826,-18305.34,-45656.008,-43621.625,-50904.34,-24883.709
1214652.917501642,-33862.996,-67161.54,1415.8529,-18299.764,-45652.223,-43612.02,-50904.01,-24874.635
1214652.9215016367,-33859.906,-67167.805,1413.5742,-18301.19,-45649.863,-43612.305,-50902.508,-24861.94
1214652.9255016313,-33857.06,-67178.305,1407.308,-18305.584,-45660.44,-43620.445,-50903.28,-24869.467
1214652.929501626,-33865.03,-67188.6,1403.768,-18308.758,-45664.836,-43624.023,-50905.152,-24888.592
1214652.9335016208,-33870.445,-67189.414,1406.1279,-18307.861,-45667.277,-43618.652,-50899.78,-24877.93
1214652.9375016154,-33862.754,-67183.19,1405.0701,-18305.299,-45667.277,-43611.656,-50894.53,-24855.918
1214652.9415016102,-33862.996,-67190.23,1403.8494,-18306.64,-45666.586,-43612.55,-50894.33,-24853.8
1214652.9455016048,-33866.66,-67205.484,1403.3611,-18311.076,-45668.742,-43619.914,-50889.285,-24850.871
1214652.9495015994,-33876.914,-67187.95,1402.0996,-18314.535,-45665.203,-43624.227,-50890.504,-24867.676
1214652.9535015943,-33862.793,-67180.87,1404.9886,-18309.408,-45660.24,-43611.33,-50888.145,-24861.94
1214652.9575015889,-33860.027,-67178.266,1403.0355,-18308.432,-45654.582,-43600.914,-50885.867,-24847.656
1214652.9615015837,-33870.32,-67186.65,1406.0873,-18310.262,-45661.46,-43604.82,-50891.195,-24864.34
1214652.9655015783,-33866.17,-67189.25,1406.0873,-18312.623,-45671.957,-43612.918,-50892.58,-24874.309
1214652.969501573,-33857.26,-67208.336,1401.9775,-18313.07,-45672.934,-43620.934,-50889.773,-24864.178
1214652.9735015677,-33853.355,-67200.195,1406.5756,-18310.71,-45666.098,-43612.957,-50886.68,-24854.941
1214652.9775015623,-33855.67,-67197.1,1408.9355,-18309.002,-45674.848,-43601.766,-50885.457,-24855.998
1214652.981501557,-33858.36,-67196.82,1404.7039,-18311.443,-45677.246,-43602.582,-50882.57,-24851.035
1214652.9855015518,-33860.027,-67202.84,1400.5535,-18312.623,-45665.938,-43612.062,-50882.61,-24855.145
1214652.9895015464,-33852.703,-67211.63,1399.1293,-18312.826,-45667.156,-43615.766,-50882.246,-24857.057
1214652.9935015412,-33851.402,-67188.97,1401.8555,-18310.018,-45667.117,-43606.73,-50879.234,-24844.035
1214652.9975015358,-33855.67,-67183.48,1400.8789,-18308.188,-45664.55,-43598.88,-50879.11,-24838.828
1214653.0015015304,-33861.98,-67195.766,1401.7334,-18308.553,-45664.797,-43601.523,-50881.918,-24840.658
1214653.0055015252,-33864.016,-67210.86,1398.0713,-18310.059,-45670.453,-43611.043,-50884.074,-24841.514
1214653.0095015198,-33864.79,-67213.625,1397.9492,-18313.111,-45674.44,-43614.992,-50884.32,-24835.857
1214653.0135015147,-33864.504,-67213.79,1403.117,-18311.646,-45673.26,-43606.773,-50883.586,-24827.312
1214653.0175015093,-33862.754,-67211.55,1406.5349,-18307.74,-45668.254,-43600.63,-50888.43,-24841.473
1214653.021501504,-33860.434,-67215.01,1407.9998,-18307.373,-45678.67,-43601.2,-50891.277,-24851.562
1214653.0255014987,-33858.48,-67219.24,1406.6976,-18309.205,-45686.117,-43606.65,-50888.348,-24843.832
1214653.0295014933,-33847.94,-67212.77,1408.6508,-18308.309,-45673.586,-43612.387,-50886.19,-24836.182
1214653.0335014882,-33852.254,-67219.41,1412.3943,-18304.12,-45662.19,-43605.062,-50883.14,-24834.799
1214653.0375014828,-33848.227,-67214.64,1413.6963,-18301.066,-45655.6,-43594.81,-50885.336,-24843.018
1214653.0415014774,-33842.367,-67201.42,1415.8529,-18300.701,-45655.6,-43596.56,-50892.742,-24864.014
1214653.0455014722,-33841.434,-67206.75,1414.8763,-18301.393,-45659.832,-43606.242,-50889.082,-24851.807
1214653.0495014668,-33846.11,-67214.44,1415.9343,-18302.41,-45664.473,-43613.12,-50889.16,-24863.037
1214653.0535014614,-33846.316,-67216.23,1415.4867,-18300.293,-45655.477,-43607.625,-50886.19,-24845.215
1214653.0575014562,-33851.766,-67223.35,1413.2894,-18300.375,-45654.137,-43598.96,-50883.383,-24831.992
1214653.0615014508,-33849.61,-67223.96,1413.5336,-18300.213,-45647.707,-43597.94,-50887.535,-24849.691
1214653.0655014457,-33839.97,-67221.48,1417.2771,-18299.072,-45648.074,-43604.37,-50887.617,-24852.744
1214653.0695014403,-33841.105,-67226.65,1415.2426,-18301.229,-45650.594,-43610.477,-50887.13,-24849.082
1214653.0735014349,-33844.484,-67222.58,1416.8701,-18297.363,-45647.664,-43603.965,-50883.426,-24844.688
1214653.0775014297,-33845.703,-67227.016,1417.3584,-18295.33,-45645.1,-43596.234,-50875.49,-24825.725
1214653.0815014243,-33830.16,-67228.68,1423.9095,-18291.79,-45649.05,-43603.477,-50875.816,-24825.725
1214653.0855014191,-33815.227,-67214.93,1432.5359,-18291.098,-45648.97,-43614.746,-50882.324,-24844.32
1214653.0895014137,-33811.484,-67206.664,1432.8613,-18291.83,-45648.6,-43618.734,-50882.938,-24838.42
1214653.0935014084,-33809.9,-67202.64,1431.722,-18291.219,-45646.406,-43610.76,-50880.82,-24829.754
1214653.0975014032,-33803.793,-67221.234,1431.1931,-18288.33,-45643.883,-43602.62,-50880.617,-24836.508
1214653.1015013978,-33803.996,-67223.35,1431.1117,-18288.045,-45645.145,-43603.11,-50877.44,-24823.568
1214653.1055013926,-33807.332,-67203.66,1427.8158,-18290.936,-45647.95,-43608.727,-50874.676,-24806.52
1214653.1095013872,-33807.008,-67212.61,1430.4199,-18293.092,-45646.77,-43611.492,-50871.83,-24809.123
1214653.1135013818,-33799.195,-67206.87,1434.0414,-18289.674,-45632.61,-43601.035,-50873.617,-24849.936
1214653.1175013767,-33794.395,-67199.055,1436.5234,-18288.533,-45631.348,-43591.758,-50873.17,-24840.049
1214653.1215013713,-33797.363,-67206.38,1433.1462,-18288.777,-45638.062,-43595.215,-50876.547,-24837.484
1214653.1255013659,-33801.84,-67222.78,1437.2966,-18291.383,-45643.19,-43606.527,-50883.344,-24860.107
1214653.1295013607,-33811.523,-67239.75,1436.8083,-18294.922,-45644.492,-43612.508,-50886.273,-24852.783
1214653.1335013553,-33815.555,-67243.695,1428.833,-18296.346,-45644.37,-43606.934,-50888.105,-24842.693
1214653.1375013501,-33813.926,-67251.95,1429.1992,-18297.078,-45645.145,-43603.56,-50891.562,-24845.135
1214653.1415013447,-33814.453,-67234.58,1427.7751,-18298.748,-45646.61,-43606.527,-50891.156,-24845.338
1214653.1455013393,-33814.008,-67230.06,1422.1191,-18304.281,-45652.59,-43612.918,-50889.773,-24850.262
1214653.1495013342,-33819.824,-67243.82,1418.6199,-18308.27,-45650.23,-43619.55,-50893.8,-24854.98
1214653.1535013288,-33823.082,-67244.55,1421.7529,-18305.95,-45639.977,-43612.754,-50894.004,-24846.965
1214653.1575013236,-33823.324,-67251.016,1421.9564,-18304.973,-45632.45,-43603.438,-50897.34,-24846.965
1214653.1615013182,-33824.22,-67253.09,1417.684,-18304.281,-45638.715,-43606.445,-50902.63,-24861.248
1214653.1655013128,-33825.81,-67261.4,1415.8529,-18307.293,-45641.113,-43618.45,-50900.8,-24850.994
1214653.1695013077,-33826.54,-67257.445,1414.8357,-18309.49,-45644.98,-43625.53,-50900.15,-24847.088
1214653.1735013023,-33830.61,-67260.016,1418.0502,-18308.146,-45643.066,-43620.973,-50902.63,-24854.9
1214653.177501297,-33834.92,-67260.87,1417.684,-18305.42,-45635.54,-43612.836,-50899.617,-24845.338
1214653.1815012917,-33847.13,-67261.6,1415.324,-18306.438,-45630.78,-43616.254,-50896.242,-24827.027
1214653.1855012863,-33835.652,-67268.03,1413.615,-18309.45,-45636.92,-43624.31,-50892.703,-24821.412
1214653.1895012811,-33832.195,-67265.1,1418.7826,-18308.553,-45632.855,-43627.566,-50897.543,-24863.322
1214653.1935012757,-33823.61,-67263.836,1419.6777,-18306.031,-45623.66,-43619.63,-50895.633,-24862.305
1214653.1975012703,-33821.695,-67279.42,1421.8344,-18303.67,-45619.387,-43614.42,-50896.445,-24851.318
1214653.2015012652,-33815.555,-67270.47,1421.5496,-18302.572,-45616.496,-43618.125,-50897.707,-24848.227
1214653.2055012598,-33817.18,-67257.164,1418.2129,-18305.379,-45620.934,-43629.598,-50899.254,-24849.773
1214653.2095012546,-33824.42,-67268.84,1413.9812,-18308.35,-45617.434,-43634.277,-50903.523,-24853.191
1214653.2135012492,-33823.082,-67268.15,1420.2881,-18306.967,-45616.7,-43623.945,-50899.414,-24841.35
1214653.2175012438,-33820.438,-67271.164,1420.8171,-18304.2,-45620.363,-43618.9,-50903.484,-24858.766
1214653.2215012386,-33827.555,-67284.51,1415.975,-18305.746,-45619.875,-43619.832,-50900.96,-24844.564
1214653.2255012332,-33835.613,-67301.555,1412.5977,-18309.082,-45621.992,-43627.156,-50899.824,-24841.717
1214653.229501228,-33846.56,-67300.62,1411.7839,-18310.832,-45620.2,-43634.074,-50906.94,-24874.309
1214653.2335012227,-33844.402,-67289.72,1416.5853,-18310.018,-45619.793,-43628.418,-50907.96,-24873.984
1214653.2375012173,-33818.605,-67302.695,1418.457,-18306.111,-45621.707,-43619.266,-50906.453,-24854.209
1214653.2415012121,-33814.617,-67283.53,1417.8875,-18307.332,-45623.66,-43620.85,-50907.594,-24859.62
1214653.2455012067,-33818.81,-67285.52,1417.3584,-18311.443,-45625.53,-43629.316,-50911.664,-24875.205
1214653.2495012016,-33824.3,-67297.53,1414.3881,-18312.338,-45621.094,-43634.117,-50910.89,-24867.107
1214653.2535011962,-33825.81,-67301.35,1415.446,-18311.32,-45621.504,-43628.83,-50907.43,-24853.312
1214653.2575011908,-33825.766,-67302.984,1420.4102,-18307.984,-45622.52,-43620.16,-50907.35,-24858.604
1214653.2615011856,-33822.836,-67305.664,1415.2832,-18308.35,-45616.254,-43620.85,-50905.64,-24855.266
1214653.2655011802,-33830.406,-67321.01,1409.6273,-18311.117,-45620.566,-43629.19,-50904.625,-24846.64
1214653.2695011748,-33840.66,-67325.28,1412.7197,-18313.07,-45617.598,-43633.914,-50904.01,-24841.92
1214653.2735011696,-33835.41,-67317.63,1415.8123,-18310.385,-45608.684,-43627.973,-50907.227,-24847.861
1214653.2775011642,-33822.88,-67314.29,1416.3005,-18307.781,-45604.74,-43621.137,-50909.06,-24850.668
1214653.281501159,-33829.02,-67307.82,1416.5447,-18307.332,-45610.312,-43623.414,-50908.203,-24847.047
1214653.2855011537,-33825.32,-67313.73,1412.9232,-18307.902,-45617.637,-43632.652,-50910.81,-24855.307
1214653.2895011483,-33825.6,-67323.04,1413.8184,-18309.002,-45622.64,-43638.387,-50908.367,-24845.826
1214653.293501143,-33832.277,-67335.05,1419.4336,-18306.234,-45614.79,-43631.43,-50904.297,-24820.518
1214653.2975011377,-33834.23,-67327.84,1423.6248,-18302.572,-45610.15,-43623.375,-50910.08,-24840.902
1214653.3015011325,-33823.773,-67312.91,1418.9861,-18302.572,-45617.23,-43624.15,-50910.93,-24858.848
1214653.3055011271,-33821.94,-67320.92,1413.6963,-18304.688,-45616.414,-43631.43,-50902.996,-24837.932
1214653.3095011218,-33820.68,-67320.03,1413.4115,-18304.688,-45612.227,-43635.945,-50900.434,-24829.225
1214653.3135011166,-33820.64,-67323.28,1417.3992,-18303.02,-45610.84,-43628.785,-50903.77,-24845.664
1214653.3175011112,-33819.418,-67332.6,1416.8701,-18300.74,-45615.848,-43620.402,-50901.695,-24846.436
1214653.321501106,-33818.117,-67330.69,1417.9688,-18299.969,-45614.91,-43623.375,-50905.684,-24863.037
1214653.3255011006,-33825.36,-67333.82,1419.1895,-18304.932,-45615.113,-43629.395,-50901.652,-24846.436
1214653.3295010952,-33822.51,-67335.0,1420.6543,-18305.34,-45615.277,-43632.164,-50894.656,-24825.725
1214653.33350109,-33816.082,-67330.69,1424.9675,-18302.125,-45608.113,-43623.902,-50888.836,-24809.57
1214653.3375010847,-33813.805,-67332.93,1424.2351,-18300.008,-45599.652,-43614.055,-50889.69,-24806.64
1214653.3415010793,-33812.582,-67335.53,1425.2117,-18298.504,-45604.94,-43618.004,-50896.65,-24828.898
1214653.345501074,-33814.25,-67338.09,1426.4324,-18299.643,-45607.22,-43630.293,-50900.92,-24852.05
1214653.3495010687,-33814.332,-67352.13,1429.2806,-18299.072,-45601.848,-43634.074,-50900.15,-24857.586
1214653.3535010635,-33814.617,-67340.25,1428.833,-18296.59,-45602.254,-43623.863,-50899.617,-24848.512
1214653.3575010581,-33810.26,-67333.82,1427.531,-18294.354,-45605.105,-43613.324,-50896.73,-24835.654
1214653.3615010527,-33808.15,-67332.484,1431.9255,-18294.516,-45611.816,-43617.15,-50897.258,-24831.34
1214653.3655010476,-33812.906,-67341.8,1427.2869,-18296.754,-45614.016,-43626.914,-50898.36,-24829.795
1214653.3695010422,-33817.223,-67351.52,1420.2881,-18300.457,-45616.902,-43631.676,-50896.688,-24814.209
1214653.373501037,-33813.03,-67351.36,1422.4854,-18297.201,-45614.87,-43627.566,-50898.48,-24832.805
1214653.3775010316,-33814.656,-67357.34,1424.7234,-18294.76,-45613.812,-43617.676,-50897.137,-24833.537
1214653.3815010262,-33817.79,-67361.78,1425.293,-18295.94,-45610.434,-43617.8,-50895.1,-24823.406
1214653.385501021,-33820.56,-67368.25,1427.2461,-18296.062,-45606.773,-43625.734,-50896.363,-24842.814
1214653.3895010157,-33812.34,-67378.91,1428.0193,-18296.51,-45612.754,-43628.46,-50896.61,-24850.098
1214653.3935010105,-33809.285,-67388.1,1425.5371,-18295.41,-45612.348,-43618.777,-50894.004,-24840.049
1214653.397501005,-33805.504,-67346.64,1422.5668,-18294.354,-45610.19,-43608.97,-50893.19,-24831.219
1214653.4015009997,-33810.305,-67353.72,1429.362,-18293.416,-45612.43,-43611.33,-50896.04,-24832.643
1214653.4055009945,-33808.555,-67352.74,1428.5482,-18295.574,-45612.348,-43623.984,-50896.363,-24829.795
1214653.4095009891,-33803.67,-67361.125,1429.5654,-18297.283,-45612.875,-43629.844,-50894.41,-24819.865
1214653.4135009837,-33803.14,-67362.39,1431.9255,-18294.678,-45611.33,-43619.14,-50890.016,-24804.2
1214653.4175009786,-33797.16,-67358.44,1432.8613,-18289.959,-45606.65,-43606.977,-50889.57,-24807.414
1214653.4215009732,-33796.633,-67360.76,1431.6406,-18290.447,-45609.418,-43607.06,-50888.145,-24812.012
1214653.425500968,-33801.637,-67371.586,1435.3027,-18294.393,-45615.926,-43618.29,-50890.625,-24821.818
1214653.4295009626,-33810.06,-67378.7,1437.907,-18296.428,-45616.336,-43621.504,-50891.156,-24824.3
1214653.4335009572,-33811.32,-67376.99,1437.9883,-18293.54,-45623.047,-43612.508,-50888.55,-24812.664
1214653.437500952,-33800.457,-67375.53,1436.4421,-18290.568,-45622.316,-43603.23,-50888.348,-24816.53
1214653.4415009466,-33797.08,-67389.484,1431.1117,-18292.889,-45620.605,-43605.023,-50885.418,-24802.328
1214653.4455009415,-33794.8,-67373.05,1431.5186,-18296.387,-45622.03,-43614.543,-50886.477,-24818.197
1214653.449500936,-33794.68,-67375.41,1433.0242,-18297.04,-45616.133,-43621.016,-50886.23,-24819.377
1214653.4535009307,-33803.71,-67383.75,1433.0648,-18293.824,-45607.707,-43613.973,-50886.273,-24818.36
1214653.4575009255,-33806.4,-67380.86,1434.8552,-18291.707,-45607.137,-43604.98,-50887.41,-24826.295
1214653.4615009201,-33809.043,-67383.18,1432.4138,-18293.701,-45611.125,-43603.19,-50881.633,-24803.102
1214653.465500915,-33808.84,-67388.15,1430.5013,-18296.55,-45618.125,-43610.84,-50883.668,-24807.17
1214653.4695009096,-33810.06,-67396.484,1430.0131,-18298.096,-45618.98,-43618.613,-50889.85,-24828.37
1214653.4735009042,-33807.457,-67396.04,1430.542,-18295.94,-45613.16,-43612.633,-50886.477,-24815.186
1214653.477500899,-33804.934,-67388.35,1432.0476,-18293.742,-45608.36,-43605.918,-50886.598,-24826.54
1214653.4815008936,-33797.77,-67393.96,1431.4373,-18294.23,-45608.48,-43609.05,-50888.957,-24830.566
1214653.4855008882,-33801.516,-67416.99,1427.2054,-18294.393,-45614.18,-43616.293,-50889.85,-24833.537
1214653.489500883,-33814.74,-67407.8,1427.8972,-18295.98,-45618.98,-43620.28,-50887.168,-24829.184
1214653.4935008776,-33817.098,-67408.125,1433.0242,-18294.11,-45621.785,-43615.234,-50886.19,-24815.635
1214653.4975008725,-33809.734,-67414.15,1434.0007,-18289.998,-45617.516,-43607.832,-50890.91,-24820.842
1214653.501500867,-33803.754,-67399.945,1431.3965,-18288.656,-45622.438,-43609.375,-50892.293,-24825.604
1214653.5055008617,-33809.246,-67405.44,1427.8158,-18291.383,-45631.105,-43619.63,-50894.29,-24820.72
1214653.5095008565,-33818.402,-67410.56,1426.9207,-18292.277,-45630.453,-43623.496,-50893.598,-24820.557
1214653.513500851,-33819.867,-67412.97,1424.6013,-18290.812,-45621.176,-43615.766,-50892.54,-24815.227
1214653.517500846,-33813.316,-67410.24,1424.9268,-18288.818,-45612.266,-43606.406,-50892.62,-24810.508
1214653.5215008406,-33816.45,-67424.64,1428.4668,-18289.389,-45616.54,-43606.0,-50890.87,-24798.463
1214653.5255008352,-33816.895,-67442.1,1424.6013,-18290.203,-45625.652,-43617.312,-50891.805,-24798.748
1214653.52950083,-33817.098,-67440.35,1421.1019,-18290.04,-45630.25,-43624.51,-50894.734,-24815.023
1214653.5335008246,-33817.832,-67421.914,1426.1475,-18287.518,-45629.355,-43615.195,-50892.01,-24799.236
1214653.5375008194,-33811.24,-67414.1,1430.5013,-18281.047,-45616.17,-43605.594,-50898.926,-24831.137
1214653.541500814,-33810.953,-67416.266,1432.2103,-18279.5,-45616.09,-43608.277,-50903.77,-24855.225
1214653.5455008086,-33812.01,-67422.484,1431.8441,-18279.988,-45619.875,-43617.473,-50900.676,-24839.764
1214653.5495008035,-33811.688,-67430.99,1431.5593,-18282.838,-45620.81,-43623.74,-50895.754,-24812.012
1214653.553500798,-33814.453,-67437.586,1429.6062,-18282.186,-45617.555,-43617.434,-50898.234,-24832.316
1214653.5575007927,-33813.19,-67436.445,1431.6406,-18280.03,-45612.305,-43609.05,-50906.13,-24852.662
1214653.5615007875,-33817.547,-67438.805,1433.7566,-18278.158,-45630.25,-43607.668,-50903.89,-24834.88
1214653.565500782,-33812.5,-67437.42,1433.8787,-18281.414,-45627.2,-43615.195,-50903.363,-24837.322
1214653.569500777,-33807.863,-67437.625,1432.0476,-18281.902,-45620.566,-43619.426,-50903.484,-24841.188
1214653.5735007715,-33803.875,-67455.0,1432.2103,-18279.176,-45614.707,-43611.777,-50899.824,-24831.178
1214653.5775007661,-33805.34,-67442.305,1433.5938,-18275.676,-45616.008,-43605.594,-50900.27,-24830.242
1214653.581500761,-33799.156,-67432.05,1434.6924,-18275.432,-45619.793,-43611.168,-50903.73,-24833.496
1214653.5855007556,-33807.457,-67443.4,1431.8441,-18279.5,-45620.363,-43621.176,-50903.89,-24833.537
1214653.5895007504,-33818.035,-67458.13,1427.6937,-18282.553,-45621.582,-43621.625,-50900.555,-24828.166
1214653.593500745,-33809.9,-67456.625,1428.7517,-18279.705,-45618.652,-43613.16,-50899.336,-24821.9
1214653.5975007396,-33803.47,-67446.17,1431.6,-18275.676,-45613.85,-43602.95,-50896.77,-24822.021
1214653.6015007345,-33799.52,-67443.36,1436.6863,-18272.787,-45613.28,-43601.93,-50892.66,-24819.418
1214653.605500729,-33793.703,-67440.06,1437.7035,-18275.31,-45615.438,-43612.387,-50890.465,-24806.152
1214653.609500724,-33792.035,-67440.88,1435.9539,-18277.547,-45613.973,-43619.55,-50891.195,-24809.896
1214653.6135007185,-33784.02,-67430.5,1435.4656,-18275.31,-45620.605,-43610.68,-50891.645,-24818.32
1214653.617500713,-33770.223,-67417.52,1443.4408,-18270.996,-45620.2,-43602.336,-50898.4,-24839.967
1214653.621500708,-33764.934,-67415.2,1447.7947,-18269.41,-45613.895,-43606.855,-50905.4,-24853.924
1214653.6255007025,-33755.82,-67413.49,1447.5505,-18270.834,-45615.316,-43612.55,-50900.027,-24835.125
1214653.6295006971,-33746.867,-67404.46,1447.0215,-18271.443,-45612.387,-43618.492,-50902.387,-24846.559
1214653.633500692,-33731.73,-67385.42,1453.1658,-18265.422,-45605.633,-43610.11,-50899.008,-24835.979
1214653.6375006866,-33713.543,-67356.28,1456.543,-18258.668,-45599.324,-43603.395,-50896.65,-24819.5
1214653.6415006814,-33695.76,-67339.16,1461.2224,-18256.836,-45597.414,-43609.62,-50904.91,-24841.146
1214653.645500676,-33681.684,-67322.43,1460.8969,-18258.139,-45596.477,-43620.2,-50909.793,-24846.03
1214653.6495006706,-33667.97,-67316.04,1461.141,-18259.318,-45599.895,-43627.24,-50912.438,-24847.25
1214653.6535006654,-33655.477,-67304.52,1468.9535,-18257.203,-45596.477,-43621.258,-50917.117,-24857.098
1214653.65750066,-33625.043,-67268.555,1476.4812,-18249.47,-45579.793,-43613.04,-50922.773,-24862.428
1214653.6615006549,-33599.734,-67240.89,1481.9336,-18241.943,-45580.406,-43616.008,-50926.395,-24873.008
1214653.6655006495,-33588.055,-67229.695,1485.0261,-18242.146,-45583.62,-43623.78,-50929.402,-24878.867
1214653.669500644,-33579.754,-67222.86,1484.0496,-18243.45,-45583.54,-43627.2,-50928.387,-24878.012
1214653.673500639,-33573.69,-67217.77,1485.433,-18240.438,-45579.348,-43617.516,-50922.895,-24864.543
1214653.6775006335,-33559.246,-67207.44,1488.6882,-18236.531,-45579.51,-43612.47,-50922.69,-24858.643
1214653.6815006284,-33542.195,-67203.78,1492.4724,-18234.822,-45587.605,-43616.008,-50921.957,-24855.389
1214653.685500623,-33541.3,-67221.64,1493.4896,-18236.41,-45602.46,-43625.367,-50920.9,-24859.092
1214653.6895006176,-33537.438,-67203.05,1492.5945,-18235.596,-45598.715,-43626.875,-50921.31,-24872.559
1214653.6935006124,-33532.39,-67190.23,1497.3552,-18231.975,-45581.3,-43615.316,-50920.74,-24877.646
1214653.697500607,-33532.43,-67191.37,1500.4476,-18230.266,-45576.906,-43604.29,-50920.41,-24873.21
1214653.7015006016,-33523.355,-67194.3,1499.8373,-18230.021,-45578.777,-43608.035,-50920.453,-24863.934
1214653.7055005964,-33522.3,-67202.19,1503.2959,-18231.324,-45583.254,-43617.188,-50920.82,-24858.562
1214653.709500591,-33529.785,-67209.84,1504.6794,-18233.277,-45581.137,-43620.445,-50922.566,-24859.092
1214653.7135005859,-33531.168,-67208.414,1507.3242,-18230.145,-45576.05,-43612.43,-50929.402,-24890.178
1214653.7175005805,-33521.77,-67200.52,1509.5215,-18229.451,-45575.727,-43608.562,-50931.316,-24891.887
1214653.721500575,-33513.715,-67204.8,1507.6498,-18229.29,-45581.42,-43611.574,-50927.9,-24879.72
1214653.72550057,-33512.98,-67209.88,1508.3008,-18228.883,-45586.508,-43620.89,-50929.2,-24883.709
1214653.7295005645,-33520.305,-67218.79,1507.1208,-18231.445,-45582.44,-43624.023,-50926.473,-24883.262
1214653.7335005593,-33523.438,-67216.48,1507.5684,-18227.865,-45574.91,-43614.83,-50924.97,-24883.22
1214653.737500554,-33513.875,-67213.42,1512.2478,-18223.268,-45568.035,-43610.027,-50927.98,-24882.041
1214653.7415005486,-33513.715,-67214.805,1511.9222,-18222.209,-45567.668,-43613.08,-50932.21,-24885.621
1214653.7455005434,-33511.598,-67220.13,1509.9285,-18222.82,-45570.56,-43620.08,-50934.492,-24893.107
1214653.749500538,-33513.836,-67225.1,1510.6201,-18226.197,-45567.26,-43623.82,-50932.902,-24884.807
1214653.7535005328,-33510.62,-67222.17,1516.3982,-18223.064,-45566.082,-43614.95,-50932.13,-24887.086
1214653.7575005274,-33511.477,-67221.11,1515.8285,-18219.402,-45566.33,-43605.39,-50929.934,-24885.742
1214653.761500522,-33514.04,-67240.484,1509.7656,-18219.28,-45572.227,-43604.902,-50927.086,-24874.105
1214653.7655005169,-33509.562,-67232.586,1508.9519,-18222.291,-45577.68,-43615.36,-50926.883,-24871.135
1214653.7695005115,-33497.844,-67217.37,1520.4265,-18219.076,-45578.125,-43622.97,-50931.64,-24884.074
1214653.773500506,-33490.113,-67220.09,1524.1293,-18219.158,-45581.098,-43613.73,-50931.64,-24886.15
1214653.777500501,-33493.695,-67220.5,1520.1416,-18219.482,-45575.24,-43604.86,-50927.98,-24879.965
1214653.7815004955,-33494.1,-67221.72,1518.6768,-18219.32,-45573.04,-43606.895,-50925.863,-24869.873
1214653.7855004903,-33493.98,-67220.46,1517.863,-18219.85,-45573.855,-43617.758,-50932.66,-24902.06
1214653.789500485,-33484.78,-67223.76,1519.7347,-18218.67,-45570.926,-43623.58,-50935.793,-24918.498
1214653.7935004795,-33482.3,-67229.05,1522.1355,-18216.553,-45570.64,-43613.484,-50931.684,-24904.826
1214653.7975004744,-33488.406,-67231.28,1520.1416,-18214.152,-45573.812,-43602.297,-50926.23,-24882.812
1214653.801500469,-33488.04,-67234.46,1516.3982,-18216.39,-45580.16,-43608.035,-50930.055,-24887.207
1214653.8055004638,-33487.02,-67237.59,1515.2588,-18218.629,-45582.766,-43618.45,-50938.805,-24914.307
1214653.8095004584,-33493.004,-67243.94,1515.4623,-18219.809,-45584.066,-43621.992,-50933.516,-24888.592
1214653.813500453,-33497.113,-67246.13,1516.805,-18216.39,-45573.57,-43614.992,-50930.098,-24875.57
1214653.8175004479,-33482.79,-67235.27,1523.3562,-18211.834,-45567.87,-43609.99,-50938.477,-24901.531
1214653.8215004425,-33474.367,-67234.17,1523.2748,-18214.234,-45574.18,-43612.227,-50941.53,-24902.223
1214653.8255004373,-33480.062,-67242.27,1519.6127,-18219.117,-45577.312,-43621.22,-50945.027,-24903.402
1214653.829500432,-33480.47,-67253.26,1518.6768,-18220.135,-45575.93,-43626.59,-50947.918,-24901.205
1214653.8335004265,-33481.0,-67249.15,1521.5658,-18217.205,-45570.355,-43620.688,-50948.855,-24901.896
1214653.8375004213,-33477.133,-67223.88,1523.0713,-18215.617,-45566.082,-43615.887,-50947.836,-24901.611
1214653.841500416,-33469.523,-67224.29,1523.0713,-18214.803,-45565.715,-43619.63,-50947.105,-24892.213
1214653.8455004105,-33476.523,-67234.414,1523.1934,-18219.523,-45573.69,-43632.203,-50946.21,-24893.148
1214653.8495004054,-33482.547,-67242.92,1520.9148,-18221.314,-45574.91,-43636.883,-50944.867,-24902.629
1214653.8535004,-33480.31,-67238.77,1520.7927,-18217.53,-45556.152,-43628.5,-50940.227,-24892.457
1214653.8575003948,-33482.016,-67232.016,1519.2871,-18215.373,-45558.105,-43621.867,-50937.867,-24884.033
1214653.8615003894,-33485.395,-67240.805,1515.9912,-18220.5,-45556.887,-43626.59,-50932.09,-24868.125
1214653.865500384,-33483.316,-67242.59,1517.4968,-18220.623,-45546.918,-43634.523,-50928.59,-24869.793
1214653.8695003788,-33474.0,-67229.375,1524.8617,-18217.773,-45544.883,-43640.383,-50936.973,-24912.11
1214653.8735003734,-33460.652,-67227.375,1527.8728,-18217.244,-45540.812,-43633.547,-50938.477,-24913.006
1214653.8775003683,-33465.74,-67235.68,1527.9541,-18216.635,-45543.457,-43625.164,-50939.293,-24905.273
1214653.881500363,-33475.06,-67243.45,1522.4203,-18218.629,-45548.42,-43631.758,-50941.938,-24898.643
1214653.8855003575,-33476.93,-67243.29,1521.5251,-18220.379,-45545.047,-43644.125,-50944.336,-24894.857
1214653.8895003523,-33476.523,-67243.9,1522.99,-18220.785,-45543.17,-43647.543,-50947.633,-24894.531
1214653.893500347,-33473.188,-67243.414,1523.2341,-18217.814,-45529.746,-43637.695,-50952.92,-24917.277
1214653.8975003418,-33470.95,-67237.914,1522.5424,-18214.803,-45516.195,-43630.617,-50952.15,-24909.668
1214653.9015003364,-33467.938,-67247.93,1520.5486,-18215.535,-45522.137,-43633.465,-50955.65,-24918.865
1214653.905500331,-33461.996,-67261.03,1522.4609,-18216.676,-45530.887,-43644.777,-50958.09,-24932.455
1214653.9095003258,-33468.508,-67243.66,1527.5066,-18217.611,-45541.586,-43649.09,-50954.55,-24924.846
1214653.9135003204,-33465.414,-67245.37,1529.9072,-18216.797,-45549.6,-43643.027,-50954.715,-24928.672
1214653.917500315,-33468.59,-67253.99,1527.059,-18213.705,-45549.03,-43632.977,-50951.5,-24922.771
1214653.9215003098,-33478.883,-67253.13,1524.3734,-18214.803,-45549.684,-43636.477,-50952.434,-24921.469
1214653.9255003044,-33465.21,-67243.82,1525.1873,-18215.74,-45538.574,-43645.793,-50954.062,-24916.83
1214653.9295002993,-33457.4,-67243.164,1524.1699,-18216.594,-45536.867,-43650.637,-50956.34,-24917.645
1214653.9335002939,-33458.54,-67249.516,1525.1873,-18214.885,-45536.133,-43644.168,-50957.113,-24909.912
1214653.9375002885,-33452.312,-67245.08,1526.123,-18212.117,-45537.234,-43636.965,-50957.562,-24917.889
1214653.9415002833,-33454.67,-67248.78,1528.5645,-18214.152,-45538.21,-43639.285,-50957.156,-24920.207
1214653.945500278,-33457.887,-67254.11,1528.6459,-18216.105,-45533.043,-43646.934,-50958.742,-24925.498
1214653.9495002727,-33462.65,-67261.44,1527.9541,-18219.076,-45535.36,-43646.895,-50954.754,-24917.93
1214653.9535002674,-33464.926,-67266.12,1527.059,-18217.693,-45534.426,-43637.695,-50950.4,-24911.174
1214653.957500262,-33460.33,-67259.89,1534.1797,-18213.379,-45530.76,-43631.062,-50950.848,-24920.166
1214653.9615002568,-33459.758,-67258.75,1534.2205,-18213.543,-45540.0,-43636.027,-50954.227,-24934.164
1214653.9655002514,-33454.43,-67261.72,1529.1748,-18216.064,-45542.24,-43642.906,-50953.816,-24933.717
1214653.9695002462,-33456.586,-67272.18,1522.99,-18218.385,-45543.17,-43645.184,-50946.902,-24917.686
1214653.9735002408,-33455.242,-67274.375,1527.4658,-18213.99,-45533.043,-43635.742,-50942.508,-24914.918
1214653.9775002354,-33447.51,-67249.516,1532.1453,-18210.164,-45524.984,-43627.28,-50943.44,-24909.18
1214653.9815002303,-33449.586,-67259.484,1528.8086,-18212.322,-45535.605,-43632.0,-50945.76,-24915.324
1214653.9855002249,-33461.55,-67283.164,1527.6693,-18214.275,-45539.188,-43642.375,-50952.19,-24936.523
1214653.9895002195,-33465.332,-67294.35,1532.2266,-18217.285,-45547.203,-43647.46,-50951.54,-24923.828
1214653.9935002143,-33458.7,-67279.42,1530.9652,-18213.99,-45544.68,-43640.79,-50953.29,-24915.447
1214653.997500209,-33442.953,-67267.83,1533.7322,-18211.02,-45539.633,-43633.832,-50962.73,-24949.627
1214654.0015002037,-33445.273,-67278.81,1531.0059,-18213.176,-45542.523,-43637.574,-50968.508,-24963.055
1214654.0055001983,-33458.902,-67294.555,1524.1293,-18217.855,-45546.836,-43644.695,-50967.977,-24955.73
1214654.009500193,-33457.074,-67290.08,1522.7865,-18216.512,-45541.26,-43648.4,-50970.785,-24950.848
1214654.0135001878,-33454.387,-67282.88,1526.4893,-18211.914,-45534.953,-43640.016,-50973.51,-24950.807
1214654.0175001824,-33455.484,-67285.41,1527.4658,-18210.531,-45534.06,-43634.48,-50974.773,-24952.557
1214654.0215001772,-33452.84,-67288.086,1530.1107,-18210.043,-45545.94,-43638.227,-50975.3,-24951.824
1214654.0255001718,-33456.504,-67302.414,1525.1465,-18212.932,-45557.496,-43646.445,-50970.46,-24940.959
1214654.0295001664,-33463.992,-67320.88,1516.683,-18217.53,-45555.992,-43646.363,-50962.77,-24929.2
1214654.0335001613,-33456.3,-67328.375,1521.8506,-18213.99,-45547.934,-43637.168,-50965.945,-24947.836
1214654.0375001559,-33446.004,-67304.04,1530.4769,-18207.357,-45542.727,-43631.96,-50970.094,-24962.852
1214654.0415001507,-33451.254,-67291.625,1528.8494,-18209.717,-45545.535,-43632.285,-50967.652,-24958.822
1214654.0455001453,-33456.46,-67305.625,1527.181,-18213.664,-45555.504,-43640.91,-50965.21,-24957.316
1214654.04950014,-33452.8,-67310.95,1529.2562,-18213.094,-45562.91,-43644.574,-50960.45,-24945.312
1214654.0535001347,-33454.02,-67317.99,1531.2094,-18211.02,-45554.89,-43635.742,-50957.97,-24941.773
1214654.0575001293,-33457.4,-67316.445,1531.9418,-18207.805,-45553.55,-43628.785,-50955.61,-24930.908
1214654.061500124,-33457.113,-67317.55,1532.0232,-18207.154,-45555.38,-43631.918,-50956.055,-24925.904
1214654.0655001188,-33453.043,-67318.24,1530.7211,-18209.676,-45549.113,-43638.797,-50958.21,-24914.592
1214654.0695001134,-33450.4,-67317.75,1533.5693,-18208.863,-45541.22,-43642.66,-50960.164,-24911.947
1214654.0735001082,-33452.637,-67319.945,1533.9355,-18206.34,-45544.027,-43635.785,-50966.35,-24937.867
1214654.0775001028,-33461.996,-67328.21,1528.9714,-18207.113,-45548.543,-43628.34,-50964.03,-24926.637
1214654.0815000974,-33456.79,-67325.6,1528.1576,-18205.037,-45551.8,-43633.26,-50969.2,-24952.354
1214654.0855000922,-33454.754,-67323.28,1526.7334,-18205.975,-45552.734,-43641.887,-50974.203,-24971.72
1214654.0895000868,-33464.64,-67330.0,1528.4832,-18207.887,-45550.58,-43643.434,-50969.89,-24953.492
1214654.0935000817,-33454.793,-67328.375,1530.7617,-18204.834,-45547.566,-43634.727,-50969.28,-24933.594
1214654.0975000763,-33442.953,-67326.83,1531.1279,-18200.887,-45544.598,-43625.246,-50969.363,-24947.062
1214654.101500071,-33449.79,-67330.28,1528.0762,-18202.068,-45542.684,-43630.496,-50973.023,-24974.773
1214654.1055000657,-33454.145,-67336.95,1524.5769,-18205.16,-45544.92,-43637.25,-50972.78,-24973.633
1214654.1095000603,-33449.06,-67336.59,1526.3265,-18203.41,-45548.098,-43642.09,-50974.203,-24973.186
1214654.1135000552,-33443.156,-67345.055,1529.5004,-18200.848,-45550.09,-43636.027,-50976.688,-24973.309
1214654.1175000498,-33442.79,-67332.234,1526.4486,-18198.69,-45544.516,-43626.875,-50974.246,-24963.95
1214654.1215000444,-33453.33,-67325.32,1525.7162,-18199.342,-45546.836,-43627.08,-50966.88,-24952.719
1214654.1255000392,-33449.344,-67334.84,1530.7211,-18200.521,-45552.29,-43634.277,-50964.6,-24948.406
1214654.1295000338,-33441.406,-67335.05,1527.181,-18202.434,-45550.703,-43636.23,-50961.348,-24933.555
1214654.1335000284,-33442.586,-67331.664,1526.8148,-18201.54,-45546.754,-43627.484,-50959.84,-24923.584
1214654.1375000232,-33446.13,-67329.14,1532.1453,-18198.65,-45540.69,-43620.484,-50958.7,-24924.805
1214654.1415000178,-33440.676,-67330.81,1537.0281,-18197.51,-45542.605,-43625.57,-50957.277,-24920.736
1214654.1455000127,-33439.13,-67332.07,1536.9873,-18198.406,-45550.09,-43636.23,-50953.695,-24912.803
1214654.1495000073,-33447.594,-67341.07,1534.79,-18200.44,-45553.875,-43639.895,-50948.0,-24901.408
1214654.1535000019,-33446.207,-67350.06,1533.8135,-18198.934,-45551.23,-43629.11,-50943.645,-24905.234
1214654.1574999967,-33447.39,-67349.61,1533.7322,-18196.168,-45549.52,-43620.445,-50942.87,-24922.12
1214654.1614999913,-33449.75,-67347.05,1532.7148,-18195.76,-45551.312,-43624.758,-50946.086,-24933.838
1214654.1654999861,-33453.94,-67349.98,1532.2266,-18196.209,-45557.008,-43632.164,-50946.574,-24926.025
1214654.1694999808,-33445.477,-67347.82,1535.726,-18198.61,-45554.2,-43635.01,-50948.203,-24917.848
1214654.1734999754,-33438.355,-67340.17,1538.4929,-18194.295,-45548.543,-43628.46,-50949.79,-24910.605
1214654.1774999702,-33442.87,-67341.48,1535.9701,-18192.627,-45548.586,-43622.723,-50952.637,-24915.162
1214654.1814999648,-33453.98,-67352.42,1530.6396,-18194.865,-45552.246,-43625.246,-50956.707,-24916.83
1214654.1854999596,-33457.277,-67362.76,1526.6113,-18198.771,-45556.4,-43632.61,-50957.48,-24898.031
1214654.1894999542,-33462.242,-67368.37,1523.7631,-18200.154,-45553.914,-43638.105,-50973.555,-24964.355
1214654.1934999488,-33463.176,-67375.49,1522.7865,-18195.15,-45543.254,-43632.04,-50981.367,-24980.795
1214654.1974999437,-33470.5,-67367.72,1521.9727,-18192.22,-45546.633,-43625.33,-50981.12,-24966.717
1214654.2014999383,-33465.7,-67359.3,1526.8555,-18193.848,-45553.996,-43628.785,-50978.8,-24959.352
1214654.2054999329,-33455.65,-67359.5,1527.1404,-18194.336,-45553.633,-43635.457,-50980.39,-24973.838
1214654.2094999277,-33453.086,-67364.914,1526.6521,-18195.232,-45557.09,-43639.73,-50979.29,-24966.432
1214654.2134999223,-33457.926,-67372.766,1530.1921,-18194.621,-45570.395,-43631.836,-50974.367,-24953.33
1214654.2174999171,-33459.72,-67380.17,1535.2377,-18191.977,-45559.773,-43620.973,-50967.9,-24949.707
1214654.2214999117,-33454.836,-67375.81,1538.615,-18191.814,-45552.98,-43623.984,-50962.566,-24934.205
1214654.2254999063,-33458.375,-67373.414,1532.0232,-18194.824,-45550.375,-43632.938,-50957.93,-24930.42
1214654.2294999012,-33451.133,-67384.04,1529.3783,-18195.924,-45553.426,-43635.297,-50955.242,-24932.74
1214654.2334998958,-33454.02,-67392.664,1531.1279,-18194.865,-45554.363,-43628.867,-50951.01,-24916.627
1214654.2374998906,-33454.305,-67393.44,1533.9763,-18191.53,-45553.1,-43621.055,-50947.957,-24909.14
1214654.2414998852,-33455.16,-67399.74,1533.488,-18190.877,-45557.332,-43622.07,-50947.55,-24910.768
1214654.2454998798,-33459.027,-67406.86,1533.5287,-18195.68,-45559.367,-43630.86,-50942.914,-24901.49
1214654.2494998747,-33456.098,-67400.35,1531.5349,-18195.883,-45547.566,-43633.465,-50944.5,-24906.047
1214654.2534998693,-33454.55,-67398.84,1531.4941,-18191.365,-45542.93,-43623.332,-50947.145,-24912.639
1214654.257499864,-33453.37,-67399.5,1533.2845,-18188.72,-45542.645,-43615.316,-50946.94,-24911.662
1214654.2614998587,-33447.105,-67400.23,1535.4818,-18188.03,-45547.16,-43617.598,-50947.227,-24908.896
1214654.2654998533,-33456.055,-67413.62,1528.9307,-18192.465,-45562.258,-43630.21,-50949.14,-24919.027
1214654.2694998481,-33460.086,-67431.12,1526.8555,-18194.865,-45559.043,-43633.26,-50948.285,-24925.01
1214654.2734998427,-33461.305,-67422.125,1529.6224,-18191.162,-45551.68,-43625.734,-50949.547,-24916.3
1214654.2774998373,-33464.152,-67404.625,1524.5769,-18187.867,-45550.008,-43618.613,-50954.145,-24927.94
1214654.2814998322,-33454.145,-67400.76,1528.89,-18187.785,-45549.805,-43621.176,-50958.906,-24940.838
1214654.2854998268,-33447.55,-67400.59,1529.5004,-18189.861,-45554.89,-43630.656,-50965.66,-24964.193
1214654.2894998216,-33436.035,-67397.99,1534.139,-18189.332,-45556.887,-43633.465,-50966.31,-24963.42
1214654.2934998162,-33435.63,-67402.34,1535.4818,-18187.053,-45554.484,-43623.008,-50961.1,-24940.959
1214654.2974998108,-33450.97,-67413.414,1536.8246,-18185.994,-45554.65,-43611.207,-50958.21,-24936.2
1214654.3014998056,-33459.555,-67423.51,1532.2266,-18188.191,-45554.85,-43614.992,-50960.9,-24949.26
1214654.3054998002,-33456.668,-67421.51,1530.1514,-18188.03,-45550.496,-43625.043,-50962.08,-24952.842
1214654.309499795,-33443.277,-67420.734,1532.959,-18188.64,-45550.254,-43629.11,-50959.637,-24946.574
1214654.3134997897,-33447.145,-67425.3,1531.8197,-18189.332,-45551.72,-43617.473,-50953.98,-24924.398
1214654.3174997843,-33452.72,-67429.98,1531.9011,-18188.152,-45558.23,-43609.945,-50950.277,-24926.475
1214654.3214997791,-33449.137,-67432.414,1535.4818,-18185.262,-45564.293,-43615.97,-50948.04,-24915.406
1214654.3254997737,-33446.902,-67433.59,1537.7197,-18187.744,-45569.46,-43623.7,-50943.074,-24902.223
1214654.3294997686,-33455.65,-67442.18,1536.1736,-18189.738,-45567.586,-43626.668,-50936.81,-24896.12
1214654.3334997632,-33456.34,-67454.305,1538.4929,-18185.71,-45546.67,-43616.62,-50934.164,-24900.717
1214654.3374997578,-33434.773,-67420.94,1544.3115,-18180.828,-45544.598,-43604.695,-50933.31,-24900.39
1214654.3414997526,-33431.07,-67404.336,1541.7888,-18181.479,-45544.8,-43605.184,-50926.066,-24886.963
1214654.3454997472,-33432.66,-67423.1,1539.8763,-18183.96,-45547.977,-43614.586,-50925.824,-24899.293
1214654.3494997418,-33429.402,-67432.945,1543.3757,-18184.408,-45552.777,-43620.484,-50928.55,-24903.361
1214654.3534997366,-33425.62,-67429.32,1543.5791,-18180.34,-45545.74,-43613.16,-50931.64,-24901.611
1214654.3574997312,-33432.863,-67425.82,1543.7012,-18178.549,-45545.82,-43601.973,-50928.754,-24887.86
1214654.361499726,-33434.125,-67426.15,1541.3818,-18179.078,-45543.254,-43605.145,-50931.355,-24896.893
1214654.3654997207,-33433.594,-67430.55,1541.4633,-18180.176,-45543.457,-43615.316,-50936.035,-24908.408
1214654.3694997153,-33427.53,-67433.63,1546.0205,-18179.443,-45550.824,-43615.156,-50938.152,-24905.438
1214654.37349971,-33425.78,-67428.02,1544.4744,-18176.352,-45541.016,-43604.777,-50939.293,-24901.693
1214654.3774997047,-33430.79,-67425.3,1546.0613,-18173.38,-45538.29,-43598.96,-50941.45,-24913.086
1214654.3814996995,-33425.293,-67441.61,1542.5212,-18171.672,-45536.01,-43605.184,-50946.82,-24929.2
1214654.3854996942,-33428.348,-67445.92,1541.3818,-18176.148,-45545.9,-43616.293,-50948.57,-24926.107
1214654.3894996888,-33436.688,-67441.086,1535.8074,-18180.379,-45555.3,-43617.434,-50947.43,-24920.818
1214654.3934996836,-33441.164,-67437.38,1537.1501,-18177.41,-45559.938,-43608.074,-50947.633,-24914.795
1214654.3974996782,-33444.664,-67436.08,1548.3806,-18172.283,-45553.957,-43602.215,-50947.836,-24909.1
1214654.401499673,-33430.094,-67439.984,1543.4978,-18173.422,-45559.98,-43603.07,-50948.082,-24911.947
1214654.4054996676,-33436.85,-67450.85,1535.8887,-18178.06,-45558.31,-43607.832,-50944.785,-24920.86
1214654.4094996622,-33437.867,-67461.266,1536.6211,-18178.305,-45554.61,-43610.68,-50942.465,-24923.748
1214654.413499657,-33428.426,-67467.086,1545.0847,-18174.48,-45548.055,-43603.355,-50940.35,-24924.766
1214654.4174996517,-33426.883,-67457.766,1544.6777,-18171.998,-45549.93,-43593.914,-50939.13,-24931.113
1214654.4214996463,-33434.207,-67451.83,1542.4805,-18174.031,-45553.957,-43597.86,-50933.72,-24920.41
1214654.425499641,-33437.83,-67457.44,1542.2363,-18178.63,-45557.008,-43607.625,-50927.37,-24905.234
1214654.4294996357,-33446.207,-67465.21,1537.557,-18180.379,-45554.04,-43610.477,-50921.715,-24893.678
1214654.4334996305,-33439.7,-67473.59,1542.2363,-18175.822,-45547.04,-43602.867,-50919.965,-24884.521
1214654.4374996251,-33424.97,-67455.734,1547.9736,-18172.486,-45547.363,-43597.902,-50921.875,-24877.809
1214654.4414996197,-33436.484,-67452.07,1542.033,-18173.951,-45543.703,-43601.2,-50919.15,-24856.04
1214654.4454996146,-33441.734,-67467.94,1535.7666,-18178.955,-45539.023,-43607.668,-50918.66,-24860.963
1214654.4494996092,-33438.68,-67473.59,1535.0342,-18177.734,-45541.79,-43611.492,-50933.72,-24925.049
1214654.453499604,-33444.05,-67478.35,1537.3943,-18174.602,-45542.89,-43602.418,-50938.76,-24920.492
1214654.4574995986,-33449.016,-67476.65,1541.3005,-18170.777,-45542.562,-43590.82,-50933.027,-24890.38
1214654.4614995932,-33444.297,-67472.58,1539.7543,-18170.98,-45545.613,-43593.387,-50932.17,-24877.564
1214654.465499588,-33446.98,-67482.51,1537.4349,-18174.887,-45549.684,-43604.37,-50934.41,-24903.2
1214654.4694995827,-33463.258,-67500.9,1531.6162,-18176.352,-45550.78,-43608.81,-50934.938,-24913.78
1214654.4734995775,-33446.94,-67480.96,1532.5115,-18170.41,-45540.57,-43602.38,-50940.633,-24927.451
1214654.477499572,-33425.62,-67465.86,1535.3597,-18164.592,-45542.89,-43593.14,-50943.117,-24927.857
1214654.4814995667,-33438.965,-67475.71,1539.7136,-18166.016,-45554.242,-43597.78,-50942.426,-24926.107
1214654.4854995615,-33445.477,-67482.38,1534.8715,-18168.457,-45544.23,-43605.062,-50937.46,-24908.53
1214654.4894995561,-33440.227,-67478.11,1528.1576,-18168.54,-45539.55,-43609.336,-50941.0,-24913.209
1214654.4934995507,-33426.188,-67476.195,1532.2673,-18162.557,-45533.33,-43600.547,-50940.84,-24907.47
1214654.4974995456,-33419.35,-67465.17,1541.9922,-18159.262,-45534.63,-43591.39,-50939.09,-24895.875
1214654.5014995402,-33437.137,-67467.66,1537.1908,-18164.959,-45544.11,-43596.76,-50937.38,-24905.844
1214654.505499535,-33442.426,-67474.33,1533.7322,-18167.562,-45547.406,-43606.12,-50933.27,-24898.275
1214654.5094995296,-33440.51,-67466.31,1534.7087,-18167.36,-45542.44,-43608.684,-50930.016,-24880.088
1214654.5134995242,-33425.375,-67451.74,1540.5681,-18165.365,-45530.965,-43600.914,-50927.9,-24868.37
1214654.517499519,-33426.312,-67443.93,1541.0156,-18163.9,-45531.82,-43593.71,-50928.59,-24881.836
1214654.5214995136,-33462.484,-67456.664,1533.8542,-18165.854,-45537.152,-43597.496,-50930.992,-24891.969
1214654.5254995085,-33469.28,-67460.57,1536.906,-18169.475,-45533.977,-43607.953,-50929.77,-24884.318
1214654.529499503,-33421.918,-67451.26,1533.4066,-18169.678,-45529.01,-43610.883,-50927.33,-24884.848
1214654.5334994977,-33399.13,-67431.6,1543.7012,-18164.186,-45527.02,-43603.19,-50924.848,-24878.906
1214654.5374994925,-33400.555,-67423.18,1546.3867,-18162.11,-45524.742,-43596.19,-50917.81,-24859.092
1214654.5414994871,-33415.977,-67440.19,1540.2019,-18163.33,-45524.09,-43595.95,-50915.773,-24863.81
1214654.545499482,-33431.64,-67462.445,1533.1625,-18167.277,-45524.945,-43605.184,-50919.637,-24879.314
1214654.5494994766,-33422.406,-67461.95,1537.0281,-18166.871,-45517.457,-43609.457,-50921.51,-24874.838
1214654.5534994712,-33405.4,-67430.625,1545.8984,-18160.482,-45511.92,-43604.82,-50923.383,-24865.479
1214654.557499466,-33411.824,-67430.09,1543.0095,-18160.848,-45513.754,-43599.12,-50923.465,-24856.162
1214654.5614994606,-33428.305,-67446.25,1534.79,-18164.348,-45516.316,-43602.582,-50927.168,-24868.043
1214654.5654994552,-33436.77,-67457.12,1530.1107,-18165.771,-45517.703,-43611.53,-50932.09,-24890.79
1214654.56949945,-33430.625,-67456.95,1533.4473,-18165.447,-45513.918,-43615.805,-50937.5,-24910.85
1214654.5734994446,-33419.598,-67447.67,1542.0736,-18161.256,-45506.55,-43607.992,-50936.32,-24906.17
1214654.5774994395,-33416.383,-67445.72,1546.5088,-18159.262,-45500.613,-43600.79,-50934.855,-24893.637
1214654.581499434,-33414.348,-67446.58,1544.5964,-18158.814,-45502.77,-43604.86,-50933.797,-24895.346
1214654.5854994287,-33427.492,-67468.586,1539.5101,-18163.371,-45508.87,-43615.195,-50931.844,-24897.299
1214654.5894994235,-33439.58,-67478.766,1534.9935,-18167.156,-45505.13,-43618.246,-50930.34,-24887.86
1214654.593499418,-33430.42,-67466.48,1536.7025,-18163.412,-45489.79,-43608.48,-50932.863,-24888.021
1214654.597499413,-33425.418,-67467.53,1537.3129,-18160.889,-45492.8,-43600.3,-50932.332,-24882.568
1214654.6014994076,-33423.22,-67470.336,1537.1908,-18160.482,-45493.53,-43607.465,-50930.176,-24875.488
1214654.6054994022,-33425.906,-67477.016,1541.097,-18160.482,-45493.695,-43615.723,-50928.426,-24870.688
1214654.609499397,-33420.98,-67492.64,1547.0785,-18160.36,-45497.316,-43620.73,-50926.555,-24873.17
1214654.6134993916,-33421.51,-67465.375,1549.5199,-18156.209,-45494.14,-43612.918,-50925.78,-24878.459
1214654.6174993864,-33436.44,-67463.42,1546.6716,-18154.908,-45495.32,-43606.445,-50922.16,-24867.717
1214654.621499381,-33432.945,-67472.414,1541.5447,-18158.57,-45500.45,-43612.508,-50922.16,-24863.037
1214654.6254993756,-33435.06,-67476.445,1544.4336,-18160.523,-45499.84,-43619.957,-50925.824,-24869.14
1214654.6294993705,-33443.117,-67482.625,1542.3584,-18161.58,-45493.492,-43622.113,-50927.777,-24873.74
1214654.633499365,-33447.633,-67495.57,1540.4053,-18159.75,-45496.137,-43612.305,-50923.668,-24857.422
1214654.6374993597,-33441.082,-67488.89,1545.6543,-18154.95,-45487.1,-43603.355,-50924.316,-24857.707
1214654.6414993545,-33437.38,-67486.66,1547.933,-18155.355,-45488.406,-43607.18,-50929.363,-24878.947
1214654.645499349,-33446.695,-67498.58,1546.3867,-18159.832,-45490.4,-43615.684,-50931.562,-24894.613
1214654.649499344,-33451.54,-67504.84,1545.1254,-18162.72,-45494.223,-43617.027,-50931.562,-24891.113
1214654.6534993385,-33444.99,-67505.25,1547.1599,-18161.133,-45494.14,-43606.61,-50925.457,-24862.387
1214654.6574993331,-33451.375,-67505.414,1544.1082,-18158.936,-45491.78,-43599.69,-50926.555,-24873.617
1214654.661499328,-33440.43,-67503.625,1548.3806,-18157.064,-45488.73,-43605.55,-50938.6,-24908.123
1214654.6654993226,-33440.918,-67505.82,1554.2806,-18158.0,-45489.992,-43615.36,-50939.863,-24901.816
1214654.6694993174,-33456.3,-67519.49,1552.2869,-18159.018,-45491.414,-43619.02,-50939.78,-24893.88
1214654.673499312,-33458.336,-67536.79,1554.3213,-18157.959,-45491.984,-43611.574,-50942.06,-24904.785
1214654.6774993066,-33446.617,-67515.914,1553.8738,-18155.152,-45491.293,-43604.94,-50940.066,-24901.572
1214654.6814993015,-33448.324,-67514.33,1553.4668,-18155.273,-45494.832,-43606.773,-50935.914,-24889.08
1214654.685499296,-33450.562,-67516.56,1550.6185,-18157.918,-45493.33,-43614.992,-50936.28,-24894.37
1214654.689499291,-33453.53,-67521.52,1551.4324,-18159.668,-45498.58,-43619.184,-50936.035,-24897.99
1214654.6934992855,-33452.883,-67524.91,1553.1006,-18155.6,-45492.434,-43608.36,-50931.684,-24888.998
1214654.69749928,-33443.24,-67522.38,1559.367,-18153.117,-45491.336,-43599.652,-50926.15,-24880.86
1214654.701499275,-33430.137,-67525.516,1564.331,-18153.932,-45494.957,-43601.766,-50918.62,-24871.258
1214654.7054992695,-33434.082,-67543.01,1564.2904,-18155.152,-45491.21,-43611.453,-50909.71,-24847.25
1214654.7094992641,-33449.06,-67561.52,1562.6221,-18155.803,-45482.42,-43615.562,-50903.28,-24840.7
1214654.713499259,-33451.336,-67535.24,1560.8724,-18155.152,-45487.67,-43602.95,-50900.84,-24841.064
1214654.7174992536,-33450.766,-67536.91,1560.9131,-18155.559,-45493.45,-43591.96,-50899.7,-24829.346
1214654.7214992484,-33452.23,-67549.12,1560.5062,-18157.227,-45500.773,-43594.28,-50902.67,-24828.29
1214654.725499243,-33467.41,-67560.75,1556.8441,-18159.344,-45503.38,-43602.418,-50907.51,-24846.762
1214654.7294992376,-33465.332,-67577.19,1553.6703,-18159.465,-45499.105,-43603.56,-50910.523,-24858.48
1214654.7334992324,-33464.316,-67559.2,1555.542,-18155.477,-45491.008,-43594.484,-50910.484,-24846.762
1214654.737499227,-33478.355,-67554.164,1557.0883,-18152.873,-45485.598,-43587.324,-50917.44,-24868.328
1214654.741499222,-33472.82,-67575.36,1553.5076,-18154.744,-45494.67,-43592.773,-50923.137,-24878.012
1214654.7454992165,-33460.33,-67579.96,1552.2869,-18157.838,-45503.258,-43602.785,-50922.406,-24874.023
1214654.749499211,-33465.25,-67578.9,1556.1117,-18158.162,-45505.496,-43603.273,-50922.895,-24871.299
1214654.753499206,-33471.234,-67577.76,1547.4447,-18156.047,-45504.965,-43593.875,-50923.504,-24858.44
1214654.7574992005,-33474.773,-67572.836,1545.8578,-18152.914,-45500.45,-43585.246,-50929.73,-24888.469
1214654.7614991954,-33485.637,-67585.086,1547.0785,-18154.338,-45505.21,-43589.152,-50934.492,-24916.016
1214654.76549919,-33470.62,-67594.766,1554.4027,-18157.594,-45512.98,-43599.324,-50938.03,-24924.44
1214654.7694991846,-33465.25,-67596.07,1552.6937,-18158.406,-45511.965,-43600.547,-50934.9,-24911.256
1214654.7734991794,-33462.566,-67593.51,1546.8344,-18153.523,-45503.297,-43591.31,-50929.73,-24888.021
1214654.777499174,-33472.496,-67611.29,1551.351,-18148.846,-45497.684,-43586.184,-50927.168,-24878.623
1214654.7814991686,-33475.914,-67599.24,1550.7406,-18149.658,-45498.902,-43587.812,-50926.27,-24882.691
1214654.7854991634,-33468.875,-67580.57,1551.0662,-18152.059,-45506.023,-43593.914,-50921.184,-24872.355
1214654.789499158,-33467.49,-67597.45,1553.3855,-18153.89,-45508.79,-43599.652,-50919.68,-24864.828
1214654.7934991529,-33469.402,-67595.87,1557.7393,-18152.508,-45504.883,-43591.39,-50917.727,-24869.467
1214654.7974991475,-33465.66,-67581.42,1559.2041,-18147.625,-45501.668,-43580.77,-50912.19,-24865.398
1214654.801499142,-33451.418,-67588.75,1553.9144,-18148.031,-45502.32,-43583.62,-50909.668,-24856.242
1214654.805499137,-33460.53,-67619.34,1550.6185,-18150.838,-45491.293,-43589.438,-50902.14,-24832.887
1214654.8094991315,-33453.9,-67585.45,1562.0525,-18148.52,-45492.598,-43590.902,-50897.055,-24814.291
1214654.8134991264,-33452.066,-67574.42,1565.7552,-18142.781,-45490.36,-43583.863,-50905.152,-24835.166
1214654.817499121,-33463.094,-67579.266,1563.0697,-18141.316,-45497.07,-43576.01,-50904.746,-24839.031
1214654.8214991156,-33445.152,-67579.305,1569.2546,-18142.09,-45495.484,-43582.074,-50906.25,-24850.912
1214654.8254991104,-33437.055,-67591.43,1560.5469,-18146.607,-45501.06,-43589.64,-50908.164,-24850.303
1214654.829499105,-33440.555,-67594.484,1561.2386,-18147.87,-45502.566,-43590.13,-50909.1,-24849.121
1214654.8334990998,-33447.31,-67610.516,1561.0352,-18145.143,-45498.902,-43581.543,-50909.87,-24844.523
1214654.8374990944,-33452.555,-67592.33,1559.3262,-18140.463,-45494.508,-43572.594,-50908.285,-24839.64
1214654.841499089,-33446.617,-67590.09,1556.6,-18142.13,-45496.785,-43576.336,-50910.08,-24837.12
1214654.8454990839,-33444.867,-67601.24,1558.4717,-18145.02,-45500.734,-43584.72,-50910.523,-24834.473
1214654.8494990785,-33447.062,-67608.4,1560.2214,-18145.428,-45503.746,-43584.96,-50906.25,-24821.453
1214654.853499073,-33447.957,-67606.695,1562.0525,-18141.969,-45499.555,-43579.55,-50919.434,-24854.29
1214654.857499068,-33450.887,-67609.54,1565.7146,-18136.639,-45492.758,-43573.12,-50927.246,-24881.389
1214654.8614990625,-33460.45,-67624.19,1555.4199,-18139.404,-45496.094,-43575.32,-50925.496,-24875.326
1214654.8654990573,-33468.668,-67633.1,1550.0488,-18142.986,-45502.28,-43579.145,-50922.0,-24868.125
1214654.869499052,-33463.016,-67625.2,1554.1586,-18141.154,-45498.047,-43582.316,-50920.9,-24865.072
1214654.8734990465,-33464.6,-67618.53,1557.1697,-18137.086,-45489.79,-43574.707,-50924.97,-24875.693
1214654.8774990414,-33469.89,-67619.51,1553.8738,-18135.824,-45493.33,-43565.43,-50920.37,-24867.84
1214654.881499036,-33461.754,-67624.31,1549.8047,-18136.354,-45488.04,-43570.11,-50910.32,-24843.385
1214654.8854990308,-33460.98,-67625.57,1549.8455,-18137.574,-45482.707,-43576.582,-50906.617,-24851.36
1214654.8894990254,-33471.52,-67635.3,1545.8171,-18138.672,-45479.574,-43575.727,-50902.957,-24864.584
1214654.89349902,-33484.336,-67646.65,1540.1611,-18137.654,-45480.023,-43564.7,-50894.41,-24859.375
1214654.8974990149,-33475.79,-67646.32,1546.0613,-18130.86,-45480.105,-43558.188,-50893.434,-24836.305
1214654.9014990095,-33471.598,-67633.016,1552.9785,-18130.047,-45486.777,-43565.023,-50896.28,-24829.59
1214654.9054990043,-33480.387,-67626.875,1545.5322,-18132.406,-45491.008,-43576.094,-50893.027,-24820.518
1214654.909498999,-33481.895,-67631.836,1542.3177,-18133.709,-45493.777,-43579.184,-50891.766,-24818.28
1214654.9134989935,-33489.42,-67643.11,1541.3412,-18131.756,-45484.336,-43566.164,-50891.195,-24814.658
1214654.9174989883,-33495.65,-67643.96,1543.5385,-18127.32,-45478.883,-43558.594,-50895.184,-24813.07
1214654.921498983,-33496.746,-67643.44,1541.9109,-18127.523,-45476.562,-43564.293,-50896.566,-24800.09
1214654.9254989775,-33500.406,-67652.75,1538.1267,-18131.47,-45477.38,-43570.56,-50894.41,-24795.045
1214654.9294989724,-33509.277,-67661.5,1535.4818,-18132.365,-45476.074,-43572.633,-50902.426,-24828.818
1214654.933498967,-33512.613,-67662.4,1538.8591,-18129.314,-45472.168,-43562.5,-50903.035,-24823.242
1214654.9374989618,-33513.797,-67659.22,1547.0378,-18126.18,-45468.59,-43558.516,-50907.27,-24828.613
1214654.9414989564,-33509.605,-67662.97,1544.7998,-18123.943,-45470.582,-43560.914,-50909.1,-24830.363
1214654.945498951,-33513.348,-67673.586,1538.8591,-18126.506,-45474.082,-43568.848,-50911.418,-24837.402
1214654.9494989458,-33507.45,-67659.06,1543.742,-18123.291,-45465.13,-43573.49,-50915.324,-24840.17
1214654.9534989404,-33514.977,-67655.07,1547.4854,-18121.379,-45459.066,-43563.234,-50910.402,-24834.473
1214654.9574989353,-33516.36,-67671.39,1542.8467,-18121.99,-45461.67,-43550.906,-50896.445,-24807.293
1214654.96149893,-33506.348,-67678.51,1544.2709,-18121.99,-45469.81,-43557.78,-50902.508,-24810.385
1214654.9654989245,-33502.688,-67668.74,1548.584,-18122.479,-45472.58,-43571.574,-50917.035,-24848.105
1214654.9694989193,-33516.4,-67672.69,1546.7529,-18124.676,-45475.87,-43571.453,-50911.703,-24849.285
1214654.973498914,-33524.09,-67675.21,1546.7529,-18124.594,-45484.99,-43554.363,-50899.945,-24834.148
1214654.9774989088,-33521.28,-67676.68,1541.9109,-18122.355,-45481.773,-43540.367,-50889.85,-24822.389
1214654.9814989034,-33515.586,-67675.01,1549.9268,-18120.076,-45489.34,-43542.035,-50890.625,-24821.738
1214654.985498898,-33519.125,-67682.25,1548.3806,-18122.07,-45488.527,-43549.4,-50895.43,-24840.576
1214654.9894988928,-33528.363,-67693.97,1546.9158,-18124.105,-45487.43,-43548.668,-50889.16,-24824.057
1214654.9934988874,-33531.008,-67694.5,1542.806,-18122.723,-45486.816,-43538.574,-50884.848,-24795.29
1214654.997498882,-33526.004,-67689.25,1547.282,-18118.49,-45492.84,-43530.76,-50882.57,-24792.033
1214655.0014988768,-33532.84,-67696.78,1545.1254,-18119.914,-45490.766,-43533.773,-50886.477,-24814.453
1214655.0054988714,-33535.28,-67698.77,1539.9578,-18121.094,-45484.66,-43540.855,-50887.74,-24814.902
1214655.0094988663,-33533.57,-67697.8,1539.1033,-18120.158,-45482.79,-43544.72,-50884.277,-24801.719
1214655.0134988609,-33537.477,-67697.92,1541.7888,-18117.92,-45484.215,-43536.543,-50891.195,-24818.97
1214655.0174988555,-33546.023,-67706.87,1541.097,-18114.87,-45484.99,-43530.316,-50895.836,-24823.324
1214655.0214988503,-33547.65,-67710.86,1536.8652,-18114.705,-45487.02,-43536.133,-50901.734,-24829.184
1214655.025498845,-33550.17,-67721.88,1533.4473,-18116.984,-45487.836,-43547.242,-50910.28,-24837.77
1214655.0294988398,-33546.43,-67720.83,1534.79,-18115.56,-45480.184,-43551.434,-50913.74,-24836.59
1214655.0334988344,-33547.0,-67717.53,1534.2611,-18112.957,-45474.895,-43543.17,-50917.605,-24841.717
1214655.037498829,-33548.137,-67716.8,1540.5681,-18109.701,-45479.29,-43537.03,-50925.742,-24855.021
1214655.0414988238,-33549.36,-67721.516,1539.8357,-18109.578,-45482.625,-43540.977,-50927.41,-24846.355
1214655.0454988184,-33556.64,-67740.03,1531.4128,-18114.258,-45494.223,-43547.0,-50922.49,-24835.816
1214655.0494988132,-33558.92,-67722.54,1540.0391,-18111.328,-45484.945,-43554.324,-50941.285,-24886.639
1214655.0534988078,-33552.734,-67713.664,1538.2488,-18108.562,-45479.37,-43546.31,-50944.5,-24895.549
1214655.0574988024,-33559.652,-67724.695,1535.2783,-18107.463,-45483.6,-43539.51,-50937.582,-24881.145
1214655.0614987973,-33556.684,-67730.35,1535.5632,-18106.934,-45490.805,-43543.99,-50936.727,-24869.508
1214655.0654987919,-33556.6,-67747.16,1535.7666,-18108.033,-45497.48,-43553.67,-50936.688,-24875.938
1214655.0694987865,-33549.848,-67737.59,1545.2068,-18105.55,-45497.195,-43559.816,-50936.727,-24877.076
1214655.0734987813,-33556.4,-67744.59,1541.7074,-18105.469,-45480.715,-43552.41,-50931.844,-24868.287
1214655.077498776,-33559.246,-67756.39,1541.8701,-18104.533,-45490.4,-43541.992,-50923.91,-24854.29
1214655.0814987707,-33559.855,-67756.516,1540.9343,-18102.54,-45489.586,-43544.355,-50914.55,-24837.281
1214655.0854987653,-33550.742,-67749.63,1542.8875,-18103.027,-45490.887,-43557.617,-50917.766,-24863.73
1214655.08949876,-33548.992,-67758.875,1538.4521,-18106.975,-45494.55,-43560.957,-50913.047,-24862.875
1214655.0934987548,-33552.164,-67756.63,1543.4978,-18104.33,-45500.816,-43551.516,-50905.4,-24838.746
1214655.0974987494,-33544.8,-67755.336,1548.1771,-18100.953,-45493.574,-43542.562,-50900.96,-24822.348
1214655.1014987442,-33544.07,-67759.36,1549.5199,-18102.418,-45492.555,-43546.875,-50897.91,-24812.623
1214655.1054987388,-33546.59,-67770.02,1548.4213,-18102.377,-45477.54,-43555.79,-50899.54,-24815.309
1214655.1094987334,-33540.773,-67784.71,1549.3978,-18101.766,-45481.812,-43557.414,-50897.504,-24827.719
1214655.1134987283,-33536.418,-67751.18,1553.4261,-18097.78,-45481.773,-43544.11,-50889.934,-24814.535
1214655.1174987229,-33537.234,-67736.21,1550.5371,-18097.006,-45469.16,-43533.855,-50889.04,-24805.543
1214655.1214987177,-33532.145,-67743.49,1551.351,-18096.844,-45475.668,-43538.617,-50894.574,-24808.35
1214655.1254987123,-33532.594,-67745.73,1555.7455,-18099.08,-45491.375,-43549.277,-50899.496,-24813.559
1214655.129498707,-33538.004,-67747.766,1552.5717,-18101.115,-45486.613,-43553.55,-50902.754,-24830.078
1214655.1334987017,-33540.324,-67751.14,1544.0267,-18096.395,-45476.645,-43544.15,-50901.367,-24832.398
1214655.1374986963,-33543.99,-67752.85,1540.8123,-18093.629,-45471.03,-43538.496,-50902.59,-24823.771
1214655.141498691,-33536.703,-67755.9,1550.5371,-18095.988,-45476.766,-43542.32,-50911.297,-24844.727
1214655.1454986858,-33537.234,-67766.69,1547.4854,-18102.174,-45489.83,-43549.848,-50914.473,-24860.475
1214655.1494986804,-33542.36,-67773.27,1543.0908,-18105.307,-45479.902,-43550.66,-50912.56,-24852.662
1214655.1534986752,-33540.69,-67773.69,1540.6088,-18101.848,-45465.863,-43542.523,-50913.414,-24861.736
1214655.1574986698,-33533.773,-67762.21,1550.6592,-18097.697,-45463.3,-43536.867,-50922.527,-24881.104
1214655.1614986644,-33527.387,-67756.63,1558.7972,-18095.988,-45468.67,-43540.61,-50921.31,-24873.291
1214655.1654986592,-33522.707,-67753.46,1555.3793,-18098.064,-45478.68,-43548.137,-50914.348,-24855.021
1214655.1694986538,-33522.586,-67750.45,1555.7455,-18098.512,-45473.105,-43549.36,-50906.332,-24842.53
1214655.1734986487,-33523.113,-67765.75,1558.96,-18096.762,-45468.184,-43536.867,-50897.383,-24823.691
1214655.1774986433,-33526.9,-67752.93,1552.7751,-18094.646,-45459.758,-43530.76,-50890.34,-24806.193
1214655.181498638,-33520.47,-67746.38,1552.6123,-18091.676,-45443.484,-43541.426,-50891.195,-24801.066
1214655.1854986327,-33515.992,-67742.19,1567.3422,-18096.15,-45470.99,-43550.54,-50886.355,-24796.957
1214655.1894986273,-33512.574,-67746.87,1562.6221,-18096.15,-45464.64,-43555.258,-50883.63,-24795.29
1214655.1934986222,-33514.285,-67748.91,1561.3201,-18092.53,-45456.016,-43547.65,-50882.406,-24793.58
1214655.1974986168,-33512.004,-67743.86,1565.1855,-18089.803,-45458.17,-43539.633,-50878.99,-24783.773
1214655.2014986114,-33518.555,-67746.99,1562.4594,-18092.773,-45459.637,-43544.395,-50877.85,-24781.047
1214655.2054986062,-33512.535,-67751.71,1557.3324,-18097.86,-45451.863,-43552.41,-50874.715,-24774.09
1214655.2094986008,-33509.074,-67751.06,1552.2869,-18100.3,-45452.15,-43548.668,-50869.508,-24767.822
1214655.2134985954,-33506.51,-67747.4,1548.5027,-18097.738,-45451.336,-43538.332,-50865.277,-24758.506
1214655.2174985902,-33515.098,-67753.016,1550.2117,-18098.145,-45452.19,-43533.69,-50866.254,-24744.346
1214655.2214985848,-33516.24,-67759.08,1551.3103,-18099.0,-45456.586,-43542.402,-50875.9,-24769.492
1214655.2254985797,-33517.293,-67765.26,1548.7875,-18101.766,-45455.0,-43554.527,-50880.008,-24794.068
1214655.2294985743,-33525.473,-67771.57,1551.6765,-18101.807,-45444.418,-43555.34,-50885.254,-24802.816
1214655.2334985689,-33526.816,-67771.89,1550.6592,-18101.074,-45445.355,-43544.23,-50884.074,-24787.72
1214655.2374985637,-33528.81,-67769.57,1550.6185,-18097.412,-45444.62,-43536.258,-50883.832,-24780.926
1214655.2414985583,-33527.387,-67770.55,1548.8281,-18098.104,-45446.74,-43541.75,-50892.375,-24814.494
1214655.2454985532,-33519.246,-67770.875,1543.742,-18098.592,-45442.06,-43553.633,-50899.496,-24828.166
1214655.2494985478,-33524.617,-67775.555,1545.8578,-18098.145,-45438.316,-43556.152,-50898.684,-24823.365
1214655.2534985424,-33528.81,-67778.98,1555.0131,-18098.553,-45441.53,-43546.47,-50893.72,-24812.867
1214655.2574985372,-33522.016,-67795.05,1553.3447,-18099.08,-45439.82,-43538.574,-50892.293,-24813.926
1214655.2614985318,-33515.383,-67774.01,1546.4681,-18096.965,-45439.58,-43545.047,-50892.99,-24815.309
1214655.2654985266,-33520.062,-67778.28,1541.0564,-18099.65,-45433.594,-43553.875,-50895.875,-24819.58
1214655.2694985212,-33524.863,-67786.54,1540.8123,-18101.238,-45425.457,-43552.41,-50891.44,-24818.36
1214655.2734985158,-33515.26,-67772.38,1544.4336,-18097.9,-45440.227,-43538.984,-50879.395,-24798.178
1214655.2774985107,-33510.66,-67769.45,1547.5668,-18095.174,-45435.387,-43529.297,-50877.156,-24795.574
1214655.2814985053,-33509.156,-67774.45,1557.78,-18095.135,-45437.746,-43536.62,-50880.78,-24808.188
1214655.2854984999,-33515.668,-67783.57,1553.7517,-18099.285,-45444.297,-43549.645,-50885.582,-24835.125
1214655.2894984947,-33526.734,-67793.46,1541.097,-18103.598,-45442.668,-43548.098,-50880.74,-24826.377
1214655.2934984893,-33522.79,-67791.83,1541.3818,-18100.22,-45430.707,-43540.938,-50881.594,-24818.238
1214655.2974984841,-33516.848,-67793.945,1559.2041,-18097.576,-45438.6,-43534.426,-50880.902,-24805.543
1214655.3014984787,-33518.555,-67790.49,1548.3806,-18097.78,-45439.332,-43537.395,-50874.227,-24787.354
1214655.3054984733,-33519.53,-67787.11,1537.5977,-18100.75,-45431.355,-43546.918,-50872.355,-24784.059
1214655.3094984682,-33518.066,-67791.71,1548.0144,-18099.977,-45428.508,-43548.625,-50876.63,-24788.006
1214655.3134984628,-33525.637,-67793.625,1543.7826,-18098.023,-45424.727,-43534.26,-50872.887,-24775.96
1214655.3174984576,-33520.305,-67791.22,1535.6853,-18097.25,-45426.598,-43526.246,-50870.28,-24776.693
1214655.3214984522,-33504.07,-67779.99,1533.5287,-18094.32,-45423.34,-43530.844,-50874.105,-24800.863
1214655.3254984468,-33508.63,-67793.09,1536.906,-18096.883,-45422.812,-43541.22,-50873.902,-24797.242
1214655.3294984417,-33514.69,-67800.055,1541.9109,-18098.227,-45423.83,-43546.67,-50879.477,-24801.555
1214655.3334984363,-33519.816,-67808.72,1547.7295,-18096.6,-45418.05,-43536.824,-50879.477,-24793.54
1214655.337498431,-33515.83,-67808.27,1540.6902,-18096.477,-45417.684,-43527.344,-50878.703,-24798.748
1214655.3414984257,-33506.188,-67792.56,1546.2646,-18093.953,-45417.44,-43533.53,-50883.223,-24807.293
1214655.3454984203,-33505.414,-67796.914,1554.1179,-18095.541,-45420.29,-43540.69,-50882.977,-24810.385
1214655.3494984151,-33502.402,-67808.72,1544.9219,-18097.494,-45425.78,-43541.22,-50880.82,-24809.205
1214655.3534984097,-33508.63,-67831.26,1541.3005,-18097.088,-45422.12,-43530.195,-50878.34,-24809.164
1214655.3574984043,-33512.82,-67817.06,1532.308,-18097.494,-45419.68,-43522.586,-50873.457,-24800.781
1214655.3614983992,-33512.656,-67813.36,1544.0674,-18094.035,-45422.977,-43529.707,-50878.094,-24806.885
1214655.3654983938,-33519.168,-67822.67,1543.335,-18094.605,-45428.633,-43537.395,-50879.965,-24815.553
1214655.3694983886,-33517.336,-67828.734,1535.3597,-18096.762,-45428.02,-43538.086,-50875.53,-24805.137
1214655.3734983832,-33510.54,-67822.836,1538.4521,-18091.838,-45416.79,-43527.996,-50877.2,-24808.92
1214655.3774983778,-33507.12,-67822.516,1543.4978,-18088.95,-45417.48,-43522.016,-50880.7,-24816.041
1214655.3814983726,-33511.72,-67832.805,1539.0625,-18091.96,-45422.324,-43529.055,-50877.44,-24813.03
1214655.3854983672,-33509.48,-67841.02,1541.748,-18094.97,-45433.555,-43537.477,-50872.887,-24793.254
1214655.389498362,-33505.94,-67840.86,1544.0674,-18095.418,-45416.63,-43536.785,-50872.03,-24798.096
1214655.3934983567,-33506.145,-67834.92,1541.2598,-18090.943,-45408.406,-43524.742,-50873.496,-24810.752
1214655.3974983513,-33508.707,-67838.79,1544.4336,-18089.355,-45413.74,-43514.082,-50864.42,-24777.996
1214655.4014983461,-33503.336,-67835.98,1542.3992,-18088.217,-45413.453,-43515.547,-50857.098,-24758.262
1214655.4054983407,-33504.52,-67839.234,1538.4521,-18090.902,-45414.39,-43526.043,-50862.062,-24790.283
1214655.4094983356,-33505.414,-67839.6,1541.3005,-18090.373,-45416.06,-43533.734,-50874.715,-24822.754
1214655.4134983302,-33509.117,-67844.28,1537.2314,-18089.355,-45412.234,-43528.363,-50878.543,-24814.17
1214655.4174983248,-33505.902,-67846.68,1537.2722,-18088.338,-45410.32,-43523.03,-50878.785,-24801.799
1214655.4214983196,-33509.605,-67846.68,1536.6619,-18086.59,-45412.312,-43529.22,-50878.83,-24795.451
1214655.4254983142,-33508.26,-67851.73,1536.7432,-18088.055,-45425.293,-43537.273,-50880.984,-24801.514
1214655.4294983088,-33506.39,-67855.67,1535.197,-18090.617,-45424.36,-43537.152,-50880.82,-24810.67
1214655.4334983036,-33506.51,-67849.0,1539.4287,-18087.361,-45415.242,-43523.723,-50875.53,-24787.354
1214655.4374982982,-33507.04,-67849.77,1548.5027,-18083.537,-45417.523,-43514.324,-50873.09,-24787.883
1214655.441498293,-33510.906,-67854.86,1543.1316,-18085.775,-45415.855,-43519.043,-50877.77,-24810.264
1214655.4454982877,-33513.43,-67867.27,1532.5115,-18089.438,-45420.125,-43528.402,-50872.684,-24787.762
1214655.4494982823,-33516.36,-67879.88,1527.0996,-18091.473,-45420.207,-43528.484,-50868.367,-24765.3
1214655.453498277,-33510.906,-67862.96,1532.8369,-18089.479,-45421.266,-43519.777,-50879.273,-24814.738
1214655.4574982717,-33507.45,-67859.21,1534.5867,-18089.07,-45406.74,-43512.453,-50881.836,-24816.041
1214655.4614982666,-33512.82,-67868.29,1535.1156,-18090.82,-45409.914,-43518.066,-50877.645,-24792.36
1214655.4654982612,-33511.68,-67867.555,1534.6273,-18089.885,-45409.383,-43526.492,-50880.574,-24804.12
1214655.4694982558,-33510.5,-67866.25,1530.5176,-18089.479,-45410.605,-43525.84,-50876.223,-24799.969
1214655.4734982506,-33511.355,-67869.14,1539.0219,-18084.84,-45409.383,-43517.742,-50876.953,-24802.287
1214655.4774982452,-33503.094,-67862.71,1543.4164,-18079.59,-45402.996,-43512.004,-50879.68,-24807.822
1214655.48149824,-33501.02,-67857.75,1538.615,-18079.793,-45397.22,-43517.09,-50881.758,-24810.14
1214655.4854982346,-33503.582,-67867.23,1542.1957,-18083.7,-45405.477,-43524.617,-50876.547,-24801.475
1214655.4894982292,-33518.23,-67879.56,1542.2771,-18086.752,-45415.812,-43525.758,-50871.625,-24792.033
1214655.493498224,-33507.164,-67872.44,1543.7826,-18081.299,-45410.402,-43517.703,-50871.22,-24785.605
1214655.4974982187,-33500.855,-67869.914,1549.2351,-18079.305,-45407.066,-43512.695,-50871.016,-24785.97
1214655.5014982133,-33507.367,-67878.91,1542.8467,-18084.88,-45404.543,-43518.516,-50868.613,-24777.752
1214655.505498208,-33507.45,-67879.27,1536.5398,-18086.264,-45402.47,-43524.863,-50867.473,-24774.252
1214655.5094982027,-33508.06,-67879.64,1536.0922,-18086.508,-45402.754,-43526.367,-50865.926,-24774.902
1214655.5134981975,-33507.203,-67877.93,1539.6322,-18084.758,-45402.59,-43517.254,-50866.457,-24782.797
1214655.5174981921,-33509.97,-67881.43,1538.737,-18084.066,-45398.805,-43509.97,-50867.676,-24781.902
1214655.5214981867,-33511.027,-67883.47,1536.9873,-18084.393,-45406.58,-43516.523,-50876.305,-24795.615
1214655.5254981816,-33512.047,-67887.82,1532.959,-18086.426,-45407.473,-43525.637,-50875.203,-24790.732
1214655.5294981762,-33516.195,-67892.414,1531.0873,-18088.217,-45407.555,-43527.305,-50872.723,-24771.16
1214655.533498171,-33513.836,-67886.84,1537.7197,-18086.02,-45406.7,-43519.86,-50878.99,-24782.838
1214655.5374981656,-33516.52,-67885.7,1537.8418,-18083.537,-45399.457,-43514.324,-50888.023,-24809.775
1214655.5414981602,-33518.758,-67891.234,1535.5632,-18084.799,-45404.707,-43518.312,-50894.125,-24835.166
1214655.545498155,-33523.316,-67900.96,1532.5928,-18087.361,-45412.64,-43525.15,-50889.082,-24822.998
1214655.5494981497,-33523.48,-67899.05,1530.4769,-18087.646,-45412.234,-43529.543,-50892.05,-24829.062
1214655.5534981445,-33518.96,-67893.44,1535.6853,-18085.287,-45411.867,-43520.184,-50896.12,-24844.605
1214655.557498139,-33520.02,-67900.35,1534.6273,-18084.88,-45412.68,-43509.402,-50889.445,-24817.1
1214655.5614981337,-33523.074,-67909.38,1530.2734,-18088.338,-45418.215,-43513.43,-50890.79,-24826.092
1214655.5654981285,-33524.13,-67929.41,1530.9246,-18090.252,-45423.016,-43521.2,-50889.977,-24830.283
1214655.5694981231,-33529.543,-67917.36,1533.488,-18092.082,-45423.543,-43524.863,-50887.86,-24823.812
1214655.5734981177,-33532.555,-67908.29,1534.8715,-18090.496,-45425.133,-43516.48,-50885.945,-24808.879
1214655.5774981126,-33531.535,-67909.22,1534.79,-18088.746,-45422.242,-43506.633,-50880.984,-24784.629
1214655.5814981072,-33531.617,-67914.31,1534.0576,-18091.838,-45428.754,-43509.48,-50873.984,-24770.06
1214655.585498102,-33529.137,-67916.875,1526.1638,-18095.541,-45429.65,-43518.883,-50879.395,-24800.09
1214655.5894980966,-33528.727,-67918.74,1524.4955,-18095.379,-45427.41,-43520.754,-50878.99,-24799.44
1214655.5934980912,-33528.89,-67915.33,1528.6459,-18091.594,-45423.83,-43513.387,-50877.973,-24794.15
1214655.597498086,-33532.35,-67914.19,1528.89,-18088.338,-45424.156,-43506.758,-50879.395,-24791.545
1214655.6014980807,-33537.965,-67925.055,1524.7803,-18091.879,-45429.445,-43513.67,-50881.105,-24794.8
1214655.6054980755,-33544.477,-67938.766,1524.4955,-18096.965,-45437.703,-43523.36,-50884.277,-24800.986
1214655.60949807,-33549.562,-67943.93,1525.2279,-18097.738,-45438.477,-43523.926,-50889.934,-24827.76
1214655.6134980647,-33541.016,-67932.375,1528.8086,-18093.547,-45428.71,-43515.26,-50900.027,-24860.068
1214655.6174980595,-33534.63,-67926.8,1531.8197,-18091.473,-45427.574,-43508.79,-50895.59,-24842.205
1214655.6214980541,-33542.277,-67942.67,1526.8148,-18094.361,-45433.758,-43515.383,-50887.37,-24817.832
1214655.625498049,-33545.94,-67950.195,1527.7914,-18095.744,-45435.957,-43524.617,-50889.082,-24815.512
1214655.6294980436,-33542.93,-67948.04,1529.4597,-18095.906,-45435.344,-43525.96,-50889.57,-24812.826
1214655.6334980382,-33536.95,-67940.63,1530.3955,-18093.465,-45431.152,-43515.06,-50888.266,-24802.898
1214655.637498033,-33546.305,-67944.83,1527.832,-18093.1,-45433.434,-43505.13,-50887.047,-24793.336
1214655.6414980276,-33548.586,-67954.59,1528.117,-18094.646,-45437.258,-43512.656,-50893.883,-24818.768
1214655.6454980222,-33541.504,-67950.93,1529.4597,-18095.541,-45435.75,-43523.4,-50896.973,-24827.434
1214655.649498017,-33546.715,-67956.83,1526.4893,-18098.797,-45433.15,-43524.457,-50895.918,-24825.562
1214655.6534980116,-33550.293,-67960.734,1529.2969,-18098.959,-45434.125,-43518.312,-50900.516,-24823.854
1214655.6574980065,-33554.04,-67963.5,1532.2266,-18096.518,-45435.06,-43511.152,-50896.65,-24803.264
1214655.661498001,-33555.543,-67966.27,1532.6335,-18095.5,-45435.1,-43514.49,-50891.93,-24782.268
1214655.6654979957,-33557.78,-67969.445,1531.2094,-18097.576,-45438.52,-43521.934,-50896.527,-24810.14
1214655.6694979905,-33560.02,-67969.32,1530.4769,-18098.512,-45438.52,-43524.78,-50900.434,-24821.615
1214655.6734979851,-33558.594,-67969.16,1531.9011,-18098.512,-45438.152,-43518.965,-50901.98,-24817.22
1214655.67749798,-33564.332,-67985.6,1528.6052,-18097.047,-45436.28,-43509.81,-50897.34,-24800.172
1214655.6814979746,-33560.387,-67982.016,1528.6052,-18098.797,-45437.42,-43515.504,-50898.97,-24824.586
1214655.6854979692,-33563.395,-67981.85,1525.9197,-18104.086,-45447.836,-43522.992,-50894.246,-24804.648
1214655.689497964,-33572.145,-67988.32,1527.0996,-18107.016,-45449.707,-43523.805,-50894.125,-24807.822
1214655.6934979586,-33561.85,-67976.56,1531.9011,-18102.783,-45445.19,-43515.137,-50898.848,-24819.174
1214655.6974979534,-33553.59,-67972.25,1535.1562,-18099.406,-45444.582,-43509.035,-50902.06,-24822.062
1214655.701497948,-33552.37,-67978.27,1536.8246,-18100.871,-45449.06,-43514.69,-50901.613,-24825.848
1214655.7054979426,-33557.293,-67985.11,1530.599,-18103.027,-45448.61,-43523.234,-50898.4,-24814.088
1214655.7094979375,-33559.125,-67986.414,1526.8962,-18101.277,-45445.844,-43525.15,-50906.66,-24826.213
1214655.713497932,-33552.9,-67984.3,1535.4004,-18098.227,-45441.246,-43514.977,-50906.453,-24810.059
1214655.7174979267,-33555.95,-67988.94,1538.5336,-18096.518,-45439.168,-43506.188,-50904.664,-24806.926
1214655.7214979215,-33564.293,-68001.79,1534.1797,-18098.553,-45438.64,-43513.266,-50911.95,-24830.078
1214655.725497916,-33571.94,-68003.18,1527.7507,-18103.312,-45437.625,-43523.03,-50911.703,-24832.56
1214655.729497911,-33567.547,-68002.445,1528.1982,-18105.348,-45444.418,-43526.367,-50911.46,-24845.541
1214655.7334979055,-33564.21,-68004.72,1528.8086,-18104.94,-45451.54,-43518.15,-50909.75,-24837.443
1214655.7374979001,-33561.605,-68008.38,1529.8666,-18104.818,-45452.72,-43511.19,-50909.59,-24839.355
1214655.741497895,-33568.484,-68017.74,1525.1873,-18106.568,-45453.207,-43513.51,-50906.17,-24826.416
1214655.7454978896,-33565.43,-68029.664,1524.4548,-18109.172,-45452.516,-43524.13,-50907.758,-24819.336
1214655.7494978844,-33562.055,-68027.875,1523.8037,-18110.027,-45451.17,-43526.33,-50905.07,-24804.363
1214655.753497879,-33555.582,-68005.086,1531.1279,-18104.818,-45449.79,-43517.99,-50911.094,-24824.748
1214655.7574978736,-33546.633,-68003.18,1536.377,-18101.848,-45448.285,-43512.656,-50921.184,-24858.643
1214655.7614978685,-33556.723,-68012.25,1529.2562,-18104.98,-45448.445,-43518.84,-50915.04,-24833.416
1214655.765497863,-33563.273,-68020.47,1523.8037,-18108.562,-45453.656,-43527.508,-50912.395,-24827.516
1214655.769497858,-33567.586,-68030.48,1524.5769,-18109.742,-45461.59,-43532.594,-50907.473,-24809.938
1214655.7734978525,-33560.344,-68026.98,1531.9418,-18106.648,-45457.195,-43525.15,-50906.414,-24822.959
1214655.777497847,-33551.883,-68019.86,1534.668,-18103.8,-45454.062,-43518.434,-50903.484,-24816.447
1214655.781497842,-33551.516,-68018.35,1531.0059,-18107.057,-45456.79,-43523.723,-50901.45,-24819.459
1214655.7854978365,-33559.855,-68024.945,1523.5596,-18110.434,-45458.336,-43532.105,-50896.688,-24808.025
1214655.7894978311,-33557.945,-68023.234,1521.5251,-18111.004,-45452.15,-43533.69,-50895.875,-24813.396
1214655.793497826,-33556.844,-68019.984,1524.2513,-18109.783,-45447.266,-43525.23,-50893.395,-24808.146
1214655.7974978206,-33552.246,-68022.3,1532.2266,-18107.992,-45447.754,-43519.656,-50892.906,-24798.26
1214655.8014978154,-33552.53,-68033.98,1526.123,-18112.184,-45461.47,-43529.746,-50894.41,-24786.338
1214655.80549781,-33563.723,-68051.31,1518.9209,-18119.793,-45465.617,-43538.37,-50888.836,-24769.41
1214655.8094978046,-33569.824,-68050.5,1515.4216,-18120.809,-45450.156,-43541.547,-50897.992,-24811.035
1214655.8134977994,-33563.56,-68034.55,1516.6016,-18115.113,-45438.19,-43536.258,-50909.508,-24838.543
1214655.817497794,-33555.46,-68024.05,1522.3389,-18109.498,-45428.02,-43531.496,-50913.7,-24839.967
1214655.821497789,-33556.48,-68022.46,1525.5941,-18111.654,-45432.82,-43539.797,-50917.402,-24831.219
1214655.8254977835,-33562.38,-68034.55,1523.3969,-18118.328,-45439.09,-43550.824,-50917.848,-24821.127
1214655.829497778,-33564.617,-68044.516,1518.9209,-18121.582,-45438.273,-43552.9,-50916.832,-24821.453
1214655.833497773,-33564.86,-68040.81,1519.165,-18118.043,-45431.64,-43543.418,-50913.656,-24819.256
1214655.8374977675,-33561.65,-68031.414,1520.7113,-18114.422,-45426.473,-43538.7,-50915.203,-24825.725
1214655.8414977624,-33560.14,-68032.19,1522.0947,-18115.805,-45427.9,-43542.848,-50915.45,-24829.184
1214655.845497757,-33571.13,-68048.79,1517.3748,-18120.2,-45432.375,-43554.28,-50913.453,-24832.805
1214655.8494977516,-33585.574,-68058.68,1513.8347,-18122.396,-45431.4,-43555.95,-50913.008,-24834.717
1214655.8534977464,-33574.383,-68053.55,1520.2637,-18120.24,-45425.66,-43548.543,-50912.56,-24821.738
1214655.857497741,-33568.402,-68059.125,1528.3611,-18117.188,-45425.254,-43543.336,-50912.438,-24813.518
1214655.8614977356,-33576.336,-68084.19,1526.7334,-18120.158,-45423.586,-43550.17,-50916.098,-24833.293
1214655.8654977304,-33582.195,-68083.26,1518.8396,-18126.506,-45431.195,-43560.305,-50914.594,-24825.236
1214655.869497725,-33585.734,-68082.69,1516.6423,-18126.668,-45438.03,-43561.24,-50915.082,-24819.988
1214655.8734977199,-33585.164,-68080.28,1519.7347,-18124.39,-45432.945,-43551.27,-50913.047,-24825.4
1214655.8774977145,-33585.41,-68080.77,1520.5486,-18124.268,-45431.234,-43544.8,-50911.176,-24821.982
1214655.881497709,-33588.094,-68084.48,1521.8099,-18125.082,-45430.38,-43550.703,-50909.87,-24806.602
1214655.885497704,-33592.41,-68092.734,1516.6423,-18128.703,-45433.676,-43559.164,-50901.246,-24773.764
1214655.8894976985,-33594.93,-68103.195,1516.4795,-18129.598,-45434.492,-43562.42,-50901.29,-24792.521
1214655.8934976934,-33589.76,-68099.98,1521.9727,-18124.39,-45428.02,-43553.633,-50905.805,-24829.143
1214655.897497688,-33580.566,-68095.54,1524.699,-18121.379,-45416.016,-43548.383,-50907.594,-24832.52
1214655.9014976826,-33584.473,-68103.97,1521.1182,-18122.396,-45417.97,-43554.363,-50906.902,-24822.592
1214655.9054976774,-33590.535,-68108.195,1516.032,-18123.17,-45428.914,-43561.973,-50906.332,-24818.889
1214655.909497672,-33587.484,-68106.77,1515.5437,-18122.926,-45425.008,-43562.664,-50908.53,-24817.668
1214655.9134976668,-33588.91,-68107.75,1518.5547,-18121.582,-45423.42,-43553.836,-50910.2,-24811.729
1214655.9174976614,-33589.97,-68114.016,1520.5078,-18119.1,-45425.906,-43548.707,-50917.117,-24818.604
1214655.921497656,-33592.57,-68120.41,1516.032,-18122.518,-45431.234,-43555.992,-50924.93,-24826.01
1214655.9254976509,-33600.344,-68126.38,1512.207,-18126.547,-45431.723,-43564.82,-50927.41,-24828.574
1214655.9294976455,-33597.37,-68126.266,1518.4734,-18125.773,-45439.82,-43566.45,-50927.816,-24833.457
1214655.93349764,-33587.28,-68120.37,1523.9258,-18121.46,-45447.39,-43556.152,-50924.156,-24820.518
1214655.937497635,-33586.062,-68123.17,1522.2576,-18118.572,-45432.58,-43547.934,-50919.434,-24808.96
1214655.9414976295,-33584.637,-68133.914,1517.863,-18119.588,-45427.695,-43552.816,-50920.332,-24826.133
1214655.9454976243,-33586.63,-68126.55,1518.8802,-18121.785,-45437.703,-43563.723,-50920.492,-24828.37
1214655.949497619,-33595.01,-68135.5,1521.6472,-18124.432,-45437.99,-43564.74,-50911.906,-24805.543
1214655.9534976135,-33599.527,-68141.6,1520.3451,-18122.518,-45437.055,-43555.83,-50908.367,-24809.205
1214655.9574976084,-33597.86,-68139.164,1520.4265,-18121.094,-45435.996,-43549.44,-50915.855,-24833.13
1214655.961497603,-33597.86,-68141.234,1520.3044,-18123.535,-45436.81,-43555.586,-50913.82,-24826.295
1214655.9654975978,-33603.598,-68150.07,1523.8851,-18123.7,-45437.83,-43562.95,-50905.195,-24802.246
1214655.9694975924,-33603.92,-68159.95,1524.3734,-18125.326,-45440.023,-43565.676,-50905.195,-24806.926
1214655.973497587,-33596.477,-68160.484,1523.8037,-18121.99,-45438.438,-43557.496,-50908.773,-24827.027
1214655.9774975819,-33596.76,-68159.67,1526.001,-18119.02,-45440.797,-43549.887,-50907.676,-24815.918
1214655.9814975765,-33600.383,-68160.69,1525.5941,-18119.02,-45444.418,-43555.46,-50903.973,-24799.48
1214655.9854975713,-33600.63,-68166.34,1527.059,-18120.158,-45447.31,-43565.145,-50902.875,-24795.695
1214655.989497566,-33604.004,-68167.28,1526.7334,-18121.623,-45443.36,-43564.94,-50904.137,-24794.922
1214655.9934975605,-33596.395,-68159.38,1527.2217,-18118.45,-45439.78,-43556.234,-50906.74,-24801.107
1214655.9974975553,-33593.793,-68154.09,1529.4597,-18114.502,-45439.74,-43550.66,-50916.3,-24828.451
1214656.00149755,-33595.418,-68162.72,1525.9197,-18116.21,-45444.133,-43559.41,-50918.867,-24825.684
1214656.0054975445,-33593.63,-68168.01,1522.3796,-18120.688,-45445.598,-43568.605,-50918.66,-24820.72
1214656.0094975394,-33594.523,-68168.78,1524.6582,-18120.484,-45448.242,-43570.027,-50918.62,-24812.094
1214656.013497534,-33592.855,-68161.91,1531.7383,-18115.193,-45449.098,-43561.566,-50921.227,-24809.855
1214656.0174975288,-33592.816,-68159.38,1534.0576,-18112.875,-45438.926,-43554.77,-50919.56,-24802.816
1214656.0214975234,-33595.176,-68163.45,1529.5004,-18114.787,-45439.09,-43557.863,-50915.367,-24786.5
1214656.025497518,-33599.12,-68172.28,1526.0417,-18117.676,-45438.965,-43564.453,-50908.164,-24775.514
1214656.0294975128,-33603.92,-68191.94,1525.2686,-18117.27,-45440.715,-43564.863,-50909.223,-24794.639
1214656.0334975075,-33601.277,-68172.65,1528.117,-18114.299,-45442.383,-43558.31,-50913.74,-24815.105
1214656.0374975023,-33602.742,-68162.44,1530.1921,-18109.783,-45438.6,-43549.195,-50909.75,-24801.555
1214656.041497497,-33607.3,-68168.375,1530.6804,-18111.004,-45442.383,-43553.71,-50906.293,-24790.61
1214656.0454974915,-33597.496,-68177.164,1527.9135,-18114.34,-45447.145,-43562.5,-50901.004,-24788.738
1214656.0494974863,-33594.32,-68175.62,1526.2045,-18114.096,-45442.668,-43563.887,-50897.383,-24796.428
1214656.053497481,-33595.62,-68174.84,1530.1107,-18111.531,-45444.785,-43557.742,-50898.887,-24796.836
1214656.0574974758,-33591.96,-68174.234,1534.668,-18108.684,-45454.59,-43548.953,-50893.598,-24777.549
1214656.0614974704,-33588.867,-68175.87,1535.3597,-18107.707,-45449.22,-43554.973,-50893.434,-24786.744
1214656.065497465,-33590.13,-68182.91,1532.43,-18109.375,-45445.19,-43567.465,-50892.58,-24782.268
1214656.0694974598,-33589.48,-68183.48,1534.1797,-18107.748,-45442.18,-43567.547,-50889.773,-24771.078
1214656.0734974544,-33583.133,-68178.34,1539.5916,-18101.97,-45438.64,-43558.35,-50891.36,-24768.963
1214656.077497449,-33578.86,-68177.086,1541.0156,-18097.615,-45437.094,-43553.957,-50897.055,-24771.445
1214656.0814974438,-33580.04,-68183.43,1538.208,-18101.604,-45439.535,-43561.402,-50900.066,-24777.467
1214656.0854974384,-33578.777,-68184.37,1535.5632,-18103.883,-45441.203,-43571.82,-50898.64,-24771.12
1214656.0894974333,-33578.656,-68185.38,1535.2783,-18104.004,-45438.965,-43576.297,-50904.176,-24789.512
1214656.0934974279,-33578.453,-68183.11,1534.9529,-18101.562,-45436.484,-43568.28,-50906.414,-24792.277
1214656.0974974225,-33576.785,-68180.09,1534.8715,-18097.982,-45435.71,-43561.89,-50908.69,-24785.197
1214656.1014974173,-33579.55,-68184.82,1536.8246,-18098.797,-45435.957,-43569.746,-50914.39,-24788.047
1214656.105497412,-33583.293,-68193.04,1532.7148,-18101.604,-45434.492,-43578.29,-50916.547,-24787.232
1214656.1094974068,-33581.055,-68193.93,1532.2266,-18100.83,-45431.074,-43578.695,-50917.523,-24791.016
1214656.1134974014,-33582.6,-68188.766,1532.3486,-18098.389,-45428.508,-43568.36,-50917.035,-24784.385
1214656.117497396,-33581.18,-68186.85,1532.5928,-18095.906,-45427.695,-43560.957,-50915.812,-24786.541
1214656.1214973908,-33577.434,-68190.836,1532.9183,-18095.582,-45432.496,-43569.582,-50917.81,-24800.986
1214656.1254973854,-33577.84,-68196.45,1533.7728,-18098.43,-45433.188,-43576.824,-50914.676,-24794.678
1214656.1294973802,-33581.098,-68200.73,1533.8542,-18100.383,-45430.95,-43574.26,-50908.69,-24785.727
1214656.1334973748,-33584.72,-68204.555,1536.6211,-18099.65,-45425.17,-43567.14,-50903.08,-24772.666
1214656.1374973694,-33574.137,-68205.85,1541.3818,-18097.78,-45423.137,-43559.367,-50894.734,-24748.17
1214656.1414973643,-33572.348,-68187.42,1541.7888,-18098.797,-45427.246,-43565.51,-50895.59,-24775.229
1214656.1454973589,-33580.61,-68191.29,1536.2957,-18102.01,-45432.17,-43574.465,-50895.305,-24783.447
1214656.1494973535,-33580.61,-68197.35,1538.4115,-18100.953,-45437.543,-43575.277,-50892.78,-24779.95
1214656.1534973483,-33580.895,-68198.33,1542.7246,-18099.936,-45439.453,-43567.305,-50891.766,-24776.693
1214656.157497343,-33580.16,-68199.99,1543.2537,-18101.441,-45438.316,-43561.65,-50891.24,-24767.295
1214656.1614973377,-33579.59,-68199.625,1542.5212,-18102.703,-45438.64,-43567.06,-50893.84,-24763.021
1214656.1654973323,-33583.457,-68204.39,1537.5164,-18104.615,-45435.547,-43574.547,-50894.246,-24760.703
1214656.169497327,-33585.98,-68205.61,1534.4646,-18106.854,-45433.758,-43575.93,-50896.934,-24767.09
1214656.1734973218,-33584.637,-68197.23,1536.0515,-18103.475,-45430.586,-43564.332,-50901.938,-24779.297
1214656.1774973164,-33590.58,-68196.086,1533.7728,-18101.727,-45428.71,-43557.7,-50897.176,-24757.447
1214656.1814973112,-33590.375,-68195.805,1531.6976,-18102.54,-45429.73,-43562.258,-50895.67,-24749.756
1214656.1854973058,-33587.73,-68195.03,1529.4597,-18105.754,-45428.55,-43571.492,-50899.58,-24755.332
1214656.1894973004,-33591.758,-68200.73,1530.7617,-18107.586,-45428.387,-43571.656,-50898.64,-24750.205
1214656.1934972953,-33592.0,-68195.6,1535.3597,-18103.8,-45428.59,-43562.297,-50902.71,-24764.486
1214656.1974972899,-33584.11,-68191.94,1531.0059,-18101.36,-45428.145,-43556.234,-50904.785,-24763.633
1214656.2014972847,-33585.53,-68197.96,1526.8148,-18103.8,-45431.805,-43564.332,-50908.69,-24767.701
1214656.2054972793,-33592.367,-68208.87,1523.0713,-18108.807,-45436.688,-43577.477,-50919.844,-24786.094
1214656.209497274,-33596.844,-68213.18,1523.1527,-18108.277,-45435.223,-43583.008,-50929.73,-24805.137
1214656.2134972687,-33603.56,-68212.08,1525.472,-18105.307,-45425.293,-43569.99,-50921.266,-24778.076
1214656.2174972633,-33602.457,-68212.32,1528.89,-18102.295,-45427.9,-43563.316,-50921.47,-24784.912
1214656.221497258,-33595.46,-68216.88,1528.2797,-18103.354,-45430.34,-43569.95,-50925.09,-24810.588
1214656.2254972528,-33594.973,-68222.414,1526.6113,-18106.121,-45433.72,-43576.785,-50919.11,-24793.54
1214656.2294972474,-33591.676,-68226.56,1526.408,-18105.754,-45429.85,-43576.785,-50914.55,-24785.238
1214656.2334972422,-33591.27,-68231.695,1530.2734,-18101.36,-45429.242,-43568.562,-50909.914,-24772.34
1214656.2374972368,-33592.69,-68212.24,1534.8308,-18098.959,-45431.64,-43562.34,-50903.2,-24750.773
1214656.2414972314,-33589.97,-68213.7,1533.0404,-18097.82,-45439.13,-43569.582,-50902.547,-24754.355
1214656.2454972262,-33593.508,-68222.375,1530.3142,-18100.018,-45438.56,-43579.875,-50904.5,-24765.504
1214656.2494972209,-33594.645,-68227.99,1531.9011,-18099.53,-45429.16,-43577.72,-50894.41,-24738.281
1214656.2534972157,-33591.35,-68225.836,1533.7728,-18097.82,-45420.168,-43566.49,-50888.875,-24727.092
1214656.2574972103,-33590.332,-68222.945,1535.5225,-18094.158,-45418.133,-43555.83,-50885.05,-24717.938
1214656.261497205,-33589.355,-68223.19,1537.5164,-18094.361,-45428.223,-43562.297,-50893.598,-24753.906
1214656.2654971997,-33585.855,-68225.75,1538.4521,-18092.326,-45431.844,-43569.5,-50896.812,-24768.23
1214656.2694971943,-33580.363,-68224.41,1537.1501,-18092.53,-45427.246,-43569.582,-50896.85,-24764.975
1214656.2734971892,-33586.996,-68228.27,1537.3129,-18090.902,-45426.473,-43565.023,-50897.625,-24758.383
1214656.2774971838,-33588.91,-68229.25,1539.9578,-18087.2,-45422.85,-43560.914,-50900.88,-24758.627
1214656.2814971784,-33579.55,-68230.02,1540.1611,-18088.826,-45423.992,-43566.043,-50900.066,-24757.203
1214656.2854971732,-33581.625,-68236.58,1537.8418,-18093.182,-45444.99,-43573.082,-50898.113,-24748.373
1214656.2894971678,-33584.637,-68239.99,1534.3018,-18092.732,-45451.945,-43575.605,-50902.1,-24759.277
1214656.2934971624,-33587.2,-68239.3,1536.0515,-18089.438,-45441.164,-43567.465,-50907.35,-24772.828
1214656.2974971572,-33592.773,-68243.77,1534.3018,-18087.402,-45440.96,-43558.15,-50902.06,-24753.703
1214656.3014971518,-33588.504,-68257.65,1534.3425,-18088.705,-45437.258,-43564.09,-50905.316,-24765.992
1214656.3054971467,-33586.062,-68255.49,1532.3894,-18090.7,-45437.543,-43575.074,-50909.914,-24775.27
1214656.3094971413,-33589.723,-68245.52,1530.5583,-18091.023,-45438.4,-43576.01,-50910.28,-24774.7
1214656.3134971359,-33587.688,-68243.53,1533.1218,-18088.46,-45435.14,-43566.367,-50910.605,-24777.508
1214656.3174971307,-33582.723,-68244.266,1535.5632,-18085.572,-45435.47,-43556.766,-50906.617,-24763.062
1214656.3214971253,-33583.457,-68250.29,1532.8777,-18087.605,-45439.656,-43562.83,-50908.33,-24769.451
1214656.3254971202,-33589.03,-68259.85,1529.2562,-18091.35,-45440.96,-43574.098,-50905.926,-24762.248
1214656.3294971148,-33594.645,-68265.625,1531.6162,-18093.75,-45442.223,-43574.63,-50898.438,-24747.07
1214656.3334971094,-33595.83,-68264.57,1534.8715,-18091.105,-45440.145,-43564.94,-50891.684,-24736.004
1214656.3374971042,-33589.152,-68264.125,1535.8887,-18090.088,-45447.348,-43561.85,-50890.953,-24744.508
1214656.3414970988,-33587.89,-68267.664,1533.2845,-18091.064,-45453.33,-43565.145,-50885.5,-24736.898
1214656.3454970936,-33587.73,-68271.37,1529.9072,-18093.588,-45456.016,-43572.957,-50883.832,-24739.422
1214656.3494970882,-33589.64,-68275.15,1529.3783,-18093.914,-45459.676,-43574.06,-50885.094,-24745.2
1214656.3534970828,-33591.797,-68274.09,1532.9183,-18090.7,-45456.707,-43565.473,-50886.395,-24739.625
1214656.3574970777,-33589.52,-68270.43,1534.017,-18087.85,-45451.906,-43559.855,-50886.883,-24724.57
1214656.3614970723,-33589.152,-68273.69,1530.0701,-18090.455,-45451.906,-43566.043,-50892.215,-24742.555
1214656.3654970669,-33586.793,-68281.086,1528.239,-18093.547,-45455.49,-43575.727,-50891.4,-24739.625
1214656.3694970617,-33588.746,-68284.18,1528.5238,-18093.75,-45455.73,-43575.605,-50888.51,-24732.91
1214656.3734970563,-33597.21,-68284.47,1530.4769,-18092.45,-45452.027,-43567.06,-50889.527,-24724.041
1214656.3774970511,-33597.293,-68280.97,1530.3955,-18089.559,-45451.703,-43563.19,-50893.477,-24717.082
1214656.3814970457,-33586.344,-68288.62,1527.4252,-18090.496,-45450.887,-43574.14,-50904.625,-24755.494
1214656.3854970403,-33585.125,-68299.03,1522.99,-18093.547,-45449.383,-43582.848,-50907.473,-24767.904
1214656.3894970352,-33590.496,-68284.18,1519.6941,-18095.662,-45446.21,-43583.418,-50907.797,-24759.97
1214656.3934970298,-33591.715,-68282.555,1522.5424,-18093.018,-45443.89,-43575.523,-50913.94,-24774.658
1214656.3974970246,-33588.707,-68283.37,1523.7631,-18089.885,-45443.605,-43571.86,-50921.715,-24786.215
1214656.4014970192,-33596.07,-68292.93,1520.7927,-18093.262,-45447.88,-43582.44,-50926.598,-24787.518
1214656.4054970138,-33596.883,-68296.39,1518.392,-18095.744,-45449.06,-43592.33,-50927.004,-24777.264
1214656.4094970087,-33593.344,-68293.83,1518.6768,-18095.094,-45445.395,-43590.863,-50925.78,-24784.018
1214656.4134970033,-33593.75,-68291.51,1522.583,-18090.82,-45440.227,-43582.074,-50923.91,-24783.691
1214656.417496998,-33585.98,-68282.72,1525.7162,-18087.158,-45437.137,-43577.516,-50921.797,-24772.014
1214656.4214969927,-33585.855,-68288.01,1523.2341,-18090.658,-45436.81,-43583.945,-50917.277,-24754.924
1214656.4254969873,-33589.56,-68298.586,1521.7693,-18094.076,-45434.98,-43594.402,-50912.273,-24749.432
1214656.4294969821,-33590.13,-68298.83,1521.0369,-18095.867,-45432.414,-43595.094,-50911.543,-24762.33
1214656.4334969767,-33590.17,-68295.58,1521.5658,-18094.646,-45425.906,-43584.35,-50904.99,-24752.768
1214656.4374969713,-33585.086,-68283.86,1526.7334,-18088.543,-45420.98,-43578.535,-50899.293,-24741.66
1214656.4414969662,-33584.35,-68290.08,1525.5941,-18089.64,-45426.15,-43587.934,-50901.246,-24755.697
1214656.4454969608,-33593.14,-68304.73,1524.8617,-18093.873,-45432.375,-43598.555,-50896.566,-24739.543
1214656.4494969556,-33592.9,-68307.17,1524.7803,-18095.297,-45425.984,-43597.7,-50894.9,-24738.81
1214656.4534969502,-33585.98,-68292.03,1525.7162,-18090.373,-45407.88,-43586.957,-50896.28,-24741.334
1214656.4574969448,-33590.332,-68293.5,1527.2625,-18088.46,-45405.07,-43581.42,-50891.727,-24730.266
1214656.4614969396,-33597.37,-68302.45,1525.7162,-18091.553,-45410.89,-43589.766,-50888.31,-24722.861
1214656.4654969343,-33592.938,-68314.86,1526.2451,-18093.344,-45414.31,-43599.0,-50887.453,-24720.947
1214656.469496929,-33584.11,-68318.12,1530.1921,-18092.814,-45407.188,-43596.113,-50885.05,-24720.908
1214656.4734969237,-33584.598,-68297.69,1531.5349,-18090.088,-45405.844,-43586.1,-50885.133,-24721.03
1214656.4774969183,-33585.652,-68298.79,1529.8666,-18089.152,-45406.375,-43579.633,-50887.74,-24723.309
1214656.4814969131,-33587.2,-68303.47,1528.2797,-18090.455,-45413.29,-43590.375,-50895.348,-24735.596
1214656.4854969077,-33588.746,-68311.61,1523.8037,-18092.326,-45416.75,-43604.453,-50900.72,-24739.055
1214656.4894969026,-33589.684,-68318.93,1523.5596,-18091.756,-45410.2,-43605.88,-50904.297,-24735.352
1214656.4934968972,-33594.85,-68322.59,1524.1699,-18090.7,-45409.1,-43598.43,-50908.895,-24735.027
1214656.4974968918,-33596.395,-68319.46,1526.8962,-18089.559,-45409.832,-43592.082,-50914.473,-24751.709
1214656.5014968866,-33592.49,-68315.68,1528.117,-18090.78,-45410.402,-43597.82,-50916.344,-24754.191
1214656.5054968812,-33591.758,-68317.016,1526.6521,-18093.709,-45412.8,-43607.137,-50918.54,-24750.732
1214656.5094968758,-33597.453,-68319.46,1524.821,-18095.744,-45413.7,-43606.773,-50922.363,-24757.936
1214656.5134968706,-33602.133,-68327.31,1523.2748,-18094.97,-45406.58,-43598.27,-50921.184,-24745.932
1214656.5174968652,-33604.086,-68326.664,1521.4844,-18090.74,-45406.902,-43592.855,-50918.867,-24729.045
1214656.52149686,-33606.812,-68329.555,1522.7865,-18090.984,-45410.727,-43600.996,-50930.625,-24774.049
1214656.5254968547,-33612.836,-68339.234,1519.6941,-18092.896,-45413.94,-43612.062,-50939.82,-24801.31
1214656.5294968493,-33612.67,-68341.555,1515.2588,-18094.564,-45415.12,-43609.375,-50933.188,-24787.11
1214656.5334968441,-33605.594,-68335.414,1515.3809,-18090.291,-45410.117,-43601.117,-50927.574,-24786.865
1214656.5374968387,-33601.727,-68333.74,1521.8506,-18085.896,-45405.152,-43596.438,-50921.1,-24775.879
1214656.5414968336,-33602.336,-68343.914,1522.2982,-18088.258,-45410.605,-43600.996,-50911.62,-24759.441
1214656.5454968282,-33602.457,-68357.1,1519.8975,-18090.17,-45410.77,-43609.66,-50908.816,-24759.318
1214656.5494968228,-33604.37,-68333.91,1522.6644,-18089.355,-45406.25,-43610.883,-50907.51,-24760.906
1214656.5534968176,-33596.438,-68329.914,1529.2562,-18085.49,-45403.2,-43599.164,-50902.875,-24745.158
1214656.5574968122,-33589.97,-68335.33,1531.9418,-18083.13,-45402.305,-43590.375,-50898.805,-24730.062
1214656.561496807,-33593.02,-68343.18,1530.8025,-18085.734,-45403.2,-43598.555,-50899.336,-24726.482
1214656.5654968016,-33594.24,-68351.24,1530.7211,-18090.496,-45408.938,-43610.76,-50903.2,-24726.889
1214656.5694967962,-33596.438,-68359.21,1533.0404,-18091.229,-45407.676,-43611.41,-50903.973,-24726.97
1214656.573496791,-33598.31,-68361.086,1537.1094,-18085.613,-45403.28,-43601.81,-50904.38,-24727.865
1214656.5774967857,-33599.164,-68361.01,1537.0687,-18083.863,-45399.617,-43597.008,-50908.285,-24729.371
1214656.5814967803,-33596.926,-68357.1,1539.1033,-18084.27,-45401.164,-43600.75,-50911.824,-24730.55
1214656.585496775,-33595.418,-68358.52,1538.0859,-18083.578,-45403.484,-43607.26,-50915.0,-24740.928
1214656.5894967697,-33597.7,-68362.14,1531.657,-18085.613,-45400.35,-43607.42,-50917.074,-24740.643
1214656.5934967645,-33596.19,-68362.02,1532.8777,-18083.334,-45402.508,-43598.715,-50916.383,-24738.445
1214656.5974967591,-33597.453,-68361.086,1536.2957,-18082.846,-45413.453,-43594.44,-50918.094,-24741.7
1214656.6014967537,-33600.668,-68364.016,1532.7963,-18084.393,-45408.895,-43600.547,-50917.89,-24744.71
1214656.6054967486,-33598.51,-68366.09,1534.8715,-18082.643,-45405.965,-43607.668,-50912.926,-24741.293
1214656.6094967432,-33592.49,-68366.58,1540.7715,-18081.746,-45406.535,-43606.773,-50911.133,-24736.207
1214656.613496738,-33593.63,-68363.32,1544.1895,-18078.695,-45405.64,-43594.16,-50907.96,-24729.98
1214656.6174967326,-33592.773,-68361.05,1545.2068,-18077.107,-45401.695,-43590.047,-50907.473,-24725.018
1214656.6214967272,-33591.594,-68367.19,1545.6136,-18078.533,-45403.688,-43599.734,-50912.723,-24749.512
1214656.625496722,-33594.727,-68387.9,1541.748,-18080.078,-45406.17,-43612.754,-50914.062,-24760.174
1214656.6294967167,-33595.38,-68381.39,1541.097,-18080.648,-45402.266,-43614.137,-50912.11,-24751.67
1214656.6334967113,-33600.832,-68365.234,1542.4805,-18076.66,-45400.27,-43599.938,-50905.195,-24720.908
1214656.637496706,-33597.414,-68367.11,1540.1205,-18075.115,-45402.914,-43590.82,-50906.82,-24725.383
1214656.6414967007,-33598.836,-68373.78,1537.0687,-18076.824,-45409.914,-43598.594,-50915.61,-24763.836
1214656.6454966955,-33594.89,-68384.08,1534.2611,-18079.184,-45412.234,-43606.242,-50908.69,-24747.152
1214656.6494966901,-33591.15,-68378.586,1539.6729,-18078.94,-45403.81,-43602.176,-50901.734,-24739.543
1214656.6534966847,-33594.402,-68373.74,1542.8875,-18078.248,-45407.918,-43590.13,-50896.16,-24736.613
1214656.6574966796,-33596.395,-68377.52,1542.2771,-18077.76,-45413.047,-43585.29,-50888.957,-24709.922
1214656.6614966742,-33595.703,-68381.67,1540.8936,-18078.572,-45413.94,-43592.773,-50886.68,-24702.516
1214656.665496669,-33594.645,-68389.445,1542.7654,-18078.98,-45420.82,-43601.93,-50883.668,-24703.613
1214656.6694966636,-33594.24,-68389.164,1544.1488,-18078.654,-45415.855,-43601.645,-50882.406,-24709.678
1214656.6734966582,-33591.555,-68386.07,1544.5557,-18075.848,-45413.086,-43595.867,-50882.773,-24702.8
1214656.677496653,-33591.473,-68383.95,1546.9971,-18071.9,-45408.816,-43591.473,-50884.074,-24693.848
1214656.6814966477,-33595.5,-68392.17,1544.4336,-18074.016,-45411.215,-43599.69,-50887.37,-24695.477
1214656.6854966425,-33596.64,-68401.164,1540.446,-18076.01,-45413.086,-43608.36,-50890.26,-24703.125
1214656.689496637,-33600.75,-68402.75,1541.1785,-18074.627,-45402.996,-43605.47,-50891.684,-24705.934
1214656.6934966317,-33601.89,-68400.555,1542.8875,-18070.557,-45391.48,-43597.37,-50896.242,-24711.752
1214656.6974966265,-33600.098,-68402.55,1539.266,-18068.727,-45392.62,-43591.188,-50899.54,-24711.264
1214656.7014966211,-33602.785,-68408.695,1536.2142,-18072.348,-45402.754,-43595.297,-50900.555,-24716.717
1214656.7054966157,-33607.34,-68420.25,1533.6508,-18075.398,-45410.566,-43604.414,-50901.855,-24715.252
1214656.7094966106,-33610.84,-68436.08,1529.0935,-18074.504,-45406.453,-43605.184,-50903.32,-24710.002
1214656.7134966052,-33608.562,-68427.01,1534.2611,-18070.842,-45406.13,-43600.953,-50913.29,-24752.686
1214656.7174966,-33611.816,-68411.055,1535.197,-18068.645,-45410.523,-43595.34,-50920.453,-24772.705
1214656.7214965946,-33615.684,-68418.055,1533.081,-18069.988,-45423.26,-43600.63,-50922.12,-24773.805
1214656.7254965892,-33609.703,-68424.28,1530.1107,-18072.469,-45420.74,-43611.41,-50923.79,-24781.82
1214656.729496584,-33613.445,-68432.58,1529.1342,-18072.145,-45414.266,-43611.86,-50923.42,-24772.422
1214656.7334965786,-33613.77,-68432.7,1530.2734,-18069.215,-45412.68,-43597.453,-50914.797,-24743.043
1214656.7374965735,-33605.387,-68430.664,1532.9998,-18069.459,-45415.61,-43588.016,-50909.465,-24726.36
1214656.741496568,-33599.895,-68432.09,1537.8011,-18070.027,-45418.094,-43595.34,-50912.52,-24748.902
1214656.7454965627,-33600.547,-68438.766,1535.1156,-18073.895,-45419.883,-43606.895,-50911.703,-24750.611
1214656.7494965575,-33600.832,-68437.26,1539.4695,-18072.957,-45422.08,-43607.42,-50906.863,-24739.87
1214656.7534965521,-33594.566,-68430.26,1542.6025,-18068.197,-45422.285,-43596.113,-50901.57,-24722.576
1214656.757496547,-33591.555,-68428.43,1545.7764,-18065.145,-45416.344,-43588.79,-50895.957,-24698.324
1214656.7614965416,-33590.535,-68436.445,1545.4916,-18067.018,-45420.125,-43595.137,-50892.17,-24686.523
1214656.7654965362,-33593.793,-68435.914,1541.2598,-18067.506,-45422.977,-43603.152,-50894.125,-24704.957
1214656.769496531,-33600.914,-68433.8,1547.3226,-18066.406,-45423.91,-43600.832,-50893.19,-24701.865
1214656.7734965256,-33592.41,-68429.445,1551.1475,-18062.42,-45421.55,-43591.555,-50887.695,-24675.986
1214656.7774965202,-33586.387,-68431.97,1549.2758,-18060.588,-45418.54,-43585.695,-50886.07,-24673.463
1214656.781496515,-33595.34,-68443.89,1543.5385,-18065.43,-45422.49,-43591.27,-50885.215,-24678.996
1214656.7854965096,-33597.617,-68446.49,1540.6494,-18068.36,-45427.004,-43599.285,-50887.9,-24685.426
1214656.7894965045,-33588.664,-68435.75,1543.4164,-18065.553,-45421.184,-43601.36,-50897.46,-24706.787
1214656.793496499,-33588.258,-68433.35,1542.1143,-18062.582,-45415.57,-43593.508,-50905.477,-24731.934
1214656.7974964937,-33599.895,-68450.766,1537.8418,-18063.273,-45419.434,-43586.914,-50907.43,-24744.834
1214656.8014964885,-33602.945,-68473.15,1536.2957,-18065.877,-45432.54,-43595.83,-50908.45,-24732.545
1214656.805496483,-33606.69,-68457.12,1532.3486,-18067.668,-45435.832,-43604.617,-50909.383,-24726.238
1214656.809496478,-33607.79,-68452.84,1527.5066,-18068.074,-45423.137,-43602.215,-50915.12,-24746.502
1214656.8134964725,-33610.637,-68457.4,1529.0527,-18063.762,-45421.797,-43594.2,-50918.094,-24751.588
1214656.8174964671,-33618.207,-68468.18,1532.2673,-18062.012,-45422.324,-43585.33,-50918.418,-24755.088
1214656.821496462,-33608.887,-68476.97,1530.3955,-18064.656,-45430.42,-43590.457,-50918.824,-24751.344
1214656.8254964566,-33608.766,-68474.61,1529.1342,-18066.854,-45427.98,-43602.094,-50918.703,-24754.883
1214656.8294964514,-33609.5,-68477.055,1529.8666,-18065.023,-45422.69,-43604.414,-50922.242,-24762.451
1214656.833496446,-33612.71,-68483.234,1527.9541,-18061.688,-45423.098,-43595.746,-50918.05,-24743.693
1214656.8374964406,-33612.223,-68480.67,1533.9763,-18059.53,-45417.645,-43588.504,-50912.07,-24732.098
1214656.8414964355,-33609.01,-68478.03,1535.075,-18061.2,-45416.06,-43593.793,-50908.69,-24725.424
1214656.84549643,-33609.5,-68484.54,1531.4535,-18064.453,-45422.12,-43600.953,-50904.297,-24718.994
1214656.8494964247,-33612.957,-68490.234,1529.419,-18065.268,-45417.523,-43594.85,-50900.188,-24723.064
1214656.8534964195,-33614.383,-68491.91,1533.3252,-18062.297,-45417.44,-43585.777,-50894.816,-24724.936
1214656.857496414,-33610.27,-68489.42,1536.9873,-18058.35,-45418.785,-43580.28,-50888.43,-24707.154
1214656.861496409,-33610.92,-68494.875,1537.0687,-18060.385,-45425.254,-43587.65,-50884.688,-24700.889
1214656.8654964035,-33614.176,-68505.78,1535.9701,-18064.494,-45431.074,-43598.555,-50879.805,-24691.53
1214656.8694963981,-33612.145,-68522.46,1536.6619,-18062.623,-45425.62,-43595.418,-50875.773,-24676.514
1214656.873496393,-33607.91,-68500.125,1540.4053,-18057.414,-45420.125,-43585.652,-50875.69,-24673.87
1214656.8774963876,-33603.965,-68480.35,1542.8875,-18054.2,-45415.12,-43579.348,-50876.793,-24668.457
1214656.8814963824,-33603.516,-68492.96,1542.0736,-18055.99,-45419.598,-43584.23,-50880.414,-24680.217
1214656.885496377,-33606.0,-68503.13,1541.2191,-18058.635,-45423.504,-43592.938,-50879.355,-24676.393
1214656.8894963716,-33605.836,-68504.31,1541.4633,-18059.57,-45422.69,-43591.758,-50880.656,-24674.236
1214656.8934963665,-33608.97,-68505.29,1540.1611,-18058.025,-45422.08,-43583.58,-50889.49,-24693.564
1214656.897496361,-33607.42,-68507.37,1539.6729,-18054.89,-45420.29,-43576.945,-50890.992,-24686.24
1214656.901496356,-33605.43,-68515.14,1541.5853,-18056.6,-45426.23,-43583.863,-50887.207,-24659.75
1214656.9054963505,-33609.457,-68521.69,1541.7074,-18060.955,-45428.508,-43595.137,-50901.9,-24707.48
1214656.909496345,-33614.055,-68525.84,1541.0564,-18060.1,-45427.37,-43595.83,-50909.793,-24734.336
1214656.91349634,-33610.11,-68525.02,1543.1316,-18058.92,-45425.984,-43587.16,-50908.895,-24728.312
1214656.9174963345,-33608.074,-68523.32,1540.5681,-18055.502,-45423.42,-43583.418,-50907.676,-24722.535
1214656.9214963291,-33607.06,-68523.44,1539.8357,-18055.664,-45416.098,-43588.91,-50911.746,-24733.643
1214656.925496324,-33609.66,-68531.66,1534.4646,-18059.367,-45414.348,-43596.234,-50910.81,-24727.824
1214656.9294963186,-33615.926,-68536.055,1530.9246,-18060.344,-45414.96,-43596.07,-50911.215,-24730.836
1214656.9334963134,-33614.79,-68534.914,1533.366,-18058.188,-45421.1,-43588.582,-50911.906,-24725.383
1214656.937496308,-33618.082,-68536.664,1535.0342,-18056.723,-45420.168,-43581.18,-50907.676,-24721.885
1214656.9414963026,-33620.242,-68541.75,1536.4177,-18057.414,-45423.22,-43586.02,-50902.996,-24722.861
1214656.9454962974,-33619.02,-68553.8,1537.7605,-18060.914,-45426.473,-43593.832,-50897.176,-24716.594
1214656.949496292,-33615.766,-68561.08,1540.1611,-18061.076,-45428.71,-43596.926,-50891.766,-24707.398
1214656.9534962869,-33611.29,-68531.66,1542.6025,-18058.473,-45431.234,-43589.152,-50883.3,-24692.912
1214656.9574962815,-33611.207,-68525.68,1545.7357,-18055.664,-45440.715,-43580.61,-50872.805,-24668.336
1214656.961496276,-33611.207,-68533.24,1543.0908,-18058.025,-45436.973,-43589.316,-50872.113,-24672.69
1214656.965496271,-33610.477,-68545.984,1536.7839,-18061.89,-45437.582,-43602.336,-50872.887,-24670.654
1214656.9694962655,-33602.99,-68539.555,1538.0046,-18059.652,-45432.17,-43601.36,-50873.21,-24661.297
1214656.9734962604,-33604.86,-68530.4,1540.3646,-18057.617,-45424.156,-43590.902,-50877.973,-24659.588
1214656.977496255,-33604.656,-68534.79,1540.446,-18056.438,-45423.625,-43586.59,-50882.938,-24655.314
1214656.9814962496,-33607.137,-68546.67,1534.4238,-18060.547,-45425.58,-43594.484,-50883.87,-24638.55
1214656.9854962444,-33606.65,-68556.36,1533.4473,-18063.436,-45426.72,-43607.016,-50889.082,-24647.46
1214656.989496239,-33602.05,-68555.75,1535.1562,-18062.623,-45422.49,-43609.05,-50898.52,-24673.3
1214656.9934962336,-33599.61,-68549.84,1541.5853,-18057.781,-45414.51,-43599.69,-50903.242,-24683.799
1214656.9974962284,-33597.496,-68546.43,1543.2943,-18055.828,-45405.07,-43594.08,-50909.547,-24697.186
1214657.001496223,-33592.57,-68542.52,1544.393,-18054.443,-45399.13,-43599.812,-50911.297,-24705.16
1214657.0054962179,-33592.773,-68545.414,1545.5322,-18057.129,-45402.508,-43608.848,-50905.64,-24687.664
1214657.0094962125,-33594.156,-68548.51,1546.5088,-18057.537,-45397.83,-43607.26,-50908.49,-24697.674
1214657.013496207,-33593.18,-68547.0,1545.9392,-18053.387,-45390.547,-43599.12,-50916.3,-24718.994
1214657.017496202,-33589.52,-68544.195,1544.7998,-18050.822,-45390.06,-43595.95,-50920.98,-24725.668
1214657.0214961965,-33592.773,-68550.336,1542.3992,-18053.63,-45396.895,-43601.973,-50920.29,-24717.814
1214657.0254961913,-33597.047,-68558.39,1538.8184,-18057.252,-45399.13,-43613.203,-50921.715,-24717.49
1214657.029496186,-33600.06,-68561.24,1536.8652,-18056.885,-45394.37,-43614.746,-50928.47,-24738.566
1214657.0334961805,-33609.293,-68572.875,1538.208,-18054.037,-45394.086,-43607.91,-50931.887,-24747.355
1214657.0374961754,-33617.066,-68585.9,1537.4349,-18054.77,-45395.266,-43604.29,-50930.664,-24731.61
1214657.04149617,-33615.6,-68597.984,1536.4584,-18055.258,-45390.465,-43609.254,-50928.426,-24731.61
1214657.0454961648,-33609.05,-68571.125,1536.6211,-18056.926,-45385.176,-43617.72,-50930.42,-24748.7
1214657.0494961594,-33609.78,-68564.91,1537.7605,-18057.129,-45384.97,-43618.53,-50923.83,-24733.195
1214657.053496154,-33612.957,-68574.875,1540.324,-18055.217,-45377.2,-43609.05,-50916.63,-24718.506
1214657.0574961489,-33621.5,-68577.6,1540.4867,-18053.06,-45379.64,-43602.05,-50907.88,-24702.068
1214657.0614961435,-33624.43,-68581.22,1537.5164,-18055.705,-45384.766,-43606.977,-50897.746,-24684.938
1214657.065496138,-33615.52,-68585.9,1538.1674,-18059.53,-45389.977,-43616.78,-50892.54,-24674.195
1214657.069496133,-33600.832,-68588.625,1542.5212,-18057.496,-45393.312,-43620.445,-50892.824,-24672.607
1214657.0734961275,-33601.645,-68593.06,1548.0144,-18054.77,-45388.754,-43611.492,-50886.395,-24649.863
1214657.0774961223,-33610.68,-68590.984,1550.2523,-18053.549,-45386.92,-43602.785,-50879.395,-24628.459
1214657.081496117,-33613.08,-68592.81,1549.7234,-18054.89,-45386.19,-43610.11,-50883.465,-24650.596
1214657.0854961115,-33607.547,-68586.02,1551.7578,-18054.525,-45380.74,-43620.16,-50889.85,-24677.775
1214657.0894961064,-33604.332,-68581.055,1551.1475,-18051.637,-45374.023,-43618.125,-50889.242,-24669.516
1214657.093496101,-33604.617,-68577.76,1555.949,-18048.666,-45371.094,-43609.863,-50891.848,-24669.963
1214657.0974960958,-33607.34,-68582.12,1555.9896,-18045.94,-45369.754,-43604.695,-50895.71,-24670.004
1214657.1014960904,-33611.492,-68591.35,1551.7172,-18050.66,-45374.39,-43614.137,-50902.266,-24674.316
1214657.105496085,-33617.594,-68601.04,1549.2758,-18053.996,-45380.535,-43625.043,-50905.355,-24676.148
1214657.1094960799,-33618.734,-68603.766,1548.8281,-18054.037,-45383.79,-43622.56,-50905.152,-24669.678
1214657.1134960745,-33614.055,-68603.68,1548.2178,-18050.578,-45376.875,-43612.348,-50906.047,-24673.137
1214657.1174960693,-33611.086,-68602.055,1549.3572,-18048.178,-45378.746,-43607.625,-50912.11,-24700.889
1214657.121496064,-33612.47,-68604.29,1546.0613,-18050.62,-45380.13,-43613.77,-50917.36,-24718.467
1214657.1254960585,-33615.36,-68612.71,1542.4398,-18053.834,-45380.94,-43624.473,-50918.215,-24714.111
1214657.1294960533,-33618.207,-68621.91,1543.1316,-18054.646,-45377.28,-43622.6,-50919.11,-24709.96
1214657.133496048,-33617.15,-68635.78,1546.6716,-18050.904,-45379.68,-43615.766,-50922.69,-24718.426
1214657.1374960425,-33622.965,-68615.6,1547.0785,-18047.73,-45377.973,-43611.74,-50927.45,-24734.863
1214657.1414960374,-33622.4,-68613.89,1545.8984,-18049.398,-45377.566,-43617.188,-50927.816,-24732.748
1214657.145496032,-33617.027,-68624.39,1546.5496,-18052.857,-45383.87,-43623.535,-50921.51,-24712.973
1214657.1494960268,-33615.766,-68625.125,1550.1709,-18049.887,-45381.96,-43620.527,-50915.938,-24701.416
1214657.1534960214,-33618.33,-68625.164,1551.7578,-18048.055,-45377.89,-43612.836,-50914.188,-24707.113
1214657.157496016,-33615.766,-68625.734,1553.182,-18045.94,-45376.344,-43606.934,-50915.57,-24717.53
1214657.1614960108,-33617.637,-68634.65,1553.9144,-18047.527,-45378.785,-43611.816,-50909.71,-24702.312
1214657.1654960054,-33617.594,-68643.84,1552.8972,-18048.26,-45379.805,-43620.484,-50902.754,-24694.662
1214657.1694960003,-33618.855,-68646.41,1548.706,-18048.504,-45380.78,-43619.754,-50898.152,-24689.332
1214657.1734959949,-33618.855,-68643.48,1550.9033,-18046.184,-45378.094,-43606.04,-50888.875,-24660.197
1214657.1774959895,-33614.258,-68636.92,1554.6062,-18043.945,-45377.85,-43598.066,-50884.645,-24658.041
1214657.1814959843,-33610.11,-68633.305,1555.4199,-18045.736,-45380.902,-43605.88,-50882.812,-24657.39
1214657.185495979,-33612.348,-68640.914,1553.3855,-18050.457,-45382.0,-43615.97,-50883.18,-24659.506
1214657.1894959738,-33611.53,-68647.914,1554.9316,-18050.822,-45377.727,-43615.234,-50881.797,-24653.158
1214657.1934959684,-33610.066,-68647.38,1558.1462,-18045.695,-45377.688,-43603.438,-50877.93,-24635.986
1214657.197495963,-33608.684,-68645.14,1558.5125,-18043.457,-45380.37,-43593.1,-50875.57,-24632.041
1214657.2014959578,-33607.22,-68650.35,1554.891,-18047.527,-45386.19,-43602.297,-50885.05,-24661.906
1214657.2054959524,-33609.09,-68655.234,1551.1475,-18050.822,-45389.57,-43612.062,-50891.684,-24664.836
1214657.209495947,-33611.53,-68660.16,1550.2523,-18050.049,-45385.38,-43611.613,-50894.41,-24666.83
1214657.2134959418,-33614.543,-68661.13,1549.5199,-18046.834,-45383.79,-43602.01,-50897.664,-24673.422
1214657.2174959364,-33613.65,-68661.42,1547.404,-18045.29,-45383.992,-43594.566,-50899.902,-24668.05
1214657.2214959313,-33611.492,-68664.23,1550.1302,-18045.492,-45383.383,-43602.824,-50909.383,-24680.137
1214657.2254959259,-33610.15,-68674.32,1555.7048,-18045.37,-45383.832,-43616.21,-50919.516,-24711.467
1214657.2294959205,-33608.156,-68681.32,1554.4841,-18042.928,-45383.344,-43616.863,-50925.62,-24733.766
1214657.2334959153,-33610.395,-68667.69,1553.5482,-18042.604,-45385.703,-43609.742,-50923.75,-24713.176
1214657.23749591,-33615.48,-68667.03,1553.2634,-18042.48,-45390.87,-43603.76,-50924.887,-24717.855
1214657.2414959047,-33613.688,-68677.86,1550.5371,-18043.213,-45396.28,-43606.445,-50921.797,-24708.781
1214657.2454958993,-33605.836,-68683.48,1547.1599,-18044.557,-45395.793,-43614.18,-50921.387,-24721.03
1214657.249495894,-33601.36,-68675.17,1547.3633,-18043.092,-45388.43,-43610.11,-50915.49,-24719.768
1214657.2534958888,-33608.805,-68675.21,1547.8923,-18039.47,-45385.336,-43598.918,-50907.96,-24706.26
1214657.2574958834,-33611.33,-68675.62,1550.7,-18038.494,-45383.18,-43592.49,-50902.184,-24694.541
1214657.2614958782,-33603.434,-68676.555,1551.9613,-18039.918,-45383.426,-43600.79,-50897.707,-24676.596
1214657.2654958728,-33603.07,-68680.5,1550.822,-18042.236,-45382.895,-43612.633,-50897.137,-24675.578
1214657.2694958674,-33604.574,-68682.66,1550.9441,-18041.586,-45379.883,-43614.625,-50896.77,-24671.713
1214657.2734958623,-33601.156,-68678.63,1554.4027,-18036.174,-45374.637,-43607.547,-50894.86,-24663.86
1214657.2774958569,-33601.44,-68678.8,1559.4482,-18036.703,-45382.164,-43601.645,-50895.145,-24663.982
1214657.2814958515,-33602.05,-68683.59,1557.0476,-18039.062,-45384.605,-43606.977,-50889.773,-24654.623
1214657.2854958463,-33601.156,-68689.13,1555.7455,-18041.463,-45385.99,-43612.508,-50883.668,-24643.271
1214657.289495841,-33598.062,-68693.195,1556.1523,-18041.383,-45385.906,-43610.19,-50879.234,-24628.338
1214657.2934958357,-33597.574,-68691.445,1557.5765,-18037.557,-45381.145,-43598.88,-50879.152,-24629.965
1214657.2974958303,-33593.387,-68686.77,1560.4248,-18034.547,-45376.1,-43592.57,-50883.223,-24656.047
1214657.301495825,-33599.527,-68695.234,1556.6406,-18036.174,-45380.37,-43597.78,-50879.883,-24652.1
1214657.3054958198,-33603.477,-68704.914,1553.7109,-18039.389,-45382.406,-43607.016,-50876.465,-24639.771
1214657.3094958144,-33604.617,-68707.03,1552.4902,-18039.062,-45383.504,-43604.82,-50881.023,-24654.746
1214657.3134958092,-33608.4,-68708.54,1550.822,-18036.58,-45382.61,-43597.656,-50887.695,-24670.166
1214657.3174958038,-33607.87,-68708.82,1554.1992,-18033.082,-45381.96,-43593.547,-50894.777,-24680.34
1214657.3214957984,-33607.383,-68717.61,1551.5951,-18035.32,-45388.43,-43601.402,-50902.266,-24682.984
1214657.3254957933,-33610.11,-68728.92,1550.8627,-18037.518,-45390.87,-43610.19,-50905.844,-24679.77
1214657.3294957879,-33609.58,-68731.37,1552.6531,-18036.336,-45388.348,-43609.215,-50908.53,-24680.746
1214657.3334957827,-33611.613,-68706.22,1555.2979,-18032.186,-45381.105,-43597.902,-50918.05,-24707.52
1214657.3374957773,-33608.074,-68701.87,1555.2166,-18028.523,-45377.035,-43592.41,-50920.168,-24713.176
1214657.341495772,-33602.867,-68713.83,1550.9847,-18033.0,-45387.13,-43598.105,-50910.08,-24685.02
1214657.3454957667,-33608.277,-68726.89,1551.6357,-18035.686,-45396.08,-43608.6,-50910.605,-24700.033
1214657.3494957613,-33615.6,-68733.85,1554.3213,-18035.115,-45394.86,-43608.684,-50906.58,-24702.8
1214657.353495756,-33613.406,-68729.21,1558.7158,-18031.658,-45389.04,-43599.53,-50898.805,-24687.053
1214657.3574957508,-33606.85,-68725.914,1557.5359,-18029.176,-45388.875,-43593.305,-50894.004,-24675.945
1214657.3614957454,-33606.69,-68732.42,1556.8848,-18030.03,-45390.42,-43600.508,-50889.57,-24675.254
1214657.3654957402,-33601.36,-68731.24,1556.1117,-18030.885,-45386.11,-43607.91,-50883.79,-24667.033
1214657.3694957348,-33597.332,-68729.21,1559.2855,-18030.559,-45383.06,-43602.05,-50877.973,-24654.705
1214657.3734957294,-33597.617,-68732.875,1560.14,-18028.85,-45384.727,-43591.066,-50877.484,-24649.822
1214657.3774957242,-33597.086,-68732.914,1558.6752,-18026.002,-45384.97,-43587.16,-50878.664,-24655.111
1214657.3814957188,-33604.086,-68741.05,1557.9427,-18031.047,-45395.67,-43595.46,-50879.11,-24645.63
1214657.3854957137,-33605.266,-68747.52,1558.9193,-18034.832,-45402.14,-43604.13,-50879.19,-24649.414
1214657.3894957083,-33603.477,-68747.88,1560.1807,-18034.303,-45405.4,-43603.477,-50882.855,-24653.2
1214657.3934957029,-33602.38,-68745.28,1567.2201,-18029.176,-45397.176,-43595.01,-50887.574,-24659.22
1214657.3974956977,-33600.992,-68743.2,1569.7836,-18026.938,-45391.805,-43590.617,-50883.547,-24646.77
1214657.4014956923,-33598.348,-68745.57,1570.3939,-18028.564,-45389.0,-43597.984,-50880.86,-24637.371
1214657.4054956872,-33597.7,-68747.93,1574.0154,-18028.605,-45388.43,-43605.43,-50885.05,-24648.193
1214657.4094956818,-33598.758,-68747.68,1575.8464,-18028.523,-45389.934,-43602.742,-50886.434,-24643.271
1214657.4134956764,-33596.965,-68746.99,1574.6664,-18025.96,-45389.773,-43592.977,-50892.17,-24658.652
1214657.4174956712,-33600.383,-68751.38,1578.2064,-18025.146,-45392.375,-43588.867,-50898.074,-24673.178
1214657.4214956658,-33608.195,-68760.3,1572.1843,-18027.71,-45397.176,-43596.273,-50906.293,-24688.762
1214657.4254956604,-33609.293,-68774.74,1567.8711,-18033.123,-45403.2,-43608.24,-50913.414,-24696.25
1214657.4294956552,-33604.207,-68787.92,1567.2201,-18031.658,-45398.97,-43606.527,-50911.094,-24682.578
1214657.4334956498,-33604.695,-68766.32,1570.2719,-18027.223,-45394.125,-43595.625,-50906.82,-24664.674
1214657.4374956447,-33606.85,-68764.28,1571.574,-18025.35,-45390.016,-43590.984,-50911.297,-24690.553
1214657.4414956393,-33607.75,-68767.83,1569.1732,-18027.385,-45396.934,-43595.543,-50914.062,-24718.71
1214657.4454956339,-33606.203,-68772.42,1567.3422,-18029.908,-45398.848,-43600.79,-50906.82,-24703.857
1214657.4494956287,-33609.457,-68777.43,1569.1326,-18030.885,-45396.77,-43599.53,-50904.83,-24696.086
1214657.4534956233,-33609.133,-68779.46,1569.6615,-18028.646,-45396.566,-43590.742,-50899.13,-24680.176
1214657.4574956181,-33608.035,-68782.76,1571.7773,-18025.39,-45393.598,-43584.84,-50893.23,-24669.354
1214657.4614956127,-33606.203,-68782.516,1575.5209,-18025.066,-45388.51,-43591.31,-50892.863,-24678.71
1214657.4654956074,-33600.63,-68776.94,1578.4099,-18024.537,-45386.72,-43600.71,-50892.09,-24679.12
1214657.4694956022,-33595.34,-68776.125,1579.2644,-18023.52,-45380.21,-43599.082,-50883.75,-24659.994
1214657.4734955968,-33599.652,-68782.88,1578.0029,-18021.12,-45376.26,-43584.883,-50875.734,-24640.951
1214657.4774955916,-33596.883,-68776.086,1582.4789,-18016.236,-45380.574,-43579.47,-50875.285,-24644.94
1214657.4814955862,-33599.203,-68780.48,1583.4148,-18018.475,-45384.688,-43587.85,-50874.51,-24639.527
1214657.4854955808,-33603.355,-68788.21,1580.8513,-18022.258,-45384.727,-43596.03,-50871.83,-24628.135
1214657.4894955757,-33602.215,-68786.945,1585.8562,-18020.875,-45376.63,-43594.44,-50874.676,-24632.406
1214657.4934955703,-33603.56,-68786.17,1584.5947,-18017.986,-45375.773,-43583.66,-50879.805,-24633.994
1214657.4974955649,-33604.695,-68787.88,1583.0486,-18017.863,-45379.883,-43577.92,-50886.07,-24649.17
1214657.5014955597,-33606.285,-68794.03,1583.9031,-18020.305,-45384.766,-43588.543,-50892.254,-24652.793
1214657.5054955543,-33614.176,-68805.625,1582.4382,-18024.74,-45389.285,-43600.383,-50892.09,-24641.48
1214657.5094955491,-33618.043,-68812.09,1579.305,-18026.408,-45388.875,-43599.734,-50894.33,-24645.957
1214657.5134955437,-33614.46,-68818.12,1578.532,-18023.682,-45390.87,-43590.457,-50902.957,-24678.63
1214657.5174955383,-33615.562,-68822.1,1575.4802,-18018.637,-45406.82,-43584.066,-50904.625,-24679.322
