timestamp,Fp1,Fp2,F3,Fz,F4,Cz,Pz,Oz
952321.0593551212,-100665.94,-171009.77,-5806.7627,-20058.92,-4178.5483,-43949.63,-12136.3125,32609.457
952321.0633551169,-100664.63,-171010.98,-5792.6025,-20064.738,-4177.8975,-43956.953,-12140.747,32636.271
952321.0673551125,-100667.16,-171016.4,-5788.615,-20073.406,-4193.7666,-43958.863,-12144.125,32641.969
952321.0713551082,-100670.66,-171020.14,-5809.8145,-20075.969,-4215.129,-43952.434,-12142.538,32619.143
952321.0753551038,-100671.15,-171022.1,-5832.0723,-20072.307,-4213.176,-43947.797,-12143.555,32592.123
952321.0793550995,-100667.4,-171020.39,-5819.0513,-20063.64,-4203.044,-43952.883,-12141.4795,32601.97
952321.0833550951,-100666.75,-171021.48,-5796.916,-20066.285,-4195.638,-43959.23,-12144.409,32635.906
952321.0873550908,-100670.66,-171028.33,-5792.0737,-20075.643,-4207.235,-43959.066,-12146.811,32647.828
952321.0913550864,-100671.63,-171030.56,-5809.9365,-20078.492,-4218.8315,-43953.29,-12142.09,32624.35
952321.095355082,-100667.89,-171022.22,-5827.6777,-20071.29,-4222.1274,-43948.12,-12135.864,32599.041
952321.0993550776,-100666.14,-171018.44,-5815.8774,-20066.121,-4208.293,-43952.19,-12135.051,32607.992
952321.1033550733,-100667.89,-171021.48,-5803.508,-20070.312,-4199.7886,-43959.312,-12137.899,32635.133
952321.1073550689,-100669.72,-171024.55,-5805.542,-20079.021,-4210.083,-43959.72,-12138.794,32641.36
952321.1113550646,-100675.42,-171025.64,-5826.4976,-20082.072,-4226.1963,-43954.836,-12134.888,32617.352
952321.1153550602,-100673.79,-171023.61,-5841.919,-20073.69,-4218.384,-43949.75,-12132.528,32595.256
952321.1193550559,-100669.07,-171018.28,-5824.626,-20067.83,-4203.7354,-43954.305,-12136.882,32607.668
952321.1233550515,-100670.125,-171024.66,-5805.664,-20074.504,-4196.6553,-43962.324,-12139.893,32638.43
952321.1273550472,-100674.52,-171027.92,-5799.6016,-20082.723,-4203.003,-43963.543,-12139.975,32647.258
952321.1313550428,-100675.74,-171026.78,-5816.488,-20084.88,-4224.4062,-43954.633,-12133.057,32623.008
952321.1353550385,-100676.96,-171026.1,-5832.1533,-20079.875,-4227.824,-43949.465,-12127.849,32595.988
952321.1393550341,-100675.58,-171020.52,-5821.289,-20073.568,-4211.1816,-43954.227,-12130.087,32608.236
952321.1433550298,-100676.48,-171020.39,-5805.6235,-20081.014,-4206.34,-43962.445,-12134.685,32638.145
952321.1473550254,-100676.68,-171023.2,-5796.0615,-20089.355,-4216.4717,-43963.83,-12136.271,32643.107
952321.151355021,-100677.984,-171026.4,-5814.453,-20092.773,-4228.923,-43958.66,-12132.609,32621.543
952321.1553550167,-100675.5,-171020.34,-5833.74,-20086.426,-4225.952,-43949.87,-12125.488,32601.564
952321.1593550124,-100675.625,-171018.23,-5823.9746,-20079.998,-4216.3496,-43952.516,-12125.285,32617.555
952321.1633550079,-100676.96,-171024.55,-5810.3438,-20085.613,-4208.008,-43962.242,-12131.022,32644.736
952321.1673550035,-100681.805,-171034.02,-5807.536,-20093.67,-4211.1006,-43965.457,-12136.19,32647.096
952321.1713549992,-100680.55,-171030.94,-5822.8354,-20091.39,-4223.2666,-43956.258,-12129.965,32627.727
952321.1753549948,-100676.64,-171022.83,-5839.2744,-20081.87,-4220.2964,-43946.168,-12126.343,32603.11
952321.1793549905,-100676.555,-171019.17,-5830.078,-20078.572,-4208.5776,-43952.312,-12124.512,32609.295
952321.1833549861,-100675.54,-171020.8,-5809.082,-20083.781,-4215.21,-43962.77,-12130.697,32639.73
952321.1873549818,-100675.09,-171024.14,-5804.9727,-20091.594,-4215.8613,-43964.723,-12134.237,32647.828
952321.1913549774,-100677.86,-171028.69,-5829.956,-20095.947,-4207.6416,-43957.97,-12131.267,32623.861
952321.1953549731,-100676.15,-171022.88,-5848.3076,-20086.752,-4210.246,-43950.645,-12127.6045,32599.65
952321.1993549687,-100675.336,-171021.2,-5839.1113,-20081.258,-4214.0303,-43956.258,-12131.186,32603.883
952321.2033549644,-100676.96,-171027.14,-5821.859,-20089.234,-4211.589,-43966.23,-12138.713,32631.023
952321.20735496,-100678.96,-171031.38,-5810.9946,-20095.459,-4213.501,-43968.06,-12133.423,32643.637
952321.2113549557,-100678.35,-171029.3,-5826.2534,-20095.459,-4220.9473,-43959.312,-12130.819,32625.326
952321.2153549513,-100675.7,-171029.34,-5839.803,-20090.047,-4221.151,-43951.418,-12121.908,32602.5
952321.219354947,-100674.234,-171028.12,-5825.6836,-20084.717,-4211.1816,-43957.195,-12122.355,32616.781
952321.2233549426,-100673.22,-171026.98,-5807.7803,-20087.605,-4208.496,-43965.902,-12126.14,32646.648
952321.2273549382,-100672.2,-171028.98,-5806.3965,-20092.123,-4216.146,-43966.555,-12126.14,32656.17
952321.2313549338,-100678.19,-171033.53,-5831.8687,-20095.459,-4228.1904,-43957.36,-12120.443,32633.994
952321.2353549295,-100680.79,-171035.77,-5848.2666,-20089.967,-4227.458,-43951.5,-12115.723,32607.057
952321.2393549251,-100680.914,-171034.67,-5838.135,-20086.426,-4217.285,-43956.504,-12115.112,32617.393
952321.2433549208,-100681.12,-171035.89,-5820.842,-20092.611,-4218.506,-43964.723,-12122.233,32647.951
952321.2473549164,-100681.69,-171038.98,-5818.0747,-20100.545,-4231.9336,-43967.246,-12125.285,32658.977
952321.2513549121,-100683.27,-171037.64,-5840.698,-20100.262,-4236.084,-43958.54,-12120.646,32633.668
952321.2553549077,-100683.96,-171035.05,-5853.76,-20096.07,-4231.8115,-43952.07,-12112.915,32607.83
952321.2593549034,-100685.47,-171034.62,-5847.0054,-20092.244,-4223.104,-43957.766,-12113.7295,32620.078
952321.263354899,-100687.55,-171040.98,-5830.8105,-20096.395,-4218.628,-43966.023,-12119.263,32650.393
952321.2673548947,-100690.88,-171048.06,-5828.125,-20108.318,-4228.2715,-43968.59,-12123.901,32659.873
952321.2713548903,-100696.25,-171050.5,-5846.802,-20111.451,-4238.2812,-43960.004,-12121.135,32633.75
952321.275354886,-100696.49,-171049.64,-5860.6772,-20102.58,-4245.8906,-43952.72,-12116.252,32605.674
952321.2793548816,-100695.84,-171047.45,-5844.4014,-20096.924,-4232.829,-43957.074,-12117.676,32612.834
952321.2833548773,-100699.34,-171052.83,-5832.1533,-20106.893,-4229.7773,-43965.984,-12123.454,32635.783
952321.2873548729,-100699.99,-171055.6,-5828.7354,-20114.299,-4236.6133,-43968.387,-12127.727,32645.998
952321.2913548686,-100697.63,-171051.69,-5842.733,-20113.893,-4237.142,-43960.938,-12122.681,32625.49
952321.2953548641,-100697.266,-171048.67,-5862.1826,-20104.86,-4235.84,-43956.22,-12119.711,32600.1
952321.2993548597,-100696.54,-171047.81,-5857.2188,-20099.08,-4230.7944,-43963.992,-12123.983,32605.227
952321.3033548554,-100696.695,-171050.78,-5831.34,-20101.074,-4235.1484,-43971.76,-12128.052,32634.318
952321.307354851,-100695.36,-171052.17,-5821.6553,-20106.445,-4240.6006,-43974.285,-12129.558,32644.695
952321.3113548467,-100695.93,-171051.97,-5840.698,-20108.074,-4245.7275,-43966.15,-12125.529,32619.914
952321.3153548423,-100696.45,-171050.67,-5858.602,-20104.533,-4244.426,-43958.945,-12119.711,32590.822
952321.319354838,-100698.734,-171049.89,-5852.9463,-20101.36,-4231.12,-43964.4,-12120.321,32601.686
952321.3233548336,-100698.734,-171053.64,-5840.332,-20106.893,-4233.032,-43971.723,-12123.576,32630.332
952321.3273548293,-100698.77,-171058.11,-5830.8516,-20112.02,-4236.491,-43973.96,-12122.966,32638.592
952321.331354825,-100699.14,-171059.53,-5847.7783,-20112.752,-4236.7354,-43966.51,-12118.774,32615.805
952321.3353548206,-100697.266,-171054.94,-5863.973,-20105.957,-4241.8623,-43958.863,-12114.462,32591.473
952321.3393548162,-100697.19,-171049.56,-5845.378,-20099.447,-4236.125,-43964.64,-12115.316,32605.227
952321.3433548119,-100698.57,-171051.97,-5822.551,-20105.713,-4237.3457,-43974.367,-12120.199,32637.127
952321.3473548075,-100702.48,-171059.2,-5824.5444,-20115.846,-4242.717,-43976.81,-12122.314,32644.37
952321.3513548032,-100704.63,-171059.45,-5843.994,-20117.555,-4249.1455,-43968.344,-12116.943,32623.7
952321.3553547988,-100707.36,-171060.47,-5860.84,-20113.12,-4241.455,-43962.973,-12112.997,32596.152
952321.3593547944,-100711.02,-171064.3,-5851.4814,-20106.445,-4225.342,-43969.16,-12117.473,32602.785
952321.36335479,-100713.016,-171067.14,-5837.85,-20111.125,-4232.9917,-43977.336,-12121.582,32633.586
952321.3673547857,-100711.43,-171066.05,-5836.6294,-20117.025,-4233.724,-43979.574,-12123.291,32644.816
952321.3713547813,-100709.72,-171063.92,-5848.7144,-20115.967,-4245.2393,-43973.88,-12119.426,32626.67
952321.375354777,-100708.13,-171059.58,-5868.4897,-20112.143,-4241.211,-43967.53,-12115.072,32599.977
952321.3793547726,-100705.33,-171056.33,-5858.846,-20104.533,-4233.9277,-43971.19,-12117.065,32606.73
952321.3833547683,-100704.23,-171057.58,-5837.077,-20109.62,-4231.4453,-43978.76,-12123.861,32635.54
952321.3873547639,-100706.55,-171062.83,-5832.8047,-20119.14,-4240.804,-43981.242,-12126.831,32647.014
952321.3913547596,-100709.72,-171064.34,-5850.464,-20119.71,-4249.756,-43973.023,-12121.298,32628.5
952321.3953547552,-100707.97,-171062.55,-5870.931,-20112.957,-4248.047,-43967.285,-12116.049,32604.209
952321.3993547509,-100707.97,-171064.7,-5868.408,-20109.213,-4236.6943,-43973.676,-12120.239,32606.975
952321.4033547465,-100709.6,-171068.53,-5854.2075,-20114.87,-4220.134,-43984.54,-12124.797,32632.691
952321.4073547422,-100712.12,-171071.9,-5850.2607,-20122.152,-4233.9683,-43987.793,-12125.651,32642.54
952321.4113547378,-100713.586,-171070.84,-5860.1484,-20121.664,-4243.1235,-43979.695,-12121.338,32619.346
952321.4153547335,-100712.12,-171069.42,-5877.5635,-20113.281,-4250.4478,-43972.656,-12118.164,32594.523
952321.4193547291,-100706.46,-171066.45,-5870.1987,-20106.04,-4240.967,-43979.777,-12121.623,32602.906
952321.4233547247,-100703.78,-171068.61,-5844.564,-20108.766,-4230.3877,-43989.383,-12128.906,32628.215
952321.4273547203,-100700.04,-171069.83,-5844.2383,-20117.879,-4233.5205,-43991.457,-12133.627,32631.633
952321.431354716,-100703.29,-171072.97,-5866.211,-20121.908,-4247.396,-43985.23,-12133.464,32606.771
952321.4353547116,-100707.4,-171072.47,-5884.3994,-20117.146,-4248.739,-43978.11,-12127.523,32582.44
952321.4393547073,-100702.88,-171068.48,-5872.4775,-20110.637,-4243.449,-43986.004,-12128.378,32591.758
952321.4433547029,-100701.54,-171070.52,-5850.871,-20114.38,-4247.3555,-43995.85,-12134.074,32621.258
952321.4473546986,-100710.49,-171086.75,-5849.365,-20124.756,-4260.0913,-43996.38,-12133.952,32631.674
952321.4513546942,-100708.87,-171073.78,-5864.177,-20124.635,-4261.19,-43990.723,-12130.29,32610.678
952321.4553546899,-100690.96,-171048.92,-5873.088,-20117.432,-4251.2617,-43987.508,-12129.477,32582.154
952321.4593546855,-100676.15,-171039.39,-5861.5723,-20111.41,-4244.995,-43993.574,-12133.911,32589.113
952321.4633546812,-100664.19,-171028.4,-5847.046,-20114.91,-4241.781,-44002.2,-12137.451,32614.787
952321.4673546768,-100663.62,-171028.12,-5845.9473,-20125.57,-4248.576,-44006.39,-12141.5205,32619.305
952321.4713546725,-100653.73,-171012.42,-5861.1655,-20127.117,-4254.6797,-44002.156,-12142.944,32589.479
952321.4753546681,-100633.22,-170984.22,-5872.3555,-20116.863,-4249.227,-43997.887,-12143.433,32557.578
952321.4793546638,-100613.41,-170957.73,-5856.405,-20106.893,-4232.544,-44006.594,-12150.432,32559.246
952321.4833546594,-100585.01,-170934.94,-5827.3115,-20107.38,-4230.51,-44017.17,-12158.691,32583.049
952321.487354655,-100560.75,-170912.61,-5817.1387,-20111.816,-4232.2593,-44020.47,-12164.389,32586.63
952321.4913546506,-100549.52,-170896.25,-5834.066,-20110.678,-4240.072,-44016.4,-12165.487,32557.13
952321.4953546462,-100537.93,-170874.19,-5852.824,-20102.498,-4239.258,-44011.92,-12161.947,32528.605
952321.4993546419,-100513.1,-170843.67,-5843.3433,-20093.832,-4222.6562,-44020.348,-12166.22,32533.244
952321.5033546375,-100493.82,-170827.89,-5821.8184,-20096.924,-4220.703,-44030.316,-12174.927,32556.643
952321.5073546332,-100489.875,-170824.42,-5818.6445,-20105.062,-4223.3887,-44033.164,-12180.746,32561.117
952321.5113546288,-100485.03,-170816.05,-5837.9316,-20104.33,-4231.3643,-44026.855,-12180.217,32535.402
952321.5153546245,-100475.75,-170799.94,-5854.6553,-20095.947,-4229.167,-44022.87,-12178.711,32507.895
952321.5193546201,-100472.086,-170794.61,-5846.4355,-20090.496,-4214.681,-44030.113,-12181.193,32516.36
952321.5233546158,-100466.02,-170787.56,-5825.6836,-20094.28,-4214.0303,-44041.87,-12190.512,32543.418
952321.5273546114,-100456.914,-170781.1,-5817.7085,-20099.977,-4221.029,-44044.312,-12197.185,32548.342
952321.5313546071,-100453.17,-170778.66,-5833.944,-20102.295,-4227.9463,-44037.598,-12193.359,32523.154
952321.5353546027,-100449.06,-170764.66,-5848.1445,-20092.611,-4221.3545,-44031.414,-12185.954,32502.28
952321.5393545984,-100441.164,-170750.73,-5834.432,-20087.77,-4206.218,-44037.68,-12188.559,32514.162
952321.543354594,-100436.484,-170747.56,-5818.0747,-20094.482,-4200.4805,-44047.12,-12193.808,32541.424
952321.5473545897,-100435.266,-170747.52,-5819.458,-20099.53,-4214.803,-44048.3,-12197.104,32549.357
952321.5513545853,-100439.13,-170749.36,-5837.5244,-20100.709,-4219.157,-44040.367,-12193.848,32523.316
952321.5553545809,-100437.87,-170744.19,-5851.3594,-20096.355,-4219.4014,-44035.402,-12189.535,32502.361
952321.5593545765,-100432.58,-170739.02,-5837.7686,-20089.967,-4227.336,-44043.17,-12193.93,32514.406
952321.5633545722,-100425.375,-170733.28,-5814.5347,-20091.512,-4225.342,-44052.45,-12202.8,32540.406
952321.5673545678,-100424.32,-170739.8,-5808.5127,-20099.0,-4226.156,-44054.65,-12206.665,32544.639
952321.5713545635,-100431.89,-170747.61,-5830.8105,-20101.36,-4228.353,-44047.895,-12204.834,32517.54
952321.5753545591,-100427.125,-170730.03,-5846.761,-20094.441,-4221.639,-44041.953,-12201.986,32487.916
952321.5793545548,-100416.266,-170714.16,-5830.6885,-20087.77,-4210.327,-44048.137,-12204.794,32492.27
952321.5833545504,-100417.61,-170717.1,-5813.0293,-20092.855,-4213.745,-44056.277,-12209.514,32518.596
952321.5873545461,-100421.23,-170727.42,-5813.7617,-20101.4,-4220.0522,-44057.78,-12210.856,32530.438
952321.5913545417,-100425.58,-170733.36,-5831.0547,-20102.295,-4221.151,-44051.066,-12207.52,32506.389
952321.5953545374,-100417.69,-170723.44,-5838.42,-20093.018,-4217.0005,-44045.613,-12202.759,32480.348
952321.599354533,-100407.35,-170712.78,-5825.6836,-20088.338,-4212.5654,-44051.68,-12207.397,32490.357
952321.6033545287,-100411.055,-170717.94,-5812.622,-20092.326,-4213.664,-44058.92,-12210.368,32522.422
952321.6073545243,-100419.516,-170722.45,-5808.3496,-20100.262,-4222.7783,-44059.41,-12208.903,32530.844
952321.61135452,-100424.73,-170722.5,-5831.014,-20104.086,-4234.294,-44052.125,-12204.062,32509.115
952321.6153545156,-100425.54,-170721.69,-5852.336,-20099.65,-4238.851,-44045.94,-12198.242,32487.957
952321.6193545111,-100426.68,-170719.69,-5839.4775,-20095.094,-4202.7183,-44051.27,-12199.829,32503.338
952321.6233545068,-100427.25,-170721.69,-5812.8257,-20099.691,-4204.753,-44058.92,-12204.712,32531.861
952321.6273545024,-100420.29,-170722.22,-5807.8613,-20106.486,-4222.29,-44060.1,-12207.683,32534.709
952321.6313544981,-100417.04,-170720.42,-5833.415,-20106.893,-4233.724,-44053.71,-12204.143,32509.686
952321.6353544937,-100426.48,-170729.02,-5858.3174,-20105.877,-4240.56,-44046.715,-12198.486,32485.271
952321.6393544894,-100427.45,-170728.08,-5843.669,-20101.277,-4238.4443,-44051.473,-12198.446,32495.281
952321.643354485,-100419.6,-170717.17,-5818.8477,-20101.645,-4233.4395,-44060.47,-12204.143,32523.316
952321.6473544807,-100418.26,-170719.08,-5814.779,-20108.195,-4237.834,-44061.32,-12205.688,32532.92
952321.6513544763,-100418.13,-170716.48,-5831.584,-20107.91,-4249.9595,-44055.055,-12203.613,32511.354
952321.655354472,-100415.24,-170706.14,-5843.791,-20101.277,-4241.9844,-44048.953,-12199.748,32487.795
952321.6593544676,-100412.64,-170701.02,-5835.9375,-20096.232,-4228.801,-44054.566,-12201.294,32497.152
952321.6633544633,-100405.44,-170704.52,-5818.807,-20101.482,-4227.051,-44065.227,-12210.9375,32517.945
952321.667354459,-100409.63,-170710.9,-5819.58,-20112.143,-4240.194,-44068.562,-12217.041,32515.83
952321.6713544546,-100411.625,-170710.83,-5838.379,-20110.637,-4238.037,-44060.426,-12211.06,32492.107
952321.6753544502,-100414.39,-170716.6,-5859.538,-20106.61,-4227.8647,-44054.16,-12202.108,32471.844
952321.6793544459,-100411.75,-170711.44,-5851.074,-20101.238,-4234.945,-44058.473,-12203.654,32483.645
952321.6833544415,-100407.92,-170703.42,-5830.3223,-20104.207,-4227.7427,-44067.223,-12210.693,32510.5
952321.6873544371,-100405.44,-170704.31,-5826.538,-20111.043,-4229.818,-44069.05,-12213.298,32517.742
952321.6913544327,-100403.28,-170706.75,-5843.913,-20111.98,-4233.7646,-44062.99,-12211.955,32496.299
952321.6953544284,-100402.305,-170706.14,-5857.422,-20106.934,-4235.555,-44056.355,-12205.852,32476.197
952321.699354424,-100403.89,-170705.2,-5846.5986,-20100.83,-4226.766,-44061.24,-12205.241,32489.584
952321.7033544197,-100404.22,-170708.38,-5830.4443,-20105.062,-4227.173,-44068.688,-12208.008,32520.102
952321.7073544153,-100402.875,-170708.42,-5831.8687,-20112.957,-4237.6304,-44071.535,-12210.246,32527.426
952321.711354411,-100405.97,-170709.39,-5852.9463,-20114.625,-4228.231,-44063.926,-12206.787,32506.268
952321.7153544066,-100401.164,-170698.08,-5867.1064,-20104.656,-4208.4556,-44057.05,-12202.841,32484.58
952321.7193544023,-100394.53,-170692.22,-5851.522,-20099.732,-4211.467,-44062.5,-12204.468,32494.834
952321.7233543979,-100395.59,-170700.03,-5826.3755,-20107.992,-4218.0586,-44070.395,-12207.031,32523.234
952321.7273543936,-100399.414,-170703.98,-5827.108,-20114.87,-4225.749,-44070.598,-12206.055,32529.338
952321.7313543892,-100407.88,-170708.1,-5857.2188,-20117.025,-4236.2876,-44063.438,-12201.132,32505.209
952321.7353543849,-100400.27,-170708.58,-5870.0767,-20111.166,-4241.089,-44056.684,-12194.458,32480.877
952321.7393543805,-100391.97,-170709.08,-5857.422,-20105.021,-4234.945,-44061.32,-12193.645,32491.62
952321.7433543762,-100398.03,-170716.64,-5839.3965,-20110.31,-4230.835,-44069.582,-12198.771,32519.084
952321.7473543718,-100395.59,-170710.66,-5833.8623,-20117.146,-4236.0435,-44071.656,-12206.34,32519.777
952321.7513543674,-100395.875,-170710.7,-5852.6206,-20118.408,-4246.0938,-44065.51,-12207.031,32488.16
952321.755354363,-100400.03,-170714.4,-5869.4663,-20113.404,-4242.798,-44059.207,-12203.735,32458.09
952321.7593543587,-100397.625,-170709.6,-5858.073,-20107.463,-4232.1777,-44065.88,-12204.387,32467.896
952321.7633543543,-100397.625,-170705.81,-5839.437,-20111.37,-4227.987,-44074.383,-12211.06,32494.508
952321.76735435,-100399.74,-170707.89,-5835.9375,-20117.066,-4245.6465,-44074.668,-12210.653,32501.994
952321.7713543456,-100399.055,-170706.62,-5855.713,-20118.45,-4260.8237,-44067.793,-12203.735,32483.645
952321.7753543413,-100391.805,-170701.95,-5873.1284,-20112.793,-4260.5796,-44061.035,-12196.289,32468.791
952321.7793543369,-100386.805,-170696.17,-5860.6772,-20107.992,-4244.385,-44065.31,-12197.551,32483.684
952321.7833543326,-100386.56,-170692.92,-5846.5986,-20112.63,-4233.236,-44072.31,-12201.294,32514.61
952321.7873543282,-100390.18,-170694.62,-5848.5923,-20119.508,-4239.0547,-44073.977,-12203.369,32521.69
952321.7913543239,-100400.555,-170705.05,-5869.914,-20123.373,-4261.7188,-44068.156,-12201.416,32496.867
952321.7953543195,-100406.66,-170703.78,-5885.3354,-20117.96,-4254.354,-44062.094,-12197.754,32476.197
952321.7993543152,-100410.89,-170703.17,-5878.011,-20114.46,-4237.427,-44068.24,-12200.439,32485.922
952321.8033543108,-100411.54,-170707.08,-5855.957,-20119.832,-4237.1016,-44076.094,-12207.805,32513.877
952321.8073543065,-100405.84,-170710.9,-5851.278,-20125.285,-4248.2505,-44078.777,-12211.467,32520.266
952321.8113543021,-100407.35,-170711.52,-5872.8438,-20129.68,-4250.3257,-44072.31,-12211.548,32491.578
952321.8153542978,-100410.89,-170711.27,-5886.7188,-20124.676,-4248.535,-44064.293,-12206.34,32464.805
952321.8193542933,-100412.88,-170712.53,-5881.592,-20121.014,-4237.956,-44069.38,-12208.212,32473.879
952321.8233542889,-100420.9,-170718.75,-5870.7275,-20129.559,-4223.4297,-44077.72,-12215.658,32498.373
952321.8273542846,-100424.56,-170716.31,-5869.1406,-20135.945,-4235.189,-44081.016,-12222.656,32502.809
952321.8313542802,-100430.55,-170718.27,-5892.375,-20135.58,-4249.5527,-44073.445,-12212.932,32479.33
952321.8353542759,-100426.72,-170716.97,-5907.2676,-20129.07,-4248.413,-44065.594,-12205.648,32455.404
952321.8393542715,-100411.586,-170707.44,-5881.714,-20121.826,-4237.142,-44071.617,-12207.316,32467.814
952321.8433542672,-100408.77,-170706.02,-5855.0215,-20126.1,-4233.5615,-44080.203,-12211.874,32496.95
952321.8473542628,-100418.79,-170715.9,-5856.079,-20135.336,-4242.513,-44080.977,-12215.739,32505.088
952321.8513542585,-100427.414,-170721.23,-5872.4775,-20134.236,-4252.2383,-44073.082,-12209.677,32483.277
952321.8553542541,-100419.11,-170712.36,-5887.126,-20128.338,-4247.3555,-44066.61,-12204.224,32462.607
952321.8593542498,-100408.37,-170703.53,-5875.5293,-20123.088,-4233.48,-44072.43,-12206.503,32474.895
952321.8633542454,-100412.97,-170713.67,-5855.957,-20129.354,-4233.6836,-44079.754,-12212.362,32505.088
952321.8673542411,-100421.43,-170724.78,-5857.707,-20136.395,-4242.8794,-44080.69,-12213.867,32515.422
952321.8713542367,-100424.69,-170721.64,-5878.2554,-20138.184,-4253.662,-44074.42,-12209.147,32491.578
952321.8753542324,-100425.58,-170718.67,-5890.3403,-20136.557,-4252.075,-44070.19,-12206.015,32461.02
952321.879354228,-100429.85,-170724.4,-5877.9297,-20133.627,-4235.067,-44076.297,-12211.508,32466.39
952321.8833542236,-100430.18,-170724.78,-5859.2124,-20135.377,-4231.8115,-44083.78,-12214.071,32499.432
952321.8873542192,-100429.61,-170728.31,-5860.311,-20145.102,-4239.177,-44087.16,-12224.325,32501.873
952321.8913542149,-100430.46,-170722.66,-5880.7783,-20144.531,-4250.936,-44081.258,-12220.663,32474.488
952321.8953542105,-100427.984,-170718.22,-5894.45,-20136.11,-4262.492,-44074.344,-12214.56,32453.94
952321.8993542062,-100423.47,-170715.05,-5879.1504,-20132.08,-4257.6094,-44079.43,-12215.942,32470.256
952321.9033542018,-100423.914,-170714.97,-5860.718,-20136.434,-4248.21,-44086.55,-12216.675,32500.326
952321.9073541975,-100426.68,-170723.03,-5864.7056,-20147.787,-4253.215,-44086.914,-12216.064,32510.377
952321.9113541931,-100429.734,-170727.58,-5885.5796,-20152.426,-4258.016,-44079.348,-12215.007,32489.178
952321.9153541888,-100431.84,-170723.52,-5903.9307,-20143.352,-4256.592,-44075.156,-12209.961,32466.229
952321.9193541844,-100429.12,-170716.52,-5895.915,-20135.986,-4242.717,-44082.195,-12208.334,32480.674
952321.9233541801,-100431.64,-170716.97,-5876.0176,-20141.113,-4230.0215,-44089.4,-12211.142,32514.283
952321.9273541757,-100428.63,-170721.11,-5869.0186,-20149.09,-4232.9917,-44088.3,-12210.653,32526.246
952321.9313541714,-100418.664,-170719.94,-5881.0225,-20150.188,-4250.041,-44081.953,-12207.194,32503.215
952321.935354167,-100421.02,-170719.16,-5896.8506,-20145.428,-4246.2974,-44076.215,-12202.922,32475.953
952321.9393541627,-100430.09,-170718.88,-5892.2935,-20142.457,-4232.788,-44080.566,-12206.177,32484.05
952321.9433541583,-100433.11,-170726.61,-5877.6045,-20147.055,-4230.428,-44089.766,-12209.351,32514.08
952321.9473541538,-100430.625,-170733.53,-5874.634,-20154.5,-4232.137,-44091.637,-12205.566,32525.27
952321.9513541495,-100430.016,-170728.48,-5891.805,-20153.85,-4240.072,-44083.133,-12198.161,32507.121
952321.9553541451,-100426.92,-170714.84,-5903.8086,-20147.746,-4226.522,-44075.562,-12193.034,32486.207
952321.9593541408,-100422.41,-170710.3,-5888.3057,-20142.09,-4215.617,-44080.977,-12196.737,32499.514
952321.9633541364,-100423.22,-170712.78,-5872.3145,-20147.584,-4219.4824,-44089.07,-12202.556,32528.729
952321.9673541321,-100428.14,-170720.06,-5869.792,-20157.594,-4232.0967,-44089.438,-12204.59,32537.355
952321.9713541277,-100424.89,-170726.48,-5885.0913,-20158.082,-4240.194,-44081.18,-12199.382,32511.232
952321.9753541234,-100424.12,-170729.1,-5903.9307,-20151.775,-4240.804,-44075.766,-12194.052,32491.375
952321.979354119,-100422.81,-170721.72,-5893.1885,-20146.729,-4231.079,-44082.4,-12199.016,32500.082
952321.9833541147,-100419.88,-170714.31,-5872.152,-20150.432,-4223.1855,-44093.1,-12207.194,32524.781
952321.9873541103,-100424.12,-170720.8,-5873.576,-20159.75,-4230.1436,-44094.523,-12206.869,32530.723
952321.991354106,-100429.33,-170728.03,-5894.9385,-20162.72,-4239.665,-44086.793,-12202.597,32505.576
952321.9953541016,-100431.69,-170726.16,-5911.418,-20154.826,-4240.8447,-44080.61,-12196.249,32484.172
952321.9993540973,-100429.77,-170723.03,-5902.995,-20149.373,-4230.51,-44086.67,-12198.364,32496.42
952322.003354093,-100425.74,-170725.6,-5885.498,-20153.564,-4229.126,-44093.875,-12198.364,32524.375
952322.0073540886,-100422.164,-170725.6,-5885.5796,-20160.686,-4241.089,-44095.46,-12201.213,32530.438
952322.0113540842,-100424.4,-170730.56,-5907.5117,-20161.215,-4249.3896,-44087.08,-12199.585,32510.906
952322.0153540798,-100429.445,-170731.73,-5924.4385,-20157.146,-4243.449,-44079.633,-12195.72,32486.695
952322.0193540754,-100427.62,-170720.06,-5907.634,-20152.02,-4227.661,-44086.55,-12200.969,32497.805
952322.0233540711,-100425.984,-170716.52,-5887.7363,-20155.111,-4216.96,-44096.723,-12209.717,32517.945
952322.0273540667,-100431.16,-170718.6,-5883.586,-20160.4,-4228.231,-44097.58,-12209.961,32522.502
952322.0313540624,-100439.7,-170728.03,-5904.0938,-20164.55,-4238.5664,-44088.504,-12200.888,32503.215
952322.035354058,-100437.5,-170729.05,-5920.451,-20161.824,-4243.286,-44083.293,-12197.307,32479.86
952322.0393540537,-100431.36,-170727.06,-5901.8555,-20156.006,-4235.5957,-44090.254,-12201.05,32491.62
952322.0433540493,-100429.2,-170726.48,-5875.7734,-20157.918,-4227.6206,-44096.234,-12205.7705,32524.62
952322.047354045,-100431.805,-170725.67,-5873.454,-20164.55,-4233.1953,-44097.617,-12208.415,32533.45
952322.0513540406,-100432.414,-170723.03,-5894.8164,-20165.975,-4239.0137,-44091.15,-12204.0205,32506.145
952322.0553540363,-100437.99,-170727.75,-5913.452,-20162.883,-4226.156,-44084.395,-12197.348,32480.715
952322.0593540319,-100438.195,-170732.31,-5903.402,-20155.559,-4219.7266,-44089.6,-12199.26,32487.428
952322.0633540276,-100436.28,-170737.19,-5887.9805,-20156.78,-4221.151,-44099.203,-12203.003,32514.201
952322.0673540232,-100436.73,-170735.16,-5889.852,-20165.527,-4226.074,-44100.508,-12207.886,32519.654
952322.0713540189,-100437.95,-170729.12,-5908.8135,-20166.748,-4228.4346,-44093.1,-12202.759,32493.734
952322.0753540145,-100437.7,-170727.22,-5920.6543,-20159.709,-4217.163,-44086.387,-12197.632,32472.332
952322.07935401,-100438.6,-170729.12,-5908.2847,-20156.291,-4209.2695,-44092.0,-12199.138,32484.904
952322.0833540057,-100437.26,-170728.2,-5896.0776,-20161.621,-4207.8047,-44101.117,-12204.672,32511.72
952322.0873540014,-100441.125,-170733.4,-5897.1763,-20168.092,-4215.617,-44101.562,-12206.869,32520.305
952322.091353997,-100443.93,-170735.97,-5912.883,-20167.236,-4221.8833,-44092.082,-12202.8,32496.176
952322.0953539927,-100439.13,-170734.83,-5928.304,-20162.068,-4220.0117,-44088.094,-12200.155,32471.273
952322.0993539883,-100432.82,-170731.66,-5915.5273,-20157.838,-4211.711,-44094.402,-12204.224,32481.812
952322.103353984,-100439.7,-170741.62,-5897.6646,-20161.988,-4214.0303,-44102.95,-12211.101,32507.57
952322.1073539796,-100445.97,-170747.08,-5898.3564,-20169.068,-4219.4014,-44104.086,-12213.42,32511.11
952322.1113539753,-100444.87,-170741.02,-5917.4805,-20168.742,-4224.3247,-44097.13,-12210.653,32489.625
952322.1153539709,-100443.69,-170736.25,-5931.7627,-20162.518,-4226.4404,-44091.96,-12204.184,32470.664
952322.1193539666,-100439.82,-170731.08,-5916.0566,-20156.617,-4218.791,-44095.785,-12202.067,32486.94
952322.1233539622,-100445.11,-170737.14,-5898.275,-20161.785,-4214.1113,-44102.133,-12203.329,32518.76
952322.1273539579,-100456.625,-170745.78,-5903.198,-20171.59,-4220.256,-44102.5,-12201.986,32527.102
952322.1313539535,-100447.88,-170742.08,-5914.3477,-20171.754,-4224.284,-44095.215,-12197.0625,32502.523
952322.1353539492,-100435.95,-170730.88,-5924.398,-20163.209,-4223.3076,-44089.805,-12192.139,32479.574
952322.1393539448,-100445.11,-170744.47,-5919.149,-20159.465,-4226.3594,-44093.387,-12191.244,32492.678
952322.1433539403,-100449.305,-170745.25,-5900.8384,-20163.168,-4227.1323,-44099.61,-12191.65,32520.184
952322.147353936,-100439.336,-170731.17,-5894.613,-20168.701,-4230.3877,-44100.586,-12194.011,32525.758
952322.1513539316,-100442.266,-170737.11,-5911.5806,-20171.062,-4256.307,-44093.26,-12191.61,32503.176
952322.1553539273,-100440.43,-170733.73,-5925.985,-20163.006,-4253.4995,-44087.77,-12185.751,32479.656
952322.1593539229,-100434.29,-170729.73,-5918.498,-20158.041,-4230.957,-44091.434,-12185.344,32492.922
952322.1633539186,-100433.48,-170735.64,-5900.9604,-20163.697,-4222.6973,-44097.984,-12192.343,32518.963
952322.1673539142,-100438.195,-170739.34,-5902.3438,-20172.12,-4227.661,-44099.895,-12198.935,32516.928
952322.1713539099,-100441.98,-170737.67,-5926.9614,-20173.504,-4235.84,-44093.914,-12198.324,32489.951
952322.1753539055,-100443.52,-170734.75,-5935.913,-20166.098,-4230.9165,-44089.766,-12195.19,32468.914
952322.1793539012,-100445.03,-170733.33,-5919.2305,-20160.28,-4235.9214,-44094.688,-12196.533,32480.959
952322.1833538968,-100451.42,-170742.03,-5906.006,-20166.18,-4236.491,-44100.832,-12200.562,32508.75
952322.1873538925,-100448.695,-170742.77,-5900.35,-20171.672,-4223.3887,-44100.914,-12200.644,32515.504
952322.1913538881,-100443.65,-170736.05,-5915.7715,-20171.998,-4224.8945,-44094.117,-12195.923,32496.623
952322.1953538838,-100443.04,-170733.36,-5930.217,-20167.115,-4222.2495,-44089.03,-12190.39,32477.58
952322.1993538794,-100442.06,-170734.14,-5915.975,-20161.662,-4215.5356,-44094.523,-12189.494,32492.27
952322.2033538751,-100443.61,-170737.34,-5896.8916,-20166.098,-4214.1113,-44101.523,-12190.918,32523.113
952322.2073538707,-100442.586,-170740.94,-5898.8447,-20174.928,-4218.628,-44103.64,-12189.006,32535.686
952322.2113538663,-100441.86,-170738.45,-5917.6436,-20175.049,-4221.2324,-44096.844,-12183.31,32516.848
952322.2153538619,-100443.484,-170738.2,-5936.198,-20167.521,-4214.437,-44090.414,-12178.752,32494.508
952322.2193538576,-100445.56,-170743.1,-5921.346,-20164.877,-4209.717,-44098.43,-12183.757,32502.768
952322.2233538532,-100447.31,-170744.44,-5902.588,-20168.05,-4204.753,-44104.82,-12189.494,32527.996
952322.2273538489,-100450.4,-170743.98,-5910.482,-20176.066,-4218.872,-44106.203,-12192.749,32529.746
952322.2313538445,-100445.4,-170734.3,-5924.4385,-20175.781,-4214.1113,-44099.203,-12191.366,32505.412
952322.2353538402,-100455.61,-170739.67,-5945.6787,-20171.55,-4214.885,-44092.57,-12188.803,32479.494
952322.2393538358,-100463.83,-170746.19,-5934.123,-20167.725,-4197.8354,-44098.188,-12192.424,32487.346
952322.2433538315,-100451.336,-170745.28,-5907.593,-20173.178,-4191.6504,-44109.297,-12200.684,32513.877
952322.2473538271,-100448.164,-170751.19,-5899.7397,-20179.81,-4205.8516,-44111.74,-12205.811,32515.707
952322.2513538228,-100456.42,-170754.77,-5921.2646,-20182.332,-4215.1694,-44104.168,-12203.613,32490.764
952322.2553538184,-100448.445,-170736.73,-5939.0464,-20175.62,-4213.4604,-44100.383,-12202.312,32462.281
952322.2593538141,-100451.055,-170744.88,-5932.7803,-20171.51,-4210.9785,-44105.39,-12206.218,32469.2
952322.2633538097,-100456.586,-170757.12,-5914.551,-20177.41,-4205.1597,-44111.695,-12208.049,32502.768
952322.2673538054,-100458.09,-170753.88,-5913.6963,-20184.611,-4222.209,-44112.59,-12206.584,32515.057
952322.271353801,-100463.09,-170753.1,-5935.14,-20185.75,-4264.486,-44105.062,-12196.777,32497.682
952322.2753537965,-100459.555,-170750.3,-5942.5864,-20180.176,-4266.195,-44099.043,-12187.663,32481.04
952322.2793537922,-100453.25,-170745.73,-5924.5605,-20176.596,-4228.597,-44104.94,-12188.599,32495.646
952322.2833537878,-100450.81,-170748.38,-5903.7275,-20180.705,-4218.099,-44114.707,-12193.075,32524.252
952322.2873537835,-100454.266,-170756.47,-5908.081,-20188.6,-4222.4937,-44116.863,-12194.743,32529.42
952322.2913537791,-100461.305,-170767.47,-5934.326,-20190.594,-4237.468,-44110.19,-12190.186,32504.03
952322.2953537748,-100462.41,-170773.36,-5948.3643,-20185.955,-4249.3896,-44104.492,-12184.855,32482.057
952322.2993537704,-100461.34,-170766.69,-5937.134,-20182.7,-4231.649,-44111.9,-12190.063,32492.637
952322.3033537661,-100457.85,-170756.52,-5918.1724,-20186.97,-4211.5073,-44121.83,-12199.626,32518.963
952322.3073537617,-100463.09,-170764.66,-5920.573,-20194.092,-4221.4355,-44120.77,-12200.358,32525.188
952322.3113537574,-100463.51,-170768.72,-5936.157,-20194.947,-4235.5146,-44112.227,-12195.068,32504.64
952322.315353753,-100456.586,-170766.81,-5947.5913,-20189.494,-4233.846,-44108.113,-12195.15,32477.906
952322.3193537487,-100455.164,-170765.47,-5941.9355,-20184.938,-4224.9756,-44115.113,-12201.01,32485.516
952322.3233537443,-100454.555,-170765.39,-5926.0664,-20190.756,-4217.0005,-44124.473,-12209.921,32511.72
952322.32735374,-100458.01,-170769.58,-5923.625,-20197.877,-4218.8315,-44125.53,-12212.28,32514.406
952322.3313537356,-100469.0,-170779.6,-5946.208,-20201.092,-4232.0557,-44119.223,-12209.961,32484.58
952322.3353537313,-100469.12,-170776.2,-5966.7563,-20197.998,-4230.713,-44114.18,-12209.188,32459.148
952322.339353727,-100459.555,-170760.38,-5952.3115,-20190.47,-4213.3384,-44120.32,-12213.176,32469.973
952322.3433537225,-100464.6,-170769.33,-5934.6924,-20196.86,-4210.49,-44128.055,-12215.78,32497.885
952322.3473537181,-100472.17,-170778.98,-5932.658,-20203.777,-4212.077,-44126.63,-12211.914,32508.709
952322.3513537138,-100469.65,-170778.05,-5947.0625,-20203.695,-4240.8447,-44119.59,-12203.776,32490.072
952322.3553537094,-100470.55,-170775.6,-5960.0425,-20198.201,-4243.8154,-44113.527,-12195.354,32470.664
952322.3593537051,-100469.61,-170774.3,-5948.5273,-20195.842,-4218.221,-44119.508,-12193.563,32484.865
952322.3633537007,-100467.33,-170775.77,-5932.048,-20197.998,-4214.2334,-44128.01,-12195.231,32511.72
952322.3673536964,-100468.02,-170780.08,-5931.926,-20204.834,-4220.9883,-44127.688,-12195.517,32520.875
952322.371353692,-100467.53,-170776.25,-5949.26,-20205.445,-4221.5576,-44118.53,-12189.819,32505.291
952322.3753536877,-100469.81,-170770.72,-5966.838,-20200.074,-4217.5293,-44112.508,-12184.082,32485.027
952322.3793536833,-100469.445,-170769.9,-5948.8525,-20195.436,-4205.526,-44119.387,-12187.46,32495.973
952322.383353679,-100467.29,-170767.02,-5931.234,-20198.771,-4198.69,-44129.316,-12193.767,32527.385
952322.3873536746,-100470.46,-170773.48,-5928.3857,-20207.56,-4212.7686,-44131.836,-12198.8125,32528.85
952322.3913536703,-100477.38,-170780.28,-5949.585,-20210.693,-4225.0977,-44125.33,-12195.761,32503.5
952322.3953536659,-100479.49,-170776.86,-5967.0005,-20204.184,-4221.965,-44120.16,-12193.563,32476.28
952322.3993536616,-100476.93,-170772.27,-5949.382,-20198.854,-4210.8154,-44125.246,-12196.818,32486.207
952322.4033536572,-100479.17,-170778.66,-5930.7456,-20202.76,-4209.066,-44132.04,-12203.207,32509.727
952322.4073536528,-100479.49,-170777.95,-5934.8555,-20209.96,-4213.623,-44132.977,-12209.961,32513.145
952322.4113536484,-100482.14,-170785.08,-5955.6885,-20213.055,-4226.5625,-44125.49,-12211.345,32479.738
952322.415353644,-100480.875,-170784.8,-5972.738,-20209.148,-4220.9473,-44121.258,-12210.327,32451.824
952322.4193536397,-100477.016,-170776.53,-5958.537,-20201.375,-4193.5225,-44128.297,-12213.827,32467.287
952322.4233536354,-100476.56,-170775.8,-5937.866,-20205.607,-4186.361,-44137.25,-12220.703,32498.088
952322.427353631,-100479.375,-170780.84,-5943.685,-20213.664,-4209.3916,-44138.594,-12222.778,32507.773
952322.4313536267,-100483.28,-170781.45,-5959.9204,-20213.379,-4213.664,-44131.105,-12218.1,32487.102
952322.4353536223,-100482.266,-170769.9,-5973.755,-20206.99,-4210.246,-44125.285,-12212.851,32461.508
952322.439353618,-100479.54,-170767.9,-5963.379,-20204.387,-4200.3174,-44130.7,-12211.833,32472.697
952322.4433536136,-100487.51,-170777.03,-5944.5396,-20209.92,-4201.7417,-44136.23,-12209.636,32501.588
952322.4473536093,-100486.21,-170783.45,-5937.4595,-20216.635,-4207.5605,-44135.867,-12205.404,32510.54
952322.4513536049,-100484.42,-170787.89,-5956.6245,-20218.1,-4217.8145,-44128.95,-12197.551,32489.87
952322.4553536006,-100489.75,-170796.06,-5978.0684,-20214.479,-4217.204,-44122.887,-12189.25,32470.744
952322.4593535962,-100489.055,-170794.64,-5966.0645,-20209.717,-4208.13,-44125.41,-12186.523,32486.857
952322.4633535919,-100486.53,-170787.16,-5945.6787,-20213.258,-4215.9834,-44133.71,-12192.221,32513.145
952322.4673535875,-100489.42,-170789.23,-5943.3594,-20218.67,-4235.4736,-44136.027,-12193.359,32523.316
952322.471353583,-100489.055,-170790.08,-5960.449,-20219.85,-4261.841,-44129.598,-12189.087,32502.523
952322.4753535787,-100488.85,-170794.84,-5977.7427,-20214.723,-4249.471,-44125.977,-12185.507,32479.982
952322.4793535743,-100491.78,-170801.16,-5963.9893,-20211.549,-4201.538,-44131.105,-12187.053,32496.258
952322.48335357,-100490.08,-170788.22,-5939.575,-20216.39,-4198.0796,-44138.31,-12195.068,32525.188
952322.4873535656,-100487.02,-170779.5,-5940.6333,-20224.65,-4205.7295,-44141.113,-12201.823,32530.07
952322.4913535613,-100494.02,-170786.55,-5960.775,-20226.93,-4214.315,-44135.215,-12200.969,32503.785
952322.4953535569,-100505.82,-170796.06,-5979.004,-20225.057,-4217.8145,-44131.39,-12201.782,32478.273
952322.4993535526,-100490.97,-170792.08,-5963.2163,-20219.97,-4206.909,-44139.57,-12209.677,32489.543
952322.5033535482,-100480.02,-170787.08,-5940.552,-20223.836,-4229.167,-44148.438,-12217.8955,32515.871
952322.5073535439,-100486.086,-170793.22,-5940.9995,-20229.533,-4244.0186,-44147.3,-12220.337,32519.736
952322.5113535395,-100488.33,-170790.78,-5960.8564,-20226.441,-4233.1953,-44140.06,-12217.692,32497.723
952322.5153535352,-100484.58,-170781.66,-5977.8647,-20218.547,-4222.3716,-44135.336,-12216.064,32475.22
952322.5193535308,-100485.68,-170780.03,-5968.3027,-20215.861,-4214.9253,-44141.887,-12218.913,32484.336
952322.5233535265,-100490.52,-170787.08,-5946.533,-20221.191,-4215.373,-44148.562,-12223.674,32507.53
952322.5273535221,-100495.32,-170791.47,-5948.69,-20228.15,-4238.729,-44148.723,-12223.918,32507.326
952322.5313535178,-100500.86,-170793.98,-5972.86,-20231.893,-4236.8574,-44143.066,-12219.687,32479.86
952322.5353535134,-100497.195,-170789.67,-5987.0605,-20223.064,-4224.4873,-44136.72,-12209.025,32457.805
952322.539353509,-100488.08,-170788.25,-5974.2026,-20218.14,-4214.071,-44140.91,-12204.387,32471.6
952322.5433535046,-100488.98,-170793.75,-5955.4443,-20222.78,-4216.3496,-44148.113,-12203.003,32501.994
952322.5473535003,-100490.766,-170796.39,-5956.462,-20230.754,-4221.517,-44145.918,-12198.324,32514.65
952322.5513534959,-100488.24,-170801.36,-5971.924,-20228.963,-4228.76,-44136.68,-12188.559,32498.17
952322.5553534916,-100488.98,-170803.11,-5982.015,-20223.104,-4228.353,-44133.223,-12182.861,32477.621
952322.5593534872,-100485.72,-170790.48,-5967.2446,-20217.57,-4214.2334,-44138.387,-12184.408,32490.684
952322.5633534829,-100487.836,-170792.12,-5950.5615,-20221.6,-4210.49,-44145.223,-12187.744,32519.695
952322.5673534785,-100486.53,-170796.27,-5953.7354,-20229.695,-4218.506,-44144.86,-12190.023,32524.863
952322.5713534742,-100485.48,-170788.86,-5968.669,-20227.215,-4220.0117,-44139.406,-12191.936,32495.77
952322.5753534698,-100484.87,-170780.16,-5981.2827,-20220.418,-4209.2285,-44134.645,-12190.023,32473.512
952322.5793534655,-100490.484,-170789.03,-5968.8315,-20219.97,-4199.626,-44137.94,-12190.715,32487.225
952322.5833534611,-100482.83,-170793.34,-5949.3003,-20223.348,-4197.3877,-44146.242,-12199.951,32510.947
952322.5873534568,-100475.63,-170790.9,-5945.3535,-20228.395,-4201.864,-44147.3,-12206.665,32513.55
952322.5913534524,-100480.875,-170800.55,-5959.839,-20229.656,-4209.88,-44143.434,-12210.368,32487.143
952322.5953534481,-100488.94,-170804.73,-5974.2026,-20225.912,-4207.1533,-44140.26,-12210.531,32463.502
952322.5993534437,-100480.39,-170787.11,-5965.78,-20219.646,-4194.0107,-44145.875,-12214.641,32478.762
952322.6033534392,-100471.93,-170781.62,-5948.3643,-20222.332,-4194.9873,-44152.914,-12222.006,32503.703
952322.6073534349,-100475.67,-170789.67,-5946.737,-20228.883,-4201.294,-44153.32,-12225.83,32507.854
952322.6113534305,-100478.234,-170785.16,-5966.797,-20228.598,-4186.7676,-44146.16,-12221.029,32484.336
952322.6153534262,-100484.46,-170783.38,-5979.8584,-20222.78,-4178.182,-44138.633,-12213.583,32463.42
952322.6193534218,-100482.14,-170786.95,-5970.0117,-20219.564,-4184.2856,-44143.477,-12209.106,32478.557
952322.6233534175,-100473.8,-170786.38,-5952.596,-20225.668,-4188.2734,-44151.043,-12207.642,32506.35
952322.6273534131,-100475.34,-170788.95,-5953.695,-20231.893,-4194.458,-44146.934,-12200.073,32510.459
952322.6313534088,-100476.766,-170789.56,-5976.6846,-20230.713,-4186.6455,-44136.8,-12188.3955,32490.805
952322.6353534044,-100478.805,-170793.67,-5991.455,-20226.482,-4195.4756,-44130.94,-12177.694,32468.914
952322.6393534001,-100487.23,-170801.44,-5979.8994,-20223.553,-4190.511,-44133.586,-12172.241,32488.363
952322.6433533957,-100482.914,-170786.8,-5965.8613,-20227.133,-4184.326,-44142.254,-12176.718,32514.895
952322.6473533914,-100480.23,-170783.9,-5970.5405,-20231.445,-4204.956,-44141.6,-12178.915,32519.857
952322.651353387,-100486.45,-170787.2,-5988.9326,-20230.916,-4203.4507,-44132.855,-12172.485,32500.45
952322.6553533827,-100490.805,-170786.1,-5999.5527,-20226.36,-4193.9697,-44127.24,-12167.236,32483.36
952322.6593533783,-100495.28,-170789.88,-5986.8164,-20225.098,-4186.5645,-44133.223,-12165.324,32497.52
952322.663353374,-100489.79,-170792.94,-5958.659,-20227.703,-4180.9897,-44139.934,-12171.713,32529.055
952322.6673533695,-100477.74,-170787.97,-5952.6367,-20232.016,-4185.7505,-44141.316,-12181.071,32532.92
952322.6713533652,-100481.164,-170789.92,-5973.8364,-20234.783,-4191.1216,-44134.402,-12181.152,32507.447
952322.6753533608,-100490.195,-170791.11,-5992.147,-20231.854,-4190.552,-44129.273,-12179.077,32477.58
952322.6793533565,-100487.555,-170786.5,-5979.289,-20226.277,-4185.5063,-44135.785,-12185.954,32484.986
952322.6833533521,-100486.21,-170793.27,-5961.1816,-20229.86,-4183.879,-44142.945,-12194.052,32511.557
952322.6873533478,-100487.63,-170795.7,-5955.241,-20234.822,-4185.791,-44143.8,-12198.649,32516.033
952322.6913533434,-100484.58,-170784.14,-5972.9004,-20233.725,-4182.292,-44138.266,-12199.992,32489.748
952322.6953533391,-100482.55,-170776.7,-5988.8916,-20226.807,-4180.1353,-44133.344,-12198.039,32465.414
952322.6993533347,-100483.766,-170779.47,-5984.538,-20222.615,-4170.98,-44139.363,-12204.428,32474.895
952322.7033533304,-100488.24,-170781.9,-5967.977,-20223.918,-4167.7246,-44146.484,-12207.397,32505.291
952322.707353326,-100487.43,-170782.44,-5957.3164,-20232.463,-4168.254,-44147.176,-12207.886,32514.895
952322.7113533217,-100482.55,-170784.14,-5973.8364,-20235.271,-4180.664,-44140.668,-12204.997,32490.195
952322.7153533173,-100485.11,-170785.69,-5989.1357,-20229.045,-4175.2524,-44134.035,-12195.761,32468.791
952322.719353313,-100481.65,-170782.72,-5977.6206,-20225.139,-4171.753,-44138.918,-12192.017,32486.533
952322.7233533086,-100467.9,-170773.36,-5956.177,-20228.23,-4174.5605,-44146.484,-12187.582,32520.305
952322.7273533043,-100471.6,-170783.58,-5951.9453,-20235.516,-4186.7676,-44145.223,-12182.658,32528.443
952322.7313532999,-100483.12,-170799.73,-5970.744,-20237.305,-4192.383,-44136.355,-12171.916,32510.092
952322.7353532955,-100484.7,-170790.73,-5990.1533,-20232.586,-4185.14,-44130.008,-12160.767,32488.975
952322.7393532911,-100475.914,-170784.47,-5973.796,-20227.336,-4168.9453,-44134.688,-12158.041,32501.426
952322.7433532868,-100481.65,-170796.67,-5960.0425,-20234.01,-4175.985,-44140.06,-12157.675,32532.473
952322.7473532824,-100489.1,-170799.81,-5963.5825,-20241.62,-4183.065,-44137.82,-12154.989,32542.441
952322.751353278,-100488.164,-170791.06,-5980.0215,-20240.682,-4191.7725,-44131.39,-12154.175,32517.13
952322.7553532737,-100493.125,-170791.6,-5995.6465,-20235.23,-4193.197,-44128.055,-12159.099,32482.627
952322.7593532694,-100486.29,-170789.23,-5981.9336,-20230.877,-4178.9146,-44132.69,-12163.818,32490.928
952322.763353265,-100471.36,-170784.14,-5957.9673,-20233.195,-4179.8506,-44140.383,-12172.974,32510.295
952322.7673532607,-100477.87,-170796.56,-5959.88,-20239.543,-4199.341,-44139.773,-12177.409,32509.318
952322.7713532563,-100488.24,-170809.38,-5980.062,-20241.049,-4207.1533,-44134.848,-12179.443,32480.021
952322.775353252,-100484.74,-170793.47,-5991.0483,-20233.154,-4189.9824,-44132.45,-12178.874,32452.842
952322.7793532476,-100473.88,-170772.06,-5974.813,-20228.068,-4171.3867,-44140.586,-12191.244,32459.19
952322.7833532433,-100469.12,-170773.61,-5953.532,-20231.771,-4166.626,-44150.188,-12204.062,32484.498
952322.7873532389,-100470.13,-170778.28,-5955.6074,-20237.143,-4174.0723,-44147.016,-12205.933,32495.646
952322.7913532346,-100472.78,-170782.72,-5982.91,-20237.549,-4178.508,-44140.465,-12201.782,32480.633
952322.7953532302,-100474.49,-170775.89,-5993.8154,-20232.707,-4171.1836,-44137.207,-12199.748,32468.832
952322.7993532257,-100467.9,-170765.88,-5979.37,-20229.127,-4159.9937,-44142.824,-12200.439,32485.516
952322.8033532214,-100466.15,-170767.67,-5966.2275,-20232.342,-4156.413,-44148.03,-12201.213,32511.965
952322.807353217,-100477.664,-170776.78,-5970.337,-20239.258,-4163.5337,-44146.895,-12197.632,32521.893
952322.8113532127,-100477.22,-170782.11,-5988.1187,-20238.69,-4172.6074,-44141.113,-12188.925,32502.402
952322.8153532083,-100466.15,-170776.4,-5998.4946,-20235.027,-4165.8936,-44138.47,-12179.606,32482.79
952322.819353204,-100465.62,-170774.9,-5989.299,-20233.602,-4153.9717,-44142.99,-12168.661,32504.477
952322.8233531996,-100470.5,-170784.75,-5971.151,-20236.775,-4164.1846,-44145.062,-12162.639,32543.418
952322.8273531953,-100482.14,-170797.33,-5978.882,-20246.379,-4179.0366,-44142.906,-12156.047,32554.852
952322.8313531909,-100486.945,-170792.4,-6000.936,-20249.39,-4183.5938,-44134.848,-12146.362,32532.188
952322.8353531866,-100487.47,-170790.17,-6009.603,-20242.92,-4175.578,-44130.37,-12145.63,32502.2
952322.8393531822,-100486.984,-170793.83,-5998.169,-20239.46,-4168.254,-44137.086,-12148.845,32509.115
952322.8433531779,-100487.51,-170792.53,-5976.2373,-20244.629,-4171.8345,-44144.86,-12158.081,32521.363
952322.8473531735,-100490.97,-170796.34,-5975.2607,-20250.732,-4179.077,-44146.28,-12166.423,32509.807
952322.8513531692,-100496.95,-170803.23,-5997.5996,-20250.326,-4177.165,-44138.918,-12165.609,32476.97
952322.8553531648,-100495.81,-170801.6,-6004.7607,-20246.379,-4180.3794,-44135.785,-12165.69,32447.023
952322.8593531605,-100491.984,-170800.02,-5988.4443,-20243.084,-4172.038,-44144.33,-12175.659,32452.639
952322.8633531561,-100493.25,-170805.7,-5971.4355,-20247.885,-4176.107,-44151.207,-12185.019,32473.879
952322.8673531517,-100491.5,-170808.06,-5972.046,-20252.32,-4182.495,-44148.723,-12188.681,32472.535
952322.8713531473,-100487.15,-170801.48,-5987.3047,-20248.982,-4182.373,-44142.66,-12193.278,32446.047
952322.875353143,-100480.02,-170793.42,-6002.5635,-20240.154,-4175.09,-44142.17,-12197.754,32421.389
952322.8793531386,-100485.11,-170803.19,-5998.9424,-20239.543,-4161.621,-44150.555,-12203.41,32428.143
952322.8833531343,-100487.1,-170811.05,-5975.4233,-20244.14,-4158.203,-44157.066,-12207.927,32464.031
952322.8873531299,-100486.53,-170798.72,-5975.708,-20248.7,-4153.3203,-44153.973,-12209.147,32487.428
952322.8913531256,-100481.81,-170785.0,-5994.751,-20246.541,-4159.3833,-44147.83,-12199.016,32475.994
952322.8953531212,-100473.88,-170767.42,-6002.075,-20238.81,-4154.6226,-44143.477,-12191.61,32465.822
952322.8993531169,-100473.23,-170764.45,-6003.2554,-20236.613,-4140.91,-44147.91,-12184.855,32494.426
952322.9033531125,-100486.21,-170777.95,-5990.682,-20245.32,-4139.486,-44152.793,-12178.833,32534.506
952322.9073531082,-100488.85,-170785.12,-5987.59,-20252.768,-4158.0405,-44149.54,-12168.539,32551.516
952322.9113531038,-100482.83,-170784.47,-5995.809,-20250.732,-4147.583,-44141.48,-12157.39,32538.291
952322.9153530995,-100467.82,-170766.08,-6004.1504,-20242.107,-4138.55,-44135.62,-12148.112,32526.572
952322.9193530951,-100461.39,-170761.92,-5991.008,-20238.281,-4132.772,-44139.082,-12143.474,32544.027
952322.9233530908,-100464.97,-170771.28,-5972.412,-20241.863,-4135.4575,-44144.207,-12143.555,32573.0
952322.9273530864,-100479.13,-170793.1,-5975.708,-20249.92,-4149.414,-44141.035,-12139.608,32575.686
952322.931353082,-100489.055,-170794.31,-5999.1865,-20251.018,-4153.8086,-44134.48,-12134.685,32544.271
952322.9353530776,-100478.97,-170772.7,-6010.62,-20242.676,-4138.9976,-44133.504,-12137.085,32510.336
952322.9393530732,-100476.12,-170771.94,-5996.9077,-20239.014,-4129.4355,-44139.85,-12142.253,32517.66
952322.9433530689,-100482.67,-170780.89,-5981.12,-20244.752,-4140.0146,-44145.55,-12145.671,32538.412
952322.9473530645,-100491.375,-170788.75,-5987.59,-20251.873,-4151.164,-44146.484,-12149.292,32532.676
952322.9513530602,-100492.805,-170788.17,-6008.911,-20250.732,-4164.6323,-44141.97,-12153.809,32494.467
952322.9553530558,-100487.51,-170781.83,-6015.991,-20243.287,-4154.297,-44139.73,-12162.354,32451.457
952322.9593530515,-100489.055,-170783.94,-6001.831,-20240.154,-4144.9385,-44146.73,-12172.485,32447.43
952322.9633530471,-100492.84,-170792.89,-5988.8105,-20245.932,-4143.84,-44154.34,-12181.274,32463.299
952322.9673530428,-100494.63,-170800.62,-5990.8447,-20254.965,-4165.4463,-44155.195,-12187.175,32460.043
952322.9713530384,-100492.48,-170796.56,-6010.173,-20254.68,-4171.0205,-44149.742,-12187.866,32434.123
952322.9753530341,-100490.44,-170789.16,-6021.81,-20248.414,-4158.4067,-44146.812,-12188.192,32413.209
952322.9793530297,-100491.984,-170790.25,-6006.1035,-20243.49,-4148.8037,-44153.89,-12192.465,32427.736
952322.9833530254,-100491.3,-170791.27,-5985.718,-20245.2,-4155.9653,-44159.426,-12194.54,32461.508
952322.987353021,-100487.836,-170787.2,-5982.707,-20250.203,-4152.507,-44158.734,-12194.418,32477.297
952322.9913530167,-100487.15,-170780.72,-6004.3945,-20252.727,-4155.233,-44150.96,-12191.162,32456.504
952322.9953530122,-100493.82,-170785.16,-6024.6177,-20251.14,-4152.71,-44146.895,-12185.303,32439.982
952322.9993530079,-100503.22,-170795.33,-6018.962,-20251.709,-4151.5303,-44153.363,-12185.629,32456.992
952323.0033530035,-100510.91,-170801.39,-6005.493,-20257.65,-4148.8037,-44159.996,-12183.554,32495.24
952323.0073529992,-100510.336,-170802.78,-5996.867,-20261.598,-4160.97,-44159.18,-12178.671,32510.662
952323.0113529948,-100498.414,-170797.0,-6010.8237,-20260.01,-4163.656,-44152.426,-12172.812,32488.527
952323.0153529905,-100493.25,-170790.38,-6020.0605,-20255.168,-4163.9404,-44150.473,-12165.771,32471.844
952323.0193529861,-100495.77,-170789.84,-6010.051,-20253.297,-4149.7397,-44157.066,-12164.145,32491.334
952323.0233529818,-100497.195,-170793.67,-5992.92,-20258.22,-4145.752,-44162.273,-12163.574,32521.363
952323.0273529774,-100496.26,-170800.05,-5993.612,-20266.684,-4156.047,-44160.645,-12161.011,32528.322
952323.0313529731,-100501.875,-170807.17,-6018.3516,-20266.56,-4166.3413,-44153.484,-12155.803,32505.453
952323.0353529687,-100507.33,-170799.61,-6031.9824,-20260.174,-4161.418,-44149.21,-12152.954,32478.598
952323.0393529644,-100499.11,-170787.23,-6015.991,-20257.447,-4146.7695,-44156.66,-12156.738,32486.451
952323.04335296,-100499.23,-170792.53,-6000.7734,-20264.363,-4147.9087,-44165.324,-12165.854,32504.844
952323.0473529557,-100509.85,-170803.34,-6000.692,-20270.875,-4155.111,-44164.676,-12169.882,32503.988
952323.0513529513,-100511.92,-170808.56,-6018.2295,-20272.908,-4156.3315,-44157.227,-12170.614,32468.385
952323.055352947,-100511.64,-170807.62,-6041.301,-20268.066,-4144.2466,-44154.5,-12172.567,32435.629
952323.0593529426,-100508.305,-170806.44,-6028.2393,-20263.713,-4143.3516,-44164.715,-12181.763,32442.709
952323.0633529382,-100505.82,-170813.4,-6006.9175,-20268.596,-4164.3477,-44172.527,-12188.3545,32467.693
952323.0673529338,-100511.234,-170821.98,-6004.5166,-20274.7,-4176.351,-44169.56,-12189.413,32473.715
952323.0713529295,-100514.2,-170823.58,-6018.4736,-20273.193,-4170.4917,-44161.99,-12187.134,32450.725
952323.0753529251,-100513.06,-170811.81,-6031.372,-20267.09,-4161.621,-44160.24,-12187.663,32426.799
952323.0793529208,-100506.96,-170801.56,-6018.1074,-20262.574,-4141.195,-44168.742,-12196.208,32434.896
952323.0833529164,-100508.18,-170807.58,-6000.9766,-20267.213,-4138.4688,-44173.543,-12202.8,32458.62
952323.087352912,-100517.3,-170820.48,-6013.143,-20276.123,-4152.995,-44173.18,-12204.956,32464.113
952323.0913529077,-100524.375,-170826.55,-6043.2944,-20276.979,-4166.748,-44167.93,-12200.644,32441.652
952323.0953529034,-100525.234,-170822.8,-6053.874,-20270.143,-4162.3535,-44165.203,-12198.446,32417.156
952323.099352899,-100520.15,-170819.1,-6036.865,-20264.404,-4145.915,-44169.19,-12196.533,32439.25
952323.1033528947,-100513.43,-170818.25,-6009.603,-20269.857,-4140.8286,-44176.19,-12195.476,32477.541
952323.1073528903,-100506.76,-170813.64,-6009.603,-20276.45,-4147.502,-44176.27,-12188.965,32495.852
952323.111352886,-100508.67,-170815.44,-6033.1626,-20276.164,-4152.4253,-44168.785,-12177.612,32480.227
952323.1153528816,-100513.31,-170824.34,-6048.9097,-20273.031,-4152.4253,-44164.715,-12166.382,32466.146
952323.1193528773,-100515.83,-170822.19,-6037.435,-20271.443,-4140.381,-44170.207,-12161.011,32488.078
952323.1233528729,-100519.414,-170820.31,-6023.1123,-20279.379,-4138.957,-44175.293,-12157.634,32518.84
952323.1273528684,-100522.42,-170822.64,-6020.3857,-20285.93,-4134.7656,-44172.0,-12151.164,32528.973
952323.1313528641,-100523.28,-170827.28,-6040.8936,-20286.012,-4124.0234,-44163.74,-12144.206,32507.57
952323.1353528597,-100520.305,-170820.81,-6057.17,-20277.955,-4132.08,-44159.344,-12138.51,32485.19
952323.1393528554,-100518.44,-170815.6,-6040.202,-20274.822,-4138.55,-44165.61,-12143.799,32492.758
952323.143352851,-100521.2,-170818.97,-6026.815,-20279.053,-4135.4575,-44172.285,-12150.351,32516.562
952323.1473528467,-100521.77,-170823.0,-6032.3486,-20285.076,-4140.7065,-44170.82,-12153.198,32516.033
952323.1513528423,-100526.86,-170827.19,-6052.8564,-20286.5,-4145.63,-44163.25,-12154.704,32484.254
952323.155352838,-100528.73,-170826.22,-6060.5063,-20282.35,-4142.334,-44162.8,-12156.535,32453.86
952323.1593528336,-100523.234,-170830.38,-6039.714,-20280.152,-4138.6313,-44171.227,-12165.324,32456.504
952323.1633528293,-100527.1,-170839.56,-6021.688,-20285.523,-4143.514,-44179.65,-12176.799,32474.814
952323.1673528249,-100527.51,-170830.05,-6023.397,-20290.04,-4148.153,-44179.04,-12184.408,32478.8
952323.1713528206,-100520.875,-170817.95,-6043.0503,-20287.8,-4149.8213,-44174.727,-12187.622,32449.912
952323.1753528162,-100525.84,-170822.31,-6055.786,-20282.512,-4141.439,-44171.1,-12185.344,32427.736
952323.1793528119,-100529.914,-170828.38,-6036.133,-20279.217,-4126.2617,-44175.418,-12187.744,32446.047
952323.1833528075,-100531.21,-170836.23,-6015.0557,-20284.303,-4132.1616,-44181.234,-12188.803,32482.383
952323.1873528032,-100529.22,-170837.86,-6020.63,-20291.707,-4128.9473,-44180.867,-12182.17,32501.873
952323.1913527987,-100528.445,-170833.9,-6041.87,-20291.3,-4140.259,-44173.137,-12171.997,32487.957
952323.1953527944,-100529.625,-170826.7,-6052.0835,-20284.832,-4138.6313,-44167.44,-12162.517,32471.885
952323.19935279,-100534.8,-170825.64,-6040.487,-20282.064,-4132.0396,-44171.797,-12158.8545,32490.275
952323.2033527857,-100534.34,-170830.25,-6024.577,-20287.68,-4129.0283,-44178.266,-12161.621,32519.41
952323.2073527813,-100524.74,-170828.12,-6028.6865,-20293.621,-4137.9395,-44178.02,-12160.197,32521.322
952323.211352777,-100531.7,-170835.25,-6044.8813,-20293.742,-4150.3096,-44171.797,-12156.576,32493.816
952323.2153527726,-100534.51,-170835.66,-6054.24,-20288.25,-4143.0664,-44168.742,-12156.616,32473.023
952323.2193527683,-100534.836,-170835.73,-6041.1787,-20285.32,-4135.0913,-44174.684,-12157.431,32486.166
952323.2233527639,-100533.49,-170837.86,-6024.17,-20290.691,-4143.0664,-44182.7,-12159.221,32519.084
952323.2273527596,-100539.59,-170847.17,-6034.302,-20298.91,-4153.198,-44183.188,-12159.058,32524.13
952323.2313527552,-100545.21,-170846.48,-6050.293,-20298.26,-4153.8086,-44174.97,-12154.094,32493.49
952323.2353527509,-100538.984,-170830.17,-6063.3955,-20292.684,-4141.439,-44170.656,-12148.275,32471.396
952323.2393527465,-100536.336,-170833.5,-6054.077,-20290.283,-4142.7,-44176.516,-12150.229,32479.574
952323.2433527422,-100542.81,-170846.36,-6032.5522,-20295.94,-4148.4375,-44182.984,-12154.175,32502.076
952323.2473527378,-100543.5,-170860.23,-6037.7197,-20303.182,-4160.7666,-44183.637,-12156.25,32503.867
952323.2513527335,-100543.7,-170861.45,-6058.2275,-20303.549,-4161.743,-44176.395,-12156.901,32475.383
952323.2553527291,-100541.06,-170846.72,-6067.749,-20294.88,-4150.4316,-44172.85,-12160.36,32446.697
952323.2593527246,-100541.42,-170843.22,-6053.2637,-20291.871,-4143.2295,-44179.85,-12168.823,32449.79
952323.2633527203,-100544.766,-170849.86,-6034.1797,-20297.69,-4138.4688,-44186.484,-12174.683,32472.861
952323.267352716,-100543.664,-170854.58,-6041.545,-20303.02,-4142.4155,-44186.89,-12178.223,32479.818
952323.2713527116,-100531.91,-170849.45,-6056.8037,-20299.357,-4147.827,-44181.805,-12179.118,32457.195
952323.2753527072,-100526.86,-170843.06,-6063.07,-20293.377,-4141.6016,-44179.2,-12177.734,32440.47
952323.2793527029,-100532.68,-170852.47,-6049.0723,-20293.133,-4136.2305,-44184.816,-12181.112,32461.793
952323.2833526985,-100534.51,-170847.05,-6027.71,-20297.12,-4129.3135,-44191.043,-12184.408,32499.27
952323.2873526942,-100524.375,-170832.28,-6030.0293,-20300.537,-4127.2383,-44191.203,-12182.78,32510.906
952323.2913526898,-100529.055,-170835.9,-6053.4263,-20301.596,-4145.1416,-44182.332,-12175.985,32488.04
952323.2953526855,-100534.71,-170836.55,-6067.9526,-20297.322,-4147.258,-44176.758,-12170.126,32471.193
952323.2993526811,-100540.66,-170840.95,-6057.617,-20294.19,-4123.9424,-44181.48,-12167.847,32486.857
952323.3033526768,-100547.37,-170849.66,-6040.161,-20300.334,-4110.189,-44187.582,-12167.521,32512.777
952323.3073526724,-100543.91,-170855.44,-6038.493,-20306.56,-4120.565,-44188.113,-12163.249,32519.98
952323.3113526681,-100540.445,-170849.9,-6055.949,-20304.77,-4128.296,-44182.17,-12157.471,32498.252
952323.3153526637,-100542.81,-170847.75,-6070.5977,-20300.252,-4123.413,-44177.207,-12151.571,32477.744
952323.3193526594,-100542.24,-170847.34,-6061.5645,-20296.998,-4119.67,-44183.027,-12152.019,32486.736
952323.3233526549,-100540.24,-170853.31,-6041.8296,-20302.41,-4127.645,-44190.023,-12155.884,32511.557
952323.3273526506,-100548.016,-170872.44,-6038.452,-20311.238,-4147.5425,-44187.91,-12152.344,32517.254
952323.3313526462,-100553.67,-170875.53,-6056.5596,-20308.797,-4151.164,-44180.055,-12148.56,32494.59
952323.3353526419,-100546.1,-170850.47,-6071.1265,-20300.537,-4148.8447,-44180.055,-12150.757,32466.635
952323.3393526375,-100537.56,-170842.05,-6056.1523,-20297.201,-4135.376,-44187.34,-12152.751,32476.564
952323.3433526332,-100540.33,-170848.52,-6044.8813,-20302.572,-4129.11,-44191.773,-12153.809,32504.64
952323.3473526288,-100548.47,-170856.89,-6052.8975,-20307.537,-4133.0566,-44190.918,-12155.6,32507.082
952323.3513526245,-100548.55,-170858.69,-6070.964,-20306.275,-4139.5674,-44183.516,-12156.616,32479.412
952323.3553526201,-100541.95,-170848.77,-6081.3804,-20299.928,-4132.406,-44180.38,-12157.1455,32459.475
952323.3593526158,-100541.51,-170844.97,-6065.6333,-20297.12,-4111.8164,-44185.67,-12161.418,32465.129
952323.3633526114,-100549.16,-170852.9,-6052.5312,-20304.402,-4114.3394,-44194.133,-12168.254,32487.225
952323.3673526071,-100544.27,-170851.12,-6048.5435,-20306.844,-4125.5293,-44194.746,-12169.882,32492.025
952323.3713526027,-100533.0,-170847.66,-6059.0415,-20305.543,-4124.878,-44189.984,-12171.347,32467.775
952323.3753525984,-100533.9,-170848.77,-6073.161,-20302.084,-4115.072,-44186.973,-12169.841,32445.518
952323.379352594,-100543.46,-170857.8,-6060.8726,-20299.56,-4097.738,-44192.26,-12171.713,32460.043
952323.3833525897,-100542.195,-170853.97,-6047.3633,-20303.264,-4094.4011,-44200.523,-12177.694,32494.793
952323.3873525853,-100526.86,-170832.44,-6048.828,-20305.42,-4106.6895,-44199.87,-12179.606,32505.209
952323.3913525809,-100523.52,-170832.33,-6068.1562,-20306.275,-4112.956,-44190.758,-12176.352,32479.818
952323.3953525765,-100529.87,-170835.94,-6080.6074,-20300.334,-4106.893,-44186.16,-12169.638,32461.467
952323.3993525722,-100538.45,-170841.39,-6065.511,-20297.04,-4097.3716,-44193.117,-12168.945,32478.965
952323.4033525678,-100546.96,-170847.7,-6055.664,-20304.443,-4098.5107,-44198.855,-12168.01,32511.232
952323.4073525635,-100554.65,-170862.31,-6061.2793,-20314.209,-4122.8438,-44198.04,-12165.976,32516.684
952323.4113525591,-100545.086,-170866.34,-6071.6147,-20314.9,-4129.924,-44190.51,-12162.313,32488.322
952323.4153525548,-100541.42,-170861.86,-6077.352,-20308.676,-4122.5586,-44188.113,-12155.273,32464.152
952323.4193525504,-100550.13,-170865.81,-6065.3076,-20306.52,-4121.948,-44191.406,-12153.809,32476.97
952323.4233525461,-100548.55,-170870.25,-6050.171,-20312.094,-4120.7686,-44195.477,-12149.292,32508.098
952323.4273525417,-100540.94,-170873.34,-6049.0723,-20315.674,-4119.629,-44192.793,-12142.944,32520.266
952323.4313525374,-100554.94,-170889.53,-6073.568,-20319.988,-4131.429,-44184.41,-12136.638,32494.02
952323.435352533,-100558.31,-170877.4,-6089.315,-20314.129,-4119.8325,-44181.074,-12133.342,32469.076
952323.4393525287,-100549.4,-170859.06,-6077.8403,-20309.205,-4110.6772,-44188.926,-12135.702,32481.812
952323.4433525243,-100550.7,-170868.94,-6065.1045,-20317.383,-4124.1865,-44196.37,-12145.224,32505.861
952323.44735252,-100562.18,-170882.25,-6070.638,-20324.463,-4124.8374,-44195.234,-12149.536,32508.018
952323.4513525156,-100561.0,-170881.6,-6083.618,-20322.918,-4121.623,-44189.78,-12152.71,32477.865
952323.4553525111,-100549.36,-170868.78,-6091.39,-20315.186,-4111.6133,-44187.867,-12156.454,32453.492
952323.4593525068,-100545.21,-170866.22,-6072.551,-20312.053,-4103.0684,-44194.824,-12158.569,32462.2
952323.4633525024,-100550.83,-170869.92,-6058.9194,-20318.4,-4104.37,-44203.37,-12165.202,32489.38
952323.4673524981,-100551.92,-170870.61,-6056.6816,-20323.975,-4112.02,-44204.47,-12171.672,32489.992
952323.4713524937,-100548.18,-170868.83,-6074.585,-20323.445,-4118.612,-44197.023,-12169.678,32465.414
952323.4753524894,-100551.03,-170875.7,-6088.542,-20320.11,-4108.032,-44193.77,-12166.464,32443.197
952323.479352485,-100553.23,-170873.95,-6070.5977,-20316.732,-4098.633,-44201.742,-12170.898,32460.531
952323.4833524807,-100547.85,-170861.66,-6049.3574,-20317.791,-4094.1165,-44208.54,-12175.619,32493.084
952323.4873524763,-100546.63,-170861.5,-6052.938,-20322.062,-4108.8057,-44207.97,-12174.724,32496.502
952323.491352472,-100555.664,-170867.89,-6075.887,-20324.26,-4125.8545,-44199.098,-12170.532,32471.273
952323.4953524676,-100546.8,-170862.75,-6079.7935,-20318.238,-4117.0654,-44195.312,-12168.864,32448.691
952323.4993524633,-100534.55,-170853.44,-6064.7383,-20313.111,-4101.278,-44201.418,-12171.306,32458.09
952323.5033524589,-100537.56,-170858.77,-6051.4326,-20319.05,-4096.4355,-44206.383,-12171.469,32481.65
952323.5073524546,-100551.84,-170870.05,-6049.154,-20324.422,-4102.539,-44203.574,-12168.945,32492.922
952323.5113524502,-100561.12,-170876.52,-6070.516,-20327.516,-4107.544,-44194.62,-12160.197,32473.186
952323.5153524459,-100545.66,-170865.97,-6089.4775,-20321.9,-4103.0273,-44191.45,-12155.803,32451.213
952323.5193524414,-100538.82,-170855.11,-6077.881,-20319.906,-4095.866,-44197.633,-12157.797,32458.66
952323.5233524371,-100550.055,-170869.72,-6068.0747,-20329.834,-4104.37,-44203.086,-12155.111,32492.434
952323.5273524327,-100568.2,-170892.42,-6067.9526,-20339.396,-4122.966,-44201.336,-12152.019,32499.432
952323.5313524284,-100563.56,-170876.52,-6086.0596,-20336.59,-4120.3613,-44195.965,-12144.206,32477.5
952323.535352424,-100552.164,-170858.97,-6096.3135,-20327.434,-4110.3516,-44191.53,-12136.23,32456.828
952323.5393524197,-100552.375,-170859.75,-6087.1177,-20324.098,-4100.952,-44197.633,-12142.09,32466.432
952323.5433524153,-100556.32,-170864.3,-6070.7197,-20327.88,-4088.8267,-44203.86,-12145.793,32493.654
952323.547352411,-100557.26,-170866.25,-6065.552,-20333.13,-4097.3716,-44201.66,-12150.839,32496.34
952323.5513524066,-100560.71,-170870.66,-6086.833,-20335.652,-4104.5737,-44194.906,-12149.333,32466.066
952323.5553524023,-100561.57,-170870.48,-6098.877,-20330.607,-4100.342,-44192.87,-12149.943,32440.838
952323.5593523979,-100560.47,-170873.7,-6085.0425,-20326.62,-4095.5405,-44199.465,-12159.587,32442.588
952323.5633523936,-100557.336,-170873.14,-6067.4644,-20330.81,-4098.552,-44208.133,-12169.353,32466.555
952323.5673523892,-100553.555,-170873.3,-6063.68,-20336.59,-4103.5566,-44209.15,-12175.944,32474.855
952323.5713523849,-100553.14,-170869.23,-6082.0312,-20333.293,-4095.7034,-44202.965,-12177.572,32455.568
952323.5753523805,-100550.21,-170858.08,-6093.384,-20327.84,-4079.2239,-44202.23,-12176.066,32438.844
952323.5793523762,-100552.695,-170860.03,-6091.797,-20328.125,-4069.4988,-44209.473,-12175.863,32456.79
952323.5833523718,-100548.67,-170856.4,-6072.51,-20333.334,-4072.388,-44216.797,-12179.077,32490.643
952323.5873523674,-100541.06,-170844.94,-6067.627,-20338.176,-4081.177,-44215.13,-12176.474,32501.994
952323.591352363,-100546.23,-170847.45,-6089.437,-20337.566,-4092.855,-44204.918,-12166.016,32482.748
952323.5953523587,-100554.37,-170853.4,-6098.5923,-20332.195,-4089.4778,-44200.32,-12159.994,32469.117
952323.5993523543,-100552.9,-170854.94,-6086.3853,-20329.266,-4078.532,-44208.54,-12163.615,32483.889
952323.60335235,-100546.836,-170854.94,-6068.0747,-20333.781,-4074.6665,-44215.008,-12166.301,32511.965
952323.6073523456,-100549.195,-170860.44,-6072.754,-20340.332,-4081.6653,-44212.484,-12161.825,32514.406
952323.6113523412,-100548.75,-170860.84,-6096.0693,-20341.064,-4088.4604,-44204.47,-12152.588,32486.207
952323.6153523369,-100544.15,-170854.73,-6110.3926,-20338.014,-4088.257,-44201.133,-12146.2,32461.996
952323.6193523325,-100543.586,-170855.47,-6093.506,-20336.14,-4074.992,-44207.645,-12149.252,32470.826
952323.6233523282,-100545.945,-170864.7,-6071.208,-20340.576,-4073.405,-44215.66,-12151.245,32497.56
952323.6273523238,-100550.3,-170871.06,-6070.2314,-20345.094,-4089.5183,-44214.438,-12150.432,32496.055
952323.6313523195,-100546.266,-170852.78,-6094.035,-20342.45,-4084.5134,-44206.83,-12143.799,32476.645
952323.6353523151,-100540.53,-170845.55,-6100.464,-20335.531,-4077.0266,-44203.41,-12140.056,32454.387
952323.6393523108,-100545.86,-170851.73,-6088.745,-20336.793,-4078.817,-44211.914,-12143.84,32461.793
952323.6433523064,-100551.35,-170858.12,-6078.166,-20341.756,-4076.9045,-44216.473,-12145.956,32487.346
952323.6473523021,-100551.4,-170864.3,-6073.9746,-20350.098,-4087.199,-44215.457,-12145.264,32484.701
952323.6513522976,-100547.04,-170861.17,-6091.268,-20349.65,-4086.3445,-44209.066,-12142.212,32449.912
952323.6553522933,-100548.71,-170858.64,-6101.888,-20344.402,-4084.473,-44208.863,-12149.374,32420.736
952323.6593522889,-100547.9,-170859.3,-6086.3853,-20341.268,-4072.9575,-44217.164,-12159.831,32433.432
952323.6633522846,-100546.15,-170862.64,-6065.6333,-20343.791,-4065.8367,-44221.438,-12165.731,32468.303
952323.6673522802,-100545.33,-170866.05,-6068.1562,-20350.22,-4076.4163,-44219.035,-12166.504,32477.662
952323.6713522759,-100544.44,-170866.05,-6086.3853,-20351.766,-4081.7058,-44213.094,-12164.592,32457.113
952323.6753522715,-100549.4,-170865.33,-6096.7207,-20347.332,-4080.892,-44210.043,-12161.865,32440.35
952323.6793522672,-100548.18,-170857.72,-6083.74,-20344.727,-4069.4988,-44216.23,-12163.737,32459.799
952323.6833522628,-100541.875,-170848.72,-6068.4004,-20344.117,-4058.187,-44222.293,-12166.179,32495.24
952323.6873522585,-100544.4,-170850.39,-6072.3066,-20351.277,-4058.472,-44220.99,-12156.616,32507.365
952323.6913522541,-100554.24,-170853.97,-6100.2197,-20354.656,-4065.9995,-44215.535,-12150.269,32488.04
952323.6953522498,-100549.4,-170851.66,-6110.718,-20347.697,-4061.6458,-44214.195,-12150.146,32474.57
952323.6993522454,-100534.47,-170841.36,-6094.808,-20344.361,-4053.2634,-44219.727,-12149.13,32494.67
952323.7033522411,-100532.88,-170840.75,-6076.864,-20349.08,-4052.0022,-44226.766,-12149.292,32521.934
952323.7073522367,-100538.86,-170848.72,-6078.6543,-20354.9,-4057.1697,-44223.676,-12144.125,32527.793
952323.7113522324,-100550.336,-170859.06,-6102.4985,-20355.795,-4054.6877,-44216.676,-12140.625,32496.176
952323.7153522279,-100551.44,-170860.64,-6113.6475,-20352.254,-4058.5125,-44214.805,-12138.876,32466.594
952323.7193522236,-100549.89,-170863.45,-6103.0684,-20351.441,-4060.0588,-44219.32,-12133.098,32476.97
952323.7233522192,-100553.35,-170869.67,-6087.3213,-20353.516,-4057.0476,-44224.0,-12135.539,32503.744
952323.7273522149,-100554.164,-170864.62,-6084.7983,-20360.596,-4068.6443,-44223.555,-12138.672,32504.559
952323.7313522105,-100549.805,-170857.42,-6108.032,-20359.66,-4072.7947,-44219.363,-12137.533,32475.588
952323.7353522062,-100543.664,-170853.23,-6119.8325,-20352.092,-4065.5112,-44217.9,-12137.614,32455.363
952323.7393522018,-100544.15,-170853.72,-6103.882,-20350.342,-4060.1401,-44223.43,-12140.991,32462.281
952323.7433521975,-100546.67,-170862.11,-6090.8613,-20356.08,-4057.3733,-44228.926,-12147.99,32478.477
952323.7473521931,-100552.53,-170869.31,-6094.035,-20363.24,-4065.023,-44228.152,-12151.652,32473.594
952323.7513521888,-100558.35,-170873.55,-6115.682,-20364.99,-4071.6147,-44220.582,-12151.205,32440.676
952323.7553521844,-100559.0,-170875.86,-6124.756,-20360.88,-4075.2769,-44219.81,-12154.216,32413.78
952323.7593521801,-100552.01,-170874.03,-6111.5723,-20361.572,-4071.3298,-44227.867,-12164.145,32416.709
952323.7633521757,-100555.51,-170882.38,-6096.4766,-20366.252,-4086.019,-44234.297,-12172.934,32437.541
952323.7673521714,-100566.086,-170892.62,-6098.8364,-20369.06,-4083.8625,-44232.344,-12171.265,32450.889
952323.771352167,-100562.586,-170874.47,-6114.787,-20367.96,-4081.6653,-44228.56,-12169.271,32433.146
952323.7753521627,-100556.03,-170869.11,-6124.5527,-20363.445,-4074.1375,-44225.953,-12165.202,32415.732
952323.7793521583,-100556.73,-170873.45,-6116.089,-20359.863,-4046.1833,-44229.94,-12161.011,32440.512
952323.7833521538,-100555.055,-170867.48,-6100.383,-20362.346,-4047.2007,-44234.906,-12157.349,32478.477
952323.7873521495,-100559.164,-170871.47,-6102.336,-20370.281,-4061.5642,-44232.504,-12153.931,32491.62
952323.7913521451,-100576.83,-170884.69,-6128.4995,-20375.773,-4069.1733,-44223.473,-12141.684,32477.053
952323.7953521408,-100576.83,-170887.02,-6142.212,-20373.21,-4066.4878,-44219.523,-12135.702,32458.66
952323.7993521364,-100565.15,-170879.2,-6124.9595,-20367.473,-4062.785,-44228.477,-12143.596,32469.729
952323.8033521321,-100561.164,-170875.7,-6102.58,-20370.158,-4052.0022,-44236.94,-12149.618,32495.77
952323.8073521277,-100563.73,-170878.9,-6103.475,-20375.652,-4071.4927,-44234.785,-12147.827,32503.012
952323.8113521234,-100559.086,-170869.52,-6122.1924,-20373.982,-4072.6726,-44226.32,-12141.846,32480.389
952323.815352119,-100561.77,-170871.9,-6132.8125,-20370.361,-4066.854,-44224.082,-12140.259,32452.922
952323.8193521147,-100569.83,-170881.84,-6127.0347,-20370.281,-4062.785,-44231.324,-12141.235,32465.658
952323.8233521103,-100575.08,-170887.12,-6108.846,-20377.482,-4064.0872,-44238.16,-12143.107,32489.584
952323.827352106,-100572.47,-170880.25,-6108.846,-20382.324,-4076.3347,-44235.68,-12143.921,32490.398
952323.8313521016,-100568.12,-170871.34,-6123.413,-20379.883,-4072.632,-44229.13,-12145.549,32459.84
952323.8353520973,-100571.13,-170871.9,-6127.3604,-20375.814,-4041.5042,-44226.562,-12146.525,32430.828
952323.8393520929,-100578.17,-170878.47,-6120.565,-20374.756,-4032.1453,-44234.254,-12152.588,32435.873
952323.8433520886,-100576.945,-170885.67,-6104.818,-20379.07,-4052.2869,-44241.863,-12160.482,32454.021
952323.8473520841,-100568.61,-170888.8,-6100.708,-20382.65,-4063.5989,-44241.62,-12163.615,32452.271
952323.8513520798,-100567.14,-170884.33,-6118.734,-20380.738,-4069.8245,-44236.086,-12163.859,32420.207
952323.8553520754,-100570.6,-170880.95,-6134.7656,-20377.85,-4063.2327,-44233.887,-12165.08,32394.736
952323.8593520711,-100571.05,-170879.89,-6125.041,-20376.629,-4056.3152,-44241.21,-12169.23,32406.984
952323.8633520667,-100576.46,-170883.22,-6113.037,-20380.33,-4059.489,-44247.684,-12172.323,32430.95
952323.8673520624,-100587.61,-170899.7,-6114.258,-20389.201,-4073.8933,-44244.426,-12167.5625,32434.611
952323.871352058,-100589.89,-170909.11,-6141.3984,-20390.38,-4076.823,-44234.785,-12155.722,32417.686
952323.8753520537,-100589.195,-170896.4,-6154.6226,-20384.807,-4069.4175,-44232.75,-12154.338,32392.824
952323.8793520493,-100583.945,-170885.47,-6141.7646,-20381.023,-4055.2573,-44240.074,-12158.447,32402.996
952323.883352045,-100586.305,-170889.25,-6126.4243,-20387.533,-4038.3708,-44247.4,-12159.302,32436.688
952323.8873520406,-100596.16,-170899.55,-6127.4414,-20394.41,-4025.0652,-44246.38,-12157.064,32458.781
952323.8913520363,-100589.766,-170895.44,-6142.9854,-20393.066,-4021.688,-44239.625,-12148.234,32450.686
952323.8953520319,-100573.41,-170881.44,-6138.3467,-20386.639,-4022.6646,-44239.79,-12145.549,32443.686
952323.8993520276,-100573.65,-170878.17,-6122.274,-20383.18,-4028.8901,-44245.117,-12145.427,32465.984
952323.9033520232,-100579.59,-170889.4,-6112.3457,-20387.33,-4038.9812,-44248.496,-12140.869,32500.205
952323.9073520189,-100584.805,-170891.2,-6121.257,-20395.264,-4049.805,-44245.65,-12137.045,32508.506
952323.9113520145,-100588.83,-170895.55,-6142.8223,-20396.566,-4059.2449,-44238.61,-12133.22,32481.324
952323.91535201,-100588.26,-170898.08,-6150.879,-20391.48,-4055.6643,-44239.34,-12134.277,32453.736
952323.9193520057,-100577.97,-170890.95,-6132.65,-20385.418,-4064.8196,-44246.297,-12138.103,32464.234
952323.9233520014,-100571.375,-170889.17,-6114.9497,-20389.242,-4078.0845,-44253.5,-12144.938,32489.26
952323.927351997,-100581.34,-170903.61,-6114.624,-20395.264,-4073.4866,-44251.508,-12146.24,32493.45
952323.9313519927,-100584.03,-170900.03,-6133.5044,-20394.979,-4070.679,-44244.426,-12144.45,32465.496
952323.9353519883,-100582.6,-170889.98,-6147.705,-20391.398,-4064.5347,-44243.53,-12146.566,32437.785
952323.939351984,-100588.55,-170891.77,-6137.004,-20391.521,-4056.6814,-44249.434,-12152.06,32444.297
952323.9433519796,-100594.65,-170901.98,-6120.443,-20396.688,-4062.0933,-44256.55,-12161.011,32465.902
952323.9473519753,-100585.25,-170901.33,-6121.0938,-20396.525,-4068.8884,-44256.633,-12166.789,32461.143
952323.9513519709,-100581.34,-170901.78,-6140.381,-20395.916,-4072.4285,-44250.125,-12166.911,32429.12
952323.9553519665,-100585.66,-170902.19,-6149.699,-20393.393,-4073.7712,-44249.066,-12169.108,32399.008
952323.9593519622,-100590.78,-170904.27,-6143.27,-20393.84,-4068.1968,-44254.844,-12170.085,32405.52
952323.9633519578,-100596.48,-170911.38,-6128.418,-20399.21,-4060.6692,-44258.383,-12166.545,32432.09
952323.9673519535,-100597.086,-170912.4,-6138.0615,-20405.152,-4068.9292,-44256.188,-12163.778,32437.46
952323.9713519491,-100597.17,-170912.16,-6157.593,-20404.623,-4075.0327,-44248.414,-12160.889,32408.977
952323.9753519448,-100597.58,-170909.02,-6163.371,-20401.287,-4070.272,-44247.152,-12160.075,32383.791
952323.9793519403,-100598.11,-170906.1,-6153.4834,-20400.188,-4061.076,-44253.38,-12162.558,32398.684
952323.983351936,-100602.38,-170910.05,-6141.439,-20404.5,-4062.9885,-44257.812,-12164.755,32431.967
952323.9873519316,-100601.32,-170911.06,-6140.991,-20409.627,-4065.7146,-44256.88,-12164.185,32437.582
952323.9913519273,-100599.125,-170910.08,-6159.953,-20409.791,-4072.7542,-44249.023,-12157.431,32417.686
952323.9953519229,-100604.01,-170909.84,-6173.6655,-20406.047,-4067.9934,-44246.867,-12152.141,32403.729
952323.9993519186,-100605.15,-170912.89,-6157.5522,-20404.053,-4067.2202,-44253.34,-12148.153,32424.807
952324.0033519142,-100606.734,-170911.27,-6140.747,-20407.35,-4061.1167,-44261.152,-12148.071,32459.434
952324.0073519099,-100605.39,-170908.61,-6143.1885,-20410.564,-4055.2166,-44257.812,-12144.857,32478.068
952324.0113519055,-100595.34,-170904.3,-6156.5757,-20408.447,-4068.156,-44251.71,-12142.741,32454.713
952324.0153519012,-100586.875,-170895.34,-6163.6963,-20401.775,-4058.7974,-44250.33,-12140.259,32436.77
952324.0193518968,-100584.805,-170898.03,-6146.932,-20400.105,-4048.7876,-44255.617,-12139.648,32456.707
952324.0233518925,-100594.85,-170910.48,-6130.493,-20406.373,-4048.5027,-44260.906,-12141.113,32484.133
952324.0273518881,-100595.87,-170900.64,-6133.2603,-20411.336,-4053.2634,-44260.906,-12143.637,32486.533
952324.0313518838,-100594.89,-170897.47,-6153.6865,-20413.697,-4054.932,-44253.703,-12143.107,32458.049
952324.0353518794,-100596.27,-170896.05,-6165.8125,-20406.129,-4046.7937,-44250.977,-12144.165,32432.984
952324.0393518751,-100600.67,-170899.42,-6153.8496,-20404.705,-4053.3042,-44257.855,-12148.723,32444.785
952324.0433518706,-100597.17,-170904.02,-6131.958,-20408.936,-4051.636,-44262.41,-12152.792,32468.873
952324.0473518663,-100590.984,-170901.4,-6136.0273,-20411.621,-4046.7124,-44260.215,-12154.948,32470.135
952324.0513518619,-100590.945,-170901.0,-6161.743,-20411.785,-4052.6125,-44253.38,-12153.564,32438.682
952324.0553518576,-100594.93,-170903.12,-6171.4683,-20406.658,-4048.7468,-44250.043,-12151.855,32409.506
952324.0593518532,-100599.2,-170909.31,-6161.3364,-20408.814,-4041.9517,-44255.21,-12153.198,32418.174
952324.0633518489,-100606.61,-170919.89,-6148.763,-20414.715,-4044.8406,-44260.582,-12154.419,32441.244
952324.0673518445,-100607.75,-170918.95,-6153.768,-20417.562,-4049.927,-44259.32,-12158.8545,32438.479
952324.0713518402,-100603.92,-170913.58,-6167.1143,-20415.895,-4070.8823,-44254.52,-12159.994,32406.047
952324.0753518358,-100605.23,-170915.0,-6173.584,-20409.344,-4079.7527,-44251.59,-12159.79,32381.918
952324.0793518315,-100610.72,-170917.44,-6161.54,-20408.611,-4051.5952,-44256.836,-12163.818,32395.305
952324.0833518271,-100611.05,-170916.42,-6144.735,-20413.371,-4035.5632,-44261.72,-12164.348,32429.078
952324.0873518228,-100605.23,-170916.27,-6138.55,-20418.66,-4043.5386,-44258.465,-12159.343,32443.564
952324.0913518184,-100598.02,-170910.77,-6156.942,-20416.342,-4050.0083,-44250.977,-12149.17,32426.678
952324.0953518141,-100597.375,-170907.47,-6167.1553,-20408.244,-4044.922,-44249.797,-12143.637,32412.191
952324.0993518097,-100596.68,-170910.73,-6154.948,-20405.518,-4036.2551,-44255.74,-12140.747,32433.107
952324.1033518054,-100591.11,-170912.77,-6140.7065,-20410.197,-4033.4067,-44261.027,-12139.526,32467.896
952324.107351801,-100589.69,-170915.58,-6146.159,-20414.633,-4044.9626,-44259.117,-12135.661,32481.121
952324.1113517965,-100591.72,-170919.31,-6165.324,-20414.592,-4047.9739,-44251.465,-12128.744,32463.705
952324.1153517922,-100592.94,-170919.48,-6170.8174,-20409.506,-4049.3572,-44249.637,-12124.594,32451.213
952324.1193517878,-100593.71,-170914.97,-6156.291,-20409.383,-4039.4695,-44257.45,-12126.018,32466.758
952324.1233517835,-100595.46,-170916.14,-6138.2246,-20412.436,-4038.2488,-44264.363,-12131.918,32493.41
952324.1273517791,-100597.45,-170921.72,-6143.148,-20417.562,-4053.3855,-44263.594,-12133.708,32497.764
952324.1313517748,-100594.12,-170920.98,-6161.255,-20414.754,-4063.8022,-44256.023,-12127.89,32474.0
952324.1353517704,-100594.37,-170918.88,-6166.0566,-20409.832,-4044.1897,-44254.844,-12129.395,32452.842
952324.1393517661,-100597.414,-170920.7,-6150.35,-20408.082,-4038.0046,-44261.23,-12137.451,32459.84
952324.1433517617,-100594.77,-170919.97,-6135.8237,-20413.9,-4035.889,-44268.23,-12145.793,32475.424
952324.1473517574,-100587.94,-170914.31,-6140.869,-20416.83,-4034.302,-44266.848,-12150.269,32473.186
952324.151351753,-100594.89,-170922.53,-6164.388,-20417.645,-4054.3215,-44259.645,-12146.811,32441.977
952324.1553517487,-100600.836,-170927.83,-6177.7344,-20413.25,-4064.1685,-44257.69,-12146.647,32418.215
952324.1593517443,-100598.39,-170924.64,-6166.219,-20411.621,-4037.964,-44263.594,-12151.449,32430.99
952324.16335174,-100597.414,-170922.48,-6157.4707,-20415.895,-4024.984,-44267.824,-12152.954,32459.596
952324.1673517356,-100603.11,-170926.28,-6168.335,-20423.666,-4041.7483,-44264.285,-12149.496,32464.56
952324.1713517313,-100613.08,-170930.34,-6186.483,-20424.072,-4037.5571,-44256.188,-12143.433,32434.938
952324.1753517268,-100616.01,-170930.19,-6186.2793,-20419.719,-4034.302,-44252.402,-12142.619,32408.938
952324.1793517225,-100609.74,-170930.88,-6174.642,-20418.295,-4031.2095,-44258.992,-12144.45,32422.121
952324.1833517181,-100601.69,-170929.81,-6159.912,-20424.072,-4033.651,-44264.812,-12144.043,32451.01
952324.1873517138,-100605.516,-170933.11,-6164.0625,-20428.549,-4057.5767,-44262.37,-12140.381,32456.34
952324.1913517094,-100613.125,-170936.73,-6190.674,-20429.607,-4055.5015,-44255.168,-12133.83,32435.629
952324.1953517051,-100619.266,-170942.67,-6201.986,-20426.922,-4049.4387,-44254.926,-12134.399,32420.695
952324.1993517007,-100614.914,-170943.94,-6185.14,-20423.543,-4042.155,-44259.2,-12134.481,32437.502
952324.2033516964,-100614.83,-170948.4,-6155.721,-20427.531,-4036.4993,-44265.504,-12136.923,32474.285
952324.207351692,-100610.92,-170944.75,-6157.1045,-20433.025,-4040.1206,-44263.105,-12132.406,32494.549
952324.2113516877,-100605.836,-170934.45,-6172.933,-20431.316,-4047.0786,-44256.023,-12124.472,32472.332
952324.2153516833,-100599.0,-170921.11,-6180.705,-20424.357,-4035.075,-44256.918,-12123.291,32454.875
952324.219351679,-100599.2,-170919.28,-6172.8516,-20423.951,-4023.1936,-44264.934,-12128.337,32470.582
952324.2233516746,-100605.555,-170925.98,-6154.419,-20427.49,-4026.0825,-44269.168,-12130.697,32498.414
952324.2273516703,-100613.81,-170933.52,-6158.6104,-20432.373,-4032.593,-44265.87,-12128.744,32505.332
952324.2313516659,-100602.99,-170930.14,-6174.764,-20433.025,-4040.202,-44259.402,-12127.523,32474.406
952324.2353516616,-100589.44,-170920.7,-6177.165,-20428.06,-4045.1663,-44259.97,-12129.477,32446.941
952324.2393516571,-100590.3,-170921.72,-6165.202,-20424.846,-4034.3425,-44266.113,-12134.726,32456.748
952324.2433516528,-100597.78,-170931.97,-6153.4424,-20427.734,-4032.3489,-44270.1,-12140.381,32479.86
952324.2473516484,-100602.26,-170936.48,-6166.992,-20435.955,-4039.7952,-44268.72,-12141.317,32480.998
952324.251351644,-100601.85,-170932.58,-6186.483,-20434.123,-4044.6372,-44262.25,-12135.864,32454.021
952324.2553516397,-100599.86,-170922.4,-6194.255,-20428.508,-4039.022,-44260.5,-12132.8125,32433.025
952324.2593516354,-100596.4,-170916.62,-6178.06,-20425.66,-4022.99,-44267.58,-12136.679,32443.32
952324.263351631,-100595.055,-170924.61,-6159.546,-20429.89,-4017.2122,-44273.52,-12139.934,32469.932
952324.2673516267,-100595.5,-170932.17,-6163.9,-20436.32,-4020.8743,-44270.836,-12140.788,32470.867
952324.2713516223,-100600.67,-170937.88,-6182.4546,-20435.832,-4011.841,-44263.633,-12138.632,32444.621
952324.275351618,-100603.516,-170932.78,-6192.79,-20432.008,-3997.4365,-44262.453,-12140.463,32421.633
952324.2793516136,-100606.98,-170928.55,-6186.198,-20431.234,-3990.153,-44269.125,-12146.525,32427.492
952324.2833516093,-100617.92,-170939.58,-6173.055,-20436.727,-3995.9312,-44274.05,-12151.327,32448.162
952324.2873516049,-100611.01,-170942.83,-6171.753,-20440.797,-4002.4417,-44273.805,-12149.292,32447.918
952324.2913516006,-100597.414,-170933.97,-6180.542,-20438.559,-4005.2085,-44269.246,-12145.508,32419.354
952324.2953515962,-100599.04,-170931.28,-6184.9365,-20430.664,-3996.704,-44267.133,-12147.014,32400.84
952324.2993515918,-100604.21,-170934.33,-6174.0723,-20430.014,-3985.5552,-44272.504,-12148.112,32413.453
952324.3033515875,-100607.875,-170942.55,-6168.091,-20436.768,-3983.602,-44276.777,-12148.071,32442.588
952324.307351583,-100614.1,-170948.58,-6178.833,-20444.377,-3987.7117,-44275.23,-12142.578,32452.23
952324.3113515787,-100611.33,-170942.8,-6195.801,-20443.482,-3999.5117,-44268.395,-12136.475,32436.973
952324.3153515743,-100602.87,-170935.72,-6197.2656,-20435.426,-3997.1519,-44266.24,-12130.778,32426.922
952324.31935157,-100599.41,-170934.33,-6182.0884,-20432.902,-3989.5835,-44272.016,-12126.669,32448.568
952324.3233515656,-100604.01,-170944.9,-6160.034,-20438.477,-3977.1323,-44275.8,-12124.919,32481.691
952324.3273515613,-100607.99,-170950.4,-6157.186,-20443.604,-3975.2197,-44272.83,-12119.589,32492.19
952324.3313515569,-100608.04,-170940.11,-6181.3154,-20444.092,-3988.8916,-44268.637,-12118.042,32465.21
952324.3353515526,-100606.33,-170927.5,-6199.4224,-20438.965,-3985.067,-44269.043,-12121.054,32441.773
952324.3393515482,-100609.42,-170930.8,-6188.1104,-20435.67,-3976.8066,-44272.95,-12120.239,32460.898
952324.3433515439,-100608.36,-170937.39,-6168.62,-20441.365,-3975.7488,-44278.77,-12121.216,32491.213
952324.3473515395,-100594.08,-170932.02,-6171.9565,-20444.418,-3981.6082,-44276.004,-12121.582,32497.111
952324.3513515352,-100595.7,-170935.8,-6189.209,-20443.889,-3989.5427,-44269.37,-12116.984,32465.822
952324.3553515308,-100608.6,-170944.88,-6199.504,-20438.64,-3986.084,-44268.27,-12114.34,32443.97
952324.3593515265,-100609.945,-170941.1,-6189.006,-20438.03,-3976.7253,-44275.027,-12119.955,32455.445
952324.3633515221,-100609.22,-170938.0,-6178.1006,-20444.988,-3978.5564,-44280.52,-12122.478,32484.498
952324.3673515178,-100611.21,-170936.77,-6181.6,-20448.934,-3984.8633,-44279.055,-12113.811,32492.27
952324.3713515133,-100606.98,-170932.34,-6198.6084,-20446.615,-3982.2593,-44274.008,-12118.083,32466.39
952324.375351509,-100599.66,-170922.86,-6208.13,-20439.738,-3970.866,-44274.336,-12124.594,32446.33
952324.3793515046,-100599.164,-170921.11,-6194.1733,-20437.988,-3961.3037,-44282.105,-12132.243,32452.434
952324.3833515003,-100605.11,-170926.36,-6179.5654,-20443.807,-3958.659,-44286.215,-12138.184,32475.344
952324.3873514959,-100613.484,-170938.16,-6185.547,-20453.125,-3968.2617,-44283.613,-12142.863,32477.256
952324.3913514916,-100599.61,-170931.69,-6195.638,-20449.342,-3977.702,-44276.816,-12141.928,32447.877
952324.3953514872,-100594.57,-170918.83,-6202.4336,-20443.482,-3974.1619,-44275.39,-12138.062,32424.562
952324.3993514829,-100600.51,-170920.5,-6190.0635,-20446.777,-3966.0645,-44280.316,-12133.708,32437.42
952324.4033514785,-100607.14,-170930.39,-6171.224,-20450.318,-3964.5996,-44283.53,-12133.708,32462.322
952324.4073514742,-100616.62,-170944.22,-6179.3623,-20456.746,-3976.9695,-44278.81,-12128.378,32463.137
952324.4113514698,-100617.27,-170937.22,-6201.335,-20458.13,-3980.4282,-44272.3,-12118.612,32436.037
952324.4153514655,-100610.44,-170922.66,-6208.9033,-20453.166,-3975.6675,-44271.2,-12110.759,32417.318
952324.4193514611,-100617.64,-170930.55,-6196.8994,-20452.271,-3975.586,-44275.676,-12108.806,32431.602
952324.4233514568,-100630.13,-170946.83,-6187.622,-20455.281,-3976.9287,-44278.81,-12101.034,32464.275
952324.4273514524,-100620.81,-170948.66,-6195.272,-20461.102,-3978.6785,-44279.176,-12098.227,32471.762
952324.4313514481,-100606.37,-170932.3,-6212.8096,-20457.316,-3979.655,-44272.91,-12095.988,32453.492
952324.4353514437,-100611.45,-170929.94,-6221.6797,-20455.404,-3975.708,-44271.2,-12098.471,32438.396
952324.4393514392,-100615.805,-170938.48,-6208.822,-20455.566,-3970.8252,-44277.832,-12102.987,32452.842
952324.4433514349,-100618.66,-170941.66,-6195.394,-20458.008,-3981.2827,-44283.734,-12107.788,32482.26
952324.4473514305,-100619.55,-170936.94,-6197.469,-20463.746,-3993.4082,-44283.043,-12112.305,32486.004
952324.4513514262,-100614.14,-170927.0,-6210.5713,-20463.299,-3992.0654,-44278.117,-12112.265,32460.857
952324.4553514218,-100611.45,-170923.1,-6210.775,-20455.893,-3980.062,-44276.367,-12111.735,32434.45
952324.4593514175,-100614.18,-170926.28,-6198.12,-20454.387,-3976.8474,-44282.88,-12118.815,32434.896
952324.4633514131,-100616.984,-170930.83,-6184.123,-20458.62,-3977.1323,-44289.715,-12127.238,32462.688
952324.4673514088,-100616.13,-170931.36,-6187.0933,-20465.17,-3984.9448,-44289.31,-12133.952,32469.85
952324.4713514044,-100615.484,-170932.1,-6205.8516,-20463.338,-3986.0435,-44284.305,-12138.632,32442.547
952324.4753514001,-100614.18,-170934.1,-6215.129,-20457.643,-3982.8289,-44284.75,-12143.148,32424.357
952324.4793513957,-100610.4,-170926.16,-6200.1143,-20455.975,-3963.2976,-44291.87,-12147.665,32439.902
952324.4833513914,-100609.055,-170925.02,-6187.907,-20459.352,-3950.8872,-44296.145,-12146.24,32469.809
952324.487351387,-100611.58,-170935.11,-6188.6396,-20465.455,-3961.019,-44294.07,-12146.444,32476.076
952324.4913513827,-100614.1,-170936.53,-6205.6074,-20465.984,-3972.575,-44286.258,-12136.19,32452.963
952324.4953513783,-100615.805,-170933.28,-6214.559,-20459.637,-3976.8066,-44283.043,-12126.465,32435.14
952324.499351374,-100615.32,-170933.39,-6201.294,-20461.182,-3968.5466,-44290.0,-12123.901,32448.65
952324.5033513695,-100614.95,-170936.94,-6193.7256,-20468.1,-3965.3728,-44295.74,-12125.937,32469.729
952324.5073513652,-100616.5,-170942.67,-6200.521,-20472.453,-3979.5737,-44292.605,-12123.576,32470.744
952324.5113513608,-100619.67,-170946.33,-6223.3887,-20473.43,-3983.3984,-44283.57,-12116.252,32447.227
952324.5153513565,-100622.93,-170952.11,-6231.8115,-20469.197,-3982.1777,-44282.96,-12112.143,32429.81
952324.5193513521,-100623.336,-170950.56,-6217.326,-20466.064,-3970.744,-44289.105,-12106.283,32443.605
952324.5233513478,-100625.05,-170946.58,-6203.003,-20469.523,-3942.5457,-44293.742,-12108.236,32471.762
952324.5273513434,-100621.3,-170943.12,-6199.585,-20473.674,-3954.6306,-44291.75,-12108.032,32479.86
952324.5313513391,-100613.65,-170932.34,-6216.5938,-20469.727,-3956.0955,-44284.668,-12103.923,32460.816
952324.5353513347,-100611.734,-170926.56,-6223.3076,-20465.902,-3960.0017,-44283.734,-12100.993,32446.9
952324.5393513304,-100615.32,-170931.84,-6205.4854,-20467.855,-3959.5947,-44291.832,-12103.435,32463.705
952324.543351326,-100616.83,-170936.56,-6194.092,-20471.273,-3962.4023,-44296.797,-12105.185,32491.416
952324.5473513217,-100616.62,-170941.05,-6203.7764,-20479.33,-3967.326,-44294.273,-12101.685,32500.814
952324.5513513173,-100616.7,-170943.0,-6221.761,-20477.498,-3980.062,-44287.76,-12100.586,32476.686
952324.555351313,-100620.0,-170941.33,-6228.5566,-20473.023,-3975.4639,-44285.973,-12104.98,32452.76
952324.5593513086,-100616.54,-170936.86,-6215.7393,-20471.883,-3968.872,-44293.215,-12111.247,32461.102
952324.5633513043,-100611.29,-170934.1,-6195.3535,-20472.82,-3962.85,-44297.812,-12116.049,32485.719
952324.5673512998,-100613.0,-170940.06,-6196.2485,-20476.562,-3975.9116,-44296.348,-12118.042,32487.51
952324.5713512955,-100617.555,-170941.9,-6219.2383,-20477.092,-3983.8462,-44288.902,-12119.304,32461.672
952324.5753512911,-100621.18,-170937.19,-6230.876,-20473.064,-3979.8584,-44289.105,-12123.901,32443.605
952324.5793512868,-100620.81,-170930.22,-6218.872,-20471.844,-3972.0054,-44295.613,-12127.441,32465.373
952324.5833512824,-100624.15,-170934.4,-6203.003,-20478.68,-3969.6453,-44302.45,-12129.395,32495.566
952324.587351278,-100624.02,-170941.73,-6209.88,-20484.945,-3980.1433,-44300.78,-12124.105,32505.453
952324.5913512737,-100622.69,-170945.0,-6229.289,-20482.219,-3983.4392,-44293.094,-12111.491,32489.992
952324.5953512694,-100625.05,-170943.97,-6235.189,-20477.742,-3969.6045,-44289.715,-12099.813,32476.809
952324.599351265,-100625.45,-170945.52,-6220.378,-20478.15,-3960.9783,-44295.332,-12095.093,32489.584
952324.6033512607,-100621.14,-170945.23,-6206.909,-20482.666,-3967.163,-44300.863,-12094.564,32515.586
952324.6073512563,-100624.39,-170952.39,-6214.6406,-20490.764,-3981.9744,-44298.992,-12090.617,32518.637
952324.611351252,-100636.97,-170966.48,-6236.4097,-20494.02,-3991.8213,-44292.277,-12084.106,32492.84
952324.6153512476,-100641.36,-170958.55,-6244.222,-20488.648,-3983.1543,-44290.324,-12082.194,32470.297
952324.6193512433,-100642.54,-170957.36,-6232.585,-20489.787,-3983.2358,-44296.836,-12086.426,32472.861
952324.6233512389,-100646.53,-170971.0,-6217.733,-20495.932,-3986.5723,-44302.004,-12089.071,32494.426
952324.6273512346,-100641.766,-170973.77,-6222.29,-20497.926,-3993.2048,-44301.15,-12085.571,32503.908
952324.6313512302,-100632.49,-170967.61,-6237.0605,-20495.402,-4000.0408,-44295.41,-12085.571,32479.697
952324.6353512257,-100633.71,-170964.94,-6250.0815,-20490.723,-3996.6228,-44296.43,-12087.118,32455.812
952324.6393512214,-100635.91,-170965.38,-6244.507,-20491.578,-3993.164,-44305.055,-12094.279,32462.648
952324.643351217,-100635.055,-170963.9,-6229.126,-20493.938,-3970.337,-44310.67,-12100.871,32485.557
952324.6473512127,-100639.33,-170970.3,-6232.666,-20498.006,-3978.2715,-44308.15,-12104.533,32484.092
952324.6513512083,-100634.73,-170970.95,-6247.7217,-20495.809,-3987.793,-44302.043,-12108.603,32446.86
952324.655351204,-100630.78,-170961.03,-6257.9346,-20489.99,-3978.7598,-44303.062,-12115.642,32419.475
952324.6593511996,-100637.58,-170966.69,-6245.931,-20492.799,-3985.3923,-44312.785,-12126.587,32417.93
952324.6633511953,-100643.805,-170977.14,-6233.5205,-20497.803,-3989.0952,-44319.746,-12132.8125,32442.994
952324.6673511909,-100646.85,-170979.1,-6235.3516,-20501.059,-3977.539,-44316.45,-12129.477,32452.068
952324.6713511866,-100645.8,-170966.48,-6259.1963,-20499.92,-3979.4517,-44310.184,-12124.309,32435.832
952324.6753511822,-100643.4,-170957.2,-6265.2183,-20493.205,-3976.7253,-44309.938,-12127.319,32424.236
952324.6793511779,-100637.58,-170955.89,-6249.0234,-20491.414,-3966.3494,-44316.69,-12130.981,32444.215
952324.6833511735,-100634.195,-170958.67,-6234.782,-20498.291,-3969.8894,-44323.773,-12133.545,32475.75
952324.6873511692,-100636.11,-170963.42,-6239.5835,-20503.5,-3973.1853,-44321.902,-12127.238,32488.078
952324.6913511648,-100640.055,-170965.86,-6258.9927,-20504.436,-3981.242,-44313.355,-12114.95,32471.355
952324.6953511605,-100644.53,-170967.17,-6272.054,-20500.285,-3979.777,-44310.793,-12103.3125,32460.246
952324.699351156,-100641.484,-170967.05,-6256.6733,-20498.291,-3975.8708,-44316.45,-12097.656,32474.447
952324.7033511517,-100639.695,-170968.31,-6239.502,-20501.385,-3982.1777,-44318.77,-12091.35,32503.826
952324.7073511473,-100646.53,-170977.5,-6244.507,-20508.139,-3992.5945,-44314.332,-12084.839,32507.082
952324.711351143,-100649.46,-170980.6,-6262.0444,-20510.092,-3997.7622,-44308.637,-12077.597,32479.533
952324.7153511386,-100645.02,-170972.45,-6270.915,-20504.598,-3997.396,-44307.742,-12075.033,32461.305
952324.7193511343,-100646.77,-170976.4,-6256.3887,-20504.395,-3987.9966,-44311.77,-12077.8,32466.35
952324.7233511299,-100652.14,-170985.69,-6244.385,-20510.865,-3984.8228,-44315.633,-12079.062,32486.41
952324.7273511256,-100652.875,-170991.75,-6247.5586,-20513.998,-4000.1223,-44313.56,-12081.543,32486.004
952324.7313511212,-100647.016,-170983.97,-6260.2134,-20512.371,-3992.2283,-44308.105,-12082.4795,32458.742
952324.7353511169,-100643.805,-170975.92,-6267.375,-20507.895,-3992.147,-44307.742,-12085.815,32433.066
952324.7393511125,-100643.15,-170972.22,-6251.506,-20506.756,-3987.4268,-44314.414,-12093.181,32437.502
952324.7433511082,-100646.2,-170974.86,-6236.6943,-20513.348,-3989.7056,-44320.723,-12103.598,32451.986
952324.7473511038,-100652.23,-170986.7,-6244.0596,-20518.148,-3992.391,-44319.867,-12108.643,32445.803
952324.7513510995,-100657.96,-170989.27,-6262.2886,-20516.113,-3984.7412,-44313.273,-12108.154,32416.79
952324.7553510951,-100659.43,-170982.67,-6266.032,-20512.33,-3965.5762,-44313.805,-12109.457,32398.602
952324.7593510908,-100652.23,-170977.75,-6257.365,-20511.842,-3977.9053,-44320.355,-12112.102,32414.47
952324.7633510863,-100644.49,-170971.72,-6239.3394,-20514.486,-3980.2654,-44326.66,-12116.455,32450.562
952324.767351082,-100640.625,-170973.23,-6237.0605,-20519.166,-3985.5957,-44325.117,-12112.915,32468.752
952324.7713510776,-100645.96,-170976.08,-6259.6436,-20519.613,-3989.746,-44316.652,-12106.079,32453.045
952324.7753510732,-100648.69,-170972.1,-6272.1763,-20513.184,-3980.2654,-44314.21,-12102.946,32445.72
952324.7793510689,-100645.836,-170972.55,-6261.6377,-20511.76,-3981.2012,-44321.98,-12105.998,32464.846
952324.7833510645,-100646.98,-170975.52,-6245.687,-20517.457,-3979.8584,-44328.29,-12109.05,32495.2
952324.7873510602,-100656.375,-170981.12,-6252.279,-20524.129,-3965.21,-44324.22,-12104.818,32503.988
952324.7913510558,-100658.49,-170982.62,-6273.3564,-20522.908,-3972.7783,-44316.69,-12100.18,32478.477
952324.7953510515,-100650.59,-170974.3,-6275.3096,-20517.01,-3970.4185,-44315.633,-12097.819,32458.416
952324.7993510471,-100647.664,-170969.77,-6260.376,-20514.12,-3968.2212,-44319.906,-12095.093,32464.113
952324.8033510428,-100653.41,-170983.64,-6246.582,-20522.95,-3971.4355,-44323.934,-12090.739,32486.736
952324.8073510384,-100666.67,-171002.56,-6248.9424,-20530.438,-3985.6365,-44320.234,-12083.008,32489.055
952324.8113510341,-100668.7,-170991.02,-6269.206,-20529.908,-3995.1987,-44314.656,-12080.485,32458.01
952324.8153510297,-100660.04,-170974.98,-6273.763,-20526.734,-3983.8054,-44318.2,-12084.677,32429.81
952324.8193510254,-100664.63,-170983.69,-6264.8115,-20527.629,-3978.353,-44325.44,-12089.519,32429.12
952324.823351021,-100673.18,-170993.53,-6256.5107,-20533.65,-3981.5674,-44331.098,-12092.733,32445.639
952324.8273510167,-100682.05,-171000.58,-6258.464,-20541.424,-3992.391,-44328.98,-12092.041,32444.297
952324.8313510122,-100684.05,-170999.27,-6272.258,-20541.668,-3982.7476,-44323.934,-12091.513,32414.348
952324.8353510079,-100682.62,-170995.48,-6279.582,-20536.541,-3974.4468,-44324.42,-12094.971,32390.504
952324.8393510035,-100683.68,-170995.66,-6269.4907,-20533.326,-3974.2026,-44331.625,-12102.499,32393.107
952324.8433509992,-100682.664,-170999.11,-6260.254,-20540.203,-3970.1743,-44339.234,-12111.003,32412.15
952324.8473509948,-100682.945,-170998.78,-6257.6094,-20544.922,-3983.9275,-44337.973,-12112.102,32419.475
952324.8513509905,-100687.055,-170996.8,-6275.3906,-20544.842,-3985.1482,-44331.746,-12107.219,32404.299
952324.8553509861,-100684.45,-170993.73,-6287.842,-20542.156,-3975.9521,-44334.637,-12107.626,32395.916
952324.8593509818,-100682.5,-170997.2,-6272.38,-20541.219,-3970.6218,-44342.49,-12112.509,32414.389
952324.8633509774,-100686.81,-171003.47,-6257.365,-20547.975,-3978.5972,-44350.06,-12115.805,32443.238
952324.8673509731,-100685.47,-170996.34,-6257.7314,-20551.922,-3971.2322,-44351.156,-12116.049,32460.734
952324.8713509687,-100687.3,-170996.67,-6278.6865,-20552.205,-3936.483,-44346.68,-12112.183,32450.156
952324.8753509644,-100695.27,-170998.14,-6291.301,-20549.48,-3926.4324,-44345.34,-12107.992,32439.332
952324.87935096,-100693.85,-171001.22,-6275.0654,-20548.543,-3950.0732,-44347.78,-12105.185,32454.957
952324.8833509557,-100685.63,-171003.14,-6262.2886,-20552.246,-3965.4136,-44352.01,-12104.492,32484.457
952324.8873509513,-100687.95,-171004.2,-6273.763,-20557.414,-3978.8413,-44349.49,-12099.976,32494.549
952324.891350947,-100696.74,-171011.44,-6295.207,-20557.7,-3994.0186,-44340.742,-12090.698,32471.111
952324.8953509425,-100703.49,-171018.28,-6296.224,-20552.41,-3996.0532,-44337.812,-12085.327,32453.898
952324.8993509382,-100702.68,-171015.88,-6279.948,-20549.154,-3964.7217,-44343.71,-12085.9375,32464.52
952324.9033509338,-100702.35,-171018.28,-6266.4795,-20552.166,-3965.7798,-44348.96,-12086.264,32484.701
952324.9073509295,-100706.625,-171024.02,-6270.996,-20554.646,-3989.9902,-44346.68,-12083.7,32480.795
952324.9113509251,-100700.16,-171019.73,-6287.679,-20554.688,-3995.158,-44339.52,-12081.259,32450.074
952324.9153509208,-100692.95,-171015.19,-6297.8926,-20551.514,-3988.2812,-44338.664,-12083.374,32418.295
952324.9193509164,-100695.766,-171016.94,-6288.33,-20549.56,-3981.893,-44345.176,-12088.705,32419.76
952324.923350912,-100697.19,-171019.9,-6270.0195,-20551.514,-3984.8633,-44350.06,-12092.855,32438.193
952324.9273509077,-100696.78,-171023.84,-6273.0713,-20556.682,-3992.8794,-44346.926,-12091.309,32438.07
952324.9313509034,-100695.48,-171016.28,-6292.1553,-20556.682,-3997.9248,-44339.766,-12089.233,32406.984
952324.935350899,-100697.88,-171012.62,-6298.706,-20550.945,-3993.571,-44339.03,-12090.495,32381.105
952324.9393508947,-100702.766,-171021.73,-6289.8765,-20550.416,-3989.2986,-44346.113,-12095.744,32384.807
952324.9433508903,-100704.63,-171033.17,-6276.2046,-20554.646,-4000.692,-44350.426,-12098.959,32410.197
952324.947350886,-100699.95,-171032.77,-6277.2627,-20556.805,-4005.6155,-44349.61,-12100.302,32419.027
952324.9513508816,-100694.74,-171023.12,-6295.6543,-20554.688,-3994.3035,-44344.32,-12094.6045,32403.973
952324.9553508773,-100699.875,-171025.39,-6306.3154,-20549.764,-3986.6538,-44342.938,-12086.63,32400.27
952324.9593508729,-100702.766,-171028.12,-6295.6953,-20549.48,-3985.3923,-44348.105,-12086.02,32421.836
952324.9633508684,-100689.3,-171024.25,-6277.507,-20549.764,-3985.433,-44353.68,-12089.519,32460.816
952324.9673508641,-100680.09,-171019.98,-6282.878,-20552.938,-3986.2876,-44352.703,-12090.739,32476.115
952324.9713508597,-100684.49,-171016.61,-6301.7173,-20551.717,-3984.3345,-44344.363,-12086.792,32464.152
952324.9753508554,-100689.62,-171018.92,-6309.001,-20550.293,-3981.486,-44341.473,-12083.74,32452.516
952324.979350851,-100695.234,-171021.98,-6302.246,-20549.52,-3981.893,-44344.688,-12080.363,32468.914
952324.9833508467,-100692.71,-171022.39,-6287.3535,-20551.31,-3982.2185,-44348.023,-12078.776,32497.926
952324.9873508423,-100683.555,-171018.8,-6285.034,-20553.834,-3983.6833,-44343.344,-12074.179,32506.838
952324.991350838,-100684.37,-171021.25,-6295.085,-20552.49,-3982.4219,-44335.004,-12063.681,32485.516
952324.9953508336,-100691.2,-171026.17,-6299.1133,-20548.992,-3982.4626,-44335.41,-12058.065,32468.467
952324.9993508293,-100691.0,-171018.92,-6289.917,-20544.88,-3973.9585,-44339.6,-12058.391,32473.268
952325.0033508249,-100690.836,-171020.19,-6278.524,-20550.578,-3975.83,-44345.176,-12060.913,32487.225
952325.0073508206,-100694.46,-171025.16,-6284.0986,-20557.17,-3981.1199,-44340.7,-12057.536,32486.777
952325.0113508162,-100693.81,-171028.0,-6299.6016,-20557.537,-3986.491,-44334.395,-12057.658,32450.807
952325.0153508119,-100691.57,-171024.86,-6304.6875,-20554.525,-3985.067,-44335.652,-12064.331,32421.104
952325.0193508075,-100692.75,-171026.4,-6295.8174,-20553.875,-3980.5503,-44341.88,-12069.296,32421.633
952325.0233508032,-100701.09,-171039.92,-6281.25,-20559.814,-3978.1902,-44345.99,-12067.383,32437.908
952325.0273507987,-100704.96,-171046.23,-6287.313,-20565.145,-3986.8572,-44342.734,-12062.175,32437.867
952325.0313507944,-100708.414,-171049.23,-6307.4546,-20564.006,-4000.2444,-44337.445,-12064.25,32412.15
952325.03535079,-100703.984,-171038.17,-6308.4717,-20559.285,-3990.9263,-44335.574,-12065.715,32393.107
952325.0393507857,-100697.96,-171026.86,-6297.8516,-20556.682,-3976.5625,-44341.31,-12069.743,32396.525
952325.0433507813,-100699.47,-171031.22,-6285.482,-20560.914,-3970.0115,-44345.785,-12071.086,32421.145
952325.047350777,-100702.88,-171041.27,-6283.8545,-20564.9,-3977.1323,-44342.367,-12066.813,32425.66
952325.0513507726,-100705.445,-171041.62,-6305.0947,-20565.797,-3982.1777,-44336.793,-12062.134,32408.896
952325.0553507683,-100705.94,-171035.0,-6312.256,-20561.809,-3982.0151,-44337.117,-12062.378,32396.69
952325.0593507639,-100702.805,-171031.7,-6298.381,-20560.791,-3972.046,-44343.14,-12066.65,32412.273
952325.0633507596,-100695.48,-171029.83,-6289.6323,-20563.518,-3970.8252,-44350.26,-12069.58,32438.803
952325.0673507552,-100683.07,-171020.72,-6285.848,-20563.844,-3972.575,-44348.39,-12073.364,32456.584
952325.0713507509,-100681.56,-171018.64,-6301.229,-20561.158,-3974.691,-44343.875,-12073.364,32450.48
952325.0753507465,-100683.59,-171018.72,-6315.1855,-20557.008,-3959.5947,-44343.547,-12067.871,32449.992
952325.0793507422,-100685.266,-171014.08,-6305.3794,-20556.805,-3952.2705,-44348.918,-12064.901,32472.861
952325.0833507378,-100692.305,-171016.2,-6293.6606,-20563.111,-3950.0732,-44352.867,-12061.6455,32504.72
952325.0873507335,-100693.85,-171019.98,-6291.545,-20567.791,-3948.8933,-44349.0,-12054.118,32515.422
952325.091350729,-100686.445,-171016.2,-6303.182,-20567.139,-3949.8699,-44342.695,-12049.316,32494.426
952325.0953507246,-100683.76,-171015.52,-6312.7036,-20562.826,-3946.289,-44343.344,-12048.218,32477.541
952325.0993507203,-100685.836,-171016.4,-6299.398,-20561.28,-3935.5469,-44349.367,-12049.724,32483.684
952325.103350716,-100685.43,-171019.45,-6283.7324,-20560.791,-3930.7456,-44353.312,-12049.235,32500.082
952325.1073507116,-100686.93,-171022.27,-6288.9404,-20563.314,-3945.4753,-44351.562,-12047.812,32497.6
952325.1113507072,-100686.445,-171018.52,-6306.844,-20563.152,-3954.5085,-44344.24,-12045.736,32468.629
952325.1153507029,-100689.86,-171025.56,-6317.546,-20561.238,-3944.458,-44341.797,-12043.01,32446.738
952325.1193506985,-100696.91,-171035.16,-6306.844,-20562.582,-3944.2546,-44344.89,-12043.823,32448.488
952325.1233506942,-100690.35,-171029.1,-6297.6074,-20564.82,-3949.7886,-44349.61,-12048.95,32452.883
952325.1273506898,-100686.08,-171030.72,-6304.3623,-20568.768,-3954.5493,-44347.008,-12050.009,32445.03
952325.1313506855,-100693.445,-171034.34,-6318.6035,-20566.488,-3953.532,-44338.83,-12043.01,32418.662
952325.1353506811,-100689.09,-171025.64,-6320.5566,-20559.246,-3944.336,-44339.844,-12048.625,32393.352
952325.1393506768,-100679.89,-171018.52,-6304.9316,-20554.607,-3938.1511,-44343.14,-12053.833,32393.148
952325.1433506724,-100681.03,-171022.9,-6291.626,-20557.252,-3937.8257,-44345.906,-12055.217,32405.844
952325.1473506681,-100687.7,-171031.98,-6295.0034,-20565.47,-3945.5974,-44342.125,-12053.427,32404.746
952325.1513506637,-100694.336,-171040.98,-6314.9414,-20566.285,-3954.834,-44333.945,-12048.544,32381.959
952325.1553506594,-100687.26,-171030.89,-6318.8477,-20559.246,-3943.5222,-44333.742,-12047.119,32367.799
952325.1593506549,-100683.234,-171020.27,-6309.367,-20556.52,-3940.2263,-44337.117,-12044.8,32388.633
952325.1633506506,-100683.07,-171020.67,-6297.4854,-20560.14,-3940.0635,-44340.945,-12041.382,32424.807
952325.1673506462,-100675.5,-171017.1,-6296.875,-20561.361,-3941.976,-44336.508,-12031.698,32450.197
952325.1713506419,-100674.97,-171016.61,-6316.2437,-20561.28,-3945.7603,-44329.062,-12017.619,32453.777
952325.1753506375,-100677.375,-171018.64,-6324.626,-20558.309,-3947.225,-44328.453,-12010.946,32459.025
952325.1793506332,-100681.32,-171019.42,-6319.621,-20557.252,-3930.2166,-44335.207,-12012.045,32477.947
952325.1833506288,-100678.63,-171015.06,-6306.478,-20557.74,-3928.955,-44341.51,-12016.032,32504.355
952325.1873506245,-100678.02,-171019.94,-6305.5015,-20562.5,-3938.029,-44338.258,-12010.986,32519.045
952325.1913506201,-100690.76,-171030.56,-6323.6494,-20564.697,-3949.6257,-44328.37,-12003.134,32503.703
952325.1953506158,-100678.59,-171018.11,-6325.399,-20556.926,-3935.018,-44327.15,-11992.31,32488.04
952325.1993506114,-100657.516,-171005.55,-6313.9243,-20552.002,-3917.0737,-44332.848,-11991.943,32494.793
952325.2033506071,-100662.31,-171014.38,-6300.659,-20558.514,-3923.2178,-44336.14,-11998.047,32508.018
952325.2073506027,-100672.24,-171022.5,-6304.891,-20562.988,-3931.7627,-44331.016,-11996.379,32505.656
952325.2113505984,-100677.62,-171023.23,-6323.0796,-20562.135,-3938.4766,-44322.55,-11991.74,32476.848
952325.215350594,-100685.59,-171025.48,-6331.543,-20559.164,-3934.9773,-44321.574,-11992.473,32448.447
952325.2193505897,-100686.445,-171023.44,-6317.627,-20558.635,-3928.4668,-44328.004,-11999.268,32444.418
952325.2233505852,-100681.93,-171018.72,-6302.043,-20561.32,-3920.6543,-44333.863,-12005.453,32459.025
952325.2273505809,-100688.16,-171024.45,-6306.2744,-20566.406,-3934.1228,-44332.52,-12004.477,32453.207
952325.2313505765,-100687.34,-171026.45,-6323.446,-20564.006,-3947.998,-44327.434,-11997.6,32428.875
952325.2353505722,-100678.96,-171026.3,-6325.5615,-20558.229,-3949.5444,-44326.945,-12001.262,32410.117
952325.2393505678,-100682.13,-171030.28,-6313.7207,-20558.553,-3946.7773,-44333.21,-12005.29,32412.07
952325.2433505635,-100686.12,-171030.31,-6302.6123,-20562.826,-3942.749,-44339.316,-12010.742,32427.98
952325.2473505591,-100690.35,-171026.58,-6307.9023,-20567.871,-3943.3188,-44337.16,-12010.132,32424.602
952325.2513505548,-100699.22,-171029.6,-6336.3447,-20569.703,-3951.1313,-44330.28,-12007.202,32396.893
952325.2553505504,-100706.55,-171034.31,-6344.8486,-20567.383,-3948.3237,-44332.234,-12009.277,32378.988
952325.259350546,-100698.65,-171032.56,-6330.3223,-20564.453,-3935.3027,-44341.72,-12016.887,32385.824
952325.2633505417,-100691.66,-171032.39,-6317.7085,-20567.791,-3928.3855,-44345.297,-12021.933,32406.17
952325.2673505374,-100692.51,-171040.2,-6322.469,-20575.604,-3937.0525,-44344.85,-12018.718,32413.494
952325.271350533,-100693.12,-171038.5,-6336.6294,-20571.656,-3940.0635,-44338.746,-12013.347,32399.943
952325.2753505287,-100701.79,-171040.58,-6343.2617,-20569.5,-3938.3545,-44339.234,-12011.76,32388.795
952325.2793505243,-100698.94,-171038.9,-6337.036,-20569.5,-3930.2979,-44345.258,-12013.103,32403.281
952325.28335052,-100682.945,-171029.75,-6322.3066,-20572.469,-3931.5186,-44351.81,-12014.608,32432.21
952325.2873505155,-100680.016,-171025.39,-6321.33,-20576.62,-3940.9587,-44350.098,-12008.952,32444.947
952325.2913505111,-100691.2,-171029.83,-6342.8145,-20577.271,-3943.7664,-44344.035,-11998.251,32435.426
952325.2953505068,-100704.19,-171039.27,-6353.8413,-20579.06,-3934.9773,-44342.816,-11993.9375,32426.719
952325.2993505024,-100709.07,-171051.97,-6346.2324,-20582.479,-3931.234,-44348.31,-11995.605,32438.152
952325.3033504981,-100700.484,-171048.52,-6332.4385,-20583.984,-3933.2683,-44356.57,-12000.285,32460.857
952325.3073504937,-100698.734,-171044.89,-6339.885,-20588.664,-3937.2559,-44356.57,-11998.779,32468.873
952325.3113504894,-100698.53,-171043.75,-6355.2656,-20588.338,-3941.3657,-44349.043,-11995.402,32454.225
952325.315350485,-100695.88,-171039.97,-6350.749,-20585.693,-3936.2793,-44349.45,-11992.961,32443.28
952325.3193504807,-100695.64,-171041.11,-6337.199,-20586.14,-3934.4482,-44355.957,-11997.03,32448.61
952325.3233504763,-100703.66,-171051.19,-6323.69,-20595.012,-3941.162,-44364.016,-12002.849,32457.602
952325.327350472,-100708.375,-171052.45,-6328.003,-20600.424,-3945.9229,-44363.484,-12006.104,32454.55
952325.3313504676,-100707.97,-171048.34,-6350.6675,-20599.773,-3944.2546,-44359.824,-12005.656,32426.88
952325.3353504633,-100712.12,-171050.88,-6358.6836,-20597.291,-3950.9685,-44361.656,-12005.046,32404.746
952325.3393504589,-100723.8,-171061.4,-6349.2026,-20597.9,-3945.4753,-44367.92,-12013.794,32408.693
952325.3433504546,-100725.63,-171067.27,-6334.839,-20602.174,-3943.1152,-44374.96,-12019.816,32425.05
952325.3473504502,-100711.76,-171056.0,-6332.479,-20603.191,-3947.4692,-44374.188,-12022.258,32426.678
952325.3513504459,-100712.85,-171057.34,-6355.1025,-20604.29,-3954.1423,-44370.85,-12022.583,32402.305
952325.3553504414,-100718.8,-171061.45,-6365.194,-20602.092,-3953.3286,-44371.34,-12028.239,32378.744
952325.3593504371,-100724.25,-171068.69,-6358.9277,-20603.11,-3952.5146,-44376.996,-12033.977,32383.383
952325.3633504327,-100729.01,-171075.33,-6353.5566,-20609.578,-3959.5947,-44381.758,-12037.964,32398.764
952325.3673504284,-100731.94,-171075.2,-6357.707,-20615.113,-3961.8735,-44381.145,-12039.267,32404.543
952325.371350424,-100733.4,-171075.48,-6371.745,-20614.014,-3964.6812,-44374.27,-12031.128,32393.148
952325.3753504197,-100733.24,-171072.77,-6375.122,-20611.94,-3953.7354,-44373.21,-12025.839,32392.05
952325.3793504153,-100729.49,-171071.66,-6359.9854,-20608.887,-3940.7146,-44380.047,-12023.356,32417.521
952325.383350411,-100717.94,-171066.05,-6347.9004,-20612.713,-3937.1338,-44384.402,-12021.403,32450.318
952325.3873504066,-100717.164,-171065.77,-6352.9053,-20618.164,-3947.9167,-44380.13,-12012.655,32464.031
952325.3913504023,-100723.11,-171067.31,-6373.1284,-20618.164,-3953.2065,-44372.805,-11999.472,32456.057
952325.3953503979,-100725.79,-171066.17,-6380.9004,-20612.875,-3947.103,-44371.83,-11991.008,32450.521
952325.3993503936,-100725.875,-171068.86,-6367.1064,-20612.834,-3943.4001,-44377.77,-11991.211,32458.62
952325.4033503892,-100727.22,-171069.17,-6351.766,-20619.385,-3948.2017,-44382.285,-11993.9375,32474.123
952325.4073503849,-100728.234,-171072.16,-6357.0967,-20623.82,-3959.188,-44379.64,-11990.927,32472.941
952325.4113503805,-100731.086,-171079.44,-6375.0815,-20624.064,-3966.3494,-44373.457,-11986.735,32448.568
952325.4153503762,-100735.15,-171080.86,-6382.8535,-20622.193,-3961.141,-44372.195,-11986.491,32430.666
952325.4193503717,-100735.15,-171079.27,-6376.18,-20622.803,-3946.167,-44377.688,-11992.065,32437.502
952325.4233503673,-100731.77,-171079.44,-6358.8057,-20626.629,-3944.0513,-44381.96,-11995.199,32454.387
952325.427350363,-100728.31,-171078.05,-6360.433,-20629.762,-3950.8057,-44381.062,-11997.722,32452.842
952325.4313503586,-100734.13,-171078.94,-6378.3774,-20626.994,-3951.1719,-44374.473,-11993.774,32429.566
952325.4353503543,-100738.53,-171077.44,-6380.615,-20622.03,-3952.7588,-44372.723,-11990.805,32411.135
952325.43935035,-100740.03,-171085.9,-6370.4834,-20622.438,-3952.7183,-44379.56,-11997.844,32408.732
952325.4433503456,-100742.31,-171100.55,-6354.126,-20628.012,-3957.357,-44384.156,-12004.15,32420.207
952325.4473503412,-100744.71,-171098.19,-6357.788,-20631.512,-3964.3962,-44382.406,-12007.284,32418.05
952325.4513503369,-100741.83,-171085.58,-6379.232,-20630.127,-3970.6218,-44376.18,-12004.069,32392.945
952325.4553503325,-100748.78,-171090.14,-6389.974,-20625.855,-3965.9424,-44375.49,-12002.116,32381.309
952325.4593503282,-100751.266,-171091.6,-6381.063,-20624.676,-3951.945,-44383.098,-12008.139,32389.975
952325.4633503238,-100738.81,-171084.36,-6362.712,-20627.768,-3962.8906,-44388.31,-12011.841,32416.383
952325.4673503195,-100731.0,-171078.12,-6360.9214,-20630.574,-3964.8845,-44386.19,-12007.324,32432.902
952325.4713503151,-100735.97,-171078.73,-6375.3257,-20631.877,-3960.7341,-44378.38,-11998.088,32424.113
952325.4753503108,-100743.01,-171081.92,-6385.7017,-20630.535,-3961.8735,-44376.832,-11994.507,32416.627
952325.4793503064,-100744.34,-171084.28,-6377.8076,-20629.15,-3956.0142,-44380.332,-11992.676,32429.973
952325.4833503021,-100745.98,-171090.38,-6367.961,-20634.115,-3959.31,-44386.152,-11991.333,32453.574
952325.4873502976,-100745.28,-171090.66,-6368.3677,-20635.05,-3965.4949,-44383.098,-11984.457,32467.938
952325.4913502933,-100746.26,-171091.11,-6382.772,-20635.133,-3954.9155,-44377.117,-11976.889,32456.38
952325.4953502889,-100746.14,-171085.83,-6387.207,-20630.412,-3943.9292,-44376.344,-11970.744,32448.365
952325.4993502846,-100743.86,-171083.95,-6379.11,-20627.361,-3938.8835,-44382.082,-11972.616,32454.957
952325.5033502802,-100741.21,-171088.06,-6367.513,-20631.023,-3945.0684,-44388.875,-11976.685,32469.035
952325.5073502759,-100736.086,-171083.22,-6367.0654,-20634.807,-3952.7183,-44386.07,-11974.325,32468.547
952325.5113502715,-100739.305,-171085.98,-6377.9297,-20636.883,-3953.2878,-44379.64,-11969.157,32446.25
952325.5153502672,-100743.695,-171091.64,-6383.464,-20632.61,-3950.8464,-44378.34,-11967.937,32427.531
952325.5193502628,-100742.44,-171091.64,-6377.1567,-20631.145,-3949.6665,-44383.547,-11973.022,32428.02
952325.5233502585,-100734.13,-171082.97,-6363.851,-20632.324,-3951.9043,-44387.492,-11979.208,32441.408
952325.5273502541,-100736.33,-171086.19,-6370.6465,-20635.621,-3958.5369,-44384.24,-11976.481,32442.14
952325.5313502498,-100741.83,-171095.67,-6394.979,-20637.898,-3967.0005,-44378.46,-11971.843,32421.389
952325.5353502454,-100744.59,-171096.16,-6399.089,-20632.0,-3968.7095,-44377.44,-11969.931,32406.861
952325.5393502411,-100742.76,-171091.48,-6383.301,-20628.418,-3948.527,-44384.2,-11971.721,32417.156
952325.5433502367,-100741.78,-171088.83,-6369.7104,-20630.86,-3936.32,-44388.875,-11972.412,32436.85
952325.5473502324,-100746.75,-171094.4,-6382.324,-20636.678,-3947.3877,-44388.348,-11970.012,32437.053
952325.5513502279,-100746.016,-171094.86,-6398.6816,-20637.574,-3957.9673,-44382.285,-11961.833,32417.4
952325.5553502236,-100742.64,-171088.55,-6395.7114,-20632.324,-3962.8906,-44379.844,-11956.747,32408.773
952325.5593502192,-100747.84,-171087.28,-6390.9507,-20631.389,-3955.119,-44384.605,-11958.578,32418.254
952325.5633502149,-100747.16,-171089.69,-6382.5684,-20633.668,-3953.4912,-44388.31,-11959.799,32436.402
952325.5673502105,-100732.67,-171085.3,-6376.384,-20634.115,-3953.6948,-44388.594,-11960.49,32439.82
952325.5713502062,-100731.24,-171082.84,-6392.8633,-20632.283,-3951.5789,-44382.285,-11954.59,32427.451
952325.5753502018,-100735.03,-171086.75,-6397.1357,-20626.506,-3943.5222,-44381.145,-11950.033,32422.324
952325.5793501975,-100737.19,-171087.0,-6387.6953,-20624.553,-3936.4014,-44387.453,-11946.981,32438.967
952325.5833501931,-100736.984,-171084.16,-6371.5415,-20627.809,-3941.1216,-44392.133,-11948.975,32467.652
952325.5873501888,-100731.24,-171078.42,-6367.391,-20630.574,-3932.9429,-44390.34,-11946.574,32478.03
952325.5913501844,-100734.3,-171080.61,-6385.2134,-20629.68,-3913.9404,-44382.895,-11936.89,32463.543
952325.59535018,-100747.6,-171090.9,-6393.8804,-20628.541,-3933.96,-44381.594,-11931.193,32451.701
952325.5993501757,-100740.97,-171086.27,-6378.2554,-20626.668,-3934.6924,-44386.027,-11930.786,32456.422
952325.6033501714,-100719.484,-171072.97,-6359.945,-20628.621,-3933.4312,-44393.11,-11936.972,32461.143
952325.607350167,-100719.65,-171075.03,-6359.4565,-20630.453,-3941.854,-44390.707,-11937.785,32454.062
952325.6113501627,-100739.71,-171095.62,-6385.2134,-20633.545,-3948.527,-44383.18,-11931.967,32427.695
952325.6153501582,-100751.06,-171101.36,-6391.3574,-20630.982,-3945.8008,-44382.61,-11932.495,32411.541
952325.6193501538,-100739.42,-171084.8,-6373.8203,-20629.354,-3954.3865,-44389.69,-11939.331,32415.895
952325.6233501495,-100735.97,-171082.64,-6361.654,-20632.691,-3965.4136,-44394.656,-11946.371,32429.322
952325.6273501451,-100739.016,-171086.44,-6366.903,-20635.336,-3961.8735,-44392.254,-11945.395,32435.873
952325.6313501408,-100742.44,-171088.06,-6385.742,-20633.83,-3951.5789,-44383.832,-11936.605,32426.393
952325.6353501364,-100743.05,-171090.75,-6394.6943,-20632.08,-3952.9216,-44382.977,-11933.716,32416.83
952325.6393501321,-100748.54,-171091.06,-6385.417,-20629.842,-3944.2954,-44388.184,-11933.716,32422.648
952325.6433501277,-100749.15,-171089.61,-6373.983,-20634.115,-3947.0215,-44393.27,-11934.164,32444.785
952325.6473501234,-100744.76,-171088.1,-6371.745,-20636.23,-3953.2065,-44391.44,-11931.519,32452.395
952325.651350119,-100741.87,-171088.22,-6389.8115,-20634.36,-3953.2065,-44386.273,-11928.02,32433.717
952325.6553501147,-100736.984,-171086.27,-6398.275,-20630.738,-3936.4014,-44388.227,-11928.345,32419.719
952325.6593501103,-100738.37,-171092.1,-6386.5967,-20630.086,-3928.06,-44392.336,-11931.723,32428.59
952325.663350106,-100752.24,-171097.86,-6381.3477,-20636.027,-3924.5605,-44396.65,-11937.134,32442.873
952325.6673501016,-100754.97,-171097.3,-6385.946,-20638.184,-3899.699,-44396.406,-11937.134,32446.127
952325.6713500973,-100744.76,-171089.03,-6395.996,-20636.354,-3911.499,-44391.4,-11935.222,32429.893
952325.6753500929,-100744.51,-171081.62,-6402.954,-20632.08,-3922.8923,-44391.766,-11936.483,32419.191
952325.6793500886,-100732.51,-171076.34,-6396.037,-20627.686,-3917.6433,-44397.664,-11941.569,32430.543
952325.6833500841,-100730.266,-171076.98,-6382.2837,-20631.348,-3920.8984,-44401.695,-11944.458,32451.336
952325.6873500798,-100738.164,-171083.62,-6384.969,-20638.307,-3936.2388,-44399.863,-11941.203,32455.893
952325.6913500754,-100745.69,-171085.17,-6401.7334,-20636.842,-3937.1338,-44394.207,-11933.838,32442.1
952325.6953500711,-100749.555,-171089.16,-6406.0874,-20633.098,-3935.018,-44393.92,-11928.874,32425.66
952325.6993500667,-100750.66,-171094.12,-6391.5205,-20633.992,-3932.8613,-44397.83,-11930.339,32427.531
952325.7033500624,-100749.84,-171094.05,-6377.9297,-20638.062,-3933.0242,-44403.77,-11933.228,32437.46
952325.707350058,-100740.56,-171095.3,-6378.011,-20641.602,-3943.4814,-44399.17,-11931.315,32441.611
952325.7113500537,-100744.51,-171099.53,-6399.862,-20643.555,-3944.1733,-44391.074,-11925.131,32421.795
