timestamp,Fp1,Fp2,F3,Fz,F4,Cz,Pz,Oz
1387575.5287004884,-98160.0,-75317.43,14178.305,-27627.768,54878.5,-37248.293,-27015.137,26866.293
1387575.532700484,-98206.34,-75363.85,14137.817,-27680.543,54834.434,-37292.44,-27049.398,26838.787
1387575.5367004792,-98205.24,-75360.88,14139.934,-27677.043,54807.17,-37287.11,-27041.79,26843.426
1387575.5407004748,-98160.08,-75314.74,14183.757,-27623.414,54822.473,-37237.184,-27004.07,26871.055
1387575.5447004703,-98132.086,-75288.25,14213.176,-27595.5,54866.21,-37211.996,-26988.77,26889.201
1387575.5487004658,-98168.055,-75328.25,14184.53,-27632.812,54870.73,-37248.414,-27014.568,26886.76
1387575.5527004614,-98212.77,-75374.836,14142.416,-27682.74,54839.6,-37296.184,-27049.846,26849.203
1387575.5567004567,-98212.37,-75369.71,14142.985,-27678.672,54807.13,-37292.4,-27046.998,26841.758
1387575.5607004522,-98159.67,-75322.23,14188.3545,-27623.576,54815.715,-37241.824,-27010.783,26857.992
1387575.5647004477,-98129.234,-75295.66,14216.919,-27590.21,54856.527,-37214.887,-26987.957,26881.064
1387575.5687004433,-98159.67,-75328.17,14187.419,-27628.135,54882.895,-37250.652,-27009.156,26876.75
1387575.5727004386,-98207.89,-75371.55,14143.026,-27682.537,54850.668,-37295.492,-27037.803,26846.07
1387575.576700434,-98211.06,-75365.03,14144.003,-27681.152,54825.195,-37286.05,-27028.85,26842.57
1387575.5807004296,-98171.15,-75323.77,14188.477,-27628.215,54852.5,-37235.8,-26993.652,26866.7
1387575.5847004252,-98130.086,-75290.086,14217.123,-27594.2,54880.293,-37207.805,-26977.703,26885.133
1387575.5887004207,-98164.02,-75322.47,14185.507,-27633.057,54882.406,-37245.2,-27004.762,26885.254
1387575.592700416,-98204.51,-75368.98,14144.938,-27682.455,54850.14,-37289.594,-27036.865,26866.822
1387575.5967004115,-98205.734,-75375.33,14148.031,-27677.207,54832.645,-37284.18,-27032.309,26852.215
1387575.600700407,-98162.195,-75322.266,14196.899,-27621.338,54836.1,-37234.254,-26996.908,26870.037
1387575.6047004026,-98117.516,-75275.15,14222.534,-27590.008,54876.14,-37208.414,-26980.307,26903.605
1387575.6087003981,-98152.23,-75305.09,14188.273,-27633.262,54881.918,-37248.21,-27009.156,26898.398
1387575.6127003934,-98206.1,-75359.01,14144.613,-27688.07,54848.188,-37293.824,-27039.47,26870.078
1387575.616700389,-98200.28,-75355.516,14148.479,-27685.344,54815.39,-37285.36,-27032.023,26857.342
1387575.6207003845,-98150.72,-75307.25,14194.946,-27634.36,54839.03,-37232.953,-26993.246,26884.686
1387575.62470038,-98118.25,-75270.43,14223.267,-27599.854,54893.395,-37201.703,-26970.379,26911.418
1387575.6287003753,-98159.875,-75300.91,14190.308,-27634.97,54894.168,-37237.02,-26997.844,26889.73
1387575.6327003709,-98227.7,-75348.68,14146.973,-27684.611,54850.06,-37281.496,-27030.396,26864.787
1387575.6367003664,-98179.69,-75339.6,14154.501,-27674.643,54824.14,-37272.176,-27023.926,26850.383
1387575.640700362,-98125.45,-75289.47,14201.416,-27618.45,54855.51,-37223.27,-26990.398,26872.275
1387575.6447003575,-98111.05,-75266.16,14227.661,-27591.838,54898.723,-37198.203,-26972.941,26900.229
1387575.6487003528,-98156.5,-75307.7,14194.011,-27631.918,54923.016,-37234.17,-26997.559,26891.928
1387575.6527003483,-98196.695,-75353.07,14156.128,-27682.781,54876.1,-37278.08,-27029.785,26861.125
1387575.6567003438,-98184.21,-75342.66,14164.145,-27677.37,54839.277,-37271.89,-27021.281,26859.58
1387575.6607003394,-98137.695,-75293.055,14208.13,-27621.338,54858.277,-37221.152,-26984.13,26881.633
1387575.6647003347,-98122.73,-75267.7,14236.898,-27586.752,54903.445,-37194.664,-26967.611,26899.537
1387575.6687003302,-98142.58,-75294.68,14210.9375,-27625.773,54906.13,-37231.04,-26992.025,26895.996
1387575.6727003257,-98172.734,-75330.69,14166.179,-27676.514,54884.848,-37273.926,-27019.857,26874.105
1387575.6767003213,-98166.1,-75324.305,14170.573,-27666.871,54859.215,-37264.08,-27011.8,26862.225
1387575.6807003168,-98122.97,-75279.625,14218.872,-27610.76,54859.5,-37211.47,-26975.018,26879.436
1387575.684700312,-98101.85,-75260.26,14246.582,-27582.072,54893.68,-37185.793,-26955.078,26905.273
1387575.6887003076,-98143.68,-75298.18,14220.622,-27619.71,54920.332,-37219.2,-26975.059,26896.973
1387575.6927003032,-98192.586,-75345.54,14179.81,-27668.092,54891.32,-37262.37,-27002.197,26879.6
1387575.6967002987,-98176.84,-75336.47,14179.24,-27667.48,54867.15,-37256.227,-26996.543,26877.361
1387575.700700294,-98126.02,-75291.625,14224.813,-27616.537,54871.258,-37205.28,-26960.287,26904.46
1387575.7047002895,-98099.81,-75263.02,14250.326,-27582.357,54903.117,-37179.688,-26941.773,26930.908
1387575.708700285,-98131.59,-75297.0,14217.367,-27617.188,54915.12,-37217.367,-26969.523,26924.602
1387575.7127002806,-98178.19,-75340.336,14174.235,-27663.127,54885.133,-37263.145,-27004.232,26886.719
1387575.7167002761,-98173.67,-75335.25,14175.375,-27657.797,54848.023,-37258.465,-27006.309,26862.63
1387575.7207002714,-98134.195,-75289.39,14222.534,-27603.15,54861.695,-37206.746,-26973.064,26887.818
1387575.724700267,-98103.766,-75258.016,14253.662,-27571.941,54911.258,-37178.793,-26957.805,26900.879
1387575.7287002625,-98128.91,-75290.29,14223.389,-27613.77,54930.625,-37211.062,-26977.256,26898.072
1387575.732700258,-98166.34,-75328.125,14183.716,-27662.232,54900.434,-37253.664,-27005.576,26867.188
1387575.7367002536,-98153.57,-75325.195,14188.029,-27651.652,54862.875,-37247.113,-26999.268,26853.271
1387575.7407002489,-98106.37,-75277.8,14233.236,-27593.67,54876.305,-37195.883,-26960.816,26874.39
1387575.7447002444,-98083.87,-75251.06,14259.848,-27558.799,54905.52,-37168.297,-26943.564,26897.422
1387575.74870024,-98133.18,-75296.555,14223.471,-27595.623,54924.645,-37203.613,-26972.047,26887.371
1387575.7527002355,-98193.73,-75352.664,14173.503,-27645.508,54894.74,-37247.234,-27005.453,26856.854
1387575.7567002308,-98179.2,-75346.805,14181.682,-27641.602,54864.543,-37243.207,-27005.576,26849.895
1387575.7607002263,-98102.016,-75272.586,14241.252,-27582.072,54874.23,-37192.14,-26969.85,26886.557
1387575.7647002218,-98067.06,-75237.266,14273.723,-27548.666,54917.24,-37160.523,-26946.209,26924.113
1387575.7687002174,-98105.23,-75277.51,14242.1875,-27587.2,54921.594,-37196.74,-26970.664,26915.61
1387575.772700213,-98152.55,-75325.766,14206.543,-27632.895,54885.824,-37241.09,-27001.873,26875.164
1387575.7767002082,-98147.38,-75320.64,14217.978,-27623.332,54866.78,-37230.633,-26989.91,26873.414
1387575.7807002037,-98093.34,-75266.97,14265.381,-27563.396,54887.574,-37175.945,-26945.436,26898.438
1387575.7847001993,-98055.46,-75235.27,14294.189,-27528.85,54932.617,-37143.92,-26917.645,26942.059
1387575.7887001948,-98087.57,-75273.16,14265.707,-27563.844,54932.863,-37175.984,-26936.688,26942.871
1387575.79270019,-98132.29,-75318.85,14228.882,-27610.678,54890.87,-37216.15,-26965.984,26906.658
1387575.7967001856,-98128.83,-75312.055,14241.374,-27600.139,54851.89,-37202.516,-26953.41,26914.836
1387575.8007001812,-98089.234,-75275.555,14291.87,-27544.23,54852.46,-37147.543,-26909.14,26939.861
1387575.8047001767,-98077.766,-75265.586,14321.086,-27512.29,54901.734,-37122.07,-26889.283,26963.217
1387575.8087001722,-98093.67,-75291.625,14294.76,-27545.371,54926.598,-37156.902,-26913.33,26959.922
1387575.8127001675,-98131.96,-75334.234,14250.773,-27593.629,54902.67,-37202.72,-26945.03,26941.244
1387575.816700163,-98129.84,-75329.47,14251.831,-27585.693,54841.88,-37196.98,-26942.1,26928.955
1387575.8207001586,-98085.29,-75279.38,14293.376,-27528.89,54881.715,-37147.137,-26909.385,26942.1
1387575.8247001541,-98066.695,-75253.87,14316.122,-27494.14,54930.383,-37119.387,-26890.016,26965.252
1387575.8287001494,-98101.766,-75287.48,14285.522,-27526.287,54951.62,-37153.89,-26913.86,26951.66
1387575.832700145,-98139.2,-75329.71,14240.479,-27572.998,54908.0,-37197.39,-26937.826,26936.158
1387575.8367001405,-98133.1,-75325.195,14244.67,-27566.488,54844.688,-37187.46,-26925.09,26932.008
1387575.840700136,-98089.84,-75278.16,14289.673,-27513.145,54884.562,-37133.87,-26885.01,26951.01
1387575.8447001316,-98057.945,-75248.74,14318.156,-27482.463,54944.867,-37104.37,-26865.684,26962.81
1387575.8487001269,-98088.18,-75284.1,14284.424,-27523.438,54957.645,-37142.418,-26890.504,26963.46
1387575.8527001224,-98131.19,-75325.16,14241.862,-27569.012,54911.5,-37185.184,-26919.312,26948.691
1387575.856700118,-98129.195,-75320.03,14247.111,-27559.652,54875.246,-37177.492,-26914.307,26940.268
1387575.8607001135,-98084.68,-75273.73,14292.358,-27500.57,54873.457,-37126.344,-26878.135,26960.775
1387575.864700109,-98054.445,-75248.3,14322.551,-27461.63,54912.11,-37094.77,-26853.883,26994.426
1387575.8687001043,-98081.22,-75283.164,14291.626,-27494.02,54948.61,-37128.95,-26877.482,26983.887
1387575.8727000998,-98131.35,-75332.484,14245.117,-27546.55,54925.58,-37179.324,-26913.697,26950.36
1387575.8767000954,-98132.0,-75323.77,14245.036,-27539.43,54908.69,-37173.707,-26911.174,26942.871
1387575.880700091,-98085.9,-75275.516,14288.452,-27482.342,54914.105,-37121.664,-26876.588,26973.309
1387575.8847000862,-98061.37,-75251.71,14318.156,-27450.645,54959.72,-37092.652,-26863.445,26983.154
1387575.8887000817,-98096.64,-75287.88,14288.94,-27485.312,54962.12,-37129.11,-26894.898,26956.422
1387575.8927000773,-98147.34,-75336.19,14244.914,-27531.25,54922.04,-37175.457,-26928.387,26938.396
1387575.8967000728,-98135.055,-75326.87,14249.919,-27523.643,54888.145,-37167.81,-26920.898,26943.686
1387575.9007000683,-98083.375,-75274.3,14295.207,-27468.182,54891.523,-37116.457,-26883.506,26960.857
1387575.9047000636,-98061.445,-75252.04,14321.371,-27435.914,54926.965,-37089.805,-26863.242,26978.312
1387575.9087000592,-98105.39,-75295.695,14287.436,-27473.715,54944.99,-37124.84,-26883.912,26982.992
1387575.9127000547,-98152.34,-75338.79,14242.473,-27521.934,54917.402,-37172.406,-26916.057,26953.125
1387575.9167000502,-98144.984,-75332.89,14250.122,-27514.527,54874.676,-37167.727,-26915.61,26940.268
1387575.9207000455,-98092.82,-75287.36,14300.537,-27456.096,54879.477,-37115.4,-26878.256,26959.107
1387575.924700041,-98065.516,-75263.875,14324.992,-27424.48,54930.992,-37090.13,-26860.963,26986.328
1387575.9287000366,-98100.71,-75298.71,14289.633,-27462.89,54944.906,-37131.473,-26896.729,26963.014
1387575.9327000321,-98152.96,-75344.484,14243.124,-27510.254,54907.31,-37180.707,-26930.787,26935.955
1387575.9367000277,-98144.58,-75339.52,14241.781,-27509.604,54871.91,-37173.668,-26923.178,26935.059
1387575.940700023,-98110.72,-75304.28,14281.982,-27461.182,54886.8,-37122.52,-26884.4,26963.258
1387575.9447000185,-98070.84,-75266.97,14312.907,-27423.951,54927.816,-37095.664,-26867.717,26986.816
1387575.948700014,-98083.13,-75284.47,14289.348,-27456.422,54940.227,-37134.89,-26896.322,26976.441
1387575.9527000096,-98135.7,-75336.55,14247.111,-27507.203,54911.258,-37178.426,-26922.812,26952.88
1387575.9567000049,-98145.96,-75345.3,14245.646,-27506.186,54879.113,-37173.383,-26917.766,26954.102
1387575.9607000004,-98095.625,-75301.555,14288.168,-27453.451,54892.99,-37126.914,-26888.062,26971.314
1387575.964699996,-98073.94,-75279.18,14311.076,-27422.363,54929.04,-37099.855,-26868.49,27001.709
1387575.9686999915,-98113.484,-75317.63,14275.961,-27458.863,54938.926,-37136.637,-26892.578,26997.438
1387575.972699987,-98143.64,-75354.125,14230.876,-27509.889,54903.73,-37185.426,-26931.723,26943.4
1387575.9766999823,-98145.266,-75356.49,14229.126,-27510.906,54864.83,-37181.195,-26929.566,26928.428
1387575.9806999778,-98101.766,-75311.52,14275.229,-27455.445,54876.832,-37127.156,-26890.098,26956.219
1387575.9846999734,-98084.15,-75289.836,14301.311,-27425.742,54942.14,-37099.285,-26869.549,26994.873
1387575.988699969,-98125.0,-75329.06,14268.84,-27466.473,54965.414,-37138.754,-26897.178,26982.951
1387575.9926999642,-98166.79,-75373.7,14226.034,-27517.334,54933.312,-37188.03,-26938.438,26923.584
1387575.9966999597,-98159.95,-75369.02,14228.638,-27516.154,54881.023,-37185.223,-26938.111,26910.85
1387576.0006999553,-98105.92,-75316.45,14275.879,-27461.996,54879.273,-37133.63,-26898.479,26945.639
1387576.0046999508,-98075.93,-75289.59,14304.037,-27429.078,54925.254,-37107.016,-26876.465,26983.074
1387576.0086999463,-98111.86,-75323.33,14273.315,-27467.855,54934.246,-37143.15,-26896.566,26972.861
1387576.0126999416,-98158.695,-75366.5,14230.673,-27516.033,54897.016,-37185.547,-26924.316,26948.08
1387576.0166999372,-98155.36,-75362.14,14232.544,-27513.266,54860.395,-37181.4,-26918.54,26937.379
1387576.0206999327,-98105.63,-75311.08,14276.164,-27455.363,54881.555,-37133.547,-26882.447,26964.275
1387576.0246999282,-98080.164,-75285.81,14304.159,-27423.748,54924.562,-37105.387,-26859.62,27014.975
1387576.0286999238,-98106.53,-75321.695,14271.77,-27467.164,54935.63,-37140.137,-26879.395,27026.816
1387576.032699919,-98150.19,-75363.69,14225.871,-27515.951,54899.008,-37184.652,-26913.291,26970.135
1387576.0366999146,-98143.4,-75355.23,14231.73,-27507.285,54866.21,-37179.445,-26910.727,26939.25
1387576.0406999101,-98095.46,-75308.64,14278.036,-27453.818,54899.254,-37132.812,-26880.82,26942.912
1387576.0446999057,-98074.836,-75285.93,14309.814,-27424.277,54936.89,-37105.266,-26861.736,26969.646
1387576.048699901,-98111.45,-75320.64,14279.419,-27464.152,54946.047,-37142.54,-26882.773,26988.242
1387576.0526998965,-98160.28,-75364.625,14233.969,-27517.578,54900.676,-37187.785,-26910.809,26984.62
1387576.056699892,-98162.4,-75367.96,14230.998,-27520.184,54861.695,-37183.066,-26909.709,26971.111
1387576.0606998876,-98106.77,-75316.0,14273.479,-27469.32,54879.438,-37133.547,-26881.674,26969.523
1387576.064699883,-98079.266,-75290.81,14299.846,-27436.443,54925.62,-37106.445,-26868.816,26985.23
1387576.0686998784,-98112.96,-75329.39,14269.043,-27476.035,54948.04,-37139.85,-26890.178,26990.357
1387576.072699874,-98157.19,-75374.11,14223.877,-27527.426,54899.05,-37185.996,-26923.38,26962.77
1387576.0766998695,-98163.945,-75382.65,14222.982,-27526.611,54850.586,-37182.047,-26918.824,26956.787
1387576.080699865,-98147.016,-75351.93,14265.869,-27476.523,54877.28,-37132.12,-26881.715,26977.459
1387576.0846998603,-98123.62,-75295.984,14300.171,-27442.344,54936.363,-37106.69,-26862.957,26999.676
1387576.0886998558,-98088.625,-75295.53,14270.183,-27479.941,54947.145,-37146.77,-26891.074,26985.557
1387576.0926998514,-98117.19,-75333.78,14228.598,-27531.902,54909.387,-37192.953,-26925.049,26959.922
1387576.096699847,-98117.84,-75327.84,14229.045,-27526.123,54882.285,-37184.53,-26919.639,26948.08
1387576.1006998424,-98076.17,-75277.67,14274.414,-27471.64,54902.1,-37135.62,-26887.207,26960.898
1387576.1046998377,-98045.33,-75241.87,14303.63,-27441.447,54940.637,-37110.23,-26872.6,26987.102
1387576.1086998333,-98064.25,-75257.86,14275.432,-27478.191,54964.723,-37148.48,-26902.426,26976.28
1387576.1126998288,-98118.9,-75313.27,14229.574,-27531.943,54928.266,-37196.74,-26939.535,26938.193
1387576.1166998243,-98144.984,-75313.68,14231.079,-27528.281,54878.176,-37193.484,-26933.35,26937.012
1387576.1206998196,-98086.34,-75263.305,14279.297,-27474.041,54886.68,-37142.457,-26892.05,26961.914
1387576.1246998152,-98021.33,-75236.695,14306.274,-27442.912,54930.95,-37111.125,-26865.113,26996.746
1387576.1286998107,-98072.88,-75279.87,14273.642,-27484.254,54934.164,-37146.566,-26889.08,26988.607
1387576.1326998062,-98116.21,-75325.89,14231.079,-27540.283,54909.63,-37194.254,-26925.822,26953.695
1387576.1366998018,-98113.164,-75323.08,14229.574,-27542.074,54873.617,-37190.227,-26927.898,26939.25
1387576.140699797,-98067.02,-75273.27,14276.245,-27486.125,54889.65,-37139.812,-26894.084,26960.166
1387576.1446997926,-98041.95,-75245.73,14307.007,-27449.627,54940.758,-37108.156,-26871.908,26993.125
1387576.1486997881,-98078.62,-75284.18,14275.676,-27488.852,54939.17,-37142.824,-26891.766,26993.613
1387576.1526997837,-98128.055,-75326.625,14229.777,-27542.848,54902.184,-37188.76,-26920.736,26977.256
1387576.1566997792,-98123.5,-75322.72,14231.486,-27540.324,54874.39,-37184.816,-26921.875,26953.37
1387576.1606997745,-98081.99,-75271.65,14277.344,-27486.533,54878.38,-37136.72,-26890.83,26963.664
1387576.16469977,-98048.99,-75240.52,14305.908,-27455.322,54933.516,-37113.16,-26876.67,26988.078
1387576.1686997656,-98073.0,-75275.44,14272.827,-27494.834,54952.355,-37146.973,-26898.723,26989.258
1387576.172699761,-98121.55,-75322.59,14223.837,-27547.445,54914.105,-37192.426,-26928.467,26968.426
1387576.1766997564,-98115.97,-75316.2,14226.074,-27543.092,54872.03,-37187.906,-26923.504,26946.33
1387576.180699752,-98064.984,-75272.75,14271.322,-27488.16,54880.332,-37137.004,-26886.475,26968.71
1387576.1846997475,-98040.33,-75248.375,14298.3,-27456.504,54925.58,-37109.54,-26861.166,27020.875
1387576.188699743,-98078.17,-75282.72,14266.195,-27495.932,54942.914,-37149.13,-26887.492,27001.832
1387576.1926997385,-98122.89,-75329.836,14225.383,-27549.072,54929.324,-37195.477,-26921.021,26967.002
1387576.1966997338,-98119.06,-75324.99,14228.231,-27549.113,54898.156,-37191.53,-26921.225,26947.389
1387576.2006997294,-98077.555,-75277.43,14276.815,-27498.008,54900.516,-37143.066,-26885.05,26975.547
1387576.204699725,-98037.234,-75245.93,14307.414,-27468.994,54929.16,-37114.22,-26866.943,26994.385
1387576.2086997204,-98070.31,-75279.7,14276.286,-27509.238,54928.836,-37144.246,-26882.895,27015.91
1387576.2126997157,-98118.164,-75327.6,14233.439,-27561.605,54902.184,-37188.355,-26918.01,26968.1
1387576.2166997113,-98113.53,-75324.016,14234.904,-27559.043,54870.566,-37188.723,-26926.719,26937.338
1387576.2206997068,-98065.07,-75277.39,14278.85,-27507.406,54874.188,-37143.84,-26898.479,26955.893
1387576.2246997023,-98041.836,-75253.336,14306.396,-27477.459,54935.1,-37119.59,-26883.83,26976.686
1387576.2286996979,-98078.086,-75285.16,14281.21,-27513.307,54961.508,-37155.438,-26910.645,26968.385
1387576.2326996932,-98119.55,-75330.89,14240.072,-27566.814,54915.652,-37199.953,-26941.488,26953.045
1387576.2366996887,-98119.47,-75334.555,14236.816,-27567.791,54877.523,-37195.516,-26939.291,26940.43
1387576.2406996842,-98069.95,-75284.71,14283.163,-27512.818,54878.46,-37146.527,-26914.307,26933.92
1387576.2446996798,-98052.984,-75262.9,14307.617,-27479.9,54927.656,-37119.508,-26896.729,26964.52
1387576.248699675,-98094.89,-75312.46,14270.996,-27519.654,54937.094,-37161.05,-26927.125,26965.252
1387576.2526996706,-98124.07,-75354.375,14229.899,-27572.674,54902.305,-37209.84,-26964.52,26920.94
1387576.2566996661,-98118.984,-75348.92,14231.242,-27569.336,54858.523,-37208.133,-26963.46,26909.912
1387576.2606996617,-98073.98,-75301.39,14274.211,-27516.643,54868.086,-37162.027,-26933.838,26932.617
1387576.2646996572,-98065.31,-75278.0,14301.433,-27487.102,54917.44,-37135.05,-26918.498,26951.824
1387576.2686996525,-98114.26,-75311.57,14272.421,-27520.387,54925.254,-37167.523,-26939.902,26946.412
1387576.272699648,-98123.05,-75349.98,14225.302,-27573.691,54894.53,-37214.926,-26973.918,26930.584
1387576.2766996436,-98122.03,-75341.11,14226.034,-27573.771,54856.73,-37209.637,-26968.344,26921.469
1387576.280699639,-98076.54,-75294.516,14270.874,-27522.055,54873.617,-37159.383,-26932.537,26930.299
1387576.2846996346,-98048.38,-75269.414,14296.835,-27491.496,54920.695,-37128.746,-26908.936,26956.299
1387576.28869963,-98083.09,-75304.445,14266.317,-27532.39,54937.46,-37168.785,-26934.205,26960.654
1387576.2926996255,-98127.484,-75349.37,14221.273,-27583.049,54903.484,-37215.66,-26968.547,26936.646
1387576.296699621,-98123.21,-75345.26,14219.849,-27582.154,54865.195,-37211.184,-26965.17,26923.178
1387576.3006996165,-98073.086,-75296.67,14263.957,-27530.355,54874.637,-37162.07,-26928.06,26951.254
1387576.3046996119,-98039.555,-75263.51,14294.8,-27495.158,54913.332,-37131.96,-26906.78,26967.814
1387576.3086996074,-98075.81,-75295.375,14265.422,-27531.7,54932.58,-37168.05,-26935.14,26950.074
1387576.312699603,-98123.336,-75341.516,14224.162,-27584.148,54914.758,-37212.16,-26968.426,26926.107
1387576.3166995985,-98123.09,-75339.68,14224.487,-27584.96,54867.27,-37210.98,-26966.635,26922.363
1387576.320699594,-98056.89,-75284.875,14268.921,-27533.732,54876.953,-37164.348,-26933.432,26940.064
1387576.3246995893,-98024.82,-75255.54,14297.445,-27501.832,54912.07,-37133.547,-26914.062,26961.914
1387576.3286995848,-98062.5,-75295.53,14266.032,-27541.139,54920.37,-37168.17,-26938.682,26957.236
1387576.3326995804,-98103.72,-75337.89,14222.575,-27592.734,54894.043,-37212.484,-26967.408,26938.64
1387576.336699576,-98103.72,-75336.19,14220.581,-27593.426,54860.477,-37208.62,-26961.223,26938.72
1387576.3406995712,-98060.06,-75287.88,14265.788,-27539.918,54872.195,-37161.297,-26926.393,26947.715
1387576.3446995667,-98032.39,-75251.55,14299.5205,-27504.965,54934.004,-37133.465,-26904.217,26978.883
1387576.3486995623,-98066.66,-75288.66,14270.549,-27540.527,54946.74,-37169.273,-26929.77,26987.834
1387576.3526995578,-98108.24,-75334.76,14228.027,-27593.832,54906.008,-37217.043,-26964.438,26959.066
1387576.3566995533,-98099.45,-75329.67,14229.655,-27592.773,54868.695,-37212.363,-26962.81,26930.746
1387576.3606995486,-98055.38,-75280.234,14274.089,-27540.365,54878.5,-37163.535,-26928.305,26951.133
1387576.3646995442,-98025.88,-75253.87,14302.124,-27507.977,54911.95,-37133.707,-26906.82,26980.918
1387576.3686995397,-98062.7,-75288.86,14271.566,-27544.963,54922.934,-37169.027,-26932.658,26960.043
1387576.3726995352,-98106.94,-75331.305,14225.261,-27595.5,54915.895,-37217.57,-26964.805,26942.018
1387576.3766995305,-98099.86,-75325.195,14226.889,-27591.676,54873.17,-37212.28,-26960.002,26944.906
1387576.380699526,-98051.31,-75277.39,14270.915,-27538.738,54879.52,-37166.992,-26935.71,26939.453
1387576.3846995216,-98018.72,-75249.31,14300.903,-27506.797,54925.457,-37140.586,-26925.254,26938.803
1387576.3886995171,-98053.43,-75285.41,14269.45,-27544.23,54937.297,-37173.992,-26948.568,26933.514
1387576.3926995127,-98101.81,-75334.35,14224.691,-27596.68,54901.004,-37220.133,-26979.168,26907.309
1387576.396699508,-98099.2,-75333.78,14227.865,-27594.768,54838.3,-37217.285,-26973.227,26906.17
1387576.4006995035,-98052.45,-75286.26,14270.996,-27542.033,54858.32,-37171.305,-26940.268,26921.63
1387576.404699499,-98026.49,-75255.695,14297.201,-27511.191,54914.145,-37143.434,-26922.16,26948.162
1387576.4086994946,-98062.22,-75289.555,14267.09,-27547.771,54935.793,-37175.05,-26941.447,26953.492
1387576.4126994899,-98105.96,-75330.69,14227.458,-27596.191,54905.03,-37218.1,-26971.396,26924.887
1387576.4166994854,-98104.13,-75329.35,14228.231,-27594.564,54849.49,-37212.973,-26970.215,26899.049
1387576.420699481,-98071.58,-75295.45,14268.148,-27546.63,54863.934,-37162.883,-26936.117,26909.385
1387576.4246994765,-98049.6,-75274.7,14295.004,-27516.684,54915.61,-37135.38,-26915.977,26944.906
1387576.428699472,-98056.32,-75292.24,14276.286,-27550.334,54948.242,-37172.65,-26941.855,26941.162
1387576.4326994673,-98089.766,-75318.766,14238.119,-27599.447,54909.668,-37215.902,-26971.6,26925.09
1387576.4366994628,-98097.7,-75323.24,14237.915,-27598.553,54883.344,-37208.414,-26964.031,26928.223
1387576.4406994584,-98049.08,-75285.2,14280.192,-27552.246,54899.336,-37161.133,-26924.602,26967.285
1387576.444699454,-98030.97,-75262.414,14305.99,-27519.857,54928.957,-37135.945,-26906.414,26984.783
1387576.4486994494,-98065.76,-75292.69,14280.966,-27553.06,54922.12,-37170.94,-26934.775,26952.027
1387576.4526994447,-98113.37,-75341.15,14240.561,-27605.918,54902.67,-37217.285,-26965.7,26931.967
1387576.4566994403,-98108.08,-75337.69,14241.984,-27604.248,54867.92,-37212.89,-26960.816,26907.188
1387576.4606994358,-98064.01,-75292.56,14285.034,-27555.99,54879.56,-37165.285,-26927.94,26929.893
1387576.4646994313,-98040.53,-75269.45,14312.582,-27526.287,54943.973,-37138.836,-26910.85,26953.613
1387576.4686994266,-98074.1,-75302.01,14279.785,-27562.988,54937.707,-37175.17,-26932.984,26958.09
1387576.4726994222,-98116.13,-75342.41,14234.701,-27610.76,54929.85,-37220.176,-26961.63,26949.219
1387576.4766994177,-98108.4,-75335.33,14237.346,-27608.318,54896.77,-37215.13,-26957.643,26940.756
1387576.4806994132,-98055.51,-75283.25,14283.813,-27555.625,54896.28,-37165.12,-26927.734,26934.979
1387576.4846994088,-98035.56,-75257.94,14307.17,-27526.49,54932.05,-37136.027,-26911.174,26963.299
1387576.488699404,-98069.79,-75290.77,14278.646,-27563.355,54950.277,-37169.434,-26936.729,26948.08
1387576.4926993996,-98111.695,-75333.5,14239.706,-27614.34,54919.027,-37214.234,-26964.396,26921.348
1387576.4966993951,-98109.22,-75336.51,14238.647,-27615.723,54882.45,-37213.016,-26958.375,26931.764
1387576.5006993907,-98060.75,-75292.195,14282.471,-27562.744,54886.438,-37165.652,-26924.805,26944.336
1387576.504699386,-98033.33,-75262.49,14307.617,-27529.826,54929.73,-37136.68,-26906.17,26948.895
1387576.5086993815,-98070.36,-75295.375,14274.252,-27568.32,54929.242,-37172.812,-26932.496,26951.742
1387576.512699377,-98116.13,-75339.68,14233.358,-27619.996,54911.5,-37218.793,-26964.805,26930.908
1387576.5166993726,-98115.73,-75338.055,14232.951,-27621.176,54866.906,-37214.355,-26958.701,26922.934
1387576.520699368,-98071.414,-75293.17,14275.432,-27571.371,54871.664,-37162.965,-26921.469,26941.691
1387576.5246993634,-98049.73,-75275.555,14298.828,-27542.889,54928.793,-37136.19,-26899.334,26989.258
1387576.528699359,-98085.9,-75313.97,14264.16,-27581.463,54956.625,-37170.453,-26926.719,26973.023
1387576.5326993545,-98128.55,-75359.46,14223.999,-27630.78,54902.223,-37213.785,-26958.578,26925.293
1387576.53669935,-98125.86,-75355.1,14223.959,-27630.982,54858.97,-37209.23,-26952.271,26925.172
1387576.5406993453,-98080.2,-75308.68,14265.747,-27579.387,54872.887,-37159.953,-26918.824,26939.494
1387576.5446993408,-98055.26,-75281.74,14293.254,-27546.062,54927.695,-37132.73,-26901.816,26965.414
1387576.5486993364,-98099.25,-75324.586,14263.388,-27584.555,54940.96,-37169.76,-26927.49,26954.916
1387576.552699332,-98155.766,-75377.85,14218.872,-27638.062,54903.28,-37215.008,-26958.701,26932.822
1387576.5566993274,-98136.48,-75368.734,14218.181,-27638.836,54861.656,-37212.85,-26961.02,26918.133
1387576.5606993227,-98066.66,-75298.625,14271.403,-27582.154,54858.645,-37164.47,-26929.12,26928.143
1387576.5646993183,-98032.07,-75268.03,14306.519,-27548.87,54924.562,-37136.477,-26905.152,26969.97
1387576.5686993138,-98074.75,-75315.72,14277.67,-27584.637,54931.152,-37169.477,-26923.707,26969.97
1387576.5726993093,-98108.16,-75347.7,14239.34,-27630.412,54903.32,-37214.438,-26951.904,26939.861
1387576.5766993049,-98105.8,-75339.73,14238.281,-27628.094,54886.883,-37210.29,-26942.791,26945.924
1387576.5806993002,-98065.76,-75296.51,14282.187,-27573.895,54886.395,-37156.7,-26900.188,26983.398
1387576.5846992957,-98040.0,-75269.21,14310.141,-27542.277,54903.605,-37129.56,-26883.871,26992.758
1387576.5886992912,-98073.98,-75304.89,14278.32,-27579.387,54930.79,-37163.98,-26905.926,26989.828
1387576.5926992868,-98123.74,-75352.945,14235.637,-27631.797,54906.13,-37209.637,-26941.367,26966.229
1387576.596699282,-98118.57,-75344.52,14238.852,-27628.662,54873.58,-37207.805,-26943.238,26945.477
1387576.6006992776,-98068.0,-75293.46,14281.535,-27576.54,54892.5,-37163.453,-26912.883,26963.787
1387576.6046992731,-98036.75,-75259.89,14308.92,-27543.418,54942.71,-37135.785,-26894.084,26993.572
1387576.6086992687,-98073.164,-75295.62,14279.419,-27576.092,54959.758,-37172.61,-26924.725,26968.1
1387576.6126992642,-98104.336,-75335.695,14238.485,-27626.506,54928.348,-37217.082,-26953.451,26951.742
1387576.6166992595,-98097.414,-75330.2,14241.781,-27626.832,54887.086,-37210.125,-26943.523,26952.11
1387576.620699255,-98056.4,-75289.516,14281.047,-27580.12,54888.715,-37161.664,-26910.686,26970.135
1387576.6246992506,-98039.39,-75268.35,14305.949,-27549.56,54922.406,-37129.965,-26886.963,27001.344
1387576.628699246,-98076.74,-75306.32,14277.751,-27582.764,54940.35,-37158.57,-26904.053,26996.379
1387576.6326992414,-98123.54,-75358.12,14232.056,-27636.963,54923.42,-37208.133,-26940.918,26964.275
1387576.636699237,-98122.6,-75361.01,14227.092,-27638.916,54877.402,-37206.91,-26940.064,26954.916
1387576.6406992325,-98078.05,-75317.586,14266.5205,-27590.781,54860.68,-37158.773,-26906.455,26969.97
1387576.644699228,-98046.67,-75284.305,14296.997,-27556.193,54921.31,-37128.176,-26887.9,26973.756
1387576.6486992235,-98084.27,-75321.21,14264.689,-27594.443,54940.758,-37163.492,-26909.953,26974.854
1387576.6526992188,-98125.086,-75357.34,14224.162,-27643.719,54905.355,-37210.246,-26944.336,26931.113
1387576.6566992144,-98117.35,-75353.88,14230.0625,-27639.854,54857.668,-37206.098,-26942.627,26915.447
1387576.66069921,-98072.39,-75306.56,14274.211,-27589.355,54859.582,-37162.07,-26915.732,26936.973
1387576.6646992054,-98045.01,-75280.234,14299.968,-27560.344,54912.355,-37137.168,-26903.24,26970.826
1387576.6686992007,-98078.17,-75313.6,14272.299,-27592.285,54914.188,-37169.56,-26929.404,26967.45
1387576.6726991963,-98120.37,-75354.695,14232.097,-27642.254,54893.11,-37214.684,-26961.305,26954.998
1387576.6766991918,-98118.45,-75349.57,14233.969,-27641.44,54854.7,-37213.42,-26959.434,26945.557
1387576.6806991873,-98069.95,-75302.82,14274.74,-27588.95,54891.887,-37169.68,-26927.734,26963.258
1387576.6846991829,-98051.805,-75278.484,14300.375,-27555.625,54927.125,-37143.473,-26907.188,26983.398
1387576.6886991782,-98077.03,-75307.87,14269.165,-27591.553,54938.52,-37178.793,-26929.16,26976.686
1387576.6926991737,-98113.28,-75347.7,14228.068,-27642.457,54907.066,-37219.08,-26954.143,26953.207
1387576.6966991692,-98117.15,-75349.61,14230.144,-27639.854,54872.805,-37212.605,-26947.43,26938.803
1387576.7006991648,-98073.81,-75303.1,14272.746,-27589.967,54881.555,-37166.3,-26919.434,26945.436
1387576.7046991603,-98044.68,-75278.32,14302.002,-27557.984,54917.688,-37137.453,-26900.473,26981.527
1387576.7086991556,-98083.46,-75317.63,14272.299,-27595.908,54926.516,-37173.137,-26923.666,26986.328
1387576.7126991511,-98138.59,-75370.52,14227.661,-27647.014,54885.664,-37223.227,-26962.037,26925.863
1387576.7166991467,-98120.24,-75353.07,14228.882,-27641.44,54857.91,-37219.2,-26962.932,26903.77
1387576.7206991422,-98062.42,-75284.99,14273.642,-27586.305,54871.38,-37171.754,-26930.217,26939.047
1387576.7246991375,-98041.305,-75264.94,14303.142,-27550.293,54922.324,-37140.26,-26904.582,26969.97
1387576.728699133,-98081.55,-75300.13,14271.2,-27587.484,54934.367,-37174.645,-26925.945,26969.076
1387576.7326991286,-98128.5,-75345.54,14231.079,-27640.79,54904.707,-37219.32,-26955.852,26946.045
1387576.736699124,-98123.3,-75344.0,14230.469,-27639.121,54872.48,-37215.25,-26950.195,26925.01
1387576.7406991196,-98079.92,-75302.05,14270.752,-27590.74,54879.52,-37168.05,-26917.969,26944.785
1387576.744699115,-98052.45,-75279.3,14300.822,-27558.473,54906.984,-37136.68,-26895.225,26979.9
1387576.7486991105,-98084.31,-75313.16,14273.356,-27593.873,54917.645,-37171.59,-26916.627,26975.912
1387576.752699106,-98132.94,-75361.01,14228.149,-27646.648,54891.113,-37220.543,-26952.475,26948.162
1387576.7566991015,-98131.39,-75362.305,14225.79,-27646.973,54860.477,-37219.688,-26955.81,26929.973
1387576.7606990968,-98087.37,-75314.62,14266.439,-27596.6,54884.36,-37175.496,-26927.695,26947.754
1387576.7646990924,-98056.6,-75282.516,14297.038,-27563.64,54927.94,-37148.355,-26914.227,26959.84
1387576.768699088,-98088.87,-75314.086,14267.212,-27600.547,54948.49,-37182.13,-26937.297,26959.434
1387576.7726990834,-98125.29,-75351.93,14230.021,-27648.193,54917.727,-37224.69,-26965.373,26940.268
1387576.776699079,-98117.11,-75347.945,14232.341,-27643.719,54878.95,-37221.438,-26962.852,26922.16
1387576.7806990743,-98073.086,-75302.086,14272.258,-27594.28,54888.348,-37174.36,-26926.555,26947.795
1387576.7846990698,-98045.414,-75273.03,14301.596,-27563.111,54920.574,-37142.58,-26902.1,26981.445
1387576.7886990653,-98079.47,-75307.17,14271.729,-27599.732,54925.99,-37172.73,-26919.639,26987.834
1387576.7926990609,-98131.31,-75353.68,14227.336,-27651.531,54908.613,-37219.2,-26953.248,26958.578
1387576.7966990562,-98129.64,-75348.68,14227.824,-27653.688,54880.414,-37218.668,-26957.48,26923.34
1387576.8006990517,-98084.19,-75305.99,14270.63,-27604.004,54879.6,-37170.168,-26917.969,26960.287
1387576.8046990472,-98057.414,-75281.945,14297.241,-27573.527,54921.31,-37139.363,-26892.13,27004.762
1387576.8086990428,-98091.19,-75317.63,14266.317,-27607.79,54934.492,-37172.12,-26913.291,26997.967
1387576.8126990383,-98135.625,-75363.24,14223.511,-27657.146,54908.246,-37216.473,-26949.707,26948.406
1387576.8166990336,-98129.6,-75356.125,14223.877,-27654.664,54871.46,-37216.473,-26947.145,26938.193
1387576.8206990291,-98076.13,-75311.16,14267.009,-27603.354,54886.027,-37171.47,-26911.5,26970.988
1387576.8246990247,-98054.24,-75289.96,14294.8,-27570.518,54914.96,-37146.04,-26896.648,26994.14
1387576.8286990202,-98091.68,-75325.08,14262.492,-27608.604,54942.547,-37181.97,-26922.363,26992.758
1387576.8326990155,-98134.97,-75366.46,14216.146,-27660.4,54911.867,-37229.777,-26960.37,26954.346
1387576.836699011,-98135.87,-75363.53,14217.937,-27661.5,54866.906,-37229.777,-26964.885,26922.404
1387576.8406990066,-98091.76,-75317.63,14261.882,-27610.23,54875.816,-37181.64,-26929.648,26954.062
1387576.844699002,-98074.1,-75295.78,14291.138,-27579.59,54915.406,-37153.973,-26911.785,26975.18
1387576.8486989976,-98099.53,-75328.53,14260.254,-27618.734,54919.68,-37191.734,-26942.424,26961.426
1387576.852698993,-98137.45,-75371.586,14218.791,-27671.754,54879.883,-37237.223,-26971.885,26943.238
1387576.8566989885,-98139.94,-75374.07,14214.6,-27672.934,54844.523,-37235.68,-26973.023,26913.535
1387576.860698984,-98088.71,-75323.695,14261.068,-27618.938,54860.76,-37185.953,-26945.477,26913.33
1387576.8646989795,-98058.44,-75289.23,14290.8125,-27582.643,54905.355,-37155.64,-26926.31,26936.768
1387576.868698975,-98093.1,-75320.36,14260.051,-27618.328,54936.484,-37190.715,-26949.545,26933.96
1387576.8726989704,-98133.266,-75357.625,14219.687,-27666.586,54916.75,-37236.492,-26981.771,26902.629
1387576.876698966,-98127.16,-75353.88,14224.609,-27664.348,54882.977,-37233.24,-26979.777,26899.455
1387576.8806989614,-98077.84,-75309.086,14269.653,-27613.975,54881.348,-37183.15,-26940.146,26938.03
1387576.884698957,-98047.57,-75281.58,14302.287,-27578.818,54915.406,-37151.004,-26915.203,26967.164
1387576.8886989523,-98077.48,-75311.28,14273.071,-27610.76,54922.73,-37183.188,-26935.426,26957.56
1387576.8926989478,-98123.13,-75356.77,14227.133,-27661.338,54888.31,-37227.297,-26967.205,26929.16
1387576.8966989433,-98125.57,-75350.836,14225.302,-27657.838,54862.023,-37222.332,-26962.607,26920.127
1387576.9006989389,-98079.59,-75305.016,14269.003,-27608.074,54879.395,-37174.36,-26922.363,26955.486
1387576.9046989344,-98049.89,-75274.74,14297.7295,-27577.598,54916.832,-37147.664,-26897.746,27001.22
1387576.9086989297,-98079.305,-75302.086,14269.775,-27612.143,54927.94,-37180.543,-26912.803,27016.969
1387576.9126989252,-98120.77,-75349.445,14230.754,-27659.873,54897.016,-37225.18,-26950.969,26962.484
1387576.9166989208,-98118.62,-75352.83,14231.405,-27659.791,54869.63,-37225.504,-26958.09,26943.686
1387576.9206989163,-98068.766,-75307.17,14277.71,-27608.318,54863.566,-37178.67,-26930.014,26962.402
1387576.9246989116,-98028.73,-75272.79,14311.523,-27572.754,54907.96,-37150.516,-26911.744,26992.514
1387576.9286989071,-98057.54,-75295.49,14290.405,-27603.639,54922.0,-37180.746,-26927.572,27000.205
1387576.9326989027,-98102.13,-75341.555,14248.454,-27652.629,54909.953,-37223.594,-26953.898,26987.793
1387576.9366988982,-98094.12,-75327.195,14249.512,-27648.723,54902.47,-37221.805,-26954.062,26969.85
1387576.9406988937,-98056.89,-75280.36,14290.731,-27598.512,54900.84,-37178.387,-26925.09,26970.988
1387576.944698889,-98021.94,-75260.26,14320.028,-27566.57,54929.77,-37151.57,-26904.297,27000.205
1387576.9486988846,-98051.03,-75287.234,14291.992,-27602.133,54940.96,-37184.695,-26925.09,27006.674
1387576.95269888,-98100.1,-75335.37,14243.49,-27656.861,54907.676,-37232.625,-26956.828,26977.744
1387576.9566988756,-98099.81,-75337.28,14239.014,-27659.994,54866.78,-37230.387,-26952.88,26968.303
1387576.960698871,-98056.52,-75291.016,14279.419,-27609.701,54880.293,-37181.684,-26921.592,26976.604
1387576.9646988665,-98031.414,-75263.19,14308.105,-27572.998,54928.387,-37151.53,-26907.959,26996.176
1387576.968698862,-98062.38,-75293.5,14279.216,-27604.615,54937.055,-37184.613,-26935.059,26993.45
1387576.9726988575,-98105.76,-75337.08,14235.8,-27652.914,54902.793,-37226.848,-26967.611,26951.945
1387576.976698853,-98104.945,-75340.945,14234.619,-27652.02,54871.867,-37225.098,-26969.768,26938.314
1387576.9806988484,-98058.31,-75297.164,14280.029,-27599.732,54884.89,-37178.59,-26943.848,26941.041
1387576.984698844,-98033.29,-75272.914,14311.85,-27566.57,54928.02,-37150.027,-26922.69,26982.586
1387576.9886988394,-98074.67,-75311.73,14280.64,-27609.945,54926.758,-37183.758,-26941.691,26991.578
1387576.992698835,-98116.26,-75355.96,14243.124,-27660.645,54904.055,-37230.47,-26979.209,26946.371
1387576.9966988305,-98110.6,-75353.64,14244.711,-27655.803,54875.53,-37228.355,-26973.268,26948.65
1387577.0006988258,-98067.14,-75307.78,14282.959,-27605.225,54892.62,-37184.816,-26939.17,26984.54
1387577.0046988213,-98032.43,-75273.89,14311.361,-27567.139,54927.492,-37157.918,-26920.41,27016.277
1387577.0086988169,-98062.18,-75305.26,14282.268,-27600.586,54939.74,-37191.855,-26937.46,27035.28
1387577.0126988124,-98109.13,-75352.74,14240.275,-27647.178,54908.613,-37235.23,-26965.617,26991.416
1387577.0166988077,-98106.85,-75355.266,14241.862,-27646.12,54862.957,-37232.42,-26966.229,26955.81
1387577.0206988032,-98065.31,-75315.11,14285.889,-27601.768,54869.71,-37186.402,-26930.502,26976.4
1387577.0246987988,-98042.08,-75288.336,14316.284,-27570.354,54908.49,-37154.46,-26908.611,26997.967
1387577.0286987943,-98079.19,-75327.4,14286.133,-27608.398,54939.535,-37188.113,-26937.582,26980.266
1387577.0326987898,-98129.766,-75374.76,14237.224,-27661.988,54896.85,-37232.547,-26968.588,26963.014
1387577.0366987851,-98131.266,-75375.45,14231.283,-27664.104,54848.066,-37231.977,-26969.89,26939.861
1387577.0406987807,-98081.14,-75320.72,14273.275,-27610.557,54865.6,-37182.414,-26945.842,26913.209
1387577.0446987762,-98046.92,-75289.76,14301.514,-27575.074,54917.89,-37152.59,-26926.148,26941.082
1387577.0486987717,-98072.23,-75319.016,14271.811,-27613.078,54924.074,-37183.88,-26946.33,26948.203
1387577.052698767,-98114.18,-75359.336,14232.829,-27663.615,54892.01,-37228.72,-26975.139,26930.502
1387577.0566987626,-98111.9,-75357.016,14237.224,-27664.104,54860.516,-37225.79,-26974.121,26924.969
1387577.060698758,-98073.81,-75312.664,14279.175,-27617.148,54885.54,-37184.125,-26947.51,26947.062
1387577.0646987536,-98042.484,-75282.68,14313.803,-27583.496,54922.12,-37153.566,-26928.06,26967.693
1387577.0686987492,-98070.16,-75316.125,14291.301,-27615.887,54932.617,-37184.207,-26948.936,26964.438
1387577.0726987445,-98109.016,-75356.9,14251.587,-27664.268,54907.676,-37227.38,-26979.453,26940.879
1387577.07669874,-98107.914,-75353.766,14251.343,-27663.535,54873.617,-37222.74,-26971.03,26939.25
1387577.0806987355,-98060.75,-75305.95,14291.301,-27615.357,54900.88,-37178.71,-26936.932,26959.148
1387577.084698731,-98027.59,-75275.96,14322.998,-27582.56,54943.24,-37151.57,-26917.766,26968.303
1387577.0886987264,-98063.88,-75311.04,14293.254,-27621.705,54943.973,-37185.06,-26937.297,26982.057
1387577.092698722,-98107.38,-75355.305,14252.238,-27671.387,54909.1,-37232.098,-26969.035,26954.51
1387577.0966987174,-98107.55,-75353.35,14251.953,-27668.295,54863.895,-37231.527,-26969.158,26935.02
1387577.100698713,-98062.38,-75311.52,14293.254,-27617.066,54866.133,-37184.082,-26933.635,26957.764
1387577.1046987085,-98034.02,-75280.73,14323.08,-27584.19,54917.93,-37154.176,-26909.059,27000.123
1387577.1086987038,-98068.2,-75314.13,14293.823,-27624.594,54954.754,-37187.867,-26930.664,27009.074
1387577.1126986993,-98112.836,-75358.65,14249.919,-27675.863,54915.773,-37232.383,-26968.182,26961.71
1387577.1166986949,-98111.945,-75361.9,14243.083,-27675.945,54871.992,-37234.54,-26977.377,26925.213
1387577.1206986904,-98057.91,-75311.24,14287.028,-27619.793,54883.668,-37184.082,-26943.645,26953.248
1387577.124698686,-98031.09,-75285.484,14315.227,-27585.205,54921.31,-37152.875,-26923.38,26980.348
1387577.1286986812,-98072.67,-75324.47,14283.325,-27623.332,54928.508,-37188.64,-26947.715,26968.75
1387577.1326986768,-98119.55,-75370.484,14240.967,-27673.26,54899.945,-37231.85,-26979.492,26947.715
1387577.1366986723,-98116.01,-75366.984,14243.205,-27673.422,54888.227,-37229.94,-26977.865,26931.602
1387577.1406986678,-98072.15,-75323.49,14289.714,-27624.553,54895.43,-37183.88,-26941.936,26957.44
1387577.1446986631,-98050.58,-75291.79,14321.005,-27591.879,54943.973,-37156.25,-26925.334,26975.75
1387577.1486986587,-98077.766,-75318.766,14293.417,-27624.879,54946.29,-37189.293,-26949.586,26975.791
1387577.1526986542,-98106.85,-75354.25,14253.134,-27671.348,54907.637,-37233.6,-26984.092,26936.24
1387577.1566986497,-98100.016,-75348.92,14252.197,-27670.045,54869.754,-37233.035,-26983.643,26928.63
1387577.1606986453,-98052.53,-75300.375,14294.189,-27618.246,54876.02,-37184.285,-26943.238,26954.998
1387577.1646986406,-98029.09,-75274.25,14322.021,-27586.467,54912.965,-37154.38,-26916.098,26991.416
1387577.1686986361,-98064.54,-75308.72,14292.929,-27623.78,54940.227,-37187.215,-26934.896,26992.107
1387577.1726986316,-98111.33,-75360.27,14248.21,-27674.684,54908.773,-37232.22,-26965.984,26965.861
1387577.1766986272,-98114.586,-75367.516,14247.519,-27677.816,54875.816,-37231.69,-26964.64,26954.102
1387577.1806986225,-98065.43,-75308.88,14291.586,-27627.441,54893.312,-37187.99,-26938.438,26968.832
1387577.184698618,-98026.86,-75268.39,14323.771,-27591.064,54938.477,-37158.895,-26923.137,26981.812
1387577.1886986136,-98061.89,-75312.664,14295.898,-27624.717,54952.312,-37190.88,-26948.365,26974.244
1387577.192698609,-98106.164,-75354.49,14252.36,-27673.584,54914.473,-37236.613,-26981.08,26953.695
1387577.1966986046,-98100.23,-75350.34,14252.157,-27674.725,54889.527,-37235.965,-26980.55,26946.738
1387577.2006986,-98055.664,-75307.78,14292.236,-27624.756,54896.242,-37184.9,-26942.018,26978.15
1387577.2046985955,-98027.305,-75275.02,14319.58,-27590.902,54943.402,-37154.785,-26922.242,26982.79
1387577.208698591,-98060.875,-75309.086,14288.574,-27626.629,54949.668,-37189.09,-26945.312,26976.645
1387577.2126985865,-98109.22,-75356.33,14246.867,-27674.725,54911.055,-37234.58,-26972.129,26969.117
1387577.2166985818,-98105.516,-75352.5,14250.326,-27672.568,54886.355,-37229.332,-26971.152,26938.518
1387577.2206985774,-98057.336,-75303.39,14293.661,-27622.438,54904.625,-37185.14,-26940.797,26956.137
1387577.224698573,-98024.58,-75268.68,14324.423,-27585.734,54932.742,-37156.168,-26918.783,26984.254
1387577.2286985684,-98058.19,-75307.09,14294.8,-27624.188,54930.055,-37192.344,-26943.4,26973.105
1387577.232698564,-98099.86,-75352.664,14253.906,-27676.84,54917.36,-37239.664,-26976.562,26949.3
1387577.2366985593,-98092.164,-75342.66,14256.511,-27675.945,54877.16,-37233.645,-26970.785,26938.6
1387577.2406985548,-98048.875,-75297.734,14299.4795,-27627.035,54869.67,-37184.53,-26933.879,26969.646
1387577.2446985503,-98018.96,-75269.05,14326.254,-27592.57,54922.934,-37153.566,-26920.98,26976.074
1387577.2486985459,-98057.945,-75307.5,14294.841,-27627.441,54944.5,-37183.758,-26946.086,26968.873
1387577.2526985414,-98110.234,-75356.695,14247.966,-27678.834,54913.94,-37231.61,-26985.027,26940.023
1387577.2566985367,-98106.29,-75353.84,14246.989,-27680.096,54881.105,-37235.395,-26987.998,26922.242
1387577.2606985322,-98056.84,-75302.695,14290.08,-27629.03,54897.055,-37194.176,-26957.072,26942.627
1387577.2646985278,-98023.64,-75271.12,14322.876,-27591.797,54941.246,-37160.93,-26924.316,26989.422
1387577.2686985233,-98055.914,-75301.76,14290.731,-27627.523,54952.92,-37189.94,-26938.762,26994.549
1387577.2726985186,-98099.77,-75346.03,14243.896,-27682.414,54906.78,-37235.84,-26967.326,26975.83
1387577.2766985141,-98102.016,-75349.98,14241.089,-27683.758,54864.586,-37231.69,-26959.678,26981.121
1387577.2806985097,-98059.125,-75304.484,14285.319,-27633.912,54888.348,-37186.93,-26927.043,26993.043
1387577.2846985052,-98028.12,-75272.38,14320.15,-27598.145,54949.344,-37160.035,-26908.814,26993.531
1387577.2886985007,-98061.65,-75302.984,14293.254,-27628.012,54945.312,-37193.2,-26931.846,26994.71
1387577.292698496,-98108.805,-75343.14,14250.326,-27678.305,54915.812,-37240.766,-26965.902,26972.412
1387577.2966984916,-98090.91,-75334.15,14251.14,-27676.434,54892.254,-37236.207,-26965.008,26954.102
1387577.300698487,-98046.92,-75291.914,14292.847,-27626.994,54885.582,-37188.805,-26936.035,26965.455
1387577.3046984826,-98016.445,-75264.125,14321.167,-27592.652,54920.9,-37159.508,-26922.893,26983.115
1387577.308698478,-98048.26,-75294.44,14290.69,-27626.506,54949.914,-37190.836,-26950.969,26972.982
1387577.3126984735,-98099.125,-75345.99,14248.535,-27678.875,54914.96,-37236.33,-26985.312,26943.564
1387577.316698469,-98100.55,-75347.86,14242.229,-27680.137,54874.96,-37238.812,-26986.533,26937.297
1387577.3206984645,-98056.56,-75301.31,14286.133,-27628.947,54895.754,-37196.617,-26953.492,26963.014
1387577.32469846,-98023.97,-75264.37,14322.673,-27591.229,54946.13,-37163.777,-26927.451,26984.092
1387577.3286984554,-98052.53,-75290.94,14295.207,-27623.455,54951.5,-37196.492,-26943.97,26986.207
1387577.332698451,-98093.914,-75335.984,14255.209,-27670.94,54913.7,-37239.746,-26970.664,26967.164
1387577.3366984464,-98096.07,-75341.07,14250.692,-27675.457,54872.07,-37241.293,-26971.762,26957.846
1387577.340698442,-98046.63,-75296.06,14292.074,-27627.28,54877.24,-37192.14,-26931.64,26991.943
1387577.3446984373,-98013.39,-75267.5,14321.127,-27593.223,54920.453,-37162.56,-26912.559,27004.15
1387577.3486984328,-98049.16,-75301.07,14291.098,-27628.135,54940.715,-37196.207,-26941.162,26984.58
1387577.3526984283,-98098.02,-75348.19,14247.07,-27678.387,54917.36,-37240.438,-26968.262,26971.477
1387577.3566984239,-98097.01,-75343.47,14245.402,-27678.71,54885.785,-37237.223,-26963.34,26952.354
1387577.3606984194,-98051.6,-75296.43,14287.842,-27627.686,54885.215,-37189.09,-26925.416,26986.613
1387577.3646984147,-98025.72,-75268.516,14316.122,-27596.07,54926.312,-37162.152,-26908.57,27011.436
1387577.3686984102,-98054.89,-75302.49,14290.731,-27632.08,54943.645,-37198.242,-26937.012,26995.81
1387577.3726984058,-98099.25,-75357.79,14247.355,-27681.152,54908.285,-37242.594,-26967.652,26972.617
1387577.3766984013,-98098.11,-75357.95,14245.932,-27682.984,54879.07,-37243.004,-26966.025,26966.188
1387577.3806983966,-98041.79,-75286.99,14295.085,-27629.436,54892.01,-37196.902,-26934.002,26988.445
1387577.3846983921,-98002.28,-75250.61,14329.794,-27591.594,54933.72,-37165.164,-26915.854,27003.012
1387577.3886983877,-98041.18,-75291.016,14300.253,-27627.646,54949.26,-37195.438,-26938.518,26997.844
1387577.3926983832,-98091.27,-75337.04,14257.568,-27678.752,54910.85,-37241.254,-26970.908,26963.787
1387577.3966983787,-98105.15,-75344.28,14253.5,-27679.281,54878.46,-37244.832,-26972.697,26954.307
1387577.400698374,-98052.125,-75297.94,14297.038,-27626.14,54897.18,-37200.48,-26943.523,26966.309
1387577.4046983696,-98018.64,-75264.04,14324.545,-27592.855,54944.176,-37166.504,-26917.277,27003.906
1387577.408698365,-98049.6,-75293.42,14296.347,-27628.541,54946.82,-37200.4,-26943.115,26994.14
1387577.4126983606,-98088.34,-75336.1,14258.139,-27679.932,54909.02,-37249.918,-26982.666,26951.742
1387577.4166983562,-98080.28,-75332.12,14259.604,-27678.102,54878.5,-37247.6,-26977.824,26950.604
1387577.4206983515,-98029.664,-75280.36,14302.531,-27623.332,54898.36,-37198.406,-26939.658,26982.26
1387577.424698347,-98000.05,-75248.414,14333.334,-27588.746,54949.06,-37166.832,-26921.387,26988.281
1387577.4286983425,-98042.04,-75287.03,14299.276,-27629.924,54964.562,-37202.8,-26948.324,26983.807
1387577.432698338,-98094.37,-75335.05,14250.326,-27681.52,54927.94,-37250.0,-26980.43,26980.957
1387577.4366983334,-98094.2,-75336.34,14247.559,-27679.893,54888.47,-37247.926,-26979.656,26965.82
1387577.440698329,-98047.734,-75290.695,14291.708,-27629.965,54901.246,-37203.125,-26950.604,26950.074
1387577.4446983244,-98023.52,-75264.445,14320.19,-27597.006,54941.53,-37173.3,-26932.74,26976.197
1387577.44869832,-98060.14,-75303.19,14289.917,-27631.268,54951.38,-37205.08,-26956.584,26975.059
1387577.4526983155,-98104.086,-75347.13,14244.467,-27679.81,54902.184,-37246.625,-26985.516,26942.059
1387577.4566983108,-98104.82,-75352.016,14241.415,-27681.967,54866.824,-37246.38,-26985.312,26931.316
1387577.4606983063,-98066.9,-75312.016,14277.344,-27635.498,54878.258,-37202.15,-26951.416,26968.059
1387577.4646983019,-98040.04,-75280.16,14308.105,-27601.035,54932.58,-37173.18,-26928.549,26991.904
1387577.4686982974,-98077.97,-75314.58,14277.914,-27638.184,54931.48,-37206.83,-26952.678,26980.145
1387577.4726982927,-98123.58,-75358.93,14234.701,-27690.35,54893.23,-37253.664,-26979.941,26969.688
1387577.4766982882,-98116.21,-75352.74,14237.793,-27689.861,54878.137,-37254.273,-26982.666,26954.387
1387577.4806982838,-98071.375,-75305.3,14282.675,-27639.893,54890.87,-37207.723,-26949.707,26974.121
1387577.4846982793,-98037.88,-75272.3,14316.0,-27600.668,54933.516,-37176.637,-26929.893,26986.572
1387577.4886982748,-98063.64,-75303.06,14287.476,-27629.965,54926.395,-37210.125,-26955.771,26977.418
1387577.4926982701,-98105.19,-75347.086,14246.257,-27679.2,54911.176,-37257.203,-26987.346,26961.59
1387577.4966982657,-98105.11,-75351.73,14241.862,-27682.049,54871.95,-37255.414,-26984.13,26952.027
1387577.5006982612,-98057.414,-75306.64,14284.587,-27634.645,54886.64,-37208.863,-26954.834,26968.547
1387577.5046982567,-98032.48,-75278.61,14314.819,-27600.262,54925.17,-37178.348,-26933.146,26999.229
1387577.508698252,-98062.99,-75305.83,14289.348,-27633.3,54952.11,-37211.914,-26960.002,26973.105
1387577.5126982476,-98102.945,-75343.266,14249.309,-27685.059,54915.57,-37258.098,-26992.148,26942.506
1387577.516698243,-98097.17,-75340.13,14252.768,-27683.146,54875.49,-37257.164,-26990.357,26928.223
1387577.5206982386,-98051.44,-75301.19,14295.37,-27632.691,54878.543,-37209.066,-26956.625,26954.63
1387577.5246982342,-98016.6,-75263.305,14329.062,-27594.768,54923.137,-37173.18,-26929.404,26978.68
1387577.5286982295,-98052.21,-75297.04,14296.0205,-27630.982,54934.816,-37206.668,-26949.342,26987.305
1387577.532698225,-98099.66,-75344.89,14248.861,-27685.629,54895.59,-37255.617,-26983.398,26956.299
1387577.5366982205,-98102.5,-75347.58,14245.85,-27686.809,54867.637,-37255.617,-26979.941,26949.26
1387577.540698216,-98055.14,-75298.83,14289.551,-27633.018,54874.066,-37208.742,-26947.062,26964.844
1387577.5446982116,-98026.77,-75265.305,14317.058,-27600.912,54917.848,-37179.65,-26927.125,26996.787
1387577.548698207,-98058.84,-75299.6,14285.93,-27634.727,54925.703,-37212.605,-26948.568,26995.24
1387577.5526982024,-98100.14,-75344.98,14241.903,-27683.229,54905.113,-37256.348,-26981.934,26956.992
1387577.556698198,-98093.34,-75347.336,14240.683,-27683.96,54869.55,-37254.07,-26976.441,26953.736
1387577.5606981935,-98046.555,-75300.74,14281.454,-27633.424,54879.6,-37206.543,-26937.42,26996.908
1387577.5646981888,-98016.4,-75264.98,14310.751,-27595.785,54919.07,-37175.254,-26916.3,27001.344
1387577.5686981843,-98055.26,-75299.69,14280.6,-27629.68,54934.164,-37205.65,-26934.367,27002.686
1387577.5726981799,-98104.74,-75346.4,14238.119,-27681.682,54911.46,-37251.63,-26964.764,26990.684
1387577.5766981754,-98107.914,-75342.82,14238.322,-27679.24,54874.188,-37253.703,-26964.479,26971.6
1387577.580698171,-98066.45,-75299.08,14281.86,-27631.268,54891.4,-37207.36,-26932.861,26991.09
1387577.5846981662,-98035.24,-75268.805,14311.035,-27595.541,54930.46,-37177.98,-26916.057,27013.672
1387577.5886981618,-98070.93,-75310.8,14278.728,-27630.656,54930.91,-37216.105,-26946.29,26996.664
1387577.5926981573,-98121.83,-75361.086,14231.283,-27680.217,54902.793,-37262.453,-26983.195,26959.025
1387577.5966981528,-98116.83,-75357.55,14230.876,-27679.688,54869.223,-37259.766,-26980.021,26955.81
1387577.6006981481,-98047.734,-75293.945,14281.738,-27623.252,54875.53,-37213.176,-26950.48,26975.506
1387577.6046981437,-97999.11,-75243.25,14321.208,-27581.422,54928.266,-37181.56,-26933.229,26980.348
1387577.6086981392,-98041.22,-75275.92,14293.051,-27617.27,54946.168,-37216.35,-26956.26,26970.053
1387577.6126981347,-98098.02,-75334.31,14247.885,-27673.463,54919.23,-37263.266,-26987.549,26960.693
1387577.6166981303,-98075.445,-75323.41,14248.413,-27674.766,54881.188,-37264.49,-26993.572,26935.385
1387577.6206981256,-98040.61,-75286.38,14286.011,-27629.6,54878.785,-37218.06,-26960.084,26960.898
1387577.624698121,-98006.266,-75252.93,14317.058,-27592.855,54924.44,-37186.973,-26936.484,26990.195
1387577.6286981166,-98038.7,-75288.375,14283.61,-27626.344,54938.477,-37220.99,-26958.863,26977.092
1387577.6326981122,-98083.26,-75333.62,14239.38,-27674.805,54883.87,-37265.75,-26987.102,26950.928
1387577.6366981075,-98076.945,-75330.164,14240.723,-27671.266,54852.46,-37261.434,-26981.771,26939.088
1387577.640698103,-98034.55,-75285.08,14280.314,-27621.867,54869.184,-37215.535,-26944.012,26968.344
1387577.6446980985,-98006.63,-75253.46,14306.56,-27589.926,54929.04,-37185.508,-26923.79,26988.242
1387577.648698094,-98041.34,-75289.67,14275.839,-27627.28,54948.12,-37219.08,-26950.604,26976.28
1387577.6526980896,-98086.47,-75335.33,14236.003,-27680.055,54928.1,-37267.62,-26987.998,26947.795
1387577.656698085,-98081.625,-75334.84,14241.577,-27680.502,54874.35,-37267.336,-26990.805,26933.229
1387577.6606980804,-98036.22,-75290.9,14286.825,-27627.197,54877.363,-37220.258,-26959.678,26950.645
1387577.664698076,-98006.35,-75263.39,14320.068,-27588.46,54913.168,-37190.27,-26940.797,26978.191
1387577.6686980715,-98040.04,-75294.97,14290.8125,-27624.064,54930.87,-37224.855,-26967.408,26977.58
1387577.672698067,-98085.37,-75340.13,14241.903,-27677.695,54898.03,-37272.707,-27001.588,26947.47
1387577.6766980623,-98085.62,-75339.93,14233.684,-27678.387,54854.86,-37273.52,-27004.883,26913.453
1387577.6806980579,-98044.35,-75297.08,14280.925,-27625.896,54868.29,-37223.594,-26963.664,26946.982
1387577.6846980534,-98017.055,-75273.93,14312.5,-27590.455,54911.297,-37189.78,-26934.123,26971.72
1387577.688698049,-98051.92,-75307.58,14280.192,-27627.197,54906.78,-37219.688,-26947.918,26978.8
1387577.6926980442,-98099.04,-75351.445,14237.793,-27680.502,54875.043,-37262.98,-26971.111,26968.873
1387577.6966980398,-98099.49,-75354.45,14235.678,-27684.002,54849.977,-37262.9,-26966.797,26951.66
1387577.7006980353,-98054.28,-75310.38,14273.52,-27635.377,54860.273,-37217.855,-26933.229,26968.588
1387577.7046980308,-98011.92,-75275.19,14307.333,-27595.623,54910.727,-37182.945,-26906.047,27010.05
1387577.7086980264,-98047.94,-75310.75,14275.92,-27629.395,54931.48,-37218.63,-26934.205,26994.223
1387577.7126980217,-98096.88,-75357.95,14231.934,-27680.42,54897.3,-37269.45,-26980.225,26945.354
1387577.7166980172,-98098.19,-75355.516,14232.219,-27682.334,54858.887,-37269.37,-26983.318,26939.697
1387577.7206980127,-98050.09,-75310.51,14275.1875,-27631.633,54858.645,-37221.11,-26953.166,26958.172
1387577.7246980083,-98016.08,-75279.22,14315.063,-27593.262,54895.55,-37187.95,-26933.838,26975.709
1387577.7286980036,-98043.74,-75309.77,14285.767,-27625.367,54905.723,-37219.523,-26959.514,26954.998
1387577.732697999,-98089.03,-75356.81,14238.892,-27681.764,54880.09,-37269.207,-26999.797,26931.926
1387577.7366979946,-98091.19,-75355.516,14234.294,-27685.832,54862.387,-37269.168,-26996.664,26933.025
1387577.7406979902,-98049.97,-75311.98,14276.53,-27637.207,54877.605,-37223.27,-26963.379,26958.049
1387577.7446979857,-98017.42,-75278.85,14307.577,-27601.768,54930.137,-37191.324,-26936.402,26995.89
1387577.748697981,-98047.85,-75312.95,14276.489,-27637.168,54934.938,-37224.082,-26960.41,26991.904
1387577.7526979765,-98092.66,-75356.98,14233.562,-27685.223,54901.367,-37270.387,-26999.146,26952.19
1387577.756697972,-98093.914,-75355.8,14230.998,-27685.303,54866.457,-37268.8,-27003.785,26937.826
1387577.7606979676,-98049.73,-75314.29,14273.315,-27635.54,54865.156,-37222.656,-26976.482,26935.547
1387577.764697963,-98022.305,-75286.74,14302.124,-27603.395,54908.0,-37195.477,-26959.717,26949.3
1387577.7686979584,-98062.18,-75323.85,14271.566,-27642.457,54931.113,-37227.336,-26981.771,26949.668
1387577.772697954,-98111.17,-75375.98,14226.848,-27698.61,54886.438,-37274.66,-27012.248,26933.717
1387577.7766979495,-98108.28,-75372.68,14229.736,-27698.527,54849.816,-37273.03,-27004.314,26936.809
1387577.780697945,-98061.85,-75320.4,14267.578,-27648.438,54857.63,-37227.01,-26968.018,26961.182
1387577.7846979403,-98027.914,-75283.37,14293.823,-27611.98,54903.566,-37193.156,-26939.17,26990.072
1387577.7886979359,-98056.4,-75313.48,14273.926,-27646.973,54926.92,-37225.14,-26964.64,26968.75
1387577.7926979314,-98105.63,-75362.51,14236.41,-27698.447,54890.707,-37271.812,-26997.52,26941.123
1387577.796697927,-98108.36,-75366.46,14227.946,-27698.203,54852.258,-37270.47,-26996.95,26924.277
1387577.8006979222,-98066.57,-75327.11,14270.305,-27648.193,54857.22,-37224.773,-26963.623,26956.951
1387577.8046979178,-98030.93,-75295.945,14300.375,-27609.336,54898.316,-37195.19,-26948.527,26959.107
1387577.8086979133,-98062.91,-75327.72,14271.606,-27643.271,54912.68,-37228.027,-26975.18,26949.992
1387577.8126979088,-98112.23,-75377.12,14228.027,-27697.592,54883.06,-37276.125,-27008.3,26927.084
1387577.8166979044,-98111.86,-75372.73,14227.051,-27699.586,54849.367,-37275.027,-27002.646,26928.793
1387577.8206978997,-98067.43,-75324.47,14269.694,-27650.84,54874.023,-37227.703,-26966.229,26946.33
1387577.8246978952,-98035.56,-75293.91,14305.339,-27614.014,54909.71,-37196.535,-26940.594,26975.22
1387577.8286978907,-98068.08,-75330.77,14280.314,-27650.188,54921.754,-37229.25,-26962.688,26979.412
1387577.8326978863,-98112.96,-75378.46,14234.05,-27701.945,54884.074,-37276.043,-26998.902,26959.678
1387577.8366978818,-98109.99,-75376.875,14235.189,-27697.836,54843.996,-37275.72,-26999.35,26945.11
1387577.840697877,-98064.414,-75328.414,14277.06,-27644.451,54834.473,-37230.105,-26967.693,26940.838
1387577.8446978726,-98037.195,-75295.375,14305.908,-27607.463,54892.66,-37202.555,-26949.098,26958.904
1387577.8486978682,-98072.555,-75330.85,14273.723,-27640.91,54920.617,-37234.66,-26970.867,26966.553
1387577.8526978637,-98118.984,-75377.08,14225.83,-27694.541,54879.926,-37280.438,-27005.9,26940.268
1387577.856697859,-98117.805,-75373.74,14223.349,-27697.918,54849.895,-37279.5,-27006.836,26926.19
1387577.8606978545,-98074.42,-75330.2,14267.66,-27649.902,54863.445,-37233.523,-26972.047,26952.88
1387577.86469785,-98038.21,-75295.78,14300.944,-27612.754,54914.88,-37205.406,-26958.049,26954.713
1387577.8686978456,-98063.52,-75325.69,14275.065,-27643.799,54926.434,-37238.324,-26983.154,26957.195
1387577.8726978411,-98108.805,-75373.66,14230.266,-27694.418,54889.242,-37281.047,-27009.441,26951.742
1387577.8766978364,-98111.01,-75375.53,14228.76,-27698.936,54853.312,-37283.773,-27011.68,26928.996
1387577.880697832,-98066.25,-75325.6,14274.821,-27641.887,54852.62,-37233.97,-26976.848,26945.965
1387577.8846978275,-98032.31,-75295.49,14307.455,-27604.656,54889.242,-37201.297,-26955.852,26964.6
1387577.888697823,-98068.73,-75328.695,14278.32,-27641.318,54924.887,-37233.93,-26976.36,26964.479
1387577.8926978183,-98123.05,-75376.47,14227.946,-27696.9,54897.258,-37285.32,-27014.121,26925.986
1387577.8966978139,-98123.414,-75376.18,14225.993,-27696.86,54849.043,-37283.977,-27016.074,26904.664
1387577.9006978094,-98082.234,-75337.85,14267.497,-27649.496,54858.645,-37237.43,-26983.277,26925.213
1387577.904697805,-98043.586,-75307.45,14297.404,-27616.822,54894.86,-37206.79,-26960.898,26934.082
1387577.9086978005,-98073.445,-75339.89,14266.113,-27652.426,54905.926,-37238.65,-26979.615,26945.15
1387577.9126977958,-98116.91,-75384.484,14221.313,-27701.904,54875.855,-37282.145,-27011.068,26923.992
1387577.9166977913,-98117.234,-75387.125,14214.844,-27705.73,54836.305,-37280.03,-27012.451,26911.094
1387577.9206977868,-98074.016,-75338.18,14253.459,-27655.926,54853.516,-37228.64,-26972.656,26932.617
1387577.9246977824,-98041.1,-75300.21,14287.028,-27616.21,54886.72,-37193.562,-26944.336,26960.084
1387577.9286977777,-98070.44,-75329.35,14261.19,-27652.426,54904.46,-37226.81,-26964.072,26966.35
1387577.9326977732,-98108.73,-75374.555,14221.843,-27702.393,54894.043,-37274.7,-26995.605,26946.777
1387577.9366977687,-98107.625,-75376.266,14223.063,-27702.354,54856.49,-37273.723,-26994.71,26935.303
1387577.9406977643,-98064.45,-75332.484,14267.7,-27654.785,54872.113,-37228.883,-26957.887,26967.408
1387577.9446977598,-98028.484,-75296.76,14300.863,-27616.334,54917.24,-37196.453,-26931.56,26999.756
1387577.948697755,-98055.95,-75325.56,14268.799,-27651.45,54917.89,-37233.316,-26961.508,26975.953
1387577.9526977506,-98104.695,-75374.59,14226.034,-27704.713,54883.383,-37278.934,-26993.734,26946.738
1387577.9566977462,-98103.805,-75367.48,14226.44,-27702.637,54856.12,-37272.91,-26984.13,26941.65
1387577.9606977417,-98062.586,-75321.945,14269.857,-27654.502,54873.945,-37224.938,-26950.766,26958.252
1387577.9646977372,-98033.2,-75293.09,14303.671,-27620.646,54921.105,-37194.254,-26932.943,26962.322
1387577.9686977325,-98068.41,-75326.83,14279.216,-27654.99,54918.54,-37225.71,-26950.277,26985.637
1387577.972697728,-98114.18,-75377.08,14230.021,-27708.252,54875.53,-37274.05,-26981.812,26972.656
1387577.9766977236,-98111.375,-75377.61,14227.255,-27709.31,54863.65,-37277.914,-26987.998,26935.467
1387577.9806977191,-98060.55,-75328.29,14270.264,-27656.82,54858.562,-37234.54,-26965.088,26938.193
1387577.9846977144,-98032.88,-75299.89,14302.572,-27616.74,54893.027,-37202.72,-26945.273,26961.71
1387577.98869771,-98070.516,-75336.8,14273.845,-27650.717,54899.945,-37237.184,-26969.646,26957.846
1387577.9926977055,-98125.53,-75385.7,14224.936,-27705.04,54879.395,-37287.273,-27010.742,26935.914
1387577.996697701,-98132.734,-75391.16,14220.093,-27710.613,54842.773,-37290.082,-27019.451,26917.48
1387578.0006976966,-98084.64,-75347.336,14261.719,-27660.686,54847.168,-37245.688,-26990.113,26933.676
1387578.0046976919,-98049.12,-75317.55,14291.301,-27622.803,54896.445,-37215.82,-26971.6,26951.945
1387578.0086976874,-98080.164,-75347.13,14264.16,-27654.541,54912.152,-37244.914,-26991.62,26952.88
1387578.012697683,-98123.87,-75393.555,14227.905,-27705.975,54890.87,-37289.676,-27022.34,26914.186
1387578.0166976785,-98122.195,-75394.125,14226.44,-27706.299,54840.863,-37287.56,-27019.613,26902.264
1387578.0206976738,-98080.164,-75345.3,14269.613,-27653.361,54834.68,-37241.54,-26989.299,26917.766
1387578.0246976693,-98055.87,-75321.78,14297.079,-27618.246,54901.41,-37211.508,-26967.408,26947.062
1387578.0286976648,-98101.41,-75371.22,14266.5205,-27655.682,54917.523,-37242.72,-26987.793,26948.365
1387578.0326976604,-98150.03,-75417.32,14226.929,-27704.346,54877.65,-37288.21,-27022.014,26921.307
1387578.036697656,-98141.4,-75393.92,14227.783,-27705.201,54842.043,-37291.3,-27025.229,26901.816
1387578.0406976512,-98101.28,-75329.15,14279.216,-27651.043,54847.984,-37242.027,-26989.951,26920.29
1387578.0446976468,-98050.91,-75311.98,14310.588,-27617.637,54902.59,-37207.52,-26963.34,26943.604
1387578.0486976423,-98066.86,-75349.57,14278.28,-27652.223,54927.613,-37240.848,-26980.877,26951.133
1387578.0526976378,-98113.08,-75396.41,14232.341,-27703.045,54896.04,-37286.215,-27009.93,26939.047
1387578.0566976331,-98117.234,-75394.29,14227.417,-27706.584,54864.87,-37287.723,-27011.271,26922.283
1387578.0606976287,-98071.78,-75345.42,14270.956,-27654.785,54877.363,-37242.312,-26977.744,26947.877
1387578.0646976242,-98049.4,-75318.73,14299.846,-27618.002,54905.76,-37208.824,-26951.254,26980.307
1387578.0686976197,-98088.87,-75355.23,14270.874,-27653.85,54905.844,-37240.562,-26965.74,27003.012
1387578.0726976153,-98128.55,-75394.164,14232.219,-27703.613,54868.53,-37290.285,-27011.883,26922.445
1387578.0766976106,-98125.41,-75389.164,14231.323,-27704.672,54844.28,-37293.582,-27024.943,26875.205
1387578.080697606,-98081.55,-75352.055,14272.217,-27658.732,54858.4,-37248.984,-26995.24,26898.805
1387578.0846976016,-98052.58,-75324.586,14299.724,-27624.473,54903.2,-37218.668,-26972.25,26934.205
1387578.0886975972,-98082.32,-75355.63,14271.281,-27655.682,54923.34,-37248.535,-26992.84,26931.316
1387578.0926975927,-98129.73,-75401.2,14226.034,-27708.945,54879.438,-37296.55,-27022.055,26917.236
1387578.096697588,-98137.25,-75406.984,14219.116,-27714.152,54840.332,-37294.395,-27018.516,26908.936
1387578.1006975835,-98100.06,-75363.2,14257.935,-27662.598,54844.117,-37244.832,-26985.23,26911.582
1387578.104697579,-98071.58,-75333.336,14291.748,-27623.088,54884.484,-37215.332,-26967.652,26927.734
1387578.1086975746,-98106.37,-75370.57,14265.178,-27660.28,54910.035,-37249.31,-26986.328,26939.209
1387578.11269757,-98155.32,-75422.57,14223.471,-27715.17,54868.652,-37296.1,-27018.352,26922.283
1387578.1166975654,-98155.52,-75430.586,14215.983,-27720.785,54827.11,-37298.016,-27021.648,26907.879
1387578.120697561,-98111.945,-75392.336,14253.418,-27673.625,54849.816,-37252.28,-26986.94,26930.258
1387578.1246975565,-98082.85,-75366.54,14280.966,-27638.428,54904.297,-37220.867,-26964.111,26961.143
1387578.128697552,-98122.64,-75395.76,14251.181,-27671.266,54914.51,-37255.008,-26988.893,26949.18
1387578.1326975473,-98200.36,-75439.375,14205.078,-27718.588,54872.926,-37300.906,-27023.602,26927.246
1387578.1366975429,-98173.47,-75436.24,14203.451,-27715.943,54836.957,-37298.87,-27024.09,26904.826
1387578.1406975384,-98112.555,-75387.82,14245.524,-27668.498,54857.707,-37253.99,-26995.281,26924.887
1387578.144697534,-98087.37,-75359.375,14281.86,-27630.006,54887.74,-37224.164,-26977.703,26941.162
1387578.1486975292,-98122.56,-75398.16,14255.534,-27662.477,54908.938,-37259.81,-27006.389,26929.932
1387578.1526975248,-98176.11,-75448.61,14211.467,-27715.293,54862.633,-37306.64,-27043.945,26907.35
1387578.1566975203,-98176.92,-75448.37,14208.7,-27717.53,54812.055,-37310.344,-27054.2,26866.09
1387578.1606975158,-98124.76,-75404.42,14248.617,-27664.674,54829.797,-37264.242,-27017.578,26902.955
1387578.1646975114,-98095.586,-75375.86,14278.687,-27627.85,54857.707,-37232.137,-26996.746,26928.955
1387578.1686975067,-98129.36,-75405.88,14246.379,-27664.43,54886.11,-37266.316,-27027.549,26885.133
1387578.1726975022,-98175.3,-75449.75,14204.468,-27717.164,54877.727,-37314.332,-27059.57,26864.99
1387578.1766974977,-98171.96,-75444.79,14208.537,-27717.123,54820.965,-37313.355,-27055.299,26872.438
1387578.1806974933,-98121.26,-75393.03,14256.714,-27663.127,54831.992,-37264.285,-27015.87,26896.12
1387578.1846974886,-98085.984,-75361.86,14292.5625,-27625.773,54877.28,-37234.17,-26993.37,26916.627
1387578.188697484,-98115.805,-75392.54,14263.754,-27661.826,54892.01,-37268.72,-27021.607,26896.322
1387578.1926974796,-98158.33,-75434.77,14220.541,-27712.158,54854.7,-37313.805,-27052.775,26876.994
1387578.1966974752,-98158.33,-75433.39,14218.669,-27710.37,54802.816,-37311.44,-27048.504,26875.367
1387578.2006974707,-98119.19,-75391.28,14256.104,-27664.104,54833.008,-37266.48,-27014.61,26908.041
1387578.204697466,-98093.14,-75362.266,14285.156,-27631.877,54868.246,-37236.9,-26994.385,26938.803
1387578.2086974615,-98119.59,-75390.67,14261.882,-27665.283,54882.938,-37269.004,-27016.928,26920.777
1387578.212697457,-98163.74,-75430.95,14222.331,-27713.46,54852.62,-37311.484,-27045.248,26891.154
1387578.2166974526,-98160.61,-75427.086,14222.982,-27714.723,54815.27,-37309.246,-27040.04,26881.227
1387578.220697448,-98108.445,-75379.64,14265.3,-27665.488,54839.113,-37265.18,-27008.912,26905.682
1387578.2246974434,-98072.88,-75343.8,14298.747,-27627.523,54882.57,-37234.17,-26987.021,26929.037
1387578.228697439,-98099.2,-75371.38,14272.705,-27659.791,54886.72,-37265.87,-27009.645,26917.969
1387578.2326974345,-98141.93,-75418.336,14227.255,-27712.729,54868.695,-37310.75,-27039.145,26902.508
1387578.23669743,-98151.734,-75421.96,14220.297,-27716.635,54832.36,-37310.547,-27037.842,26891.602
1387578.2406974253,-98117.03,-75381.15,14256.348,-27667.277,54840.09,-37266.156,-27009.318,26916.139
1387578.2446974209,-98085.734,-75347.375,14287.842,-27629.883,54877.2,-37233.44,-26990.316,26956.096
1387578.2486974164,-98115.56,-75379.84,14260.214,-27663.941,54899.742,-37264.285,-27013.428,26952.148
1387578.252697412,-98156.58,-75421.39,14219.076,-27714.275,54874.023,-37311.24,-27050.742,26910.645
1387578.2566974075,-98153.57,-75422.445,14216.228,-27718.303,54831.18,-37311.605,-27050.66,26895.834
1387578.2606974028,-98115.484,-75386.03,14255.29,-27672.445,54838.176,-37265.055,-27015.666,26913.494
1387578.2646973983,-98088.3,-75354.33,14287.354,-27637.86,54885.418,-37232.016,-26990.275,26952.354
1387578.2686973938,-98114.305,-75383.47,14259.196,-27671.754,54890.098,-37263.55,-27008.668,26969.932
1387578.2726973894,-98154.586,-75425.87,14213.135,-27719.402,54854.492,-37311.44,-27051.066,26893.027
1387578.2766973847,-98153.98,-75423.14,14211.67,-27718.67,54828.656,-37311.16,-27054.688,26864.258
1387578.2806973802,-98108.32,-75376.06,14255.9,-27667.074,54840.54,-37265.383,-27018.066,26909.22
1387578.2846973757,-98078.01,-75345.5,14287.964,-27630.412,54887.86,-37235.15,-27003.541,26935.914
1387578.2886973713,-98111.82,-75379.11,14261.679,-27663.818,54901.652,-37268.8,-27032.432,26917.848
1387578.2926973668,-98156.375,-75425.74,14217.8955,-27714.682,54866.906,-37314.293,-27065.47,26894.654
1387578.296697362,-98163.945,-75438.56,14208.13,-27721.396,54817.996,-37318.93,-27074.951,26867.758
1387578.3006973576,-98121.18,-75393.555,14246.094,-27673.137,54838.016,-37276.9,-27049.805,26874.309
1387578.3046973532,-98091.15,-75360.64,14275.065,-27636.68,54874.72,-37244.305,-27024.74,26907.309
1387578.3086973487,-98121.18,-75390.016,14246.46,-27667.604,54876.26,-37273.6,-27042.521,26910.605
1387578.312697344,-98167.28,-75435.266,14201.986,-27718.75,54845.215,-37318.277,-27077.637,26883.79
1387578.3166973395,-98168.17,-75436.28,14200.358,-27720.215,54801.35,-37318.93,-27084.19,26848.877
1387578.320697335,-98130.086,-75397.09,14241.049,-27673.219,54803.59,-37277.06,-27053.996,26882.732
1387578.3246973306,-98098.516,-75368.9,14273.804,-27638.021,54837.65,-37247.273,-27035.482,26906.088
1387578.3286973261,-98120.94,-75395.14,14252.482,-27669.23,54880.74,-37279.42,-27061.32,26880.006
1387578.3326973214,-98164.266,-75442.71,14214.03,-27719.605,54867.676,-37326.254,-27093.182,26863.73
1387578.336697317,-98163.336,-75439.414,14207.642,-27722.047,54815.43,-37327.027,-27087.24,26870.443
1387578.3406973125,-98117.15,-75393.6,14244.548,-27672.568,54812.95,-37281.863,-27053.184,26880.576
1387578.344697308,-98086.8,-75362.914,14278.076,-27633.709,54856.773,-37245.934,-27026.611,26907.594
1387578.3486973033,-98116.09,-75389.28,14254.883,-27664.877,54859.375,-37277.67,-27045.004,26910.32
1387578.3526972989,-98160.77,-75434.86,14214.844,-27717.45,54826.418,-37326.742,-27078.33,26892.457
1387578.3566972944,-98161.22,-75434.53,14210.9375,-27723.877,54810.957,-37325.074,-27076.66,26880.82
1387578.36069729,-98112.47,-75390.79,14253.459,-27674.684,54835.816,-37279.258,-27039.512,26902.873
1387578.3646972855,-98071.13,-75356.08,14293.173,-27632.488,54879.273,-37245.65,-27018.352,26908.488
1387578.3686972808,-98102.99,-75384.24,14267.09,-27664.186,54891.97,-37277.47,-27040.812,26900.432
1387578.3726972763,-98149.664,-75427.9,14218.75,-27715.537,54856.652,-37321.414,-27067.344,26899.334
1387578.3766972718,-98150.555,-75431.69,14209.799,-27719.727,54814.94,-37320.395,-27064.941,26895.305
1387578.3806972674,-98106.77,-75385.22,14248.576,-27672.852,54832.316,-37276.9,-27036.988,26917.848
1387578.384697263,-98074.266,-75349.37,14283.203,-27635.174,54876.75,-37245.77,-27020.996,26906.088
1387578.3886972582,-98099.77,-75373.945,14261.23,-27665.771,54884.766,-37277.184,-27044.11,26894.084
1387578.3926972537,-98147.1,-75423.016,14216.024,-27717.734,54849.367,-37321.98,-27071.086,26883.912
1387578.3966972493,-98151.086,-75427.9,14211.264,-27721.477,54818.93,-37323.0,-27070.924,26866.578
1387578.4006972448,-98115.805,-75392.78,14252.441,-27677.572,54821.984,-37281.535,-27040.04,26897.38
1387578.40469724,-98089.36,-75367.27,14284.14,-27641.236,54865.684,-37252.156,-27024.822,26910.441
1387578.4086972356,-98115.93,-75394.21,14256.958,-27670.533,54871.38,-37284.18,-27049.725,26890.098
1387578.4126972312,-98157.84,-75437.664,14211.142,-27723.145,54859.254,-37331.625,-27083.13,26874.023
1387578.4166972267,-98156.3,-75438.234,14206.706,-27728.312,54805.42,-37332.438,-27081.787,26868.043
1387578.4206972222,-98107.34,-75390.016,14252.075,-27679.525,54810.914,-37285.44,-27041.22,26911.418
1387578.4246972175,-98076.13,-75354.45,14284.465,-27643.88,54855.348,-37251.465,-27019.41,26931.56
1387578.428697213,-98111.62,-75392.74,14256.511,-27676.27,54850.832,-37281.984,-27046.998,26894.287
1387578.4326972086,-98159.43,-75442.95,14214.193,-27730.307,54811.32,-37328.94,-27083.416,26858.36
1387578.4366972041,-98165.24,-75447.47,14206.869,-27739.625,54792.766,-37334.92,-27088.055,26849.326
1387578.4406971994,-98123.21,-75404.5,14244.914,-27691.0,54806.48,-37290.082,-27058.799,26869.305
1387578.444697195,-98088.016,-75371.7,14276.815,-27652.832,54850.996,-37256.96,-27035.156,26908.652
1387578.4486971905,-98110.72,-75401.45,14253.378,-27685.67,54864.543,-37290.12,-27059.367,26908.691
1387578.452697186,-98152.914,-75446.125,14211.63,-27734.375,54834.35,-37335.855,-27096.232,26861.492
1387578.4566971816,-98153.164,-75444.625,14205.852,-27736.29,54790.61,-37333.7,-27094.28,26846.355
1387578.4606971769,-98114.1,-75402.02,14245.524,-27690.43,54803.836,-37290.61,-27063.965,26862.305
1387578.4646971724,-98081.586,-75371.75,14280.3955,-27652.873,54850.668,-37261.027,-27044.678,26886.557
1387578.468697168,-98106.53,-75400.44,14256.958,-27682.781,54874.35,-37289.266,-27062.012,26906.535
1387578.4726971635,-98145.8,-75443.24,14216.96,-27732.016,54842.082,-37334.8,-27093.547,26878.867
1387578.4766971588,-98147.22,-75439.7,14214.071,-27737.469,54812.91,-37339.926,-27095.703,26857.586
1387578.4806971543,-98105.19,-75397.87,14252.319,-27688.844,54822.023,-37295.37,-27065.105,26876.67
1387578.4846971498,-98074.586,-75364.664,14281.128,-27650.758,54862.062,-37257.938,-27035.889,26913.78
1387578.4886971454,-98103.4,-75385.945,14255.493,-27681.031,54890.547,-37287.027,-27060.629,26890.016
1387578.492697141,-98148.97,-75432.375,14213.745,-27732.463,54858.074,-37331.016,-27093.832,26861.084
1387578.4966971362,-98156.58,-75443.56,14208.903,-27738.078,54815.594,-37333.133,-27090.82,26869.346
1387578.5006971317,-98113.85,-75403.69,14251.831,-27690.797,54807.7,-37290.855,-27061.361,26895.793
1387578.5046971273,-98073.49,-75362.14,14294.475,-27649.049,54839.805,-37259.402,-27042.725,26893.434
1387578.5086971228,-98092.125,-75386.195,14264.689,-27678.71,54873.535,-37291.75,-27065.512,26890.504
1387578.5126971183,-98129.36,-75430.26,14223.308,-27726.604,54844.934,-37337.484,-27096.72,26872.314
1387578.5166971136,-98130.62,-75431.48,14222.046,-27728.312,54819.094,-37337.2,-27094.28,26860.19
1387578.5206971092,-98101.484,-75390.38,14259.359,-27683.27,54813.805,-37290.203,-27055.99,26892.863
1387578.5246971047,-98076.664,-75363.61,14290.324,-27647.502,54856.285,-37254.598,-27028.89,26924.684
1387578.5286971002,-98101.445,-75388.96,14264.689,-27678.143,54890.26,-37286.297,-27048.748,26918.986
1387578.5326970955,-98142.664,-75434.62,14224.528,-27728.68,54870.973,-37331.91,-27080.201,26889.568
1387578.536697091,-98144.82,-75442.06,14219.931,-27735.23,54813.6,-37336.59,-27086.955,26864.219
1387578.5406970866,-98101.61,-75397.83,14264.853,-27687.217,54809.164,-37292.562,-27056.438,26888.592
1387578.5446970821,-98071.66,-75368.29,14297.16,-27651.205,54854.37,-37257.324,-27029.297,26917.074
1387578.5486970777,-98095.87,-75391.52,14269.45,-27678.793,54864.465,-37286.05,-27052.002,26901.652
1387578.552697073,-98133.836,-75430.71,14229.126,-27723.674,54841.84,-37332.195,-27091.96,26849.406
1387578.5566970685,-98139.9,-75433.92,14223.877,-27728.477,54838.098,-37334.72,-27094.768,26853.516
1387578.560697064,-98102.83,-75391.03,14259.399,-27682.09,54826.742,-37292.523,-27069.988,26863.281
1387578.5646970596,-98073.9,-75361.9,14287.354,-27647.502,54874.92,-37263.43,-27048.666,26896.078
1387578.5686970549,-98097.17,-75387.9,14261.638,-27677.572,54892.375,-37295.047,-27065.918,26902.344
1387578.5726970504,-98139.33,-75434.45,14221.313,-27725.627,54853.152,-37339.844,-27096.924,26873.535
1387578.576697046,-98143.48,-75446.25,14213.095,-27732.504,54803.1,-37342.613,-27101.727,26858.684
1387578.5806970415,-98099.41,-75404.91,14255.819,-27681.64,54802.004,-37296.633,-27070.8,26865.031
1387578.584697037,-98071.336,-75372.07,14291.342,-27646.484,54858.81,-37263.836,-27046.184,26887.371
1387578.5886970323,-98103.88,-75404.83,14265.544,-27680.38,54867.23,-37292.4,-27060.426,26899.537
1387578.5926970278,-98148.69,-75451.46,14221.721,-27731.975,54842.98,-37336.426,-27094.402,26867.066
1387578.5966970234,-98151.62,-75451.5,14215.251,-27736.41,54815.637,-37339.926,-27100.303,26854.9
1387578.600697019,-98103.4,-75402.75,14252.6455,-27687.012,54820.68,-37293.17,-27065.594,26890.87
1387578.6046970142,-98066.125,-75365.64,14283.203,-27648.967,54869.63,-37259.36,-27040.691,26913.006
1387578.6086970097,-98097.82,-75396.484,14255.981,-27682.984,54887.74,-37293.742,-27063.682,26914.389
1387578.6126970053,-98138.1,-75439.54,14217.489,-27731.975,54852.785,-37339.97,-27098.145,26879.844
1387578.6166970008,-98136.03,-75439.336,14218.1,-27735.637,54818.08,-37341.88,-27096.64,26879.191
1387578.6206969963,-98089.44,-75396.81,14260.905,-27685.588,54816.895,-37298.18,-27068.97,26888.389
1387578.6246969916,-98059.125,-75364.83,14293.783,-27646.037,54859.945,-37266.6,-27055.096,26883.871
1387578.6286969872,-98099.81,-75395.555,14264.975,-27678.223,54870.973,-37299.48,-27077.475,26882.854
1387578.6326969827,-98147.99,-75445.4,14219.931,-27728.557,54842.492,-37343.508,-27105.754,26864.828
1387578.6366969782,-98158.86,-75456.625,14206.747,-27736.654,54795.535,-37345.867,-27105.145,26850.83
1387578.6406969735,-98115.56,-75404.5,14247.152,-27686.28,54800.457,-37298.87,-27071.697,26852.947
1387578.644696969,-98073.98,-75361.62,14282.268,-27648.072,54853.355,-37266.684,-27044.475,26888.916
1387578.6486969646,-98105.02,-75403.52,14256.145,-27682.537,54867.188,-37293.54,-27059.002,26901.979
1387578.6526969601,-98149.78,-75451.7,14215.373,-27732.057,54846.844,-37338.707,-27090.332,26870.688
1387578.6566969557,-98146.164,-75450.52,14211.182,-27734.295,54808.39,-37341.758,-27093.955,26855.266
1387578.660696951,-98102.18,-75408.57,14251.303,-27685.547,54818.44,-37299.234,-27063.965,26884.074
1387578.6646969465,-98069.54,-75373.3,14283.732,-27645.752,54858.848,-37266.4,-27042.156,26906.455
1387578.668696942,-98102.83,-75403.61,14257.568,-27678.143,54874.51,-37292.36,-27060.588,26883.18
1387578.6726969376,-98147.99,-75450.73,14215.82,-27732.016,54836.387,-37335.164,-27088.867,26877.89
1387578.676696933,-98153.61,-75449.875,14214.111,-27733.807,54807.09,-37337.2,-27091.92,26863.893
1387578.6806969284,-98109.09,-75408.94,14253.825,-27682.943,54817.383,-37295.25,-27062.744,26870.037
1387578.684696924,-98075.04,-75379.516,14286.987,-27645.752,54860.8,-37262.613,-27037.518,26910.645
1387578.6886969195,-98102.5,-75408.086,14260.092,-27678.06,54875.33,-37293.133,-27060.588,26899.781
1387578.692696915,-98147.75,-75452.516,14212.443,-27728.516,54827.68,-37339.316,-27093.955,26878.744
1387578.6966969103,-98156.09,-75462.52,14207.602,-27730.957,54799.44,-37338.625,-27091.635,26858.928
1387578.7006969058,-98114.83,-75420.21,14245.6875,-27681.113,54817.832,-37295.695,-27064.209,26862.793
1387578.7046969014,-98083.01,-75382.29,14279.013,-27645.305,54847.863,-37263.836,-27037.518,26915.447
1387578.708696897,-98118.82,-75415.81,14251.587,-27679.2,54856.57,-37299.887,-27063.762,26895.834
1387578.7126968924,-98159.63,-75459.07,14212.077,-27728.232,54826.336,-37345.906,-27100.139,26853.027
1387578.7166968877,-98161.46,-75462.81,14209.514,-27732.016,54813.4,-37346.926,-27099.121,26843.791
1387578.7206968833,-98122.32,-75421.92,14248.901,-27684.408,54820.273,-37301.8,-27063.559,26876.547
1387578.7246968788,-98089.64,-75389.08,14281.779,-27647.137,54851.77,-37265.707,-27032.838,26911.582
1387578.7286968743,-98116.336,-75415.49,14259.44,-27680.543,54873.17,-37295.656,-27053.672,26902.385
1387578.7326968696,-98162.6,-75458.62,14215.617,-27729.29,54849.816,-37340.984,-27083.334,26889.893
1387578.7366968652,-98166.38,-75461.8,14210.246,-27731.975,54803.387,-37343.914,-27086.346,26876.588
1387578.7406968607,-98123.414,-75419.76,14245.646,-27685.629,54808.105,-37303.754,-27063.232,26865.072
1387578.7446968562,-98086.39,-75383.99,14274.13,-27648.154,54853.273,-37270.996,-27038.697,26880.291
1387578.7486968518,-98116.336,-75415.695,14252.319,-27679.729,54859.906,-37299.848,-27055.705,26893.637
1387578.752696847,-98165.94,-75461.63,14212.443,-27730.469,54825.32,-37343.668,-27085.45,26873.008
1387578.7566968426,-98173.47,-75465.82,14208.578,-27738.078,54794.92,-37345.543,-27088.096,26862.143
1387578.7606968381,-98129.64,-75426.88,14249.268,-27694.336,54796.55,-37305.91,-27066.57,26865.764
1387578.7646968337,-98098.19,-75398.84,14277.832,-27655.967,54844.32,-37274.945,-27054.688,26880.738
1387578.768696829,-98133.51,-75433.02,14246.542,-27688.03,54862.633,-37309.164,-27084.434,26863.975
1387578.7726968245,-98179.164,-75474.41,14198.73,-27738.322,54848.797,-37357.137,-27120.117,26837.2
1387578.77669682,-98183.72,-75475.42,14190.959,-27743.816,54796.836,-37359.09,-27118.979,26836.346
1387578.7806968156,-98138.67,-75431.195,14235.148,-27695.273,54790.61,-37313.52,-27082.764,26863.566
1387578.784696811,-98107.586,-75399.17,14267.741,-27659.994,54824.79,-37278.688,-27055.176,26883.912
1387578.7886968064,-98136.44,-75429.65,14246.908,-27692.588,54847.13,-37304.04,-27067.018,26900.025
1387578.792696802,-98171.76,-75468.1,14212.077,-27743.49,54824.016,-37348.023,-27096.355,26868.37
1387578.7966967975,-98173.26,-75471.516,14210.653,-27749.188,54795.777,-37351.402,-27097.941,26838.217
1387578.800696793,-98127.445,-75424.32,14249.1455,-27700.645,54833.58,-37307.047,-27062.623,26872.723
1387578.8046967885,-98089.07,-75385.58,14281.657,-27661.094,54875.33,-37272.625,-27038.535,26904.664
1387578.8086967838,-98122.64,-75419.76,14250.488,-27693.156,54876.832,-37305.992,-27063.03,26897.217
1387578.8126967794,-98175.945,-75468.586,14200.399,-27743.613,54825.81,-37352.582,-27099.53,26859.498
1387578.816696775,-98180.305,-75478.31,14190.918,-27750.938,54775.027,-37356.527,-27109.05,26831.584
1387578.8206967704,-98145.43,-75445.805,14226.034,-27712.646,54784.305,-37317.26,-27083.13,26859.13
1387578.8246967657,-98116.5,-75417.12,14261.19,-27675.742,54830.203,-37286.094,-27062.46,26891.195
1387578.8286967613,-98139.9,-75444.99,14241.211,-27703.004,54851.2,-37313.19,-27084.514,26885.215
1387578.8326967568,-98181.73,-75479.414,14203.41,-27749.432,54846.64,-37354.98,-27118.816,26852.377
1387578.8366967523,-98179.2,-75477.26,14200.155,-27754.15,54793.133,-37359.375,-27118.084,26856.65
1387578.8406967479,-98130.82,-75436.04,14238.444,-27705.566,54807.7,-37317.547,-27089.479,26860.352
1387578.8446967432,-98096.195,-75399.375,14265.869,-27666.586,54844.484,-37285.402,-27067.139,26871.705
1387578.8486967387,-98125.98,-75427.25,14239.746,-27693.36,54860.35,-37313.355,-27079.63,26881.43
1387578.8526967342,-98167.97,-75468.02,14200.928,-27740.764,54841.758,-37357.953,-27108.033,26862.225
1387578.8566967298,-98166.836,-75471.07,14200.928,-27745.24,54810.63,-37362.062,-27109.13,26852.459
1387578.860696725,-98124.39,-75432.82,14246.176,-27698.04,54814.21,-37320.152,-27078.086,26873.496
1387578.8646967206,-98096.16,-75404.5,14278.32,-27660.768,54844.445,-37288.574,-27053.71,26904.42
1387578.8686967161,-98126.875,-75430.95,14253.784,-27688.682,54847.13,-37315.348,-27070.557,26882.53
1387578.8726967117,-98171.43,-75475.63,14208.822,-27736.816,54814.78,-37361.004,-27113.037,26842.57
1387578.8766967072,-98176.92,-75480.06,14199.545,-27743.002,54787.723,-37367.066,-27129.6,26835.49
1387578.8806967025,-98132.41,-75435.02,14238.852,-27693.889,54801.477,-37323.57,-27109.13,26844.238
1387578.884696698,-98094.69,-75398.484,14271.159,-27655.111,54847.78,-37290.242,-27089.926,26876.547
1387578.8886966936,-98117.96,-75424.97,14249.675,-27685.426,54857.79,-37316.855,-27106.568,26880.82
1387578.892696689,-98160.41,-75461.914,14211.548,-27736.98,54833.863,-37361.492,-27137.086,26858.318
1387578.8966966844,-98157.39,-75462.2,14211.955,-27743.002,54805.746,-37365.03,-27138.389,26828.94
1387578.90069668,-98114.586,-75424.234,14256.877,-27694.174,54795.574,-37316.652,-27095.5,26860.719
1387578.9046966755,-98080.81,-75389.98,14295.41,-27652.06,54851.727,-37279.297,-27061.85,26898.316
1387578.908696671,-98110.805,-75422.734,14266.113,-27682.7,54883.953,-37309.773,-27078.818,26899.578
1387578.9126966665,-98163.086,-75476.04,14213.542,-27734.904,54850.996,-37360.066,-27115.031,26859.58
1387578.9166966619,-98177.78,-75493.05,14198.771,-27741.416,54793.457,-37361.086,-27114.38,26845.053
1387578.9206966574,-98136.36,-75449.99,14235.026,-27696.371,54791.87,-37318.2,-27085.693,26863.037
1387578.924696653,-98104.13,-75387.66,14273.479,-27655.844,54839.6,-37286.746,-27070.395,26877.564
1387578.9286966485,-98122.44,-75423.95,14246.135,-27687.623,54860.68,-37314.78,-27092.773,26891.398
1387578.932696644,-98147.55,-75479.984,14203.41,-27740.234,54820.8,-37358.44,-27125.693,26869.59
1387578.9366966393,-98149.5,-75476.16,14203.9795,-27741.13,54793.38,-37360.066,-27134.197,26827.23
1387578.9406966348,-98105.59,-75427.94,14245.972,-27693.93,54807.457,-37321.004,-27111.451,26811.32
1387578.9446966304,-98066.164,-75384.16,14280.925,-27653.729,54849.203,-37286.867,-27088.096,26830.283
1387578.948696626,-98095.055,-75411.99,14249.634,-27684.693,54861.29,-37315.023,-27105.145,26842.002
1387578.9526966212,-98142.46,-75456.016,14198.608,-27738.77,54840.863,-37363.73,-27138.348,26835.205
1387578.9566966167,-98145.96,-75455.28,14192.017,-27745.402,54802.37,-37367.8,-27141.766,26809.855
1387578.9606966123,-98100.875,-75415.94,14234.457,-27698.975,54792.035,-37321.82,-27111.125,26813.965
1387578.9646966078,-98072.63,-75389.65,14270.264,-27661.338,54833.17,-37283.895,-27085.002,26850.098
1387578.9686966033,-98132.57,-75427.33,14246.745,-27691.0,54852.746,-37312.99,-27105.877,26856.365
1387578.9726965986,-98179.89,-75480.59,14207.602,-27739.543,54827.598,-37360.8,-27143.066,26830.69
1387578.9766965942,-98146.89,-75484.87,14198.446,-27747.682,54781.863,-37368.41,-27149.74,26818.768
1387578.9806965897,-98107.1,-75439.945,14236.532,-27701.783,54790.164,-37327.92,-27119.06,26839.275
1387578.9846965852,-98076.74,-75405.44,14271.484,-27658.57,54838.055,-37291.3,-27087.852,26876.953
1387578.9886965805,-98112.06,-75437.79,14242.106,-27687.95,54842.41,-37318.89,-27103.557,26871.908
1387578.992696576,-98162.516,-75483.03,14197.998,-27737.998,54809.777,-37364.34,-27135.498,26830.404
1387578.9966965716,-98172.98,-75488.65,14193.359,-27744.508,54781.66,-37367.312,-27138.389,26817.344
1387579.0006965671,-98139.33,-75448.98,14233.236,-27697.959,54786.867,-37322.023,-27107.707,26833.62
1387579.0046965627,-98100.914,-75418.336,14266.439,-27661.906,54814.414,-37286.54,-27081.178,26848.227
1387579.008696558,-98129.31,-75449.79,14240.561,-27695.68,54837.688,-37312.664,-27095.744,26835.775
1387579.0126965535,-98172.08,-75500.05,14197.917,-27748.861,54819.703,-37358.93,-27127.686,26817.791
1387579.016696549,-98172.445,-75506.23,14195.801,-27751.709,54789.39,-37359.58,-27130.25,26809.123
1387579.0206965446,-98132.41,-75463.22,14232.341,-27703.736,54779.22,-37317.547,-27103.395,26796.104
1387579.0246965399,-98104.45,-75433.555,14260.783,-27664.756,54805.176,-37283.938,-27079.143,26816.53
1387579.0286965354,-98137.125,-75464.36,14227.743,-27694.785,54807.66,-37310.75,-27096.07,26819.336
1387579.032696531,-98181.52,-75507.086,14179.24,-27744.834,54802.86,-37357.34,-27133.342,26775.84
1387579.0366965265,-98187.79,-75510.91,14171.835,-27751.547,54754.844,-37362.754,-27139.854,26766.113
1387579.040696522,-98142.54,-75466.68,14217.245,-27704.225,54759.484,-37320.598,-27110.393,26785.238
1387579.0446965173,-98102.945,-75431.195,14259.726,-27666.465,54801.598,-37287.477,-27089.396,26815.35
1387579.0486965128,-98128.055,-75465.17,14242.595,-27697.266,54838.098,-37315.105,-27106.812,26832.154
1387579.0526965084,-98170.33,-75513.96,14204.834,-27744.305,54801.066,-37361.41,-27141.398,26800.781
1387579.056696504,-98172.695,-75512.33,14202.026,-27747.803,54772.746,-37367.637,-27148.193,26787.07
1387579.0606964992,-98131.35,-75463.55,14240.072,-27698.65,54777.793,-37323.73,-27118.002,26818.809
1387579.0646964947,-98105.23,-75431.48,14267.904,-27659.547,54815.227,-37288.7,-27096.232,26835.246
1387579.0686964903,-98134.61,-75457.484,14238.037,-27689.861,54836.914,-37317.75,-27113.81,26834.922
1387579.0726964858,-98178.06,-75496.14,14191.162,-27739.91,54808.27,-37363.04,-27139.73,26821.371
1387579.0766964813,-98179.41,-75494.47,14185.791,-27748.576,54784.508,-37363.04,-27137.818,26797.648
1387579.0806964766,-98137.58,-75456.79,14223.593,-27707.48,54791.547,-37322.184,-27106.162,26819.215
1387579.0846964722,-98099.81,-75429.57,14260.092,-27673.219,54811.16,-37290.69,-27085.125,26845.826
1387579.0886964677,-98125.77,-75456.586,14240.438,-27701.377,54841.516,-37315.918,-27101.28,26850.22
1387579.0926964632,-98171.15,-75501.06,14202.312,-27748.7,54815.594,-37363.12,-27134.482,26811.361
1387579.0966964588,-98174.484,-75507.086,14202.148,-27752.32,54784.26,-37370.08,-27145.143,26787.965
1387579.100696454,-98132.86,-75463.38,14241.171,-27703.613,54797.0,-37327.027,-27123.576,26792.115
1387579.1046964496,-98100.55,-75428.76,14271.606,-27664.023,54818.848,-37289.836,-27102.744,26803.346
1387579.1086964451,-98130.66,-75457.195,14243.693,-27696.9,54836.996,-37317.87,-27121.217,26810.752
1387579.1126964407,-98176.31,-75505.695,14195.842,-27752.158,54813.926,-37365.48,-27154.176,26786.541
1387579.116696436,-98180.26,-75509.08,14189.779,-27760.336,54765.42,-37367.35,-27152.344,26786.256
1387579.1206964315,-98140.75,-75466.23,14229.533,-27717.164,54768.516,-37322.145,-27117.432,26811.973
1387579.124696427,-98095.055,-75428.8,14267.822,-27679.77,54808.312,-37286.133,-27093.14,26813.518
1387579.1286964226,-98114.34,-75451.055,14247.233,-27709.229,54830.363,-37313.438,-27108.521,26813.193
1387579.132696418,-98156.13,-75497.195,14205.282,-27758.912,54808.312,-37357.953,-27135.783,26805.95
1387579.1366964134,-98160.12,-75496.5,14199.748,-27760.418,54763.184,-37359.336,-27135.986,26802.94
1387579.140696409,-98120.85,-75454.8,14238.322,-27712.729,54780.48,-37318.36,-27103.11,26842.938
1387579.1446964045,-98088.26,-75421.63,14270.874,-27673.3,54818.484,-37286.785,-27081.463,26852.336
1387579.1486964,-98113.9,-75443.12,14249.553,-27701.295,54840.332,-37317.06,-27107.422,26840.008
1387579.1526963953,-98156.5,-75489.14,14210.327,-27752.158,54831.42,-37363.445,-27141.398,26814.902
1387579.1566963908,-98158.61,-75490.16,14202.556,-27759.115,54798.34,-37368.53,-27143.84,26797.607
1387579.1606963864,-98110.97,-75441.164,14245.605,-27707.846,54801.68,-37323.65,-27110.8,26816.203
1387579.164696382,-98077.07,-75409.016,14281.576,-27667.074,54843.793,-37288.82,-27083.62,26862.672
1387579.1686963774,-98118.82,-75459.31,14250.651,-27701.377,54850.75,-37317.953,-27105.225,26866.66
1387579.1726963727,-98169.03,-75502.61,14203.003,-27750.53,54815.35,-37362.223,-27144.043,26820.191
1387579.1766963683,-98154.34,-75476.4,14203.613,-27752.117,54785.566,-37367.35,-27153.89,26789.227
1387579.1806963638,-98105.875,-75429.37,14243.205,-27705.975,54782.637,-37325.24,-27123.658,26802.531
1387579.1846963593,-98080.85,-75401.695,14272.99,-27670.574,54832.074,-37286.094,-27092.53,26836.06
1387579.1886963546,-98117.15,-75436.93,14247.844,-27704.51,54861.535,-37310.547,-27102.418,26848.064
1387579.1926963502,-98158.66,-75480.1,14205.974,-27759.197,54825.277,-37357.504,-27134.033,26822.836
1387579.1966963457,-98164.68,-75487.836,14197.47,-27765.87,54799.887,-37360.883,-27134.482,26814.535
1387579.2006963412,-98122.805,-75442.14,14230.388,-27716.473,54813.926,-37319.215,-27103.436,26847.78
1387579.2046963368,-98091.68,-75409.875,14268.515,-27676.922,54849.53,-37285.28,-27081.787,26856.73
1387579.208696332,-98125.29,-75443.16,14236.857,-27705.73,54868.125,-37315.43,-27103.068,26861.695
1387579.2126963276,-98168.3,-75487.96,14192.993,-27753.135,54837.812,-37362.02,-27137.615,26824.342
1387579.2166963231,-98171.266,-75490.484,14187.866,-27755.982,54799.195,-37367.23,-27143.19,26812.988
1387579.2206963187,-98127.2,-75445.4,14228.923,-27708.496,54797.527,-37326.54,-27118.002,26820.72
1387579.2246963142,-98089.4,-75411.87,14272.502,-27668.701,54826.38,-37291.42,-27092.57,26836.387
1387579.2286963095,-98116.83,-75438.4,14255.9,-27698.854,54834.96,-37316.164,-27107.463,26847.861
1387579.232696305,-98158.77,-75483.93,14215.17,-27751.018,54820.152,-37363.973,-27143.31,26825.521
1387579.2366963006,-98163.414,-75494.02,14208.618,-27758.139,54786.906,-37368.855,-27148.113,26793.54
1387579.240696296,-98120.2,-75455.57,14247.192,-27715.332,54800.01,-37327.555,-27117.514,26807.414
1387579.2446962914,-98086.14,-75421.59,14279.948,-27676.88,54832.805,-37292.117,-27087.24,26843.791
1387579.248696287,-98108.28,-75442.38,14258.383,-27700.848,54853.477,-37315.348,-27099.0,26840.82
1387579.2526962825,-98158.33,-75487.63,14213.42,-27752.727,54821.086,-37359.457,-27130.088,26816.936
1387579.256696278,-98164.92,-75491.13,14206.543,-27757.121,54789.39,-37362.1,-27135.906,26777.71
1387579.2606962735,-98126.18,-75454.836,14241.333,-27713.46,54790.57,-37321.047,-27104.86,26791.545
1387579.2646962688,-98099.29,-75429.484,14273.112,-27677.166,54831.3,-37285.117,-27070.557,26847.373
1387579.2686962644,-98126.59,-75452.68,14248.901,-27706.951,54848.27,-37312.906,-27089.6,26849.814
1387579.27269626,-98168.09,-75494.06,14204.346,-27757.53,54830.285,-37361.86,-27128.297,26819.133
1387579.2766962554,-98168.375,-75497.73,14200.195,-27763.916,54791.016,-37366.7,-27134.807,26815.43
1387579.2806962507,-98124.555,-75454.875,14241.862,-27717.123,54795.777,-37326.418,-27109.213,26829.834
1387579.2846962463,-98090.375,-75420.695,14276.449,-27675.334,54835.777,-37292.848,-27096.355,26831.178
1387579.2886962418,-98118.125,-75444.42,14249.187,-27699.871,54859.824,-37319.176,-27119.02,26822.227
1387579.2926962373,-98167.61,-75491.91,14200.236,-27752.158,54825.24,-37370.117,-27155.396,26810.914
1387579.2966962329,-98175.83,-75497.73,14191.61,-27759.686,54792.117,-37377.36,-27165.365,26775.473
1387579.3006962282,-98135.016,-75456.99,14231.608,-27711.387,54798.953,-37335.574,-27134.645,26784.994
1387579.3046962237,-98100.79,-75424.03,14264.445,-27671.55,54830.773,-37298.91,-27101.28,26843.67
1387579.3086962192,-98132.0,-75455.2,14242.92,-27705.242,54844.566,-37327.637,-27118.49,26850.098
1387579.3126962148,-98179.98,-75502.81,14199.463,-27757.773,54810.832,-37372.844,-27151.123,26816.57
1387579.31669621,-98182.01,-75505.414,14190.43,-27760.092,54776.45,-37372.316,-27152.996,26789.592
1387579.3206962056,-98143.516,-75462.484,14222.982,-27714.52,54789.473,-37332.645,-27125.408,26795.248
1387579.3246962011,-98114.51,-75430.14,14249.35,-27676.066,54832.195,-37298.91,-27100.994,26813.03
1387579.3286961967,-98142.74,-75457.08,14232.056,-27704.754,54847.78,-37324.87,-27116.578,26820.72
1387579.3326961922,-98184.86,-75502.73,14188.599,-27753.174,54812.746,-37366.414,-27142.416,26815.064
1387579.3366961875,-98184.66,-75502.81,14186.728,-27758.424,54778.363,-37370.973,-27150.635,26768.271
1387579.340696183,-98142.54,-75462.484,14224.609,-27713.176,54777.47,-37330.895,-27128.988,26746.217
1387579.3446961786,-98116.336,-75440.63,14254.639,-27675.822,54813.926,-37297.242,-27106.486,26786.662
1387579.348696174,-98150.11,-75475.1,14230.103,-27707.928,54846.152,-37325.727,-27126.303,26797.283
1387579.3526961696,-98196.01,-75522.34,14186.728,-27759.156,54831.707,-37373.21,-27161.865,26775.92
1387579.356696165,-98196.86,-75528.85,14183.513,-27766.074,54791.992,-37378.99,-27165.812,26770.996
1387579.3606961605,-98152.96,-75482.586,14222.697,-27717.002,54794.273,-37335.004,-27134.4,26795.41
1387579.364696156,-98118.05,-75441.81,14255.819,-27676.107,54829.023,-37304.363,-27114.787,26799.236
1387579.3686961515,-98142.91,-75466.88,14236.003,-27702.557,54839.684,-37330.527,-27128.256,26809.693
1387579.3726961468,-98184.33,-75506.06,14192.261,-27751.67,54803.184,-37375.082,-27154.785,26789.512
1387579.3766961424,-98187.18,-75504.11,14184.611,-27760.865,54775.72,-37383.06,-27157.959,26776.896
1387579.380696138,-98146.734,-75464.97,14219.523,-27717.693,54790.49,-37340.863,-27125.732,26810.264
1387579.3846961334,-98110.97,-75426.11,14255.9,-27677.49,54832.195,-37300.984,-27093.385,26845.744
1387579.388696129,-98137.375,-75452.44,14234.945,-27706.584,54849.285,-37328.25,-27110.76,26841.676
1387579.3926961243,-98181.234,-75499.88,14193.889,-27758.018,54808.105,-37376.26,-27148.479,26807.902
1387579.3966961198,-98178.63,-75504.72,14189.087,-27761.8,54777.305,-37381.348,-27156.332,26801.107
1387579.4006961153,-98132.086,-75460.45,14232.707,-27711.223,54780.03,-37340.332,-27137.29,26795.695
1387579.4046961109,-98097.74,-75431.195,14272.583,-27670.898,54812.582,-37307.902,-27115.479,26817.588
1387579.4086961062,-98125.9,-75457.484,14247.925,-27696.209,54819.5,-37331.22,-27125.367,26838.096
1387579.4126961017,-98171.06,-75500.25,14203.41,-27745.2,54800.703,-37377.81,-27162.03,26802.654
1387579.4166960972,-98181.89,-75508.38,14193.848,-27753.582,54766.4,-37386.11,-27169.76,26767.13
1387579.4206960928,-98145.8,-75473.72,14228.027,-27708.496,54784.508,-37343.14,-27137.574,26797.934
1387579.4246960883,-98109.83,-75437.79,14259.888,-27671.51,54830.61,-37307.82,-27111.654,26826.904
1387579.4286960836,-98138.96,-75466.27,14233.562,-27703.777,54828.25,-37337.73,-27130.615,26813.314
1387579.4326960791,-98184.57,-75512.86,14190.43,-27756.309,54801.758,-37382.938,-27164.592,26771.16
1387579.4366960747,-98191.9,-75519.49,14184.082,-27760.295,54755.293,-37382.04,-27165.895,26758.75
1387579.4406960702,-98154.75,-75479.78,14222.575,-27714.52,54756.473,-37337.402,-27128.012,26791.139
1387579.4446960655,-98117.88,-75445.6,14253.418,-27676.434,54808.105,-37302.613,-27103.312,26809.896
1387579.448696061,-98147.055,-75475.34,14230.754,-27705.16,54835.816,-37331.504,-27122.559,26810.873
1387579.4526960566,-98186.32,-75517.625,14191.569,-27755.209,54807.21,-37377.523,-27150.717,26804.24
1387579.456696052,-98185.47,-75513.96,14189.697,-27760.662,54775.312,-37382.977,-27161.621,26771.363
1387579.4606960476,-98143.03,-75471.48,14230.673,-27712.607,54776.574,-37341.84,-27137.492,26763.672
1387579.464696043,-98114.1,-75447.76,14264.364,-27673.178,54805.543,-37307.008,-27109.783,26814.697
1387579.4686960385,-98144.695,-75477.945,14239.828,-27701.986,54850.75,-37335.574,-27130.332,26815.105
1387579.472696034,-98185.51,-75521.0,14195.883,-27751.426,54818.605,-37378.543,-27160.727,26785.4
1387579.4766960295,-98195.766,-75528.61,14184.692,-27762.9,54768.637,-37384.89,-27168.621,26761.395
1387579.4806960248,-98154.7,-75486.49,14219.849,-27720.135,54785.605,-37344.08,-27138.55,26778.729
1387579.4846960204,-98122.234,-75454.59,14250.61,-27683.676,54821.777,-37309.043,-27112.266,26817.668
1387579.488696016,-98164.76,-75493.086,14226.359,-27714.52,54823.285,-37332.195,-27125.0,26826.498
1387579.4926960114,-98220.7,-75540.33,14180.217,-27765.79,54799.727,-37376.547,-27156.982,26786.377
1387579.496696007,-98205.41,-75529.75,14180.339,-27767.09,54754.477,-37380.7,-27165.61,26752.564
1387579.5006960023,-98149.3,-75476.28,14227.295,-27716.309,54768.84,-37339.76,-27138.836,26769.492
1387579.5046959978,-98112.875,-75445.15,14263.347,-27677.084,54824.914,-37305.79,-27112.346,26806.723
1387579.5086959933,-98138.02,-75477.46,14239.136,-27703.777,54852.46,-37333.008,-27128.703,26813.844
1387579.5126959889,-98180.914,-75526.414,14193.237,-27753.338,54811.973,-37379.11,-27158.367,26802.49
1387579.5166959844,-98189.01,-75533.2,14182.089,-27761.8,54770.387,-37386.19,-27164.268,26778.484
1387579.5206959797,-98153.52,-75499.35,14220.825,-27713.705,54778.605,-37339.6,-27130.412,26794.8
1387579.5246959752,-98118.53,-75462.89,14254.924,-27675.01,54820.52,-37303.836,-27102.662,26837.525
1387579.5286959708,-98146.77,-75490.4,14231.527,-27703.41,54836.793,-37333.09,-27123.455,26810.426
1387579.5326959663,-98198.125,-75538.984,14190.512,-27753.867,54806.562,-37380.414,-27156.78,26787.639
1387579.5366959616,-98205.04,-75544.234,14186.768,-27761.8,54790.61,-37388.31,-27168.213,26774.658
1387579.5406959571,-98160.04,-75501.23,14225.22,-27714.926,54786.34,-37349.04,-27149.252,26769.166
1387579.5446959527,-98125.77,-75469.73,14261.516,-27673.422,54817.426,-37313.19,-27126.791,26796.348
1387579.5486959482,-98151.125,-75497.27,14236.369,-27701.336,54839.6,-37341.51,-27147.299,26775.066
1387579.5526959437,-98191.57,-75539.43,14193.075,-27750.814,54804.08,-37385.906,-27174.316,26754.111
1387579.556695939,-98194.87,-75542.766,14188.029,-27757.568,54750.207,-37387.86,-27167.318,26759.889
1387579.5606959346,-98155.6,-75502.41,14224.203,-27711.549,54763.105,-37342.69,-27130.9,26791.504
1387579.56469593,-98126.51,-75468.14,14258.423,-27673.951,54808.516,-37308.84,-27105.307,26813.273
1387579.5686959256,-98155.805,-75492.31,14237.59,-27700.684,54831.87,-37337.688,-27122.723,26817.303
1387579.572695921,-98202.44,-75535.65,14195.598,-27752.158,54804.973,-37383.668,-27151.572,26809.45
1387579.5766959165,-98207.12,-75544.31,14188.681,-27759.645,54767.418,-37387.574,-27150.514,26801.475
1387579.580695912,-98159.02,-75501.875,14230.388,-27711.793,54759.24,-37341.555,-27114.38,26833.863
1387579.5846959075,-98122.6,-75466.59,14267.375,-27672.975,54809.246,-37306.766,-27089.111,26861.736
1387579.588695903,-98144.086,-75489.914,14242.88,-27700.074,54817.508,-37333.496,-27107.91,26855.633
1387579.5926958984,-98185.1,-75532.48,14203.003,-27749.064,54777.71,-37377.973,-27140.098,26832.236
1387579.596695894,-98188.27,-75535.52,14192.221,-27756.633,54752.566,-37384.074,-27149.13,26805.584
1387579.6006958894,-98150.19,-75493.086,14225.79,-27711.143,54768.84,-37340.66,-27124.92,26799.643
1387579.604695885,-98124.92,-75465.05,14256.958,-27675.457,54816.652,-37307.293,-27102.621,26821.006
1387579.6086958803,-98158.45,-75497.93,14230.185,-27707.113,54831.75,-37334.598,-27124.512,26816.326
1387579.6126958758,-98205.24,-75548.26,14187.5,-27758.342,54786.664,-37379.883,-27160.889,26782.188
1387579.6166958713,-98210.53,-75554.69,14182.658,-27764.771,54749.96,-37388.31,-27171.021,26755.494
1387579.6206958669,-98166.34,-75513.875,14222.9,-27718.426,54745.65,-37347.21,-27148.193,26765.098
1387579.6246958624,-98133.586,-75481.28,14256.43,-27681.438,54768.637,-37315.43,-27125.285,26795.654
1387579.6286958577,-98158.77,-75509.69,14232.178,-27711.834,54790.367,-37344.81,-27143.434,26797.812
1387579.6326958532,-98202.4,-75551.59,14188.437,-27759.727,54791.098,-37386.92,-27168.906,26781.861
1387579.6366958488,-98205.81,-75550.26,14181.601,-27764.121,54766.277,-37389.406,-27168.865,26768.637
1387579.6406958443,-98161.75,-75507.125,14223.308,-27716.27,54761.027,-37347.984,-27136.842,26783.814
1387579.6446958398,-98124.84,-75472.91,14261.027,-27674.44,54793.05,-37315.066,-27109.66,26813.6
1387579.6486958351,-98151.125,-75500.53,14239.421,-27701.865,54814.94,-37345.01,-27129.559,26821.209
1387579.6526958307,-98197.88,-75546.23,14197.551,-27751.303,54775.8,-37391.277,-27162.395,26806.234
1387579.6566958262,-98200.24,-75549.69,14189.006,-27760.336,54744.223,-37396.04,-27166.3,26799.643
1387579.6606958217,-98157.96,-75507.98,14223.918,-27715.537,54768.027,-37353.152,-27135.498,26801.678
1387579.664695817,-98116.46,-75472.62,14259.848,-27674.56,54809.777,-37313.805,-27099.488,26845.5
1387579.6686958126,-98138.67,-75494.47,14237.224,-27701.295,54832.03,-37338.34,-27113.281,26854.168
1387579.672695808,-98186.61,-75540.445,14195.19,-27750.814,54797.285,-37381.348,-27139.771,26840.781
1387579.6766958036,-98189.45,-75542.32,14192.058,-27758.22,54758.223,-37385.824,-27145.06,26803.549
1387579.6806957992,-98146.33,-75497.93,14232.87,-27711.71,54767.58,-37342.734,-27118.002,26802.734
1387579.6846957945,-98122.84,-75471.195,14264.12,-27675.334,54791.465,-37309.45,-27095.744,26828.045
1387579.68869579,-98158.57,-75506.23,14234.131,-27708.457,54799.727,-37338.91,-27117.188,26824.871
1387579.6926957855,-98199.18,-75550.375,14192.424,-27757.121,54783.082,-37382.49,-27149.334,26801.475
1387579.696695781,-98198.086,-75556.93,14185.913,-27761.475,54744.47,-37386.355,-27150.92,26784.832
1387579.7006957764,-98157.92,-75514.0,14223.43,-27715.537,54767.375,-37343.793,-27121.135,26804.484
1387579.704695772,-98121.95,-75478.03,14256.145,-27676.025,54835.33,-37309.695,-27098.35,26834.88
1387579.7086957674,-98142.42,-75497.52,14236.491,-27699.79,54862.43,-37336.996,-27117.473,26837.2
1387579.712695763,-98182.414,-75540.125,14198.568,-27747.6,54813.355,-37385.906,-27152.67,26814.617
1387579.7166957585,-98189.5,-75544.15,14192.424,-27754.844,54748.293,-37395.508,-27164.062,26782.35
1387579.7206957538,-98147.1,-75500.53,14235.2705,-27712.158,54768.273,-37356.406,-27136.23,26806.64
1387579.7246957493,-98108.28,-75467.695,14272.299,-27671.266,54808.188,-37319.094,-27111.572,26845.215
1387579.7286957449,-98133.43,-75495.08,14251.872,-27696.818,54837.566,-37345.95,-27138.672,26830.16
1387579.7326957404,-98174.6,-75541.266,14211.63,-27746.95,54793.54,-37391.44,-27175.742,26791.504
1387579.7366957357,-98184.164,-75552.414,14203.451,-27755.168,54744.914,-37394.777,-27176.19,26787.559
1387579.7406957312,-98148.73,-75512.21,14237.509,-27712.24,54760.418,-37351.44,-27146.404,26807.17
1387579.7446957268,-98120.81,-75479.984,14265.585,-27677.572,54796.55,-37317.75,-27120.85,26830.078
1387579.7486957223,-98147.016,-75500.45,14243.49,-27706.992,54820.965,-37343.793,-27132.121,26833.62
1387579.7526957178,-98191.49,-75541.14,14204.55,-27756.836,54797.285,-37388.47,-27157.023,26821.86
1387579.7566957131,-98195.516,-75544.76,14199.951,-27763.836,54758.26,-37393.027,-27162.314,26796.428
1387579.7606957087,-98148.195,-75498.7,14243.49,-27717.49,54764.65,-37347.7,-27132.773,26786.621
1387579.7646957042,-98110.84,-75465.5,14277.385,-27677.898,54788.37,-37309.734,-27103.15,26818.4
1387579.7686956997,-98137.125,-75498.7,14254.191,-27710.328,54805.83,-37335.53,-27119.467,26825.889
1387579.7726956953,-98181.4,-75544.516,14208.293,-27761.395,54796.266,-37381.348,-27153.85,26797.73
1387579.7766956906,-98194.46,-75549.93,14199.667,-27768.31,54765.668,-37388.266,-27160.809,26788.047
1387579.7806956861,-98156.414,-75507.33,14237.387,-27722.129,54759.32,-37347.86,-27132.61,26811.768
1387579.7846956817,-98117.07,-75466.68,14271.484,-27681.885,54799.766,-37313.355,-27111.777,26835.043
1387579.7886956772,-98146.85,-75499.63,14247.966,-27709.473,54827.273,-37339.438,-27131.959,26831.137
1387579.7926956725,-98194.95,-75548.22,14203.817,-27760.947,54804.04,-37386.56,-27167.807,26790.977
1387579.796695668,-98197.11,-75551.59,14195.923,-27768.84,54763.88,-37393.68,-27175.416,26772.055
1387579.8006956636,-98159.8,-75514.2,14231.73,-27725.22,54768.395,-37352.38,-27146.607,26802.246
1387579.804695659,-98120.164,-75479.05,14268.311,-27683.96,54808.72,-37314.82,-27121.826,26818.28
1387579.8086956546,-98142.78,-75504.4,14245.361,-27708.822,54847.535,-37342.773,-27141.684,26794.068
1387579.81269565,-98183.234,-75542.97,14205.363,-27756.756,54823.324,-37387.25,-27172.527,26765.137
1387579.8166956455,-98189.336,-75546.19,14198.771,-27764.69,54774.7,-37392.78,-27174.521,26763.428
1387579.820695641,-98149.055,-75505.45,14237.102,-27719.28,54797.04,-37354.656,-27143.066,26797.812
1387579.8246956365,-98111.29,-75468.1,14269.735,-27678.184,54854.25,-37321.98,-27118.164,26826.336
1387579.8286956318,-98138.875,-75493.66,14246.989,-27707.357,54865.848,-37349.203,-27135.092,26829.266
1387579.8326956274,-98191.29,-75544.6,14204.672,-27762.29,54831.586,-37394.125,-27168.54,26800.09
1387579.836695623,-98201.09,-75555.46,14190.512,-27775.025,54799.97,-37398.6,-27169.883,26802.37
1387579.8406956184,-98157.59,-75516.12,14224.731,-27730.469,54800.133,-37354.492,-27143.555,26787.15
1387579.844695614,-98118.45,-75485.4,14262.248,-27687.217,54833.54,-37314.09,-27117.758,26795.654
1387579.8486956093,-98149.7,-75512.33,14236.9795,-27716.758,54861.37,-37339.56,-27132.936,26810.71
1387579.8526956048,-98194.336,-75555.22,14193.97,-27767.13,54816.203,-37380.902,-27161.418,26791.545
1387579.8566956003,-98195.68,-75558.72,14189.616,-27776.043,54786.664,-37386.15,-27166.627,26773.56
1387579.8606955959,-98155.36,-75520.39,14229.492,-27729.371,54819.094,-37344.605,-27134.482,26788.209
1387579.8646955912,-98124.48,-75486.734,14264.975,-27689.697,54851.402,-37310.26,-27106.568,26824.951
1387579.8686955867,-98151.9,-75513.35,14242.065,-27717.408,54864.34,-37339.355,-27126.14,26822.266
1387579.8726955822,-98190.59,-75552.734,14202.963,-27766.521,54834.395,-37384.44,-27159.588,26793.336
1387579.8766955778,-98194.74,-75558.72,14193.889,-27774.414,54785.727,-37389.49,-27157.879,26799.766
1387579.8806955733,-98150.72,-75515.83,14231.608,-27726.727,54792.81,-37346.477,-27129.15,26800.62
1387579.8846955686,-98114.18,-75479.01,14267.66,-27683.799,54845.582,-37308.105,-27102.012,26820.11
1387579.8886955641,-98147.46,-75507.53,14240.275,-27714.316,54874.105,-37337.934,-27119.59,26839.111
1387579.8926955597,-98195.88,-75554.28,14192.383,-27765.992,54846.355,-37385.945,-27155.844,26815.268
1387579.8966955552,-98206.914,-75562.55,14182.373,-27773.926,54812.42,-37391.52,-27166.504,26795.166
1387579.9006955507,-98169.03,-75524.664,14220.947,-27729.777,54807.254,-37352.457,-27149.658,26796.795
1387579.904695546,-98130.78,-75491.26,14258.83,-27688.885,54843.508,-37320.07,-27130.78,26807.293
1387579.9086955416,-98152.96,-75517.7,14239.299,-27714.072,54861.37,-37345.95,-27147.666,26809.002
1387579.912695537,-98195.36,-75565.11,14198.12,-27765.586,54831.87,-37395.062,-27181.031,26788.494
1387579.9166955326,-98201.54,-75569.7,14188.314,-27773.682,54796.875,-37401.773,-27189.902,26771.404
1387579.920695528,-98153.04,-75522.95,14226.44,-27722.412,54797.49,-37362.145,-27163.86,26777.344
1387579.9246955235,-98117.234,-75485.31,14259.399,-27681.152,54836.55,-37330.04,-27137.656,26812.541
1387579.928695519,-98146.125,-75508.79,14234.863,-27709.922,54867.27,-37354.13,-27150.025,26829.021
1387579.9326955145,-98192.43,-75550.74,14194.092,-27760.906,54834.555,-37397.42,-27179.037,26798.016
1387579.93669551,-98200.73,-75560.305,14192.668,-27769.043,54792.81,-37400.39,-27179.16,26772.625
1387579.9406955054,-98161.7,-75523.64,14233.114,-27728.395,54801.477,-37358.36,-27148.846,26785.035
1387579.944695501,-98122.27,-75490.4,14271.281,-27687.826,54839.64,-37323.445,-27121.99,26817.506
1387579.9486954964,-98140.586,-75512.82,14249.919,-27713.379,54863.49,-37351.2,-27144.043,26817.018
1387579.952695492,-98181.6,-75551.27,14204.631,-27762.695,54830.49,-37397.22,-27180.258,26795.98
1387579.9566954873,-98193.41,-75559.9,14192.912,-27771.484,54795.086,-37403.566,-27186.117,26774.21
1387579.9606954828,-98146.08,-75516.03,14230.917,-27722.332,54809.777,-37360.637,-27157.47,26799.072
1387579.9646954783,-98109.46,-75477.5,14264.12,-27679.932,54847.863,-37326.5,-27136.475,26823.04
1387579.9686954739,-98137.9,-75503.79,14243.083,-27705.445,54859.457,-37353.23,-27158.732,26809.45
1387579.9726954694,-98186.164,-75549.6,14201.05,-27754.273,54847.09,-37398.766,-27195.312,26769.41
1387579.9766954647,-98192.836,-75559.33,14196.737,-27764.04,54805.42,-37409.18,-27206.543,26741.21
1387579.9806954602,-98153.04,-75520.51,14235.393,-27718.14,54813.355,-37371.543,-27181.357,26764.975
1387579.9846954558,-98117.96,-75485.68,14267.7,-27678.305,54853.355,-37335.41,-27152.873,26805.055
1387579.9886954513,-98142.46,-75512.21,14242.636,-27707.969,54866.254,-37360.68,-27167.074,26818.197
1387579.9926954466,-98180.22,-75549.484,14204.916,-27755.82,54839.805,-37404.867,-27202.557,26788.78
1387579.9966954421,-98179.24,-75550.984,14199.219,-27759.074,54801.066,-37409.832,-27211.752,26765.666
1387580.0006954377,-98140.305,-75508.47,14236.206,-27715.252,54811.035,-37365.277,-27177.37,26782.553
1387580.0046954332,-98112.92,-75475.55,14267.212,-27677.94,54849.367,-37329.47,-27149.902,26818.28
1387580.0086954287,-98141.12,-75506.76,14245.524,-27706.87,54866.293,-37355.957,-27168.377,26810.344
1387580.012695424,-98185.47,-75552.125,14204.753,-27759.482,54841.39,-37402.387,-27205.078,26763.633
1387580.0166954196,-98193.52,-75560.14,14194.092,-27769.775,54798.42,-37410.93,-27212.281,26741.863
1387580.020695415,-98153.04,-75527.1,14234.863,-27722.941,54794.965,-37365.684,-27176.434,26772.99
1387580.0246954106,-98116.83,-75491.09,14271.078,-27681.031,54834.883,-37327.19,-27139.648,26817.547
1387580.028695406,-98145.51,-75520.47,14245.932,-27710.938,54865.074,-37354.82,-27151.205,26818.768
1387580.0326954015,-98185.43,-75561.98,14202.922,-27761.924,54833.375,-37400.84,-27186.2,26784.75
1387580.036695397,-98187.5,-75562.22,14194.133,-27769.736,54800.01,-37404.055,-27187.744,26775.96
1387580.0406953925,-98150.88,-75520.8,14230.632,-27724.447,54810.223,-37359.58,-27155.64,26789.795
1387580.044695388,-98116.62,-75486.05,14266.806,-27682.861,54842.367,-37320.926,-27122.844,26846.03
1387580.0486953834,-98145.96,-75520.76,14246.989,-27711.71,54841.96,-37349.652,-27144.816,26827.148
1387580.052695379,-98188.64,-75568.56,14207.113,-27761.11,54802.125,-37394.695,-27182.252,26783.285
1387580.0566953744,-98198.49,-75580.24,14197.144,-27770.957,54777.344,-37402.75,-27189.088,26782.35
1387580.06069537,-98158.45,-75539.76,14233.236,-27726.93,54802.86,-37360.72,-27160.85,26797.324
1387580.0646953655,-98125.41,-75510.7,14262.655,-27688.803,54835.492,-37326.01,-27137.127,26814.129
1387580.0686953608,-98152.305,-75537.234,14232.87,-27715.902,54847.332,-37357.83,-27160.768,26800.66
1387580.0726953563,-98197.47,-75576.13,14190.837,-27764.16,54830.445,-37404.664,-27197.389,26781.861
1387580.0766953519,-98204.43,-75581.46,14181.723,-27773.193,54789.43,-37412.027,-27208.09,26774.09
1387580.0806953474,-98162.68,-75537.234,14218.059,-27728.15,54788.902,-37369.266,-27181.967,26773.643
1387580.0846953427,-98126.875,-75502.0,14257.976,-27683.066,54824.383,-37332.97,-27155.193,26784.385
1387580.0886953382,-98153.65,-75532.88,14236.206,-27708.537,54854.414,-37361.613,-27174.846,26781.291
1387580.0926953338,-98198.86,-75571.984,14196.127,-27757.61,54829.715,-37407.31,-27210.125,26752.28
1387580.0966953293,-98205.85,-75577.72,14187.134,-27765.666,54786.094,-37409.344,-27209.514,26745.525
1387580.1006953248,-98167.4,-75540.04,14221.069,-27723.268,54793.62,-37368.125,-27178.508,26779.705
1387580.1046953201,-98128.99,-75500.49,14254.191,-27685.059,54825.605,-37332.234,-27159.547,26783.732
1387580.1086953157,-98151.9,-75519.05,14227.824,-27709.678,54846.64,-37355.47,-27178.996,26780.234
1387580.1126953112,-98201.99,-75566.29,14184.611,-27759.156,54827.72,-37399.78,-27211.182,26764.08
1387580.1166953067,-98209.234,-75579.39,14177.368,-27767.701,54786.297,-37405.234,-27217.123,26744.02
1387580.120695302,-98167.89,-75541.06,14219.89,-27721.924,54783.652,-37362.508,-27186.523,26758.018
1387580.1246952976,-98131.23,-75506.76,14257.935,-27683.35,54816.895,-37326.824,-27160.605,26782.959
1387580.128695293,-98154.7,-75533.37,14238.485,-27711.793,54840.984,-37352.457,-27176.148,26785.768
1387580.1326952886,-98198.53,-75580.81,14195.19,-27762.818,54821.332,-37397.42,-27206.504,26753.379
1387580.1366952842,-98209.27,-75593.1,14183.594,-27775.676,54790.938,-37403.363,-27210.205,26746.99
1387580.1406952795,-98168.13,-75549.85,14222.168,-27730.674,54786.62,-37358.93,-27176.596,26770.305
1387580.144695275,-98131.35,-75513.39,14257.854,-27688.762,54828.047,-37322.51,-27151.084,26790.244
1387580.1486952705,-98161.46,-75544.805,14233.806,-27714.723,54841.434,-37348.43,-27166.992,26782.879
1387580.152695266,-98209.39,-75581.14,14190.959,-27762.9,54812.22,-37390.625,-27191.936,26788.656
1387580.1566952614,-98194.74,-75563.44,14186.157,-27767.62,54791.586,-37399.984,-27198.975,26781.943
1387580.160695257,-98134.16,-75505.17,14228.638,-27719.32,54800.78,-37358.24,-27170.045,26773.438
1387580.1646952524,-98102.22,-75474.37,14265.341,-27678.387,54834.758,-37317.832,-27133.057,26811.076
1387580.168695248,-98132.164,-75500.53,14242.1875,-27706.178,54857.22,-37343.1,-27144.613,26829.795
1387580.1726952435,-98180.38,-75543.74,14198.69,-27752.076,54828.332,-37387.004,-27175.254,26803.143
1387580.1766952388,-98185.14,-75554.445,14185.832,-27761.436,54792.81,-37399.008,-27186.646,26767.62
1387580.1806952343,-98141.6,-75511.64,14220.622,-27716.229,54801.27,-37357.22,-27162.842,26774.049
1387580.1846952299,-98112.02,-75481.734,14252.319,-27678.143,54854.086,-37321.617,-27139.854,26812.176
1387580.1886952254,-98136.68,-75507.65,14229.574,-27706.504,54877.89,-37350.016,-27162.232,26804.12
1387580.192695221,-98173.22,-75546.02,14189.779,-27754.965,54841.555,-37393.72,-27193.197,26784.385
1387580.1966952162,-98183.07,-75550.58,14184.123,-27760.947,54798.18,-37398.723,-27197.959,26768.31
1387580.2006952118,-98145.836,-75509.56,14224.854,-27716.96,54802.453,-37356.934,-27168.092,26784.1
1387580.2046952073,-98109.22,-75479.45,14261.108,-27678.793,54842.938,-37319.906,-27142.295,26808.39
1387580.2086952028,-98137.414,-75508.914,14238.119,-27709.678,54862.1,-37345.664,-27160.4,26817.018
1387580.2126951981,-98186.12,-75553.39,14194.865,-27759.562,54841.105,-37389.0,-27190.838,26798.463
1387580.2166951937,-98189.945,-75555.5,14184.408,-27766.887,54810.59,-37396.77,-27199.668,26756.836
1387580.2206951892,-98147.95,-75517.664,14218.303,-27723.268,54795.168,-37354.29,-27161.662,26796.875
1387580.2246951847,-98115.195,-75482.55,14245.361,-27682.984,54834.72,-37318.2,-27134.318,26831.828
1387580.2286951803,-98142.42,-75503.74,14224.65,-27708.945,54860.965,-37343.996,-27156.332,26797.486
1387580.2326951756,-98190.15,-75554.24,14186.6455,-27760.498,54826.703,-37390.42,-27191.326,26743.693
1387580.236695171,-98200.28,-75566.86,14179.403,-27770.713,54790.0,-37394.29,-27193.115,26741.578
1387580.2406951666,-98160.08,-75525.8,14218.994,-27723.877,54795.047,-37346.965,-27155.885,26776.49
1387580.2446951622,-98128.42,-75490.07,14251.994,-27684.002,54823.652,-37311.727,-27130.78,26810.426
1387580.2486951575,-98157.02,-75515.14,14226.767,-27710.857,54838.098,-37338.91,-27154.297,26795.207
1387580.252695153,-98202.88,-75564.7,14179.892,-27760.498,54802.9,-37384.97,-27191.773,26774.008
1387580.2566951485,-98211.1,-75570.31,14166.708,-27768.516,54774.375,-37394.98,-27206.016,26739.219
1387580.260695144,-98174.805,-75533.49,14203.329,-27724.326,54784.06,-37356.242,-27182.293,26740.56
1387580.2646951396,-98138.266,-75499.88,14235.881,-27683.879,54816.043,-37320.027,-27155.6,26780.559
1387580.268695135,-98160.85,-75527.23,14216.431,-27713.217,54841.15,-37345.62,-27170.492,26799.766
1387580.2726951304,-98202.805,-75569.87,14182.373,-27761.68,54813.64,-37392.54,-27206.34,26761.8
1387580.276695126,-98207.52,-75575.85,14176.433,-27770.06,54780.723,-37402.914,-27225.098,26705.04
1387580.2806951215,-98165.9,-75533.81,14210.734,-27724.57,54791.586,-37363.363,-27198.691,26725.75
1387580.2846951168,-98129.64,-75500.86,14243.408,-27683.676,54822.594,-37328.33,-27177.246,26751.873
1387580.2886951123,-98160.16,-75538.66,14221.518,-27708.984,54829.55,-37350.586,-27189.861,26766.357
1387580.2926951079,-98221.88,-75591.96,14173.381,-27762.492,54812.707,-37396.688,-27220.012,26754.07
1387580.2966951034,-98215.87,-75570.195,14166.545,-27767.457,54795.86,-37407.758,-27233.154,26719.646
1387580.300695099,-98164.72,-75520.67,14203.41,-27719.28,54793.54,-37367.188,-27205.69,26727.05
1387580.3046950942,-98135.13,-75495.89,14231.934,-27680.746,54824.79,-37331.18,-27177.287,26760.906
