timestamp,Fp1,Fp2,F3,Fz,F4,Cz,Pz,Oz
1386851.9095177485,-47117.72,-23535.93,27899.21,-8802.328,77331.055,-3766.9272,12200.033,61045.98
1386851.913517744,-47106.773,-23549.113,27902.02,-8798.015,77342.45,-3768.27,12199.626,61024.133
1386851.9175177396,-47107.383,-23529.785,27906.82,-8798.3,77344.41,-3767.863,12211.833,61046.47
1386851.9215177349,-47107.18,-23496.99,27910.93,-8802.775,77334.96,-3768.8396,12218.384,61065.51
1386851.9255177304,-47102.094,-23498.861,27911.865,-8801.107,77331.55,-3771.4438,12209.636,61044.152
1386851.929517726,-47103.07,-23501.75,27910.564,-8796.347,77328.21,-3771.4438,12205.363,61030.844
1386851.9335177215,-47100.87,-23498.78,27910.85,-8791.22,77340.05,-3770.9148,12204.753,61030.64
1386851.9375177168,-47097.168,-23494.629,27912.03,-8790.935,77352.54,-3772.0134,12208.09,61044.11
1386851.9415177123,-47097.453,-23501.832,27909.709,-8794.922,77349.94,-3774.4956,12206.909,61048.91
1386851.9455177078,-47106.082,-23505.127,27905.234,-8797.282,77347.17,-3775.5942,12200.033,61042.645
1386851.9495177034,-47105.47,-23504.15,27907.756,-8795.207,77349.164,-3773.8037,12197.754,61045.98
1386851.953517699,-47105.39,-23508.424,27912.559,-8795.858,77347.375,-3769.0837,12203.735,61047.0
1386851.9575176942,-47104.777,-23499.512,27912.68,-8797.038,77349.77,-3767.5781,12207.357,61031.74
1386851.9615176897,-47106.285,-23508.668,27908.936,-8802.043,77351.484,-3766.5203,12209.229,61031.332
1386851.9655176853,-47107.953,-23523.316,27904.42,-8804.159,77344.52,-3764.2822,12210.49,61033.082
1386851.9695176808,-47112.43,-23523.764,27901.205,-8804.077,77339.32,-3761.7595,12214.966,61042.523
1386851.9735176761,-47121.38,-23533.53,27899.13,-8803.02,77343.1,-3759.8064,12221.599,61062.34
1386851.9775176717,-47116.742,-23528.281,27904.094,-8802.897,77343.18,-3761.1492,12226.685,61059.734
1386851.9815176672,-47113.08,-23527.467,27907.715,-8806.193,77344.77,-3764.1196,12224.691,61051.27
1386851.9855176627,-47112.957,-23519.531,27908.285,-8808.024,77332.97,-3765.9912,12220.866,61062.176
1386851.9895176583,-47113.812,-23511.76,27907.594,-8806.396,77322.92,-3766.4795,12216.146,61053.348
1386851.9935176536,-47107.79,-23503.459,27912.11,-8801.555,77334.03,-3766.5203,12217.245,61061.973
1386851.997517649,-47098.758,-23495.688,27920.451,-8800.049,77339.195,-3768.392,12219.035,61045.086
1386852.0015176446,-47107.098,-23496.746,27918.457,-8802.084,77339.16,-3770.4673,12218.344,61061.523
1386852.0055176402,-47133.223,-23497.275,27914.227,-8800.944,77341.27,-3772.5425,12213.42,61079.836
1386852.0095176355,-47093.953,-23502.93,27909.059,-8799.5205,77342.37,-3773.0713,12206.95,61072.105
1386852.013517631,-47087.973,-23502.035,27908.936,-8799.316,77351.32,-3773.4375,12203.939,61047.406
1386852.0175176265,-47093.223,-23503.623,27913.697,-8798.34,77357.22,-3772.9492,12207.968,61054.484
1386852.021517622,-47092.367,-23512.451,27914.715,-8798.991,77354.05,-3775.2686,12205.648,61054.2
1386852.0255176176,-47105.67,-23529.135,27911.744,-8801.921,77345.055,-3777.6694,12198.12,61046.875
1386852.029517613,-47116.945,-23526.084,27911.582,-8802.775,77344.61,-3775.9197,12197.714,61052.816
1386852.0335176084,-47107.42,-23507.568,27914.389,-8799.846,77353.07,-3772.705,12207.561,61064.984
1386852.037517604,-47099.45,-23492.514,27916.709,-8798.096,77364.46,-3770.5486,12220.012,61080.85
1386852.0415175995,-47101.81,-23509.033,27915.568,-8800.537,77358.97,-3770.0195,12222.9,61080.977
1386852.045517595,-47108.32,-23526.611,27908.041,-8801.718,77333.01,-3768.8804,12223.959,61077.72
1386852.0495175903,-47118.816,-23513.877,27904.135,-8799.846,77333.62,-3763.1836,12229.086,61075.156
1386852.0535175859,-47116.54,-23503.703,27907.553,-8797.079,77352.945,-3759.4402,12233.398,61073.773
1386852.0575175814,-47107.79,-23499.797,27911.582,-8798.91,77361.414,-3759.2368,12239.99,61086.02
1386852.061517577,-47111.816,-23505.941,27911.297,-8803.996,77356.734,-3759.8472,12243.815,61088.3
1386852.0655175722,-47111.492,-23509.766,27909.506,-8803.752,77350.67,-3761.8816,12235.962,61078.37
1386852.0695175678,-47135.5,-23508.18,27910.93,-8800.944,77345.42,-3762.7769,12227.946,61071.21
1386852.0735175633,-47136.516,-23508.709,27912.639,-8798.706,77348.76,-3764.1196,12226.685,61071.984
1386852.0775175588,-47091.555,-23514.445,27918.824,-8797.852,77352.83,-3764.6892,12231.364,61077.273
1386852.0815175544,-47084.312,-23502.768,27925.049,-8797.363,77348.06,-3767.863,12226.4,61073.773
1386852.0855175497,-47087.04,-23497.355,27930.543,-8793.783,77346.84,-3771.159,12218.14,61066.406
1386852.0895175452,-47072.715,-23482.342,27935.67,-8787.354,77352.3,-3773.275,12211.63,61060.508
1386852.0935175407,-47053.875,-23453.695,27940.797,-8780.192,77367.92,-3773.4783,12213.786,61063.195
1386852.0975175363,-47063.52,-23476.115,27942.953,-8782.431,77374.63,-3770.63,12223.593,61075.402
1386852.1015175316,-47072.797,-23479.574,27940.146,-8787.802,77367.44,-3769.45,12228.923,61080.566
1386852.105517527,-47065.473,-23441.732,27933.514,-8788.086,77367.88,-3772.0542,12223.43,61073.895
1386852.1095175226,-46993.207,-23376.14,27939.658,-8776.611,77383.79,-3774.2515,12216.146,61063.56
1386852.1135175182,-46991.414,-23346.72,27946.33,-8772.014,77399.58,-3771.2402,12220.825,61070.312
1386852.1175175137,-47013.594,-23376.018,27949.3,-8777.344,77392.87,-3768.1885,12233.032,61087.04
1386852.121517509,-47007.773,-23422.12,27947.186,-8782.593,77381.516,-3766.7644,12237.0205,61093.184
1386852.1255175045,-46974.0,-23332.154,27945.03,-8775.879,77389.04,-3772.2168,12222.209,61078.332
1386852.1295175,-46991.7,-23308.92,27944.133,-8772.827,77393.03,-3773.3562,12217.326,61076.62
1386852.1335174956,-46987.754,-23270.225,27953.533,-8767.09,77404.95,-3772.2576,12219.035,61080.527
1386852.137517491,-46974.652,-23210.084,27953.33,-8764.73,77415.164,-3774.2515,12218.059,61077.312
1386852.1415174864,-47014.812,-23214.805,27947.145,-8773.4375,77401.9,-3773.4375,12216.716,61075.24
1386852.145517482,-47010.867,-23166.18,27952.719,-8771.892,77396.41,-3775.7976,12208.618,61071.94
1386852.1495174775,-47017.58,-23091.514,27957.195,-8764.7705,77398.4,-3775.2686,12210.856,61107.465
1386852.153517473,-47028.934,-23048.748,27955.893,-8765.625,77397.914,-3770.101,12221.313,61107.3
1386852.1575174683,-47009.44,-22978.312,27960.246,-8767.456,77393.555,-3768.1072,12221.843,61036.785
1386852.1615174639,-47003.133,-22888.51,27964.031,-8770.915,77386.27,-3766.8865,12233.928,61096.68
1386852.1655174594,-46989.42,-22810.791,27964.396,-8770.712,77383.38,-3765.2588,12237.265,61125.125
1386852.169517455,-46976.156,-22755.78,27964.805,-8765.788,77389.2,-3766.9272,12221.802,61037.56
1386852.1735174505,-46998.332,-22713.584,27963.34,-8763.957,77399.336,-3766.7644,12216.919,61006.715
1386852.1775174458,-46986.37,-22658.732,27971.191,-8762.614,77406.25,-3766.3574,12221.599,61028.73
1386852.1815174413,-46968.223,-22622.723,27977.662,-8760.824,77406.58,-3767.0085,12220.785,61034.75
1386852.1855174368,-46987.793,-22599.244,27973.877,-8761.882,77400.07,-3770.752,12213.705,61031.945
1386852.1895174324,-47002.727,-22582.316,27974.61,-8761.23,77405.64,-3771.8506,12208.618,61032.555
1386852.1935174277,-46944.215,-22562.135,27977.662,-8756.796,77420.78,-3769.7754,12211.101,61042.727
1386852.1975174232,-46952.637,-22550.09,27975.627,-8759.604,77420.86,-3765.8286,12222.86,61059.53
1386852.2015174187,-46975.426,-22547.363,27972.332,-8762.98,77414.39,-3764.5671,12228.271,61071.414
1386852.2055174143,-46980.797,-22530.355,27966.025,-8762.451,77410.93,-3767.0493,12219.32,61050.17
1386852.2095174098,-46969.484,-22500.082,27966.635,-8759.644,77424.08,-3769.6533,12205.444,61026.367
1386852.213517405,-46993.207,-22497.355,27970.664,-8755.737,77433.64,-3767.0493,12211.264,61050.54
1386852.2175174006,-46969.973,-22487.021,27976.035,-8754.517,77434.45,-3763.916,12224.731,61085.29
1386852.2215173962,-46924.805,-22467.693,27977.824,-8755.371,77450.56,-3768.5547,12219.6045,61079.184
1386852.2255173917,-46914.594,-22458.09,27978.842,-8752.808,77457.84,-3773.2341,12206.096,61058.8
1386852.229517387,-46929.324,-22463.055,27979.371,-8751.221,77462.52,-3771.6472,12206.381,61057.78
1386852.2335173825,-46925.496,-22444.256,27981.162,-8749.1455,77473.92,-3772.2983,12205.7705,61043.38
1386852.237517378,-46932.82,-22437.826,27986.41,-8747.763,77481.53,-3773.4375,12215.536,61076.99
1386852.2415173736,-46951.945,-22432.373,27989.463,-8748.698,77480.92,-3771.9321,12227.743,61117.72
1386852.2455173691,-46903.16,-22419.19,27990.764,-8748.251,77478.15,-3773.641,12215.414,61041.63
1386852.2495173644,-46906.78,-22425.01,27981.854,-8747.844,77473.19,-3772.461,12214.193,61041.223
1386852.25351736,-46926.516,-22429.16,27981.812,-8746.42,77476.24,-3769.287,12223.877,61068.848
1386852.2575173555,-46932.008,-22408.773,27990.479,-8745.077,77483.65,-3768.27,12233.358,61080.977
1386852.261517351,-46922.16,-22401.002,27994.385,-8745.443,77483.805,-3771.3218,12227.824,61047.85
1386852.2655173463,-46926.758,-22421.592,27984.13,-8750.244,77480.72,-3772.2983,12221.721,61046.227
1386852.2695173419,-46921.47,-22417.441,27979.492,-8748.942,77488.57,-3771.8914,12218.832,61050.05
1386852.2735173374,-46891.316,-22386.76,27982.219,-8743.002,77505.86,-3769.0837,12221.802,61058.312
1386852.277517333,-46886.477,-22374.35,27986.37,-8742.025,77504.72,-3766.3574,12231.689,61080.445
1386852.2815173285,-46871.83,-22344.809,27993.37,-8741.13,77498.82,-3767.619,12228.801,61084.23
1386852.2855173238,-46891.36,-22364.707,27993.531,-8743.896,77492.07,-3767.334,12224.365,61072.348
1386852.2895173193,-46946.94,-22406.25,27986.29,-8747.314,77483.484,-3762.207,12229.736,61059.734
1386852.2935173148,-46907.227,-22395.672,27983.318,-8746.623,77488.41,-3760.0098,12235.312,61082.52
1386852.2975173104,-46872.113,-22367.799,27990.643,-8744.223,77497.73,-3763.3464,12236.166,61091.555
1386852.3015173057,-46865.316,-22352.865,27996.46,-8743.327,77496.95,-3768.5955,12228.638,61077.355
1386852.3055173012,-46878.582,-22357.748,27995.605,-8742.88,77488.65,-3772.461,12219.279,61083.293
1386852.3095172967,-46888.836,-22367.025,27993.613,-8738.688,77491.21,-3773.8037,12211.874,61043.254
1386852.3135172923,-46895.223,-22362.875,27999.635,-8733.073,77503.22,-3769.694,12217.245,61053.633
1386852.3175172878,-46890.3,-22351.889,28005.697,-8732.138,77505.05,-3769.694,12226.115,61087.566
1386852.321517283,-46885.54,-22354.168,28007.488,-8734.619,77501.43,-3772.868,12224.487,61085.656
1386852.3255172786,-46879.64,-22349.732,28007.365,-8731.527,77499.31,-3775.1465,12210.368,61048.83
1386852.3295172742,-46896.28,-22341.797,28005.941,-8729.655,77503.91,-3775.5127,12202.678,61051.15
1386852.3335172697,-46902.957,-22341.309,28007.08,-8727.865,77510.26,-3774.0479,12207.275,61071.086
1386852.3375172652,-46850.465,-22351.318,28007.53,-8727.58,77512.25,-3771.1997,12217.163,61055.664
1386852.3415172605,-46849.285,-22337.77,28008.262,-8727.743,77515.18,-3769.7754,12223.267,61047.203
1386852.345517256,-46856.812,-22318.076,28003.906,-8727.58,77519.86,-3767.6597,12226.889,61062.176
1386852.3495172516,-46862.633,-22330.283,27998.496,-8726.522,77514.04,-3765.9912,12228.923,61074.832
1386852.3535172471,-46869.875,-22340.455,28002.768,-8724.406,77512.984,-3763.1023,12240.764,61109.17
1386852.3575172424,-46859.703,-22330.04,28011.11,-8724.406,77520.914,-3760.0098,12251.953,61115.277
1386852.361517238,-46870.77,-22315.918,28013.184,-8724.487,77526.49,-3760.0913,12246.948,61097.13
1386852.3655172335,-46838.258,-22319.092,28008.3,-8726.44,77512.62,-3762.5732,12237.102,61084.15
1386852.369517229,-46822.594,-22314.82,28002.646,-8722.697,77519.29,-3763.916,12226.807,61058.473
1386852.3735172246,-46827.273,-22309.531,28003.582,-8719.6045,77533.66,-3764.445,12228.964,61082.848
1386852.3775172199,-46809.367,-22302.94,28009.441,-8718.181,77539.516,-3766.1948,12228.19,61092.855
1386852.3815172154,-46821.86,-22313.396,28010.498,-8723.227,77535.81,-3768.2292,12224.121,61106.73
1386852.385517211,-46843.67,-22318.28,28007.53,-8726.522,77530.4,-3770.0195,12219.6045,61094.08
1386852.3895172065,-46828.86,-22309.123,28010.662,-8722.168,77531.25,-3768.5547,12210.9375,61056.152
1386852.3935172018,-46816.043,-22299.398,28015.87,-8720.297,77537.07,-3762.9395,12219.076,61071.902
1386852.3975171973,-46804.16,-22291.057,28022.258,-8721.68,77540.0,-3760.376,12233.195,61096.6
1386852.4015171928,-46799.4,-22297.607,28025.84,-8725.749,77534.55,-3760.8237,12241.171,61120.566
1386852.4055171884,-46819.664,-22311.89,28017.578,-8729.289,77529.22,-3762.0444,12238.2,61107.14
1386852.409517184,-46832.48,-22325.277,28009.482,-8730.713,77525.19,-3762.2886,12232.178,61087.89
1386852.4135171792,-46839.4,-22318.604,28010.01,-8727.539,77534.95,-3760.4167,12238.444,61101.77
1386852.4175171747,-46839.07,-22298.828,28020.184,-8724.731,77544.4,-3761.2712,12242.1875,61100.26
1386852.4215171703,-46785.44,-22292.115,28019.572,-8728.354,77541.51,-3762.0444,12241.049,61101.562
1386852.4255171658,-46785.645,-22303.916,28016.318,-8732.463,77534.305,-3760.2134,12239.136,61114.625
1386852.429517161,-46777.59,-22293.742,28017.54,-8729.289,77534.95,-3757.487,12238.811,61123.984
1386852.4335171566,-46761.11,-22269.898,28023.723,-8724.609,77552.45,-3754.9236,12243.612,61124.555
1386852.4375171522,-46768.15,-22289.307,28025.879,-8727.051,77557.414,-3755.0457,12247.641,61126.508
1386852.4415171477,-46780.684,-22297.12,28020.996,-8731.608,77554.164,-3758.4229,12240.031,61122.97
1386852.4455171432,-46786.746,-22298.625,28015.137,-8732.219,77550.09,-3761.3525,12225.464,61083.906
1386852.4495171385,-46786.176,-22289.43,28015.38,-8729.818,77554.12,-3758.789,12225.749,61090.008
1386852.453517134,-46777.06,-22275.31,28017.945,-8725.79,77565.68,-3755.1677,12234.009,61096.113
1386852.4575171296,-46776.9,-22273.398,28018.352,-8726.685,77567.34,-3756.3071,12238.811,61113.61
1386852.4615171251,-46770.875,-22278.605,28021.24,-8729.004,77558.76,-3760.0505,12235.026,61128.297
1386852.4655171207,-46789.105,-22280.111,28023.193,-8729.492,77552.62,-3762.8174,12224.081,61103.844
1386852.469517116,-46789.715,-22271.973,28026.084,-8726.44,77557.87,-3763.4277,12218.303,61091.434
1386852.4735171115,-46739.586,-22271.24,28024.414,-8722.331,77567.266,-3763.9976,12220.988,61108.24
1386852.477517107,-46737.996,-22277.385,28025.676,-8721.843,77574.51,-3762.9395,12230.388,61136.11
1386852.4815171026,-46740.4,-22254.314,28028.932,-8722.29,77573.65,-3762.9802,12227.255,61108.562
1386852.4855170979,-46749.27,-22249.96,28028.809,-8723.308,77563.44,-3765.2996,12220.256,61098.188
1386852.4895170934,-46755.902,-22252.93,28024.902,-8722.209,77564.414,-3764.0789,12217.978,61094.81
1386852.493517089,-46763.266,-22258.627,28024.21,-8722.372,77571.82,-3761.1492,12225.017,61088.707
1386852.4975170845,-46759.523,-22251.22,28024.496,-8725.668,77575.4,-3758.9111,12239.055,61111.656
1386852.50151708,-46757.367,-22249.756,28025.352,-8729.533,77569.336,-3757.9753,12245.239,61119.184
1386852.5055170753,-46758.668,-22257.691,28023.193,-8730.957,77561.52,-3756.5513,12247.274,61121.34
1386852.5095170708,-46753.543,-22256.186,28021.81,-8727.173,77567.79,-3754.0283,12248.495,61127.035
1386852.5135170664,-46749.51,-22255.127,28019.94,-8724.203,77575.56,-3750.9766,12255.412,61133.668
1386852.517517062,-46741.54,-22241.049,28020.508,-8723.918,77578.984,-3752.116,12257.487,61124.72
1386852.5215170572,-46751.75,-22234.213,28021.484,-8724.325,77579.47,-3754.3132,12252.319,61136.19
1386852.5255170527,-46752.363,-22235.352,28019.654,-8724.813,77577.64,-3756.3884,12239.95,61129.883
1386852.5295170483,-46720.83,-22236.777,28016.398,-8723.633,77581.55,-3757.9753,12226.074,61111.086
1386852.5335170438,-46722.82,-22240.764,28018.719,-8723.1045,77583.26,-3758.4229,12220.988,61094.523
1386852.5375170393,-46724.0,-22232.422,28023.926,-8722.494,77583.414,-3758.8298,12223.267,61103.07
1386852.5415170346,-46711.387,-22219.646,28028.729,-8721.191,77583.26,-3760.7017,12223.022,61103.312
1386852.5455170302,-46711.1,-22222.78,28026.45,-8721.965,77576.13,-3762.0037,12220.093,61104.574
1386852.5495170257,-46723.105,-22234.01,28022.787,-8720.866,77577.68,-3760.2134,12221.64,61110.965
1386852.5535170212,-46729.207,-22228.924,28024.658,-8716.35,77587.12,-3757.365,12231.364,61132.812
1386852.5575170165,-46707.562,-22214.64,28031.17,-8713.827,77596.27,-3757.9346,12236.45,61120.77
1386852.561517012,-46698.367,-22208.213,28032.676,-8715.048,77596.36,-3760.2134,12234.66,61116.21
1386852.5655170076,-46699.547,-22211.143,28031.738,-8714.926,77591.35,-3762.5327,12231.201,61123.008
1386852.5695170031,-46701.785,-22210.043,28031.17,-8713.217,77587.65,-3762.6548,12229.37,61125.45
1386852.5735169987,-46715.457,-22208.293,28033.244,-8711.426,77591.35,-3759.2773,12236.938,61134.89
1386852.577516994,-46720.83,-22209.19,28040.324,-8711.508,77593.836,-3757.6091,12246.989,61139.16
1386852.5815169895,-46694.176,-22213.908,28040.203,-8717.285,77591.72,-3755.534,12254.639,61146.973
1386852.585516985,-46696.004,-22223.389,28037.803,-8718.506,77588.5,-3752.8484,12258.22,61166.953
1386852.5895169806,-46705.04,-22224.285,28035.441,-8716.187,77591.516,-3749.7966,12256.43,61154.258
1386852.593516976,-46699.26,-22206.584,28032.797,-8713.867,77597.54,-3750.3257,12249.105,61105.39
1386852.5975169714,-46701.01,-22204.957,28028.973,-8716.146,77600.836,-3746.0938,12260.58,61135.99
1386852.601516967,-46704.387,-22203.98,28023.193,-8720.134,77596.68,-3746.0532,12260.458,61136.07
1386852.6055169625,-46700.117,-22199.951,28022.096,-8720.622,77590.984,-3751.058,12246.867,61116.254
1386852.609516958,-46701.945,-22203.166,28024.13,-8717.285,77594.32,-3753.3367,12237.753,61117.555
1386852.6135169533,-46715.17,-22228.191,28026.979,-8715.658,77592.2,-3752.523,12236.735,61122.277
1386852.6175169488,-46710.695,-22223.43,28037.15,-8714.763,77598.76,-3754.354,12234.823,61125.41
1386852.6215169444,-46721.883,-22213.908,28045.654,-8712.362,77598.23,-3762.085,12223.022,61113.69
1386852.62551694,-46675.17,-22202.842,28046.184,-8708.944,77595.75,-3768.1885,12207.52,61113.203
1386852.6295169354,-46664.348,-22199.26,28038.453,-8707.316,77597.74,-3768.148,12200.277,61116.78
1386852.6335169307,-46676.637,-22199.463,28036.744,-8706.177,77610.11,-3764.445,12202.475,61094.934
1386852.6375169263,-46672.49,-22194.174,28044.271,-8707.805,77609.74,-3762.9802,12203.654,61072.105
1386852.6415169218,-46664.633,-22196.777,28048.748,-8712.81,77594.52,-3763.9568,12205.526,61079.47
1386852.6455169173,-46664.473,-22206.219,28048.828,-8715.088,77589.68,-3762.1257,12207.968,61086.633
1386852.6495169126,-46667.727,-22207.44,28046.062,-8713.501,77590.01,-3759.6436,12216.513,61100.383
1386852.6535169082,-46672.812,-22209.31,28045.818,-8710.368,77598.02,-3755.249,12235.474,61131.39
1386852.6575169037,-46666.26,-22215.984,28047.934,-8708.252,77603.195,-3753.54,12250.082,61157.84
1386852.6615168992,-46655.56,-22199.342,28052.287,-8708.781,77604.375,-3755.005,12254.15,61154.625
1386852.6655168948,-46661.336,-22188.559,28046.348,-8712.402,77598.836,-3754.0283,12257.528,61172.0
1386852.66951689,-46669.477,-22191.367,28043.092,-8713.501,77595.95,-3749.2676,12263.103,61173.668
1386852.6735168856,-46670.37,-22192.912,28041.912,-8713.42,77603.88,-3744.1814,12267.497,61173.625
1386852.6775168811,-46668.742,-22203.207,28044.963,-8716.635,77605.96,-3741.0483,12277.751,61193.156
1386852.6815168767,-46666.22,-22201.213,28044.434,-8720.459,77600.51,-3743.8965,12273.112,61173.42
1386852.685516872,-46659.383,-22195.8,28042.766,-8719.36,77597.086,-3745.4834,12256.511,61156.58
1386852.6895168675,-46668.582,-22207.48,28036.133,-8717.611,77596.48,-3747.111,12244.426,61148.316
1386852.693516863,-46686.688,-22206.828,28038.738,-8713.664,77603.27,-3748.2505,12238.2,61140.707
1386852.6975168586,-46691.977,-22187.988,28050.254,-8710.368,77609.42,-3750.2441,12237.102,61145.387
1386852.701516854,-46650.23,-22181.805,28050.986,-8712.606,77605.516,-3754.7202,12228.027,61133.914
1386852.7055168494,-46669.76,-22184.531,28050.498,-8713.745,77601.4,-3755.4526,12219.768,61112.305
1386852.709516845,-46689.21,-22198.162,28049.154,-8712.729,77604.82,-3753.2146,12215.129,61099.53
1386852.7135168405,-46691.734,-22204.834,28050.254,-8712.321,77608.805,-3751.8718,12217.937,61090.414
1386852.717516836,-46685.59,-22193.36,28055.055,-8712.81,77610.35,-3751.0173,12229.004,61116.254
1386852.7215168313,-46684.53,-22190.47,28057.617,-8714.071,77612.875,-3753.4995,12229.574,61116.008
1386852.7255168268,-46691.45,-22195.273,28057.578,-8712.484,77616.78,-3754.3945,12227.987,61117.11
1386852.7295168224,-46698.773,-22194.174,28053.875,-8708.334,77618.86,-3752.5635,12231.567,61136.926
1386852.733516818,-46685.223,-22191.814,28056.396,-8703.857,77623.336,-3752.4822,12236.572,61140.42
1386852.7375168134,-46670.98,-22179.607,28060.996,-8703.654,77624.19,-3751.6685,12247.07,61158.977
1386852.7415168087,-46663.086,-22180.95,28060.832,-8706.747,77619.51,-3751.6685,12252.686,61175.863
1386852.7455168043,-46666.14,-22190.674,28058.96,-8709.961,77612.47,-3751.5464,12245.932,61139.04
1386852.7495167998,-46678.223,-22200.969,28055.34,-8710.49,77609.3,-3748.0063,12251.913,61152.996
1386852.7535167953,-46707.113,-22212.932,28053.834,-8710.734,77614.46,-3741.333,12263.794,61167.645
1386852.7575167909,-46672.61,-22195.965,28050.578,-8712.851,77621.99,-3738.4849,12272.827,61179.324
1386852.7615167862,-46638.348,-22184.082,28048.463,-8713.257,77625.0,-3737.0605,12271.484,61185.426
1386852.7655167817,-46651.777,-22189.291,28042.889,-8714.152,77616.01,-3740.4785,12260.539,61189.332
1386852.7695167772,-46669.92,-22192.18,28038.818,-8711.589,77613.445,-3742.147,12249.512,61167.727
1386852.7735167728,-46675.54,-22192.75,28039.268,-8708.578,77621.26,-3743.5303,12243.774,61146.77
1386852.777516768,-46675.133,-22194.947,28046.672,-8709.514,77623.25,-3745.9312,12242.595,61150.434
1386852.7815167636,-46673.83,-22189.17,28051.393,-8710.368,77616.58,-3751.3022,12233.439,61160.44
1386852.7855167591,-46681.6,-22190.512,28049.357,-8710.49,77611.29,-3757.65,12217.733,61153.16
1386852.7895167547,-46710.246,-22195.883,28051.963,-8707.886,77611.01,-3759.3994,12204.143,61118.53
1386852.7935167502,-46700.645,-22193.645,28059.531,-8703.247,77623.05,-3757.365,12204.346,61110.07
1386852.7975167455,-46664.39,-22184.082,28061.484,-8702.23,77627.484,-3756.1443,12217.978,61129.723
1386852.801516741,-46657.35,-22179.566,28064.006,-8702.148,77625.695,-3756.7546,12220.907,61106.445
1386852.8055167366,-46659.344,-22177.654,28061.484,-8701.986,77619.34,-3757.243,12218.994,61105.633
1386852.809516732,-46671.797,-22189.006,28056.193,-8701.172,77618.57,-3754.5574,12221.11,61113.977
1386852.8135167274,-46683.066,-22186.605,28054.77,-8702.2705,77622.32,-3750.1628,12233.032,61132.45
1386852.817516723,-46678.305,-22177.451,28058.188,-8702.23,77624.63,-3745.9312,12249.878,61152.71
1386852.8215167185,-46658.977,-22166.016,28064.902,-8702.148,77630.82,-3746.5007,12255.493,61153.445
1386852.825516714,-46664.43,-22166.057,28065.309,-8700.969,77628.625,-3744.3442,12260.092,61171.918
1386852.8295167095,-46680.34,-22174.969,28061.035,-8699.219,77628.016,-3742.3096,12263.144,61189.496
1386852.8335167048,-46679.04,-22170.615,28060.914,-8696.859,77639.9,-3740.0718,12261.557,61166.668
1386852.8375167004,-46676.68,-22166.016,28065.635,-8699.382,77639.2,-3738.1592,12270.02,61180.258
1386852.841516696,-46686.363,-22175.863,28063.762,-8704.143,77631.47,-3735.0261,12275.229,61199.707
1386852.8455166915,-46696.25,-22188.438,28056.113,-8708.537,77619.14,-3734.66,12265.747,61182.293
1386852.8495166868,-46713.22,-22185.791,28055.746,-8706.747,77618.94,-3731.2012,12263.876,61184.043
1386852.8535166823,-46723.797,-22175.701,28060.914,-8703.857,77631.8,-3728.8818,12267.09,61172.812
1386852.8575166778,-46679.363,-22171.795,28065.105,-8705.607,77637.21,-3727.6611,12277.426,61202.56
1386852.8615166734,-46682.21,-22170.371,28064.414,-8706.543,77633.67,-3731.649,12274.699,61202.516
1386852.865516669,-46686.566,-22161.297,28066.285,-8702.759,77634.65,-3737.915,12254.639,61165.324
1386852.8695166642,-46692.06,-22163.982,28066.367,-8697.754,77642.54,-3740.2751,12242.065,61153.81
1386852.8735166597,-46690.918,-22178.467,28066.936,-8691.691,77647.55,-3741.333,12242.147,61163.086
1386852.8775166553,-46688.273,-22167.115,28067.912,-8692.505,77647.664,-3743.5303,12242.717,61168.99
1386852.8815166508,-46686.117,-22147.95,28074.912,-8694.174,77643.07,-3748.1284,12237.671,61161.785
1386852.8855166463,-46713.707,-22150.758,28075.604,-8694.499,77638.1,-3752.401,12228.598,61140.625
1386852.8895166416,-46684.855,-22157.879,28070.965,-8695.19,77637.414,-3751.058,12231.405,61151.9
1386852.8935166372,-46700.32,-22159.018,28067.627,-8693.97,77641.32,-3742.8794,12247.437,61174.316
1386852.8975166327,-46672.65,-22154.908,28073.08,-8693.686,77648.93,-3737.5083,12259.604,61177.086
1386852.9015166282,-46637.453,-22155.803,28072.104,-8697.795,77647.42,-3738.322,12265.666,61189.414
1386852.9055166235,-46652.832,-22163.371,28066.773,-8699.057,77636.15,-3738.7695,12263.957,61180.46
1386852.909516619,-46665.203,-22164.512,28063.477,-8696.33,77636.64,-3730.6316,12261.923,61172.527
1386852.9135166146,-46662.152,-22165.0,28068.156,-8692.505,77645.39,-3721.4355,12270.061,61178.305
1386852.9175166101,-46647.586,-22156.047,28076.904,-8692.18,77649.7,-3716.5122,12284.099,61203.82
1386852.9215166057,-46650.676,-22160.076,28077.637,-8696.249,77643.48,-3714.8438,12291.016,61223.43
1386852.925516601,-46649.863,-22159.506,28076.416,-8697.551,77639.04,-3714.6812,12282.837,61211.996
1386852.9295165965,-46649.863,-22152.996,28074.383,-8694.377,77639.81,-3713.1348,12275.229,61216.637
1386852.933516592,-46647.625,-22150.229,28079.346,-8691.732,77646.69,-3711.7107,12275.757,61236.492
1386852.9375165876,-46666.22,-22145.305,28086.264,-8689.86,77652.63,-3714.2742,12267.375,61203.777
1386852.9415165829,-46636.19,-22147.096,28090.17,-8687.907,77647.625,-3717.733,12251.465,61164.918
1386852.9455165784,-46612.145,-22148.479,28085.938,-8687.785,77644.05,-3720.1743,12236.247,61137.777
1386852.949516574,-46629.395,-22155.723,28082.602,-8685.019,77644.164,-3719.442,12228.76,61136.11
1386852.9535165695,-46630.82,-22151.855,28086.387,-8682.211,77648.03,-3716.3086,12232.382,61133.06
1386852.957516565,-46624.84,-22143.19,28089.56,-8685.344,77652.14,-3713.8672,12243.612,61150.516
1386852.9615165603,-46630.414,-22153.809,28090.414,-8688.599,77642.336,-3713.0535,12253.296,61167.848
1386852.9655165558,-46640.586,-22162.965,28086.467,-8689.209,77640.79,-3715.454,12247.681,61145.387
1386852.9695165514,-46641.074,-22169.8,28084.96,-8689.047,77643.48,-3716.3086,12247.6,61151.98
1386852.973516547,-46627.645,-22151.408,28090.537,-8685.019,77659.305,-3715.1287,12256.226,61174.074
1386852.9775165422,-46616.863,-22138.266,28096.64,-8682.455,77670.45,-3715.5762,12262.98,61194.62
1386852.9815165377,-46609.5,-22144.654,28096.273,-8683.838,77664.11,-3717.163,12264.853,61209.8
1386852.9855165333,-46608.93,-22150.717,28093.832,-8683.716,77653.98,-3718.4653,12259.359,61199.87
1386852.9895165288,-46604.25,-22160.076,28090.82,-8682.495,77651.0,-3716.024,12257.528,61197.55
1386852.9935165243,-46596.844,-22153.2,28093.71,-8678.061,77658.9,-3713.0127,12265.91,61208.336
1386852.9975165196,-46586.426,-22156.82,28096.518,-8677.979,77667.195,-3710.0017,12280.273,61230.227
1386853.0015165152,-46578.492,-22168.621,28096.152,-8682.129,77666.95,-3707.0312,12286.825,61237.305
1386853.0055165107,-46594.117,-22163.047,28092.367,-8689.209,77658.49,-3704.2644,12288.168,61255.047
1386853.0095165062,-46589.723,-22148.479,28091.879,-8687.419,77660.04,-3700.114,12285.889,61248.902
1386853.0135165018,-46531.047,-22135.58,28091.025,-8686.523,77669.27,-3697.4692,12288.168,61249.023
1386853.017516497,-46525.35,-22134.93,28092.246,-8689.819,77667.97,-3695.9636,12290.894,61241.418
1386853.0215164926,-46547.85,-22139.242,28098.105,-8692.099,77665.85,-3699.3003,12282.064,61215.617
1386853.0255164881,-46541.383,-22143.23,28100.383,-8693.441,77660.36,-3703.2065,12270.386,61215.457
1386853.0295164837,-46510.133,-22153.037,28097.047,-8693.686,77660.16,-3703.1658,12266.398,61228.11
1386853.033516479,-46509.44,-22156.7,28100.18,-8691.447,77668.22,-3700.6023,12268.881,61229.617
1386853.0375164745,-46496.95,-22147.178,28107.016,-8691.569,77672.85,-3702.0671,12268.188,61213.055
1386853.04151647,-46494.223,-22144.816,28109.092,-8694.621,77668.3,-3705.6885,12262.207,61203.86
1386853.0455164656,-46503.703,-22150.717,28102.215,-8696.696,77663.945,-3708.4148,12255.778,61190.88
1386853.049516461,-46510.01,-22159.547,28095.867,-8696.371,77664.31,-3706.2175,12256.592,61169.844
1386853.0535164564,-46502.156,-22159.262,28098.674,-8693.4,77671.836,-3702.2705,12267.294,61174.848
1386853.057516452,-46477.01,-22146.893,28104.777,-8690.796,77675.09,-3701.6196,12276.042,61182.742
1386853.0615164475,-46470.906,-22146.566,28104.168,-8692.099,77669.92,-3702.5554,12279.094,61190.51
1386853.065516443,-46471.152,-22159.994,28099.691,-8696.859,77663.29,-3703.4912,12277.792,61199.87
1386853.0695164383,-46464.52,-22163.33,28097.168,-8696.208,77667.08,-3702.2705,12280.64,61208.62
1386853.0735164338,-46457.684,-22151.328,28100.22,-8692.79,77681.12,-3702.0671,12285.4,61225.06
1386853.0775164294,-46440.715,-22144.248,28105.145,-8691.936,77688.84,-3702.108,12291.342,61247.113
1386853.081516425,-46425.984,-22139.404,28107.016,-8692.261,77690.555,-3704.2236,12287.109,61256.836
1386853.0855164204,-46432.09,-22139.121,28102.5,-8693.848,77682.82,-3705.2817,12278.972,61256.555
1386853.0895164157,-46454.51,-22144.531,28099.285,-8691.691,77681.73,-3703.6948,12276.286,61261.64
1386853.0935164113,-46435.875,-22137.736,28100.709,-8687.5,77689.78,-3702.1484,12276.733,61264.57
1386853.0975164068,-46384.277,-22122.885,28101.807,-8689.169,77693.445,-3700.9685,12280.192,61255.047
1386853.1015164023,-46390.953,-22136.068,28101.318,-8694.946,77685.59,-3699.5037,12285.156,61255.656
1386853.1055163976,-46405.152,-22150.31,28099.447,-8697.836,77677.414,-3698.0388,12281.128,61242.312
1386853.1095163932,-46417.523,-22166.057,28096.152,-8698.364,77673.055,-3695.5974,12277.914,61244.957
1386853.1135163887,-46426.434,-22183.96,28092.979,-8696.249,77678.14,-3692.871,12278.483,61232.42
1386853.1175163842,-46428.184,-22171.387,28096.518,-8697.348,77678.305,-3692.7085,12279.379,61223.188
1386853.1215163798,-46417.81,-22144.248,28099.082,-8697.551,77678.47,-3696.3706,12271.078,61207.93
1386853.125516375,-46414.88,-22141.766,28099.773,-8695.435,77679.2,-3702.1484,12256.714,61176.395
1386853.1295163706,-46449.26,-22156.129,28097.453,-8691.04,77685.1,-3701.8638,12254.517,61180.055
1386853.1335163661,-46421.754,-22163.047,28097.332,-8690.023,77689.78,-3701.0498,12257.406,61178.633
1386853.1375163617,-46391.562,-22160.28,28097.861,-8692.953,77692.43,-3700.4395,12265.585,61190.023
1386853.1415163572,-46400.105,-22156.82,28095.135,-8697.266,77686.61,-3702.0264,12264.486,61179.73
1386853.1455163525,-46410.973,-22149.537,28092.652,-8697.795,77680.83,-3702.0264,12258.057,61157.96
1386853.149516348,-46428.223,-22159.75,28092.367,-8695.068,77678.836,-3701.3347,12258.911,61161.83
1386853.1535163436,-46432.863,-22164.145,28092.246,-8690.837,77685.18,-3696.6147,12272.339,61188.926
1386853.157516339,-46422.324,-22161.703,28095.703,-8690.268,77688.88,-3693.3188,12286.947,61213.34
1386853.1615163344,-46405.805,-22152.02,28099.406,-8692.099,77683.23,-3693.1152,12293.823,61232.016
1386853.16551633,-46409.18,-22148.764,28098.268,-8694.662,77675.74,-3693.7256,12291.179,61248.742
1386853.1695163255,-46419.72,-22159.059,28098.715,-8693.278,77683.8,-3693.278,12284.058,61232.016
1386853.173516321,-46423.91,-22155.64,28103.191,-8690.593,77700.03,-3692.871,12284.18,61234.05
1386853.1775163165,-46429.242,-22138.225,28114.34,-8687.582,77713.99,-3691.8132,12291.789,61253.094
1386853.1815163118,-46374.15,-22129.883,28119.06,-8688.11,77711.55,-3692.1794,12293.376,61268.19
1386853.1855163074,-46374.27,-22128.215,28120.037,-8686.972,77702.64,-3692.4644,12287.883,61277.184
1386853.189516303,-46385.99,-22129.03,28117.107,-8683.024,77701.74,-3692.505,12282.634,61283.285
1386853.1935162984,-46387.004,-22135.58,28119.182,-8677.897,77702.15,-3693.4814,12279.867,61281.047
1386853.1975162937,-46391.684,-22142.01,28119.06,-8678.427,77699.1,-3694.4988,12281.657,61276.53
1386853.2015162893,-46396.04,-22147.87,28119.752,-8684.082,77695.516,-3693.156,12284.058,61252.727
1386853.2055162848,-46400.473,-22155.234,28114.707,-8687.866,77689.58,-3692.6677,12284.099,61252.484
1386853.2095162803,-46406.09,-22155.723,28109.416,-8686.523,77689.25,-3694.0105,12280.273,61236.656
1386853.2135162759,-46407.105,-22164.959,28109.13,-8684.53,77697.266,-3694.336,12281.982,61229.98
1386853.2175162712,-46407.105,-22181.885,28111.29,-8681.234,77708.17,-3695.516,12280.722,61218.547
1386853.2215162667,-46394.41,-22161.541,28115.154,-8677.734,77707.36,-3697.2656,12273.4375,61204.836
1386853.2255162622,-46397.79,-22133.627,28111.613,-8680.095,77694.664,-3697.876,12265.097,61187.297
1386853.2295162578,-46415.242,-22141.195,28105.633,-8681.479,77691.41,-3694.9058,12265.259,61189.902
1386853.233516253,-46419.56,-22146.445,28104.777,-8680.786,77695.4,-3691.04,12274.455,61210.574
1386853.2375162486,-46409.832,-22144.736,28107.748,-8681.03,77696.375,-3689.494,12284.912,61222.09
1386853.2415162441,-46414.266,-22150.92,28110.557,-8683.146,77687.5,-3690.4297,12288.412,61214.4
1386853.2455162397,-46452.84,-22157.635,28112.021,-8682.821,77686.0,-3689.3718,12296.062,61236.535
1386853.2495162352,-46418.824,-22152.264,28110.963,-8679.892,77693.32,-3686.483,12301.718,61251.875
1386853.2535162305,-46393.8,-22139.486,28113.16,-8675.944,77704.19,-3682.6987,12312.216,61269.41
1386853.257516226,-46394.29,-22132.121,28118.938,-8671.916,77710.01,-3683.3904,12320.801,61280.6
1386853.2615162216,-46406.74,-22148.193,28116.863,-8676.555,77700.805,-3684.8552,12320.557,61283.125
1386853.265516217,-46415.57,-22154.705,28113.486,-8680.786,77694.54,-3686.3608,12310.344,61277.67
1386853.2695162124,-46421.59,-22150.758,28111.98,-8680.542,77690.68,-3684.3262,12301.188,61281.21
1386853.273516208,-46457.684,-22151.084,28113.77,-8679.24,77688.36,-3683.0242,12294.108,61279.867
1386853.2775162035,-46424.887,-22151.164,28120.443,-8678.833,77691.695,-3684.774,12290.854,61283.203
1386853.281516199,-46396.28,-22157.635,28120.078,-8680.461,77694.83,-3685.7505,12285.563,61290.895
1386853.2855161945,-46402.14,-22149.62,28119.752,-8678.223,77696.05,-3688.8022,12270.183,61251.547
1386853.2895161898,-46410.156,-22144.287,28118.084,-8675.619,77700.6,-3691.162,12263.794,61253.867
1386853.2935161854,-46411.38,-22138.307,28117.637,-8670.492,77712.77,-3689.9414,12265.991,61260.297
1386853.297516181,-46406.74,-22131.104,28119.549,-8668.986,77718.63,-3690.5112,12268.474,61236.695
1386853.3015161764,-46410.77,-22134.889,28118.857,-8670.126,77714.56,-3691.569,12269.328,61235.8
1386853.305516172,-46418.01,-22140.748,28112.021,-8672.648,77708.5,-3692.8306,12267.578,61227.785
1386853.3095161673,-46430.83,-22150.27,28110.596,-8672.445,77707.16,-3690.918,12267.578,61204.1
1386853.3135161628,-46436.08,-22152.67,28111.492,-8673.096,77712.52,-3685.3435,12279.989,61218.71
1386853.3175161583,-46464.684,-22149.822,28116.09,-8673.991,77716.19,-3681.9255,12293.295,61224.855
1386853.3215161539,-46430.176,-22153.809,28114.99,-8675.009,77712.445,-3682.902,12295.654,61211.55
1386853.3255161492,-46416.26,-22169.8,28109.58,-8674.072,77710.414,-3684.5298,12290.161,61203.86
1386853.3295161447,-46430.543,-22161.744,28107.504,-8673.666,77706.99,-3683.5125,12288.818,61201.01
1386853.3335161402,-46427.656,-22148.602,28112.875,-8672.119,77709.44,-3680.664,12294.963,61216.797
1386853.3375161358,-46426.312,-22147.46,28116.375,-8672.16,77709.555,-3680.7456,12298.422,61231.367
1386853.3415161313,-46429.242,-22144.98,28119.59,-8673.788,77701.945,-3683.5532,12292.644,61229.414
1386853.3455161266,-46434.816,-22150.717,28120.566,-8673.869,77698.77,-3684.4482,12285.197,61233.562
1386853.3495161221,-46436.65,-22152.344,28121.543,-8671.591,77703.086,-3681.4373,12288.046,61248.7
1386853.3535161177,-46435.387,-22148.723,28123.332,-8668.295,77714.766,-3676.7173,12298.34,61244.348
1386853.3575161132,-46425.824,-22137.533,28128.094,-8668.986,77724.164,-3672.3633,12314.087,61271.324
1386853.3615161085,-46418.215,-22133.139,28129.924,-8672.7295,77722.86,-3673.1365,12316.406,61287.883
1386853.365516104,-46412.723,-22134.033,28127.93,-8671.347,77717.82,-3676.229,12302.002,61268.68
1386853.3695160996,-46418.5,-22133.545,28125.732,-8669.067,77716.39,-3678.4263,12287.598,61262.656
1386853.373516095,-46436.035,-22138.062,28129.191,-8665.527,77721.16,-3677.3682,12286.255,61284.547
1386853.3775160906,-46456.83,-22138.307,28134.156,-8664.145,77723.15,-3677.409,12289.877,61290.12
1386853.381516086,-46404.707,-22132.365,28136.475,-8665.324,77722.86,-3680.6235,12293.376,61287.273
1386853.3855160815,-46402.914,-22135.336,28130.047,-8667.358,77722.086,-3682.0068,12293.376,61276.207
1386853.389516077,-46419.15,-22133.262,28127.197,-8665.405,77726.52,-3678.3447,12304.81,61293.5
1386853.3935160725,-46423.586,-22133.383,28130.209,-8663.086,77732.71,-3671.9158,12325.888,61328.82
1386853.3975160678,-46427.125,-22129.518,28132.08,-8661.54,77734.055,-3671.102,12332.805,61298.87
1386853.4015160634,-46426.23,-22125.326,28133.79,-8662.191,77730.39,-3674.5605,12328.247,61272.383
1386853.405516059,-46431.766,-22134.115,28128.215,-8662.313,77722.21,-3675.9849,12318.767,61251.953
1386853.4095160544,-46458.293,-22142.416,28125.164,-8660.727,77716.555,-3674.3572,12310.629,61237.957
1386853.41351605,-46447.188,-22146.24,28127.035,-8658.081,77723.02,-3672.7703,12309.611,61226.36
1386853.4175160453,-46405.684,-22145.63,28124.92,-8660.075,77728.72,-3670.451,12322.632,61263.39
1386853.4215160408,-46411.95,-22148.479,28127.564,-8665.08,77725.75,-3668.1316,12332.642,61283.9
1386853.4255160363,-46420.74,-22145.428,28126.67,-8665.568,77725.14,-3668.742,12329.062,61286.5
1386853.4295160319,-46431.97,-22128.541,28127.97,-8661.581,77727.5,-3668.4978,12322.958,61302.246
1386853.4335160274,-46428.875,-22119.223,28134.156,-8657.919,77735.88,-3667.7246,12320.395,61308.23
1386853.4375160227,-46416.953,-22108.195,28142.904,-8656.413,77737.14,-3669.9219,12314.087,61296.55
1386853.4415160182,-46413.74,-22109.457,28145.63,-8656.291,77731.734,-3673.1365,12308.513,61303.348
1386853.4455160138,-46418.945,-22125.611,28145.264,-8655.111,77721.93,-3674.398,12298.3,61301.92
1386853.4495160093,-46420.82,-22126.709,28142.172,-8652.06,77721.31,-3672.4448,12291.911,61297.977
1386853.4535160046,-46417.684,-22119.385,28141.398,-8650.473,77728.6,-3670.9392,12294.963,61309.125
1386853.4575160001,-46414.266,-22120.77,28146.484,-8650.391,77734.46,-3670.288,12299.602,61300.78
1386853.4615159957,-46429.73,-22124.473,28146.69,-8652.426,77737.35,-3671.9158,12296.428,61280.97
1386853.4655159912,-46456.465,-22129.639,28143.88,-8653.158,77737.51,-3674.398,12285.482,61260.867
1386853.4695159867,-46406.902,-22125.244,28142.945,-8652.629,77737.14,-3673.6655,12281.535,61267.254
1386853.473515982,-46400.473,-22120.646,28143.066,-8648.967,77739.914,-3670.7358,12286.662,61278.363
1386853.4775159776,-46402.06,-22115.887,28144.857,-8649.414,77747.36,-3670.7764,12293.01,61279.22
1386853.481515973,-46406.535,-22114.87,28144.287,-8652.1,77742.72,-3671.0613,12299.438,61291.14
1386853.4855159686,-46411.746,-22121.908,28139.16,-8653.972,77736.125,-3670.9392,12302.49,61280.234
1386853.489515964,-46421.47,-22125.326,28132.162,-8655.273,77735.03,-3666.8296,12309.733,61260.01
1386853.4935159595,-46436.32,-22131.389,28129.273,-8657.187,77737.8,-3660.1157,12330.241,61279.38
1386853.497515955,-46434.57,-22132.324,28128.826,-8659.912,77743.33,-3657.3486,12346.762,61294.76
1386853.5015159505,-46431.766,-22123.17,28131.268,-8660.319,77742.44,-3658.2847,12350.627,61302.41
1386853.505515946,-46437.297,-22120.605,28130.615,-8659.424,77738.69,-3660.9294,12343.71,61306.766
1386853.5095159414,-46441.0,-22135.947,28131.715,-8657.756,77733.4,-3662.5571,12332.4795,61297.85
1386853.513515937,-46468.75,-22152.508,28134.074,-8653.198,77736.984,-3660.8481,12338.095,61326.54
1386853.5175159324,-46430.83,-22133.912,28137.98,-8652.832,77737.59,-3664.6323,12336.142,61325.117
1386853.521515928,-46401.125,-22111.857,28135.215,-8655.233,77733.85,-3669.9626,12317.017,61301.15
1386853.5255159233,-46409.14,-22118.613,28136.76,-8656.088,77729.74,-3672.7703,12301.352,61298.992
1386853.5295159188,-46422.04,-22136.883,28136.395,-8653.564,77727.42,-3673.2585,12290.08,61289.473
1386853.5335159143,-46425.66,-22126.914,28141.44,-8649.252,77732.305,-3672.5261,12285.36,61284.305
1386853.5375159099,-46419.477,-22111.492,28149.537,-8645.59,77746.83,-3672.3228,12285.522,61288.496
1386853.5415159054,-46412.312,-22110.148,28152.385,-8647.095,77743.33,-3673.2178,12283.447,61297.812
1386853.5455159007,-46410.402,-22110.352,28149.74,-8646.484,77730.47,-3676.5544,12270.671,61265.383
1386853.5495158962,-46414.266,-22129.518,28146.729,-8643.2295,77719.89,-3677.816,12263.021,61238.0
1386853.5535158918,-46429.89,-22153.77,28146.322,-8642.456,77727.42,-3673.3806,12270.874,61243.734
1386853.5575158873,-46430.91,-22137.86,28143.555,-8644.206,77730.63,-3670.6138,12279.989,61257.324
1386853.5615158828,-46432.984,-22133.83,28142.62,-8647.827,77729.21,-3671.6309,12277.873,61248.496
1386853.5655158781,-46460.004,-22134.074,28143.271,-8646.811,77730.76,-3672.282,12265.381,61214.926
1386853.5695158737,-46441.977,-22139.975,28143.555,-8643.352,77738.33,-3668.2944,12267.497,61228.926
1386853.5735158692,-46414.633,-22138.51,28140.178,-8641.032,77754.234,-3667.155,12275.513,61228.07
1386853.5775158647,-46414.55,-22125.57,28145.346,-8639.975,77756.06,-3666.626,12286.499,61228.516
1386853.58151586,-46414.55,-22119.264,28148.398,-8641.032,77754.234,-3664.9985,12293.62,61221.56
1386853.5855158556,-46423.504,-22125.041,28145.834,-8643.2295,77752.56,-3665.4868,12297.323,61221.477
1386853.589515851,-46445.56,-22130.006,28146.893,-8641.113,77752.85,-3661.9873,12306.396,61235.883
1386853.5935158466,-46432.984,-22129.559,28148.764,-8641.195,77758.14,-3654.8667,12325.684,61269.98
1386853.5975158422,-46398.316,-22119.385,28148.887,-8643.555,77763.43,-3651.3672,12343.344,61306.438
1386853.6015158375,-46406.008,-22135.418,28148.723,-8647.421,77758.305,-3655.5176,12342.814,61321.777
1386853.605515833,-46421.227,-22140.422,28143.922,-8650.351,77757.33,-3658.488,12333.415,61310.47
1386853.6095158285,-46431.684,-22124.064,28145.508,-8650.595,77752.12,-3658.488,12325.766,61302.734
1386853.613515824,-46430.016,-22132.041,28149.74,-8649.496,77753.3,-3658.8542,12321.452,61303.184
1386853.6175158194,-46427.492,-22135.133,28155.518,-8649.74,77754.56,-3660.4004,12319.052,61308.35
1386853.621515815,-46426.96,-22130.127,28156.088,-8651.327,77752.89,-3661.4177,12317.912,61332.156
1386853.6255158104,-46426.23,-22125.977,28151.855,-8651.733,77753.22,-3663.8184,12305.339,61316.164
1386853.629515806,-46416.426,-22125.45,28147.625,-8650.024,77752.766,-3665.1206,12292.48,61294.395
1386853.6335158015,-46428.508,-22137.574,28146.445,-8651.9375,77756.88,-3663.8184,12293.539,61291.344
1386853.6375157968,-46426.23,-22133.018,28150.473,-8652.385,77763.23,-3662.4756,12300.944,61288.086
1386853.6415157923,-46420.98,-22117.758,28150.96,-8652.588,77768.03,-3665.1206,12297.852,61283.49
1386853.6455157879,-46432.293,-22124.676,28145.59,-8655.6,77761.31,-3666.1785,12295.288,61293.457
1386853.6495157834,-46446.047,-22146.445,28140.992,-8656.006,77755.414,-3665.1206,12290.202,61256.473
1386853.6535157787,-46444.99,-22145.916,28140.016,-8652.222,77763.23,-3661.3364,12295.37,61255.535
1386853.6575157742,-46434.367,-22133.383,28143.799,-8650.757,77770.96,-3660.482,12300.131,61266.81
1386853.6615157698,-46431.684,-22129.68,28143.434,-8651.9375,77768.6,-3662.7605,12297.812,61267.62
1386853.6655157653,-46429.12,-22132.812,28141.602,-8651.774,77760.664,-3664.022,12291.22,61259.277
1386853.6695157608,-46457.074,-22135.215,28139.404,-8650.229,77767.54,-3661.3364,12292.114,61257.246
1386853.6735157561,-46460.816,-22133.994,28144.248,-8647.909,77779.34,-3657.308,12300.822,61276.777
1386853.6775157517,-46410.08,-22116.09,28147.096,-8648.642,77786.055,-3655.9653,12312.419,61284.63
1386853.6815157472,-46411.582,-22111.572,28147.422,-8651.978,77780.93,-3654.2969,12319.662,61289.836
1386853.6855157427,-46427.574,-22132.365,28143.963,-8657.1455,77769.414,-3652.4253,12324.138,61300.703
1386853.689515738,-46442.75,-22153.973,28142.457,-8656.128,77762.82,-3648.7224,12325.48,61282.066
1386853.6935157336,-46440.227,-22149.781,28145.549,-8652.304,77772.14,-3645.7927,12333.618,61275.188
1386853.697515729,-46428.508,-22113.363,28151.896,-8652.629,77777.47,-3645.874,12343.872,61291.14
1386853.7015157246,-46422.16,-22120.85,28153.646,-8655.151,77773.36,-3648.5596,12347.128,61301.434
1386853.7055157202,-46435.1,-22158.244,28157.023,-8655.437,77773.766,-3650.6348,12342.448,61305.42
1386853.7095157155,-46439.863,-22145.672,28158.123,-8650.351,77787.31,-3651.286,12333.09,61297.773
1386853.713515711,-46441.082,-22121.379,28162.273,-8645.305,77792.89,-3651.9775,12328.451,61300.66
1386853.7175157066,-46436.934,-22116.496,28163.412,-8646.892,77788.13,-3654.0527,12322.266,61309.734
1386853.721515702,-46425.254,-22117.27,28163.453,-8646.851,77783.04,-3658.895,12308.554,61298.547
1386853.7255156976,-46418.906,-22115.195,28163.371,-8644.247,77782.35,-3661.4177,12295.41,61283.49
1386853.729515693,-46426.516,-22119.426,28162.803,-8641.806,77784.38,-3660.8481,12292.521,61291.504
1386853.7335156885,-46426.883,-22127.441,28164.023,-8639.364,77792.85,-3657.9998,12298.218,61271.08
1386853.737515684,-46425.945,-22125.326,28164.959,-8640.137,77801.35,-3656.7383,12312.866,61288.453
1386853.7415156795,-46419.312,-22116.172,28166.3,-8642.334,77801.03,-3654.541,12325.603,61307.21
1386853.7455156748,-46431.438,-22114.625,28161.133,-8641.724,77801.234,-3654.0122,12322.754,61291.016
1386853.7495156704,-46451.254,-22122.764,28159.629,-8638.998,77803.59,-3653.646,12320.476,61297.895
1386853.753515666,-46411.297,-22118.896,28164.55,-8637.126,77811.32,-3650.9604,12328.939,61329.387
1386853.7575156614,-46401.207,-22098.389,28171.225,-8634.277,77818.16,-3651.2046,12333.334,61316.652
1386853.761515657,-46404.01,-22095.338,28171.469,-8638.55,77814.984,-3651.5708,12335.449,61333.133
1386853.7655156523,-46414.676,-22105.062,28166.139,-8640.951,77809.695,-3650.5127,12331.665,61328.332
1386853.7695156478,-46416.3,-22119.223,28164.959,-8637.573,77812.625,-3647.7458,12332.846,61329.875
1386853.7735156433,-46414.43,-22123.008,28163.9,-8637.37,77820.31,-3640.8691,12350.22,61356.934
1386853.7775156389,-46404.746,-22105.836,28167.441,-8642.456,77822.875,-3637.4512,12372.478,61384.93
1386853.7815156342,-46404.582,-22100.912,28171.143,-8644.897,77821.9,-3637.8582,12379.721,61381.105
1386853.7855156297,-46409.59,-22113.363,28178.02,-8644.084,77819.13,-3637.736,12375.977,61359.582
1386853.7895156252,-46408.53,-22116.537,28182.09,-8640.707,77817.51,-3634.8472,12378.174,61361.86
1386853.7935156208,-46399.54,-22101.197,28186.729,-8636.557,77828.45,-3631.3477,12386.149,61367.27
1386853.7975156163,-46398.6,-22093.75,28189.576,-8638.184,77833.82,-3632.2837,12388.55,61372.438
1386853.8015156116,-46411.785,-22100.098,28184.246,-8643.433,77828.62,-3635.4167,12378.906,61371.543
1386853.8055156071,-46441.816,-22102.865,28178.955,-8644.491,77821.414,-3639.8113,12358.398,61357.79
1386853.8095156027,-46402.184,-22115.764,28174.033,-8644.45,77821.21,-3642.8223,12340.82,61352.094
1386853.8135155982,-46394.125,-22117.27,28173.34,-8642.334,77826.58,-3644.3687,12331.299,61351.77
1386853.8175155935,-46397.543,-22112.672,28176.066,-8642.334,77830.445,-3644.9382,12328.613,61355.754
1386853.821515589,-46392.5,-22102.133,28179.24,-8641.195,77831.38,-3647.1763,12324.423,61342.652
1386853.8255155846,-46411.867,-22102.824,28177.49,-8641.5205,77820.64,-3649.3328,12322.754,61331.992
1386853.82951558,-46439.375,-22110.557,28175.416,-8638.062,77823.33,-3649.414,12323.486,61317.793
1386853.8335155756,-46446.7,-22110.027,28175.578,-8634.399,77832.89,-3646.1997,12337.158,61332.727
1386853.837515571,-46385.945,-22095.379,28175.986,-8634.399,77834.88,-3640.7065,12358.032,61345.215
1386853.8415155665,-46387.9,-22094.076,28170.777,-8639.689,77828.125,-3638.5093,12368.49,61355.31
1386853.845515562,-46402.1,-22101.156,28162.395,-8642.619,77824.47,-3637.0444,12363.647,61343.63
1386853.8495155575,-46414.43,-22111.248,28157.594,-8643.677,77825.445,-3633.952,12360.312,61347.21
1386853.853515553,-46419.965,-22114.91,28164.307,-8641.317,77830.484,-3632.487,12360.881,61361.25
1386853.8575155484,-46417.277,-22112.266,28172.568,-8641.398,77831.95,-3633.2603,12365.153,61388.918
1386853.861515544,-46416.26,-22109.54,28176.23,-8642.538,77828.62,-3637.207,12358.195,61359.215
1386853.8655155394,-46422.16,-22131.43,28177.207,-8642.334,77819.586,-3642.985,12344.035,61328.695
1386853.869515535,-46428.266,-22144.816,28176.23,-8636.027,77822.63,-3642.9443,12339.478,61342.695
1386853.8735155303,-46420.37,-22123.535,28181.479,-8632.162,77828.62,-3639.8926,12347.778,61363.85
1386853.8775155258,-46412.395,-22105.55,28185.547,-8632.365,77830.33,-3639.974,12352.458,61336.184
1386853.8815155213,-46404.34,-22099.814,28186.443,-8633.179,77831.38,-3643.7583,12348.715,61314.008
1386853.8855155169,-46427.777,-22110.637,28181.56,-8635.336,77824.266,-3644.8975,12346.436,61321.25
1386853.8895155124,-46467.043,-22121.135,28178.102,-8634.888,77825.03,-3643.4326,12345.337,61332.24
1386853.8935155077,-46409.953,-22099.041,28182.293,-8630.209,77842.57,-3641.4795,12349.203,61345.094
1386853.8975155032,-46395.836,-22095.582,28185.02,-8629.802,77847.945,-3642.5781,12349.936,61348.758
1386853.9015154988,-46399.824,-22097.453,28184.367,-8632.65,77844.28,-3649.3735,12341.146,61361.74
1386853.9055154943,-46401.57,-22097.412,28186.361,-8629.191,77839.48,-3655.3142,12320.923,61342.816
1386853.9095154896,-46411.176,-22103.924,28187.5,-8625.326,77841.92,-3657.1045,12306.885,61327.07
1386853.9135154851,-46408.977,-22100.83,28189.982,-8621.704,77850.99,-3656.657,12304.77,61332.727
1386853.9175154807,-46395.223,-22086.143,28193.93,-8621.42,77851.69,-3657.9185,12308.105,61341.23
1386853.9215154762,-46395.1,-22087.443,28193.076,-8622.6,77851.08,-3657.6743,12316.813,61361.86
1386853.9255154717,-46406.09,-22089.844,28192.709,-8622.478,77852.91,-3657.959,12315.268,61334.066
1386853.929515467,-46441.0,-22089.072,28194.5,-8621.46,77848.47,-3653.7273,12322.714,61331.34
1386853.9335154626,-46404.582,-22090.617,28195.639,-8621.379,77848.8,-3646.9727,12343.344,61357.016
1386853.937515458,-46374.27,-22083.578,28194.947,-8622.681,77855.19,-3644.857,12352.336,61347.047
1386853.9415154536,-46379.152,-22083.984,28194.418,-8624.756,77852.3,-3646.7285,12352.865,61327.883
1386853.945515449,-46390.586,-22087.158,28191.855,-8625.732,77848.39,-3647.8271,12350.058,61332.97
1386853.9495154445,-46395.71,-22102.256,28191.406,-8620.932,77853.4,-3646.7285,12347.128,61335.043
1386853.95351544,-46399.008,-22124.064,28191.488,-8617.27,77864.95,-3643.4734,12357.097,61361.207
1386853.9575154355,-46389.65,-22080.852,28197.754,-8620.158,77868.66,-3640.625,12371.664,61386.355
1386853.961515431,-46379.316,-22055.787,28205.404,-8623.007,77861.086,-3639.038,12372.803,61377.117
1386853.9655154264,-46380.13,-22063.355,28205.363,-8623.739,77850.305,-3638.3057,12363.2,61355.105
1386853.969515422,-46397.746,-22083.008,28199.26,-8624.228,77847.54,-3639.445,12349.936,61330.324
1386853.9735154174,-46405.316,-22089.031,28196.738,-8622.314,77853.805,-3640.2588,12342.611,61325.156
1386853.977515413,-46394.125,-22081.707,28199.79,-8620.6875,77860.516,-3639.6892,12344.442,61340.7
1386853.9815154085,-46388.31,-22075.277,28198.121,-8622.274,77858.69,-3641.4795,12341.105,61323.69
1386853.9855154038,-46390.42,-22073.527,28190.838,-8623.454,77859.625,-3642.6597,12331.503,61305.664
1386853.9895153993,-46401.652,-22086.996,28185.1,-8623.332,77862.63,-3641.1948,12332.153,61321.332
1386853.9935153949,-46411.5,-22090.537,28184.367,-8620.891,77872.68,-3640.7065,12344.809,61356.934
1386853.9975153904,-46430.34,-22082.44,28192.871,-8618.815,77883.914,-3641.9272,12357.829,61385.95
1386854.0015153857,-46396.934,-22066.488,28198.812,-8620.117,77871.42,-3644.8975,12359.172,61395.918
1386854.0055153812,-46368.9,-22066.977,28195.232,-8620.483,77863.734,-3645.7114,12356.894,61406.21
1386854.0095153768,-46380.656,-22086.264,28192.994,-8618.896,77867.88,-3645.9556,12352.336,61396.566
1386854.0135153723,-46385.094,-22080.527,28195.232,-8616.577,77878.54,-3646.2402,12347.575,61368.574
1386854.0175153678,-46384.32,-22072.918,28200.48,-8617.554,77882.86,-3643.7583,12355.998,61403.2
1386854.0215153631,-46387.695,-22075.074,28200.848,-8620.769,77879.84,-3646.9727,12351.889,61400.066
1386854.0255153587,-46395.387,-22077.719,28197.998,-8619.873,77875.25,-3650.3093,12343.059,61379.6
1386854.0295153542,-46406.617,-22097.412,28197.021,-8616.496,77874.07,-3650.3093,12341.716,61380.496
1386854.0335153497,-46406.09,-22103.354,28202.8,-8612.0205,77879.195,-3647.461,12350.22,61389.934
1386854.037515345,-46398.277,-22084.514,28204.713,-8614.99,77872.16,-3642.741,12358.562,61389.285
1386854.0415153406,-46392.457,-22094.117,28200.684,-8621.948,77860.4,-3642.619,12354.492,61381.96
1386854.045515336,-46406.617,-22099.082,28196.045,-8622.925,77854.05,-3643.5142,12343.71,61336.996
1386854.0495153316,-46445.68,-22098.268,28193.727,-8621.054,77850.71,-3639.4858,12344.238,61330.527
1386854.0535153272,-46413.047,-22099.773,28191.406,-8621.786,77857.305,-3634.1147,12352.987,61338.055
1386854.0575153225,-46404.91,-22100.871,28190.553,-8625.122,77859.74,-3631.4697,12366.089,61361.125
1386854.061515318,-46410.688,-22105.795,28189.332,-8625.366,77861.414,-3631.3071,12370.402,61366.336
1386854.0655153135,-46415.69,-22105.754,28186.158,-8625.448,77858.234,-3633.4636,12364.258,61344.035
1386854.069515309,-46414.96,-22104.86,28186.035,-8623.129,77859.664,-3632.894,12361.898,61335.574
1386854.0735153044,-46415.652,-22102.133,28187.826,-8619.385,77870.04,-3629.5166,12369.67,61355.55
1386854.0775153,-46413.13,-22098.47,28190.35,-8620.891,77871.22,-3627.1567,12378.5,61385.824
1386854.0815152954,-46407.35,-22097.332,28186.076,-8624.919,77863.94,-3629.1912,12375.244,61379.19
1386854.085515291,-46419.027,-22106.975,28179.16,-8628.703,77853.15,-3630.4119,12366.74,61361.25
1386854.0895152865,-46433.758,-22104.574,28177.084,-8627.6045,77851.81,-3625.9766,12367.636,61363.527
1386854.0935152818,-46459.11,-22109.01,28182.617,-8624.35,77860.84,-3622.0703,12374.228,61364.016
1386854.0975152773,-46403.242,-22098.023,28190.023,-8622.803,77870.93,-3622.4365,12381.958,61381.31
1386854.1015152729,-46381.105,-22090.984,28192.588,-8622.478,77874.92,-3628.0925,12378.337,61386.19
1386854.1055152684,-46381.51,-22090.252,28193.564,-8619.223,77872.44,-3630.4526,12374.187,61408.816
1386854.1095152637,-46394.086,-22082.602,28192.668,-8617.147,77871.83,-3631.1443,12367.514,61401.29
1386854.1135152592,-46403.89,-22081.787,28194.336,-8613.933,77875.66,-3631.0222,12367.758,61403.117
1386854.1175152548,-46399.54,-22085.693,28197.998,-8611.288,77877.16,-3631.2664,12369.955,61392.375
1386854.1215152503,-46391.766,-22081.666,28197.836,-8612.631,77876.836,-3633.1382,12368.53,61382.69
1386854.1255152458,-46423.625,-22067.709,28195.11,-8616.089,77866.984,-3630.941,12366.374,61375.57
1386854.1295152411,-46416.586,-22080.445,28193.197,-8616.171,77862.836,-3627.36,12366.293,61372.64
1386854.1335152367,-46387.574,-22089.64,28191.488,-8614.99,77874.31,-3623.576,12375.732,61374.84
1386854.1375152322,-46391.97,-22086.264,28193.115,-8613.7295,77882.125,-3623.0876,12386.3125,61388.348
1386854.1415152277,-46396.445,-22079.307,28195.762,-8613.892,77879.4,-3626.058,12383.83,61381.555
1386854.1455152233,-46404.01,-22087.525,28195.639,-8613.7295,77873.09,-3630.6968,12371.989,61368.29
1386854.1495152186,-46407.715,-22090.293,28194.947,-8611.003,77872.97,-3629.6387,12368.083,61368.98
1386854.153515214,-46402.426,-22081.87,28198.365,-8606.894,77884.24,-3626.7905,12368.408,61362.715
1386854.1575152096,-46391.97,-22072.389,28202.434,-8604.37,77892.21,-3628.3774,12370.443,61369.223
1386854.1615152052,-46392.05,-22065.674,28203.248,-8605.388,77889.734,-3630.2085,12370.402,61383.3
1386854.1655152005,-46402.1,-22074.057,28201.904,-8607.341,77882.125,-3630.941,12367.798,61377.363
1386854.169515196,-46431.113,-22079.795,28204.672,-8603.516,77885.09,-3629.1099,12367.514,61363.65
1386854.1735151915,-46394.004,-22069.053,28211.223,-8598.389,77896.89,-3627.36,12376.425,61381.348
1386854.177515187,-46359.09,-22063.355,28217.896,-8600.017,77899.62,-3624.349,12389.486,61409.06
1386854.1815151826,-46361.37,-22059.979,28223.43,-8603.149,77895.555,-3624.349,12392.66,61425.293
1386854.185515178,-46373.66,-22064.291,28222.656,-8602.377,77885.83,-3624.9187,12385.783,61421.918
1386854.1895151734,-46382.0,-22088.34,28218.832,-8600.83,77882.94,-3626.7498,12375.529,61404.543
1386854.193515169,-46378.46,-22083.781,28222.047,-8598.877,77890.46,-3623.82,12381.674,61425.457
1386854.1975151645,-46362.387,-22047.445,28228.516,-8596.965,77902.39,-3623.698,12390.219,61460.41
1386854.2015151598,-46354.25,-22054.566,28226.28,-8595.785,77908.81,-3628.6216,12390.056,61465.21
1386854.2055151553,-46368.043,-22061.361,28222.291,-8598.999,77901.414,-3629.5166,12382.854,61435.02
1386854.2095151509,-46372.355,-22044.19,28225.342,-8600.261,77901.05,-3625.692,12384.807,61426.312
1386854.2135151464,-46356.57,-22024.7,28230.225,-8599.162,77911.7,-3622.8027,12395.549,61438.723
1386854.217515142,-46379.64,-22030.885,28229.818,-8602.255,77906.82,-3618.6523,12410.4,61462.2
1386854.2215151372,-46388.594,-22046.307,28227.703,-8607.463,77897.18,-3616.5771,12418.132,61466.637
1386854.2255151328,-46342.41,-22043.133,28221.314,-8610.026,77895.02,-3616.0483,12414.389,61430.83
1386854.2295151283,-46345.703,-22050.537,28211.71,-8610.2705,77895.34,-3612.671,12414.104,61416.79
1386854.2335151238,-46355.023,-22057.861,28209.84,-8610.759,77903.0,-3607.3406,12422.445,61425.418
1386854.2375151191,-46368.29,-22059.205,28208.904,-8615.967,77902.18,-3605.4282,12429.159,61433.27
1386854.2415151147,-46362.508,-22049.602,28212.525,-8619.182,77904.87,-3606.771,12423.015,61422.0
1386854.2455151102,-46365.113,-22037.559,28220.135,-8615.356,77906.82,-3609.3345,12405.966,61386.965
1386854.2495151057,-46393.883,-22043.01,28221.64,-8610.515,77903.28,-3610.6365,12393.066,61386.438
1386854.2535151013,-46337.605,-22033.691,28224.854,-8606.405,77910.97,-3613.2,12385.905,61394.168
1386854.2575150966,-46320.844,-22021.729,28226.848,-8606.039,77920.945,-3614.1765,12384.481,61409.14
1386854.261515092,-46329.1,-22020.752,28224.936,-8611.898,77922.08,-3616.4958,12385.905,61438.152
1386854.2655150876,-46336.836,-22025.39,28224.773,-8611.044,77915.49,-3616.3738,12381.755,61426.066
1386854.2695150832,-46342.977,-22024.17,28223.797,-8608.358,77919.35,-3616.0889,12378.052,61409.668
1386854.2735150787,-46350.06,-22024.62,28223.268,-8606.853,77923.914,-3615.2751,12385.254,61425.01
1386854.277515074,-46346.926,-22019.004,28226.645,-8607.056,77932.375,-3615.0718,12393.515,61437.42
1386854.2815150695,-46343.223,-22032.023,28229.371,-8608.358,77926.516,-3617.4724,12393.962,61443.688
1386854.285515065,-46347.293,-22045.695,28228.639,-8605.347,77924.766,-3619.8325,12385.376,61433.96
1386854.2895150606,-46356.16,-22030.967,28227.58,-8604.004,77920.375,-3619.2627,12383.667,61422.285
1386854.293515056,-46367.8,-22032.35,28230.307,-8604.086,77923.46,-3614.746,12393.718,61403.527
1386854.2975150514,-46392.418,-22028.932,28233.195,-8604.208,77930.5,-3612.3047,12408.285,61429.12
1386854.301515047,-46357.79,-22028.037,28229.533,-8608.562,77926.76,-3616.2517,12408.285,61438.195
1386854.3055150425,-46329.875,-22020.752,28223.838,-8610.759,77921.19,-3620.158,12398.031,61424.766
1386854.309515038,-46346.805,-22033.53,28224.732,-8609.823,77918.46,-3618.734,12395.183,61421.348
1386854.3135150333,-46363.28,-22044.963,28226.889,-8606.975,77924.32,-3612.0605,12405.844,61440.473
1386854.3175150289,-46360.637,-22030.6,28231.568,-8606.771,77932.7,-3610.962,12414.633,61452.637
1386854.3215150244,-46352.824,-22017.986,28234.254,-8607.951,77933.516,-3613.8103,12410.6045,61432.54
1386854.32551502,-46386.273,-22024.008,28233.684,-8606.771,77929.94,-3612.915,12407.715,61425.58
1386854.3295150152,-46360.883,-22041.545,28229.086,-8607.26,77926.07,-3611.0027,12407.675,61431.4
1386854.3335150108,-46349.49,-22042.521,28228.598,-8605.754,77931.36,-3610.8806,12407.39,61427.004
1386854.3375150063,-46342.855,-22031.129,28237.06,-8602.051,77938.4,-3612.7524,12407.675,61423.465
1386854.3415150018,-46346.395,-22029.379,28236.533,-8602.743,77931.48,-3616.862,12401.001,61407.758
1386854.3455149974,-46357.22,-22038.412,28235.352,-8602.905,77928.02,-3619.751,12389.567,61403.08
1386854.3495149927,-46358.035,-22037.842,28237.793,-8598.715,77936.85,-3618.734,12386.557,61416.586
1386854.3535149882,-46354.004,-22029.664,28238.078,-8594.035,77946.49,-3620.2393,12380.209,61398.277
1386854.3575149837,-46343.223,-22017.578,28243.125,-8592.978,77948.734,-3622.274,12378.866,61396.973
1386854.3615149793,-46335.816,-22020.305,28244.06,-8594.727,77952.516,-3623.983,12375.163,61409.1
1386854.3655149746,-46340.78,-22038.615,28242.229,-8595.053,77949.51,-3626.9531,12364.177,61408.45
1386854.36951497,-46346.844,-22028.85,28245.2,-8593.181,77946.82,-3624.6338,12361.125,61399.457
1386854.3735149656,-46358.113,-22025.473,28245.078,-8592.082,77952.31,-3621.46,12369.223,61404.543
1386854.3775149612,-46359.09,-22025.31,28247.559,-8591.064,77959.48,-3620.809,12376.872,61392.457
1386854.3815149567,-46368.777,-22016.154,28246.623,-8597.412,77952.64,-3620.687,12383.708,61399.863
1386854.385514952,-46393.72,-22021.322,28247.479,-8599.284,77942.22,-3618.571,12385.132,61388.918
1386854.3895149475,-46349.45,-22031.738,28246.258,-8598.389,77938.27,-3615.1938,12391.806,61393.11
1386854.393514943,-46337.65,-22029.502,28250.326,-8596.436,77942.95,-3610.4736,12403.931,61412.11
1386854.3975149386,-46333.62,-22020.225,28255.127,-8596.68,77951.42,-3609.1309,12414.389,61428.875
1386854.4015149341,-46343.305,-22012.94,28254.111,-8600.546,77950.69,-3608.9275,12421.631,61452.395
1386854.4055149294,-46356.773,-22021.973,28248.373,-8603.435,77946.01,-3607.8289,12419.76,61450.156
1386854.409514925,-46362.836,-22030.885,28241.74,-8603.271,77949.625,-3605.4688,12417.399,61444.867
1386854.4135149205,-46363.203,-22030.723,28242.148,-8600.83,77956.625,-3601.2778,12427.897,61464.97
1386854.417514916,-46381.715,-22016.766,28247.193,-8599.121,77954.35,-3601.9695,12435.141,61485.07
1386854.4215149113,-46351.93,-22014.854,28254.762,-8599.447,77946.54,-3605.713,12426.88,61460.695
1386854.4255149069,-46333.09,-22023.438,28252.402,-8599.406,77940.92,-3610.0261,12411.215,61441.652
1386854.4295149024,-46345.46,-22026.531,28251.018,-8595.175,77943.24,-3612.7524,12398.031,61429.973
1386854.433514898,-46347.332,-22028.973,28248.861,-8591.187,77948.445,-3612.5083,12394.003,61423.79
1386854.4375148935,-46353.76,-22026.043,28249.717,-8590.942,77953.734,-3611.9385,12397.095,61435.793
1386854.4415148888,-46352.824,-22029.258,28249.756,-8594.36,77951.42,-3614.746,12392.7,61430.055
1386854.4455148843,-46350.547,-22025.596,28250.164,-8593.628,77947.92,-3617.391,12383.83,61416.71
1386854.4495148798,-46352.785,-22021.852,28254.355,-8587.973,77953.82,-3616.2517,12384.685,61413.086
1386854.4535148754,-46344.77,-22012.451,28260.824,-8583.008,77964.805,-3614.9497,12395.834,61428.67
1386854.4575148707,-46332.156,-22006.309,28264.854,-8582.724,77969.04,-3614.0137,12407.471,61461.1
1386854.4615148662,-46334.758,-22008.3,28264.893,-8585.368,77964.03,-3617.7166,12404.907,61458.17
1386854.4655148617,-46371.83,-22023.275,28261.027,-8583.984,77959.15,-3622.396,12389.648,61432.05
1386854.4695148573,-46350.547,-22017.05,28257.406,-8584.392,77958.7,-3620.3613,12385.092,61438.844
1386854.4735148528,-46334.883,-22012.574,28253.459,-8587.036,77962.32,-3612.4675,12397.949,61450.562
1386854.477514848,-46332.97,-22002.93,28254.72,-8588.745,77967.29,-3607.4219,12417.521,61438.07
1386854.4815148436,-46336.348,-22002.686,28255.371,-8591.838,77963.5,-3605.1025,12428.711,61433.72
1386854.4855148392,-46354.25,-22021.525,28251.506,-8594.809,77951.3,-3603.068,12432.821,61436.688
1386854.4895148347,-46366.414,-22030.273,28247.111,-8594.523,77951.83,-3599.7314,12437.053,61446.047
1386854.49351483,-46362.633,-22027.914,28246.705,-8593.547,77959.31,-3594.4011,12446.493,61457.156
1386854.4975148255,-46370.32,-22019.37,28246.299,-8595.5,77963.95,-3591.5527,12454.672,61470.297
1386854.501514821,-46402.223,-22031.17,28245.729,-8599.487,77961.8,-3592.8955,12455.444,61480.88
1386854.5055148166,-46376.387,-22033.57,28244.14,-8599.447,77962.57,-3597.0054,12437.175,61443.523
1386854.5095148121,-46337.77,-22019.492,28243.652,-8595.297,77970.625,-3596.3135,12427.572,61435.266
1386854.5135148074,-46341.797,-22017.457,28244.346,-8593.018,77981.695,-3594.035,12432.902,61461.67
1386854.517514803,-46344.523,-22014.854,28248.861,-8593.506,77983.52,-3592.733,12438.64,61482.098
1386854.5215147985,-46332.887,-22009.033,28258.545,-8593.669,77976.4,-3596.11,12434.042,61481.977
1386854.525514794,-46335.816,-22006.064,28257.568,-8593.628,77968.914,-3598.1853,12425.781,61483.195
1386854.5295147893,-46343.71,-22008.627,28255.656,-8590.495,77965.01,-3597.168,12418.132,61458.58
1386854.5335147849,-46347.414,-22011.15,28257.244,-8587.729,77970.22,-3596.8425,12419.841,61472.047
1386854.5375147804,-46338.176,-22009.604,28262.127,-8586.67,77982.875,-3600.9116,12414.917,61463.746
1386854.541514776,-46342.164,-22017.578,28262.656,-8587.158,77987.305,-3604.6143,12406.128,61462.324
1386854.5455147715,-46352.254,-22005.127,28261.883,-8587.729,77978.64,-3609.1309,12392.131,61447.105
1386854.5495147668,-46374.023,-21997.479,28266.928,-8583.578,77978.48,-3610.3516,12380.005,61410.645
1386854.5535147623,-46325.156,-21995.078,28273.52,-8580.2,77981.65,-3607.2998,12383.871,61401.246
1386854.5575147578,-46301.96,-21988.975,28277.508,-8578.9795,77981.9,-3604.0447,12402.222,61431.113
1386854.5615147534,-46310.1,-21989.625,28279.217,-8580.485,77980.02,-3602.5798,12418.295,61458.78
1386854.565514749,-46322.88,-21998.576,28274.496,-8583.537,77977.375,-3599.9756,12428.101,61479.492
1386854.5695147442,-46340.414,-22010.906,28266.766,-8585.246,77978.88,-3594.0757,12436.523,61499.594
1386854.5735147397,-46340.58,-22015.91,28265.707,-8585.165,77985.48,-3590.1694,12439.616,61515.42
1386854.5775147353,-46333.008,-22010.783,28266.357,-8584.636,77989.55,-3589.437,12442.587,61520.957
1386854.5815147308,-46341.637,-22023.357,28264.445,-8586.386,77986.05,-3588.908,12439.901,61502.727
1386854.5855147261,-46350.668,-22017.05,28263.672,-8586.914,77975.586,-3588.1755,12439.291,61491.133
1386854.5895147217,-46356.527,-22016.318,28264.283,-8586.101,77972.74,-3584.6763,12446.696,61498.617
1386854.5935147172,-46353.8,-22009.521,28266.807,-8581.909,77979.66,-3581.7058,12457.397,61510.95
1386854.5975147127,-46331.504,-21996.623,28271.607,-8578.9795,77988.484,-3582.5603,12460.246,61504.477
1386854.6015147083,-46331.383,-21997.031,28272.46,-8581.096,77990.07,-3583.9844,12456.787,61498.293
1386854.6055147036,-46346.395,-22011.883,28265.951,-8583.944,77988.81,-3587.4023,12443.359,61485.35
1386854.609514699,-46349.773,-22016.033,28262.29,-8580.974,77996.055,-3590.332,12429.199,61480.55
1386854.6135146946,-46347.74,-22009.36,28264.527,-8576.01,78007.734,-3591.4307,12421.55,61477.703
1386854.6175146902,-46339.03,-21999.879,28273.275,-8574.992,78015.22,-3593.9128,12418.864,61487.266
1386854.6215146855,-46334.96,-21996.826,28276.164,-8575.969,78014.08,-3598.7144,12414.022,61494.63
1386854.625514681,-46348.023,-21997.479,28279.746,-8573.08,78009.93,-3600.2197,12404.419,61481.164
1386854.6295146765,-46362.55,-21998.984,28281.291,-8566.65,78013.67,-3599.121,12398.52,61443.36
1386854.633514672,-46318.117,-22003.867,28277.832,-8562.704,78030.52,-3597.7783,12399.699,61424.93
1386854.6375146676,-46312.42,-22007.08,28275.758,-8564.901,78041.016,-3595.744,12405.844,61426.72
1386854.641514663,-46309.98,-21983.398,28274.252,-8569.011,78048.016,-3593.9941,12412.802,61444.336
1386854.6455146584,-46314.496,-21972.941,28273.682,-8570.801,78055.79,-3590.4949,12413.859,61455.04
1386854.649514654,-46324.63,-21978.76,28273.234,-8570.028,78069.79,-3587.4023,12414.592,61449.426
1386854.6535146495,-46326.945,-21976.604,28274.293,-8568.686,78080.81,-3585.2866,12422.404,61453.695
1386854.6575146448,-46317.06,-21974.162,28282.47,-8569.499,78085.086,-3585.5308,12424.194,61454.145
1386854.6615146403,-46333.375,-21977.5,28286.703,-8570.801,78081.99,-3588.2976,12421.0205,61459.027
1386854.6655146359,-46341.96,-21987.916,28287.883,-8571.005,78079.06,-3589.3962,12414.714,61466.516
1386854.6695146314,-46308.23,-21990.398,28286.418,-8569.499,78081.18,-3588.0535,12408.041,61455.61
1386854.673514627,-46317.14,-21993.125,28286.053,-8568.522,78088.914,-3584.2693,12411.621,61460.9
1386854.6775146222,-46316.45,-21989.258,28286.662,-8568.767,78096.56,-3581.5837,12421.835,61473.43
1386854.6815146178,-46315.066,-21979.697,28281.373,-8571.94,78100.016,-3579.9155,12432.495,61489.42
1386854.6855146133,-46326.457,-21986.94,28276.043,-8574.707,78100.016,-3578.3691,12434.937,61480.676
1386854.6895146088,-46346.07,-21997.52,28278.24,-8572.266,78098.11,-3576.4568,12434.164,61469.24
1386854.6935146044,-46357.06,-21995.81,28286.459,-8567.383,78099.98,-3574.8699,12442.465,61501.26
1386854.6975145997,-46299.277,-21987.143,28293.986,-8567.953,78101.81,-3575.114,12454.59,61528.89
1386854.7015145952,-46300.457,-21990.805,28294.963,-8571.045,78094.484,-3577.5554,12455.078,61525.15
1386854.7055145907,-46316.53,-21998.496,28291.26,-8572.795,78091.07,-3581.0955,12442.139,61493.492
1386854.7095145863,-46329.43,-22007.61,28292.686,-8568.767,78096.97,-3581.2988,12433.757,61490.195
1386854.7135145816,-46328.613,-22008.3,28293.295,-8562.744,78107.99,-3580.485,12429.932,61488.363
1386854.717514577,-46328.9,-21988.363,28289.674,-8564.453,78115.28,-3580.8513,12435.873,61499.105
1386854.7215145726,-46329.387,-21980.592,28288.818,-8569.296,78109.78,-3581.9907,12436.239,61503.906
1386854.7255145682,-46331.34,-21986.898,28284.75,-8572.0625,78100.34,-3582.9673,12427.653,61501.387
1386854.7295145637,-46334.066,-21993.043,28276.49,-8569.621,78100.34,-3581.0955,12424.398,61500.773
1386854.733514559,-46359.58,-21993.979,28279.379,-8566.203,78111.45,-3577.4333,12425.985,61462.527
1386854.7375145545,-46334.395,-21988.81,28284.424,-8564.209,78116.7,-3575.643,12430.258,61452.92
1386854.74151455,-46305.992,-21991.578,28282.023,-8567.261,78116.7,-3579.3865,12426.352,61445.477
1386854.7455145456,-46315.473,-21994.385,28279.99,-8567.79,78113.61,-3583.0078,12409.384,61423.504
1386854.749514541,-46325.727,-21997.031,28281.943,-8564.819,78114.71,-3582.5195,12399.78,61417.97
1386854.7535145364,-46327.965,-21993.979,28288.697,-8560.466,78121.055,-3582.5195,12395.305,61406.617
1386854.757514532,-46316.773,-21980.51,28297.363,-8556.071,78125.695,-3586.019,12392.294,61392.336
1386854.7615145275,-46315.96,-21976.318,28302.246,-8556.56,78124.63,-3588.4604,12399.414,61424.805
1386854.765514523,-46323.61,-21985.19,28299.725,-8558.1875,78118.25,-3588.7046,12406.006,61454.387
1386854.7695145183,-46330.203,-21991.09,28295.736,-8559.082,78117.76,-3583.3335,12420.004,61481.49
1386854.7735145139,-46327.84,-21990.398,28293.662,-8558.594,78127.61,-3575.8872,12439.779,61507.734
1386854.7775145094,-46333.66,-21982.748,28296.143,-8558.96,78136.44,-3568.9697,12461.752,61524.09
1386854.781514505,-46345.176,-21984.295,28298.137,-8561.035,78133.51,-3566.04,12470.825,61525.473
1386854.7855145002,-46312.094,-21991.13,28289.43,-8562.622,78128.46,-3565.0635,12471.884,61529.664
1386854.7895144958,-46317.465,-21987.59,28284.791,-8560.019,78133.38,-3565.8774,12469.6455,61530.684
1386854.7935144913,-46316.367,-21976.93,28290.854,-8555.014,78144.086,-3564.738,12476.767,61546.875
1386854.7975144868,-46305.3,-21962.443,28298.137,-8552.938,78156.375,-3567.2607,12480.307,61554.73
1386854.8015144824,-46294.027,-21961.834,28303.996,-8550.537,78160.32,-3572.0215,12477.011,61565.758
1386854.8055144777,-46301.84,-21974.041,28303.428,-8553.142,78149.05,-3571.7773,12470.947,61573.812
1386854.8095144732,-46299.93,-21968.506,28305.787,-8552.328,78148.07,-3567.3423,12463.095,61550.418
1386854.8135144687,-46290.04,-21955.934,28310.508,-8549.683,78155.6,-3561.8896,12461.142,61536.094
1386854.8175144643,-46287.355,-21944.988,28310.385,-8550.212,78163.375,-3560.5876,12464.4375,61550.99
1386854.8215144598,-46291.06,-21946.168,28305.705,-8555.949,78163.49,-3560.2214,12455.974,61524.824
1386854.825514455,-46299.887,-21951.457,28293.742,-8559.733,78157.39,-3556.4373,12442.79,61504.805
1386854.8295144506,-46310.387,-21960.49,28281.576,-8560.547,78151.25,-3550.944,12436.687,61496.625
1386854.8335144462,-46313.152,-21962.078,28281.982,-8559.652,78159.95,-3547.2412,12440.512,61494.875
1386854.8375144417,-46308.797,-21958.213,28287.965,-8557.658,78173.51,-3546.9565,12447.429,61497.766
1386854.841514437,-46304.77,-21960.205,28292.074,-8559.855,78167.97,-3549.4385,12447.185,61492.066
1386854.8455144325,-46300.66,-21967.734,28294.678,-8559.611,78159.55,-3552.653,12442.343,61485.92
1386854.849514428,-46333.21,-21974.365,28300.01,-8555.868,78159.266,-3552.3276,12440.023,61492.676
1386854.8535144236,-46325.32,-21976.562,28307.049,-8552.531,78172.85,-3550.171,12442.953,61494.184
1386854.8575144191,-46285.77,-21972.78,28308.432,-8555.176,78181.93,-3548.7468,12451.823,61512.168
1386854.8615144144,-46291.18,-21967.326,28309.367,-8558.1875,78178.59,-3551.0254,12451.416,61521.445
1386854.86551441,-46298.668,-21965.455,28310.873,-8557.699,78176.15,-3553.3447,12442.993,61505.414
1386854.8695144055,-46302.492,-21978.191,28310.547,-8554.362,78173.26,-3551.229,12439.047,61498.58
1386854.873514401,-46306.195,-21973.227,28310.426,-8557.048,78175.945,-3548.7468,12443.97,61504.926
1386854.8775143963,-46298.953,-21958.334,28312.379,-8562.094,78180.3,-3548.0552,12453.288,61512.574
1386854.8815143919,-46301.027,-21960.084,28308.27,-8565.308,78180.34,-3549.235,12456.218,61496.95
1386854.8855143874,-46314.375,-21980.307,28299.072,-8568.156,78176.72,-3548.1365,12458.7,61494.793
1386854.889514383,-46326.133,-21990.357,28288.656,-8566.772,78178.266,-3545.2068,12463.013,61502.688
1386854.8935143785,-46315.918,-21974.365,28286.053,-8562.704,78191.695,-3541.5854,12470.012,61507.61
1386854.8975143738,-46300.824,-21961.143,28289.512,-8562.541,78200.445,-3538.4116,12479.248,61518.35
1386854.9015143693,-46297.566,-21950.645,28292.36,-8564.331,78200.805,-3538.33,12480.835,61524.09
1386854.9055143648,-46304.16,-21951.172,28294.312,-8566.162,78193.36,-3538.7778,12475.993,61538.535
1386854.9095143604,-46347.293,-21956.34,28302.37,-8564.006,78194.336,-3539.917,12468.75,61517.09
1386854.9135143557,-46319.133,-21955.69,28313.273,-8560.669,78200.73,-3539.7136,12471.029,61534.793
1386854.9175143512,-46279.582,-21947.592,28322.021,-8560.222,78208.17,-3541.748,12473.511,61536.5
1386854.9215143467,-46283.69,-21951.05,28324.83,-8562.866,78204.67,-3544.9219,12470.134,61539.55
1386854.9255143423,-46295.37,-21965.252,28322.47,-8564.982,78199.914,-3547.8516,12454.631,61522.543
1386854.9295143378,-46298.625,-21963.055,28320.639,-8562.053,78202.15,-3550.0896,12438.477,61506.88
1386854.933514333,-46302.734,-21957.398,28322.389,-8557.821,78210.695,-3548.9502,12445.476,61538.656
1386854.9375143286,-46295.29,-21947.307,28328.41,-8554.932,78221.07,-3549.4385,12455.974,61536.215
1386854.9415143242,-46286.094,-21938.355,28329.428,-8556.723,78221.73,-3552.938,12456.177,61519.125
1386854.9455143197,-46290.527,-21946.33,28327.557,-8561.279,78213.625,-3554.4434,12454.55,61526.41
1386854.949514315,-46303.062,-21951.54,28325.928,-8561.198,78214.07,-3550.9849,12459.839,61539.348
1386854.9535143105,-46302.695,-21947.348,28328.248,-8559.611,78223.555,-3546.9158,12467.489,61535.156
1386854.957514306,-46299.195,-21946.412,28332.725,-8561.076,78220.13,-3547.1191,12475.505,61534.02
1386854.9615143016,-46303.47,-21952.271,28331.91,-8563.721,78216.19,-3550.6187,12479.818,61548.098
1386854.9655142971,-46310.1,-21963.867,28326.621,-8565.552,78212.57,-3554.9724,12474.772,61554.12
1386854.9695142924,-46313.316,-21970.053,28320.191,-8563.64,78207.4,-3556.1523,12473.999,61551.758
1386854.973514288,-46329.227,-21963.34,28322.674,-8558.31,78216.76,-3557.0068,12476.318,61548.586
1386854.9775142835,-46329.227,-21968.14,28327.8,-8556.356,78224.734,-3556.5186,12488.119,61565.43
1386854.981514279,-46299.805,-21972.738,28328.98,-8562.094,78220.26,-3554.9724,12497.519,61578.574
1386854.9855142746,-46302.656,-21957.764,28330.69,-8568.278,78211.71,-3554.525,12497.722,61591.516
1386854.9895142699,-46311.2,-21956.625,28332.357,-8568.034,78209.59,-3552.0427,12493.815,61593.914
1386854.9935142654,-46343.508,-21966.514,28333.172,-8565.1455,78214.84,-3550.3337,12490.112,61581.137
1386854.997514261,-46304.484,-21961.508,28334.229,-8565.634,78226.08,-3550.6592,12487.509,61566.203
1386855.0015142565,-46288.086,-21954.307,28332.887,-8566.772,78226.65,-3553.711,12477.702,61561.89
1386855.0055142518,-46295.94,-21958.334,28333.09,-8566.447,78220.87,-3559.0007,12462.28,61536.297
1386855.0095142473,-46302.656,-21964.764,28333.537,-8561.279,78214.195,-3562.8662,12449.179,61513.105
1386855.0135142428,-46314.453,-21971.07,28333.984,-8558.635,78220.18,-3563.2324,12453.532,61535.117
1386855.0175142384,-46312.543,-21966.797,28336.67,-8559.937,78230.35,-3562.4595,12469.482,61568.605
1386855.021514234,-46311.523,-21962.363,28337.24,-8563.925,78227.586,-3563.2732,12474.081,61558.23
1386855.0255142292,-46336.426,-21966.676,28336.346,-8564.291,78225.305,-3564.616,12467.163,61540.977
1386855.0295142247,-46308.434,-21971.518,28335.816,-8563.314,78227.26,-3563.192,12459.636,61512.13
1386855.0335142203,-46304.28,-21971.477,28337.281,-8562.663,78235.76,-3560.5469,12463.786,61513.227
1386855.0375142158,-46306.887,-21965.82,28341.514,-8562.216,78238.484,-3561.2388,12472.25,61541.75
1386855.041514211,-46307.82,-21968.67,28343.385,-8562.826,78233.69,-3564.616,12471.558,61535.28
1386855.0455142066,-46306.03,-21964.682,28342.002,-8560.629,78230.92,-3569.2139,12465.332,61504.19
1386855.0495142022,-46321.29,-21957.113,28341.025,-8557.211,78232.67,-3568.6035,12469.32,61526.004
1386855.0535141977,-46340.496,-21963.258,28345.135,-8555.542,78239.625,-3566.2437,12479.004,61545.37
1386855.0575141932,-46290.324,-21952.11,28341.797,-8558.676,78244.266,-3561.9712,12495.769,61580.934
1386855.0615141885,-46290.773,-21945.518,28346.559,-8561.035,78244.39,-3562.5815,12498.739,61578.25
1386855.065514184,-46317.426,-21940.43,28350.139,-8558.716,78248.54,-3564.209,12495.28,61578.004
1386855.0695141796,-46274.54,-21931.805,28352.5,-8553.386,78255.25,-3564.209,12497.803,61595.785
1386855.0735141751,-46272.137,-21933.838,28352.295,-8550.375,78264.81,-3565.5112,12502.279,61612.387
1386855.0775141704,-46278.973,-21935.67,28356.65,-8550.456,78269.086,-3568.9697,12503.012,61595.625
1386855.081514166,-46275.473,-21928.143,28360.922,-8550.049,78272.09,-3573.0388,12495.077,61571.414
1386855.0855141615,-46284.426,-21941.082,28361.613,-8547.526,78276.45,-3575.9277,12486.044,61559.367
1386855.089514157,-46328.37,-21960.693,28362.225,-8545.126,78276.45,-3574.1782,12487.0205,61563.76
1386855.0935141526,-46307.984,-21940.35,28365.602,-8542.5625,78287.07,-3569.743,12495.321,61580.242
1386855.0975141479,-46264.16,-21922.12,28364.258,-8546.753,78296.47,-3566.854,12504.477,61604.74
1386855.1015141434,-46265.79,-21917.807,28361.533,-8549.927,78293.7,-3570.0278,12500.977,61588.176
1386855.105514139,-46276.125,-21927.166,28357.586,-8550.863,78291.75,-3576.0498,12486.206,61553.754
1386855.1095141345,-46292.48,-21933.025,28354.412,-8549.602,78297.0,-3579.2644,12478.882,61538.74
1386855.11351413,-46298.668,-21933.39,28354.248,-8547.7705,78302.984,-3578.5728,12481.934,61544.152
1386855.1175141253,-46295.9,-21936.932,28360.271,-8545.288,78304.69,-3579.3052,12487.834,61559.367
1386855.1215141208,-46293.824,-21943.848,28363.607,-8546.591,78297.98,-3583.3335,12479.37,61539.062
1386855.1255141164,-46292.81,-21944.947,28364.746,-8545.532,78290.164,-3588.4197,12460.612,61497.97
1386855.129514112,-46291.383,-21942.018,28367.637,-8540.771,78290.49,-3589.5183,12447.551,61472.008
1386855.1335141072,-46296.43,-21939.658,28369.996,-8540.202,78295.414,-3587.728,12451.376,61493.207
1386855.1375141027,-46285.848,-21932.334,28370.322,-8541.952,78310.914,-3585.6934,12462.402,61505.047
1386855.1415140983,-46276.004,-21929.607,28367.473,-8545.41,78308.48,-3584.066,12472.982,61516.93
1386855.1455140938,-46284.508,-21936.729,28362.469,-8548.259,78303.55,-3581.787,12481.649,61529.094
1386855.1495140893,-46293.742,-21936.605,28359.742,-8546.835,78307.54,-3579.9155,12489.055,61552.9
1386855.1535140846,-46320.76,-21933.188,28366.172,-8542.114,78315.39,-3578.247,12502.401,61589.805
1386855.1575140802,-46279.95,-21930.014,28376.303,-8542.074,78317.43,-3582.9265,12506.877,61586.996
1386855.1615140757,-46250.125,-21926.066,28380.738,-8541.586,78314.375,-3588.4197,12501.547,61570.723
1386855.1655140712,-46268.555,-21944.336,28380.941,-8540.08,78312.13,-3591.1865,12497.519,61572.39
1386855.1695140665,-46277.63,-21939.17,28381.227,-8540.446,78308.59,-3590.4949,12498.861,61586.754
1386855.173514062,-46277.14,-21923.625,28386.883,-8539.185,78318.445,-3584.961,12509.766,61601.973
1386855.1775140576,-46276.33,-21912.07,28397.38,-8538.656,78328.33,-3583.2927,12516.846,61597.7
1386855.1815140531,-46288.21,-21912.314,28404.826,-8540.039,78322.67,-3584.3506,12513.266,61598.758
1386855.1855140487,-46254.926,-21920.127,28404.908,-8542.236,78317.914,-3587.0361,12497.6,61573.367
1386855.189514044,-46261.027,-21929.607,28402.223,-8540.121,78320.27,-3587.6873,12490.886,61569.543
1386855.1935140395,-46268.27,-21931.396,28403.646,-8536.865,78329.39,-3586.8328,12490.397,61572.43
1386855.197514035,-46275.758,-21924.805,28406.291,-8536.987,78332.89,-3588.786,12492.92,61580.363
1386855.2015140306,-46270.59,-21926.352,28409.18,-8538.452,78329.914,-3594.3198,12491.008,61585.574
1386855.2055140259,-46276.695,-21935.67,28408.488,-8538.778,78327.07,-3598.6328,12482.748,61560.223
1386855.2095140214,-46282.31,-21937.094,28411.215,-8536.459,78328.695,-3600.7488,12479.818,61564.13
1386855.213514017,-46276.9,-21930.787,28416.057,-8533.081,78337.61,-3598.226,12486.898,61559.777
1386855.2175140125,-46270.266,-21923.91,28420.615,-8533.732,78341.88,-3596.0288,12500.732,61563.477
1386855.221514008,-46266.684,-21918.498,28421.387,-8535.645,78338.34,-3598.0225,12504.3545,61554.324
1386855.2255140033,-46270.875,-21921.021,28421.51,-8535.238,78334.07,-3598.7144,12498.901,61531.25
1386855.2295139988,-46271.324,-21925.293,28423.91,-8531.779,78328.58,-3595.1335,12501.059,61535.32
1386855.2335139944,-46266.727,-21925.904,28430.42,-8528.728,78329.914,-3591.3494,12508.789,61552.453
1386855.23751399,-46258.914,-21918.865,28431.926,-8531.169,78335.25,-3589.6404,12520.915,61571.086
1386855.2415139854,-46258.344,-21919.678,28426.84,-8536.296,78334.234,-3588.1755,12529.541,61596.152
1386855.2455139807,-46269.574,-21926.514,28418.865,-8536.337,78339.766,-3587.077,12531.494,61606.812
1386855.2495139763,-46301.15,-21933.066,28414.062,-8531.86,78352.83,-3585.612,12534.506,61619.793
1386855.2535139718,-46258.098,-21912.11,28411.297,-8531.494,78364.75,-3583.6182,12545.41,61662.152
1386855.2575139673,-46237.754,-21897.625,28414.877,-8530.478,78368.57,-3586.9956,12547.445,61660.645
1386855.2615139626,-46238.12,-21885.742,28424.236,-8527.914,78369.875,-3594.6453,12535.727,61620.324
1386855.2655139582,-46246.91,-21886.76,28427.816,-8526.164,78363.164,-3598.8364,12526.774,61627.85
1386855.2695139537,-46259.523,-21900.066,28428.346,-8524.048,78360.64,-3599.406,12519.328,61611.25
1386855.2735139492,-46273.848,-21905.396,28433.92,-8521.281,78364.75,-3600.0164,12517.131,61611.453
1386855.2775139448,-46291.914,-21902.996,28440.553,-8520.63,78370.81,-3601.522,12518.2295,61623.496
1386855.28151394,-46234.09,-21895.428,28439.332,-8523.356,78373.25,-3603.353,12514.323,61626.26
1386855.2855139356,-46231.855,-21899.414,28432.17,-8523.031,78371.586,-3606.4048,12500.366,61604.617
1386855.2895139311,-46244.223,-21904.135,28428.305,-8519.9795,78374.39,-3606.9744,12486.247,61573.977
1386855.2935139267,-46248.25,-21899.984,28430.014,-8517.009,78378.22,-3606.4453,12484.457,61569.418
1386855.297513922,-46243.855,-21898.479,28433.188,-8518.2295,78377.65,-3607.1372,12488.811,61578.74
1386855.3015139175,-46255.332,-21899.496,28433.105,-8521.973,78370.69,-3609.4565,12483.603,61561.402
1386855.305513913,-46268.758,-21913.291,28427.979,-8524.252,78359.78,-3611.735,12476.522,61535.605
1386855.3095139086,-46272.3,-21919.719,28423.504,-8523.112,78355.836,-3611.9385,12480.225,61539.633
1386855.313513904,-46265.83,-21917.848,28423.79,-8520.102,78362.836,-3612.4268,12491.211,61549.6
1386855.3175138994,-46256.227,-21903.646,28427.328,-8516.317,78374.48,-3610.189,12506.836,61567.02
1386855.321513895,-46250.652,-21900.555,28431.357,-8517.05,78375.25,-3612.02,12512.695,61575.848
1386855.3255138905,-46258.79,-21907.146,28431.193,-8518.433,78372.03,-3615.3972,12506.145,61551.27
1386855.329513886,-46262.574,-21908.0,28435.264,-8515.219,78373.5,-3612.9558,12508.708,61557.008
1386855.3335138813,-46256.473,-21906.78,28441.162,-8511.475,78380.66,-3608.2764,12524.984,61594.77
1386855.3375138768,-46253.176,-21911.094,28448.854,-8509.888,78385.74,-3604.8584,12544.516,61625.082
1386855.3415138724,-46280.07,-21898.438,28450.115,-8512.655,78381.92,-3603.068,12553.711,61641.6
1386855.345513868,-46256.43,-21893.719,28447.227,-8517.253,78377.85,-3601.1963,12555.014,61654.297
1386855.3495138634,-46237.43,-21902.385,28439.088,-8518.84,78375.9,-3599.8943,12552.002,61648.4
1386855.3535138587,-46248.617,-21902.1,28442.059,-8514.975,78384.08,-3599.0806,12556.396,61666.586
1386855.3575138543,-46268.11,-21893.19,28445.11,-8514.242,78391.28,-3602.2544,12558.432,61658.0
1386855.3615138498,-46228.355,-21888.307,28444.58,-8517.009,78385.74,-3607.2185,12554.321,61658.816
1386855.3655138453,-46231.04,-21890.951,28438.07,-8516.602,78382.24,-3610.2703,12544.434,61657.434
1386855.3695138406,-46237.957,-21888.55,28437.217,-8513.388,78387.62,-3611.491,12537.272,61653.688
1386855.3735138362,-46240.113,-21885.621,28437.988,-8509.399,78394.695,-3609.9854,12538.534,61657.88
1386855.3775138317,-46238.28,-21886.271,28440.918,-8509.074,78395.14,-3609.8633,12541.83,61669.477
1386855.3815138272,-46234.742,-21880.127,28440.879,-8509.929,78394.9,-3612.9966,12533.8545,61650.312
1386855.3855138228,-46235.84,-21878.541,28436.2,-8510.539,78392.46,-3614.8682,12520.63,61634.32
1386855.389513818,-46243.9,-21891.113,28431.926,-8509.196,78388.47,-3614.2578,12511.3125,61623.375
1386855.3935138136,-46258.3,-21893.596,28434.49,-8508.017,78393.6,-3614.1765,12506.836,61603.312
1386855.3975138091,-46278.77,-21893.434,28441.53,-8509.399,78395.39,-3614.0952,12510.051,61597.008
1386855.4015138047,-46233.074,-21892.375,28442.303,-8512.695,78391.97,-3615.6821,12511.923,61600.75
1386855.4055138002,-46235.027,-21895.59,28441.773,-8513.916,78384.69,-3617.7573,12508.179,61590.496
1386855.4095137955,-46244.914,-21897.422,28439.861,-8511.719,78380.695,-3618.6523,12507.487,61588.098
1386855.413513791,-46244.387,-21894.207,28445.72,-8508.545,78386.97,-3618.693,12514.445,61602.336
1386855.4175137866,-46239.098,-21887.248,28452.475,-8507.8125,78390.71,-3620.4834,12517.131,61578.004
1386855.421513782,-46248.414,-21899.7,28447.998,-8510.986,78383.06,-3620.6055,12519.491,61582.156
1386855.4255137774,-46259.2,-21912.11,28440.227,-8513.835,78380.25,-3619.6697,12515.341,61569.582
1386855.429513773,-46267.58,-21916.545,28433.146,-8513.713,78387.414,-3618.9373,12513.469,61566.082
1386855.4335137685,-46298.992,-21908.773,28433.514,-8508.789,78400.31,-3615.9668,12524.252,61584.19
1386855.437513764,-46262.29,-21896.81,28438.965,-8505.493,78406.984,-3616.618,12533.244,61592.938
1386855.4415137595,-46240.36,-21911.459,28437.95,-8507.04,78398.36,-3621.5415,12531.169,61583.09
1386855.4455137549,-46255.293,-21923.87,28435.426,-8508.545,78384.69,-3625.4883,12524.455,61586.793
1386855.4495137504,-46254.926,-21912.314,28438.965,-8506.918,78381.39,-3625.8545,12522.299,61585.492
1386855.453513746,-46251.59,-21901.084,28446.494,-8503.581,78390.055,-3623.6167,12528.32,61604.86
1386855.4575137415,-46248.74,-21896.322,28452.8,-8504.436,78401.29,-3622.518,12535.482,61614.707
1386855.4615137368,-46250.652,-21899.252,28453.818,-8507.121,78397.38,-3625.692,12533.122,61617.883
1386855.4655137323,-46256.348,-21900.473,28448.73,-8506.674,78394.62,-3630.005,12519.775,61595.582
1386855.4695137278,-46267.254,-21901.938,28447.104,-8501.425,78398.93,-3630.9001,12510.539,61589.723
1386855.4735137234,-46297.65,-21906.494,28450.318,-8497.763,78404.055,-3628.7437,12515.707,61604.535
1386855.477513719,-46247.723,-21896.729,28457.195,-8497.6,78406.414,-3626.7905,12526.978,61631.51
1386855.4815137142,-46223.227,-21881.592,28460.816,-8497.722,78406.5,-3629.354,12524.13,61615.766
1386855.4855137097,-46232.992,-21885.295,28458.213,-8497.966,78399.17,-3632.8125,12510.295,61580.527
1386855.4895137053,-46239.586,-21895.387,28456.787,-8496.298,78395.43,-3632.08,12503.744,61583.418
1386855.4935137008,-46240.805,-21899.658,28458.74,-8493.408,78399.414,-3628.947,12507.04,61592.695
1386855.497513696,-46240.316,-21894.98,28458.701,-8494.141,78408.41,-3628.2554,12513.266,61600.996
1386855.5015136916,-46238.566,-21893.799,28456.666,-8496.908,78403.69,-3628.3367,12517.538,61591.758
1386855.5055136872,-46254.355,-21899.578,28447.918,-8500.773,78400.11,-3627.5635,12518.515,61593.67
1386855.5095136827,-46267.58,-21905.803,28445.232,-8500.407,78400.02,-3625.814,12518.148,61599.367
1386855.5135136782,-46262.047,-21904.258,28449.627,-8496.664,78404.79,-3626.0986,12519.206,61593.344
1386855.5175136735,-46250.57,-21900.432,28457.48,-8495.036,78407.555,-3628.3774,12519.491,61582.52
1386855.521513669,-46249.227,-21906.414,28460.734,-8496.379,78403.61,-3631.3884,12522.909,61594.89
1386855.5255136646,-46257.49,-21910.238,28457.969,-8498.169,78397.83,-3633.2195,12518.962,61584.027
1386855.5295136601,-46265.22,-21930.38,28453.004,-8498.21,78391.484,-3634.1147,12517.334,61566.734
1386855.5335136557,-46267.375,-21930.543,28458.13,-8497.803,78399.375,-3630.7373,12533.122,61597.984
1386855.537513651,-46257.164,-21909.018,28464.723,-8500.0,78408.81,-3629.7607,12545.817,61600.87
1386855.5415136465,-46242.473,-21896.893,28467.123,-8502.768,78414.35,-3632.08,12549.032,61593.67
1386855.545513642,-46242.15,-21898.438,28468.426,-8501.465,78414.47,-3632.2021,12548.259,61602.297
1386855.5495136376,-46259.2,-21916.3,28468.914,-8500.326,78414.35,-3630.6968,12550.659,61618.53
1386855.5535136329,-46283.816,-21906.494,28474.57,-8495.443,78421.875,-3629.6387,12555.014,61635.742
1386855.5575136284,-46233.48,-21881.756,28475.098,-8497.03,78426.68,-3627.8892,12562.256,61657.715
1386855.561513624,-46230.105,-21885.621,28469.727,-8503.052,78421.43,-3631.1443,12559.774,61670.41
1386855.5655136195,-46241.7,-21899.863,28466.229,-8505.493,78416.71,-3632.9753,12551.636,61674.766
1386855.569513615,-46243.938,-21897.705,28467.57,-8504.68,78422.98,-3632.1616,12545.654,61658.773
1386855.5735136103,-46233.887,-21882.812,28473.715,-8499.756,78435.43,-3630.9814,12546.753,61669.965
1386855.5775136058,-46229.777,-21878.988,28478.11,-8500.285,78438.4,-3630.3306,12553.02,61679.65
1386855.5815136014,-46227.38,-21883.18,28482.3,-8502.197,78433.15,-3631.3477,12551.025,61662.68
1386855.585513597,-46226.688,-21883.506,28486.166,-8500.122,78427.29,-3633.5044,12546.347,61661.418
1386855.5895135922,-46232.18,-21886.883,28484.863,-8498.129,78429.81,-3633.667,12538.818,61637.535
1386855.5935135877,-46236.207,-21889.201,28482.545,-8497.233,78432.05,-3631.7546,12537.272,61627.2
1386855.5975135833,-46234.824,-21892.172,28479.697,-8499.105,78433.02,-3630.2085,12541.504,61631.105
1386855.6015135788,-46236.98,-21888.592,28477.295,-8502.6455,78428.914,-3631.7139,12539.592,61612.062
1386855.6055135743,-46269.574,-21894.94,28470.5,-8504.68,78422.53,-3632.2837,12537.476,61608.24
1386855.6095135696,-46281.375,-21901.367,28465.414,-8501.059,78418.945,-3631.3477,12538.005,61600.87
1386855.6135135652,-46244.47,-21907.105,28457.48,-8499.187,78427.53,-3630.6152,12542.807,61607.18
1386855.6175135607,-46244.55,-21912.477,28463.176,-8501.018,78433.88,-3631.185,12548.869,61618.33
1386855.6215135562,-46239.055,-21894.613,28470.744,-8504.313,78427.53,-3637.9802,12540.854,61603.234
1386855.6255135515,-46240.684,-21890.586,28473.43,-8504.15,78422.484,-3643.921,12525.065,61584.96
1386855.629513547,-46243.53,-21898.56,28477.947,-8499.96,78423.71,-3642.0493,12525.146,61603.965
1386855.6335135426,-46240.645,-21895.06,28484.172,-8495.117,78428.34,-3640.3809,12533.366,61607.832
1386855.6375135381,-46232.42,-21888.998,28487.875,-8494.06,78433.19,-3639.608,12548.666,61621.867
1386855.6415135337,-46227.785,-21895.875,28484.05,-8496.501,78431.97,-3639.9333,12561.32,61638.715
1386855.645513529,-46243.777,-21902.588,28472.25,-8501.75,78429.0,-3638.4685,12567.871,61657.473
1386855.6495135245,-46254.03,-21902.182,28464.844,-8502.727,78432.45,-3633.9111,12574.585,61664.348
1386855.65351352,-46257.855,-21899.334,28466.717,-8500.082,78440.15,-3630.005,12586.06,61678.957
1386855.6575135156,-46247.97,-21893.19,28469.97,-8500.732,78445.92,-3630.4526,12594.442,61698.652
1386855.661513511,-46241.375,-21893.271,28469.482,-8504.517,78437.625,-3634.074,12591.797,61703.453
1386855.6655135064,-46247.684,-21891.684,28468.791,-8505.697,78427.25,-3637.9802,12576.538,61691.45
1386855.669513502,-46253.176,-21892.334,28468.059,-8503.866,78426.555,-3638.021,12570.964,61696.496
1386855.6735134975,-46251.426,-21897.666,28470.459,-8501.994,78435.875,-3635.498,12574.626,61710.492
1386855.677513493,-46245.117,-21897.217,28475.424,-8501.425,78447.63,-3636.1492,12575.521,61708.496
1386855.6815134883,-46237.062,-21894.37,28476.197,-8502.116,78449.055,-3638.0615,12565.959,61676.35
1386855.6855134838,-46246.055,-21897.584,28474.365,-8503.784,78443.16,-3640.9507,12554.892,61660.81
1386855.6895134794,-46253.215,-21897.99,28472.25,-8501.14,78440.8,-3641.032,12547.16,61634.81
1386855.693513475,-46260.742,-21909.059,28480.674,-8495.361,78445.31,-3638.6719,12548.259,61624.31
1386855.6975134704,-46286.258,-21903.85,28489.543,-8492.92,78450.195,-3637.736,12557.699,61628.785
1386855.7015134657,-46237.43,-21883.668,28495.605,-8495.361,78442.836,-3639.0789,12563.64,61637.332
1386855.7055134613,-46213.137,-21883.953,28495.605,-8495.28,78438.68,-3639.2822,12560.873,61622.887
1386855.7095134568,-46218.75,-21889.61,28494.06,-8492.514,78443.16,-3638.3872,12563.884,61642.824
1386855.7135134523,-46225.344,-21887.98,28492.066,-8489.828,78452.516,-3637.9802,12569.133,61659.71
1386855.7175134476,-46224.61,-21872.6,28493.896,-8488.485,78462.98,-3640.2996,12571.289,61652.02
1386855.7215134432,-46217.734,-21869.102,28491.13,-8488.037,78463.46,-3642.0085,12567.79,61649.54
1386855.7255134387,-46223.43,-21870.77,28484.172,-8489.014,78457.56,-3644.4907,12556.804,61633.75
1386855.7295134342,-46233.074,-21878.5,28482.422,-8488.933,78450.56,-3644.165,12557.048,61642.62
1386855.7335134298,-46237.02,-21889.404,28489.502,-8487.631,78452.31,-3640.7878,12563.721,61649.7
1386855.737513425,-46233.48,-21892.578,28498.535,-8488.363,78452.68,-3638.5906,12576.05,61665.45
1386855.7415134206,-46229.535,-21892.09,28500.896,-8492.351,78437.26,-3640.0146,12581.218,61671.918
1386855.7455134161,-46242.15,-21911.662,28493.693,-8495.158,78426.48,-3640.3403,12579.062,61668.254
1386855.7495134117,-46246.625,-21923.545,28490.52,-8491.984,78433.68,-3642.1714,12571.005,61647.992
1386855.753513407,-46243.574,-21894.531,28490.031,-8486.613,78448.695,-3641.8052,12573.69,61651.816
1386855.7575134025,-46229.74,-21868.164,28492.514,-8482.504,78463.914,-3640.747,12584.88,61665.12
1386855.761513398,-46223.555,-21858.074,28492.025,-8482.748,78465.336,-3642.4968,12589.56,61671.266
1386855.7655133936,-46238.65,-21879.436,28488.363,-8486.857,78455.98,-3643.2292,12585.49,61676.8
1386855.769513389,-46243.33,-21889.201,28488.12,-8484.579,78455.445,-3641.5203,12584.473,61687.99
1386855.7735133844,-46239.83,-21885.174,28488.281,-8482.097,78459.8,-3638.9976,12588.501,61689.17
1386855.77751338,-46230.31,-21882.121,28493.816,-8483.439,78458.91,-3638.0615,12592.57,61695.723
1386855.7815133755,-46224.45,-21878.662,28496.42,-8486.125,78454.1,-3639.6484,12588.054,61682.863
1386855.785513371,-46229.13,-21878.135,28493.164,-8486.9795,78454.23,-3642.0493,12577.881,61669.312
1386855.7895133665,-46235.8,-21878.094,28491.984,-8484.66,78455.08,-3643.2292,12571.94,61673.3
1386855.7935133618,-46236.94,-21888.51,28492.107,-8478.882,78464.805,-3643.4326,12570.557,61668.54
1386855.7975133574,-46231.445,-21896.607,28500.732,-8475.383,78472.29,-3643.7583,12570.964,61657.96
1386855.801513353,-46227.99,-21883.22,28505.494,-8480.307,78467.734,-3646.2402,12571.371,61666.914
1386855.8055133484,-46230.836,-21879.844,28507.691,-8481.12,78460.734,-3649.984,12564.819,61657.473
1386855.8095133437,-46239.016,-21885.824,28507.447,-8477.011,78461.23,-3650.9604,12557.699,61636.883
1386855.8135133393,-46233.035,-21882.812,28509.482,-8474.528,78468.67,-3650.0652,12561.523,61645.184
1386855.8175133348,-46217.082,-21867.107,28509.115,-8473.267,78475.305,-3652.5474,12565.1455,61650.39
1386855.8215133303,-46210.53,-21863.037,28505.006,-8475.749,78472.45,-3654.4597,12564.25,61647.79
1386855.8255133259,-46244.387,-21872.396,28496.46,-8477.539,78465.82,-3653.6052,12563.07,61668.215
1386855.8295133212,-46250.082,-21873.373,28494.752,-8474.447,78465.984,-3651.815,12559.042,61666.016
1386855.8335133167,-46202.027,-21865.072,28500.938,-8471.151,78475.305,-3651.6113,12565.878,61678.223
1386855.8375133122,-46198.49,-21861.777,28510.662,-8469.442,78479.086,-3652.4253,12576.945,61685.266
1386855.8415133078,-46204.062,-21857.26,28517.213,-8470.622,78476.28,-3652.0183,12585.693,61696.414
1386855.845513303,-46213.137,-21863.77,28517.13,-8473.471,78470.625,-3651.286,12588.135,61692.547
1386855.8495132986,-46221.07,-21873.129,28513.307,-8474.162,78472.945,-3648.7224,12593.181,61698.285
1386855.8535132941,-46230.957,-21862.63,28511.271,-8470.093,78484.26,-3645.1824,12603.801,61703.74
1386855.8575132897,-46249.473,-21850.668,28515.91,-8467.448,78494.51,-3644.9382,12614.055,61722.332
1386855.8615132852,-46209.72,-21855.348,28513.713,-8470.337,78493.98,-3643.5142,12617.432,61733.156
1386855.8655132805,-46208.54,-21865.316,28507.08,-8474.487,78489.305,-3639.9333,12616.008,61723.96
1386855.869513276,-46220.258,-21869.873,28506.47,-8473.593,78486.86,-3636.1084,12614.502,61716.105
1386855.8735132716,-46214.887,-21861.004,28510.662,-8471.436,78495.93,-3632.5684,12621.664,61733.035
1386855.877513267,-46212.242,-21855.021,28516.887,-8471.191,78496.91,-3631.3477,12629.68,61747.438
1386855.8815132624,-46211.02,-21858.604,28520.508,-8473.267,78488.94,-3632.243,12623.901,61740.805
1386855.885513258,-46217.082,-21864.584,28518.31,-8474.609,78480.59,-3633.4636,12609.985,61722.863
1386855.8895132535,-46223.105,-21867.88,28514.527,-8473.1045,78479.17,-3632.0396,12601.889,61707.48
1386855.893513249,-46219.65,-21861.898,28516.277,-8466.716,78489.055,-3629.7202,12600.749,61699.14
1386855.8975132445,-46214.234,-21865.234,28518.596,-8463.949,78500.81,-3632.4058,12599.854,61699.098
1386855.9015132398,-46229.332,-21873.861,28519.287,-8465.21,78497.48,-3636.9224,12595.744,61696.984
1386855.9055132354,-46242.516,-21859.375,28518.678,-8465.454,78499.68,-3639.0789,12589.763,61699.344
1386855.909513231,-46204.184,-21854.29,28516.602,-8463.908,78503.87,-3637.7769,12586.02,61706.83
1386855.9135132264,-46200.523,-21849.244,28523.52,-8459.921,78508.06,-3637.492,12584.066,61697.754
1386855.9175132217,-46197.188,-21839.152,28526.531,-8459.106,78508.305,-3637.0444,12585.815,61696.94
1386855.9215132173,-46193.523,-21843.75,28526.408,-8462.769,78500.94,-3637.2478,12580.485,61679.2
1386855.9255132128,-46199.22,-21852.58,28521.445,-8465.414,78488.164,-3637.7769,12571.899,61665.69
1386855.9295132083,-46201.05,-21851.482,28518.799,-8458.903,78486.984,-3636.5154,12572.388,61682.7
1386855.9335132039,-46194.094,-21842.979,28518.434,-8453.207,78501.43,-3637.4512,12581.096,61694.094
1386855.9375131992,-46185.47,-21834.27,28524.902,-8452.2705,78511.07,-3639.3638,12593.506,61712.242
1386855.9415131947,-46185.957,-21831.504,28527.752,-8454.631,78502.69,-3641.6016,12597.331,61716.758
1386855.9455131902,-46190.88,-21840.658,28526.002,-8457.683,78491.375,-3641.683,12596.273,61721.113
1386855.9495131858,-46208.824,-21862.51,28524.902,-8460.327,78490.03,-3636.7595,12605.0625,61725.953
1386855.9535131813,-46211.02,-21863.242,28528.076,-8459.433,78499.15,-3629.8423,12620.85,61726.28
1386855.9575131766,-46201.742,-21854.941,28530.479,-8460.368,78509.24,-3622.3145,12639.934,61739.668
1386855.9615131721,-46198.977,-21850.586,28531.047,-8463.461,78505.17,-3619.629,12647.095,61747.152
1386855.9655131677,-46201.133,-21851.238,28527.873,-8464.071,78496.625,-3619.7104,12644.531,61754.316
1386855.9695131632,-46205.324,-21851.93,28525.879,-8461.833,78505.01,-3618.5303,12642.416,61763.67
1386855.9735131585,-46202.965,-21845.5,28529.217,-8458.984,78512.33,-3620.0767,12643.148,61768.516
1386855.977513154,-46198.203,-21844.768,28534.344,-8458.903,78511.72,-3624.4304,12639.323,61748.496
1386855.9815131496,-46204.145,-21849.041,28535.076,-8461.386,78505.17,-3630.0864,12629.028,61745.16
1386855.985513145,-46232.953,-21859.783,28538.371,-8458.537,78499.35,-3636.1492,12615.683,61728.68
1386855.9895131406,-46199.953,-21874.432,28539.062,-8454.428,78499.88,-3637.4106,12610.312,61723.145
1386855.993513136,-46173.75,-21852.215,28541.383,-8452.963,78510.17,-3633.8706,12619.06,61748.21
1386855.9975131315,-46169.72,-21836.426,28541.668,-8452.963,78517.21,-3633.5857,12624.96,61757.246
1386856.001513127,-46177.938,-21837.566,28539.633,-8455.038,78513.63,-3637.614,12619.67,61728.234
1386856.0055131225,-46188.355,-21840.902,28535.156,-8454.0205,78508.836,-3639.9333,12610.107,61718.793
1386856.0095131178,-46202.84,-21845.256,28532.47,-8450.317,78511.15,-3640.1775,12598.552,61719.035
1386856.0135131134,-46230.957,-21843.75,28534.791,-8445.517,78520.67,-3643.026,12586.223,61693.156
1386856.017513109,-46180.79,-21832.316,28536.094,-8446.411,78528.41,-3648.397,12578.369,61693.848
1386856.0215131044,-46159.14,-21825.4,28534.506,-8449.301,78523.27,-3650.9197,12568.604,61688.477
1386856.0255131,-46167.562,-21830.771,28530.234,-8449.87,78509.445,-3653.4424,12551.596,61658.082
1386856.0295130953,-46182.375,-21844.646,28529.582,-8449.097,78505.336,-3651.1638,12549.398,61655.4
1386856.0335130908,-46186.402,-21844.035,28531.332,-8445.598,78509.97,-3648.5596,12562.541,61678.508
1386856.0375130863,-46179.242,-21836.63,28535.4,-8443.278,78519.25,-3648.4375,12580.485,61708.008
1386856.0415130819,-46175.66,-21829.021,28535.97,-8442.099,78520.43,-3650.7163,12591.064,61718.426
1386856.0455130772,-46179.934,-21832.072,28533.691,-8442.505,78518.96,-3649.8618,12596.3545,61734.05
1386856.0495130727,-46187.5,-21842.896,28535.076,-8440.918,78518.35,-3644.8162,12607.341,61748.293
1386856.0535130682,-46183.35,-21838.014,28541.3,-8439.535,78528.24,-3638.5093,12621.623,61738.934
1386856.0575130638,-46179.934,-21836.793,28546.836,-8441.244,78530.97,-3632.4463,12642.619,61759.156
1386856.0615130593,-46180.95,-21841.309,28552.125,-8446.249,78521.85,-3631.6326,12650.676,61759.402
1386856.0655130546,-46185.508,-21845.664,28552.41,-8447.104,78514.41,-3633.0974,12645.508,61735.19
1386856.0695130501,-46192.914,-21856.08,28548.38,-8443.645,78516.766,-3631.5918,12643.188,61732.22
1386856.0735130457,-46197.594,-21861.898,28546.672,-8441.732,78521.69,-3628.3774,12643.799,61746.38
1386856.0775130412,-46186.2,-21840.74,28550.01,-8441.203,78529.09,-3629.3945,12645.63,61746.38
1386856.0815130367,-46183.92,-21826.865,28546.795,-8443.767,78530.44,-3633.1787,12641.032,61754.113
1386856.085513032,-46218.465,-21831.137,28543.133,-8443.075,78529.016,-3636.312,12632.976,61739.992
1386856.0895130276,-46188.887,-21840.049,28541.504,-8441.244,78527.59,-3636.7188,12630.534,61741.863
1386856.093513023,-46169.434,-21840.21,28546.713,-8438.3545,78532.92,-3635.3354,12636.353,61761.598
1386856.0975130186,-46168.703,-21833.293,28552.531,-8437.948,78538.25,-3634.6843,12643.188,61775.758
1386856.101513014,-46172.773,-21831.299,28551.799,-8440.1045,78537.16,-3635.498,12643.2705,61769.207
1386856.1055130095,-46174.805,-21835.49,28546.795,-8441.203,78534.266,-3635.8237,12633.911,61753.83
1386856.109513005,-46181.97,-21843.018,28542.36,-8437.988,78535.36,-3635.0098,12624.797,61732.547
1386856.1135130005,-46197.227,-21844.646,28535.768,-8435.019,78539.836,-3634.1147,12623.373,61737.957
1386856.117512996,-46219.16,-21839.64,28534.709,-8434.733,78539.96,-3638.3057,12623.291,61747.723
1386856.1215129914,-46171.31,-21837.12,28535.686,-8436.768,78530.73,-3644.857,12615.275,61738.61
1386856.125512987,-46164.105,-21838.664,28535.28,-8434.978,78522.46,-3650.9604,12601.481,61729.29
1386856.1295129824,-46169.312,-21833.334,28537.639,-8430.258,78528.08,-3654.3376,12591.105,61733.32
1386856.133512978,-46175.58,-21833.334,28546.387,-8424.032,78537.16,-3654.826,12589.355,61747.355
1386856.1375129733,-46172.527,-21836.67,28552.898,-8423.218,78540.77,-3656.1687,12592.773,61756.594
1386856.1415129688,-46172.406,-21837.932,28555.055,-8426.147,78538.62,-3656.25,12595.459,61770.062
1386856.1455129643,-46182.58,-21840.414,28553.02,-8427.979,78536.3,-3654.663,12595.053,61760.215
1386856.1495129599,-46187.5,-21842.041,28549.805,-8426.677,78538.25,-3652.059,12594.36,61732.14
1386856.1535129554,-46189.008,-21844.932,28548.34,-8427.287,78543.99,-3645.4265,12610.189,61751.953
1386856.1575129507,-46187.01,-21853.395,28552.084,-8428.467,78547.37,-3641.439,12629.232,61772.586
1386856.1615129462,-46180.3,-21846.803,28555.42,-8432.983,78543.945,-3639.3638,12635.254,61760.906
1386856.1655129418,-46193.074,-21838.664,28551.84,-8439.372,78533.125,-3635.3354,12637.573,61778.402
1386856.1695129373,-46206.383,-21849.936,28550.172,-8443.237,78528.04,-3634.074,12635.864,61769.168
1386856.1735129326,-46201.54,-21850.424,28551.475,-8443.889,78529.3,-3634.5215,12632.487,61723.676
1386856.1775129281,-46204.184,-21860.516,28556.193,-8446.737,78529.7,-3632.772,12638.713,61735.11
1386856.1815129237,-46206.098,-21863.975,28556.764,-8450.888,78526.734,-3634.074,12639.323,61743.125
1386856.1855129192,-46209.473,-21866.7,28552.41,-8450.806,78523.805,-3637.3699,12633.301,61737.387
1386856.1895129147,-46213.42,-21867.393,28546.51,-8448.527,78524.58,-3637.8582,12630.9,61735.68
1386856.19351291,-46216.023,-21871.379,28543.05,-8448.161,78527.51,-3633.9927,12638.103,61752.44
1386856.1975129056,-46221.64,-21868.205,28547.04,-8448.69,78535.24,-3631.8767,12644.491,61739.83
1386856.201512901,-46252.688,-21862.51,28548.463,-8450.603,78536.38,-3632.65,12646.566,61745.117
1386856.2055128966,-46199.91,-21859.457,28546.51,-8451.579,78532.35,-3633.3008,12639.201,61736.207
1386856.2095128922,-46186.2,-21859.863,28541.912,-8451.823,78529.586,-3635.4167,12626.913,61709.066
1386856.2135128875,-46205.527,-21873.658,28544.23,-8452.148,78533.57,-3633.1787,12629.069,61718.387
1386856.217512883,-46204.793,-21866.537,28549.846,-8450.439,78543.83,-3634.603,12634.726,61728.68
1386856.2215128785,-46199.992,-21858.604,28550.945,-8451.416,78544.48,-3639.852,12634.033,61745.605
1386856.225512874,-46196.574,-21855.389,28549.154,-8448.771,78539.8,-3646.7285,12620.117,61723.227
1386856.2295128694,-46191.895,-21854.98,28547.568,-8444.052,78541.34,-3648.5596,12617.432,61743.734
1386856.233512865,-46204.51,-21854.533,28548.422,-8439.169,78552.37,-3648.0308,12624.878,61765.098
1386856.2375128604,-46229.004,-21850.953,28557.21,-8436.85,78563.16,-3646.1182,12639.242,61786.133
1386856.241512856,-46176.68,-21836.63,28561.28,-8439.616,78561.89,-3643.8396,12650.554,61813.56
1386856.2455128515,-46163.7,-21840.576,28558.066,-8445.842,78556.16,-3643.2292,12650.757,61818.44
1386856.2495128468,-46180.3,-21846.924,28557.74,-8442.343,78557.58,-3641.8052,12644.938,61798.87
1386856.2535128423,-46179.242,-21838.46,28563.926,-8436.605,78565.555,-3639.608,12642.334,61784.305
1386856.2575128379,-46171.062,-21827.11,28570.395,-8434.204,78571.74,-3639.5671,12645.59,61799.48
1386856.2615128334,-46169.273,-21829.957,28569.541,-8435.344,78567.914,-3642.1714,12638.428,61795.98
1386856.2655128287,-46178.875,-21836.426,28564.129,-8437.175,78560.266,-3647.0947,12623.901,61785.44
1386856.2695128242,-46183.434,-21838.828,28559.693,-8433.716,78563.27,-3645.4265,12616.211,61773.156
1386856.2735128198,-46185.996,-21835.49,28562.744,-8432.292,78567.55,-3642.456,12618.205,61762.25
1386856.2775128153,-46180.746,-21830.242,28568.482,-8432.373,78571.945,-3639.323,12627.482,61775.434
1386856.2815128108,-46182.008,-21837.525,28568.727,-8436.035,78565.23,-3639.9333,12622.844,61759.81
1386856.2855128061,-46187.625,-21842.611,28568.115,-8438.64,78553.59,-3641.2354,12613.607,61759.766
1386856.2895128017,-46196.574,-21855.266,28569.865,-8437.663,78547.57,-3641.3982,12609.213,61750.938
1386856.2935127972,-46201.54,-21861.654,28571.9,-8436.483,78552.82,-3639.974,12613.485,61740.36
1386856.2975127927,-46191.49,-21847.412,28573.527,-8437.175,78560.836,-3640.625,12619.426,61738.203
1386856.301512788,-46185.344,-21844.482,28575.36,-8439.209,78556.84,-3641.6016,12623.21,61743.125
1386856.3055127836,-46197.754,-21855.104,28571.777,-8440.959,78549.28,-3641.6016,12622.641,61735.883
1386856.3095127791,-46211.1,-21860.027,28564.82,-8440.512,78548.51,-3640.503,12618.734,61719.934
1386856.3135127747,-46211.1,-21858.074,28564.697,-8440.796,78557.58,-3637.492,12627.279,61735.395
1386856.3175127702,-46201.824,-21849.814,28568.727,-8441.732,78563.56,-3637.2478,12635.783,61752.77
1386856.3215127655,-46210.164,-21850.547,28571.086,-8444.174,78561.2,-3637.5327,12639.934,61755.7
1386856.325512761,-46241.008,-21859.295,28571.127,-8444.174,78553.34,-3640.4216,12635.295,61736.86
1386856.3295127566,-46195.56,-21860.352,28568.115,-8442.749,78551.96,-3639.2822,12638.591,61748.535
1386856.333512752,-46187.703,-21850.059,28567.547,-8441.04,78558.39,-3635.5388,12651.693,61753.582
1386856.3375127474,-46199.79,-21846.152,28563.72,-8440.715,78563.195,-3632.487,12670.573,61774.62
1386856.341512743,-46212.65,-21856.812,28556.52,-8443.686,78562.79,-3631.9175,12685.832,61806.195
1386856.3455127385,-46219.363,-21862.713,28554.852,-8445.19,78560.63,-3630.8188,12691.162,61818.2
1386856.349512734,-46219.32,-21860.8,28556.275,-8444.052,78564.54,-3627.8892,12692.953,61803.957
1386856.3535127295,-46219.85,-21858.887,28555.38,-8441.488,78575.195,-3624.0234,12703.044,61819.094
1386856.3575127248,-46215.617,-21864.625,28558.635,-8439.982,78582.84,-3625.122,12706.34,61819.297
1386856.3615127204,-46208.133,-21854.615,28562.217,-8442.668,78576.58,-3629.7202,12698.8125,61814.82
1386856.365512716,-46206.87,-21848.594,28564.738,-8442.953,78566.9,-3634.2368,12684.286,61807.902
1386856.3695127114,-46211.02,-21855.062,28567.832,-8438.151,78572.02,-3635.498,12675.334,61803.836
1386856.373512707,-46207.316,-21852.783,28570.395,-8432.17,78579.67,-3636.434,12668.661,61798.016
1386856.3775127023,-46200.727,-21846.885,28572.715,-8430.542,78579.875,-3640.503,12661.581,61791.18
1386856.3815126978,-46195.11,-21847.82,28574.79,-8430.014,78577.15,-3645.3044,12652.67,61786.785
1386856.3855126933,-46195.883,-21848.023,28573.162,-8429.403,78571.01,-3649.3328,12634.033,61772.625
1386856.3895126889,-46202.598,-21852.092,28573.242,-8426.758,78573.164,-3649.2515,12626.709,61766.113
1386856.3935126842,-46207.36,-21852.215,28578.94,-8423.34,78579.06,-3648.3154,12624.1455,61751.953
1386856.3975126797,-46200.24,-21840.781,28583.293,-8421.997,78587.69,-3650.228,12627.035,61762.453
1386856.4015126752,-46195.723,-21840.332,28585.654,-8421.265,78583.54,-3654.6226,12623.983,61768.965
1386856.4055126708,-46191.855,-21835.572,28584.066,-8418.742,78581.42,-3658.488,12611.898,61749.023
1386856.4095126663,-46189.984,-21830.445,28582.969,-8416.098,78583.5,-3657.7964,12601.645,61720.746
1386856.4135126616,-46194.95,-21840.455,28579.754,-8416.016,78583.26,-3653.524,12608.969,61729.902
1386856.4175126571,-46189.25,-21839.64,28577.88,-8418.132,78583.74,-3650.5127,12624.064,61745.445
1386856.4215126527,-46180.3,-21836.387,28584.758,-8420.98,78589.44,-3649.7397,12633.423,61757.895
1386856.4255126482,-46187.867,-21842.408,28582.072,-8423.503,78583.414,-3647.8271,12638.266,61769.98
1386856.4295126435,-46198.0,-21850.098,28579.834,-8422.934,78584.64,-3645.2231,12636.353,61753.055
1386856.433512639,-46196.25,-21848.023,28581.38,-8419.963,78593.47,-3642.9038,12643.474,61758.75
1386856.4375126346,-46188.316,-21838.502,28587.078,-8420.41,78601.445,-3641.8457,12656.413,61766.24
1386856.44151263,-46217.734,-21850.83,28589.6,-8421.143,78598.15,-3642.0085,12665.08,61778.117
1386856.4455126256,-46204.1,-21847.82,28584.473,-8422.812,78591.84,-3640.91,12669.475,61794.273
1386856.449512621,-46174.195,-21835.572,28578.857,-8423.34,78591.84,-3638.6719,12673.584,61799.727
1386856.4535126165,-46183.15,-21832.113,28577.027,-8422.485,78603.03,-3633.9927,12683.96,61821.29
1386856.457512612,-46182.617,-21827.475,28583.293,-8422.038,78610.555,-3633.5044,12693.808,61830.363
1386856.4615126075,-46178.633,-21827.027,28587.2,-8422.485,78608.6,-3638.794,12684.774,61815.758
1386856.4655126028,-46184.164,-21832.113,28586.996,-8422.485,78604.375,-3641.8052,12672.323,61810.793
1386856.4695125984,-46189.863,-21835.41,28587.607,-8418.01,78601.12,-3643.0664,12661.987,61799.562
1386856.473512594,-46197.715,-21841.473,28587.525,-8414.714,78603.35,-3642.863,12660.441,61793.582
1386856.4775125894,-46192.914,-21842.45,28590.088,-8416.423,78607.055,-3643.5955,12664.307,61798.016
1386856.481512585,-46189.008,-21845.053,28586.59,-8420.98,78604.45,-3644.5312,12664.877,61802.004
1386856.4855125803,-46198.164,-21852.215,28579.469,-8424.398,78594.69,-3644.45,12661.581,61800.293
1386856.4895125758,-46203.9,-21856.975,28577.393,-8423.056,78591.19,-3640.5437,12663.818,61805.79
1386856.4935125713,-46202.15,-21853.354,28582.275,-8421.875,78596.6,-3637.7769,12672.607,61806.684
1386856.4975125669,-46196.535,-21850.342,28591.025,-8423.462,78599.9,-3636.7595,12681.926,61808.39
1386856.5015125624,-46199.3,-21856.242,28592.326,-8426.921,78594.445,-3636.19,12687.5,61823.652
1386856.5055125577,-46200.117,-21852.174,28592.611,-8424.316,78591.43,-3638.3057,12681.601,61810.832
1386856.5095125532,-46202.027,-21852.988,28590.74,-8419.556,78595.13,-3639.2417,12675.212,61798.75
1386856.5135125488,-46205.73,-21857.79,28593.467,-8413.859,78603.35,-3640.7878,12671.794,61788.7
1386856.5175125443,-46209.598,-21866.943,28592.896,-8412.313,78608.65,-3642.1306,12671.143,61790.69
1386856.5215125396,-46202.883,-21850.953,28589.967,-8416.626,78596.16,-3644.7754,12664.226,61788.78
1386856.5255125351,-46198.367,-21835.693,28590.82,-8419.271,78594.93,-3648.1528,12652.426,61766.44
1386856.5295125307,-46227.46,-21837.443,28595.623,-8417.847,78598.68,-3645.7927,12653.646,61782.188
1386856.5335125262,-46220.703,-21835.734,28598.959,-8412.639,78607.75,-3641.9272,12664.633,61803.1
1386856.5375125217,-46165.895,-21833.13,28602.703,-8411.906,78618.086,-3639.852,12679.6875,61810.426
1386856.541512517,-46162.76,-21828.898,28604.371,-8412.15,78613.53,-3639.852,12688.192,61825.36
1386856.5455125126,-46166.465,-21827.842,28606.69,-8409.872,78609.78,-3640.9912,12685.791,61839.234
1386856.549512508,-46175.293,-21837.24,28602.336,-8407.431,78609.26,-3641.1133,12684.896,61832.277
1386856.5535125036,-46189.332,-21841.105,28599.773,-8407.959,78611.01,-3639.201,12690.959,61817.547
1386856.557512499,-46182.54,-21838.34,28599.57,-8408.773,78618.0,-3635.62,12703.9795,61837.324
1386856.5615124945,-46179.65,-21835.816,28598.227,-8412.272,78614.664,-3635.254,12708.74,61854.29
1386856.56551249,-46189.25,-21840.537,28594.28,-8413.981,78615.56,-3637.2886,12703.939,61859.742
1386856.5695124855,-46196.004,-21847.617,28594.117,-8411.662,78618.62,-3636.434,12701.376,61864.016
1386856.573512481,-46191.57,-21841.188,28602.133,-8407.512,78626.06,-3633.016,12703.573,61862.43
1386856.5775124764,-46177.043,-21826.133,28610.23,-8406.006,78632.29,-3631.3071,12705.566,61855.47
1386856.581512472,-46177.734,-21825.318,28610.76,-8410.482,78621.664,-3634.074,12698.364,61853.598
1386856.5855124674,-46186.32,-21838.34,28606.812,-8412.15,78608.195,-3636.3525,12687.704,61842.695
1386856.589512463,-46198.406,-21851.645,28601.441,-8410.034,78603.56,-3637.3699,12679.24,61822.266
1386856.5935124583,-46210.207,-21863.648,28597.982,-8407.064,78612.19,-3636.6375,12684.286,61821.86
1386856.5975124538,-46207.6,-21867.92,28597.78,-8408.691,78620.93,-3635.4167,12695.272,61838.016
1386856.6015124493,-46204.715,-21848.309,28593.791,-8415.08,78620.52,-3635.9863,12696.493,61843.508
1386856.6055124449,-46230.836,-21843.14,28591.309,-8417.644,78622.48,-3638.6719,12683.798,61804.406
1386856.6095124404,-46239.383,-21855.633,28597.291,-8413.94,78627.28,-3638.9568,12677.45,61795.86
1386856.6135124357,-46185.14,-21853.477,28600.627,-8408.8545,78639.98,-3637.1257,12682.089,61810.67
1386856.6175124312,-46173.383,-21841.553,28606.527,-8406.494,78652.266,-3639.974,12683.798,61818.77
1386856.6215124268,-46176.19,-21834.31,28609.742,-8406.454,78651.82,-3645.2637,12671.469,61795.41
1386856.6255124223,-46190.633,-21843.1,28611.94,-8404.989,78639.164,-3646.6472,12659.953,61791.992
1386856.6295124178,-46199.547,-21855.389,28611.29,-8403.442,78633.305,-3648.1528,12653.524,61793.254
1386856.6335124131,-46203.25,-21859.172,28611.492,-8402.385,78635.09,-3648.1528,12655.478,61811.65
1386856.6375124087,-46197.676,-21851.523,28615.357,-8403.158,78640.71,-3647.2168,12664.551,61820.64
1386856.6415124042,-46190.51,-21851.035,28614.666,-8404.826,78643.72,-3647.8271,12670.41,61826.336
1386856.6455123997,-46197.145,-21854.412,28609.416,-8405.478,78638.96,-3648.641,12669.597,61815.227
1386856.649512395,-46199.707,-21846.396,28608.48,-8401.367,78647.016,-3646.5251,12669.882,61798.547
1386856.6535123906,-46196.453,-21838.096,28613.525,-8396.078,78658.41,-3641.154,12682.699,61816.652
1386856.657512386,-46188.844,-21826.945,28620.037,-8394.003,78664.19,-3637.5327,12701.416,61844.523
1386856.6615123816,-46184.207,-21828.086,28619.549,-8398.193,78656.945,-3635.8643,12714.396,61861.33
1386856.6655123772,-46187.297,-21836.223,28610.027,-8403.198,78645.34,-3632.365,12722.86,61873.902
1386856.6695123725,-46190.594,-21838.014,28604.697,-8402.629,78644.33,-3627.238,12731.242,61884.89
1386856.673512368,-46184.695,-21831.87,28608.318,-8398.315,78650.59,-3623.576,12738.078,61887.902
1386856.6775123635,-46178.184,-21826.213,28611.898,-8399.496,78660.32,-3621.1345,12747.844,61905.355
1386856.681512359,-46185.426,-21827.027,28615.887,-8401.978,78655.11,-3622.6807,12744.589,61900.23
1386856.6855123544,-46205.0,-21843.059,28616.781,-8399.699,78647.586,-3628.5808,12725.952,61856.73
1386856.68951235,-46223.633,-21851.074,28615.643,-8397.502,78645.14,-3630.8594,12712.118,61839.766
1386856.6935123454,-46223.145,-21834.148,28618.531,-8394.572,78648.97,-3630.656,12708.862,61845.215
1386856.697512341,-46215.902,-21825.033,28624.473,-8393.718,78651.82,-3632.6904,12708.578,61855.105
1386856.7015123365,-46218.75,-21827.475,28622.682,-8395.305,78648.84,-3636.19,12699.951,61834.84
1386856.7055123318,-46246.625,-21835.857,28616.21,-8397.909,78637.21,-3635.9863,12693.115,61824.26
1386856.7095123273,-46279.785,-21841.92,28616.293,-8396.24,78637.695,-3633.0566,12690.756,61822.266
1386856.7135123229,-46225.18,-21836.223,28613.893,-8392.822,78653.61,-3629.7607,12693.522,61824.504
1386856.7175123184,-46213.055,-21825.318,28618.002,-8393.107,78663.695,-3631.0222,12697.0625,61827.844
1386856.7215123137,-46215.58,-21818.32,28621.502,-8393.84,78662.27,-3634.196,12692.709,61819.176
1386856.7255123092,-46230.51,-21823.895,28615.723,-8392.985,78654.13,-3637.0444,12679.647,61809.734
1386856.7295123048,-46239.34,-21829.51,28618.896,-8387.858,78653.28,-3638.5906,12670.044,61802.613
1386856.7335123003,-46240.684,-21829.998,28624.838,-8383.423,78652.47,-3639.6892,12668.173,61794.598
1386856.7375122958,-46244.344,-21831.828,28628.662,-8384.359,78652.18,-3639.201,12674.113,61795.29
1386856.7415122911,-46251.305,-21838.34,28627.605,-8389.567,78649.21,-3640.2588,12677.124,61803.957
