timestamp,Fp1,Fp2,F3,Fz,F4,Cz,Pz,Oz
1221967.5744229748,-39858.848,-32751.547,-56378.34,-41836.223,-18657.715,-37828.777,-41262.695,-31533.447
1221967.578422972,-39856.812,-32749.879,-56377.688,-41835.613,-18657.715,-37829.266,-41265.83,-31537.11
1221967.5824229694,-39861.574,-32757.854,-56378.215,-41837.89,-18659.547,-37829.348,-41273.277,-31547.771
1221967.5864229668,-39867.39,-32758.547,-56379.477,-41839.195,-18658.57,-37830.16,-41277.71,-31549.602
1221967.590422964,-39865.36,-32755.494,-56379.56,-41838.22,-18659.506,-37832.48,-41274.863,-31544.963
1221967.5944229614,-39858.156,-32753.867,-56375.816,-41837.484,-18661.053,-37832.074,-41266.805,-31530.803
1221967.5984229587,-39864.176,-32758.22,-56374.15,-41836.508,-18661.336,-37829.062,-41260.133,-31502.85
1221967.602422956,-39870.77,-32760.377,-56374.066,-41837.73,-18661.174,-37829.43,-41269.29,-31530.396
1221967.6064229533,-39863.65,-32750.45,-56368.574,-41836.305,-18657.797,-37832.926,-41284.223,-31570.598
1221967.6104229507,-39864.586,-32751.018,-56368.125,-41836.426,-18659.832,-37835.33,-41282.105,-31563.355
1221967.6144229479,-39870.402,-32759.441,-56367.473,-41837.973,-18662.557,-37835.574,-41279.176,-31556.967
1221967.6184229453,-39872.195,-32761.395,-56365.03,-41837.32,-18660.727,-37834.637,-41277.63,-31554.443
1221967.6224229427,-39863.688,-32748.861,-56363.977,-41835.29,-18654.053,-37837.08,-41283.246,-31553.508
1221967.6264229398,-39860.637,-32747.805,-56367.27,-41835.777,-18654.338,-37836.426,-41284.547,-31554.525
1221967.6304229372,-39866.008,-32757.936,-56368.86,-41838.625,-18660.523,-37833.54,-41276.9,-31553.06
1221967.6344229346,-39866.54,-32756.512,-56366.945,-41837.484,-18662.068,-37833.58,-41270.836,-31550.863
1221967.6384229318,-39861.9,-32753.135,-56363.977,-41836.02,-18662.557,-37833.54,-41270.1,-31550.537
1221967.6424229292,-39866.78,-32758.18,-56364.3,-41837.2,-18663.168,-37832.156,-41272.83,-31549.113
1221967.6464229263,-39873.09,-32762.127,-56366.54,-41839.48,-18662.598,-37830.85,-41273.805,-31544.842
1221967.6504229237,-39875.164,-32758.547,-56370.402,-41839.76,-18660.238,-37830.973,-41271.12,-31541.79
1221967.6544229211,-39867.637,-32748.293,-56371.79,-41837.445,-18657.146,-37831.543,-41270.223,-31542.645
1221967.6584229183,-39863.812,-32747.479,-56369.266,-41837.16,-18657.674,-37830.69,-41272.055,-31544.15
1221967.6624229157,-39871.176,-32756.756,-56367.066,-41838.867,-18659.953,-37828.86,-41271.12,-31536.418
1221967.666422913,-39872.4,-32757.732,-56366.984,-41839.56,-18661.541,-37828.86,-41273.355,-31537.11
1221967.6704229102,-39870.484,-32757.406,-56366.7,-41839.48,-18664.633,-37831.383,-41271.73,-31538.78
1221967.6744229076,-39873.82,-32760.5,-56367.8,-41839.48,-18665.895,-37830.242,-41267.54,-31534.873
1221967.678422905,-39877.645,-32755.129,-56366.62,-41839.76,-18661.988,-37828.86,-41263.957,-31530.111
1221967.6824229022,-39884.81,-32757.406,-56365.766,-41840.21,-18661.256,-37827.8,-41266.887,-31529.99
1221967.6864228996,-39886.76,-32762.127,-56365.766,-41842.082,-18663.209,-37828.33,-41273.887,-31538.371
1221967.690422897,-39882.324,-32761.271,-56366.863,-41843.02,-18665.486,-37832.03,-41275.27,-31540.61
1221967.6944228942,-39883.914,-32763.307,-56368.45,-41842.57,-18664.062,-37834.92,-41276.734,-31548.707
1221967.6984228916,-39891.97,-32766.887,-56367.395,-41842.082,-18662.72,-37834.84,-41277.914,-31555.34
1221967.702422889,-39893.395,-32764.73,-56364.953,-41842.41,-18663.209,-37834.88,-41282.227,-31558.594
1221967.706422886,-39890.707,-32759.523,-56363.406,-41842.285,-18664.227,-37833.62,-41282.31,-31557.293
1221967.7104228835,-39890.504,-32758.262,-56364.707,-41841.434,-18663.494,-37834.35,-41276.246,-31551.352
1221967.714422881,-39886.965,-32759.115,-56363.77,-41839.76,-18662.273,-37835.33,-41272.258,-31547.283
1221967.718422878,-39892.703,-32768.8,-56362.59,-41840.7,-18666.26,-37835.53,-41271.08,-31545.777
1221967.7224228755,-39901.773,-32775.797,-56361.98,-41841.84,-18667.645,-37833.336,-41273.723,-31547.363
1221967.7264228729,-39900.35,-32770.348,-56360.965,-41839.97,-18666.463,-37835.574,-41278.523,-31548.748
1221967.73042287,-39896.688,-32765.951,-56361.41,-41839.234,-18665.61,-37839.113,-41278.89,-31548.992
1221967.7344228674,-39895.55,-32765.139,-56360.76,-41838.91,-18664.754,-37838.625,-41273.316,-31548.3
1221967.7384228648,-39899.7,-32770.223,-56360.23,-41839.6,-18665.568,-37836.67,-41271.812,-31547.607
1221967.742422862,-39906.453,-32772.098,-56362.793,-41840.414,-18664.754,-37836.59,-41276.816,-31550.578
1221967.7464228594,-39902.184,-32766.887,-56363.0,-41839.03,-18660.645,-37837.402,-41279.055,-31552.002
1221967.7504228565,-39901.98,-32764.61,-56364.3,-41840.535,-18658.691,-37839.844,-41275.188,-31550.172
1221967.754422854,-39898.113,-32760.906,-56363.527,-41840.66,-18659.953,-37839.97,-41270.266,-31546.469
1221967.7584228513,-39898.844,-32760.662,-56362.55,-41840.496,-18661.5,-37838.582,-41268.395,-31543.783
1221967.7624228485,-39903.445,-32764.65,-56362.145,-41841.39,-18661.947,-37839.07,-41271.08,-31541.22
1221967.766422846,-39904.176,-32761.395,-56362.1,-41841.758,-18659.547,-37839.6,-41272.46,-31540.244
1221967.7704228433,-39905.805,-32757.041,-56363.812,-41841.88,-18660.768,-37839.926,-41270.59,-31540.771
1221967.7744228404,-39909.098,-32757.326,-56364.91,-41842.082,-18663.006,-37842.043,-41272.016,-31545.29
1221967.7784228378,-39908.652,-32755.9,-56361.86,-41840.21,-18663.412,-37841.92,-41274.66,-31547.324
1221967.7824228352,-39905.355,-32753.297,-56357.63,-41838.46,-18661.256,-37842.285,-41280.6,-31558.39
1221967.7864228324,-39906.984,-32754.68,-56357.992,-41839.76,-18662.8,-37843.305,-41283.938,-31558.39
1221967.7904228298,-39907.594,-32754.111,-56358.887,-41841.797,-18664.307,-37842.0,-41276.695,-31544.027
1221967.7944228272,-39906.453,-32747.152,-56356.49,-41839.07,-18660.645,-37840.13,-41269.207,-31542.318
1221967.7984228244,-39907.473,-32749.879,-56356.324,-41838.258,-18658.936,-37839.97,-41270.305,-31545.127
1221967.8024228218,-39917.562,-32757.406,-56358.195,-41841.105,-18660.93,-37839.438,-41274.008,-31542.766
1221967.8064228192,-39921.1,-32760.012,-56359.66,-41843.06,-18663.29,-37839.273,-41275.473,-31541.912
1221967.8104228163,-39925.418,-32762.453,-56361.74,-41843.914,-18664.389,-37840.984,-41272.746,-31539.268
1221967.8144228137,-39929.484,-32760.988,-56361.047,-41843.02,-18665.203,-37842.45,-41268.35,-31534.912
1221967.818422811,-39918.094,-32750.652,-56356.977,-41840.008,-18662.557,-37842.938,-41271.402,-31544.271
1221967.8224228083,-39916.3,-32748.7,-56356.0,-41839.438,-18659.465,-37842.246,-41275.516,-31546.266
1221967.8264228057,-39915.12,-32744.834,-56354.94,-41838.95,-18658.447,-37841.27,-41274.496,-31542.197
1221967.830422803,-39909.914,-32735.068,-56354.21,-41839.113,-18657.594,-37842.33,-41270.836,-31536.662
1221967.8344228002,-39918.582,-32740.887,-56356.49,-41839.273,-18658.53,-37841.473,-41264.812,-31527.752
1221967.8384227976,-39906.496,-32735.271,-56352.824,-41836.184,-18653.564,-37840.457,-41265.34,-31533.285
1221967.842422795,-39904.543,-32731.895,-56352.133,-41835.125,-18650.799,-37838.95,-41263.062,-31528.361
1221967.8464227922,-39910.402,-32734.58,-56352.703,-41836.793,-18652.303,-37839.438,-41261.273,-31522.46
1221967.8504227896,-39901.41,-32726.645,-56350.75,-41836.305,-18653.076,-37840.535,-41255.535,-31513.428
1221967.8544227867,-39892.254,-32718.752,-56348.51,-41834.96,-18654.256,-37842.0,-41254.19,-31516.887
1221967.8584227841,-39888.348,-32712.729,-56344.77,-41832.562,-18651.855,-37842.773,-41260.297,-31529.541
1221967.8624227815,-39886.434,-32711.996,-56340.617,-41831.46,-18649.414,-37841.96,-41265.504,-31538.818
1221967.8664227787,-39897.707,-32722.941,-56342.855,-41834.23,-18651.123,-37840.535,-41266.766,-31531.373
1221967.870422776,-39911.703,-32733.115,-56348.43,-41836.875,-18653.688,-37841.555,-41264.812,-31527.873
1221967.8744227735,-39923.18,-32746.95,-56350.75,-41840.17,-18659.75,-37840.945,-41261.844,-31524.13
1221967.8784227706,-39917.93,-32743.654,-56346.6,-41838.42,-18659.709,-37842.164,-41265.953,-31531.291
1221967.882422768,-39902.02,-32730.145,-56343.387,-41835.125,-18655.64,-37843.793,-41274.254,-31537.518
1221967.8864227654,-39908.367,-32734.54,-56348.023,-41837.934,-18652.791,-37845.297,-41278.727,-31542.48
1221967.8904227626,-39917.48,-32744.508,-56352.824,-41841.105,-18659.547,-37844.93,-41275.92,-31543.742
1221967.89442276,-39924.97,-32749.553,-56352.906,-41842.41,-18663.982,-37845.133,-41272.42,-31546.916
1221967.8984227574,-39914.266,-32735.963,-56346.52,-41838.664,-18660.238,-37844.32,-41273.97,-31549.969
1221967.9024227546,-39903.117,-32722.82,-56341.188,-41835.29,-18651.246,-37845.703,-41279.703,-31552.328
1221967.906422752,-39910.645,-32725.383,-56342.285,-41836.223,-18648.846,-37848.39,-41281.293,-31552.41
1221967.9104227494,-39912.273,-32725.871,-56346.03,-41837.605,-18652.752,-37849.246,-41277.223,-31550.62
1221967.9144227465,-39909.75,-32728.842,-56348.51,-41838.46,-18656.494,-37847.453,-41271.688,-31540.365
1221967.918422744,-39913.37,-32738.078,-56350.465,-41839.97,-18658.895,-37845.83,-41269.53,-31531.576
1221967.9224227413,-39917.848,-32736.98,-56351.402,-41839.76,-18659.627,-37849.367,-41280.805,-31554.24
1221967.9264227385,-39904.543,-32722.332,-56350.18,-41838.625,-18654.988,-37852.5,-41287.926,-31553.184
1221967.9304227359,-39887.695,-32707.398,-56348.715,-41836.793,-18651.002,-37854.37,-41287.395,-31554.852
1221967.9344227333,-39887.574,-32703.574,-56347.293,-41837.117,-18651.164,-37853.883,-41279.137,-31542.645
1221967.9384227304,-39895.184,-32710.002,-56346.4,-41837.32,-18651.043,-37853.92,-41276.082,-31543.701
1221967.9424227278,-39905.03,-32719.932,-56346.273,-41838.83,-18651.979,-37854.777,-41279.5,-31547.242
1221967.9464227252,-39912.152,-32724.488,-56347.94,-41839.355,-18650.473,-37856.49,-41284.832,-31564.494
1221967.9504227224,-39922.04,-32734.416,-56350.344,-41841.066,-18652.914,-37855.957,-41282.555,-31566.326
1221967.9544227198,-39926.92,-32744.182,-56349.043,-41841.637,-18655.396,-37856.16,-41275.88,-31559.896
1221967.958422717,-39925.21,-32743.816,-56345.867,-41839.438,-18653.32,-37855.51,-41273.97,-31556.846
1221967.9624227143,-39916.707,-32731.61,-56344.32,-41838.297,-18650.146,-37856.242,-41279.746,-31563.64
1221967.9664227117,-39916.14,-32730.145,-56344.484,-41838.95,-18646.525,-37857.953,-41283.49,-31563.111
1221967.970422709,-39920.695,-32740.725,-56345.297,-41838.137,-18649.943,-37855.67,-41275.72,-31551.758
1221967.9744227063,-39926.8,-32753.256,-56347.008,-41838.867,-18653.24,-37854.453,-41268.434,-31547.201
1221967.9784227037,-39928.67,-32754.355,-56345.46,-41839.273,-18652.1,-37853.027,-41265.91,-31543.336
1221967.9824227009,-39932.7,-32751.1,-56343.26,-41839.805,-18648.846,-37851.523,-41265.953,-31538.25
1221967.9864226982,-39933.758,-32757.285,-56341.797,-41839.355,-18652.791,-37852.05,-41265.75,-31535.686
1221967.9904226956,-39930.582,-32759.4,-56340.293,-41839.64,-18656.453,-37852.336,-41263.31,-31538.818
1221967.9944226928,-39925.54,-32759.562,-56338.625,-41840.293,-18656.291,-37851.402,-41258.504,-31537.639
1221967.9984226902,-39930.38,-32763.225,-56338.38,-41839.76,-18655.396,-37848.39,-41256.39,-31533.977
1221968.0024226876,-39930.055,-32757.732,-56338.664,-41839.355,-18651.979,-37848.55,-41259.81,-31534.424
1221968.0064226848,-39927.004,-32753.582,-56340.78,-41841.227,-18652.955,-37848.836,-41261.395,-31530.314
1221968.0104226822,-39925.457,-32756.838,-56339.766,-41840.332,-18655.64,-37848.55,-41259.195,-31538.371
1221968.0144226796,-39928.348,-32759.889,-56340.008,-41839.76,-18657.594,-37848.676,-41254.76,-31537.639
1221968.0184226767,-39923.79,-32752.85,-56338.83,-41838.42,-18654.176,-37849.57,-41256.31,-31536.094
1221968.022422674,-39922.445,-32747.56,-56337.363,-41836.508,-18649.7,-37849.895,-41259.523,-31531.455
1221968.0264226715,-39919.72,-32743.572,-56335.86,-41834.758,-18646.2,-37848.55,-41259.523,-31525.27
1221968.0304226687,-39923.668,-32749.064,-56336.223,-41834.555,-18648.316,-37848.145,-41254.438,-31522.217
1221968.034422666,-39924.805,-32748.373,-56337.527,-41834.434,-18646.484,-37850.914,-41255.74,-31532.959
1221968.0384226635,-39925.824,-32743.734,-56338.79,-41834.27,-18643.555,-37852.336,-41262.535,-31549.766
1221968.0424226606,-39936.117,-32746.623,-56343.02,-41835.29,-18645.143,-37853.68,-41269.777,-31548.057
1221968.046422658,-39947.43,-32756.553,-56347.168,-41837.445,-18647.664,-37855.387,-41273.562,-31545.654
1221968.0504226554,-39946.82,-32758.342,-56346.113,-41838.055,-18651.367,-37856.69,-41270.47,-31546.021
1221968.0544226526,-39937.83,-32755.82,-56343.67,-41838.055,-18651.979,-37856.082,-41266.03,-31541.22
1221968.05842265,-39931.355,-32752.2,-56342.816,-41837.445,-18652.182,-37856.12,-41266.645,-31539.062
1221968.0624226471,-39936.16,-32755.656,-56342.41,-41836.266,-18651.082,-37856.895,-41270.508,-31539.55
1221968.0664226445,-39943.562,-32762.98,-56343.957,-41838.016,-18652.426,-37856.73,-41274.332,-31546.998
1221968.070422642,-39939.21,-32754.07,-56343.71,-41837.934,-18647.787,-37858.156,-41273.074,-31551.352
1221968.074422639,-39932.984,-32746.46,-56343.387,-41834.92,-18644.287,-37859.863,-41270.836,-31547.242
1221968.0784226365,-39936.688,-32753.867,-56344.65,-41835.207,-18647.42,-37857.79,-41268.8,-31538.738
1221968.082422634,-39946.902,-32763.998,-56345.297,-41838.055,-18648.723,-37854.37,-41270.59,-31541.668
1221968.086422631,-39946.13,-32765.627,-56343.832,-41839.273,-18651.123,-37856.082,-41275.027,-31542.197
1221968.0904226284,-39941.203,-32764.895,-56343.02,-41839.234,-18654.744,-37857.137,-41271.77,-31538.25
1221968.0944226258,-39935.71,-32761.516,-56341.72,-41838.22,-18654.95,-37856.977,-41267.133,-31535.482
1221968.098422623,-39931.6,-32757.162,-56339.684,-41837.32,-18654.012,-37857.34,-41270.348,-31547.486
1221968.1024226204,-39932.496,-32755.332,-56337.445,-41836.832,-18653.973,-37855.43,-41271.61,-31543.213
1221968.1064226178,-39934.977,-32755.82,-56338.3,-41837.32,-18654.256,-37853.355,-41269.246,-31534.22
1221968.110422615,-39940.594,-32762.697,-56340.58,-41839.805,-18656.414,-37852.01,-41264.242,-31541.098
1221968.1144226124,-39944.906,-32771.08,-56342.45,-41840.902,-18658.082,-37850.3,-41258.63,-31533.57
1221968.1184226098,-39938.6,-32763.877,-56342.33,-41839.64,-18652.955,-37850.71,-41263.67,-31532.838
1221968.122422607,-39935.914,-32757.57,-56342.41,-41837.77,-18650.066,-37849.938,-41268.19,-31530.64
1221968.1264226043,-39941.57,-32764.121,-56341.27,-41838.055,-18651.082,-37849.69,-41265.543,-31525.717
1221968.1304226017,-39945.355,-32771.77,-56337.85,-41837.566,-18654.217,-37846.926,-41255.37,-31513.916
1221968.1344225989,-39935.59,-32765.707,-56332.805,-41834.92,-18654.705,-37843.914,-41249.27,-31510.336
1221968.1384225963,-39927.246,-32753.908,-56329.43,-41832.195,-18652.508,-37842.41,-41252.2,-31508.383
1221968.1424225937,-39930.867,-32754.191,-56328.777,-41834.598,-18653.809,-37842.69,-41261.598,-31514.771
1221968.1464225908,-39935.67,-32760.865,-56328.82,-41836.14,-18657.674,-37844.77,-41265.992,-31522.91
1221968.1504225882,-39934.33,-32762.9,-56326.336,-41836.1,-18656.902,-37845.62,-41260.457,-31518.393
1221968.1544225856,-39931.723,-32762.086,-56324.832,-41836.793,-18657.186,-37845.094,-41253.824,-31513.836
1221968.1584225828,-39942.098,-32769.98,-56326.582,-41838.746,-18658.203,-37841.84,-41252.727,-31510.05
1221968.1624225802,-39948.977,-32772.3,-56328.82,-41839.97,-18656.861,-37843.71,-41260.094,-31514.16
1221968.1664225776,-39941.45,-32764.242,-56327.56,-41838.543,-18655.844,-37848.145,-41269.246,-31515.586
1221968.1704225747,-39938.273,-32762.209,-56328.168,-41837.2,-18655.03,-37848.88,-41266.562,-31510.58
1221968.1744225721,-39949.383,-32774.54,-56331.504,-41838.867,-18657.879,-37845.906,-41260.01,-31509.889
1221968.1784225693,-39956.625,-32779.258,-56332.97,-41840.902,-18658.203,-37844.727,-41259.44,-31509.848
1221968.1824225667,-39949.3,-32770.266,-56329.266,-41838.95,-18654.42,-37846.438,-41265.098,-31518.555
1221968.186422564,-39945.965,-32764.65,-56327.395,-41838.625,-18651.938,-37847.086,-41266.156,-31519.94
1221968.1904225613,-39951.66,-32772.543,-56327.965,-41841.15,-18656.373,-37846.355,-41260.457,-31514.69
1221968.1944225586,-39961.344,-32784.18,-56330.324,-41841.715,-18662.965,-37845.703,-41256.96,-31508.871
1221968.198422556,-39953.98,-32777.508,-56326.785,-41839.152,-18660.564,-37846.273,-41259.44,-31510.459
1221968.2024225532,-39949.79,-32766.48,-56325.645,-41837.934,-18655.03,-37847.74,-41266.156,-31519.248
1221968.2064225506,-39957.03,-32772.664,-56330.285,-41840.617,-18656.129,-37847.13,-41265.26,-31514.04
1221968.210422548,-39955.28,-32776.125,-56333.496,-41841.434,-18661.947,-37847.168,-41261.477,-31510.906
1221968.2144225452,-39954.387,-32778.934,-56333.457,-41841.27,-18664.062,-37848.227,-41259.117,-31502.89
1221968.2184225426,-39954.715,-32777.832,-56329.67,-41839.844,-18664.836,-37850.26,-41262.492,-31499.268
1221968.22242254,-39947.47,-32767.254,-56323.49,-41835.53,-18659.059,-37852.133,-41270.02,-31515.748
1221968.2264225371,-39940.43,-32759.848,-56319.867,-41834.434,-18658.082,-37850.992,-41271.12,-31511.191
1221968.2304225345,-39942.586,-32763.225,-56320.68,-41835.004,-18658.447,-37849.49,-41263.387,-31507.61
1221968.234422532,-39951.54,-32770.875,-56322.797,-41836.223,-18659.588,-37848.43,-41259.48,-31509.197
1221968.238422529,-39944.01,-32757.406,-56320.598,-41833.457,-18655.926,-37847.7,-41260.17,-31509.156
1221968.2424225265,-39934.977,-32747.152,-56317.426,-41831.91,-18651.082,-37847.7,-41262.535,-31506.43
1221968.2464225239,-39937.906,-32753.012,-56317.547,-41834.35,-18652.14,-37848.105,-41260.867,-31500.45
1221968.250422521,-39945.152,-32761.924,-56319.01,-41834.066,-18656.658,-37847.535,-41255.453,-31497.438
1221968.2544225184,-39951.58,-32767.701,-56319.215,-41834.39,-18657.635,-37846.234,-41251.87,-31496.664
1221968.2584225158,-39947.836,-32763.957,-56314.21,-41831.79,-18655.926,-37846.355,-41255.25,-31503.541
1221968.262422513,-39940.023,-32757.162,-56311.688,-41828.656,-18649.129,-37847.656,-41260.297,-31504.191
1221968.2664225104,-39940.023,-32757.691,-56312.91,-41829.508,-18650.27,-37849.61,-41265.016,-31506.959
1221968.2704225078,-39949.137,-32764.527,-56317.996,-41831.992,-18653.035,-37851.562,-41263.797,-31508.22
1221968.274422505,-39958.945,-32767.986,-56323.082,-41832.645,-18651.164,-37851.97,-41258.668,-31507.0
1221968.2784225023,-39959.473,-32764.854,-56321.94,-41832.316,-18649.334,-37853.23,-41260.215,-31510.05
1221968.2824224995,-39958.54,-32768.19,-56320.8,-41832.926,-18649.781,-37854.37,-41264.773,-31512.086
1221968.286422497,-39961.223,-32771.484,-56321.656,-41834.516,-18650.879,-37853.027,-41264.406,-31506.918
1221968.2904224943,-39964.152,-32772.79,-56323.164,-41834.027,-18652.264,-37850.426,-41257.04,-31500.205
1221968.2944224915,-39965.008,-32777.67,-56323.04,-41834.188,-18655.03,-37849.57,-41251.87,-31493.205
1221968.2984224888,-39971.926,-32779.664,-56323.73,-41835.816,-18656.373,-37848.918,-41250.855,-31498.414
1221968.3024224862,-39975.344,-32779.094,-56323.652,-41836.02,-18655.152,-37847.94,-41252.32,-31492.555
1221968.3064224834,-39980.023,-32788.13,-56325.277,-41837.402,-18658.0,-37848.836,-41252.28,-31481.73
1221968.3104224808,-39969.85,-32775.434,-56321.7,-41834.676,-18654.988,-37851.605,-41253.418,-31497.967
1221968.3144224782,-39964.316,-32764.975,-56320.395,-41830.812,-18650.555,-37853.92,-41253.297,-31506.064
1221968.3184224754,-39965.617,-32766.154,-56322.023,-41829.633,-18650.39,-37856.61,-41255.82,-31498.291
1221968.3224224728,-39969.32,-32770.793,-56322.594,-41830.04,-18651.164,-37857.22,-41262.332,-31503.988
1221968.3264224702,-39971.926,-32774.82,-56324.426,-41832.52,-18654.012,-37858.684,-41268.473,-31507.447
1221968.3304224673,-39964.844,-32767.701,-56324.547,-41833.78,-18655.682,-37859.17,-41266.44,-31511.883
1221968.3344224647,-39963.95,-32767.824,-56324.426,-41833.66,-18657.47,-37857.625,-41259.645,-31503.379
1221968.338422462,-39961.1,-32769.246,-56322.188,-41832.97,-18655.885,-37855.145,-41257.977,-31501.1
1221968.3424224593,-39966.715,-32769.734,-56320.883,-41833.58,-18654.826,-37857.06,-41260.05,-31499.797
1221968.3464224567,-39969.08,-32764.04,-56320.8,-41834.23,-18651.734,-37859.336,-41262.29,-31498.008
1221968.350422454,-39962.117,-32754.803,-56319.95,-41831.87,-18647.176,-37860.395,-41259.645,-31495.646
1221968.3544224512,-39964.56,-32758.871,-56319.543,-41831.383,-18646.77,-37857.707,-41253.703,-31494.346
1221968.3584224486,-39970.99,-32770.633,-56319.746,-41832.684,-18654.217,-37856.16,-41256.836,-31499.512
1221968.362422446,-39963.867,-32766.154,-56316.164,-41832.316,-18659.465,-37857.06,-41265.79,-31504.965
1221968.3664224432,-39960.695,-32763.713,-56311.77,-41832.723,-18657.918,-37856.04,-41269.004,-31508.424
1221968.3704224406,-39964.887,-32768.883,-56312.83,-41833.133,-18659.668,-37857.26,-41266.156,-31504.273
1221968.374422438,-39972.496,-32775.72,-56315.555,-41833.78,-18660.32,-37859.99,-41263.31,-31503.053
1221968.3784224351,-39967.49,-32769.695,-56311.605,-41831.258,-18652.223,-37861.656,-41265.586,-31515.951
1221968.3824224325,-39963.34,-32761.395,-56309.734,-41829.508,-18644.572,-37861.816,-41267.58,-31515.38
1221968.3864224297,-39974.406,-32767.295,-56315.27,-41832.723,-18645.467,-37861.207,-41266.156,-31502.441
1221968.390422427,-39981.527,-32775.88,-56317.223,-41834.15,-18650.879,-37859.703,-41258.547,-31492.025
1221968.3944224245,-39972.7,-32771.363,-56314.332,-41832.645,-18652.14,-37856.57,-41250.285,-31488.975
1221968.3984224217,-39973.31,-32775.15,-56312.99,-41833.09,-18652.71,-37853.64,-41248.25,-31487.916
1221968.402422419,-39984.418,-32782.145,-56314.25,-41834.72,-18653.605,-37853.883,-41253.418,-31490.316
1221968.4064224164,-39982.707,-32778.28,-56314.78,-41834.27,-18652.71,-37856.12,-41261.273,-31497.723
1221968.4104224136,-39976.32,-32771.812,-56314.535,-41834.27,-18652.996,-37858.316,-41259.727,-31498.088
1221968.414422411,-39982.016,-32778.363,-56314.94,-41834.8,-18653.402,-37857.3,-41252.727,-31493.857
1221968.4184224084,-39987.59,-32781.13,-56313.76,-41834.88,-18652.996,-37857.22,-41251.996,-31493.652
1221968.4224224056,-39982.3,-32778.484,-56309.367,-41832.234,-18649.658,-37857.75,-41257.082,-31499.96
1221968.426422403,-39973.023,-32768.92,-56307.863,-41830.812,-18646.2,-37858.645,-41257.61,-31492.799
1221968.4304224004,-39967.0,-32760.662,-56307.945,-41829.508,-18643.758,-37857.91,-41253.5,-31490.072
1221968.4344223975,-39970.746,-32766.562,-56310.387,-41829.836,-18643.678,-37856.16,-41247.805,-31488.12
1221968.438422395,-39967.125,-32760.783,-56308.594,-41829.305,-18641.154,-37855.387,-41248.984,-31492.188
1221968.4424223923,-39968.02,-32759.115,-56307.54,-41829.305,-18639.771,-37854.98,-41251.996,-31489.87
1221968.4464223895,-39969.24,-32762.045,-56306.152,-41829.59,-18639.283,-37855.51,-41253.133,-31492.92
1221968.4504223869,-39963.258,-32761.68,-56305.42,-41829.266,-18640.91,-37858.035,-41250.33,-31496.502
1221968.4544223843,-39966.39,-32764.771,-56306.848,-41828.25,-18642.213,-37858.523,-41246.707,-31491.904
1221968.4584223814,-39969.93,-32762.045,-56306.316,-41825.645,-18641.236,-37857.75,-41248.496,-31490.398
1221968.4624223788,-39967.285,-32753.176,-56304.527,-41826.01,-18639.08,-37856.773,-41252.2,-31491.172
1221968.4664223762,-39973.96,-32756.553,-56309.41,-41829.59,-18639.16,-37856.0,-41255.574,-31495.973
1221968.4704223734,-39980.43,-32762.209,-56313.152,-41830.566,-18640.137,-37856.203,-41252.688,-31493.49
1221968.4744223708,-39976.766,-32760.295,-56311.523,-41829.266,-18638.387,-37857.3,-41250.816,-31495.117
1221968.4784223682,-39973.594,-32757.854,-56309.57,-41829.387,-18640.137,-37858.195,-41253.543,-31499.188
1221968.4824223653,-39977.133,-32759.4,-56307.945,-41830.08,-18642.13,-37856.406,-41253.297,-31492.27
1221968.4864223627,-39978.598,-32762.697,-56305.79,-41830.203,-18643.475,-37857.625,-41255.086,-31493.37
1221968.49042236,-39973.715,-32760.377,-56306.4,-41829.715,-18642.254,-37860.395,-41250.938,-31487.834
1221968.4944223573,-39979.207,-32765.992,-56310.508,-41830.484,-18639.73,-37860.23,-41243.082,-31475.506
1221968.4984223547,-39992.27,-32777.793,-56313.195,-41833.05,-18641.316,-37858.44,-41239.504,-31467.326
1221968.5024223519,-39997.6,-32778.77,-56312.258,-41834.027,-18642.863,-37857.34,-41240.074,-31457.602
1221968.5064223493,-39990.316,-32767.783,-56309.164,-41833.133,-18639.852,-37858.6,-41243.492,-31466.635
1221968.5104223466,-39986.734,-32764.08,-56309.734,-41832.52,-18638.836,-37858.93,-41244.426,-31483.074
1221968.5144223438,-39996.5,-32775.31,-56312.42,-41834.188,-18641.44,-37855.957,-41240.195,-31484.783
1221968.5184223412,-40000.773,-32785.074,-56310.875,-41834.516,-18644.287,-37854.41,-41240.887,-31484.863
1221968.5224223386,-39996.582,-32785.44,-56306.805,-41834.758,-18646.2,-37854.656,-41244.71,-31484.701
1221968.5264223358,-39991.254,-32777.26,-56305.625,-41834.8,-18644.572,-37855.105,-41246.625,-31484.701
1221968.5304223332,-39988.484,-32772.867,-56307.414,-41834.676,-18643.922,-37856.082,-41243.043,-31482.504
1221968.5344223306,-39982.668,-32769.45,-56306.113,-41832.723,-18641.236,-37858.035,-41238.242,-31478.436
1221968.5384223277,-39979.41,-32761.557,-56303.02,-41829.754,-18637.451,-37859.863,-41241.78,-31482.219
1221968.5424223251,-39986.004,-32763.43,-56303.43,-41829.387,-18635.824,-37861.777,-41250.367,-31489.543
1221968.5464223225,-39994.06,-32770.633,-56306.805,-41829.836,-18637.451,-37863.527,-41258.79,-31500.408
1221968.5504223197,-39999.88,-32777.547,-56309.207,-41831.098,-18640.828,-37865.36,-41260.254,-31502.646
1221968.554422317,-40000.203,-32780.805,-56311.16,-41832.234,-18643.84,-37866.414,-41258.098,-31499.756
1221968.5584223145,-39996.297,-32780.844,-56309.777,-41832.645,-18643.88,-37865.64,-41257.164,-31497.64
1221968.5624223116,-39993.98,-32775.105,-56308.027,-41832.645,-18642.457,-37863.73,-41256.676,-31494.102
1221968.566422309,-39983.562,-32761.516,-56304.934,-41830.527,-18638.469,-37862.47,-41255.13,-31487.957
1221968.5704223064,-39980.918,-32758.424,-56304.242,-41830.242,-18635.498,-37861.37,-41247.438,-31477.783
1221968.5744223036,-39983.24,-32760.906,-56305.055,-41830.324,-18634.277,-37861.086,-41241.742,-31477.703
1221968.578422301,-39989.87,-32767.824,-56305.625,-41831.95,-18637.41,-37859.66,-41241.13,-31471.965
1221968.5824222984,-39997.07,-32773.97,-56306.805,-41834.27,-18635.092,-37858.766,-41243.57,-31469.605
1221968.5864222955,-39993.57,-32771.85,-56305.707,-41835.367,-18632.568,-37859.99,-41248.008,-31481.08
1221968.590422293,-39989.83,-32774.008,-56304.28,-41835.45,-18633.912,-37861.777,-41246.176,-31482.992
1221968.59442229,-39999.637,-32786.297,-56306.074,-41837.566,-18639.12,-37861.695,-41241.293,-31469.768
1221968.5984222875,-40005.37,-32791.016,-56307.824,-41838.543,-18640.3,-37863.04,-41244.305,-31476.074
1221968.602422285,-39997.273,-32775.15,-56302.656,-41833.54,-18633.912,-37863.85,-41251.426,-31483.44
1221968.606422282,-39987.996,-32766.033,-56299.93,-41831.543,-18631.47,-37865.684,-41256.105,-31480.713
1221968.6104222795,-40000.082,-32777.793,-56303.918,-41834.92,-18637.248,-37866.863,-41253.38,-31483.236
1221968.6144222768,-40009.848,-32786.824,-56306.03,-41837.973,-18640.422,-37865.52,-41248.863,-31484.904
1221968.618422274,-40005.37,-32782.43,-56304.85,-41837.16,-18637.777,-37865.074,-41253.01,-31488.525
1221968.6224222714,-40008.668,-32781.82,-56304.77,-41837.688,-18635.01,-37864.137,-41257.855,-31491.252
1221968.6264222688,-40001.668,-32785.523,-56303.59,-41836.996,-18636.312,-37863.812,-41256.797,-31489.096
1221968.630422266,-39996.297,-32786.54,-56304.16,-41836.426,-18637.98,-37864.95,-41250.082,-31485.027
1221968.6344222634,-39994.14,-32784.87,-56303.47,-41834.35,-18635.742,-37864.95,-41243.367,-31475.059
1221968.6384222608,-39991.863,-32782.594,-56301.312,-41832.805,-18635.092,-37866.293,-41246.99,-31473.959
1221968.642422258,-39990.766,-32781.21,-56300.215,-41832.562,-18633.057,-37868.855,-41257.57,-31493.002
1221968.6464222553,-39994.266,-32782.105,-56303.957,-41834.066,-18632.977,-37870.242,-41263.184,-31499.268
1221968.6504222527,-39999.066,-32786.46,-56308.027,-41835.33,-18636.475,-37869.71,-41261.56,-31498.496
1221968.6544222499,-40007.652,-32794.35,-56312.22,-41838.016,-18639.975,-37870.16,-41261.07,-31499.064
1221968.6584222473,-40008.344,-32796.47,-56312.34,-41838.34,-18642.742,-37869.63,-41262.453,-31497.6
1221968.6624222447,-40005.74,-32797.08,-56309.816,-41837.32,-18644.572,-37868.9,-41266.48,-31497.031
1221968.6664222418,-40005.168,-32797.934,-56305.91,-41836.223,-18644.94,-37867.88,-41265.098,-31483.074
1221968.6704222392,-40004.926,-32797.12,-56304.895,-41834.758,-18644.898,-37869.71,-41261.15,-31477.336
1221968.6744222366,-40002.2,-32795.9,-56303.793,-41832.645,-18643.555,-37871.22,-41258.22,-31477.295
1221968.6784222338,-39999.84,-32793.5,-56300.824,-41829.348,-18641.521,-37871.055,-41260.297,-31480.55
1221968.6824222312,-40006.39,-32795.25,-56303.266,-41830.61,-18639.486,-37869.63,-41263.918,-31481.854
1221968.6864222286,-40015.26,-32798.18,-56308.434,-41834.8,-18642.375,-37868.41,-41267.254,-31482.992
1221968.6904222257,-40019.613,-32804.688,-56313.438,-41837.73,-18647.99,-37867.96,-41267.133,-31487.305
1221968.6944222231,-40024.902,-32812.543,-56315.35,-41838.83,-18652.588,-37866.7,-41266.766,-31501.426
1221968.6984222203,-40029.094,-32815.39,-56314.535,-41838.055,-18651.855,-37865.234,-41268.19,-31502.402
1221968.7024222177,-40023.03,-32808.27,-56310.957,-41835.695,-18648.64,-37867.676,-41271.445,-31498.861
1221968.706422215,-40010.05,-32794.92,-56305.586,-41832.97,-18643.963,-37869.914,-41274.293,-31499.92
1221968.7104222123,-40013.266,-32799.234,-56304.363,-41832.562,-18645.672,-37869.344,-41268.473,-31494.223
1221968.7144222097,-40018.23,-32808.676,-56304.16,-41833.58,-18649.455,-37868.45,-41261.8,-31488.486
1221968.718422207,-40017.17,-32807.58,-56303.062,-41832.277,-18643.434,-37867.27,-41260.254,-31484.01
1221968.7224222042,-40010.05,-32796.184,-56301.68,-41831.42,-18640.584,-37867.84,-41266.03,-31486.777
1221968.7264222016,-40006.594,-32791.18,-56303.55,-41832.848,-18643.025,-37869.305,-41270.1,-31490.52
1221968.730422199,-40015.34,-32797.69,-56307.457,-41833.984,-18645.916,-37865.97,-41263.875,-31481.73
1221968.7344221962,-40026.164,-32810.59,-56309.207,-41836.59,-18649.74,-37864.34,-41255.656,-31471.232
1221968.7384221936,-40023.03,-32813.68,-56305.22,-41837.242,-18650.066,-37864.34,-41256.473,-31472.535
1221968.742422191,-40009.562,-32808.84,-56296.023,-41834.637,-18646.81,-37863.65,-41256.918,-31467.773
1221968.7464221881,-40008.016,-32806.97,-56293.254,-41832.562,-18646.443,-37862.793,-41255.332,-31463.705
1221968.7504221855,-40013.387,-32806.4,-56293.215,-41833.05,-18646.078,-37864.87,-41250.69,-31453.613
1221968.754422183,-40006.88,-32793.742,-56293.824,-41831.137,-18640.38,-37866.742,-41249.188,-31456.543
1221968.75842218,-40004.68,-32787.152,-56293.785,-41829.996,-18639.08,-37869.305,-41253.824,-31460.734
1221968.7624221775,-40014.61,-32796.184,-56296.47,-41832.97,-18643.758,-37869.71,-41259.32,-31460.654
1221968.7664221749,-40023.766,-32806.438,-56298.504,-41835.29,-18646.81,-37867.27,-41261.883,-31462.688
1221968.770422172,-40017.58,-32804.402,-56296.55,-41834.555,-18646.12,-37867.23,-41260.62,-31466.35
1221968.7744221694,-40010.336,-32800.05,-56294.516,-41832.766,-18647.543,-37868.082,-41257.73,-31461.223
1221968.7784221668,-40010.99,-32799.316,-56291.75,-41831.586,-18647.096,-37868.207,-41261.883,-31474.162
1221968.782422164,-40016.156,-32797.895,-56292.688,-41831.95,-18642.742,-37866.58,-41263.47,-31472.494
1221968.7864221614,-40019.41,-32795.574,-56294.11,-41833.945,-18641.316,-37867.105,-41263.145,-31471.6
1221968.7904221588,-40021.12,-32800.21,-56294.07,-41833.984,-18643.475,-37867.473,-41258.914,-31479.492
1221968.794422156,-40021.402,-32798.42,-56293.5,-41833.62,-18642.293,-37867.8,-41251.383,-31474.57
1221968.7984221533,-40020.02,-32795.25,-56292.727,-41833.414,-18640.666,-37867.637,-41249.88,-31467.246
1221968.8024221505,-40026.492,-32798.83,-56294.68,-41835.574,-18640.748,-37866.984,-41254.844,-31469.932
1221968.806422148,-40033.0,-32808.88,-56297.242,-41837.242,-18644.166,-37866.742,-41257.855,-31474.691
1221968.8104221453,-40033.45,-32812.297,-56298.586,-41838.664,-18647.096,-37868.33,-41256.918,-31473.35
1221968.8144221425,-40029.664,-32809.816,-56295.695,-41836.63,-18646.12,-37869.426,-41253.38,-31467.773
1221968.8184221399,-40030.113,-32808.023,-56295.004,-41834.8,-18644.166,-37870.363,-41254.844,-31467.041
1221968.8224221373,-40032.758,-32810.02,-56295.535,-41834.88,-18643.719,-37870.81,-41259.035,-31465.7
1221968.8264221344,-40030.07,-32806.56,-56295.207,-41835.45,-18642.049,-37870.973,-41259.97,-31461.875
1221968.8304221318,-40028.035,-32803.836,-56295.047,-41835.9,-18641.236,-37869.957,-41254.965,-31459.107
1221968.8344221292,-40035.28,-32807.902,-56296.55,-41836.793,-18640.87,-37868.855,-41248.617,-31455.16
1221968.8384221264,-40034.02,-32804.242,-56296.836,-41834.555,-18638.592,-37868.816,-41249.39,-31455.893
1221968.8424221238,-40032.715,-32799.766,-56295.86,-41833.984,-18634.318,-37870.117,-41257.367,-31464.926
1221968.8464221212,-40032.105,-32803.305,-56296.918,-41835.734,-18636.963,-37869.305,-41261.477,-31470.176
1221968.8504221183,-40037.477,-32808.92,-56299.113,-41837.402,-18642.01,-37870.035,-41258.707,-31468.303
1221968.8544221157,-40039.55,-32813.76,-56298.016,-41837.363,-18645.793,-37872.355,-41255.94,-31469.158
1221968.8584221131,-40033.69,-32811.117,-56294.8,-41836.062,-18644.572,-37872.965,-41257.977,-31470.338
1221968.8624221103,-40031.25,-32809.082,-56292.277,-41835.125,-18643.678,-37871.867,-41261.11,-31466.838
1221968.8664221077,-40038.004,-32812.99,-56293.785,-41836.223,-18644.613,-37868.29,-41256.676,-31453.857
1221968.870422105,-40044.434,-32816.246,-56296.797,-41838.746,-18646.281,-37867.594,-41251.465,-31462.363
1221968.8744221022,-40046.266,-32818.44,-56298.707,-41839.438,-18647.34,-37867.676,-41248.047,-31467.123
1221968.8784220996,-40042.887,-32820.844,-56296.062,-41837.566,-18646.81,-37866.863,-41248.453,-31462.322
1221968.882422097,-40043.215,-32821.656,-56293.867,-41835.53,-18647.014,-37868.207,-41256.062,-31477.5
1221968.8864220942,-40042.848,-32819.867,-56294.152,-41836.02,-18646.363,-37870.566,-41262.9,-31484.254
1221968.8904220916,-40040.445,-32816.53,-56295.86,-41835.816,-18645.06,-37871.867,-41259.195,-31478.842
1221968.894422089,-40041.465,-32817.06,-56296.062,-41836.387,-18647.217,-37871.99,-41254.844,-31476.604
1221968.8984220861,-40046.43,-32820.152,-56295.332,-41837.81,-18645.875,-37870.402,-41250.406,-31467.652
1221968.9024220835,-40048.543,-32821.574,-56294.844,-41839.355,-18643.352,-37870.81,-41252.44,-31468.426
1221968.906422081,-40046.633,-32821.902,-56295.453,-41839.97,-18644.572,-37872.234,-41254.477,-31467.002
1221968.910422078,-40042.117,-32820.72,-56296.062,-41840.496,-18644.49,-37872.07,-41252.973,-31466.92
1221968.9144220755,-40042.074,-32822.184,-56298.06,-41840.66,-18646.688,-37872.56,-41251.59,-31468.262
1221968.9184220727,-40046.227,-32823.12,-56300.09,-41840.17,-18647.705,-37874.105,-41255.984,-31470.744
1221968.92242207,-40050.05,-32825.24,-56298.3,-41838.46,-18649.09,-37875.043,-41260.945,-31471.111
1221968.9264220675,-40047.85,-32822.51,-56294.355,-41837.85,-18648.193,-37874.31,-41260.05,-31465.129
1221968.9304220646,-40044.965,-32822.43,-56291.87,-41837.89,-18647.828,-37875.125,-41255.86,-31458.74
1221968.934422062,-40039.31,-32819.094,-56289.31,-41836.1,-18644.979,-37877.32,-41254.64,-31459.555
1221968.9384220594,-40036.867,-32816.043,-56287.76,-41833.902,-18642.742,-37879.598,-41257.69,-31462.2
1221968.9424220566,-40039.55,-32816.895,-56286.99,-41833.58,-18640.422,-37877.688,-41260.457,-31463.543
1221968.946422054,-40038.617,-32811.16,-56285.156,-41834.516,-18636.8,-37875.613,-41260.418,-31462.89
1221968.9504220514,-40034.668,-32805.42,-56285.08,-41835.004,-18635.54,-37873.984,-41254.723,-31462.281
1221968.9544220485,-40036.418,-32810.223,-56288.94,-41835.613,-18638.592,-37871.5,-41246.094,-31456.26
1221968.958422046,-40039.676,-32819.46,-56287.883,-41835.9,-18642.049,-37871.137,-41246.22,-31458.781
1221968.9624220433,-40034.02,-32817.547,-56282.594,-41834.15,-18640.016,-37875.164,-41257.285,-31480.021
1221968.9664220405,-40031.168,-32813.6,-56281.375,-41834.39,-18639.404,-37879.11,-41261.76,-31477.906
1221968.9704220379,-40029.46,-32809.734,-56280.97,-41833.336,-18638.184,-37880.168,-41258.22,-31467.041
1221968.9744220353,-40027.957,-32808.27,-56280.805,-41830.77,-18636.842,-37878.867,-41251.305,-31458.822
1221968.9784220324,-40029.137,-32808.39,-56278.688,-41829.996,-18636.068,-37877.28,-41250.855,-31466.92
1221968.9824220298,-40034.914,-32812.746,-56279.582,-41831.504,-18635.621,-37874.594,-41249.758,-31460.734
1221968.9864220272,-40037.56,-32812.01,-56282.227,-41833.008,-18632.203,-37873.902,-41248.496,-31451.58
1221968.9904220244,-40037.11,-32811.402,-56284.953,-41833.414,-18628.744,-37875.53,-41245.08,-31449.26
1221968.9944220218,-40036.01,-32808.88,-56284.26,-41832.645,-18627.482,-37877.08,-41240.926,-31446.738
1221968.9984220192,-40036.703,-32807.984,-56281.375,-41832.316,-18629.436,-37878.055,-41241.254,-31443.035
1221969.0024220163,-40043.17,-32811.65,-56278.65,-41831.95,-18632.977,-37878.297,-41245.688,-31443.97
1221969.0064220137,-40045.41,-32814.496,-56279.258,-41832.723,-18631.836,-37878.785,-41246.91,-31443.523
1221969.0104220111,-40044.516,-32814.168,-56280.684,-41831.746,-18632.488,-37878.133,-41243.004,-31446.209
1221969.0144220083,-40046.67,-32816.12,-56281.945,-41831.504,-18632.65,-37878.62,-41241.617,-31455.566
1221969.0184220057,-40049.562,-32817.63,-56284.06,-41832.234,-18632.691,-37879.883,-41242.312,-31453.94
1221969.0224220029,-40046.1,-32813.316,-56281.414,-41831.016,-18630.535,-37878.95,-41245.77,-31454.184
1221969.0264220003,-40043.5,-32808.92,-56278.363,-41830.324,-18628.256,-37876.344,-41242.188,-31448.04
1221969.0304219977,-40047.08,-32812.95,-56280.355,-41831.79,-18629.395,-37875.043,-41235.516,-31444.377
1221969.0344219948,-40056.805,-32824.26,-56283.53,-41833.7,-18634.4,-37874.43,-41232.707,-31450.236
1221969.0384219922,-40064.168,-32829.43,-56283.0,-41834.39,-18635.54,-37875.53,-41235.027,-31449.79
1221969.0424219896,-40059.734,-32822.105,-56280.152,-41831.3,-18633.26,-37877.117,-41241.05,-31447.062
1221969.0464219868,-40057.13,-32817.668,-56281.17,-41831.95,-18633.383,-37878.258,-41248.21,-31460.857
1221969.0504219842,-40053.426,-32816.0,-56280.64,-41831.504,-18632.812,-37878.5,-41245.523,-31462.037
1221969.0544219816,-40048.586,-32817.63,-56279.992,-41830.934,-18631.795,-37879.883,-41240.887,-31449.748
1221969.0584219787,-40040.12,-32811.035,-56276.043,-41828.9,-18629.598,-37881.918,-41243.45,-31455.322
1221969.0624219761,-40036.133,-32800.336,-56274.902,-41827.23,-18625.936,-37883.14,-41249.594,-31460.125
1221969.0664219735,-40040.04,-32802.695,-56277.387,-41830.08,-18627.97,-37883.63,-41253.176,-31459.84
1221969.0704219707,-40047.08,-32811.65,-56279.582,-41831.746,-18633.424,-37882.285,-41247.477,-31454.225
1221969.074421968,-40053.184,-32821.86,-56280.684,-41832.645,-18637.045,-37881.266,-41242.96,-31451.742
1221969.0784219655,-40048.504,-32817.26,-56279.38,-41832.48,-18636.8,-37881.266,-41244.875,-31455.975
1221969.0824219626,-40045.453,-32813.07,-56277.957,-41831.83,-18633.668,-37881.023,-41250.406,-31460.938
1221969.08642196,-40046.145,-32810.71,-56277.914,-41832.156,-18628.906,-37881.105,-41252.89,-31460.531
1221969.0904219574,-40044.027,-32806.03,-56277.914,-41830.566,-18625.977,-37880.902,-41245.89,-31456.787
1221969.0944219546,-40043.457,-32803.996,-56277.55,-41829.02,-18626.506,-37880.29,-41237.918,-31451.377
1221969.098421952,-40043.01,-32802.938,-56275.72,-41827.76,-18624.227,-37879.355,-41235.434,-31447.51
1221969.1024219494,-40041.75,-32801.637,-56274.66,-41828.207,-18622.885,-37880.574,-41239.586,-31449.016
1221969.1064219465,-40042.48,-32802.938,-56274.902,-41829.508,-18623.861,-37880.37,-41241.414,-31448.73
1221969.110421944,-40047.69,-32808.594,-56277.793,-41831.87,-18624.432,-37880.535,-41237.47,-31447.795
1221969.1144219413,-40051.598,-32812.785,-56278.65,-41832.316,-18623.902,-37882.082,-41235.637,-31450.725
1221969.1184219385,-40055.91,-32815.105,-56278.28,-41832.438,-18621.053,-37884.32,-41239.504,-31456.055
1221969.122421936,-40048.465,-32804.89,-56272.42,-41830.812,-18618.693,-37884.89,-41243.246,-31453.613
1221969.126421933,-40046.387,-32801.598,-56270.145,-41831.258,-18620.85,-37883.547,-41243.53,-31446.818
1221969.1304219305,-40048.992,-32804.363,-56273.277,-41832.562,-18622.967,-37881.96,-41235.68,-31441.203
1221969.1344219279,-40056.03,-32809.734,-56277.1,-41834.758,-18623.738,-37881.55,-41228.598,-31433.146
1221969.138421925,-40055.38,-32807.617,-56275.8,-41834.676,-18621.867,-37880.7,-41228.516,-31433.432
1221969.1424219224,-40050.496,-32798.625,-56274.17,-41833.21,-18619.1,-37880.535,-41233.156,-31429.404
1221969.1464219198,-40046.836,-32794.68,-56274.62,-41832.03,-18616.781,-37881.96,-41239.79,-31437.867
1221969.150421917,-40057.863,-32806.234,-56278.16,-41834.434,-18620.564,-37883.953,-41242.92,-31446.412
1221969.1544219144,-40067.832,-32813.76,-56282.434,-41836.875,-18621.99,-37885.785,-41242.88,-31454.307
1221969.1584219118,-40064.13,-32813.68,-56280.64,-41835.45,-18622.273,-37886.637,-41244.67,-31453.94
1221969.162421909,-40058.15,-32808.39,-56277.14,-41832.848,-18618.246,-37886.76,-41248.74,-31451.945
1221969.1664219063,-40053.184,-32805.543,-56274.414,-41831.95,-18616.822,-37886.027,-41247.195,-31446.697
1221969.1704219037,-40058.35,-32809.695,-56276.9,-41832.36,-18619.182,-37886.637,-41240.316,-31447.877
1221969.1744219009,-40065.473,-32813.68,-56279.543,-41833.254,-18619.832,-37886.56,-41239.098,-31452.312
1221969.1784218983,-40069.5,-32817.383,-56280.844,-41834.27,-18620.484,-37883.344,-41238.812,-31444.785
1221969.1824218957,-40070.76,-32820.68,-56282.96,-41836.1,-18620.605,-37881.715,-41245.28,-31452.027
1221969.1864218928,-40068.035,-32815.633,-56284.75,-41834.676,-18618.123,-37885.133,-41256.062,-31472.535
1221969.1904218902,-40066.812,-32814.25,-56285.44,-41833.008,-18617.27,-37888.43,-41255.94,-31468.14
1221969.1944218876,-40066.285,-32813.355,-56284.953,-41831.137,-18619.344,-37889.406,-41253.258,-31459.88
1221969.1984218848,-40065.836,-32809.246,-56283.203,-41830.16,-18616.984,-37890.465,-41253.746,-31458.213
1221969.2024218822,-40066.203,-32809.938,-56279.016,-41828.492,-18614.584,-37889.49,-41253.785,-31455.69
1221969.2064218796,-40066.367,-32811.523,-56279.22,-41827.92,-18612.02,-37888.062,-41253.5,-31452.068
1221969.2104218767,-40068.36,-32812.83,-56280.926,-41829.305,-18612.428,-37888.59,-41249.105,-31445.068
1221969.2144218741,-40071.902,-32817.223,-56282.96,-41831.3,-18616.7,-37887.656,-41244.957,-31441.691
1221969.2184218715,-40075.035,-32821.74,-56284.26,-41832.684,-18619.02,-37886.598,-41243.367,-31434.814
1221969.2224218687,-40073.57,-32820.312,-56281.945,-41832.52,-18618.855,-37886.19,-41248.047,-31441.041
1221969.226421866,-40067.63,-32816.53,-56280.316,-41831.016,-18617.799,-37886.19,-41253.543,-31446.086
1221969.2304218633,-40069.703,-32818.484,-56280.273,-41832.887,-18619.629,-37887.535,-41251.223,-31446.982
1221969.2344218607,-40069.176,-32817.344,-56279.055,-41830.77,-18619.06,-37886.72,-41242.758,-31444.459
1221969.238421858,-40066.406,-32816.285,-56276.9,-41828.777,-18618.938,-37885.01,-41237.508,-31443.727
1221969.2424218552,-40061.93,-32814.09,-56273.97,-41827.965,-18618.084,-37884.562,-41240.52,-31446.982
1221969.2464218526,-40065.31,-32817.465,-56274.133,-41829.875,-18620.117,-37884.48,-41242.88,-31439.291
1221969.25042185,-40072.67,-32826.215,-56276.652,-41831.95,-18624.92,-37885.01,-41242.434,-31439.902
1221969.2544218472,-40068.32,-32823.082,-56275.27,-41831.83,-18625.123,-37886.23,-41247.113,-31458.213
1221969.2584218446,-40056.234,-32813.68,-56269.613,-41829.266,-18623.17,-37884.766,-41249.51,-31457.275
1221969.262421842,-40057.332,-32816.652,-56265.668,-41829.508,-18625.977,-37883.668,-41253.055,-31455.527
1221969.2664218391,-40060.508,-32818.035,-56265.137,-41831.87,-18627.4,-37885.297,-41255.13,-31453.94
1221969.2704218365,-40054.688,-32813.52,-56265.75,-41830.566,-18623.7,-37884.848,-41249.96,-31450.684
1221969.274421834,-40050.496,-32813.19,-56266.24,-41829.348,-18623.943,-37885.5,-41246.22,-31451.01
1221969.278421831,-40045.656,-32810.14,-56263.836,-41826.742,-18623.047,-37883.586,-41247.316,-31448.691
1221969.2824218285,-40045.656,-32810.832,-56262.047,-41826.254,-18620.85,-37883.344,-41253.133,-31449.26
1221969.2864218259,-40052.33,-32813.477,-56262.617,-41828.53,-18620.605,-37884.195,-41257.895,-31452.963
1221969.290421823,-40057.7,-32817.465,-56265.42,-41829.875,-18624.146,-37883.668,-41253.418,-31449.3
1221969.2944218204,-40057.457,-32817.508,-56265.344,-41828.613,-18622.885,-37882.45,-41246.625,-31445.03
1221969.2984218178,-40054.77,-32815.188,-56262.86,-41826.297,-18619.06,-37880.535,-41244.547,-31439.373
1221969.302421815,-40057.984,-32815.39,-56266.24,-41828.613,-18618.408,-37880.7,-41245.2,-31433.514
1221969.3064218124,-40061.93,-32817.344,-56266.113,-41828.94,-18617.596,-37882.977,-41247.477,-31437.42
1221969.3104218098,-40058.96,-32816.895,-56265.06,-41827.395,-18617.27,-37883.18,-41240.195,-31432.293
1221969.314421807,-40055.707,-32816.043,-56264.16,-41826.336,-18616.863,-37883.22,-41234.703,-31430.543
1221969.3184218043,-40059.57,-32823.527,-56264.527,-41827.477,-18621.094,-37883.26,-41237.67,-31430.543
1221969.3224218017,-40065.51,-32830.445,-56263.062,-41828.98,-18623.494,-37880.535,-41243.98,-31437.664
1221969.326421799,-40066.938,-32827.027,-56263.266,-41828.74,-18621.338,-37881.145,-41247.76,-31444.865
1221969.3304217963,-40058.637,-32816.082,-56262.004,-41826.703,-18618.002,-37882.164,-41246.176,-31445.68
1221969.3344217935,-40053.793,-32815.88,-56260.418,-41824.504,-18616.863,-37883.586,-41243.734,-31442.22
1221969.3384217909,-40060.953,-32821.656,-56262.617,-41824.79,-18617.107,-37884.89,-41244.957,-31444.012
1221969.3424217883,-40064.984,-32823.445,-56262.656,-41824.75,-18616.414,-37885.582,-41248.74,-31442.912
1221969.3464217854,-40055.707,-32815.797,-56259.402,-41823.895,-18614.584,-37887.332,-41255.29,-31450.236
1221969.3504217828,-40052.246,-32817.14,-56257.734,-41825.035,-18617.107,-37887.332,-41253.336,-31450.236
1221969.3544217802,-40059.773,-32826.62,-56260.824,-41827.066,-18623.088,-37887.574,-41253.176,-31453.004
1221969.3584217774,-40064.414,-32830.895,-56261.07,-41826.54,-18623.943,-37887.695,-41257.49,-31458.781
1221969.3624217748,-40060.1,-32826.62,-56257.406,-41824.18,-18621.541,-37886.844,-41259.523,-31456.096
1221969.3664217722,-40056.805,-32820.926,-56256.676,-41824.098,-18619.305,-37884.81,-41255.29,-31444.621
1221969.3704217693,-40057.21,-32821.25,-56258.63,-41825.24,-18622.314,-37884.117,-41249.39,-31441.488
1221969.3744217667,-40061.973,-32824.547,-56261.477,-41825.97,-18622.111,-37883.016,-41243.938,-31431.234
1221969.3784217641,-40068.035,-32829.387,-56265.22,-41828.492,-18622.844,-37882.69,-41242.434,-31424.195
1221969.3824217613,-40068.24,-32827.312,-56263.918,-41828.37,-18622.844,-37882.652,-41245.566,-31419.842
1221969.3864217587,-40060.465,-32821.902,-56260.01,-41826.375,-18621.664,-37883.465,-41249.96,-31425.254
1221969.390421756,-40062.215,-32825.195,-56262.574,-41827.477,-18623.291,-37884.562,-41245.605,-31426.475
1221969.3944217532,-40070.355,-32833.414,-56265.06,-41829.47,-18625.447,-37883.707,-41238.73,-31425.01
1221969.3984217506,-40067.508,-32829.633,-56262.453,-41826.457,-18621.258,-37881.39,-41237.633,-31425.498
1221969.402421748,-40066.49,-32824.707,-56262.004,-41825.44,-18618.205,-37880.74,-41241.17,-31421.104
1221969.4064217452,-40067.18,-32825.4,-56263.715,-41826.375,-18617.799,-37881.88,-41246.01,-31420.898
1221969.4104217426,-40071.695,-32831.992,-56265.504,-41828.74,-18621.46,-37883.992,-41248.332,-31432.373
1221969.41442174,-40072.51,-32836.14,-56265.3,-41829.1,-18622.193,-37884.93,-41247.52,-31434.49
1221969.4184217372,-40067.098,-32828.816,-56261.11,-41825.48,-18616.781,-37885.133,-41249.023,-31440.023
1221969.4224217345,-40064.94,-32824.75,-56260.664,-41822.145,-18613.201,-37884.36,-41252.44,-31445.232
1221969.426421732,-40066.164,-32821.29,-56260.785,-41821.98,-18611.41,-37884.035,-41253.99,-31442.344
1221969.430421729,-40068.848,-32825.684,-56262.492,-41822.43,-18613.852,-37884.48,-41249.84,-31442.018
1221969.4344217265,-40070.883,-32832.438,-56262.37,-41822.836,-18616.62,-37885.5,-41244.06,-31439.373
1221969.4384217237,-40069.05,-32829.266,-56259.035,-41820.516,-18612.957,-37885.867,-41243.246,-31438.314
1221969.442421721,-40069.867,-32825.36,-56259.523,-41820.11,-18610.19,-37886.883,-41247.438,-31437.744
1221969.4464217185,-40071.453,-32823.324,-56259.562,-41820.883,-18609.945,-37887.453,-41250.855,-31438.803
1221969.4504217156,-40065.51,-32817.75,-56260.867,-41820.19,-18607.951,-37886.19,-41245.605,-31435.71
1221969.454421713,-40064.13,-32820.844,-56261.68,-41820.11,-18610.23,-37885.254,-41237.875,-31424.236
1221969.4584217104,-40067.383,-32826.62,-56258.996,-41820.355,-18611.207,-37886.355,-41238.566,-31425.01
1221969.4624217076,-40067.383,-32825.195,-56256.96,-41821.453,-18609.783,-37886.844,-41243.816,-31420.818
1221969.466421705,-40064.453,-32820.844,-56256.594,-41820.965,-18609.09,-37888.145,-41247.52,-31418.457
1221969.4704217024,-40063.844,-32819.46,-56257.773,-41820.844,-18608.846,-37887.535,-41247.52,-31426.066
1221969.4744216995,-40065.188,-32824.06,-56259.848,-41821.86,-18611.125,-37888.918,-41248.09,-31431.113
1221969.478421697,-40064.047,-32826.375,-56258.26,-41821.492,-18611.613,-37888.227,-41247.03,-31424.643
1221969.4824216943,-40057.984,-32823.367,-56256.633,-41820.64,-18610.31,-37887.047,-41249.758,-31426.23
1221969.4864216915,-40058.84,-32824.465,-56257.082,-41821.37,-18610.596,-37885.906,-41252.688,-31425.537
1221969.4904216889,-40059.49,-32824.098,-56259.562,-41822.836,-18611.531,-37886.92,-41251.59,-31424.643
1221969.4944216863,-40060.67,-32825.48,-56259.523,-41822.797,-18611.41,-37889.0,-41252.035,-31430.502
1221969.4984216834,-40057.742,-32823.445,-56256.145,-41820.883,-18610.107,-37891.24,-41255.777,-31436.076
1221969.5024216808,-40053.59,-32819.176,-56251.305,-41818.523,-18608.236,-37892.906,-41260.094,-31437.46
1221969.5064216782,-40057.535,-32823.04,-56253.137,-41819.785,-18609.54,-37891.805,-41260.742,-31438.152
1221969.5104216754,-40067.71,-32832.887,-56258.14,-41822.67,-18615.723,-37891.113,-41258.465,-31441.488
1221969.5144216728,-40066.61,-32838.094,-56256.188,-41822.51,-18618.287,-37891.727,-41258.707,-31446.982
1221969.5184216702,-40055.22,-32828.492,-56251.59,-41818.688,-18612.305,-37888.715,-41259.117,-31446.006
1221969.5224216674,-40053.55,-32818.766,-56250.285,-41817.098,-18609.498,-37888.227,-41262.492,-31443.523
1221969.5264216647,-40065.31,-32826.418,-56251.953,-41819.906,-18611.084,-37891.48,-41266.113,-31448.283
1221969.5304216621,-40067.383,-32828.207,-56253.137,-41821.37,-18611.857,-37892.703,-41261.68,-31447.592
1221969.5344216593,-40058.84,-32823.773,-56251.75,-41818.277,-18608.48,-37893.473,-41257.61,-31445.924
1221969.5384216567,-40059.246,-32825.684,-56250.977,-41816.61,-18610.19,-37894.33,-41258.953,-31442.344
1221969.542421654,-40066.57,-32831.34,-56252.28,-41818.277,-18608.113,-37893.68,-41262.37,-31436.523
1221969.5464216513,-40072.184,-32837.65,-56255.332,-41823.082,-18610.31,-37894.043,-41265.3,-31434.979
1221969.5504216487,-40072.67,-32840.375,-56257.367,-41825.887,-18615.643,-37893.19,-41261.355,-31435.02
1221969.5544216458,-40075.156,-32843.75,-56256.758,-41825.277,-18618.164,-37891.562,-41257.367,-31434.002
1221969.5584216432,-40073.73,-32840.457,-56252.93,-41822.145,-18616.902,-37891.113,-41257.164,-31428.467
1221969.5624216406,-40067.586,-32835.125,-56249.188,-41820.027,-18614.87,-37892.09,-41259.766,-31423.951
1221969.5664216378,-40065.023,-32831.34,-56247.316,-41819.54,-18612.834,-37893.027,-41260.54,-31423.584
1221969.5704216352,-40065.555,-32831.91,-56248.375,-41818.035,-18610.799,-37892.62,-41256.023,-31423.096
1221969.5744216326,-40069.336,-32833.54,-56250.367,-41817.953,-18610.107,-37891.93,-41252.28,-31421.307
1221969.5784216297,-40072.797,-32835.574,-56252.2,-41819.176,-18608.562,-37892.418,-41254.19,-31418.05
1221969.5824216271,-40075.277,-32839.438,-56254.355,-41819.742,-18609.904,-37893.312,-41265.75,-31427.084
1221969.5864216245,-40074.586,-32838.094,-56257.285,-41821.332,-18612.225,-37894.86,-41271.73,-31431.764
1221969.5904216217,-40073.285,-32835.734,-56256.797,-41821.047,-18612.225,-37894.33,-41266.36,-31433.105
1221969.594421619,-40074.953,-32837.445,-56255.82,-41820.027,-18611.775,-37893.11,-41258.383,-31431.926
1221969.5984216165,-40074.137,-32838.094,-56254.52,-41820.07,-18612.63,-37894.492,-41258.832,-31430.137
1221969.6024216136,-40069.5,-32837.363,-56251.71,-41819.664,-18610.475,-37896.2,-41261.965,-31429.932
1221969.606421611,-40069.785,-32837.73,-56250.57,-41820.76,-18608.562,-37894.86,-41260.418,-31426.922
1221969.6104216084,-40073.0,-32838.91,-56251.508,-41821.777,-18608.887,-37893.11,-41253.215,-31423.3
1221969.6144216056,-40075.684,-32839.234,-56253.258,-41822.55,-18609.416,-37893.19,-41248.863,-31422.16
1221969.618421603,-40076.215,-32835.98,-56251.996,-41821.535,-18608.033,-37892.418,-41251.75,-31424.928
1221969.6224216004,-40076.375,-32836.426,-56250.855,-41821.535,-18608.48,-37892.133,-41258.586,-31430.46
1221969.6264215976,-40075.727,-32838.22,-56250.0,-41821.332,-18609.172,-37891.113,-41262.004,-31430.543
1221969.630421595,-40074.344,-32838.094,-56249.676,-41820.844,-18610.76,-37891.316,-41260.5,-31441.0
1221969.6344215923,-40075.97,-32839.07,-56250.33,-41821.617,-18613.445,-37890.79,-41254.11,-31435.588
1221969.6384215895,-40074.42,-32840.008,-56249.39,-41821.414,-18613.566,-37890.42,-41254.883,-31436.158
1221969.642421587,-40076.66,-32840.332,-56247.887,-41820.516,-18610.434,-37891.074,-41258.586,-31433.799
1221969.6464215843,-40078.656,-32840.82,-56251.305,-41822.145,-18607.545,-37893.84,-41265.22,-31431.316
1221969.6504215815,-40079.43,-32840.945,-56255.047,-41822.47,-18605.672,-37896.28,-41263.633,-31428.875
1221969.6544215789,-40079.875,-32838.664,-56255.82,-41822.266,-18606.365,-37895.754,-41260.457,-31429.037
1221969.658421576,-40082.562,-32840.82,-56253.785,-41821.574,-18605.389,-37892.742,-41259.117,-31426.555
1221969.6624215734,-40084.92,-32842.33,-56251.953,-41822.39,-18604.533,-37891.277,-41261.027,-31424.277
1221969.6664215708,-40087.73,-32843.793,-56252.08,-41824.42,-18605.754,-37890.42,-41261.355,-31415.691
1221969.670421568,-40087.73,-32847.086,-56252.89,-41825.32,-18609.457,-37890.79,-41257.773,-31412.72
1221969.6744215654,-40090.332,-32851.848,-56253.34,-41826.54,-18610.922,-37890.383,-41251.953,-31409.75
1221969.6784215628,-40094.156,-32850.504,-56252.688,-41824.625,-18606.73,-37891.316,-41249.473,-31404.826
1221969.68242156,-40089.48,-32842.773,-56249.35,-41822.266,-18602.865,-37894.777,-41257.773,-31409.791
1221969.6864215573,-40084.11,-32839.64,-56246.137,-41822.957,-18602.05,-37898.684,-41265.22,-31415.365
1221969.6904215547,-40081.34,-32838.867,-56246.22,-41822.918,-18601.766,-37898.4,-41260.945,-31417.441
1221969.694421552,-40082.074,-32839.438,-56248.047,-41821.617,-18603.719,-37894.777,-41254.76,-31415.65
1221969.6984215493,-40079.227,-32832.156,-56250.082,-41822.145,-18601.074,-37892.906,-41254.926,-31417.725
1221969.7024215467,-40080.85,-32827.19,-56252.28,-41823.082,-18597.82,-37891.195,-41256.88,-31420.166
1221969.7064215438,-40087.484,-32833.457,-56257.164,-41824.098,-18598.43,-37891.195,-41258.992,-31423.422
1221969.7104215412,-40089.684,-32837.688,-56256.555,-41824.504,-18601.238,-37891.684,-41254.312,-31422.607
1221969.7144215386,-40082.848,-32838.258,-56252.93,-41824.18,-18602.133,-37893.883,-41253.418,-31422.363
1221969.7184215358,-40079.184,-32837.402,-56248.21,-41822.797,-18602.174,-37896.527,-41258.426,-31425.334
1221969.7224215332,-40082.766,-32840.047,-56246.22,-41823.16,-18601.562,-37896.973,-41262.047,-31426.88
1221969.7264215306,-40084.72,-32836.062,-56247.234,-41821.902,-18597.576,-37897.586,-41262.82,-31422.607
1221969.7304215278,-40089.926,-32839.113,-56253.215,-41824.465,-18600.098,-37897.91,-41258.832,-31419.434
1221969.7344215252,-40093.387,-32845.01,-56256.555,-41826.254,-18603.842,-37897.176,-41256.55,-31421.592
1221969.7384215225,-40088.094,-32841.35,-56254.03,-41824.465,-18602.54,-37896.12,-41255.535,-31420.777
1221969.7424215197,-40084.312,-32837.242,-56250.855,-41823.406,-18598.389,-37894.777,-41260.215,-31425.822
1221969.746421517,-40085.777,-32836.47,-56248.742,-41823.773,-18596.72,-37895.1,-41264.85,-31429.607
1221969.7504215145,-40088.992,-32838.582,-56248.617,-41823.49,-18599.812,-37895.996,-41263.348,-31426.555
1221969.7544215117,-40090.008,-32840.047,-56245.812,-41823.0,-18598.227,-37897.137,-41258.586,-31417.4
1221969.758421509,-40082.52,-32835.246,-56240.195,-41820.56,-18595.662,-37897.625,-41255.37,-31410.28
1221969.7624215062,-40079.918,-32834.598,-56238.77,-41818.484,-18594.89,-37898.926,-41257.855,-31409.994
1221969.7664215036,-40080.566,-32835.164,-56239.22,-41819.62,-18595.826,-37899.82,-41261.19,-31410.686
1221969.770421501,-40086.266,-32840.293,-56244.793,-41823.203,-18599.0,-37897.992,-41258.3,-31407.105
1221969.7744214982,-40091.15,-32841.15,-56246.22,-41823.773,-18598.104,-37893.92,-41252.81,-31406.535
1221969.7784214956,-40093.02,-32841.434,-56243.652,-41822.47,-18596.639,-37891.848,-41250.69,-31404.297
1221969.782421493,-40087.934,-32837.89,-56240.195,-41820.926,-18592.611,-37890.586,-41254.438,-31404.379
1221969.7864214901,-40079.55,-32830.08,-56236.613,-41819.176,-18587.973,-37891.684,-41259.117,-31408.164
1221969.7904214875,-40080.12,-32828.94,-56239.42,-41818.688,-18588.502,-37894.53,-41257.203,-31410.4
1221969.794421485,-40084.15,-32834.88,-56240.44,-41819.297,-18590.535,-37896.12,-41253.543,-31410.28
1221969.798421482,-40082.97,-32839.844,-56237.348,-41820.355,-18591.309,-37894.98,-41252.484,-31406.332
1221969.8024214795,-40081.707,-32843.996,-56235.027,-41822.47,-18594.402,-37894.086,-41255.168,-31403.158
1221969.8064214769,-40087.527,-32848.633,-56236.656,-41825.24,-18597.9,-37893.72,-41256.55,-31400.555
1221969.810421474,-40090.902,-32851.2,-56238.406,-41825.848,-18600.098,-37893.92,-41255.332,-31411.906
1221969.8144214714,-40090.945,-32851.117,-56237.023,-41824.79,-18599.53,-37892.54,-41250.125,-31414.145
1221969.8184214688,-40086.508,-32849.895,-56234.297,-41824.22,-18597.982,-37890.83,-41249.473,-31406.738
1221969.822421466,-40077.598,-32843.996,-56231.934,-41822.266,-18595.906,-37892.703,-41256.105,-31403.688
1221969.8264214634,-40078.207,-32843.426,-56232.3,-41821.25,-18596.68,-37895.184,-41264.73,-31412.72
1221969.8304214608,-40082.805,-32847.74,-56236.207,-41822.43,-18600.139,-37896.85,-41266.727,-31417.969
1221969.834421458,-40088.055,-32850.26,-56238.08,-41823.57,-18601.521,-37896.934,-41264.04,-31409.262
1221969.8384214554,-40085.938,-32850.465,-56237.023,-41823.0,-18602.498,-37895.754,-41266.766,-31408.244
1221969.8424214527,-40081.707,-32848.797,-56233.97,-41822.88,-18603.557,-37894.938,-41273.64,-31408.691
1221969.84642145,-40081.543,-32848.27,-56234.133,-41822.836,-18602.459,-37893.72,-41276.53,-31405.844
1221969.8504214473,-40078.453,-32845.133,-56234.418,-41821.13,-18598.715,-37893.516,-41272.42,-31404.826
1221969.8544214447,-40079.508,-32845.62,-56235.516,-41820.76,-18598.43,-37896.2,-41272.543,-31414.389
1221969.8584214419,-40084.8,-32851.035,-56234.703,-41820.56,-18600.342,-37898.113,-41273.723,-31409.994
1221969.8624214393,-40086.59,-32852.336,-56233.074,-41819.742,-18601.238,-37899.05,-41281.7,-31414.104
1221969.8664214364,-40086.387,-32854.086,-56233.562,-41820.926,-18600.545,-37899.617,-41291.383,-31422.445
1221969.8704214338,-40092.855,-32859.5,-56237.67,-41822.227,-18602.336,-37899.457,-41290.0,-31419.842
1221969.8744214312,-40093.305,-32861.98,-56236.94,-41821.617,-18603.598,-37898.6,-41284.75,-31416.586
1221969.8784214284,-40081.625,-32850.71,-56233.035,-41818.81,-18599.406,-37896.934,-41283.816,-31414.062
1221969.8824214258,-40082.03,-32847.82,-56231.324,-41817.02,-18596.355,-37897.016,-41287.355,-31415.568
1221969.8864214232,-40083.824,-32846.926,-56233.4,-41816.69,-18597.127,-37898.805,-41290.73,-31418.621
1221969.8904214203,-40091.105,-32852.38,-56237.55,-41817.426,-18598.389,-37899.66,-41285.89,-31414.633
1221969.8944214177,-40091.51,-32856.363,-56235.883,-41817.26,-18600.586,-37899.254,-41279.543,-31408.326
1221969.8984214151,-40078.29,-32848.797,-56229.004,-41814.82,-18599.203,-37899.78,-41279.95,-31410.156
1221969.9024214123,-40082.113,-32847.168,-56228.19,-41814.453,-18596.15,-37899.332,-41286.746,-31417.848
1221969.9064214097,-40089.195,-32851.36,-56228.844,-41815.96,-18597.576,-37898.074,-41293.215,-31425.13
1221969.910421407,-40090.21,-32852.336,-56229.902,-41816.895,-18600.342,-37898.887,-41293.906,-31427.084
1221969.9144214042,-40091.15,-32851.402,-56229.13,-41815.836,-18599.121,-37896.65,-41287.883,-31419.11
1221969.9184214016,-40088.992,-32853.68,-56227.867,-41815.758,-18598.877,-37895.348,-41283.895,-31411.703
1221969.922421399,-40087.04,-32852.824,-56225.87,-41815.066,-18595.215,-37895.02,-41283.61,-31409.588
1221969.9264213962,-40086.875,-32850.71,-56225.26,-41814.21,-18593.303,-37895.184,-41283.203,-31405.314
1221969.9304213936,-40088.785,-32850.79,-56226.24,-41815.676,-18594.686,-37896.89,-41281.09,-31401.531
1221969.934421391,-40084.434,-32846.152,-56225.914,-41815.145,-18594.197,-37899.21,-41282.758,-31415.162
1221969.9384213882,-40085.938,-32846.316,-56225.14,-41814.86,-18594.238,-37899.617,-41284.75,-31416.18
1221969.9424213856,-40091.39,-32848.797,-56224.816,-41814.656,-18595.297,-37897.91,-41285.727,-31405.559
1221969.946421383,-40094.08,-32852.215,-56224.895,-41815.918,-18596.07,-37896.12,-41288.21,-31406.576
1221969.95042138,-40093.668,-32853.152,-56223.594,-41815.555,-18597.168,-37894.98,-41285.973,-31408.773
1221969.9544213775,-40087.527,-32851.117,-56222.58,-41814.25,-18595.703,-37895.55,-41283.895,-31410.482
1221969.958421375,-40085.207,-32850.914,-56220.746,-41812.215,-18593.426,-37892.906,-41281.008,-31406.535
1221969.962421372,-40094.035,-32857.42,-56221.438,-41812.83,-18594.768,-37892.58,-41282.797,-31405.723
1221969.9664213695,-40095.746,-32853.883,-56222.047,-41813.273,-18593.588,-37895.387,-41288.21,-31414.633
1221969.9704213666,-40085.938,-32840.17,-56222.414,-41810.02,-18590.129,-37896.484,-41288.86,-31416.26
1221969.974421364,-40086.426,-32837.81,-56224.938,-41809.53,-18590.047,-37895.184,-41286.297,-31416.586
1221969.9784213614,-40091.227,-32847.086,-56226.035,-41811.77,-18593.994,-37894.734,-41287.11,-31418.498
1221969.9824213586,-40095.46,-32856.12,-56226.562,-41815.188,-18597.86,-37896.2,-41291.586,-31422.404
1221969.986421356,-40094.32,-32853.76,-56225.098,-41815.473,-18599.691,-37897.625,-41295.535,-31425.416
1221969.9904213534,-40095.01,-32854.656,-56226.727,-41816.285,-18602.05,-37897.42,-41291.63,-31422.69
1221969.9944213505,-40100.016,-32857.3,-56228.19,-41816.043,-18601.318,-37896.484,-41286.215,-31420.574
1221969.998421348,-40106.363,-32862.55,-56230.39,-41815.88,-18600.018,-37896.445,-41283.49,-31416.3
1221970.0024213453,-40108.684,-32864.258,-56230.715,-41815.758,-18597.412,-37897.625,-41286.05,-31416.383
1221970.0064213425,-40106.773,-32860.477,-56229.902,-41814.293,-18595.418,-37899.617,-41289.957,-31419.312
1221970.01042134,-40104.656,-32857.992,-56228.926,-41812.38,-18594.85,-37900.188,-41288.21,-31418.906
1221970.0144213373,-40103.965,-32859.133,-56228.68,-41812.664,-18597.697,-37899.617,-41283.45,-31414.715
1221970.0184213344,-40102.99,-32859.703,-56225.75,-41811.81,-18599.203,-37899.375,-41284.87,-31413.615
1221970.0224213318,-40101.562,-32858.44,-56222.617,-41811.16,-18595.744,-37898.926,-41287.8,-31409.791
1221970.0264213292,-40100.26,-32857.098,-56221.56,-41811.605,-18594.93,-37898.684,-41288.777,-31407.879
1221970.0304213264,-40096.03,-32854.535,-56220.34,-41810.67,-18592.652,-37896.688,-41283.977,-31405.518
1221970.0344213238,-40098.145,-32856.406,-56224.12,-41813.152,-18593.018,-37897.79,-41279.137,-31396.12
1221970.0384213212,-40100.953,-32856.49,-56224.57,-41811.77,-18591.39,-37897.91,-41280.477,-31398.643
1221970.0424213184,-40098.188,-32855.918,-56220.867,-41810.547,-18590.82,-37900.066,-41288.82,-31411.377
1221970.0464213158,-40097.74,-32855.387,-56220.46,-41810.387,-18592.0,-37900.23,-41292.277,-31413.818
1221970.0504213131,-40101.848,-32858.24,-56221.52,-41810.59,-18596.477,-37899.293,-41287.598,-31412.03
1221970.0544213103,-40100.426,-32857.91,-56220.582,-41810.184,-18597.494,-37899.984,-41285.562,-31414.023
1221970.0584213077,-40099.12,-32857.42,-56218.832,-41810.26,-18598.389,-37902.1,-41290.855,-31425.416
1221970.062421305,-40094.973,-32854.168,-56218.1,-41809.49,-18596.111,-37902.387,-41294.273,-31427.49
1221970.0664213023,-40092.0,-32851.645,-56217.285,-41809.613,-18591.635,-37900.758,-41294.11,-31425.945
1221970.0704212997,-40092.043,-32852.094,-56218.914,-41809.695,-18589.682,-37899.54,-41287.234,-31417.848
1221970.0744212968,-40099.938,-32861.043,-56221.805,-41810.387,-18593.344,-37900.35,-41284.305,-31416.627
1221970.0784212942,-40104.41,-32862.508,-56223.35,-41809.652,-18594.768,-37901.45,-41287.273,-31419.922
1221970.0824212916,-40103.395,-32860.68,-56220.38,-41809.367,-18593.873,-37901.004,-41292.277,-31420.98
1221970.0864212888,-40103.598,-32861.695,-56218.957,-41810.875,-18597.209,-37900.676,-41292.887,-31417.156
1221970.0904212862,-40106.04,-32864.707,-56222.375,-41813.805,-18600.506,-37901.492,-41290.812,-31421.348
1221970.0944212836,-40112.062,-32871.055,-56225.547,-41815.39,-18603.842,-37901.164,-41285.32,-31418.742
1221970.0984212807,-40114.42,-32872.56,-56225.953,-41815.555,-18602.133,-37901.45,-41287.56,-31420.207
1221970.1024212781,-40111.37,-32868.164,-56222.902,-41812.83,-18596.68,-37898.64,-41288.617,-31418.498
1221970.1064212755,-40110.637,-32866.17,-56220.664,-41813.316,-18596.314,-37897.83,-41286.5,-31407.838
1221970.1104212727,-40106.49,-32865.562,-56220.785,-41814.21,-18596.639,-37899.54,-41281.25,-31401.287
1221970.11442127,-40106.16,-32865.562,-56221.68,-41813.6,-18596.559,-37901.207,-41276.613,-31397.87
1221970.1184212675,-40113.566,-32867.92,-56222.293,-41813.316,-18596.15,-37899.54,-41278.16,-31402.67
1221970.1224212646,-40119.184,-32871.176,-56222.375,-41813.56,-18596.436,-37898.52,-41283.164,-31407.756
1221970.126421262,-40118.33,-32870.035,-56221.68,-41813.438,-18596.355,-37898.926,-41288.492,-31415.854
1221970.1304212594,-40108.074,-32863.2,-56218.547,-41812.83,-18596.762,-37899.7,-41286.176,-31414.674
1221970.1344212566,-40105.47,-32862.43,-56218.832,-41813.6,-18597.982,-37899.7,-41281.902,-31409.75
1221970.138421254,-40110.72,-32869.14,-56220.01,-41814.58,-18597.982,-37899.254,-41282.676,-31414.062
1221970.1424212514,-40110.758,-32869.387,-56218.914,-41813.19,-18595.947,-37899.7,-41287.68,-31414.715
1221970.1464212486,-40105.633,-32863.324,-56215.58,-41813.6,-18593.182,-37901.492,-41293.01,-31415.527
1221970.150421246,-40102.742,-32863.2,-56216.473,-41813.56,-18593.791,-37902.996,-41289.754,-31412.965
1221970.1544212434,-40102.664,-32861.777,-56214.805,-41812.297,-18591.879,-37902.71,-41282.594,-31412.762
1221970.1584212405,-40103.64,-32859.99,-56210.9,-41811.523,-18590.943,-37900.066,-41279.46,-31412.273
1221970.162421238,-40106.082,-32864.137,-56210.86,-41812.5,-18593.018,-37898.113,-41281.047,-31411.662
1221970.1664212353,-40105.227,-32862.55,-56210.29,-41813.438,-18591.676,-37897.79,-41283.246,-31410.605
1221970.1704212325,-40105.348,-32860.555,-56211.875,-41813.113,-18591.553,-37899.58,-41279.785,-31407.227
1221970.1744212299,-40109.09,-32861.734,-56214.97,-41812.46,-18591.838,-37902.67,-41278.2,-31407.064
1221970.1784212273,-40113.12,-32867.72,-56215.496,-41813.395,-18594.523,-37904.38,-41278.605,-31405.273
1221970.1824212244,-40107.465,-32864.383,-56210.613,-41811.08,-18591.879,-37902.75,-41280.355,-31396.16
1221970.1864212218,-40103.395,-32857.06,-56207.887,-41809.164,-18588.867,-37902.508,-41284.383,-31396.852
1221970.190421219,-40100.79,-32854.453,-56207.727,-41808.96,-18589.52,-37903.445,-41284.344,-31409.75
1221970.1944212164,-40099.367,-32852.785,-56210.125,-41807.82,-18588.299,-37903.402,-41279.95,-31410.605
1221970.1984212138,-40101.81,-32853.56,-56211.387,-41808.023,-18588.664,-37903.605,-41280.4,-31407.553
1221970.202421211,-40109.01,-32859.17,-56210.41,-41808.23,-18590.373,-37902.26,-41285.523,-31410.197
1221970.2064212083,-40112.793,-32864.098,-56210.086,-41811.035,-18592.488,-37903.605,-41291.504,-31417.236
1221970.2104212057,-40105.67,-32859.215,-56208.336,-41811.117,-18592.205,-37904.38,-41286.95,-31408.57
1221970.214421203,-40102.867,-32859.99,-56208.62,-41810.547,-18591.676,-37906.13,-41281.414,-31406.494
1221970.2184212003,-40110.72,-32866.09,-56211.1,-41811.402,-18593.14,-37905.926,-41280.887,-31402.629
1221970.2224211977,-40110.434,-32861.98,-56210.043,-41811.28,-18590.291,-37906.21,-41284.953,-31399.293
1221970.2264211948,-40108.035,-32858.156,-56208.58,-41810.547,-18587.605,-37906.25,-41288.25,-31401.693
1221970.2304211922,-40107.707,-32858.316,-56210.816,-41811.65,-18587.525,-37907.023,-41284.832,-31405.803
1221970.2344211896,-40115.64,-32864.992,-56215.293,-41813.03,-18591.146,-37907.35,-41281.168,-31407.756
1221970.2384211868,-40125.816,-32874.35,-56219.727,-41814.656,-18592.938,-37906.984,-41285.035,-31411.826
1221970.2424211842,-40130.496,-32878.785,-56220.5,-41815.43,-18593.994,-37906.332,-41290.69,-31414.55
1221970.2464211816,-40130.984,-32883.18,-56219.566,-41817.06,-18596.395,-37907.27,-41295.37,-31418.824
1221970.2504211788,-40121.95,-32877.973,-56217.816,-41815.473,-18596.07,-37907.39,-41292.684,-31417.156
1221970.2544211762,-40117.637,-32873.82,-56217.164,-41814.82,-18594.32,-37906.453,-41287.883,-31413.574
1221970.2584211736,-40126.18,-32880.047,-56216.27,-41816.203,-18594.361,-37904.664,-41286.99,-31411.541
1221970.2624211707,-40135.867,-32887.613,-56215.78,-41818.074,-18595.623,-37904.83,-41289.51,-31407.146
1221970.266421168,-40137.82,-32892.906,-56215.78,-41819.133,-18596.232,-37906.656,-41296.59,-31415.488
1221970.2704211655,-40134.81,-32887.74,-56218.1,-41820.273,-18595.662,-37908.938,-41297.203,-31416.79
1221970.2744211627,-40126.832,-32880.453,-56216.637,-41818.36,-18594.89,-37908.977,-41291.383,-31412.273
1221970.27842116,-40127.645,-32880.82,-56215.17,-41816.773,-18595.582,-37906.78,-41288.21,-31411.947
1221970.2824211575,-40130.29,-32879.477,-56215.375,-41818.035,-18592.367,-37908.734,-41291.18,-31412.314
1221970.2864211546,-40124.797,-32873.13,-56212.85,-41815.96,-18588.705,-37908.61,-41292.156,-31409.14
1221970.290421152,-40122.03,-32871.746,-56211.633,-41814.414,-18589.234,-37909.63,-41287.64,-31402.67
1221970.2944211492,-40121.176,-32869.1,-56209.68,-41812.297,-18587.932,-37910.77,-41280.355,-31393.88
1221970.2984211466,-40120.484,-32865.64,-56206.3,-41810.793,-18584.188,-37909.793,-41280.234,-31397.99
1221970.302421144,-40119.508,-32862.59,-56203.777,-41809.773,-18582.44,-37908.816,-41284.465,-31395.346
1221970.3064211411,-40118.57,-32862.184,-56203.29,-41809.082,-18581.137,-37909.18,-41288.94,-31402.549
1221970.3104211385,-40117.758,-32863.12,-56203.492,-41809.773,-18582.398,-37911.336,-41287.395,-31405.234
1221970.314421136,-40112.918,-32859.78,-56201.824,-41807.332,-18580.281,-37913.25,-41285.32,-31403.564
1221970.318421133,-40109.54,-32853.844,-56200.117,-41803.793,-18576.01,-37914.918,-41289.715,-31411.541
1221970.3224211305,-40113.04,-32856.49,-56201.54,-41803.836,-18575.521,-37916.22,-41297.85,-31419.76
1221970.326421128,-40112.145,-32858.562,-56200.645,-41803.67,-18574.748,-37913.656,-41300.09,-31420.777
1221970.330421125,-40105.633,-32854.695,-56198.0,-41803.47,-18574.219,-37913.21,-41296.184,-31417.4
1221970.3344211224,-40107.75,-32856.12,-56196.25,-41802.004,-18576.945,-37911.95,-41289.227,-31413.25
1221970.3384211198,-40114.383,-32860.883,-56196.574,-41803.14,-18579.346,-37909.383,-41286.38,-31411.174
1221970.342421117,-40116.984,-32861.816,-56196.453,-41804.605,-18581.463,-37908.49,-41286.867,-31409.303
1221970.3464211144,-40117.027,-32858.6,-56196.29,-41805.016,-18580.404,-37910.89,-41289.715,-31413.047
1221970.3504211118,-40113.65,-32855.875,-56197.797,-41804.934,-18579.428,-37912.598,-41286.785,-31410.523
1221970.354421109,-40112.43,-32860.637,-56198.69,-41805.176,-18581.625,-37912.965,-41281.7,-31403.525
1221970.3584211064,-40113.363,-32864.34,-56196.74,-41805.46,-18581.219,-37912.844,-41283.246,-31408.285
1221970.3624211038,-40111.29,-32859.824,-56193.08,-41804.484,-18577.027,-37911.867,-41285.156,-31405.926
1221970.366421101,-40110.35,-32854.656,-56191.69,-41804.242,-18576.172,-37910.688,-41282.105,-31396.77
1221970.3704210983,-40107.668,-32853.355,-56192.793,-41804.73,-18575.277,-37909.465,-41276.492,-31392.09
1221970.3744210957,-40109.824,-32853.965,-56196.047,-41805.746,-18579.021,-37910.973,-41275.23,-31395.06
1221970.3784210929,-40112.55,-32858.24,-56196.086,-41806.926,-18578.41,-37911.215,-41277.344,-31396.648
1221970.3824210903,-40119.875,-32864.258,-56197.633,-41808.92,-18580.975,-37909.508,-41279.83,-31390.707
1221970.3864210877,-40125.49,-32869.832,-56197.633,-41809.977,-18581.828,-37908.49,-41281.58,-31388.428
1221970.3904210848,-40120.035,-32866.457,-56197.754,-41810.547,-18580.078,-37909.793,-41278.402,-31386.963
1221970.3944210822,-40114.504,-32862.266,-56195.234,-41809.45,-18580.69,-37909.344,-41272.42,-31384.36
1221970.3984210794,-40115.6,-32862.875,-56191.938,-41808.023,-18579.387,-37907.88,-41271.445,-31384.562
1221970.4024210768,-40115.4,-32864.258,-56191.367,-41808.758,-18575.807,-37907.84,-41273.684,-31372.031
1221970.4064210742,-40114.46,-32861.33,-56191.69,-41808.23,-18573.771,-37908.043,-41279.99,-31378.135
1221970.4104210713,-40109.457,-32858.93,-56191.855,-41807.17,-18573.08,-37909.668,-41284.668,-31393.271
1221970.4144210687,-40108.36,-32859.66,-56190.51,-41805.867,-18575.236,-37910.523,-41281.293,-31394.613
1221970.4184210661,-40111.734,-32862.1,-56191.246,-41805.38,-18574.504,-37910.156,-41280.152,-31388.795
1221970.4224210633,-40113.16,-32862.223,-56189.863,-41805.83,-18572.918,-37910.24,-41285.36,-31389.04
1221970.4264210607,-40111.043,-32859.742,-56188.07,-41805.707,-18573.895,-37910.2,-41289.023,-31386.23
1221970.430421058,-40104.74,-32856.16,-56186.2,-41805.137,-18576.375,-37908.977,-41285.89,-31381.674
1221970.4344210553,-40100.832,-32856.445,-56185.996,-41803.14,-18577.434,-37909.02,-41285.156,-31386.76
1221970.4384210526,-40098.797,-32855.266,-56184.29,-41802.816,-18574.951,-37908.816,-41286.99,-31387.371
1221970.44242105,-40105.145,-32857.34,-56184.53,-41801.188,-18574.951,-37908.895,-41294.395,-31389.04
1221970.4464210472,-40111.53,-32856.73,-56187.22,-41800.78,-18573.895,-37908.285,-41298.016,-31390.219
1221970.4504210446,-40113.973,-32858.727,-56189.94,-41802.695,-18575.115,-37906.453,-41291.586,-31386.191
1221970.454421042,-40104.94,-32856.69,-56185.957,-41801.434,-18575.318,-37905.52,-41285.523,-31383.3
1221970.4584210392,-40092.164,-32847.168,-56181.277,-41798.543,-18574.504,-37906.293,-41287.56,-31381.553
1221970.4624210366,-40095.99,-32852.254,-56181.4,-41799.97,-18578.572,-37908.69,-41295.41,-31386.395
1221970.466421034,-40106.445,-32861.574,-56184.246,-41801.312,-18579.957,-37907.96,-41298.707,-31386.516
1221970.4704210311,-40107.26,-32860.883,-56188.438,-41803.508,-18578.736,-37907.758,-41295.94,-31382.285
1221970.4744210285,-40100.098,-32855.67,-56187.785,-41802.53,-18578.857,-37908.895,-41294.637,-31381.674
1221970.478421026,-40102.5,-32857.18,-56185.59,-41803.14,-18579.63,-37907.676,-41294.19,-31375.285
1221970.482421023,-40106.12,-32860.066,-56183.516,-41804.445,-18579.469,-37906.617,-41294.84,-31366.496
1221970.4864210205,-40106.85,-32860.027,-56181.277,-41804.566,-18577.922,-37906.496,-41296.67,-31374.146
1221970.4904210179,-40110.19,-32865.684,-56181.723,-41804.242,-18582.44,-37907.227,-41297.977,-31386.598
1221970.494421015,-40108.727,-32870.73,-56179.65,-41802.938,-18586.955,-37906.902,-41296.633,-31389.61
1221970.4984210124,-40111.453,-32872.926,-56178.633,-41801.555,-18588.42,-37906.984,-41298.055,-31387.127
1221970.5024210096,-40115.277,-32870.73,-56179.65,-41800.09,-18584.84,-37906.453,-41300.824,-31388.592
1221970.506421007,-40116.945,-32868.57,-56181.316,-41801.516,-18584.148,-37905.438,-41298.586,-31376.22
1221970.5104210044,-40117.066,-32870.484,-56183.72,-41802.86,-18585.084,-37908.367,-41300.824,-31393.799
1221970.5144210015,-40121.543,-32875.734,-56183.96,-41802.246,-18587.932,-37908.49,-41303.062,-31408.691
1221970.518420999,-40126.26,-32878.746,-56184.125,-41802.004,-18587.117,-37908.406,-41303.754,-31407.92
1221970.5224209963,-40125.285,-32878.867,-56185.1,-41801.395,-18584.229,-37909.02,-41304.402,-31402.223
1221970.5264209935,-40117.594,-32872.234,-56184.777,-41800.17,-18583.822,-37911.05,-41306.234,-31399.74
1221970.530420991,-40120.81,-32875.53,-56185.793,-41800.58,-18587.078,-37909.18,-41299.52,-31393.148
1221970.5344209883,-40125.203,-32878.418,-56185.875,-41801.312,-18587.729,-37908.12,-41290.082,-31384.97
1221970.5384209855,-40123.008,-32877.645,-56183.39,-41799.48,-18586.02,-37907.676,-41287.598,-31383.953
1221970.5424209828,-40121.95,-32879.76,-56181.48,-41799.48,-18587.158,-37908.61,-41292.887,-31381.268
1221970.5464209802,-40129.07,-32886.355,-56185.754,-41802.004,-18588.176,-37910.645,-41298.992,-31383.506
1221970.5504209774,-40128.418,-32878.01,-56187.543,-41800.78,-18583.863,-37910.562,-41298.668,-31386.271
1221970.5544209748,-40119.59,-32868.367,-56186.934,-41798.34,-18580.363,-37909.305,-41296.227,-31387.207
1221970.5584209722,-40123.09,-32874.797,-56186.566,-41798.465,-18581.096,-37908.45,-41297.406,-31386.883
1221970.5624209694,-40131.51,-32881.715,-56186.81,-41799.6,-18581.828,-37908.49,-41300.54,-31384.238
1221970.5664209668,-40125.164,-32869.14,-56183.312,-41797.65,-18578.125,-37908.12,-41300.7,-31380.656
1221970.5704209642,-40121.137,-32862.59,-56180.91,-41795.695,-18577.637,-37908.203,-41293.742,-31372.764
1221970.5744209613,-40124.758,-32865.684,-56181.074,-41795.37,-18577.312,-37907.35,-41287.883,-31373.943
1221970.5784209587,-40123.453,-32866.54,-56180.258,-41795.004,-18576.701,-37906.535,-41287.598,-31373.332
1221970.582420956,-40118.043,-32863.527,-56178.348,-41794.395,-18577.719,-37904.703,-41288.492,-31363.934
1221970.5864209533,-40114.34,-32861.33,-56174.6,-41792.44,-18577.719,-37905.6,-41293.094,-31366.863
1221970.5904209507,-40112.266,-32860.066,-56174.074,-41791.63,-18575.277,-37908.0,-41293.17,-31375.693
1221970.594420948,-40117.594,-32864.746,-56175.418,-41792.848,-18574.422,-37908.082,-41288.82,-31374.96
1221970.5984209452,-40123.863,-32868.207,-56177.816,-41793.582,-18574.178,-37907.797,-41288.98,-31376.303
1221970.6024209426,-40123.047,-32865.36,-56177.86,-41793.785,-18573.08,-37907.39,-41294.07,-31382.08
1221970.6064209398,-40112.996,-32858.316,-56174.562,-41791.586,-18571.9,-37908.57,-41297.08,-31384.807
1221970.6104209372,-40109.375,-32855.51,-56175.824,-41792.645,-18572.633,-37909.383,-41293.375,-31381.918
1221970.6144209346,-40116.293,-32863.324,-56177.86,-41794.027,-18576.05,-37906.453,-41283.734,-31370.77
1221970.6184209317,-40126.26,-32873.008,-56175.78,-41795.125,-18578.045,-37904.38,-41279.746,-31360.434
1221970.6224209291,-40120.523,-32865.805,-56171.957,-41792.48,-18572.957,-37905.355,-41284.02,-31363.486
1221970.6264209265,-40110.066,-32852.945,-56168.62,-41789.594,-18568.562,-37907.676,-41289.43,-31369.223
1221970.6304209237,-40107.016,-32851.48,-56168.457,-41788.414,-18567.586,-37909.465,-41286.785,-31369.955
1221970.634420921,-40117.027,-32860.15,-56173.26,-41788.902,-18568.727,-37911.01,-41282.43,-31371.543
1221970.6384209185,-40131.31,-32871.094,-56177.86,-41790.812,-18568.93,-37909.02,-41280.76,-31368.084
1221970.6424209157,-40138.754,-32875.406,-56178.062,-41793.375,-18568.156,-37907.188,-41281.047,-31366.008
1221970.646420913,-40133.016,-32876.305,-56173.87,-41794.516,-18570.027,-37906.047,-41280.355,-31363.934
1221970.6504209104,-40124.066,-32871.785,-56171.387,-41793.094,-18572.307,-37908.816,-41280.56,-31365.44
1221970.6544209076,-40120.28,-32871.746,-56170.086,-41792.117,-18577.027,-37910.484,-41281.902,-31368.572
1221970.658420905,-40129.883,-32878.094,-56172.242,-41793.5,-18579.59,-37909.996,-41284.668,-31369.629
1221970.6624209024,-40138.59,-32878.95,-56174.523,-41795.656,-18578.248,-37909.02,-41290.12,-31371.705
1221970.6664208996,-40133.707,-32872.195,-56173.707,-41794.92,-18576.092,-37909.098,-41294.516,-31372.031
1221970.670420897,-40132.406,-32872.76,-56174.727,-41794.19,-18576.945,-37912.438,-41297.977,-31379.639
1221970.6744208944,-40136.965,-32876.75,-56178.996,-41794.19,-18579.021,-37917.117,-41301.555,-31383.424
1221970.6784208915,-40145.875,-32882.04,-56180.625,-41793.785,-18578.98,-37921.023,-41308.39,-31393.027
1221970.682420889,-40154.83,-32885.99,-56183.027,-41796.754,-18578.654,-37919.883,-41310.832,-31398.357
1221970.6864208863,-40154.867,-32883.63,-56182.414,-41797.65,-18577.23,-37917.645,-41309.043,-31394.94
1221970.6904208835,-40142.05,-32878.62,-56179.895,-41796.918,-18578.451,-37917.4,-41301.92,-31387.207
1221970.6944208809,-40142.254,-32880.617,-56181.848,-41797.69,-18580.69,-37916.06,-41295.453,-31382.121
1221970.6984208783,-40151.773,-32887.332,-56183.105,-41797.65,-18582.234,-37912.76,-41293.824,-31379.273
1221970.7024208754,-40148.277,-32887.74,-56181.36,-41798.586,-18585.857,-37914.105,-41301.23,-31386.557
1221970.7064208728,-40142.78,-32880.74,-56179.77,-41798.79,-18586.14,-37917.48,-41309.652,-31393.799
1221970.71042087,-40147.992,-32883.465,-56181.684,-41798.953,-18585.896,-37919.92,-41308.35,-31386.76
1221970.7144208674,-40150.473,-32885.945,-56181.848,-41798.3,-18585.408,-37921.47,-41304.934,-31383.3
1221970.7184208648,-40143.473,-32878.664,-56175.824,-41795.816,-18582.602,-37922.203,-41305.46,-31391.033
1221970.722420862,-40134.074,-32869.344,-56172.69,-41793.703,-18577.8,-37922.445,-41308.758,-31395.102
1221970.7264208593,-40132.61,-32869.63,-56168.906,-41792.074,-18579.143,-37922.69,-41310.71,-31395.387
1221970.7304208567,-40125.977,-32866.375,-56167.89,-41791.22,-18578.654,-37924.316,-41308.96,-31394.451
1221970.734420854,-40128.906,-32869.547,-56170.74,-41791.42,-18577.963,-37922.324,-41304.402,-31392.254
1221970.7384208513,-40139.812,-32876.87,-56171.387,-41793.863,-18578.29,-37917.156,-41301.15,-31388.307
1221970.7424208487,-40147.055,-32881.96,-56172.977,-41795.98,-18580.16,-37914.51,-41300.54,-31380.535
1221970.7464208459,-40137.695,-32874.715,-56171.387,-41795.777,-18576.863,-37915.203,-41302.043,-31389.201
1221970.7504208433,-40128.543,-32867.188,-56168.01,-41794.516,-18573.61,-37915.652,-41296.184,-31389.201
1221970.7544208406,-40126.996,-32864.87,-56165.938,-41792.156,-18571.98,-37916.06,-41289.715,-31378.662
1221970.7584208378,-40129.76,-32866.254,-56165.406,-41791.22,-18570.436,-37916.42,-41291.344,-31375.488
1221970.7624208352,-40129.438,-32863.242,-56162.598,-41789.348,-18566.732,-37917.074,-41295.004,-31375.938
1221970.7664208326,-40129.844,-32861.168,-56162.477,-41789.676,-18565.838,-37919.637,-41297.363,-31373.17
1221970.7704208298,-40130.74,-32862.02,-56160.93,-41789.062,-18567.547,-37919.883,-41294.312,-31371.094
1221970.7744208272,-40128.62,-32858.766,-56160.973,-41788.25,-18567.303,-37916.91,-41288.902,-31371.826
1221970.7784208246,-40129.477,-32861.734,-56160.688,-41788.086,-18567.424,-37913.13,-41284.953,-31369.67
1221970.7824208217,-40135.867,-32868.125,-56161.46,-41790.324,-18569.012,-37912.64,-41287.234,-31370.605
1221970.7864208191,-40137.332,-32870.32,-56161.785,-41791.22,-18567.059,-37913.453,-41289.105,-31370.605
1221970.7904208165,-40138.062,-32866.617,-56163.21,-41791.465,-18565.553,-37915.527,-41288.7,-31373.943
1221970.7944208137,-40138.023,-32864.34,-56163.7,-41789.918,-18565.023,-37918.17,-41289.023,-31379.273
1221970.798420811,-40128.664,-32862.836,-56158.043,-41787.56,-18566.406,-37920.29,-41293.785,-31384.033
1221970.8024208085,-40127.035,-32866.09,-56155.926,-41787.56,-18568.768,-37921.715,-41302.41,-31390.057
1221970.8064208056,-40133.707,-32871.46,-56157.715,-41788.414,-18570.436,-37922.61,-41306.844,-31396.201
1221970.810420803,-40133.914,-32866.902,-56159.547,-41788.29,-18570.191,-37924.277,-41305.34,-31392.09
1221970.8144208004,-40124.84,-32856.69,-56158.69,-41786.215,-18567.22,-37925.66,-41301.23,-31388.145
1221970.8184207976,-40122.52,-32853.027,-56156.78,-41784.914,-18564.291,-37923.504,-41301.11,-31390.057
1221970.822420795,-40129.965,-32860.27,-56156.984,-41786.785,-18567.139,-37922.203,-41302.125,-31387.207
1221970.8264207921,-40133.547,-32864.016,-56159.1,-41788.37,-18569.295,-37922.527,-41302.164,-31383.18
1221970.8304207895,-40127.24,-32859.5,-56157.676,-41787.273,-18568.156,-37922.812,-41298.586,-31383.83
1221970.834420787,-40127.117,-32857.547,-56158.0,-41785.645,-18567.22,-37921.715,-41292.48,-31374.473
1221970.838420784,-40134.24,-32865.074,-56158.938,-41787.312,-18567.75,-37921.918,-41294.598,-31382.244
1221970.8424207815,-40135.17,-32863.688,-56158.49,-41788.21,-18567.627,-37923.87,-41302.777,-31399.252
1221970.846420779,-40132.57,-32860.066,-56158.41,-41788.82,-18565.838,-37922.73,-41302.734,-31394.736
1221970.850420776,-40129.965,-32860.68,-56155.56,-41789.227,-18567.059,-37920.453,-41293.254,-31382.406
1221970.8544207735,-40123.58,-32856.49,-56151.777,-41786.95,-18565.633,-37920.613,-41284.63,-31370.81
1221970.8584207708,-40121.46,-32855.957,-56148.316,-41783.652,-18564.291,-37918.05,-41279.582,-31360.148
1221970.862420768,-40126.793,-32860.8,-56149.375,-41784.223,-18563.6,-37915.49,-41279.785,-31357.178
1221970.8664207654,-40135.945,-32863.04,-56154.297,-41786.867,-18562.867,-37914.43,-41281.13,-31356.283
1221970.8704207628,-40133.22,-32859.457,-56155.4,-41785.89,-18562.42,-37914.47,-41280.234,-31354.98
1221970.87442076,-40126.1,-32858.848,-56153.527,-41784.223,-18562.744,-37917.074,-41282.43,-31361.328
1221970.8784207574,-40123.78,-32859.742,-56152.426,-41784.344,-18560.506,-37919.273,-41289.43,-31368.896
1221970.8824207548,-40130.25,-32864.383,-56153.73,-41784.914,-18558.39,-37920.29,-41296.59,-31376.873
1221970.886420752,-40133.75,-32864.42,-56155.805,-41786.867,-18557.496,-37921.793,-41301.8,-31383.383
1221970.8904207493,-40127.89,-32855.797,-56155.844,-41785.2,-18553.914,-37922.566,-41299.234,-31383.668
1221970.8944207467,-40125.855,-32857.3,-56154.504,-41784.586,-18556.111,-37922.65,-41293.375,-31379.844
1221970.8984207439,-40128.215,-32861.125,-56152.67,-41785.402,-18557.373,-37920.574,-41290.49,-31375.977
1221970.9024207413,-40130.902,-32860.598,-56152.387,-41785.93,-18555.34,-37919.477,-41290.527,-31370.605
1221970.9064207387,-40129.312,-32855.918,-56152.02,-41786.95,-18551.84,-37917.035,-41289.676,-31365.805
1221970.9104207358,-40126.87,-32855.31,-56150.15,-41785.727,-18552.531,-37915.773,-41282.35,-31362.957
1221970.9144207332,-40124.88,-32853.8,-56147.992,-41784.832,-18553.59,-37916.586,-41275.555,-31360.8
1221970.9184207306,-40125.406,-32858.24,-56146.65,-41784.75,-18555.95,-37917.117,-41274.78,-31355.307
1221970.9224207278,-40125.773,-32857.465,-56144.656,-41782.797,-18556.072,-37917.727,-41279.746,-31358.033
1221970.9264207252,-40127.566,-32856.0,-56145.836,-41785.035,-18557.984,-37920.004,-41287.883,-31366.537
1221970.9304207223,-40133.465,-32861.086,-56148.03,-41788.7,-18560.588,-37922.527,-41286.46,-31366.13
1221970.9344207197,-40135.5,-32861.94,-56150.066,-41788.82,-18559.53,-37924.887,-41286.094,-31371.379
1221970.9384207171,-40132.977,-32858.113,-56150.96,-41787.883,-18556.396,-37924.684,-41283.816,-31359.62
1221970.9424207143,-40137.777,-32861.086,-56152.062,-41787.355,-18554.607,-37923.098,-41287.723,-31356.895
1221970.9464207117,-40137.37,-32861.9,-56152.305,-41788.086,-18555.055,-37924.36,-41295.33,-31377.523
1221970.950420709,-40142.375,-32868.9,-56154.625,-41789.43,-18558.432,-37924.316,-41296.754,-31385.824
1221970.9544207063,-40150.31,-32874.797,-56157.27,-41789.676,-18561.361,-37925.05,-41295.535,-31383.22
1221970.9584207037,-40150.105,-32872.273,-56158.285,-41788.74,-18560.467,-37926.72,-41298.992,-31382.812
1221970.962420701,-40141.277,-32864.137,-56155.76,-41787.273,-18555.908,-37927.53,-41305.22,-31387.736
1221970.9664206982,-40136.598,-32857.42,-56155.355,-41787.355,-18552.613,-37928.71,-41307.293,-31387.248
1221970.9704206956,-40144.33,-32864.83,-56159.71,-41789.43,-18555.379,-37929.445,-41303.67,-31380.291
1221970.974420693,-40152.63,-32870.65,-56162.477,-41789.633,-18556.275,-37927.613,-41298.625,-31378.053
1221970.9784206902,-40151.695,-32869.63,-56161.543,-41788.86,-18556.64,-37927.004,-41300.863,-31384.156
1221970.9824206876,-40147.504,-32867.96,-56156.863,-41787.883,-18557.82,-37927.9,-41306.316,-31386.557
1221970.986420685,-40146.77,-32869.67,-56154.42,-41789.633,-18560.182,-37927.207,-41308.31,-31383.506
1221970.9904206821,-40150.31,-32874.188,-56154.95,-41789.797,-18561.443,-37926.473,-41304.117,-31382.732
1221970.9944206795,-40151.855,-32876.59,-56155.844,-41789.227,-18560.182,-37927.246,-41302.086,-31385.254
1221970.998420677,-40146.934,-32870.523,-56152.754,-41785.848,-18555.584,-37926.473,-41302.492,-31385.662
1221971.002420674,-40145.145,-32867.96,-56151.695,-41784.02,-18553.346,-37926.8,-41304.117,-31381.268
1221971.0064206715,-40146.363,-32871.664,-56152.426,-41786.01,-18556.031,-37926.312,-41307.535,-31384.766
1221971.0104206689,-40149.17,-32875.203,-56153.973,-41788.492,-18558.676,-37925.375,-41303.59,-31384.93
1221971.014420666,-40145.875,-32876.547,-56152.344,-41788.574,-18559.979,-37924.848,-41296.023,-31377.809
1221971.0184206634,-40140.465,-32871.34,-56148.926,-41787.477,-18557.984,-37921.754,-41291.06,-31369.67
1221971.0224206608,-40137.613,-32866.05,-56148.195,-41786.38,-18553.67,-37918.785,-41292.523,-31370.484
1221971.026420658,-40149.414,-32874.758,-56152.02,-41789.43,-18553.875,-37917.156,-41293.54,-31370.322
1221971.0304206554,-40160.117,-32883.75,-56156.332,-41793.17,-18557.943,-37916.016,-41287.477,-31359.336
1221971.0344206525,-40151.45,-32875.734,-56152.223,-41791.098,-18556.316,-37916.42,-41285.562,-31355.957
1221971.03842065,-40141.156,-32868.367,-56148.562,-41787.965,-18555.828,-37916.91,-41291.586,-31362.102
1221971.0424206473,-40137.9,-32867.516,-56146.895,-41787.56,-18555.176,-37916.91,-41300.293,-31374.268
1221971.0464206445,-40145.836,-32876.14,-56147.46,-41790.04,-18558.188,-37915.934,-41302.86,-31367.066
1221971.050420642,-40146.527,-32877.035,-56146.61,-41790.203,-18562.297,-37914.676,-41299.723,-31365.52
1221971.0544206393,-40140.91,-32872.4,-56143.76,-41789.797,-18563.396,-37916.504,-41297.363,-31366.049
1221971.0584206365,-40140.625,-32869.832,-56144.41,-41788.98,-18563.111,-37917.93,-41301.92,-31371.746
1221971.0624206339,-40148.195,-32876.426,-56145.062,-41789.633,-18561.646,-37918.906,-41307.21,-31373.74
1221971.0664206313,-40152.223,-32879.03,-56145.633,-41790.812,-18562.176,-37918.66,-41313.316,-31377.605
1221971.0704206284,-40148.6,-32877.24,-56146.445,-41789.594,-18561.564,-37920.98,-41313.03,-31379.273
1221971.0744206258,-40143.758,-32874.84,-56144.574,-41787.598,-18560.059,-37921.145,-41309.45,-31374.676
1221971.0784206232,-40143.312,-32873.496,-56143.555,-41785.36,-18557.7,-37919.92,-41308.92,-31374.229
1221971.0824206204,-40146.2,-32874.84,-56142.62,-41784.465,-18557.088,-37920.047,-41310.71,-31374.146
1221971.0864206178,-40147.625,-32878.133,-56142.297,-41786.785,-18558.797,-37919.883,-41311.727,-31372.967
1221971.0904206152,-40145.348,-32875.613,-56142.5,-41787.273,-18559.611,-37918.05,-41306.07,-31368.49
1221971.0944206123,-40143.395,-32874.51,-56144.125,-41786.38,-18559.367,-37916.26,-41300.945,-31365.805
1221971.0984206097,-40144.125,-32876.953,-56142.01,-41786.336,-18557.902,-37914.88,-41299.44,-31361.654
1221971.102420607,-40145.305,-32878.46,-56140.625,-41786.46,-18559.367,-37914.43,-41302.246,-31359.213
1221971.1064206043,-40151.043,-32883.3,-56141.6,-41787.8,-18561.361,-37912.844,-41303.184,-31354.045
1221971.1104206017,-40155.438,-32881.797,-56144.492,-41787.965,-18559.246,-37912.152,-41297.28,-31354.248
1221971.114420599,-40153.24,-32879.68,-56146.363,-41786.785,-18557.74,-37912.516,-41292.605,-31351.482
1221971.1184205962,-40153.28,-32881.105,-56142.945,-41785.36,-18556.764,-37914.188,-41292.117,-31347.617
1221971.1224205936,-40154.625,-32881.594,-56139.977,-41784.71,-18556.275,-37915.082,-41296.51,-31345.338
1221971.126420591,-40151.734,-32878.824,-56138.31,-41784.305,-18556.396,-37915.203,-41300.54,-31349.65
1221971.1304205882,-40152.996,-32878.258,-56137.168,-41783.53,-18555.46,-37914.062,-41296.55,-31349.0
1221971.1344205856,-40155.56,-32878.906,-56138.55,-41783.652,-18556.396,-37912.598,-41291.91,-31345.215
1221971.1384205827,-40149.375,-32870.85,-56135.254,-41782.31,-18553.955,-37911.746,-41296.062,-31344.564
1221971.1424205801,-40144.086,-32866.457,-56132.367,-41780.113,-18550.496,-37913.453,-41304.973,-31350.994
1221971.1464205775,-40148.6,-32869.996,-56132.61,-41780.68,-18549.805,-37914.594,-41308.31,-31352.133
1221971.1504205747,-40151.45,-32874.023,-56132.285,-41783.773,-18554.852,-37916.547,-41306.438,-31354.086
1221971.154420572,-40151.45,-32875.0,-56130.94,-41782.555,-18555.543,-37916.18,-41301.637,-31352.988
1221971.1584205695,-40148.277,-32870.484,-56128.215,-41780.113,-18553.59,-37915.12,-41298.055,-31343.547
1221971.1624205667,-40145.793,-32868.367,-56126.793,-41779.867,-18551.514,-37914.918,-41302.86,-31344.523
1221971.166420564,-40149.863,-32871.746,-56128.95,-41783.164,-18551.96,-37915.082,-41306.355,-31345.297
1221971.1704205615,-40155.316,-32874.637,-56131.51,-41783.938,-18555.135,-37914.105,-41306.03,-31359.295
1221971.1744205586,-40157.43,-32876.426,-56133.914,-41783.082,-18557.984,-37915.285,-41306.844,-31365.723
1221971.178420556,-40160.36,-32876.71,-56134.605,-41782.918,-18560.262,-37913.777,-41307.047,-31362.834
1221971.1824205534,-40163.086,-32881.227,-56135.54,-41784.344,-18563.314,-37914.39,-41309.164,-31360.068
1221971.1864205506,-40162.64,-32880.13,-56135.176,-41784.383,-18562.988,-37914.715,-41306.805,-31352.012
1221971.190420548,-40156.7,-32876.305,-56134.074,-41783.69,-18560.14,-37914.39,-41300.336,-31349.977
1221971.1944205454,-40156.94,-32876.996,-56134.727,-41784.26,-18556.682,-37913.98,-41294.8,-31345.5
1221971.1984205425,-40160.36,-32877.973,-56135.176,-41783.69,-18554.77,-37913.29,-41294.11,-31344.89
1221971.20242054,-40160.36,-32880.617,-56134.93,-41784.02,-18555.584,-37912.395,-41300.945,-31351.074
1221971.2064205373,-40164.105,-32886.23,-56136.64,-41786.46,-18558.514,-37913.13,-41308.72,-31355.55
1221971.2104205345,-40166.465,-32887.125,-56137.574,-41786.258,-18559.693,-37913.047,-41306.438,-31354.045
1221971.2144205319,-40165.324,-32886.23,-56136.152,-41784.508,-18560.182,-37912.68,-41302.652,-31352.621
1221971.2184205293,-40163.902,-32883.504,-56132.367,-41782.715,-18559.938,-37914.47,-41301.516,-31349.65
1221971.2224205264,-40159.832,-32879.11,-56128.258,-41781.984,-18557.576,-37916.22,-41304.605,-31348.959
1221971.2264205238,-40159.87,-32878.297,-56128.543,-41782.105,-18556.967,-37916.79,-41305.34,-31348.186
1221971.2304205212,-40163.492,-32880.332,-56131.066,-41782.473,-18557.7,-37916.87,-41299.805,-31343.223
1221971.2344205184,-40169.883,-32884.727,-56134.688,-41784.14,-18558.025,-37917.156,-41296.062,-31341.229
1221971.2384205158,-40174.805,-32888.957,-56138.348,-41785.156,-18557.17,-37917.44,-41298.586,-31346.64
1221971.242420513,-40172.406,-32884.81,-56137.13,-41784.508,-18555.176,-37918.17,-41306.64,-31353.924
1221971.2464205103,-40170.37,-32882.69,-56136.76,-41784.305,-18555.787,-37918.703,-41312.418,-31354.777
1221971.2504205077,-40167.4,-32877.605,-56137.74,-41783.938,-18557.293,-37917.523,-41311.605,-31355.754
1221971.254420505,-40166.586,-32874.88,-56137.453,-41784.305,-18556.396,-37918.582,-41309.652,-31360.557
1221971.2584205023,-40169.56,-32877.645,-56136.152,-41782.105,-18554.852,-37917.848,-41307.293,-31352.377
1221971.2624204997,-40171.55,-32876.953,-56136.07,-41781.293,-18552.816,-37919.883,-41310.305,-31349.53
1221971.2664204969,-40171.184,-32874.84,-56135.824,-41781.332,-18550.375,-37923.746,-41317.02,-31359.904
1221971.2704204943,-40167.074,-32874.594,-56134.484,-41780.64,-18551.066,-37925.78,-41319.824,-31371.338
1221971.2744204917,-40167.81,-32877.77,-56134.93,-41780.52,-18553.426,-37927.53,-41319.95,-31372.438
1221971.2784204888,-40171.59,-32879.926,-56137.332,-41781.902,-18553.63,-37927.816,-41319.867,-31367.637
1221971.2824204862,-40174.156,-32881.188,-56137.574,-41782.918,-18552.41,-37925.457,-41322.31,-31365.113
1221971.2864204836,-40173.543,-32880.902,-56137.535,-41784.508,-18553.508,-37922.324,-41319.418,-31356.65
1221971.2904204808,-40173.18,-32880.453,-56138.184,-41785.605,-18553.426,-37921.305,-41309.9,-31352.58
1221971.2944204782,-40171.47,-32877.688,-56138.062,-41782.88,-18551.19,-37921.957,-41303.63,-31351.889
1221971.2984204756,-40171.875,-32876.1,-56138.55,-41781.008,-18550.213,-37924.03,-41305.707,-31346.436
1221971.3024204727,-40174.766,-32876.63,-56138.88,-41780.4,-18549.236,-37927.86,-41314.984,-31359.66
1221971.3064204701,-40176.883,-32880.82,-56138.184,-41779.5,-18550.457,-37931.97,-41321.574,-31365.764
1221971.3104204675,-40171.59,-32879.477,-56136.312,-41778.85,-18550.578,-37931.6,-41317.71,-31361.572
1221971.3144204647,-40166.3,-32873.78,-56135.95,-41777.996,-18549.44,-37928.062,-41309.043,-31357.016
1221971.318420462,-40169.72,-32874.594,-56135.62,-41777.547,-18548.463,-37924.723,-41302.41,-31352.54
1221971.3224204595,-40173.383,-32877.973,-56135.094,-41777.47,-18548.422,-37922.0,-41301.312,-31347.412
1221971.3264204566,-40173.87,-32881.55,-56133.87,-41777.832,-18549.48,-37921.633,-41302.53,-31346.885
1221971.330420454,-40176.516,-32885.824,-56135.05,-41778.566,-18551.107,-37923.137,-41300.17,-31344.646
1221971.3344204514,-40175.78,-32879.11,-56136.027,-41776.98,-18548.787,-37924.887,-41300.008,-31349.041
1221971.3384204486,-40173.42,-32873.414,-56135.46,-41774.984,-18546.102,-37926.883,-41305.707,-31354.9
1221971.342420446,-40179.08,-32879.273,-56137.695,-41775.27,-18545.37,-37928.71,-41317.02,-31363.852
1221971.3464204432,-40185.02,-32882.203,-56139.324,-41775.066,-18546.672,-37930.664,-41321.25,-31368.205
1221971.3504204405,-40186.93,-32883.992,-56140.79,-41776.695,-18548.625,-37930.582,-41316.69,-31367.27
1221971.354420438,-40186.605,-32884.48,-56141.93,-41776.98,-18548.707,-37927.695,-41312.867,-31368.164
1221971.358420435,-40189.453,-32886.312,-56140.625,-41777.71,-18548.178,-37924.93,-41310.26,-31359.904
1221971.3624204325,-40184.207,-32883.707,-56135.62,-41777.02,-18546.63,-37923.83,-41312.055,-31360.84
1221971.36642043,-40175.984,-32877.645,-56130.74,-41776.9,-18546.102,-37922.977,-41309.977,-31360.719
1221971.370420427,-40172.363,-32875.652,-56131.715,-41777.14,-18547.486,-37923.83,-41305.625,-31356.934
1221971.3744204245,-40179.2,-32880.94,-56134.562,-41776.41,-18547.445,-37925.418,-41301.395,-31354.777
1221971.3784204219,-40185.465,-32886.72,-56136.598,-41776.043,-18545.98,-37926.188,-41304.73,-31357.951
1221971.382420419,-40188.316,-32883.344,-56137.047,-41775.88,-18544.88,-37927.695,-41311.81,-31358.928
1221971.3864204164,-40187.215,-32885.05,-56137.207,-41777.508,-18546.266,-37927.086,-41313.477,-31356.242
1221971.3904204138,-40183.39,-32886.395,-56134.605,-41778.523,-18551.31,-37925.7,-41308.92,-31354.615
1221971.394420411,-40186.605,-32890.87,-56134.645,-41780.234,-18556.56,-37924.03,-41301.27,-31353.395
1221971.3984204084,-40189.37,-32890.75,-56133.87,-41780.926,-18555.584,-37923.383,-41297.49,-31350.098
1221971.4024204058,-40185.344,-32883.832,-56131.676,-41780.07,-18551.19,-37922.406,-41297.49,-31346.07
1221971.406420403,-40181.64,-32876.305,-56131.594,-41778.605,-18545.818,-37919.965,-41293.906,-31335.613
1221971.4104204003,-40187.258,-32880.984,-56136.355,-41780.76,-18548.055,-37919.883,-41288.617,-31334.31
1221971.4144203977,-40192.914,-32885.66,-56139.16,-41781.78,-18548.748,-37920.695,-41285.117,-31336.264
1221971.4184203949,-40192.547,-32883.098,-56138.594,-41779.746,-18546.184,-37923.83,-41289.227,-31338.867
1221971.4224203923,-40198.242,-32886.395,-56137.777,-41780.844,-18545.898,-37926.188,-41297.812,-31340.7
1221971.4264203897,-40202.395,-32890.3,-56138.39,-41782.594,-18547.04,-37928.184,-41304.402,-31341.758
1221971.4304203868,-40199.016,-32888.633,-56138.594,-41782.066,-18547.527,-37927.98,-41302.86,-31346.64
1221971.4344203842,-40195.438,-32887.613,-56138.594,-41780.805,-18547.771,-37927.41,-41301.434,-31352.295
1221971.4384203816,-40192.06,-32885.38,-56136.56,-41778.605,-18547.04,-37925.824,-41302.492,-31350.953
1221971.4424203788,-40189.984,-32881.105,-56134.24,-41776.98,-18542.725,-37925.496,-41306.234,-31352.703
1221971.4464203762,-40189.414,-32875.652,-56132.652,-41775.027,-18537.8,-37925.62,-41306.4,-31351.035
1221971.4504203734,-40189.37,-32872.195,-56131.594,-41773.723,-18536.215,-37923.87,-41299.52,-31346.6
1221971.4544203707,-40188.52,-32871.543,-56133.18,-41773.355,-18535.727,-37922.445,-41292.36,-31339.56
1221971.4584203681,-40192.344,-32876.953,-56135.703,-41775.72,-18537.273,-37923.137,-41294.516,-31343.303
1221971.4624203653,-40193.688,-32877.688,-56136.395,-41775.84,-18536.418,-37923.383,-41300.78,-31347.129
1221971.4664203627,-40198.12,-32879.8,-56136.883,-41776.285,-18535.035,-37924.03,-41303.348,-31343.629
1221971.47042036,-40197.062,-32876.344,-56133.953,-41773.562,-18533.773,-37926.92,-41305.137,-31346.355
1221971.4744203573,-40196.086,-32874.43,-56133.996,-41772.137,-18535.115,-37930.867,-41308.637,-31350.139
1221971.4784203547,-40194.95,-32875.45,-56132.082,-41770.426,-18535.604,-37929.73,-41306.887,-31339.56
1221971.482420352,-40194.582,-32874.105,-56130.37,-41770.957,-18533.57,-37927.734,-41305.992,-31338.135
1221971.4864203492,-40195.07,-32871.95,-56130.09,-41772.34,-18532.553,-37928.426,-41308.15,-31350.627
1221971.4904203466,-40195.844,-32874.066,-56131.555,-41773.48,-18533.285,-37929.402,-41302.9,-31353.395
1221971.494420344,-40196.777,-32877.848,-56133.26,-41774.17,-18535.645,-37929.363,-41297.65,-31346.68
1221971.4984203412,-40199.06,-32878.785,-56133.098,-41775.188,-18535.848,-37927.207,-41295.207,-31343.059
1221971.5024203386,-40198.73,-32876.14,-56131.105,-41774.945,-18534.791,-37925.133,-41293.418,-31339.56
1221971.506420336,-40193.484,-32870.85,-56127.81,-41773.64,-18532.43,-37921.43,-41286.99,-31323.73
1221971.5104203331,-40190.39,-32869.06,-56126.14,-41774.008,-18534.303,-37919.68,-41280.56,-31315.268
1221971.5144203305,-40186.81,-32865.277,-56126.508,-41772.746,-18532.674,-37919.965,-41279.91,-31319.824
1221971.518420328,-40187.01,-32864.258,-56126.547,-41771.28,-18529.094,-37918.785,-41280.965,-31323.527
1221971.522420325,-40189.902,-32865.887,-56128.5,-41773.355,-18529.297,-37922.203,-41288.29,-31332.684
1221971.5264203225,-40191.57,-32869.71,-56128.99,-41774.414,-18531.006,-37925.906,-41292.81,-31331.137
1221971.5304203199,-40195.395,-32876.63,-56130.414,-41776.285,-18534.303,-37933.51,-41294.637,-31333.416
1221971.534420317,-40195.926,-32879.395,-56129.52,-41775.797,-18536.947,-37939.414,-41297.08,-31334.514
1221971.5384203144,-40193.117,-32878.867,-56126.71,-41775.027,-18536.744,-37940.51,-41299.48,-31334.352
1221971.5424203118,-40192.75,-32879.598,-56126.184,-41776.613,-18535.809,-37939.09,-41299.766,-31331.463
1221971.546420309,-40197.43,-32884.277,-56127.08,-41778.32,-18535.32,-37936.77,-41296.59,-31323.242
1221971.5504203064,-40205.08,-32889.85,-56129.234,-41779.664,-18534.791,-37938.03,-41292.766,-31321.453
1221971.5544203038,-40206.46,-32887.41,-56129.316,-41777.832,-18533.082,-37941.164,-41293.01,-31323.61
1221971.558420301,-40198.49,-32878.46,-56127.16,-41775.35,-18530.518,-37942.508,-41296.875,-31327.8
1221971.5624202983,-40194.906,-32873.453,-56124.188,-41774.254,-18528.688,-37940.105,-41296.062,-31327.068
1221971.5664202955,-40199.586,-32878.785,-56123.617,-41775.555,-18530.273,-37937.582,-41292.074,-31325.766
1221971.570420293,-40202.72,-32883.79,-56122.887,-41777.184,-18534.832,-37935.67,-41286.38,-31325.645
1221971.5744202903,-40200.523,-32887.207,-56121.176,-41777.223,-18538.494,-37935.875,-41283.203,-31324.219
1221971.5784202875,-40204.508,-32893.27,-56121.176,-41777.223,-18540.691,-37937.582,-41288.94,-31333.578
1221971.5824202849,-40212.242,-32897.22,-56124.35,-41777.67,-18539.389,-37939.902,-41297.406,-31342.082
1221971.5864202823,-40216.39,-32896.04,-56128.785,-41779.297,-18537.762,-37942.223,-41304.812,-31343.344
1221971.5904202794,-40218.914,-32898.03,-56133.098,-41780.477,-18536.865,-37944.54,-41303.02,-31342.652
1221971.5944202768,-40218.26,-32898.152,-56134.523,-41779.625,-18535.035,-37941.977,-41296.633,-31335.816
1221971.5984202742,-40215.21,-32897.992,-56132.69,-41779.137,-18534.709,-37940.633,-41296.266,-31336.346
1221971.6024202714,-40212.65,-32897.707,-56127.77,-41777.63,-18535.848,-37941.406,-41301.027,-31335.246
1221971.6064202688,-40207.97,-32891.48,-56121.95,-41775.555,-18535.32,-37943.81,-41306.723,-31339.56
1221971.6104202662,-40203.695,-32887.613,-56119.67,-41774.863,-18532.512,-37944.824,-41304.117,-31337.363
1221971.6144202633,-40204.55,-32889.08,-56119.957,-41774.58,-18533.203,-37943.277,-41299.074,-31333.049
1221971.6184202607,-40207.887,-32891.805,-56120.28,-41773.97,-18532.918,-37942.71,-41300.54,-31342.002
1221971.6224202581,-40211.02,-32892.742,-56119.875,-41774.332,-18531.738,-37942.465,-41301.84,-31336.508
1221971.6264202553,-40210.125,-32891.113,-56120.605,-41775.676,-18531.82,-37942.953,-41302.86,-31340.537
1221971.6304202527,-40208.008,-32891.52,-56120.527,-41776.367,-18533.367,-37941.938,-41296.875,-31334.514
1221971.63442025,-40209.598,-32895.55,-56122.113,-41776.734,-18532.35,-37940.348,-41288.94,-31324.83
1221971.6384202472,-40208.62,-32890.055,-56121.504,-41774.375,-18528.768,-37937.258,-41283.816,-31325.766
1221971.6424202446,-40211.996,-32887.74,-56121.38,-41774.984,-18527.264,-37934.33,-41280.19,-31318.564
1221971.646420242,-40212.04,-32890.26,-56121.46,-41775.758,-18527.629,-37934.207,-41279.95,-31312.95
1221971.6504202392,-40206.87,-32891.93,-56120.04,-41775.72,-18528.688,-37935.547,-41279.785,-31313.844
1221971.6544202366,-40205.04,-32892.008,-56120.242,-41774.09,-18526.775,-37935.832,-41277.996,-31315.43
1221971.658420234,-40205.203,-32886.637,-56120.28,-41773.562,-18522.828,-37934.773,-41278.08,-31313.232
1221971.6624202312,-40207.195,-32884.766,-56119.957,-41773.926,-18519.94,-37935.26,-41282.39,-31313.232
1221971.6664202285,-40205.12,-32882.12,-56119.426,-41772.91,-18518.922,-37936.77,-41288.004,-31316.162
1221971.6704202257,-40203.74,-32881.797,-56118.53,-41773.277,-18520.264,-37938.438,-41288.535,-31318.28
1221971.674420223,-40206.95,-32885.01,-56118.938,-41774.414,-18521.281,-37941.0,-41287.8,-31319.256
1221971.6784202205,-40203.777,-32884.605,-56117.473,-41772.664,-18519.94,-37940.227,-41286.582,-31315.918
1221971.6824202177,-40205.566,-32888.836,-56116.336,-41773.766,-18519.654,-37940.145,-41292.36,-31317.791
1221971.686420215,-40205.934,-32887.37,-56117.516,-41775.516,-18519.775,-37941.61,-41300.906,-31332.154
1221971.6904202125,-40206.18,-32890.42,-56119.062,-41776.492,-18523.396,-37940.43,-41298.3,-31332.56
1221971.6944202096,-40210.652,-32894.656,-56121.504,-41777.508,-18527.588,-37937.95,-41290.773,-31322.674
1221971.698420207,-40212.85,-32896.28,-56124.31,-41778.65,-18527.508,-37934.816,-41288.29,-31321.574
1221971.7024202044,-40211.71,-32896.89,-56124.84,-41778.934,-18526.408,-37933.594,-41292.523,-31323.324
1221971.7064202016,-40210.938,-32895.508,-56123.254,-41779.42,-18524.822,-37934.043,-41295.492,-31324.79
1221971.710420199,-40210.652,-32895.387,-56121.746,-41779.094,-18526.326,-37935.426,-41295.168,-31332.887
1221971.7144201964,-40206.258,-32892.336,-56117.188,-41776.938,-18525.025,-37935.59,-41293.094,-31327.88
1221971.7184201935,-40200.074,-32892.58,-56112.793,-41774.375,-18525.025,-37936.566,-41295.004,-31322.674
1221971.722420191,-40199.668,-32890.625,-56111.94,-41773.438,-18524.414,-37936.32,-41301.35,-31322.266
1221971.7264201883,-40202.92,-32895.426,-56112.145,-41775.555,-18524.617,-37937.582,-41305.992,-31322.795
1221971.7304201855,-40197.633,-32891.4,-56112.836,-41775.473,-18523.64,-37936.484,-41303.836,-31316.895
1221971.7344201829,-40198.445,-32892.293,-56113.527,-41775.39,-18523.926,-37933.92,-41299.113,-31312.541
1221971.7384201803,-40201.863,-32892.05,-56113.445,-41774.82,-18521.322,-37933.105,-41300.008,-31313.232
1221971.7424201774,-40198.406,-32889.773,-56110.07,-41772.098,-18518.393,-37932.13,-41305.055,-31310.1
1221971.7464201748,-40196.086,-32888.754,-56109.215,-41772.34,-18517.213,-37931.684,-41313.19,-31312.95
1221971.7504201722,-40193.074,-32890.586,-56108.727,-41772.34,-18518.84,-37930.543,-41312.906,-31315.47
1221971.7544201694,-40190.43,-32889.773,-56108.156,-41772.707,-18519.734,-37930.176,-41308.434,-31312.256
1221971.7584201668,-40188.477,-32887.82,-56107.016,-41771.934,-18518.148,-37929.934,-41306.6,-31310.182
1221971.7624201642,-40193.36,-32890.707,-56107.87,-41772.867,-18519.207,-37929.934,-41309.695,-31311.117
1221971.7664201614,-40200.074,-32892.984,-56110.56,-41774.05,-18521.24,-37931.97,-41314.293,-31313.762
1221971.7704201587,-40208.09,-32899.457,-56114.543,-41775.594,-18525.92,-37934.367,-41316.285,-31321.086
1221971.774420156,-40214.03,-32906.168,-56114.098,-41777.914,-18527.873,-37933.023,-41311.32,-31314.82
1221971.7784201533,-40214.316,-32905.723,-56109.62,-41777.14,-18527.467,-37929.77,-41308.15,-31315.797
1221971.7824201507,-40206.668,-32899.21,-56105.31,-41774.008,-18527.264,-37929.566,-41311.523,-31320.03
1221971.7864201479,-40201.375,-32893.758,-56104.74,-41771.934,-18526.367,-37929.812,-41314.414,-31321.371
1221971.7904201453,-40200.48,-32893.758,-56104.82,-41771.812,-18526.531,-37930.625,-41312.01,-31319.012
1221971.7944201427,-40204.715,-32898.113,-56105.51,-41771.934,-18527.791,-37931.195,-41307.902,-31318.115
1221971.7984201398,-40211.63,-32903.523,-56106.61,-41772.22,-18527.791,-37931.805,-41308.35,-31319.703
1221971.8024201372,-40216.15,-32903.89,-56107.668,-41772.42,-18524.822,-37931.07,-41311.81,-31314.78
1221971.8064201346,-40220.906,-32906.21,-56110.516,-41776.652,-18526.652,-37930.094,-41309.246,-31299.928
1221971.8104201318,-40217.082,-32902.914,-56111.29,-41777.914,-18528.932,-37929.363,-41304.117,-31292.074
1221971.8144201292,-40210.492,-32897.176,-56108.645,-41776.41,-18528.809,-37929.973,-41306.234,-31314.006
1221971.8184201266,-40216.797,-32902.67,-56108.887,-41776.57,-18528.2,-37927.816,-41301.637,-31304.729
1221971.8224201237,-40223.43,-32906.535,-56110.516,-41775.88,-18526.367,-37927.492,-41302.652,-31305.705
1221971.8264201211,-40225.914,-32907.88,-56111.125,-41776.57,-18525.229,-37929.566,-41306.355,-31309.408
1221971.8304201185,-40224.773,-32906.535,-56114.016,-41778.402,-18526.979,-37932.902,-41304.89,-31309.123
1221971.8344201157,-40224.895,-32908.33,-56117.188,-41779.99,-18529.012,-37933.188,-41300.418,-31304.363
1221971.838420113,-40228.56,-32911.38,-56117.23,-41779.83,-18529.176,-37933.23,-41302.695,-31313.438
1221971.8424201105,-40227.5,-32909.914,-56115.156,-41778.89,-18527.955,-37932.09,-41307.21,-31314.453
1221971.8464201076,-40228.312,-32909.996,-56115.074,-41779.258,-18528.729,-37932.293,-41312.906,-31324.748
1221971.850420105,-40234.375,-32919.68,-56115.6,-41781.13,-18533.488,-37932.21,-41308.555,-31321.127
1221971.8544201024,-40236.695,-32920.086,-56114.34,-41779.867,-18533.814,-37931.56,-41302.734,-31315.553
1221971.8584200996,-40233.645,-32909.223,-56111.94,-41776.246,-18527.67,-37931.56,-41302.53,-31312.012
1221971.862420097,-40228.844,-32902.305,-56110.68,-41776.082,-18526.246,-37933.676,-41304.934,-31307.74
1221971.8664200944,-40229.41,-32904.91,-56111.695,-41776.855,-18526.855,-37934.125,-41306.438,-31313.559
1221971.8704200916,-40227.094,-32904.746,-56112.062,-41775.516,-18524.373,-37933.23,-41300.906,-31313.64
1221971.874420089,-40223.27,-32901.004,-56112.1,-41773.152,-18523.316,-37933.797,-41297.28,-31313.111
1221971.878420086,-40228.8,-32901.492,-56112.59,-41772.83,-18521.281,-37933.72,-41298.91,-31316.814
1221971.8824200835,-40234.09,-32901.695,-56114.258,-41773.277,-18520.672,-37932.617,-41300.66,-31316.773
1221971.886420081,-40239.016,-32903.605,-56115.684,-41774.78,-18522.299,-37931.48,-41300.945,-31315.227
1221971.890420078,-40241.375,-32908.977,-56116.254,-41775.96,-18526.611,-37930.91,-41295.613,-31307.129
1221971.8944200755,-40238.527,-32907.758,-56114.137,-41774.945,-18526.082,-37932.293,-41290.242,-31301.555
1221971.8984200729,-40231.242,-32903.688,-56110.027,-41772.746,-18523.031,-37933.797,-41289.633,-31302.166
1221971.90242007,-40228.72,-32904.137,-56107.992,-41772.137,-18523.072,-37933.92,-41293.703,-31306.805
1221971.9064200674,-40227.336,-32900.96,-56106.445,-41770.426,-18520.752,-37934.9,-41296.59,-31302.979
1221971.9104200648,-40224.812,-32897.22,-56107.344,-41770.184,-18520.71,-37934.367,-41292.887,-31297.73
1221971.914420062,-40223.676,-32897.38,-56107.586,-41771.402,-18522.34,-37933.51,-41289.31,-31304.81
1221971.9184200594,-40228.23,-32903.08,-56107.465,-41772.46,-18522.014,-37931.355,-41288.535,-31305.664
1221971.9224200568,-40230.754,-32905.03,-56106.04,-41772.95,-18523.805,-37930.79,-41292.684,-31302.166
1221971.926420054,-40230.062,-32904.01,-56106.04,-41772.016,-18523.602,-37930.95,-41293.375,-31299.316
1221971.9304200513,-40233.6,-32908.285,-56107.707,-41772.586,-18524.496,-37930.094,-41287.516,-31297.08
1221971.9344200487,-40235.11,-32909.344,-56108.887,-41772.055,-18525.594,-37929.445,-41279.99,-31289.389
1221971.938420046,-40234.5,-32906.7,-56107.344,-41771.12,-18525.27,-37932.09,-41282.715,-31295.127
1221971.9424200433,-40226.2,-32897.625,-56102.785,-41769.246,-18520.02,-37933.473,-41288.94,-31301.719
1221971.9464200407,-40220.703,-32891.4,-56099.734,-41768.434,-18516.398,-37935.26,-41294.434,-31303.467
1221971.9504200378,-40228.027,-32899.58,-56102.746,-41771.324,-18521.078,-37935.344,-41293.863,-31304.484
1221971.9544200352,-40237.875,-32909.508,-56108.32,-41774.254,-18526.043,-37935.547,-41290.12,-31303.06
1221971.9584200326,-40239.22,-32910.2,-56108.24,-41773.562,-18525.799,-37933.92,-41288.414,-31300.945
1221971.9624200298,-40236.574,-32907.188,-56107.26,-41771.402,-18519.979,-37930.42,-41289.51,-31303.793
1221971.9664200272,-40234.62,-32903.85,-56106.977,-41770.71,-18520.02,-37929.934,-41289.715,-31303.467
1221971.9704200246,-40231.49,-32900.473,-56104.98,-41770.184,-18520.996,-37928.348,-41285.688,-31305.87
1221971.9744200218,-40233.316,-32902.996,-56103.027,-41770.59,-18523.234,-37927.574,-41280.68,-31304.566
1221971.9784200191,-40236.98,-32906.78,-56100.547,-41769.938,-18522.95,-37927.613,-41277.914,-31302.775
1221971.9824200163,-40236.29,-32908.33,-56099.246,-41769.656,-18522.137,-37928.387,-41280.56,-31302.531
1221971.9864200137,-40238.242,-32908.57,-56100.71,-41771.73,-18520.916,-37929.89,-41285.156,-31301.758
1221971.990420011,-40243.57,-32911.54,-56102.95,-41772.504,-18521.404,-37929.605,-41283.652,-31301.352
1221971.9944200083,-40250.45,-32917.766,-56107.26,-41773.113,-18523.926,-37930.582,-41281.09,-31302.125
1221971.9984200057,-40247.926,-32915.367,-56104.21,-41771.12,-18522.42,-37931.277,-41280.6,-31301.922
1221972.002420003,-40241.742,-32909.465,-56099.61,-41768.883,-18519.654,-37932.09,-41281.008,-31295.94
1221972.0064200002,-40240.52,-32906.13,-56098.066,-41768.27,-18520.264,-37930.992,-41282.594,-31294.8
1221972.0104199976,-40243.855,-32909.508,-56100.547,-41770.875,-18522.908,-37931.4,-41280.4,-31301.107
1221972.014419995,-40248.293,-32912.234,-56102.176,-41772.016,-18523.967,-37929.527,-41272.707,-31293.986
1221972.0184199922,-40248.58,-32909.383,-56102.297,-41771.484,-18522.705,-37927.41,-41267.78,-31282.594
1221972.0224199896,-40248.78,-32910.688,-56102.867,-41771.85,-18523.031,-37926.312,-41271.65,-31281.738
1221972.026419987,-40250.49,-32912.723,-56103.965,-41773.195,-18523.52,-37929.445,-41278.934,-31287.518
1221972.0304199841,-40250.53,-32912.883,-56104.98,-41772.098,-18524.09,-37931.844,-41280.477,-31296.875
1221972.0344199815,-40251.668,-32912.598,-56103.152,-41770.59,-18524.617,-37932.58,-41281.168,-31301.922
1221972.038419979,-40251.832,-32913.777,-56101.605,-41770.1,-18522.38,-37933.92,-41287.395,-31305.705
1221972.042419976,-40252.645,-32914.594,-56100.223,-41770.508,-18521.893,-37935.465,-41295.816,-31312.46
1221972.0464199735,-40253.785,-32914.715,-56098.188,-41769.938,-18522.543,-37934.816,-41297.0,-31309.693
1221972.0504199709,-40258.14,-32918.254,-56099.49,-41770.47,-18525.758,-37934.246,-41292.81,-31306.56
1221972.054419968,-40258.14,-32917.887,-56100.02,-41771.402,-18525.879,-37933.84,-41288.29,-31305.99
1221972.0584199654,-40250.57,-32908.773,-56096.844,-41769.004,-18521.525,-37932.254,-41286.38,-31305.664
1221972.0624199628,-40252.28,-32908.895,-56097.375,-41770.47,-18521.2,-37930.992,-41288.168,-31303.752
1221972.06641996,-40261.273,-32913.86,-56102.176,-41772.91,-18521.607,-37930.79,-41288.13,-31300.66
1221972.0704199574,-40268.15,-32915.895,-56106.203,-41774.254,-18521.729,-37930.176,-41283.855,-31298.707
1221972.0744199548,-40265.992,-32912.844,-56108.81,-41773.684,-18520.59,-37933.066,-41284.426,-31303.834
1221972.078419952,-40259.645,-32908.69,-56105.023,-41770.67,-18517.498,-37933.92,-41286.906,-31304.607
1221972.0824199494,-40255.984,-32909.305,-56100.426,-41770.223,-18517.904,-37935.305,-41288.7,-31296.062
1221972.0864199465,-40257.812,-32910.645,-56097.984,-41769.492,-18516.398,-37935.547,-41288.37,-31297.648
1221972.090419944,-40262.41,-32914.188,-56096.965,-41770.02,-18518.23,-37934.734,-41282.918,-31296.143
1221972.0944199413,-40260.906,-32910.44,-56095.258,-41770.59,-18519.531,-37933.434,-41278.445,-31295.371
1221972.0984199385,-40258.3,-32905.03,-56094.117,-41768.8,-18517.863,-37931.03,-41276.33,-31292.562
1221972.1024199359,-40263.754,-32907.51,-56094.605,-41769.29,-18517.537,-37929.812,-41277.184,-31289.43
1221972.1064199333,-40269.86,-32911.867,-56096.355,-41770.754,-18517.66,-37929.04,-41277.832,-31292.604
1221972.1104199304,-40270.223,-32913.21,-56096.07,-41771.16,-18518.963,-37928.348,-41272.664,-31286.133
1221972.1144199278,-40262.777,-32908.895,-56095.055,-41769.29,-18517.213,-37928.793,-41269.777,-31284.385
1221972.1184199252,-40254.68,-32902.02,-56091.96,-41766.44,-18512.33,-37929.73,-41270.836,-31292.725
1221972.1224199224,-40255.902,-32900.555,-56090.332,-41765.42,-18509.115,-37929.324,-41273.316,-31287.11
1221972.1264199198,-40262.207,-32905.68,-56091.758,-41767.336,-18511.19,-37931.07,-41277.63,-31288.127
1221972.1304199172,-40261.8,-32907.555,-56092.652,-41769.37,-18513.021,-37932.742,-41277.914,-31292.441
1221972.1344199143,-40262.656,-32906.902,-56092.41,-41771.688,-18515.504,-37931.355,-41275.88,-31290.812
1221972.1384199117,-40267.66,-32908.406,-56091.39,-41771.16,-18515.91,-37929.85,-41275.35,-31286.338
1221972.1424199091,-40269.816,-32909.305,-56091.594,-41770.508,-18513.428,-37932.008,-41280.4,-31291.79
1221972.1464199063,-40271.973,-32909.71,-56093.223,-41771.12,-18512.492,-37934.0,-41285.484,-31296.592
1221972.1504199037,-40266.6,-32907.594,-56094.89,-41770.875,-18512.248,-37935.387,-41284.586,-31300.701
1221972.154419901,-40268.27,-32909.18,-56096.56,-41770.55,-18512.492,-37934.043,-41278.32,-31294.922
1221972.1584198982,-40271.2,-32909.547,-56095.137,-41769.086,-18511.639,-37933.066,-41276.734,-31292.889
1221972.1624198956,-40272.258,-32910.645,-56095.01,-41768.395,-18512.004,-37933.637,-41280.965,-31296.592
1221972.166419893,-40276.816,-32915.04,-56097.453,-41770.875,-18515.26,-37936.605,-41286.867,-31299.113
1221972.1704198902,-40277.387,-32915.12,-56097.168,-41771.16,-18516.725,-37938.273,-41287.76,-31302.37
1221972.1744198876,-40273.277,-32913.94,-56097.293,-41771.527,-18514.852,-37938.723,-41284.465,-31298.545
1221972.178419885,-40275.27,-32914.836,-56097.984,-41771.08,-18515.34,-37938.68,-41284.996,-31299.195
1221972.1824198822,-40280.6,-32917.44,-56097.047,-41771.445,-18515.545,-37938.68,-41288.004,-31307.617
1221972.1864198796,-40282.023,-32914.43,-56095.625,-41771.402,-18514.04,-37938.6,-41285.44,-31299.521
1221972.190419877,-40277.793,-32909.465,-56094.28,-41770.266,-18510.906,-37938.52,-41280.6,-31295.94
1221972.194419874,-40276.652,-32908.406,-56094.16,-41768.84,-18510.824,-37938.64,-41277.914,-31299.684
