timestamp,Fp1,Fp2,F3,Fz,F4,Cz,Pz,Oz
969654.5110968829,-86968.14,-71797.734,-2695.8008,8378.459,-53074.586,21562.217,-10616.293,-49507.812
969654.5150968794,-86965.01,-71796.71,-2696.6147,8373.535,-53073.0,21559.979,-10617.92,-49506.51
969654.5190968761,-86972.21,-71800.17,-2699.2595,8324.707,-53091.39,21543.906,-10621.989,-49524.984
969654.5230968728,-86960.086,-71787.11,-2708.6997,8274.089,-53089.03,21532.715,-10616.903,-49520.875
969654.5270968694,-86971.195,-71795.33,-2709.5134,8299.643,-53088.137,21541.342,-10614.421,-49518.965
969654.5310968661,-86987.23,-71808.84,-2701.7822,8362.712,-53085.246,21564.902,-10607.341,-49521.12
969654.5350968627,-86963.79,-71793.22,-2697.103,8378.256,-53071.004,21561.768,-10611.613,-49519.37
969654.5390968594,-86971.195,-71799.12,-2707.601,8332.235,-53086.996,21548.748,-10615.275,-49529.34
969654.5430968561,-86976.85,-71799.52,-2727.0508,8270.224,-53096.56,21537.436,-10616.74,-49522.543
969654.5470968527,-86971.48,-71796.23,-2715.6982,8305.746,-53084.758,21543.336,-10619.06,-49521.85
969654.5510968494,-86967.05,-71799.6,-2702.108,8385.946,-53076.906,21555.258,-10618.53,-49526.57
969654.5550968461,-86975.95,-71798.055,-2705.9734,8398.845,-53083.336,21556.031,-10586.182,-49519.004
969654.5590968427,-86973.11,-71795.29,-2707.2754,8351.685,-53095.543,21541.26,-10539.511,-49520.1
969654.5630968394,-86967.66,-71791.266,-2710.205,8298.259,-53090.17,21533.326,-10525.146,-49515.137
969654.5670968359,-86971.805,-71793.375,-2711.67,8319.336,-53074.383,21542.645,-10516.846,-49515.547
969654.5710968326,-86974.33,-71799.195,-2705.9734,8392.782,-53068.973,21562.541,-10505.941,-49518.477
969654.5750968293,-86977.586,-71802.984,-2713.379,8389.608,-53073.73,21567.506,-10505.615,-49517.906
969654.5790968259,-86966.92,-71795.695,-2706.1768,8334.961,-53071.74,21544.15,-10514.16,-49517.17
969654.5830968226,-86964.69,-71792.69,-2712.443,8283.244,-53084.676,21533.855,-10511.557,-49510.336
969654.5870968193,-86964.12,-71791.016,-2714.4775,8310.629,-53071.086,21543.906,-10507.895,-49510.867
969654.5910968159,-86970.87,-71797.33,-2709.31,8376.384,-53061.605,21561.402,-10501.262,-49508.426
969654.5950968126,-86976.69,-71805.914,-2699.992,8383.139,-53069.258,21553.955,-10521.078,-49526.207
969654.5990968093,-86959.59,-71793.984,-2698.12,8335.083,-53081.137,21538.168,-10526.652,-49514.812
969654.6030968059,-86964.27,-71792.766,-2713.0942,8300.009,-53088.3,21533.977,-10523.804,-49515.18
969654.6070968026,-86950.85,-71781.945,-2710.1238,8336.548,-53064.25,21540.04,-10528.483,-49516.562
969654.6110967991,-86952.27,-71782.31,-2701.538,8405.803,-53048.26,21556.234,-10527.507,-49518.11
969654.6150967958,-86957.195,-71788.21,-2703.41,8403.646,-53059.492,21556.64,-10529.989,-49521.527
969654.6190967925,-86970.055,-71798.586,-2705.526,8329.224,-53085.164,21543.783,-10534.302,-49524.008
969654.6230967891,-86965.45,-71793.984,-2714.315,8294.067,-53089.234,21535.035,-10533.569,-49517.703
969654.6270967858,-86956.71,-71791.75,-2714.3962,8329.59,-53074.383,21543.295,-10529.663,-49509.36
969654.6310967825,-86963.95,-71799.805,-2707.194,8402.344,-53066.57,21556.396,-10532.919,-49518.8
969654.6350967791,-86963.18,-71800.5,-2704.956,8413.208,-53073.12,21555.543,-10535.278,-49518.516
969654.6390967758,-86964.07,-71799.234,-2706.95,8368.49,-53093.67,21540.365,-10538.9,-49515.34
969654.6430967725,-86951.664,-71787.805,-2712.443,8317.587,-53098.51,21528.281,-10547.445,-49512.332
969654.6470967691,-86948.125,-71786.87,-2710.5713,8335.979,-53086.996,21534.424,-10547.119,-49519.492
969654.6510967658,-86962.85,-71796.51,-2708.5776,8376.303,-53078.086,21551.637,-10544.638,-49519.33
969654.6550967623,-86962.89,-71796.23,-2707.1533,8384.237,-53085.652,21553.264,-10544.189,-49514.285
969654.659096759,-86958.17,-71789.516,-2710.2866,8344.6045,-53083.09,21540.04,-10546.713,-49510.215
969654.6630967557,-86963.22,-71794.31,-2713.2568,8287.72,-53095.137,21531.088,-10544.8,-49510.297
969654.6670967523,-86968.266,-71803.14,-2712.1177,8320.15,-53084.066,21542.686,-10541.138,-49507.203
969654.671096749,-86954.305,-71793.22,-2703.9795,8390.503,-53058.88,21554.484,-10535.197,-49511.477
969654.6750967457,-86954.39,-71790.04,-2695.8823,8373.373,-53063.844,21551.23,-10534.546,-49511.23
969654.6790967423,-86953.82,-71788.66,-2713.5417,8318.93,-53085.37,21540.324,-10532.797,-49507.406
969654.683096739,-86958.46,-71792.52,-2720.1743,8282.593,-53099.652,21529.826,-10538.412,-49509.93
969654.6870967357,-86964.73,-71795.25,-2715.0474,8299.805,-53094.035,21536.541,-10543.295,-49513.184
969654.6910967323,-86960.78,-71796.15,-2705.1597,8373.251,-53077.84,21552.734,-10561.687,-49513.797
969654.695096729,-86967.62,-71801.84,-2710.205,8381.592,-53082.848,21553.305,-10583.456,-49513.387
969654.6990967256,-86978.11,-71806.805,-2719.564,8317.79,-53098.676,21536.662,-10599.203,-49523.03
969654.7030967223,-86969.24,-71797.125,-2716.3086,8269.206,-53105.227,21522.99,-10605.144,-49525.188
969654.707096719,-86962.04,-71790.734,-2714.559,8308.269,-53087.445,21532.797,-10600.871,-49524.008
969654.7110967155,-86955.0,-71786.625,-2701.1719,8373.779,-53068.93,21546.836,-10597.209,-49521.895
969654.7150967122,-86959.19,-71793.336,-2693.7664,8371.135,-53079.918,21547.201,-10598.227,-49521.934
969654.7190967089,-86958.7,-71788.21,-2696.4111,8343.669,-53088.625,21536.215,-10600.18,-49515.016
969654.7230967055,-86959.11,-71780.64,-2710.4492,8319.418,-53081.79,21529.664,-10598.796,-49511.355
969654.7270967022,-86963.55,-71787.97,-2713.5825,8351.767,-53070.152,21539.756,-10597.046,-49516.113
969654.7310966989,-86966.92,-71795.9,-2704.3052,8403.239,-53073.57,21554.525,-10594.401,-49518.19
969654.7350966955,-86979.375,-71807.945,-2700.1548,8370.158,-53095.418,21551.758,-10601.97,-49532.84
969654.7390966922,-86970.22,-71801.234,-2706.9907,8324.626,-53106.406,21541.18,-10601.44,-49532.023
969654.7430966888,-86964.6,-71792.97,-2714.315,8284.018,-53103.07,21535.035,-10594.401,-49523.766
969654.7470966855,-86949.95,-71781.66,-2703.3286,8317.709,-53080.65,21544.557,-10586.386,-49516.48
969654.7510966822,-86959.07,-71791.34,-2703.4912,8387.98,-53071.047,21562.217,-10584.351,-49518.27
969654.7550966787,-86970.7,-71803.14,-2700.6836,8392.944,-53068.93,21558.39,-10588.664,-49523.723
969654.7590966754,-86982.266,-71821.49,-2709.9204,8334.473,-53096.844,21547.568,-10589.355,-49523.152
969654.7630966721,-86993.37,-71822.96,-2727.3765,8275.269,-53112.754,21543.295,-10580.078,-49523.152
969654.7670966687,-86959.72,-71785.41,-2711.1816,8312.988,-53088.137,21543.092,-10586.386,-49514.812
969654.7710966654,-86939.54,-71772.055,-2701.5789,8386.475,-53074.42,21561.89,-10581.95,-49520.754
969654.7750966621,-86952.64,-71788.62,-2694.58,8376.994,-53084.23,21565.35,-10577.515,-49523.723
969654.7790966587,-86945.195,-71774.5,-2705.526,8325.439,-53082.113,21548.219,-10578.573,-49516.277
969654.7830966554,-86926.555,-71756.31,-2709.8389,8322.795,-53073.773,21535.605,-10578.776,-49514.285
969654.787096652,-86936.2,-71762.086,-2712.5652,8362.59,-53068.727,21546.754,-10575.195,-49516.4
969654.7910966487,-86939.7,-71762.86,-2701.9043,8409.79,-53061.65,21563.273,-10571.899,-49514.324
969654.7950966454,-86949.83,-71770.67,-2699.829,8406.901,-53066.367,21565.715,-10571.533,-49517.133
969654.799096642,-86957.36,-71777.71,-2708.903,8342.448,-53084.434,21553.793,-10570.272,-49512.656
969654.8030966386,-86956.55,-71770.59,-2719.0757,8294.841,-53087.04,21543.701,-10563.64,-49504.844
969654.8070966353,-86936.0,-71753.79,-2711.7515,8340.617,-53074.547,21555.014,-10553.264,-49490.562
969654.8110966319,-86945.92,-71764.28,-2705.485,8390.951,-53067.02,21572.307,-10550.659,-49495.73
969654.8150966286,-86940.27,-71759.89,-2704.3457,8370.972,-53068.074,21569.662,-10546.713,-49484.945
969654.8190966253,-86946.086,-71763.59,-2700.399,8311.728,-53081.91,21553.264,-10552.45,-49495.28
969654.8230966219,-86947.11,-71768.84,-2703.7354,8298.584,-53096.234,21543.906,-10554.24,-49500.49
969654.8270966186,-86941.37,-71760.625,-2721.1914,8346.313,-53082.848,21553.752,-10545.004,-49492.27
969654.8310966152,-86953.62,-71772.586,-2712.4023,8402.426,-53070.234,21569.377,-10545.41,-49498.25
969654.8350966119,-86962.94,-71783.125,-2720.866,8397.665,-53069.05,21570.191,-10545.492,-49500.082
969654.8390966086,-86951.58,-71775.02,-2711.7107,8349.162,-53078.695,21556.479,-10551.474,-49504.926
969654.8430966052,-86952.07,-71771.61,-2717.2446,8309.652,-53084.15,21548.707,-10551.2295,-49506.062
969654.8470966019,-86951.54,-71774.664,-2716.6343,8336.223,-53078.047,21556.846,-10548.137,-49503.83
969654.8510965985,-86960.9,-71791.42,-2714.315,8393.921,-53075.766,21571.818,-10548.584,-49512.492
969654.8550965951,-86964.36,-71792.36,-2717.163,8371.948,-53090.496,21567.709,-10548.788,-49511.598
969654.8590965918,-86953.29,-71778.16,-2714.6812,8329.102,-53094.16,21550.537,-10552.45,-49502.44
969654.8630965884,-86957.93,-71776.98,-2726.3184,8291.992,-53097.008,21543.906,-10553.264,-49501.02
969654.8670965851,-86959.39,-71777.67,-2720.1335,8324.585,-53085.043,21549.033,-10551.636,-49495.527
969654.8710965818,-86951.74,-71777.47,-2705.5664,8393.799,-53076.824,21569.336,-10539.633,-49486.777
969654.8750965784,-86944.336,-71769.984,-2705.77,8410.767,-53072.754,21569.377,-10540.405,-49495.117
969654.8790965751,-86949.22,-71771.28,-2710.5308,8354.696,-53081.18,21554.648,-10547.404,-49498.984
969654.8830965718,-86957.6,-71778.85,-2713.623,8301.84,-53089.52,21545.736,-10548.015,-49499.88
969654.8870965684,-86953.78,-71777.266,-2718.7095,8317.302,-53080.69,21550.416,-10547.363,-49495.688
969654.891096565,-86953.25,-71780.56,-2714.3555,8368.083,-53072.88,21562.012,-10547.852,-49501.668
969654.8950965618,-86954.836,-71781.01,-2698.2422,8382.08,-53074.016,21557.658,-10548.706,-49495.605
969654.8990965583,-86949.914,-71773.73,-2712.9722,8336.914,-53085.37,21545.818,-10547.404,-49488.566
969654.903096555,-86954.1,-71774.664,-2726.2778,8285.075,-53093.67,21539.186,-10546.957,-49483.97
969654.9070965516,-86948.125,-71774.25,-2718.9128,8320.557,-53077.23,21547.16,-10542.807,-49483.4
969654.9110965483,-86953.695,-71783.37,-2707.4382,8384.848,-53073.73,21567.912,-10535.645,-49485.312
969654.915096545,-86955.61,-71786.42,-2712.606,8396.403,-53074.79,21571.006,-10528.076,-49477.62
969654.9190965416,-86949.51,-71783.695,-2712.443,8354.248,-53090.414,21551.148,-10535.849,-49477.742
969654.9230965383,-86955.41,-71782.266,-2714.8032,8308.757,-53096.926,21541.668,-10534.14,-49484.54
969654.927096535,-86950.32,-71780.16,-2709.5134,8325.725,-53083.133,21547.852,-10530.559,-49484.99
969654.9310965316,-86955.61,-71789.02,-2705.3223,8380.9,-53080.203,21563.477,-10529.541,-49485.555
969654.9350965283,-86955.33,-71786.055,-2711.6294,8395.752,-53082.316,21558.594,-10535.727,-49492.066
969654.939096525,-86956.305,-71782.96,-2720.9067,8340.576,-53084.066,21543.621,-10537.802,-49490.316
969654.9430965215,-86966.555,-71791.47,-2723.4294,8297.241,-53094.81,21534.709,-10541.057,-49495.242
969654.9470965182,-86957.28,-71785.97,-2719.6453,8327.108,-53088.543,21542.807,-10533.488,-49482.832
969654.9510965148,-86958.664,-71791.79,-2712.9722,8394.694,-53076.863,21560.14,-10528.402,-49490.438
969654.9550965115,-86952.68,-71788.49,-2717.7734,8396.159,-53063.52,21560.832,-10524.984,-49491.293
969654.9590965082,-86953.66,-71788.29,-2716.9597,8342.937,-53081.91,21547.568,-10528.198,-49487.266
969654.9630965048,-86953.9,-71783.695,-2721.4763,8300.619,-53091.473,21534.465,-10529.948,-49478.516
969654.9670965015,-86955.94,-71785.65,-2722.575,8300.334,-53094.035,21539.43,-10527.629,-49472.332
969654.9710964982,-86958.91,-71792.766,-2719.4824,8345.988,-53083.984,21556.967,-10527.629,-49479.004
969654.9750964948,-86959.68,-71793.7,-2716.024,8343.71,-53082.195,21559.57,-10521.566,-49469.89
969654.9790964915,-86958.46,-71792.36,-2715.7798,8301.84,-53096.19,21546.143,-10518.596,-49473.188
969654.9830964882,-86949.71,-71787.36,-2716.8784,8280.273,-53096.355,21539.307,-10515.097,-49478.76
969654.9870964848,-86954.92,-71787.07,-2720.581,8312.216,-53086.426,21545.492,-10510.295,-49476.973
969654.9910964814,-86960.984,-71788.695,-2710.612,8376.018,-53083.375,21559.367,-10505.615,-49468.63
969654.995096478,-86960.53,-71790.37,-2709.0251,8365.561,-53090.496,21556.479,-10510.376,-49469.81
969654.9990964747,-86961.1,-71790.85,-2723.5515,8298.462,-53102.215,21541.627,-10512.451,-49463.95
969655.0030964714,-86942.55,-71781.25,-2721.11,8279.216,-53098.797,21529.582,-10511.557,-49452.027
969655.007096468,-86948.41,-71787.805,-2714.6812,8307.983,-53094.484,21539.959,-10513.144,-49466.31
969655.0110964647,-86953.58,-71788.78,-2710.2458,8378.337,-53085.37,21560.71,-10502.563,-49458.09
969655.0150964614,-86946.62,-71778.81,-2705.363,8383.017,-53079.793,21561.2,-10501.059,-49454.875
969655.019096458,-86952.4,-71781.86,-2722.9004,8336.02,-53095.95,21548.178,-10496.989,-49454.387
969655.0230964547,-86952.15,-71782.39,-2728.1494,8289.0625,-53100.75,21538.371,-10493.979,-49450.44
969655.0270964514,-86949.95,-71777.95,-2726.0337,8279.582,-53084.84,21545.127,-10485.922,-49440.676
969655.031096448,-86945.88,-71776.164,-2716.024,8361.45,-53068.117,21559.896,-10485.962,-49447.47
969655.0350964447,-86943.445,-71779.22,-2707.9673,8403.891,-53074.22,21558.96,-10487.549,-49454.305
969655.0390964412,-86962.24,-71785.04,-2726.2778,8357.504,-53090.09,21553.508,-10479.777,-49454.062
969655.0430964379,-86947.31,-71766.64,-2735.1482,8309.692,-53084.188,21539.47,-10487.346,-49450.605
969655.0470964346,-86944.46,-71770.836,-2725.2197,8325.521,-53086.914,21544.354,-10482.341,-49450.44
969655.0510964312,-86961.02,-71782.06,-2725.4639,8375.61,-53083.254,21564.658,-10466.553,-49442.63
969655.0550964279,-86959.15,-71781.66,-2717.2852,8361.41,-53082.195,21560.873,-10473.877,-49441.652
969655.0590964246,-86949.47,-71774.74,-2723.7144,8339.763,-53085.164,21551.148,-10469.442,-49441.043
969655.0630964212,-86959.96,-71785.16,-2728.231,8308.146,-53094.65,21540.854,-10467.611,-49445.395
969655.0670964179,-86972.91,-71791.625,-2727.6206,8337.402,-53088.625,21544.516,-10464.926,-49448.934
969655.0710964146,-86962.37,-71779.5,-2710.4492,8400.024,-53070.926,21560.385,-10465.007,-49455.65
969655.0750964112,-86942.23,-71763.47,-2712.1582,8398.153,-53068.44,21561.2,-10459.677,-49442.508
969655.0790964079,-86949.51,-71766.805,-2727.295,8333.862,-53085.86,21545.86,-10463.135,-49445.8
969655.0830964044,-86934.37,-71755.82,-2720.2148,8282.1045,-53091.31,21531.129,-10465.048,-49441.61
969655.0870964011,-86921.43,-71747.805,-2713.786,8282.837,-53083.17,21537.924,-10459.27,-49440.715
969655.0910963978,-86928.06,-71755.66,-2702.9624,8351.359,-53071.004,21553.184,-10457.846,-49446.168
969655.0950963944,-86935.266,-71755.695,-2713.4604,8378.052,-53070.723,21551.352,-10458.537,-49451.62
969655.0990963911,-86935.836,-71758.34,-2718.7908,8338.135,-53087.08,21536.256,-10462.28,-49448.934
969655.1030963878,-86942.305,-71759.805,-2720.8252,8303.996,-53087.117,21528.402,-10460.856,-49454.47
969655.1070963844,-86939.13,-71753.22,-2724.4468,8321.33,-53071.98,21535.93,-10448.771,-49443.484
969655.1110963811,-86935.8,-71758.875,-2710.8154,8375.366,-53068.484,21549.521,-10444.458,-49436.523
969655.1150963778,-86933.64,-71760.13,-2709.8389,8380.9,-53076.582,21545.127,-10447.348,-49437.91
969655.1190963744,-86938.16,-71766.03,-2721.8018,8321.167,-53086.914,21533.652,-10448.975,-49440.594
969655.1230963711,-86935.1,-71765.95,-2726.0337,8284.018,-53080.812,21524.13,-10452.434,-49442.586
969655.1270963677,-86933.59,-71762.414,-2724.9756,8311.035,-53078.25,21532.064,-10446.94,-49440.145
969655.1310963643,-86936.89,-71767.945,-2724.0806,8370.85,-53081.586,21547.16,-10431.885,-49428.266
969655.135096361,-86937.664,-71766.4,-2714.152,8405.192,-53077.35,21543.824,-10440.39,-49435.914
969655.1390963576,-86948.65,-71771.484,-2713.9487,8367.717,-53080.69,21529.541,-10446.94,-49441.285
969655.1430963543,-86937.5,-71764.53,-2726.4,8304.851,-53090.496,21516.48,-10445.476,-49434.367
969655.147096351,-86932.87,-71765.625,-2723.6736,8318.604,-53089.766,21522.705,-10439.901,-49429.812
969655.1510963476,-86932.21,-71768.03,-2724.691,8379.436,-53073.57,21539.756,-10431.804,-49421.836
969655.1550963443,-86927.94,-71762.86,-2720.1335,8387.817,-53073.406,21539.47,-10433.391,-49418.62
969655.1590963409,-86919.72,-71759.484,-2720.1335,8338.095,-53083.66,21526.367,-10435.913,-49424.805
969655.1630963376,-86934.53,-71763.47,-2727.824,8296.265,-53091.15,21516.033,-10437.582,-49428.793
969655.1670963343,-86935.875,-71765.22,-2721.7612,8319.824,-53087.242,21523.193,-10434.448,-49426.473
969655.1710963309,-86937.016,-71773.93,-2715.8203,8354.289,-53087.04,21536.459,-10428.996,-49424.645
969655.1750963276,-86938.64,-71774.74,-2722.2087,8343.669,-53092.207,21536.5,-10425.09,-49423.26
969655.1790963243,-86936.2,-71773.234,-2711.4666,8334.311,-53101.156,21519.004,-10439.738,-49422.85
969655.1830963208,-86945.84,-71775.96,-2721.4355,8318.115,-53103.312,21513.389,-10441.61,-49419.19
969655.1870963175,-86931.44,-71766.73,-2714.5996,8366.862,-53083.66,21522.584,-10432.699,-49412.395
969655.1910963142,-86911.95,-71757.9,-2702.2705,8422.201,-53067.098,21535.564,-10426.107,-49402.02
969655.1950963108,-86923.99,-71762.984,-2707.3162,8404.785,-53070.312,21534.14,-10426.107,-49400.35
969655.1990963075,-86929.85,-71768.92,-2714.3962,8338.461,-53078.168,21523.805,-10427.002,-49403.035
969655.2030963041,-86930.87,-71766.85,-2727.1729,8270.102,-53087.484,21512.98,-10427.002,-49401.41
969655.2070963008,-86936.81,-71771.08,-2732.8289,8281.128,-53085.816,21522.625,-10424.643,-49411.176
969655.2110962975,-86933.39,-71774.336,-2718.7095,8356.853,-53075.645,21533.732,-10425.09,-49417.605
969655.2150962941,-86931.234,-71774.414,-2717.1226,8383.098,-53077.68,21538.738,-10422.689,-49417.645
969655.2190962908,-86945.64,-71781.05,-2729.0854,8342.489,-53089.355,21529.99,-10421.835,-49419.19
969655.2230962875,-86932.336,-71775.88,-2726.6846,8290.976,-53094.973,21508.912,-10435.832,-49418.457
969655.227096284,-86936.69,-71784.18,-2724.691,8328.166,-53088.95,21519.451,-10430.746,-49419.15
969655.2310962807,-86935.8,-71783.41,-2725.708,8405.925,-53073.445,21539.959,-10417.888,-49398.887
969655.2350962774,-86935.34,-71779.87,-2719.279,8408.163,-53072.51,21536.297,-10421.225,-49409.14
969655.239096274,-86934.086,-71775.19,-2730.1025,8351.115,-53083.945,21521.322,-10429.973,-49427.613
969655.2430962707,-86937.016,-71776.0,-2735.5552,8282.064,-53099.69,21509.848,-10433.716,-49426.434
969655.2470962673,-86933.68,-71772.016,-2731.3232,8298.991,-53086.836,21518.352,-10430.461,-49428.348
969655.251096264,-86934.45,-71772.664,-2726.8066,8370.932,-53074.22,21534.506,-10423.544,-49420.125
969655.2550962607,-86934.62,-71777.63,-2721.9238,8382.895,-53072.754,21532.756,-10424.846,-49415.164
969655.2590962573,-86937.91,-71777.14,-2725.7896,8351.929,-53082.113,21519.37,-10430.99,-49417.645
969655.263096254,-86925.664,-71764.125,-2730.062,8305.095,-53084.555,21509.889,-10430.583,-49414.55
969655.2670962507,-86933.516,-71772.87,-2729.6143,8299.398,-53085.207,21519.166,-10425.578,-49413.29
969655.2710962472,-86926.07,-71768.88,-2727.1323,8362.468,-53073.0,21535.28,-10414.592,-49399.375
969655.275096244,-86924.69,-71767.83,-2721.517,8392.985,-53077.35,21533.732,-10422.119,-49404.664
969655.2790962406,-86923.586,-71767.055,-2724.528,8351.4,-53083.457,21521.201,-10421.672,-49404.42
969655.2830962372,-86918.79,-71757.0,-2730.6724,8313.314,-53078.29,21510.295,-10416.952,-49397.664
969655.2870962339,-86919.68,-71759.28,-2727.8647,8321.493,-53069.95,21515.79,-10413.086,-49394.207
969655.2910962305,-86921.02,-71764.57,-2722.046,8353.476,-53073.895,21529.867,-10411.947,-49400.758
969655.2950962272,-86922.28,-71768.39,-2721.8425,8369.629,-53073.61,21530.844,-10415.894,-49408.367
969655.2990962239,-86926.03,-71769.734,-2727.0508,8338.583,-53082.6,21516.766,-10424.643,-49412.19
969655.3030962205,-86934.37,-71768.92,-2739.0137,8298.218,-53085.695,21505.453,-10428.061,-49411.5
969655.3070962172,-86936.32,-71775.07,-2737.0605,8331.909,-53075.074,21511.312,-10424.805,-49407.637
969655.3110962139,-86936.0,-71781.25,-2716.7156,8394.613,-53076.215,21522.178,-10428.833,-49423.016
969655.3150962105,-86936.73,-71781.66,-2718.75,8392.7,-53068.81,21524.984,-10430.746,-49419.8
969655.3190962072,-86937.75,-71777.43,-2723.9585,8340.088,-53068.24,21512.412,-10432.373,-49417.402
969655.3230962039,-86925.26,-71763.06,-2736.491,8286.174,-53073.203,21503.459,-10428.101,-49403.117
969655.3270962004,-86926.96,-71764.125,-2734.1309,8292.685,-53067.465,21511.516,-10423.544,-49399.17
969655.3310961971,-86927.33,-71768.84,-2722.046,8359.619,-53058.066,21528.037,-10418.376,-49401.734
969655.3350961937,-86937.13,-71777.836,-2722.7378,8374.96,-53073.0,21528.443,-10420.37,-49401.9
969655.3390961904,-86936.04,-71776.57,-2727.6611,8331.95,-53086.387,21515.545,-10421.997,-49400.473
969655.3430961871,-86939.91,-71778.89,-2732.5847,8295.451,-53090.254,21505.25,-10424.805,-49404.34
969655.3470961837,-86945.36,-71785.65,-2735.8398,8324.016,-53088.3,21510.54,-10424.398,-49411.5
969655.3510961804,-86931.44,-71778.98,-2729.004,8384.196,-53056.805,21522.014,-10420.695,-49413.617
969655.3550961771,-86934.695,-71782.59,-2722.412,8391.968,-53057.332,21519.572,-10424.765,-49412.477
969655.3590961737,-86941.49,-71780.07,-2731.6082,8343.547,-53075.81,21507.406,-10425.944,-49408.0
969655.3630961704,-86943.12,-71782.15,-2732.8289,8274.902,-53092.367,21499.838,-10427.368,-49411.418
969655.367096167,-86944.016,-71783.04,-2738.2,8285.482,-53079.51,21511.598,-10421.957,-49405.684
969655.3710961636,-86936.12,-71780.56,-2733.6426,8351.726,-53069.215,21526.531,-10416.179,-49395.145
969655.3750961603,-86934.33,-71785.65,-2728.1494,8359.904,-53060.75,21526.775,-10423.096,-49405.56
969655.3790961569,-86937.99,-71788.336,-2733.5205,8324.667,-53075.766,21513.672,-10429.362,-49411.094
969655.3830961536,-86940.76,-71789.43,-2738.1187,8290.894,-53081.22,21503.053,-10428.427,-49407.39
969655.3870961503,-86938.27,-71789.39,-2738.851,8312.012,-53081.055,21512.492,-10423.503,-49410.2
969655.3910961469,-86936.0,-71787.11,-2731.2012,8372.6,-53068.81,21533.123,-10416.016,-49411.785
969655.3950961436,-86949.34,-71799.56,-2739.1357,8378.703,-53073.977,21537.314,-10411.052,-49406.617
969655.3990961403,-86960.82,-71808.59,-2739.2173,8341.919,-53086.875,21528.402,-10409.465,-49401.29
969655.4030961369,-86936.08,-71790.2,-2730.1025,8299.194,-53086.426,21519.207,-10411.825,-49398.234
969655.4070961336,-86933.555,-71784.016,-2730.9978,8310.913,-53083.336,21526.49,-10408.0,-49407.84
969655.4110961303,-86939.21,-71789.63,-2722.29,8354.533,-53080.812,21541.668,-10402.67,-49404.38
969655.4150961268,-86922.445,-71774.336,-2719.6045,8365.072,-53075.24,21545.777,-10398.479,-49395.59
969655.4190961235,-86920.53,-71772.95,-2717.0818,8337.729,-53081.3,21537.15,-10403.931,-49397.22
969655.4230961201,-86923.914,-71777.02,-2719.564,8296.875,-53090.78,21528.484,-10412.761,-49406.17
969655.4270961168,-86922.24,-71775.27,-2725.2197,8339.4375,-53075.24,21538.818,-10404.623,-49400.312
969655.4310961135,-86923.1,-71777.305,-2713.9893,8402.873,-53063.19,21556.113,-10398.112,-49398.234
969655.4350961101,-86930.83,-71779.336,-2713.0127,8393.2705,-53073.977,21556.316,-10401.53,-49405.273
969655.4390961068,-86934.25,-71778.08,-2726.522,8338.501,-53088.79,21544.719,-10405.3955,-49410.32
969655.4430961035,-86934.25,-71775.96,-2728.1494,8274.008,-53084.35,21533.041,-10413.574,-49414.51
969655.4470961001,-86931.73,-71775.23,-2730.062,8302.409,-53068.523,21544.516,-10408.813,-49404.83
969655.4510960968,-86931.73,-71776.164,-2725.1792,8370.565,-53058.23,21561.768,-10399.13,-49400.72
969655.4550960934,-86938.84,-71781.945,-2723.0632,8376.913,-53068.727,21563.6,-10397.095,-49408.33
969655.45909609,-86935.8,-71781.25,-2722.5342,8353.476,-53085.938,21556.152,-10393.759,-49405.56
969655.4630960868,-86926.68,-71770.8,-2731.8115,8326.335,-53095.176,21543.824,-10390.788,-49392.375
969655.4670960833,-86921.266,-71767.58,-2722.7378,8355.754,-53083.008,21548.34,-10387.858,-49393.68
969655.47109608,-86927.62,-71773.234,-2722.453,8392.66,-53067.508,21561.158,-10387.736,-49394.492
969655.4750960767,-86934.62,-71782.23,-2719.7673,8385.214,-53074.098,21561.076,-10393.2295,-49399.414
969655.4790960733,-86933.68,-71781.086,-2722.7783,8348.796,-53085.574,21553.672,-10396.566,-49403.035
969655.48309607,-86932.62,-71777.18,-2728.6377,8320.068,-53084.758,21545.818,-10397.624,-49406.78
969655.4870960667,-86932.336,-71775.76,-2728.9226,8341.675,-53080.895,21552.572,-10393.107,-49398.766
969655.4910960633,-86928.71,-71776.9,-2718.2617,8400.92,-53065.758,21568.32,-10389.242,-49401.45
969655.49509606,-86931.07,-71777.305,-2715.0066,8414.145,-53067.14,21565.918,-10394.328,-49403.688
969655.4990960566,-86920.33,-71768.234,-2717.7734,8370.199,-53072.266,21551.352,-10394.857,-49392.863
969655.5030960533,-86911.7,-71759.6,-2724.284,8319.743,-53075.605,21539.062,-10394.531,-49388.797
969655.50709605,-86916.22,-71765.18,-2718.9536,8328.573,-53073.445,21544.842,-10394.247,-49388.105
969655.5110960465,-86918.5,-71766.12,-2721.395,8380.534,-53070.152,21564.209,-10389.445,-49383.098
969655.5150960432,-86922.98,-71773.32,-2719.442,8370.483,-53075.32,21567.912,-10388.103,-49383.223
969655.5190960399,-86926.48,-71782.48,-2720.1743,8333.903,-53080.61,21556.479,-10395.02,-49390.3
969655.5230960365,-86923.055,-71775.516,-2723.104,8296.672,-53074.383,21546.184,-10397.502,-49388.67
969655.5270960332,-86918.42,-71772.3,-2723.8364,8301.107,-53073.0,21549.398,-10395.793,-49393.883
969655.5310960299,-86917.36,-71771.98,-2717.4072,8366.618,-53068.074,21561.85,-10396.566,-49398.152
969655.5350960265,-86921.59,-71771.69,-2717.977,8363.7295,-53067.586,21563.396,-10392.944,-49386.598
969655.5390960232,-86920.01,-71772.42,-2720.7031,8338.217,-53073.0,21556.357,-10393.515,-49381.88
969655.5430960198,-86919.766,-71773.73,-2721.8018,8304.362,-53080.934,21547.16,-10398.479,-49391.645
969655.5470960165,-86924.93,-71779.586,-2718.5466,8330.607,-53074.18,21554.77,-10397.583,-49398.52
969655.5510960132,-86929.08,-71786.7,-2721.11,8398.764,-53067.914,21569.174,-10390.91,-49393.35
969655.5550960097,-86922.08,-71784.47,-2713.8672,8403.646,-53070.355,21565.186,-10394.369,-49397.22
969655.5590960064,-86921.875,-71779.79,-2724.0398,8356.161,-53075.766,21552.857,-10393.515,-49391.156
969655.5630960031,-86926.234,-71779.09,-2723.1445,8300.334,-53084.23,21543.498,-10396.606,-49396.28
969655.5670959997,-86921.875,-71776.77,-2726.3591,8317.221,-53081.83,21549.521,-10399.984,-49408.855
969655.5710959964,-86926.555,-71778.41,-2716.7969,8382.731,-53072.062,21563.803,-10396.973,-49408.895
969655.5750959931,-86921.67,-71774.336,-2711.4258,8387.939,-53064.656,21563.559,-10393.433,-49397.543
969655.5790959897,-86918.79,-71769.45,-2720.1743,8345.866,-53072.188,21554.893,-10389.7705,-49388.594
969655.5830959864,-86919.6,-71770.59,-2721.151,8322.876,-53073.812,21546.51,-10389.648,-49382.12
969655.587095983,-86925.3,-71776.53,-2713.5417,8340.495,-53066.49,21552.775,-10392.253,-49391.36
969655.5910959797,-86924.32,-71775.76,-2712.6465,8380.249,-53059.773,21569.824,-10386.76,-49388.67
969655.5950959764,-86916.266,-71775.15,-2720.459,8379.517,-53061.363,21567.75,-10388.794,-49390.34
969655.599095973,-86925.055,-71779.18,-2720.2964,8323.446,-53081.137,21550.701,-10400.269,-49403.523
969655.6030959697,-86922.94,-71772.83,-2722.819,8290.365,-53082.52,21536.826,-10404.867,-49404.094
969655.6070959663,-86919.31,-71772.09,-2715.617,8318.115,-53067.996,21543.336,-10401.978,-49399.008
969655.6110959629,-86918.17,-71774.45,-2717.041,8367.025,-53059.164,21555.705,-10396.688,-49396.406
969655.6150959596,-86919.555,-71777.67,-2719.279,8373.129,-53067.18,21556.52,-10396.403,-49395.71
969655.6190959563,-86924.805,-71780.766,-2728.4343,8331.909,-53077.434,21548.178,-10397.99,-49398.52
969655.6230959529,-86933.23,-71782.72,-2735.8806,8292.318,-53080.12,21539.389,-10402.995,-49408.855
969655.6270959496,-86923.055,-71777.02,-2727.3765,8311.035,-53066.977,21544.271,-10405.192,-49406.7
969655.6310959462,-86936.61,-71790.94,-2722.1274,8366.943,-53064.25,21557.861,-10406.413,-49412.11
969655.6350959429,-86921.8,-71780.88,-2716.3901,8382.935,-53060.996,21554.852,-10405.192,-49408.0
969655.6390959396,-86927.45,-71785.08,-2718.75,8327.067,-53082.234,21541.627,-10408.407,-49414.43
969655.6430959362,-86918.375,-71775.555,-2728.3936,8288.615,-53081.746,21528.564,-10408.61,-49406.984
969655.6470959329,-86924.03,-71780.6,-2731.649,8297.282,-53084.35,21534.791,-10405.925,-49410.035
969655.6510959296,-86923.79,-71778.85,-2725.0571,8359.945,-53070.234,21551.678,-10403.769,-49414.43
969655.6550959261,-86929.65,-71781.21,-2726.1963,8383.545,-53066.855,21556.113,-10402.588,-49410.566
969655.6590959228,-86935.71,-71783.37,-2737.5896,8343.425,-53072.676,21545.654,-10405.762,-49408.734
969655.6630959195,-86932.78,-71780.97,-2738.6882,8296.794,-53070.07,21540.488,-10405.6,-49402.914
969655.6670959161,-86933.02,-71782.43,-2733.48,8296.875,-53065.51,21544.557,-10401.449,-49402.63
969655.6710959128,-86923.38,-71778.65,-2725.7896,8360.2295,-53050.824,21552.775,-10403.769,-49408.406
969655.6750959094,-86929.41,-71777.02,-2725.3418,8387.451,-53065.43,21551.799,-10403.483,-49410.44
969655.6790959061,-86929.32,-71777.02,-2728.7192,8333.537,-53082.36,21534.588,-10411.174,-49415.04
969655.6830959028,-86930.664,-71782.88,-2730.5908,8278.036,-53090.945,21528.361,-10415.731,-49413.453
969655.6870958994,-86926.11,-71776.82,-2731.8115,8309.326,-53078.453,21537.395,-10406.047,-49403.363
969655.6910958961,-86931.805,-71783.24,-2728.5564,8375.448,-53061.08,21557.658,-10399.211,-49406.7
969655.6950958928,-86934.25,-71785.56,-2731.079,8395.508,-53067.71,21562.176,-10401.367,-49411.824
969655.6990958893,-86940.39,-71787.88,-2735.6772,8353.435,-53076.742,21551.352,-10402.873,-49409.63
969655.703095886,-86934.9,-71785.24,-2742.147,8303.467,-53079.55,21539.836,-10399.943,-49401.082
969655.7070958827,-86936.2,-71786.87,-2737.915,8310.019,-53071.86,21542.645,-10402.873,-49413.332
969655.7110958793,-86941.125,-71791.055,-2728.7192,8344.198,-53070.395,21552.043,-10402.71,-49414.43
969655.715095876,-86939.66,-71792.28,-2728.0273,8349.569,-53077.68,21552.287,-10405.355,-49414.918
969655.7190958726,-86945.03,-71795.375,-2725.2197,8310.181,-53087.16,21538.494,-10413.046,-49423.992
969655.7230958693,-86945.03,-71792.89,-2744.4255,8268.962,-53081.953,21530.07,-10408.529,-49417.766
969655.727095866,-86941.41,-71789.836,-2750.4883,8304.484,-53067.305,21541.709,-10403.931,-49417.766
969655.7310958626,-86942.1,-71789.35,-2741.2517,8368.856,-53058.758,21553.672,-10404.663,-49413.25
969655.7350958593,-86945.16,-71792.12,-2741.7808,8376.181,-53067.75,21552.816,-10409.831,-49429.566
969655.739095856,-86947.06,-71796.1,-2748.413,8316.569,-53080.69,21539.877,-10416.423,-49432.293
969655.7430958526,-86946.86,-71794.88,-2748.983,8277.426,-53094.727,21526.084,-10423.462,-49436.117
969655.7470958492,-86941.57,-71791.95,-2742.6353,8304.892,-53087.527,21530.682,-10418.742,-49433.31
969655.7510958458,-86941.66,-71793.17,-2736.369,8358.562,-53072.594,21546.672,-10411.621,-49428.793
969655.7550958425,-86945.88,-71794.96,-2737.3047,8369.873,-53073.73,21546.998,-10410.238,-49421.266
969655.7590958392,-86953.82,-71800.414,-2736.9792,8309.448,-53094.035,21536.906,-10419.434,-49429.402
969655.7630958358,-86971.195,-71811.41,-2743.7744,8255.981,-53113.85,21530.6,-10422.038,-49433.88
969655.7670958325,-86951.87,-71798.26,-2758.1382,8274.699,-53093.547,21540.04,-10408.407,-49414.96
969655.7710958292,-86936.81,-71787.15,-2738.9731,8350.342,-53067.996,21549.113,-10413.696,-49417.645
969655.7750958258,-86945.234,-71795.984,-2738.2,8380.493,-53076.5,21550.334,-10411.906,-49419.965
969655.7790958225,-86942.14,-71797.94,-2735.962,8356.242,-53086.387,21537.72,-10412.639,-49422.73
969655.7830958192,-86949.1,-71799.73,-2745.036,8305.054,-53092.613,21527.996,-10409.709,-49422.445
969655.7870958158,-86941.81,-71795.58,-2741.211,8315.959,-53085.41,21529.46,-10411.052,-49417.605
969655.7910958125,-86932.91,-71789.1,-2728.8818,8366.537,-53068.645,21539.592,-10414.226,-49419.07
969655.795095809,-86936.12,-71793.375,-2730.2654,8359.741,-53070.56,21542.48,-10411.743,-49421.023
969655.7990958057,-86939.05,-71797.89,-2735.067,8301.2295,-53088.38,21533.164,-10413.371,-49417.645
969655.8030958024,-86945.56,-71797.77,-2741.9028,8276.815,-53087.605,21526.205,-10414.551,-49420.574
969655.807095799,-86952.27,-71801.48,-2748.576,8287.964,-53083.05,21534.344,-10410.278,-49421.062
969655.8110957957,-86942.18,-71798.34,-2743.571,8328.695,-53073.527,21548.951,-10401.896,-49408.895
969655.8150957924,-86944.7,-71797.37,-2733.8462,8341.309,-53074.832,21545.33,-10410.197,-49419.395
969655.819095789,-86945.234,-71798.46,-2742.6758,8305.827,-53080.04,21529.582,-10416.545,-49424.52
969655.8230957857,-86943.97,-71799.89,-2751.5464,8289.836,-53086.59,21516.521,-10417.196,-49424.645
969655.8270957824,-86944.22,-71804.69,-2744.1814,8314.657,-53084.637,21520.143,-10414.999,-49426.883
969655.831095779,-86939.336,-71803.96,-2735.8806,8349.406,-53068.93,21533.164,-10411.459,-49415.406
969655.8350957757,-86940.48,-71800.5,-2733.8462,8347.575,-53073.203,21536.582,-10415.121,-49426.395
969655.8390957722,-86936.41,-71795.375,-2743.693,8310.629,-53077.637,21530.803,-10417.521,-49425.336
969655.8430957689,-86935.51,-71791.75,-2746.7856,8273.031,-53083.78,21520.346,-10422.445,-49427.246
969655.8470957656,-86938.52,-71792.52,-2745.1987,8293.091,-53074.098,21525.635,-10422.363,-49429.324
969655.8510957622,-86938.766,-71800.21,-2739.1357,8343.954,-53068.117,21534.385,-10423.706,-49427.45
969655.8550957589,-86946.9,-71807.375,-2741.0483,8356.649,-53077.07,21530.07,-10428.63,-49432.254
969655.8590957556,-86949.305,-71807.78,-2746.2158,8340.902,-53073.527,21515.625,-10432.373,-49443.156
969655.8630957522,-86947.11,-71801.84,-2746.0532,8300.903,-53079.793,21504.477,-10431.804,-49444.54
969655.8670957489,-86945.766,-71799.97,-2745.1172,8321.981,-53076.62,21512.086,-10425.863,-49441.69
969655.8710957456,-86945.36,-71802.82,-2737.9558,8366.537,-53063.805,21526.328,-10419.23,-49436.81
969655.8750957422,-86958.91,-71812.016,-2737.8745,8373.169,-53070.152,21530.682,-10420.288,-49443.848
969655.8790957389,-86947.875,-71804.52,-2742.1062,8325.562,-53078.74,21517.578,-10425.293,-49440.35
969655.8830957355,-86947.11,-71805.99,-2758.2603,8268.596,-53088.016,21510.498,-10424.072,-49434.043
969655.8870957321,-86944.79,-71804.98,-2754.5981,8303.549,-53077.35,21518.148,-10425.415,-49441.61
969655.8910957288,-86947.516,-71809.05,-2742.3503,8354.004,-53077.273,21529.176,-10427.816,-49447.633
969655.8950957254,-86947.06,-71807.13,-2741.455,8356.079,-53082.52,21529.379,-10428.101,-49447.266
969655.8990957221,-86952.44,-71804.65,-2749.4304,8333.456,-53094.605,21515.748,-10430.136,-49448.49
969655.9030957188,-86953.21,-71800.74,-2755.4932,8295.614,-53098.066,21502.32,-10427.734,-49441.406
969655.9070957154,-86952.35,-71800.78,-2753.1738,8301.718,-53091.35,21511.191,-10421.103,-49432.7
969655.9110957121,-86948.53,-71802.66,-2747.3145,8348.1045,-53074.42,21526.855,-10415.771,-49428.508
969655.9150957088,-86953.53,-71808.96,-2744.4663,8341.269,-53083.66,21526.652,-10419.394,-49427.574
969655.9190957054,-86961.39,-71815.35,-2746.6228,8295.858,-53100.098,21518.719,-10430.38,-49446.086
969655.9230957021,-86960.94,-71814.01,-2749.878,8266.928,-53109.66,21510.703,-10438.232,-49453.004
969655.9270956987,-86950.16,-71807.5,-2749.105,8272.461,-53095.46,21519.654,-10428.061,-49438.56
969655.9310956954,-86943.41,-71801.35,-2739.502,8327.108,-53081.016,21526.979,-10423.178,-49428.508
969655.935095692,-86940.88,-71800.5,-2737.9966,8344.32,-53075.4,21527.588,-10418.864,-49422.61
969655.9390956886,-86939.3,-71797.125,-2738.2812,8310.303,-53076.05,21514.934,-10420.207,-49423.707
969655.9430956853,-86939.7,-71798.87,-2738.607,8281.413,-53085.164,21503.867,-10423.869,-49427.37
969655.947095682,-86941.41,-71798.26,-2746.2974,8296.957,-53076.62,21512.045,-10421.794,-49428.59
969655.9510956786,-86945.97,-71801.96,-2739.0137,8330.933,-53072.918,21526.572,-10419.475,-49434.652
969655.9550956753,-86942.836,-71801.19,-2733.3984,8345.459,-53070.844,21531.82,-10414.795,-49425.62
969655.959095672,-86945.88,-71806.27,-2740.7634,8314.575,-53083.336,21525.146,-10412.313,-49417.562
969655.9630956686,-86966.92,-71822.06,-2751.9126,8269.45,-53101.035,21517.54,-10412.069,-49432.13
969655.9670956653,-86944.46,-71809.33,-2743.4082,8304.362,-53078.41,21523.072,-10405.111,-49420.9
969655.9710956619,-86920.45,-71789.266,-2730.1025,8362.997,-53060.06,21528.973,-10405.478,-49410.484
969655.9750956586,-86921.06,-71780.88,-2726.3184,8345.053,-53074.79,21523.846,-10414.389,-49418.99
969655.9790956553,-86929.57,-71788.17,-2737.5083,8302.531,-53088.746,21514.771,-10416.952,-49422.61
969655.9830956518,-86930.586,-71787.6,-2746.2566,8278.361,-53086.14,21504.639,-10418.742,-49429.445
969655.9870956485,-86926.805,-71783.94,-2740.6821,8295.248,-53075.117,21506.348,-10423.381,-49432.332
969655.9910956452,-86931.52,-71788.414,-2741.9434,8334.595,-53072.266,21520.59,-10419.027,-49438.844
969655.9950956418,-86946.414,-71800.82,-2750.8953,8347.006,-53072.88,21525.27,-10417.969,-49437.703
969655.9990956385,-86958.7,-71812.586,-2751.3022,8294.271,-53086.754,21512.492,-10423.625,-49441.285
969656.0030956352,-86951.5,-71803.836,-2756.5105,8246.867,-53092.695,21501.953,-10422.079,-49436.2
969656.0070956318,-86948.61,-71799.84,-2759.196,8269.9795,-53078.695,21508.545,-10419.963,-49432.742
969656.0110956285,-86950.12,-71798.14,-2756.7546,8330.241,-53060.305,21517.986,-10419.271,-49436.28
969656.0150956251,-86949.1,-71800.87,-2742.5537,8356.853,-53061.523,21517.783,-10424.846,-49440.145
969656.0190956218,-86947.11,-71799.84,-2745.809,8321.696,-53074.91,21508.465,-10425.659,-49435.426
969656.0230956185,-86946.45,-71795.66,-2763.4277,8269.003,-53082.645,21496.338,-10425.497,-49426.637
969656.027095615,-86942.75,-71801.84,-2759.074,8298.666,-53080.28,21500.693,-10426.107,-49421.875
969656.0310956117,-86947.06,-71808.43,-2754.069,8346.232,-53070.395,21515.951,-10423.34,-49432.902
969656.0350956084,-86949.305,-71809.05,-2748.82,8379.191,-53074.383,21518.148,-10424.724,-49434.695
969656.039095605,-86958.26,-71815.19,-2751.6277,8343.832,-53090.047,21505.209,-10430.38,-49442.63
969656.0430956017,-86958.055,-71811.52,-2763.6313,8290.649,-53101.89,21496.338,-10430.949,-49444.703
969656.0470955983,-86968.43,-71820.15,-2764.4043,8285.889,-53100.87,21497.031,-10436.157,-49450.562
969656.051095595,-86959.27,-71819.5,-2746.46,8328.939,-53097.902,21509.562,-10428.223,-49440.633
969656.0550955917,-86954.23,-71819.79,-2734.6191,8343.872,-53097.047,21512.695,-10426.433,-49442.14
969656.0590955883,-86956.46,-71817.47,-2756.0222,8305.38,-53092.49,21504.07,-10429.159,-49437.95
969656.063095585,-86951.99,-71814.66,-2764.038,8287.436,-53097.617,21496.543,-10426.88,-49430.664
969656.0670955817,-86954.555,-71816.0,-2760.9458,8334.473,-53094.65,21506.227,-10422.241,-49430.3
969656.0710955783,-86956.914,-71817.79,-2749.1863,8365.601,-53084.312,21520.305,-10416.789,-49428.67
969656.075095575,-86950.85,-71814.984,-2753.54,8375.977,-53082.562,21521.16,-10416.016,-49422.324
969656.0790955717,-86947.11,-71811.24,-2751.709,8316.895,-53089.277,21509.521,-10419.189,-49418.99
969656.0830955682,-86944.87,-71806.52,-2757.4463,8256.552,-53102.094,21501.709,-10417.5625,-49411.46
969656.0870955649,-86948.77,-71810.06,-2750.4883,8270.061,-53091.797,21509.766,-10413.29,-49414.266
969656.0910955615,-86942.016,-71802.45,-2744.5884,8332.4795,-53072.918,21526.408,-10405.273,-49408.652
969656.0950955582,-86944.74,-71808.72,-2738.8916,8363.811,-53071.74,21533.447,-10402.182,-49406.984
969656.0990955549,-86935.875,-71802.125,-2743.8152,8341.96,-53073.285,21527.955,-10403.931,-49407.473
969656.1030955515,-86941.086,-71806.4,-2750.529,8295.004,-53084.883,21522.299,-10406.454,-49414.43
969656.1070955482,-86936.85,-71801.07,-2752.6042,8306.885,-53101.605,21531.943,-10395.996,-49409.344
969656.1110955449,-86930.42,-71795.33,-2742.0654,8357.992,-53087.812,21542.686,-10404.297,-49419.312
969656.1150955415,-86932.46,-71794.15,-2743.2861,8363.403,-53084.637,21546.957,-10399.455,-49409.426
969656.1190955382,-86934.86,-71795.53,-2745.1987,8311.809,-53094.77,21539.186,-10399.089,-49407.797
969656.1230955349,-86937.22,-71800.54,-2742.391,8288.9,-53101.074,21531.21,-10397.095,-49405.4
969656.1270955314,-86931.6,-71799.234,-2748.8608,8294.597,-53099.367,21538.818,-10388.266,-49394.574
969656.1310955281,-86924.484,-71795.01,-2735.189,8329.306,-53093.71,21553.59,-10386.19,-49400.96
969656.1350955247,-86925.09,-71792.4,-2739.2986,8352.783,-53091.188,21560.303,-10384.155,-49400.188
969656.1390955214,-86940.76,-71804.89,-2750.936,8325.847,-53101.562,21554.404,-10387.289,-49404.46
969656.1430955181,-86916.71,-71784.43,-2745.809,8289.511,-53085.574,21543.01,-10382.365,-49393.598
969656.1470955147,-86924.85,-71792.16,-2746.6636,8327.841,-53077.273,21550.334,-10385.173,-49406.17
969656.1510955114,-86929.2,-71793.945,-2745.5242,8379.028,-53074.344,21562.664,-10383.179,-49403.688
969656.1550955081,-86929.24,-71798.95,-2748.2097,8378.947,-53078.25,21561.2,-10384.318,-49396.242
969656.1590955047,-86931.44,-71801.27,-2750.407,8330.404,-53087.934,21545.695,-10391.276,-49402.832
969656.1630955014,-86926.72,-71792.52,-2750.4883,8266.235,-53098.88,21530.6,-10397.014,-49410.523
969656.1670954981,-86920.74,-71787.195,-2743.9373,8284.424,-53092.33,21539.43,-10391.968,-49409.223
969656.1710954946,-86923.875,-71790.81,-2740.8447,8349.325,-53078.535,21556.072,-10388.388,-49411.543
969656.1750954913,-86926.11,-71788.49,-2739.5427,8361.084,-53075.727,21557.334,-10389.648,-49407.88
969656.1790954879,-86924.36,-71786.91,-2749.9187,8325.725,-53081.504,21549.805,-10388.672,-49403.973
969656.1830954846,-86925.3,-71791.42,-2752.116,8312.419,-53082.93,21540.04,-10389.893,-49402.71
969656.1870954813,-86932.05,-71795.33,-2758.1787,8344.279,-53078.25,21546.51,-10386.19,-49406.863
969656.1910954779,-86918.54,-71790.61,-2743.2048,8382.202,-53073.203,21552.287,-10382.284,-49403.2
969656.1950954746,-86924.12,-71796.71,-2744.751,8377.279,-53084.598,21552.043,-10381.552,-49402.266
969656.1990954713,-86926.76,-71796.71,-2747.3552,8313.437,-53098.023,21539.877,-10384.604,-49402.1
969656.2030954679,-86929.0,-71793.375,-2747.111,8280.966,-53095.625,21530.314,-10388.632,-49403.77
969656.2070954646,-86926.11,-71793.83,-2749.6746,8309.286,-53077.598,21535.97,-10390.097,-49406.332
969656.2110954613,-86921.59,-71790.445,-2742.391,8363.037,-53067.383,21549.033,-10389.445,-49404.01
969656.2150954579,-86921.266,-71789.15,-2740.2344,8385.946,-53068.605,21552.287,-10392.741,-49405.273
969656.2190954546,-86922.81,-71793.42,-2741.9434,8347.697,-53081.016,21541.3,-10397.38,-49414.918
969656.2230954511,-86926.92,-71792.484,-2750.9766,8304.647,-53095.418,21533.732,-10394.247,-49415.324
969656.2270954478,-86922.734,-71790.77,-2749.878,8309.001,-53090.945,21534.873,-10391.562,-49405.684
969656.2310954445,-86925.91,-71796.59,-2744.1814,8353.354,-53081.055,21542.236,-10391.4795,-49406.7
969656.2350954411,-86922.24,-71794.35,-2740.6821,8340.576,-53083.58,21543.418,-10388.591,-49402.754
969656.2390954378,-86928.914,-71798.586,-2741.5366,8301.066,-53091.51,21535.605,-10389.975,-49403.566
969656.2430954345,-86912.07,-71784.79,-2745.158,8278.158,-53083.863,21522.137,-10395.59,-49403.484
969656.2470954311,-86911.22,-71786.3,-2737.671,8302.612,-53076.17,21530.479,-10397.014,-49412.883
969656.2510954278,-86913.21,-71786.87,-2739.0137,8334.921,-53067.465,21549.236,-10386.435,-49404.83
969656.2550954245,-86913.91,-71787.766,-2731.1199,8356.486,-53065.473,21552.654,-10382.772,-49407.715
969656.2590954211,-86910.89,-71785.89,-2729.37,8330.852,-53067.098,21540.691,-10385.58,-49406.82
969656.2630954178,-86909.18,-71781.45,-2736.8572,8284.872,-53089.277,21528.281,-10386.516,-49409.426
969656.2670954143,-86913.49,-71781.375,-2741.9434,8278.402,-53076.418,21532.227,-10383.383,-49401.734
969656.271095411,-86914.02,-71789.15,-2736.0435,8311.483,-53072.715,21541.992,-10382.446,-49402.266
969656.2750954077,-86909.55,-71789.02,-2727.702,8322.144,-53070.723,21546.348,-10385.173,-49414.797
969656.2790954043,-86910.65,-71788.82,-2737.3455,8285.482,-53076.336,21534.385,-10389.567,-49416.547
969656.283095401,-86911.18,-71789.43,-2740.3564,8253.825,-53077.15,21523.154,-10396.606,-49416.953
969656.2870953977,-86906.09,-71785.69,-2744.7917,8279.135,-53061.89,21532.512,-10391.154,-49405.684
969656.2910953943,-86913.29,-71791.914,-2737.5083,8328.166,-53054.12,21543.701,-10384.359,-49402.508
969656.295095391,-86916.67,-71796.35,-2732.3813,8344.687,-53055.258,21542.521,-10388.144,-49400.188
969656.2990953877,-86923.1,-71796.06,-2733.48,8309.245,-53062.137,21530.07,-10390.666,-49398.48
969656.3030953843,-86913.086,-71790.2,-2730.7537,8258.871,-53073.61,21517.01,-10392.66,-49405.965
969656.307095381,-86919.6,-71798.99,-2734.6191,8258.098,-53079.145,21525.352,-10391.032,-49418.582
969656.3110953775,-86906.21,-71789.35,-2730.4688,8316.936,-53063.477,21533.855,-10390.788,-49407.88
969656.3150953742,-86905.16,-71788.62,-2731.4048,8331.706,-53059.125,21537.436,-10393.596,-49408.246
969656.319095371,-86904.18,-71788.086,-2731.5674,8307.577,-53060.1,21530.355,-10392.619,-49407.39
969656.3230953675,-86903.445,-71785.85,-2736.6538,8290.283,-53063.6,21519.287,-10394.165,-49411.906
969656.3270953642,-86904.75,-71788.695,-2734.1309,8329.0205,-53056.97,21520.793,-10394.45,-49412.273
969656.3310953609,-86906.5,-71787.07,-2735.3516,8362.997,-53059.57,21531.738,-10392.904,-49413.21
969656.3350953575,-86907.96,-71791.625,-2734.497,8379.436,-53056.03,21534.14,-10393.107,-49413.21
969656.3390953542,-86914.43,-71800.82,-2739.1357,8342.407,-53073.0,21521.973,-10397.299,-49420.656
969656.3430953508,-86915.65,-71798.664,-2740.6414,8291.26,-53089.6,21511.598,-10404.094,-49427.086
969656.3470953475,-86911.79,-71794.92,-2744.8325,8302.043,-53085.734,21517.66,-10400.1875,-49416.465
969656.3510953442,-86916.836,-71797.04,-2739.9902,8336.63,-53060.547,21529.217,-10394.328,-49405.926
969656.3550953408,-86918.79,-71797.94,-2738.6475,8334.025,-53071.74,21531.006,-10391.4795,-49407.797
969656.3590953375,-86909.14,-71788.125,-2741.4958,8313.3545,-53080.61,21524.496,-10391.113,-49419.19
969656.3630953341,-86904.664,-71782.31,-2746.2566,8284.221,-53077.273,21516.398,-10390.381,-49411.38
969656.3670953307,-86911.87,-71792.56,-2745.036,8304.892,-53077.15,21520.63,-10390.259,-49407.066
969656.3710953274,-86914.836,-71798.22,-2735.8806,8364.096,-53074.79,21531.414,-10389.404,-49414.836
969656.3750953241,-86901.695,-71791.55,-2731.364,8397.461,-53063.844,21528.2,-10396.484,-49415.45
969656.3790953207,-86913.13,-71796.35,-2739.8276,8352.092,-53072.062,21517.457,-10400.473,-49416.953
969656.3830953174,-86912.11,-71795.414,-2750.4883,8302.979,-53074.344,21506.47,-10403.728,-49418.01
969656.387095314,-86912.72,-71797.94,-2746.704,8300.09,-53071.086,21512.9,-10400.229,-49414.105
969656.3910953107,-86914.02,-71797.04,-2739.9497,8334.88,-53066.49,21526.938,-10393.393,-49410.36
969656.3950953074,-86919.72,-71799.805,-2738.6882,8360.312,-53068.89,21530.111,-10397.136,-49423.098
969656.399095304,-86913.945,-71797.125,-2742.9607,8334.677,-53078.125,21522.666,-10395.508,-49422.61
969656.4030953007,-86911.7,-71793.22,-2741.3738,8308.513,-53076.99,21515.422,-10391.276,-49416.14
969656.4070952974,-86911.664,-71791.14,-2739.7056,8325.236,-53070.965,21519.451,-10393.107,-49421.266
969656.4110952939,-86909.1,-71791.266,-2742.1875,8363.607,-53062.582,21530.07,-10389.893,-49423.383
969656.4150952906,-86914.23,-71793.625,-2745.6055,8355.917,-53064.453,21531.658,-10394.613,-49424.93
969656.4190952873,-86915.37,-71791.55,-2749.4304,8299.032,-53076.375,21517.254,-10398.4375,-49421.47
969656.4230952839,-86916.266,-71791.79,-2753.0112,8270.834,-53082.723,21506.756,-10401.489,-49420.94
969656.4270952806,-86918.5,-71793.74,-2748.9421,8303.061,-53068.28,21513.307,-10403.524,-49422.406
969656.4310952772,-86919.92,-71795.086,-2751.709,8343.059,-53066.367,21522.422,-10402.263,-49423.953
969656.4350952739,-86920.01,-71799.89,-2744.3848,8373.535,-53063.113,21523.602,-10406.454,-49427.125
969656.4390952706,-86925.414,-71805.09,-2753.1333,8348.593,-53065.633,21514.893,-10412.231,-49439.82
969656.4430952672,-86918.83,-71793.87,-2754.069,8310.019,-53068.688,21504.03,-10408.081,-49430.38
969656.4470952639,-86911.664,-71791.71,-2754.476,8329.143,-53059.285,21506.389,-10404.379,-49418.906
969656.4510952606,-86917.4,-71802.164,-2749.5933,8373.861,-53061.117,21516.48,-10403.117,-49422.242
969656.4550952571,-86917.6,-71795.05,-2746.9482,8377.035,-53062.91,21518.596,-10405.192,-49426.758
969656.4590952538,-86914.23,-71794.72,-2751.6685,8343.262,-53078.125,21510.418,-10406.901,-49432.008
969656.4630952505,-86910.08,-71791.34,-2758.5857,8314.738,-53087.2,21499.92,-10404.541,-49427.695
969656.4670952471,-86914.72,-71794.68,-2757.4463,8320.639,-53072.023,21505.982,-10400.024,-49430.707
969656.4710952438,-86925.46,-71800.91,-2756.8767,8331.584,-53076.5,21518.516,-10393.759,-49428.223
969656.4750952404,-86911.625,-71793.09,-2757.08,8336.182,-53083.62,21519.613,-10390.097,-49420.535
969656.4790952371,-86915.77,-71793.3,-2758.3823,8324.911,-53078.656,21508.912,-10398.234,-49427.246
969656.4830952338,-86919.48,-71799.03,-2758.8298,8295.492,-53083.375,21499.594,-10404.745,-49432.66
969656.4870952304,-86923.83,-71800.3,-2764.7705,8304.565,-53075.727,21507.895,-10398.56,-49424.52
969656.4910952271,-86916.266,-71796.35,-2755.4932,8363.892,-53060.305,21517.783,-10391.887,-49410.36
969656.4950952238,-86916.586,-71794.92,-2746.2566,8387.329,-53063.438,21515.87,-10395.874,-49414.715
969656.4990952204,-86917.445,-71795.05,-2753.0925,8352.783,-53070.76,21505.615,-10400.595,-49424.277
969656.503095217,-86930.75,-71802.984,-2763.4685,8295.98,-53083.945,21495.24,-10403.198,-49425.863
969656.5070952137,-86917.08,-71791.75,-2763.8347,8299.683,-53075.887,21497.07,-10395.427,-49412.19
969656.5110952103,-86908.734,-71788.58,-2752.116,8346.884,-53064.863,21504.965,-10398.642,-49425.496
969656.515095207,-86919.6,-71795.62,-2750.0815,8369.101,-53069.336,21508.912,-10402.06,-49432.945
969656.5190952036,-86925.26,-71796.1,-2759.8064,8319.011,-53076.17,21498.658,-10410.93,-49434.043
969656.5230952003,-86925.46,-71792.97,-2763.143,8289.145,-53080.203,21489.258,-10411.865,-49435.47
969656.527095197,-86923.586,-71794.68,-2754.3132,8307.414,-53070.152,21495.322,-10404.216,-49427.938
969656.5310951936,-86925.5,-71797.164,-2751.7498,8335.083,-53066.367,21506.959,-10395.793,-49424.48
969656.5350951903,-86922.28,-71795.086,-2750.7732,8356.567,-53066.164,21508.139,-10397.99,-49433.31
969656.539095187,-86914.92,-71790.94,-2756.1035,8323.324,-53064.94,21494.996,-10399.821,-49427.938
969656.5430951836,-86926.64,-71799.12,-2761.19,8266.032,-53074.504,21486.207,-10399.699,-49425.05
969656.5470951803,-86921.67,-71793.3,-2757.9346,8298.259,-53071.332,21493.857,-10393.881,-49418.38
969656.551095177,-86908.81,-71786.09,-2752.1567,8345.703,-53059.246,21500.326,-10388.55,-49405.56
969656.5550951735,-86916.55,-71792.56,-2746.338,8361.898,-53063.234,21503.379,-10389.648,-49403.85
969656.5590951702,-86920.125,-71792.4,-2754.3945,8336.426,-53061.81,21497.314,-10392.66,-49407.31
969656.5630951668,-86916.47,-71787.36,-2756.7546,8312.134,-53062.01,21485.84,-10394.857,-49409.547
969656.5670951635,-86908.86,-71783.37,-2753.9878,8332.886,-53050.418,21488.73,-10391.602,-49400.473
969656.5710951602,-86906.414,-71784.266,-2748.6167,8367.554,-53045.535,21502.564,-10384.481,-49396.73
969656.5750951568,-86911.7,-71786.945,-2746.9482,8373.088,-53050.62,21506.877,-10383.057,-49399.78
969656.5790951535,-86909.43,-71784.14,-2747.111,8340.332,-53057.09,21494.264,-10388.794,-49405.195
969656.5830951502,-86910.484,-71787.03,-2751.6277,8307.007,-53067.18,21485.475,-10390.463,-49401.207
969656.5870951468,-86909.305,-71785.28,-2753.0925,8306.315,-53066.855,21488.975,-10390.178,-49397.992
969656.5910951435,-86911.79,-71789.516,-2747.4773,8332.724,-53057.13,21497.764,-10389.812,-49398.152
969656.5950951402,-86914.836,-71797.37,-2745.9717,8337.851,-53054.77,21498.455,-10392.619,-49407.676
969656.5990951367,-86916.75,-71795.21,-2752.1973,8291.992,-53057.863,21488.69,-10395.793,-49405.965
969656.6030951334,-86912.44,-71789.35,-2754.6794,8269.043,-53060.59,21484.295,-10392.172,-49396.04
969656.60709513,-86916.51,-71790.77,-2754.8015,8293.986,-53061.24,21490.56,-10387.248,-49398.926
969656.6110951267,-86918.22,-71795.01,-2742.5945,8346.884,-53057.13,21501.465,-10383.139,-49398.562
969656.6150951234,-86903.85,-71783.61,-2743.8152,8374.797,-53048.137,21500.693,-10387.533,-49392.824
969656.61909512,-86911.586,-71787.11,-2751.3022,8339.071,-53063.926,21490.072,-10395.264,-49408.246
969656.6230951167,-86911.95,-71789.67,-2755.2085,8284.668,-53074.098,21474.53,-10402.873,-49417.48
969656.6270951134,-86914.15,-71790.164,-2759.8472,8290.976,-53071.902,21478.312,-10404.013,-49417.195
969656.63109511,-86923.625,-71795.94,-2750.6511,8339.4375,-53074.992,21489.38,-10403.687,-49419.027
969656.6350951067,-86918.375,-71792.4,-2752.6855,8381.999,-53068.117,21492.31,-10403.32,-49414.39
969656.6390951033,-86922.37,-71796.51,-2751.9126,8366.293,-53072.55,21483.643,-10406.86,-49410.77
969656.6430951,-86918.5,-71793.7,-2751.9126,8326.254,-53071.168,21473.512,-10410.197,-49413.7
969656.6470950966,-86910.65,-71788.17,-2749.878,8346.64,-53061.566,21475.791,-10405.925,-49408.082
969656.6510950932,-86913.695,-71792.445,-2747.8843,8369.263,-53058.637,21485.352,-10403.198,-49407.105
969656.6550950899,-86919.195,-71797.734,-2751.0173,8366.008,-53064.453,21490.723,-10401.652,-49403.117
969656.6590950866,-86926.555,-71804.0,-2756.5513,8310.466,-53081.746,21480.469,-10408.041,-49407.637
969656.6630950832,-86932.414,-71806.73,-2764.5264,8274.455,-53087.65,21470.988,-10413.249,-49415.242
969656.6670950799,-86915.65,-71797.28,-2753.0518,8306.234,-53070.965,21478.924,-10404.419,-49399.66
969656.6710950766,-86909.23,-71790.85,-2745.28,8338.176,-53059.45,21487.225,-10402.792,-49399.254
969656.6750950732,-86911.5,-71795.05,-2741.862,8374.472,-53062.703,21489.87,-10402.507,-49395.387
969656.6790950699,-86913.25,-71795.53,-2744.1814,8367.636,-53065.84,21476.727,-10409.709,-49392.336
969656.6830950665,-86916.18,-71797.61,-2761.0679,8323.8125,-53062.38,21469.28,-10410.808,-49396.484
969656.6870950632,-86913.984,-71792.89,-2758.789,8341.024,-53062.785,21473.877,-10407.431,-49395.71
969656.6910950599,-86909.79,-71795.05,-2750.7732,8371.826,-53058.23,21483.074,-10405.192,-49394.492
969656.6950950564,-86913.58,-71797.24,-2751.0986,8379.3545,-53060.387,21489.422,-10407.268,-49394.94
969656.6990950531,-86915.2,-71793.5,-2759.8064,8345.988,-53065.555,21480.674,-10411.865,-49397.46
969656.7030950498,-86915.04,-71794.72,-2766.6016,8306.885,-53069.99,21467.45,-10417.847,-49397.91
969656.7070950464,-86917.484,-71794.805,-2767.8223,8295.451,-53071.25,21470.703,-10417.236,-49399.58
969656.7110950431,-86924.234,-71802.33,-2765.3809,8321.981,-53075.156,21478.436,-10419.434,-49408.164
969656.7150950398,-86920.74,-71801.19,-2758.4229,8348.227,-53063.805,21480.754,-10416.301,-49400.555
969656.7190950364,-86912.64,-71791.47,-2754.1912,8308.554,-53064.656,21469.646,-10418.132,-49393.23
969656.7230950331,-86911.46,-71788.25,-2766.8052,8283.529,-53065.88,21461.508,-10417.48,-49383.547
969656.7270950297,-86906.17,-71787.4,-2761.7188,8305.217,-53055.504,21468.467,-10417.155,-49392.945
969656.7310950264,-86902.02,-71789.43,-2755.9001,8339.641,-53049.36,21478.027,-10415.527,-49390.3
969656.7350950231,-86898.89,-71786.26,-2749.4712,8347.738,-53049.24,21479.533,-10420.085,-49396.16
969656.7390950196,-86897.87,-71780.44,-2748.7388,8307.292,-53057.7,21470.664,-10422.852,-49402.875
969656.7430950163,-86890.67,-71773.07,-2748.8608,8271.77,-53067.508,21459.514,-10421.225,-49397.055
969656.747095013,-86881.47,-71767.46,-2746.0532,8297.974,-53059.367,21466.188,-10414.795,-49383.79
969656.7510950096,-86884.4,-71768.72,-2740.9668,8347.697,-53052.41,21479.33,-10408.122,-49381.51
969656.7550950063,-86884.65,-71765.34,-2738.6475,8361.369,-53049.48,21483.848,-10406.779,-49383.832
969656.759095003,-86881.88,-71761.92,-2740.8855,8354.248,-53059.855,21481.69,-10407.268,-49384.2
969656.7630949996,-86881.47,-71760.5,-2749.5525,8324.626,-53061.2,21477.662,-10408.61,-49381.473
969656.7670949963,-86895.59,-71768.84,-2752.0347,8318.441,-53060.75,21484.863,-10409.384,-49382.367
969656.7710949929,-86898.89,-71771.08,-2752.4822,8346.68,-53053.875,21496.826,-10406.576,-49379.234
969656.7750949896,-86907.15,-71781.7,-2745.7683,8330.241,-53063.805,21498.576,-10408.936,-49382.652
969656.7790949863,-86911.625,-71788.05,-2753.825,8290.121,-53077.965,21489.99,-10415.283,-49397.664
969656.7830949828,-86912.36,-71791.625,-2754.6794,8275.798,-53083.133,21484.824,-10415.854,-49405.6
969656.7870949795,-86913.45,-71793.09,-2758.2195,8303.061,-53072.957,21490.723,-10412.069,-49406.375
969656.7910949762,-86917.195,-71798.055,-2752.523,8347.29,-53074.016,21499.268,-10408.366,-49403.77
969656.7950949728,-86931.195,-71811.89,-2746.46,8365.031,-53086.305,21504.559,-10412.761,-49413.21
969656.7990949695,-86929.484,-71811.16,-2756.4292,8328.817,-53097.86,21498.658,-10411.255,-49409.14
969656.8030949662,-86931.89,-71813.44,-2763.5498,8284.668,-53109.58,21491.66,-10408.203,-49403.77
969656.8070949628,-86935.63,-71816.98,-2763.7126,8303.345,-53102.418,21499.105,-10406.657,-49410.36
969656.8110949595,-86938.766,-71820.84,-2757.0396,8338.583,-53095.543,21508.18,-10405.681,-49414.31
969656.8150949561,-86940.72,-71821.945,-2758.789,8338.379,-53089.316,21514.404,-10400.229,-49412.8
969656.8190949528,-86930.38,-71811.65,-2766.5203,8304.403,-53090.13,21502.117,-10404.907,-49413.21
969656.8230949495,-86928.8,-71808.31,-2769.2058,8272.461,-53091.473,21491.62,-10411.337,-49418.133
969656.827094946,-86933.64,-71815.266,-2769.572,8277.141,-53088.094,21494.59,-10413.33,-49421.754
969656.8310949428,-86934.77,-71815.06,-2761.2305,8313.437,-53089.6,21506.715,-10404.46,-49417.97
969656.8350949395,-86927.734,-71809.695,-2754.6387,8332.968,-53093.875,21507.732,-10406.494,-49414.797
969656.839094936,-86928.39,-71810.266,-2759.8877,8313.11,-53106.49,21499.432,-10406.332,-49413.13
969656.8430949327,-86928.06,-71812.87,-2763.9976,8283.8545,-53106.082,21491.21,-10406.332,-49418.742
969656.8470949294,-86935.266,-71820.72,-2765.6658,8294.353,-53088.22,21496.908,-10403.931,-49416.344
969656.851094926,-86929.61,-71819.42,-2762.7769,8318.115,-53082.93,21505.332,-10399.577,-49417.93
969656.8550949227,-86931.805,-71823.125,-2762.2886,8353.109,-53080.0,21504.762,-10401.855,-49424.766
969656.8590949193,-86941.94,-71829.1,-2765.1775,8340.414,-53090.863,21491.74,-10408.732,-49426.312
969656.863094916,-86945.84,-71833.78,-2781.4536,8282.634,-53103.11,21483.521,-10409.587,-49428.062
969656.8670949127,-86944.18,-71834.76,-2796.875,8294.516,-53093.914,21492.025,-10402.507,-49417.074
969656.8710949093,-86933.68,-71827.27,-2793.6606,8340.495,-53088.42,21504.803,-10394.125,-49407.31
969656.875094906,-86933.84,-71826.54,-2786.4585,8359.985,-53088.543,21511.719,-10390.91,-49407.43
969656.8790949027,-86930.87,-71824.055,-2796.7937,8335.49,-53090.945,21501.75,-10390.788,-49399.457
969656.8830948992,-86929.77,-71820.97,-2802.3682,8303.183,-53096.844,21489.707,-10393.352,-49404.137
969656.8870948959,-86935.02,-71823.94,-2803.833,8316.081,-53092.734,21491.008,-10394.328,-49410.688
969656.8910948926,-86946.336,-71833.58,-2805.6235,8331.218,-53091.39,21498.74,-10396.24,-49413.496
969656.8950948892,-86937.09,-71827.84,-2791.3818,8339.4375,-53084.637,21500.164,-10401.001,-49416.547
969656.8990948859,-86936.81,-71822.67,-2799.3164,8318.115,-53083.21,21494.914,-10399.048,-49411.258
969656.9030948825,-86934.82,-71820.6,-2804.4434,8296.347,-53083.58,21487.06,-10400.717,-49414.31
969656.9070948792,-86932.21,-71820.56,-2803.4668,8332.072,-53074.63,21495.117,-10395.671,-49409.832
969656.9110948759,-86936.81,-71826.74,-2797.933,8373.373,-53066.082,21503.623,-10390.097,-49409.953
969656.9150948725,-86929.61,-71822.8,-2795.1255,8364.787,-53055.055,21504.518,-10389.689,-49407.758
969656.9190948692,-86926.6,-71821.86,-2793.2537,8338.339,-53078.574,21496.705,-10391.928,-49403.605
969656.9230948659,-86926.11,-71823.04,-2799.235,8313.192,-53095.906,21491.455,-10391.073,-49404.785
969656.9270948624,-86931.36,-71824.305,-2798.869,8323.283,-53088.094,21500.367,-10384.5625,-49399.09
969656.9310948591,-86931.766,-71824.586,-2798.2585,8333.456,-53082.36,21511.395,-10378.866,-49390.22
969656.9350948557,-86927.53,-71823.2,-2793.6606,8329.631,-53087.242,21516.887,-10377.482,-49383.832
969656.9390948524,-86926.96,-71824.51,-2794.1895,8301.636,-53083.375,21507.041,-10381.226,-49385.457
969656.9430948491,-86930.625,-71825.73,-2799.113,8271.24,-53083.78,21493.979,-10384.807,-49387.695
969656.9470948457,-86937.95,-71832.56,-2799.276,8274.008,-53087.445,21497.885,-10379.68,-49380.984
969656.9510948424,-86942.38,-71839.56,-2793.6606,8343.872,-53075.93,21511.027,-10369.426,-49376.71
969656.9550948391,-86921.35,-71821.9,-2786.9873,8372.559,-53062.176,21515.38,-10371.054,-49385.945
969656.9590948357,-86899.46,-71798.625,-2782.0232,8346.313,-53054.65,21503.785,-10381.796,-49380.574
969656.9630948324,-86908.734,-71807.74,-2794.6777,8307.007,-53066.164,21497.6,-10380.9,-49382.773
969656.9670948291,-86903.57,-71803.47,-2793.2944,8341.838,-53060.184,21498.332,-10384.766,-49404.746
969656.9710948257,-86909.02,-71802.29,-2791.2192,8365.438,-53050.58,21507.406,-10383.179,-49408.652
969656.9750948224,-86901.05,-71796.02,-2787.5571,8365.072,-53049.074,21508.709,-10380.087,-49395.02
969656.9790948189,-86904.42,-71797.94,-2790.2832,8317.627,-53074.504,21498.984,-10380.249,-49393.35
969656.9830948156,-86906.82,-71803.43,-2794.271,8274.699,-53077.516,21494.67,-10376.018,-49389.12
969656.9870948123,-86904.22,-71799.6,-2790.1206,8313.3545,-53065.066,21501.14,-10366.333,-49378.543
969656.9910948089,-86899.984,-71796.63,-2782.2673,8327.026,-53058.066,21509.727,-10363.7295,-49376.387
969656.9950948056,-86899.58,-71798.26,-2781.4536,8347.738,-53062.258,21514.934,-10365.153,-49375.45
969656.9990948023,-86895.875,-71800.09,-2779.2969,8329.59,-53072.145,21504.111,-10370.321,-49374.51
969657.0030947989,-86891.89,-71794.88,-2785.1157,8292.603,-53067.383,21491.049,-10373.047,-49370.89
969657.0070947956,-86892.74,-71793.87,-2785.8074,8315.349,-53061.28,21492.96,-10375.326,-49374.92
969657.0110947923,-86900.76,-71803.51,-2780.8025,8337.199,-53080.69,21501.791,-10371.948,-49375.164
969657.0150947889,-86895.35,-71799.6,-2784.8716,8357.382,-53081.543,21505.535,-10366.333,-49369.266
969657.0190947856,-86895.914,-71800.54,-2786.3364,8333.822,-53087.324,21497.764,-10368.652,-49371.992
969657.0230947821,-86893.4,-71795.62,-2794.9219,8300.334,-53082.645,21491.334,-10365.642,-49364.42
969657.0270947788,-86889.695,-71794.27,-2787.9233,8326.945,-53069.824,21496.135,-10364.706,-49362.1
969657.0310947755,-86893.4,-71797.164,-2779.9072,8356.649,-53065.555,21504.232,-10362.631,-49357.87
969657.0350947721,-86905.52,-71806.07,-2779.3784,8359.579,-53071.656,21508.018,-10367.798,-49374.15
969657.0390947688,-86892.46,-71797.125,-2779.7039,8331.869,-53082.805,21496.908,-10371.054,-49370.445
969657.0430947655,-86898.12,-71797.41,-2786.906,8295.004,-53105.39,21487.266,-10372.111,-49368.086
969657.0470947621,-86908.66,-71806.64,-2786.621,8307.536,-53098.715,21492.555,-10369.345,-49369.957
969657.0510947588,-86904.55,-71805.7,-2781.128,8347.453,-53081.746,21501.018,-10365.845,-49370.81
969657.0550947555,-86895.71,-71799.08,-2783.3252,8371.501,-53077.312,21505.371,-10363.037,-49361.53
969657.0590947521,-86902.39,-71800.5,-2786.499,8344.401,-53073.406,21499.105,-10361.328,-49353.516
969657.0630947488,-86896.94,-71795.53,-2791.5854,8293.498,-53080.566,21487.06,-10364.95,-49358.81
969657.0670947453,-86897.75,-71796.875,-2789.144,8310.059,-53077.965,21489.951,-10363.647,-49362.062
969657.071094742,-86897.914,-71800.91,-2790.324,8341.797,-53071.168,21497.885,-10357.097,-49349.285
969657.0750947387,-86903.52,-71805.26,-2781.0874,8351.522,-53082.48,21502.32,-10359.253,-49352.46
969657.0790947353,-86905.93,-71808.15,-2785.197,8332.724,-53085.164,21493.816,-10368.124,-49365.074
969657.083094732,-86900.64,-71801.84,-2796.5496,8313.437,-53081.383,21486.166,-10366.781,-49363.16
969657.0870947287,-86903.61,-71797.33,-2791.8296,8326.213,-53073.242,21489.584,-10362.834,-49355.43
969657.0910947253,-86903.73,-71796.63,-2783.2847,8350.708,-53068.523,21496.014,-10365.072,-49360.477
969657.095094722,-86906.7,-71802.62,-2782.8777,8353.394,-53069.95,21496.299,-10368.896,-49367.555
969657.0990947187,-86909.79,-71805.99,-2796.753,8311.972,-53093.1,21485.596,-10375.732,-49368.777
969657.1030947153,-86901.29,-71797.98,-2785.4412,8288.696,-53095.258,21475.871,-10375.041,-49362.875
969657.107094712,-86900.516,-71802.164,-2772.2576,8316.569,-53082.848,21480.998,-10373.332,-49365.195
969657.1110947086,-86903.93,-71809.94,-2766.2761,8359.823,-53078.613,21491.172,-10370.239,-49367.516
969657.1150947053,-86901.25,-71805.79,-2761.5154,8369.223,-53078.492,21492.758,-10372.478,-49359.62
969657.119094702,-86904.664,-71806.36,-2767.0085,8337.036,-53087.402,21486.004,-10377.6045,-49370.117
969657.1230946985,-86914.39,-71812.38,-2771.8914,8313.029,-53089.6,21476.727,-10384.074,-49377.688
969657.1270946952,-86922.77,-71818.766,-2766.032,8312.419,-53086.184,21478.842,-10383.789,-49375.49
969657.1310946919,-86906.945,-71807.984,-2765.3809,8342.814,-53069.418,21488.566,-10374.309,-49356.16
969657.1350946885,-86911.42,-71810.266,-2758.9927,8358.725,-53067.668,21488.893,-10380.127,-49367.027
969657.1390946852,-86911.38,-71808.48,-2768.7988,8328.41,-53075.035,21480.266,-10383.261,-49377.77
969657.1430946819,-86908.086,-71809.45,-2772.705,8287.68,-53084.84,21468.873,-10382.121,-49373.332
969657.1470946785,-86904.46,-71805.87,-2768.8396,8302.694,-53079.67,21468.629,-10385.092,-49377.645
969657.1510946752,-86908.086,-71809.98,-2766.7236,8315.959,-53085.492,21473.553,-10387.248,-49384.562
969657.1550946718,-86909.06,-71813.11,-2762.5327,8321.981,-53085.574,21479.533,-10384.604,-49378.34
969657.1590946685,-86907.43,-71812.42,-2764.852,8297.852,-53087.812,21474.53,-10384.399,-49367.96
969657.1630946652,-86905.6,-71808.76,-2765.1367,8266.113,-53091.35,21462.89,-10389.079,-49375.246
969657.1670946617,-86898.03,-71800.62,-2759.0332,8306.723,-53074.87,21468.262,-10386.923,-49373.332
969657.1710946584,-86898.69,-71806.64,-2756.185,8348.755,-53069.746,21476.441,-10381.918,-49369.14
969657.1750946551,-86901.125,-71808.59,-2758.0566,8342.245,-53068.035,21482.016,-10378.378,-49362.266
969657.1790946517,-86897.305,-71804.65,-2761.7595,8290.935,-53071.777,21467.123,-10381.877,-49362.062
969657.1830946484,-86889.94,-71797.81,-2757.5278,8274.984,-53072.797,21457.275,-10382.568,-49361.29
969657.1870946451,-86883.266,-71794.92,-2748.2505,8288.737,-53064.375,21464.56,-10378.744,-49357.26
969657.1910946417,-86888.266,-71800.58,-2747.6401,8301.962,-53056.6,21472.9,-10377.197,-49363.203
969657.1950946384,-86891.56,-71805.26,-2745.4429,8338.949,-53056.6,21479.045,-10379.069,-49363.973
969657.199094635,-86898.484,-71807.945,-2752.6042,8320.557,-53062.215,21471.232,-10383.789,-49368.98
969657.2030946317,-86907.836,-71812.13,-2755.0864,8280.233,-53066.0,21465.049,-10388.266,-49380.94
969657.2070946284,-86896.04,-71805.46,-2757.1208,8291.382,-53059.367,21467.082,-10381.186,-49361.125
969657.211094625,-86906.21,-71811.77,-2755.4932,8284.668,-53059.57,21471.314,-10381.43,-49362.55
969657.2150946216,-86906.945,-71813.805,-2752.3193,8296.225,-53060.59,21472.535,-10383.708,-49373.945
969657.2190946183,-86900.44,-71810.02,-2752.3193,8293.01,-53060.344,21465.088,-10380.371,-49362.184
969657.2230946149,-86901.29,-71808.72,-2753.6216,8283.407,-53065.84,21457.846,-10382.284,-49362.633
969657.2270946116,-86900.516,-71810.836,-2750.0815,8284.14,-53069.824,21464.072,-10384.155,-49375.57
969657.2310946083,-86900.92,-71812.055,-2755.4932,8299.398,-53069.133,21474.285,-10384.237,-49371.707
969657.2350946049,-86901.086,-71814.62,-2755.1677,8327.678,-53071.82,21476.768,-10385.498,-49373.047
969657.2390946016,-86900.92,-71812.79,-2758.9927,8304.159,-53077.598,21466.838,-10386.638,-49372.195
969657.2430945982,-86908.086,-71817.875,-2762.8174,8261.638,-53085.33,21458.172,-10387.045,-49367.39
969657.2470945949,-86908.695,-71820.48,-2762.329,8278.728,-53083.457,21461.955,-10384.5625,-49363.28
969657.2510945916,-86908.9,-71822.875,-2754.476,8314.047,-53078.047,21469.768,-10385.742,-49363.16
969657.2550945882,-86914.31,-71827.48,-2760.783,8337.851,-53070.11,21475.465,-10383.789,-49365.926
969657.2590945848,-86915.77,-71826.3,-2761.5154,8316.61,-53073.812,21464.805,-10389.975,-49376.59
969657.2630945815,-86914.19,-71821.01,-2758.016,8301.555,-53071.25,21454.266,-10390.91,-49369.71
969657.2670945781,-86905.195,-71817.75,-2761.3933,8320.679,-53063.52,21458.13,-10383.871,-49359.99
969657.2710945748,-86903.445,-71818.24,-2758.3823,8335.165,-53062.703,21465.414,-10384.399,-49364.992
969657.2750945714,-86911.95,-71821.54,-2755.0457,8340.21,-53072.918,21468.223,-10388.306,-49373.17
969657.2790945681,-86914.02,-71826.54,-2759.4402,8309.286,-53082.52,21463.055,-10385.905,-49369.59
969657.2830945648,-86905.195,-71822.19,-2760.4167,8283.977,-53078.37,21454.062,-10387.614,-49362.633
969657.2870945614,-86899.58,-71820.92,-2764.1602,8299.316,-53070.11,21458.172,-10383.586,-49357.465
969657.2910945581,-86907.23,-71828.164,-2759.9692,8322.104,-53068.93,21463.746,-10386.23,-49367.23
969657.2950945548,-86910.445,-71830.2,-2757.6091,8327.148,-53070.312,21465.658,-10389.364,-49369.387
969657.2990945514,-86911.7,-71828.695,-2754.3132,8281.576,-53087.527,21457.316,-10390.097,-49365.113
969657.303094548,-86909.79,-71826.58,-2762.5732,8253.825,-53092.734,21451.865,-10387.858,-49364.91
969657.3070945448,-86912.234,-71827.15,-2765.1367,8280.151,-53088.46,21458.008,-10390.178,-49362.59
969657.3110945413,-86916.34,-71833.414,-2764.323,8313.803,-53088.95,21462.363,-10390.137,-49366.293
969657.315094538,-86916.266,-71834.11,-2756.7954,8333.252,-53088.42,21465.414,-10392.416,-49378.418
969657.3190945346,-86911.91,-71829.1,-2757.8533,8311.035,-53084.11,21458.945,-10388.632,-49366.902
969657.3230945313,-86910.12,-71827.234,-2757.6091,8293.132,-53084.35,21448.61,-10388.55,-49363.527
969657.327094528,-86915.94,-71830.53,-2750.936,8315.593,-53076.457,21453.37,-10386.597,-49363.324
969657.3310945246,-86907.76,-71822.06,-2758.3008,8333.618,-53069.703,21456.787,-10389.201,-49358.44
969657.3350945213,-86910.93,-71825.97,-2755.2898,8308.513,-53077.516,21459.066,-10394.043,-49362.348
969657.339094518,-86918.74,-71833.17,-2756.0222,8288.005,-53081.953,21451.865,-10400.513,-49374.27
969657.3430945146,-86920.984,-71832.73,-2773.0713,8273.315,-53079.875,21445.72,-10402.344,-49373.25
969657.3470945113,-86913.086,-71828.62,-2766.561,8325.114,-53070.273,21450.44,-10396.484,-49361.74
969657.351094508,-86913.695,-71829.555,-2759.6436,8369.914,-53064.656,21457.602,-10394.328,-49363.484
969657.3550945045,-86915.37,-71831.664,-2759.1553,8364.462,-53064.863,21457.764,-10398.52,-49372.56
969657.3590945012,-86921.43,-71831.42,-2763.3057,8321.005,-53074.547,21448.73,-10403.524,-49377.32
969657.3630944978,-86924.32,-71831.34,-2771.6472,8270.02,-53083.496,21437.744,-10406.535,-49375.41
969657.3670944945,-86921.59,-71832.44,-2766.9678,8284.506,-53084.395,21439.78,-10409.099,-49381.105
969657.3710944912,-86919.31,-71831.71,-2760.0913,8324.748,-53078.86,21447.592,-10410.645,-49383.344
969657.3750944878,-86921.836,-71838.055,-2761.8003,8337.646,-53078.33,21453.29,-10406.535,-49379.273
969657.3790944845,-86918.22,-71837.65,-2762.2886,8322.714,-53079.1,21441.814,-10411.255,-49377.156
969657.3830944812,-86912.48,-71832.28,-2766.0728,8302.124,-53080.69,21429.973,-10416.179,-49377.688
969657.3870944778,-86909.51,-71827.68,-2765.1775,8321.208,-53064.656,21435.223,-10412.558,-49369.223
969657.3910944745,-86910.24,-71829.23,-2760.2134,8333.049,-53058.758,21444.133,-10411.987,-49371.176
969657.3950944712,-86916.266,-71836.43,-2754.9644,8342.814,-53064.168,21448.08,-10411.54,-49372.438
969657.3990944677,-86914.35,-71832.93,-2752.9705,8330.7295,-53071.574,21440.553,-10411.581,-49370.605
969657.4030944644,-86901.734,-71820.92,-2762.2478,8305.868,-53073.812,21434.775,-10403.483,-49361.37
969657.407094461,-86899.82,-71820.97,-2751.6277,8309.896,-53069.906,21440.186,-10402.385,-49360.15
969657.4110944577,-86896.41,-71820.234,-2743.978,8328.817,-53071.535,21448.65,-10396.647,-49346.234
969657.4150944544,-86900.92,-71821.78,-2746.1753,8329.916,-53072.188,21455.648,-10390.869,-49337.08
969657.419094451,-86900.88,-71818.32,-2751.058,8306.112,-53078.453,21452.516,-10390.503,-49350.914
969657.4230944477,-86898.69,-71816.81,-2747.8843,8307.536,-53086.55,21451.498,-10389.445,-49360.8
969657.4270944444,-86893.11,-71812.016,-2751.3428,8322.226,-53078.656,21463.258,-10383.383,-49350.668
969657.431094441,-86895.51,-71813.88,-2750.0815,8326.376,-53072.633,21473.715,-10384.44,-49355.754
969657.4350944377,-86900.76,-71819.91,-2748.6167,8336.63,-53075.32,21477.988,-10385.173,-49358.195
969657.4390944344,-86899.984,-71823.125,-2744.3035,8336.02,-53084.35,21472.576,-10389.567,-49362.67
969657.443094431,-86899.414,-71819.22,-2748.983,8301.2295,-53085.777,21467.326,-10392.822,-49369.63
969657.4470944277,-86894.375,-71816.66,-2751.3022,8315.063,-53077.72,21471.191,-10387.533,-49360.72
969657.4510944242,-86894.62,-71815.43,-2747.4365,8344.198,-53072.348,21480.062,-10384.604,-49361.74
969657.4550944209,-86893.48,-71810.34,-2746.8262,8333.903,-53073.0,21483.807,-10380.941,-49353.23
969657.4590944176,-86893.76,-71810.55,-2749.0642,8326.742,-53072.348,21476.238,-10384.888,-49351.973
969657.4630944142,-86893.07,-71808.555,-2752.3193,8319.011,-53072.188,21470.582,-10386.19,-49347.78
969657.4670944109,-86888.67,-71804.04,-2749.1863,8350.342,-53064.535,21478.842,-10384.848,-49354.535
969657.4710944076,-86888.836,-71806.805,-2743.8152,8364.584,-53056.684,21486.857,-10380.697,-49359.09
969657.4750944042,-86894.45,-71818.08,-2740.3564,8361.125,-53067.87,21487.469,-10377.93,-49354.207
969657.4790944009,-86901.29,-71820.97,-2748.291,8338.054,-53081.22,21480.43,-10378.296,-49357.504
969657.4830943976,-86900.88,-71818.89,-2757.2021,8284.79,-53091.797,21471.6,-10380.168,-49361.94
969657.4870943942,-86885.99,-71807.66,-2748.2505,8294.108,-53081.79,21479.941,-10371.216,-49357.504
969657.4910943909,-86873.54,-71797.2,-2742.5945,8335.205,-53072.105,21486.125,-10367.961,-49354.13
969657.4950943874,-86871.83,-71794.11,-2736.8572,8358.562,-53079.55,21488.242,-10369.792,-49357.26
969657.4990943841,-86862.266,-71783.61,-2742.5945,8340.007,-53074.91,21478.516,-10371.867,-49354.004
969657.5030943808,-86863.445,-71782.836,-2750.529,8305.786,-53077.395,21470.703,-10375.0,-49358.562
969657.5070943774,-86861.695,-71786.38,-2745.28,8326.986,-53075.074,21475.465,-10378.581,-49369.266
969657.5110943741,-86831.914,-71759.28,-2742.3503,8348.959,-53068.2,21476.889,-10380.087,-49367.84
969657.5150943708,-86817.266,-71737.305,-2737.8745,8355.551,-53062.34,21477.58,-10385.214,-49377.484
969657.5190943674,-86808.76,-71725.016,-2737.6304,8334.025,-53067.832,21468.832,-10389.567,-49381.594
969657.5230943641,-86806.27,-71718.51,-2743.042,8308.31,-53068.523,21461.955,-10392.212,-49382.977
969657.5270943608,-86791.99,-71709.8,-2741.0889,8328.613,-53066.57,21464.355,-10391.684,-49387.453
969657.5310943574,-86771.77,-71689.086,-2729.9805,8353.435,-53057.863,21470.867,-10390.137,-49384.605
969657.5350943541,-86761.03,-71675.945,-2727.6206,8352.539,-53052.41,21472.453,-10390.788,-49383.832
969657.5390943506,-86754.56,-71663.984,-2728.231,8323.69,-53059.082,21464.56,-10394.572,-49387.41
969657.5430943473,-86747.52,-71664.875,-2734.7412,8308.92,-53062.01,21456.137,-10397.624,-49392.336
969657.547094344,-86736.94,-71656.91,-2732.5847,8333.74,-53053.184,21460.816,-10396.322,-49393.516
969657.5510943406,-86722.336,-71641.234,-2727.9053,8357.463,-53046.023,21467.082,-10393.759,-49387.086
969657.5550943373,-86709.555,-71632.94,-2721.273,8376.872,-53040.73,21469.89,-10390.544,-49383.06
969657.559094334,-86698.57,-71618.62,-2720.2148,8362.224,-53048.953,21463.176,-10392.741,-49388.797
969657.5630943306,-86682.984,-71605.39,-2718.0176,8332.438,-53050.984,21455.566,-10394.165,-49389.934
969657.5670943273,-86674.08,-71599.37,-2716.024,8326.335,-53034.465,21461.02,-10385.986,-49381.797
969657.5710943239,-86666.75,-71592.66,-2713.2568,8322.754,-53029.01,21466.39,-10385.214,-49380.656
969657.5750943206,-86655.4,-71577.805,-2710.3271,8342.978,-53024.336,21467.246,-10389.689,-49385.945
969657.5790943173,-86656.05,-71577.64,-2716.7156,8334.106,-53035.32,21461.143,-10395.996,-49385.742
969657.5830943139,-86651.695,-71575.6,-2720.4185,8313.477,-53038.086,21449.586,-10400.269,-49385.418
969657.5870943106,-86643.84,-71567.67,-2720.4185,8342.814,-53021.61,21450.318,-10402.385,-49389.812
969657.5910943073,-86637.33,-71560.38,-2716.4714,8372.03,-53008.87,21454.59,-10403.076,-49393.027
969657.5950943038,-86637.45,-71560.47,-2711.6294,8378.988,-53009.117,21458.334,-10402.263,-49398.074
969657.5990943005,-86638.35,-71560.914,-2718.8315,8338.542,-53027.223,21450.928,-10403.239,-49407.676
969657.6030942972,-86626.71,-71553.1,-2716.1052,8292.929,-53038.29,21442.791,-10404.948,-49409.02
969657.6070942938,-86620.164,-71545.78,-2715.739,8308.105,-53038.168,21452.557,-10397.787,-49397.137
969657.6110942905,-86615.03,-71540.0,-2707.6824,8324.097,-53035.2,21461.02,-10391.276,-49381.27
969657.6150942871,-86612.23,-71541.14,-2704.0203,8352.905,-53030.76,21464.64,-10391.195,-49379.52
969657.6190942838,-86608.12,-71535.766,-2705.8513,8327.963,-53030.03,21453.533,-10400.351,-49401.695
969657.6230942805,-86605.39,-71528.73,-2708.4148,8299.724,-53032.715,21442.344,-10406.901,-49405.684
969657.6270942771,-86601.85,-71524.01,-2714.559,8325.155,-53024.66,21444.012,-10408.366,-49403.242
969657.6310942738,-86602.46,-71526.66,-2707.357,8348.022,-53023.926,21451.254,-10407.1455,-49397.625
969657.6350942705,-86610.4,-71534.38,-2706.828,8353.76,-53016.93,21455.242,-10404.053,-49399.78
969657.639094267,-86613.125,-71536.38,-2710.9783,8328.817,-53026.082,21448.242,-10406.332,-49406.902
969657.6430942637,-86619.59,-71537.84,-2716.9597,8307.902,-53028.89,21443.197,-10407.593,-49406.17
969657.6470942604,-86613.24,-71535.69,-2713.501,8337.973,-53021.85,21450.156,-10398.193,-49396.73
969657.651094257,-86614.51,-71543.54,-2711.019,8357.097,-53028.605,21457.56,-10392.05,-49390.992
969657.6550942537,-86631.15,-71557.91,-2711.4666,8341.228,-53037.883,21458.578,-10393.677,-49389.57
969657.6590942503,-86635.91,-71561.61,-2713.745,8326.457,-53035.156,21450.195,-10397.949,-49384.32
969657.663094247,-86640.305,-71567.63,-2716.7156,8307.048,-53037.19,21440.146,-10402.182,-49388.633
969657.6670942437,-86668.54,-71587.445,-2719.8894,8331.218,-53034.06,21443.604,-10407.675,-49406.293
969657.6710942403,-86678.06,-71600.836,-2719.7673,8365.194,-53027.1,21451.783,-10405.273,-49398.926
969657.675094237,-86681.89,-71608.97,-2719.1978,8367.27,-53038.7,21454.998,-10406.413,-49396.12
969657.6790942337,-86700.73,-71621.79,-2724.4468,8329.916,-53048.22,21449.424,-10406.86,-49392.54
969657.6830942302,-86708.414,-71627.97,-2728.7192,8284.953,-53053.47,21444.988,-10399.984,-49374.27
969657.687094227,-86713.664,-71629.234,-2729.6143,8292.074,-53046.797,21452.475,-10393.393,-49372.355
969657.6910942236,-86718.71,-71635.17,-2724.4873,8322.104,-53040.812,21457.643,-10388.957,-49373.535
969657.6950942202,-86730.23,-71646.24,-2721.3542,8341.391,-53043.01,21457.031,-10387.207,-49368.043
969657.6990942169,-86737.15,-71654.09,-2724.284,8331.137,-53050.66,21445.191,-10393.107,-49372.03
969657.7030942135,-86743.45,-71660.93,-2727.1323,8298.869,-53052.45,21438.232,-10395.752,-49377.484
969657.7070942102,-86754.31,-71671.02,-2728.8413,8304.606,-53055.34,21444.053,-10395.142,-49379.76
969657.7110942069,-86769.9,-71687.016,-2730.5908,8327.556,-53058.39,21453.898,-10392.822,-49376.953
969657.7150942035,-86775.88,-71698.08,-2728.9634,8325.155,-53060.957,21458.496,-10393.759,-49381.797
969657.7190942002,-86782.88,-71699.22,-2737.7117,8297.079,-53062.176,21454.998,-10391.073,-49378.094
969657.7230941969,-86793.016,-71711.19,-2741.0483,8284.506,-53066.855,21448.61,-10391.276,-49374.88
969657.7270941935,-86787.07,-71707.28,-2732.2185,8319.458,-53059.207,21450.889,-10387.085,-49364.46
969657.7310941902,-86786.336,-71706.83,-2727.6611,8354.696,-53046.31,21455.322,-10383.708,-49361.086
969657.7350941868,-86794.48,-71715.336,-2727.0508,8354.94,-53046.918,21454.469,-10382.65,-49357.79
969657.7390941834,-86800.664,-71722.91,-2731.9744,8318.604,-53063.4,21446.86,-10386.19,-49358.113
969657.7430941801,-86809.05,-71728.11,-2741.2517,8273.193,-53082.03,21439.453,-10388.916,-49360.598
969657.7470941767,-86810.875,-71735.72,-2737.915,8281.779,-53080.934,21444.5,-10388.916,-49361.453
969657.7510941734,-86819.7,-71748.336,-2738.037,8315.959,-53070.8,21455.242,-10386.3125,-49364.668
969657.7550941701,-86831.016,-71754.68,-2738.5254,8329.956,-53066.0,21459.922,-10384.237,-49365.277
969657.7590941667,-86834.59,-71755.62,-2741.1704,8292.685,-53071.332,21452.76,-10382.406,-49361.004
969657.7630941634,-86833.74,-71757.98,-2751.5464,8289.47,-53071.25,21443.645,-10381.511,-49360.027
969657.7670941601,-86836.34,-71764.04,-2749.349,8321.452,-53064.984,21446.371,-10378.256,-49359.66
969657.7710941567,-86833.414,-71761.516,-2743.327,8339.682,-53064.008,21450.889,-10374.634,-49357.992
969657.7750941534,-86838.55,-71765.83,-2740.2344,8329.306,-53070.312,21450.156,-10374.228,-49352.01
969657.77909415,-86844.61,-71769.984,-2742.9607,8284.587,-53084.598,21440.309,-10379.721,-49355.31
969657.7830941466,-86850.875,-71772.83,-2746.7449,8257.324,-53095.055,21434.45,-10387.126,-49363.77
969657.7870941433,-86856.9,-71782.63,-2747.3552,8286.011,-53086.914,21438.762,-10387.207,-49364.258
969657.7910941399,-86857.67,-71783.0,-2744.751,8324.748,-53076.215,21449.424,-10387.533,-49367.96
969657.7950941366,-86858.195,-71788.17,-2746.7449,8345.175,-53070.234,21455.242,-10387.004,-49365.195
969657.7990941333,-86860.07,-71788.25,-2746.704,8323.73,-53068.727,21448.406,-10389.364,-49361.574
969657.8030941299,-86857.75,-71781.74,-2748.983,8301.84,-53088.137,21438.72,-10386.394,-49348.348
969657.8070941266,-86854.54,-71782.836,-2746.867,8308.554,-53089.48,21439.291,-10381.552,-49343.914
969657.8110941233,-86856.164,-71785.36,-2739.6648,8337.973,-53081.34,21444.418,-10373.657,-49335.652
969657.8150941199,-86856.08,-71785.36,-2740.316,8343.303,-53070.11,21450.848,-10367.92,-49320.273
969657.8190941166,-86856.94,-71783.86,-2741.8213,8315.349,-53067.71,21445.068,-10372.111,-49327.72
969657.8230941133,-86864.75,-71788.01,-2745.3613,8282.512,-53076.336,21435.508,-10378.662,-49337.04
969657.8270941098,-86861.01,-71788.336,-2746.7856,8316.406,-53061.363,21436.973,-10379.11,-49337.324
969657.8310941065,-86867.07,-71797.125,-2742.5945,8340.414,-53059.9,21443.604,-10377.93,-49338.34
969657.8350941031,-86875.98,-71804.57,-2742.3096,8335.002,-53065.145,21447.998,-10376.506,-49328.047
969657.8390940998,-86868.29,-71800.01,-2747.4773,8300.578,-53071.453,21440.268,-10376.14,-49329.305
969657.8430940965,-86875.98,-71804.85,-2746.867,8272.99,-53083.54,21428.71,-10382.08,-49335.9
969657.8470940931,-86874.96,-71803.71,-2747.5994,8274.333,-53080.12,21433.432,-10379.191,-49333.17
969657.8510940898,-86876.63,-71802.21,-2745.9312,8303.223,-53070.355,21444.256,-10374.512,-49334.598
969657.8550940865,-86877.0,-71805.79,-2745.8496,8310.751,-53070.64,21447.266,-10376.669,-49344.523
969657.8590940831,-86885.46,-71811.24,-2748.291,8279.745,-53074.465,21444.947,-10381.796,-49348.836
969657.8630940798,-86880.05,-71807.7,-2749.4712,8281.576,-53071.98,21444.297,-10378.906,-49341.758
969657.8670940764,-86873.58,-71803.96,-2751.5464,8306.4375,-53065.88,21447.918,-10375.732,-49328.98
969657.871094073,-86874.96,-71807.984,-2751.1394,8322.185,-53061.65,21451.457,-10373.779,-49329.836
969657.8750940698,-86877.93,-71810.586,-2749.2676,8328.817,-53057.82,21448.895,-10375.244,-49333.293
969657.8790940663,-86883.016,-71812.26,-2755.656,8303.02,-53071.047,21434.082,-10382.08,-49337.934
969657.883094063,-86880.336,-71809.98,-2750.9766,8273.071,-53075.24,21421.592,-10385.742,-49338.746
969657.8870940597,-86875.086,-71806.32,-2754.1912,8288.086,-53066.0,21425.62,-10379.802,-49329.67
969657.8910940563,-86877.32,-71809.9,-2748.4539,8307.861,-53074.586,21432.943,-10376.343,-49320.68
969657.895094053,-86874.27,-71808.48,-2743.693,8319.255,-53079.47,21435.059,-10379.639,-49324.3
969657.8990940497,-86880.62,-71812.016,-2748.6572,8301.025,-53084.598,21432.373,-10383.301,-49330.12
969657.9030940463,-86889.81,-71819.26,-2762.2886,8272.339,-53090.09,21429.688,-10385.905,-49340.945
969657.907094043,-86892.664,-71824.1,-2763.6313,8319.011,-53078.656,21438.438,-10385.539,-49348.27
969657.9110940396,-86894.695,-71826.74,-2756.5918,8354.574,-53065.023,21445.11,-10387.045,-49353.19
969657.9150940363,-86896.08,-71830.12,-2757.1208,8336.874,-53051.637,21444.947,-10388.021,-49352.785
969657.919094033,-86900.96,-71834.76,-2759.5215,8289.795,-53067.914,21433.39,-10391.113,-49350.87
969657.9230940295,-86906.74,-71834.48,-2764.0789,8263.184,-53087.08,21420.654,-10387.207,-49339.844
969657.9270940262,-86906.45,-71838.18,-2763.4277,8291.138,-53083.133,21422.69,-10380.209,-49320.516
969657.9310940229,-86894.58,-71830.33,-2744.7917,8304.606,-53080.0,21427.734,-10381.022,-49320.234
969657.9350940195,-86874.76,-71808.68,-2746.1753,8307.617,-53068.89,21431.723,-10378.988,-49313.152
969657.9390940162,-86883.914,-71813.195,-2752.6855,8309.57,-53070.438,21429.484,-10382.976,-49323.652
969657.9430940129,-86887.086,-71818.61,-2758.0566,8282.431,-53079.266,21425.172,-10386.027,-49330.0
969657.9470940095,-86888.266,-71819.7,-2755.8188,8297.689,-53079.918,21428.996,-10384.074,-49321.98
969657.9510940062,-86898.805,-71828.66,-2753.4587,8303.427,-53079.305,21434.896,-10385.254,-49324.953
969657.9550940028,-86897.71,-71826.21,-2754.1099,8295.207,-53085.086,21433.025,-10388.754,-49346.965
969657.9590939995,-86897.055,-71823.85,-2758.1787,8278.809,-53088.91,21423.91,-10392.985,-49355.88
969657.9630939962,-86908.66,-71831.42,-2761.5967,8260.539,-53094.117,21418.986,-10394.613,-49348.188
969657.9670939927,-86895.47,-71821.33,-2759.5623,8297.526,-53085.45,21422.283,-10387.533,-49338.016
969657.9710939894,-86893.27,-71819.99,-2748.169,8326.416,-53074.3,21424.48,-10385.783,-49335.574
969657.9750939861,-86888.96,-71818.93,-2744.9138,8344.238,-53066.53,21424.805,-10381.43,-49329.754
969657.9790939827,-86882.0,-71814.05,-2747.9656,8316.488,-53071.168,21415.568,-10379.802,-49326.375
969657.9830939794,-86883.99,-71818.195,-2755.9001,8283.447,-53075.645,21412.803,-10376.669,-49319.05
969657.9870939761,-86885.46,-71819.83,-2756.5513,8296.225,-53071.617,21424.195,-10368.896,-49315.88
969657.9910939727,-86889.57,-71822.96,-2757.1208,8311.768,-53072.957,21435.385,-10366.415,-49315.88
969657.9950939694,-86898.64,-71829.96,-2758.789,8306.885,-53083.824,21438.844,-10369.304,-49319.5
969657.999093966,-86901.45,-71833.09,-2763.5093,8265.137,-53094.117,21430.42,-10374.634,-49322.43
969658.0030939627,-86900.35,-71835.57,-2768.148,8234.985,-53091.15,21418.986,-10379.802,-49324.87
969658.0070939594,-86900.88,-71834.8,-2763.2651,8262.817,-53085.164,21419.883,-10377.89,-49319.215
969658.011093956,-86903.69,-71835.414,-2758.667,8298.056,-53078.74,21426.922,-10376.018,-49317.18
969658.0150939527,-86898.484,-71830.89,-2751.0986,8315.959,-53069.62,21429.893,-10374.594,-49318.074
969658.0190939493,-86894.25,-71827.516,-2751.3022,8294.882,-53070.438,21421.55,-10374.919,-49315.676
969658.0230939459,-86890.1,-71825.85,-2756.2256,8276.896,-53066.652,21412.68,-10375.977,-49317.26
969658.0270939426,-86889.61,-71825.195,-2754.1912,8310.913,-53059.695,21415.0,-10374.716,-49316.49
969658.0310939393,-86890.75,-71822.875,-2753.2554,8328.9795,-53062.297,21421.225,-10373.739,-49318.645
969658.0350939359,-86895.19,-71828.45,-2754.7202,8309.367,-53072.754,21423.748,-10374.96,-49318.727
969658.0390939326,-86898.03,-71833.01,-2761.312,8269.613,-53081.22,21416.545,-10382.121,-49327.35
969658.0430939292,-86902.59,-71835.414,-2768.9617,8222.168,-53090.496,21408.408,-10388.754,-49338.746
969658.0470939259,-86903.164,-71837.04,-2768.2292,8251.791,-53074.63,21413.006,-10388.428,-49339.64
969658.0510939226,-86908.77,-71845.26,-2763.143,8274.984,-53074.06,21420.248,-10389.079,-49339.152
969658.0550939192,-86908.29,-71845.586,-2754.7202,8287.558,-53081.42,21420.207,-10395.264,-49345.83
969658.0590939159,-86910.85,-71842.695,-2758.4636,8269.775,-53090.332,21416.383,-10397.583,-49349.773
969658.0630939126,-86909.18,-71840.62,-2762.0037,8261.638,-53084.758,21406.82,-10400.351,-49350.63
969658.0670939091,-86904.26,-71835.414,-2751.5056,8282.593,-53073.977,21408.244,-10399.089,-49350.832
969658.0710939058,-86890.625,-71826.664,-2749.3083,8290.731,-53066.043,21410.32,-10390.178,-49340.008
969658.0750939025,-86897.18,-71833.5,-2750.122,8273.234,-53075.32,21408.732,-10390.951,-49337.77
969658.0790938991,-86901.0,-71837.28,-2754.8828,8248.617,-53079.266,21406.047,-10392.7,-49339.438
969658.0830938958,-86897.34,-71832.52,-2760.0098,8245.321,-53074.3,21403.2,-10394.003,-49339.52
969658.0870938924,-86897.87,-71834.27,-2761.0679,8274.577,-53067.586,21414.268,-10389.079,-49329.715
969658.0910938891,-86898.484,-71836.59,-2758.2603,8316.772,-53063.723,21426.19,-10384.155,-49324.465
969658.0950938858,-86898.07,-71834.555,-2754.7607,8325.521,-53071.004,21430.543,-10383.301,-49326.863
969658.0990938824,-86903.85,-71840.7,-2759.9692,8282.553,-53083.58,21428.06,-10386.068,-49337.445
969658.1030938791,-86907.35,-71842.086,-2763.5498,8265.056,-53086.836,21425.049,-10386.597,-49341.105
969658.1070938758,-86903.32,-71838.18,-2763.7126,8287.354,-53079.47,21431.316,-10381.633,-49331.34
969658.1110938723,-86906.5,-71840.984,-2755.2898,8315.186,-53076.62,21437.867,-10381.389,-49330.85
969658.115093869,-86906.82,-71839.64,-2751.3835,8307.292,-53080.69,21436.809,-10384.196,-49341.27
969658.1190938657,-86904.38,-71835.77,-2749.6746,8273.845,-53085.53,21429.81,-10383.301,-49338.746
969658.1230938623,-86898.89,-71830.08,-2750.1628,8253.378,-53093.02,21423.87,-10380.941,-49332.93
969658.127093859,-86893.555,-71824.586,-2749.9595,8248.047,-53085.37,21425.213,-10372.519,-49326.094
969658.1310938556,-86896.734,-71829.14,-2750.9766,8254.965,-53079.793,21438.438,-10366.984,-49325.766
969658.1350938523,-86898.44,-71827.92,-2749.9595,8276.083,-53081.586,21443.93,-10368.815,-49329.633
969658.139093849,-86901.29,-71831.586,-2756.3071,8279.053,-53090.008,21439.78,-10372.355,-49332.562
969658.1430938456,-86900.8,-71831.46,-2758.3416,8283.529,-53093.02,21441.123,-10369.467,-49326.418
969658.1470938423,-86898.07,-71830.61,-2755.8188,8293.905,-53082.234,21447.795,-10367.351,-49330.812
969658.151093839,-86896.65,-71831.016,-2751.0986,8299.4795,-53081.055,21457.846,-10360.474,-49327.11
969658.1550938356,-86896.98,-71831.83,-2744.2222,8286.499,-53088.664,21460.775,-10354.248,-49318.727
969658.1590938322,-86893.19,-71829.39,-2743.0015,8242.432,-53093.14,21455.201,-10349.895,-49315.96
969658.1630938288,-86887.984,-71826.42,-2738.8916,8257.446,-53083.66,21451.213,-10347.453,-49312.746
969658.1670938255,-86887.9,-71823.164,-2738.1187,8278.361,-53072.348,21453.125,-10342.163,-49306.195
969658.1710938222,-86885.375,-71822.96,-2736.6538,8275.31,-53073.69,21459.31,-10339.519,-49305.055
969658.1750938188,-86885.336,-71822.305,-2737.02,8295.329,-53075.605,21460.775,-10338.054,-49297.977
969658.1790938155,-86888.305,-71823.08,-2744.0186,8306.723,-53075.645,21454.672,-10342.855,-49303.633
969658.1830938122,-86886.56,-71823.57,-2746.8262,8281.779,-53077.027,21447.998,-10345.093,-49306.316
969658.1870938088,-86884.484,-71822.06,-2747.1924,8290.527,-53074.992,21454.184,-10343.425,-49306.152
969658.1910938055,-86883.63,-71822.266,-2739.746,8288.33,-53074.586,21459.596,-10343.832,-49315.918
969658.1950938022,-86881.88,-71824.14,-2738.4849,8269.816,-53085.9,21459.229,-10343.018,-49307.78
969658.1990937988,-86882.94,-71823.28,-2742.3503,8254.3545,-53093.305,21454.834,-10344.971,-49306.316
969658.2030937955,-86884.85,-71818.73,-2743.9373,8244.426,-53089.355,21448.73,-10345.622,-49319.824
969658.207093792,-86888.19,-71822.266,-2741.333,8277.751,-53082.723,21451.865,-10339.682,-49314.09
969658.2110937887,-86889.9,-71823.445,-2736.491,8308.838,-53078.94,21455.69,-10341.35,-49318.035
969658.2150937854,-86888.92,-71823.41,-2742.147,8303.549,-53077.35,21452.393,-10344.076,-49318.727
969658.219093782,-86896.85,-71827.27,-2747.6807,8276.205,-53077.395,21443.604,-10349.772,-49322.39
969658.2230937787,-86893.68,-71822.96,-2750.6511,8275.146,-53073.0,21434.49,-10353.557,-49322.51
969658.2270937754,-86893.68,-71821.9,-2752.6855,8296.916,-53069.094,21439.902,-10350.424,-49318.727
969658.231093772,-86894.086,-71825.445,-2748.169,8306.804,-53060.26,21447.877,-10348.471,-49313.113
969658.2350937687,-86892.984,-71824.47,-2745.1987,8312.785,-53062.094,21449.748,-10350.22,-49311.688
969658.2390937654,-86891.93,-71821.29,-2743.6523,8269.694,-53069.867,21444.662,-10353.882,-49322.266
969658.243093762,-86888.8,-71823.0,-2744.995,8242.025,-53076.457,21439.088,-10352.539,-49314.617
969658.2470937587,-86885.016,-71823.41,-2737.3862,8261.149,-53081.016,21442.303,-10351.645,-49314.332
969658.2510937552,-86881.11,-71824.34,-2731.9336,8284.75,-53074.14,21447.104,-10350.586,-49314.7
969658.2550937519,-86882.98,-71826.54,-2733.3984,8286.459,-53081.42,21444.947,-10351.278,-49312.01
969658.2590937486,-86887.78,-71828.086,-2743.6523,8270.63,-53084.758,21436.443,-10356.283,-49312.258
969658.2630937452,-86895.23,-71834.39,-2750.692,8266.5205,-53080.203,21431.885,-10361.572,-49316.246
969658.2670937419,-86888.516,-71828.9,-2750.8953,8290.854,-53073.57,21437.664,-10356.649,-49316.816
969658.2710937386,-86886.766,-71824.51,-2748.7793,8319.865,-53072.594,21445.436,-10350.18,-49313.64
969658.2750937352,-86893.516,-71826.46,-2744.8325,8305.014,-53071.617,21447.145,-10350.383,-49317.547
969658.2790937319,-86892.945,-71826.42,-2750.9766,8263.916,-53073.73,21442.344,-10348.593,-49311.363
969658.2830937286,-86892.055,-71828.164,-2752.0347,8254.028,-53070.438,21438.926,-10349.813,-49309.98
969658.2870937252,-86894.375,-71833.54,-2747.0703,8282.187,-53063.438,21440.146,-10353.638,-49319.094
969658.2910937219,-86897.016,-71840.375,-2746.8262,8309.367,-53067.344,21445.15,-10351.726,-49321.047
969658.2950937185,-86899.87,-71841.8,-2744.7104,8320.964,-53077.35,21444.621,-10352.865,-49322.957
969658.2990937151,-86903.12,-71838.22,-2746.8262,8303.264,-53078.492,21437.826,-10352.621,-49319.01
969658.3030937118,-86903.57,-71839.234,-2755.1677,8270.346,-53086.426,21433.758,-10351.604,-49314.453
969658.3070937084,-86902.836,-71839.07,-2753.4995,8284.099,-53088.22,21442.832,-10346.558,-49303.875
969658.3110937051,-86896.0,-71835.82,-2755.5747,8287.476,-53079.957,21447.307,-10344.238,-49302.37
969658.3150937018,-86895.02,-71835.49,-2754.1912,8282.715,-53080.69,21448.406,-10347.372,-49321.98
969658.3190936984,-86894.45,-71831.586,-2752.0752,8270.386,-53082.4,21444.174,-10348.755,-49325.848
969658.3230936951,-86895.71,-71832.12,-2759.8064,8249.838,-53081.625,21437.541,-10349.162,-49323.895
969658.3270936918,-86893.68,-71830.41,-2757.7312,8273.479,-53072.957,21442.139,-10344.6045,-49314.535
969658.3310936884,-86892.055,-71829.59,-2748.6167,8315.959,-53068.074,21445.557,-10343.832,-49312.95
969658.3350936851,-86896.484,-71834.39,-2746.867,8324.789,-53072.594,21440.959,-10347.168,-49309.367
969658.3390936817,-86893.72,-71834.8,-2752.36,8307.089,-53078.574,21432.496,-10351.156,-49313.805
969658.3430936784,-86898.84,-71840.82,-2759.6436,8284.18,-53087.04,21425.498,-10358.806,-49318.156
969658.347093675,-86897.22,-71835.9,-2761.19,8289.307,-53079.227,21434.531,-10354.289,-49309.652
969658.3510936716,-86886.97,-71831.79,-2756.9175,8286.906,-53077.23,21442.139,-10349.65,-49304.242
969658.3550936683,-86888.305,-71833.13,-2755.2085,8281.494,-53075.887,21444.662,-10349.936,-49315.023
969658.359093665,-86886.84,-71827.64,-2757.9346,8255.737,-53070.76,21437.867,-10349.487,-49317.793
969658.3630936616,-86890.625,-71827.234,-2764.974,8212.118,-53076.05,21429.566,-10349.691,-49313.19
969658.3670936583,-86887.29,-71828.05,-2759.1553,8258.22,-53066.734,21435.303,-10347.128,-49307.09
969658.371093655,-86886.805,-71826.945,-2754.5166,8295.451,-53063.316,21441.732,-10347.453,-49307.008
969658.3750936516,-86887.695,-71828.375,-2754.069,8298.096,-53067.14,21443.604,-10347.616,-49309.53
969658.3790936483,-86885.46,-71829.14,-2750.936,8295.37,-53068.156,21441.041,-10348.1045,-49303.508
969658.3830936449,-86884.73,-71829.8,-2751.0173,8279.867,-53064.168,21434.287,-10348.755,-49299.277
969658.3870936416,-86877.28,-71824.75,-2752.6042,8285.319,-53062.215,21438.926,-10345.744,-49300.945
969658.3910936383,-86877.52,-71825.805,-2747.4773,8299.5205,-53069.906,21444.256,-10342.326,-49295.207
969658.3950936348,-86884.484,-71827.805,-2750.2036,8277.019,-53079.1,21442.018,-10341.635,-49283.69
969658.3990936315,-86887.86,-71827.64,-2752.5635,8265.544,-53088.46,21435.791,-10347.25,-49292.48
969658.4030936282,-86882.57,-71822.23,-2759.8877,8266.235,-53076.703,21428.467,-10354.086,-49308.473
969658.4070936248,-86881.72,-71820.64,-2761.19,8289.958,-53069.906,21433.96,-10352.865,-49304.363
969658.4110936215,-86880.13,-71820.64,-2755.0864,8319.946,-53072.31,21438.559,-10351.807,-49302.004
969658.4150936182,-86881.47,-71824.38,-2758.789,8316.813,-53072.43,21437.826,-10354.492,-49304.12
969658.4190936148,-86885.54,-71826.46,-2762.6953,8284.872,-53076.133,21432.334,-10355.266,-49301.19
969658.4230936115,-86884.24,-71827.48,-2762.6953,8258.464,-53077.56,21427.246,-10353.068,-49298.098
969658.4270936081,-86887.86,-71828.45,-2756.185,8265.666,-53073.895,21432.252,-10352.011,-49294.92
969658.4310936048,-86886.35,-71832.64,-2750.0815,8287.517,-53068.77,21439.129,-10353.149,-49299.195
969658.4350936015,-86881.266,-71831.55,-2751.831,8291.301,-53071.535,21434.775,-10357.707,-49307.13
969658.439093598,-86885.74,-71834.48,-2756.5918,8271.078,-53077.883,21425.742,-10367.473,-49323.49
969658.4430935947,-86886.48,-71832.07,-2761.312,8265.625,-53074.992,21418.213,-10374.228,-49321.535
969658.4470935914,-86881.06,-71830.08,-2757.65,8287.395,-53066.57,21420.654,-10371.054,-49315.88
969658.451093588,-86880.945,-71831.016,-2753.2146,8308.024,-53063.844,21428.143,-10365.194,-49307.09
969658.4550935847,-86880.78,-71833.05,-2749.5117,8290.609,-53071.168,21427.043,-10364.828,-49304.445
969658.4590935813,-86881.19,-71830.12,-2750.814,8270.183,-53071.492,21425.742,-10363.688,-49301.516
969658.463093578,-86875.164,-71821.66,-2750.285,8279.867,-53071.86,21422.04,-10364.055,-49303.957
969658.4670935747,-86876.67,-71826.375,-2751.2207,8311.035,-53066.043,21427.328,-10361.084,-49301.066
969658.4710935713,-86873.21,-71823.164,-2748.9014,8321.493,-53065.066,21431.479,-10359.863,-49292.848
969658.475093568,-86878.95,-71828.734,-2748.8608,8294.638,-53070.64,21430.176,-10359.904,-49287.64
969658.4790935647,-86891.73,-71836.51,-2750.2441,8246.582,-53077.883,21421.143,-10368.571,-49308.96
969658.4830935613,-86888.02,-71831.22,-2755.8188,8236.694,-53073.527,21414.348,-10372.437,-49314.82
969658.487093558,-86881.88,-71830.85,-2753.2554,8274.048,-53059.652,21415.977,-10371.745,-49318.24
969658.4910935547,-86885.26,-71830.81,-2744.629,8308.472,-53056.277,21425.172,-10367.595,-49312.91
969658.4950935512,-86884.28,-71830.734,-2743.4082,8300.741,-53059.773,21424.887,-10365.561,-49308.555
969658.4990935479,-86882.0,-71828.58,-2750.407,8284.465,-53062.38,21420.654,-10366.781,-49310.547
969658.5030935445,-86879.36,-71825.03,-2752.523,8266.5205,-53058.637,21413.656,-10368.408,-49308.35
969658.5070935412,-86877.69,-71823.695,-2749.8374,8269.897,-53064.82,21416.424,-10365.072,-49306.52
969658.5110935379,-86873.17,-71825.93,-2744.3035,8288.696,-53069.62,21421.184,-10362.0205,-49305.867
969658.5150935345,-86873.62,-71826.664,-2744.7917,8293.864,-53071.777,21417.93,-10365.112,-49309.938
969658.5190935312,-86875.164,-71824.34,-2747.4773,8266.846,-53077.395,21412.598,-10368.979,-49308.31
969658.5230935279,-86878.13,-71825.32,-2751.5464,8257.609,-53077.15,21407.838,-10370.972,-49315.84
969658.5270935245,-86882.04,-71828.164,-2749.8374,8286.011,-53067.098,21412.639,-10365.764,-49311.89
969658.5310935212,-86880.66,-71827.68,-2749.3896,8308.35,-53062.176,21419.19,-10360.637,-49306.316
969658.5350935179,-86883.99,-71824.42,-2751.3428,8288.127,-53062.867,21418.174,-10360.84,-49306.234
969658.5390935144,-86889.24,-71830.08,-2757.6904,8258.952,-53078.29,21409.506,-10363.281,-49306.438
969658.5430935111,-86891.28,-71827.92,-2761.8003,8258.708,-53080.69,21403.361,-10364.299,-49307.332
969658.5470935077,-86893.96,-71829.266,-2759.074,8282.064,-53064.863,21405.273,-10364.136,-49310.793
969658.5510935044,-86894.695,-71833.336,-2754.069,8318.034,-53054.2,21409.873,-10367.514,-49313.113
969658.5550935011,-86889.61,-71828.62,-2755.8188,8316.203,-53058.105,21408.447,-10368.083,-49310.547
969658.5590934977,-86884.16,-71826.21,-2758.3416,8293.498,-53062.99,21400.066,-10371.42,-49310.14
969658.5630934944,-86884.16,-71824.016,-2761.2305,8254.232,-53062.094,21394.41,-10375.204,-49311.445
969658.5670934911,-86880.375,-71821.125,-2759.2368,8252.36,-53063.926,21395.996,-10378.988,-49318.2
969658.5710934877,-86879.16,-71823.28,-2756.5513,8273.193,-53053.793,21403.973,-10375.8545,-49314.74
969658.5750934844,-86879.64,-71821.945,-2754.0283,8286.743,-53049.277,21404.705,-10374.309,-49312.38
969658.5790934811,-86881.59,-71822.875,-2755.2898,8288.534,-53061.32,21398.398,-10373.983,-49308.39
969658.5830934776,-86883.18,-71824.016,-2762.899,8280.233,-53069.746,21392.172,-10373.373,-49308.96
969658.5870934743,-86882.37,-71825.4,-2761.2712,8295.044,-53065.35,21397.34,-10367.88,-49308.637
969658.5910934709,-86880.336,-71822.19,-2757.5684,8306.071,-53067.71,21401.531,-10362.143,-49298.992
969658.5950934676,-86887.45,-71829.23,-2755.005,8290.609,-53080.566,21401.979,-10357.504,-49288.168
969658.5990934643,-86891.56,-71834.96,-2757.1208,8252.197,-53092.695,21395.06,-10359.335,-49292.684
969658.6030934609,-86895.8,-71837.24,-2764.2417,8236.41,-53100.223,21391.725,-10364.828,-49303.266
969658.6070934576,-86890.22,-71832.32,-2759.7656,8280.192,-53080.0,21397.543,-10365.275,-49305.746
969658.6110934543,-86881.555,-71828.984,-2752.116,8310.873,-53070.8,21403.361,-10361.735,-49298.137
969658.6150934509,-86878.336,-71826.87,-2757.4463,8291.423,-53069.336,21402.385,-10360.067,-49290.324
969658.6190934476,-86875.29,-71821.33,-2759.4402,8270.549,-53076.54,21395.264,-10364.38,-49294.11
969658.6230934443,-86871.79,-71815.266,-2764.201,8251.262,-53063.6,21385.54,-10365.764,-49294.07
969658.6270934409,-86870.98,-71817.67,-2760.5388,8260.864,-53054.85,21388.307,-10363.566,-49293.62
969658.6310934376,-86870.164,-71819.336,-2756.4697,8281.332,-53053.223,21396.484,-10360.881,-49295.168
969658.6350934341,-86868.984,-71817.14,-2753.662,8294.475,-53051.84,21397.666,-10361.084,-49299.277
969658.6390934308,-86872.07,-71820.27,-2754.4353,8277.588,-53058.31,21391.033,-10363.852,-49295.535
969658.6430934275,-86877.52,-71823.695,-2761.6782,8264.526,-53057.82,21386.639,-10365.601,-49289.754
969658.6470934241,-86879.64,-71822.96,-2757.6091,8291.098,-53051.434,21393.352,-10367.27,-49310.508
969658.6510934208,-86876.875,-71825.12,-2753.7437,8322.348,-53050.375,21396.037,-10368.449,-49314.168
969658.6550934175,-86883.55,-71827.19,-2754.5981,8309.855,-53047.12,21391.562,-10372.03,-49315.35
969658.6590934141,-86885.46,-71826.74,-2758.016,8270.752,-53058.516,21384.727,-10373.657,-49314.008
969658.6630934108,-86881.47,-71821.74,-2761.6375,8251.303,-53064.74,21382.406,-10370.972,-49304.566
969658.6670934075,-86879.36,-71821.05,-2759.9692,8270.793,-53060.26,21390.992,-10363.485,-49293.17
969658.6710934041,-86879.73,-71819.13,-2759.9285,8291.667,-53058.15,21399.658,-10357.016,-49283.69
969658.6750934008,-86880.01,-71822.8,-2761.8816,8286.987,-53062.38,21399.09,-10354.004,-49279.83
969658.6790933973,-86879.97,-71823.24,-2760.661,8270.427,-53066.082,21393.922,-10357.26,-49286.176
969658.683093394,-86875.164,-71820.03,-2760.7017,8266.073,-53062.055,21385.459,-10359.416,-49291.098
969658.6870933907,-86873.13,-71816.57,-2759.8472,8294.841,-53059.695,21388.062,-10356.079,-49290.285
969658.6910933873,-86875.77,-71823.61,-2753.1738,8308.065,-53073.203,21393.516,-10356.73,-49288.168
969658.695093384,-86876.67,-71822.47,-2754.354,8288.086,-53078.98,21390.87,-10359.335,-49291.87
969658.6990933807,-86875.57,-71820.03,-2756.9988,8265.015,-53083.254,21389.201,-10361.776,-49293.945
969658.7030933773,-86878.38,-71823.77,-2763.4277,8234.619,-53082.97,21384.277,-10364.177,-49294.312
969658.707093374,-86873.87,-71819.91,-2759.2773,8261.271,-53068.688,21388.592,-10363.811,-49293.785
969658.7110933707,-86871.22,-71816.49,-2754.476,8284.506,-53070.516,21394.736,-10361.572,-49292.402
969658.7150933673,-86872.52,-71817.586,-2752.6855,8269.165,-53082.723,21392.498,-10361.532,-49293.66
969658.719093364,-86872.234,-71815.266,-2755.6968,8235.393,-53083.863,21385.336,-10364.828,-49293.38
969658.7230933605,-86869.96,-71813.84,-2757.8533,8227.295,-53077.19,21382.121,-10363.444,-49293.867
969658.7270933572,-86869.14,-71813.44,-2756.7139,8254.313,-53066.49,21385.58,-10361.45,-49295.656
969658.7310933539,-86867.555,-71811.08,-2754.1099,8279.663,-53061.77,21392.945,-10356.039,-49290.938
969658.7350933505,-86867.19,-71813.766,-2755.4932,8270.59,-53069.133,21391.398,-10355.835,-49296.062
969658.7390933472,-86869.71,-71813.27,-2754.8015,8270.793,-53071.13,21387.451,-10356.567,-49292.81
969658.7430933439,-86867.15,-71808.07,-2757.65,8264.079,-53068.77,21381.145,-10356.853,-49290.73
969658.7470933405,-86868.25,-71809.57,-2755.3306,8273.315,-53070.152,21382.08,-10355.917,-49287.598
969658.7510933372,-86868.45,-71810.875,-2753.1333,8280.681,-53067.06,21390.342,-10352.661,-49279.95
969658.7550933338,-86870.61,-71813.31,-2759.359,8250.407,-53078.453,21389.242,-10352.377,-49271.73
969658.7590933305,-86875.125,-71817.06,-2763.8347,8230.144,-53082.44,21386.027,-10354.818,-49280.805
969658.7630933272,-86875.77,-71816.86,-2772.6646,8232.748,-53077.56,21383.83,-10354.858,-49280.887
969658.7670933238,-86876.71,-71819.336,-2769.857,8265.463,-53072.957,21391.521,-10352.539,-49281.25
969658.7710933205,-86878.83,-71821.05,-2764.974,8301.555,-53072.348,21398.56,-10353.557,-49289.594
969658.7750933171,-86882.66,-71828.86,-2765.4624,8293.051,-53074.79,21399.293,-10358.969,-49293.38
969658.7790933137,-86882.734,-71834.27,-2764.7705,8274.618,-53083.984,21394.248,-10362.631,-49300.58
969658.7830933104,-86884.52,-71835.98,-2766.3574,8241.699,-53091.105,21388.021,-10365.683,-49306.6
969658.7870933071,-86886.92,-71835.62,-2763.6719,8238.159,-53087.08,21393.148,-10364.746,-49304.61
969658.7910933037,-86887.125,-71835.98,-2758.7485,8283.773,-53078.29,21403.32,-10359.579,-49310.47
969658.7950933004,-86887.086,-71838.055,-2759.318,8291.667,-53079.184,21402.996,-10358.725,-49313.4
969658.799093297,-86887.62,-71837.0,-2759.4402,8279.867,-53081.465,21400.352,-10357.097,-49307.293
969658.8030932937,-86883.18,-71831.22,-2759.9692,8269.003,-53082.234,21397.014,-10355.51,-49302.207
969658.8070932904,-86882.086,-71833.664,-2758.6265,8288.168,-53078.535,21402.508,-10350.139,-49298.586
969658.811093287,-86884.28,-71836.836,-2755.8594,8298.462,-53074.707,21411.662,-10343.384,-49292.848
969658.8150932837,-86886.11,-71836.59,-2753.662,8276.408,-53074.832,21409.465,-10341.553,-49294.11
969658.8190932804,-86883.06,-71831.34,-2751.1394,8260.905,-53071.98,21401.531,-10344.6455,-49294.883
969658.8230932769,-86880.86,-71829.39,-2751.4243,8254.191,-53069.418,21393.31,-10348.471,-49292.562
969658.8270932736,-86882.41,-71831.016,-2751.3428,8276.489,-53061.117,21397.014,-10348.877,-49286.46
969658.8310932703,-86880.58,-71829.35,-2749.1863,8299.602,-53062.46,21402.223,-10346.151,-49283.406
969658.8350932669,-86878.586,-71830.89,-2746.867,8272.827,-53073.49,21400.473,-10353.027,-49308.434
969658.8390932636,-86879.516,-71832.97,-2747.3145,8249.268,-53072.594,21396.934,-10354.289,-49309.164
969658.8430932602,-86878.22,-71831.305,-2754.1504,8243.856,-53073.12,21395.02,-10353.354,-49307.13
969658.8470932569,-86876.305,-71831.016,-2750.936,8278.687,-53065.27,21402.02,-10350.749,-49308.23
969658.8510932536,-86880.13,-71831.38,-2747.6807,8313.232,-53058.15,21411.297,-10345.825,-49306.6
969658.8550932502,-86880.86,-71834.234,-2747.518,8307.007,-53069.746,21410.564,-10344.035,-49301.516
969658.8590932469,-86882.695,-71834.92,-2754.4353,8288.778,-53069.215,21405.762,-10344.076,-49294.312
969658.8630932436,-86885.22,-71837.41,-2759.359,8259.44,-53068.688,21400.676,-10342.855,-49292.24
969658.8670932401,-86883.38,-71838.46,-2754.8828,8258.383,-53070.355,21403.525,-10339.641,-49288.168
969658.8710932368,-86884.89,-71838.99,-2750.6104,8284.14,-53072.55,21409.953,-10337.851,-49282.758
969658.8750932335,-86884.85,-71840.01,-2752.645,8273.682,-53077.598,21409.547,-10337.891,-49286.95
969658.8790932301,-86884.24,-71839.97,-2753.825,8268.107,-53083.78,21405.152,-10338.786,-49285.973
969658.8830932268,-86879.16,-71836.06,-2753.9878,8288.981,-53081.992,21403.076,-10337.402,-49281.25
969658.8870932234,-86875.49,-71832.52,-2748.8608,8310.303,-53070.312,21411.174,-10329.956,-49272.258
969658.8910932201,-86872.64,-71829.06,-2742.92,8306.274,-53065.066,21420.33,-10323.324,-49274.375
969658.8950932168,-86871.38,-71827.6,-2742.5945,8280.722,-53068.93,21414.023,-10327.597,-49278.73
969658.8990932134,-86871.586,-71832.766,-2746.0125,8237.671,-53076.824,21403.688,-10334.351,-49285.566
969658.9030932101,-86875.45,-71834.72,-2753.9878,8224.487,-53080.04,21399.375,-10335.653,-49285.605
969658.9070932068,-86876.914,-71833.984,-2753.8657,8265.381,-53077.56,21405.6,-10336.345,-49287.07
969658.9110932034,-86875.45,-71832.36,-2749.3896,8297.282,-53074.832,21411.053,-10335.531,-49284.1
969658.9150932,-86876.875,-71832.32,-2749.9187,8296.875,-53076.863,21409.018,-10334.351,-49281.047
969658.9190931967,-86875.33,-71831.664,-2750.936,8282.1455,-53077.07,21405.967,-10336.345,-49283.33
969658.9230931933,-86868.9,-71825.08,-2751.1394,8265.544,-53080.203,21402.955,-10333.781,-49282.066
969658.92709319,-86861.94,-71820.03,-2747.0298,8293.335,-53073.895,21409.424,-10325.888,-49274.414
969658.9310931866,-86860.84,-71827.27,-2741.1704,8312.541,-53073.0,21415.244,-10320.476,-49267.62
969658.9350931833,-86868.77,-71833.74,-2740.8042,8292.155,-53077.883,21413.615,-10321.005,-49271.28
969658.93909318,-86882.734,-71847.17,-2747.7622,8250.977,-53088.625,21409.994,-10321.411,-49272.707
969658.9430931766,-86867.555,-71837.93,-2748.82,8226.889,-53085.125,21405.07,-10324.707,-49268.19
969658.9470931733,-86851.52,-71817.51,-2740.8855,8262.451,-53076.254,21404.99,-10328.451,-49272.137
969658.95109317,-86868.21,-71828.82,-2743.7744,8267.538,-53078.29,21407.227,-10330.038,-49275.758
969658.9550931666,-86873.01,-71832.12,-2746.5415,8234.619,-53087.242,21403.932,-10336.63,-49282.066
969658.9590931633,-86868.05,-71828.53,-2750.3257,8239.99,-53088.625,21399.008,-10341.391,-49283.53
969658.96309316,-86866.664,-71829.39,-2751.9126,8243.327,-53084.35,21394.898,-10341.146,-49290.04
969658.9670931565,-86861.94,-71825.6,-2748.2505,8268.515,-53074.992,21399.17,-10337.199,-49290.324
969658.9710931532,-86861.21,-71827.15,-2742.1062,8304.403,-53065.555,21406.78,-10331.747,-49280.4
969658.9750931498,-86863.24,-71829.914,-2744.7917,8289.226,-53068.605,21403.2,-10333.944,-49280.477
969658.9790931465,-86865.805,-71830.12,-2749.105,8263.184,-53067.953,21396.729,-10334.921,-49279.5
969658.9830931432,-86870.28,-71834.35,-2753.662,8234.009,-53074.586,21390.83,-10337.158,-49286.664
969658.9870931398,-86874.07,-71834.96,-2750.0815,8241.333,-53079.957,21397.91,-10335.531,-49289.51
969658.9910931365,-86871.7,-71833.984,-2743.693,8276.205,-53083.58,21406.21,-10329.346,-49274.7
969658.9950931332,-86872.4,-71837.24,-2746.338,8265.666,-53088.867,21401.205,-10332.397,-49273.723
969658.9990931298,-86873.21,-71835.86,-2746.46,8242.147,-53091.188,21394.816,-10336.874,-49287.723
969659.0030931265,-86870.89,-71831.09,-2746.989,8239.258,-53079.59,21392.172,-10335.165,-49278.89
969659.0070931232,-86866.82,-71831.586,-2739.9902,8279.257,-53070.965,21398.438,-10331.055,-49273.152
969659.0110931197,-86863.85,-71830.61,-2736.776,8307.007,-53068.402,21399.7,-10329.306,-49279.01
969659.0150931164,-86866.17,-71831.79,-2738.2812,8281.169,-53070.64,21396.12,-10325.766,-49270.348
969659.019093113,-86872.68,-71837.81,-2743.449,8228.068,-53079.305,21391.113,-10326.376,-49271.04
969659.0230931097,-86875.53,-71834.02,-2748.291,8218.994,-53082.766,21389.04,-10328.654,-49278.445
969659.0270931064,-86875.66,-71835.21,-2747.4365,8264.445,-53069.62,21393.799,-10326.254,-49269.453
969659.031093103,-86877.61,-71835.9,-2743.4082,8267.578,-53065.84,21400.879,-10323.853,-49264.934
969659.0350930997,-86877.12,-71834.555,-2743.449,8251.099,-53070.844,21396.12,-10327.189,-49269.043
969659.0390930964,-86873.945,-71832.234,-2745.7275,8257.528,-53071.777,21393.271,-10328.817,-49268.516
969659.043093093,-86871.83,-71830.734,-2748.7388,8239.462,-53076.62,21388.389,-10330.688,-49271.16
969659.0470930897,-86873.54,-71834.15,-2744.7104,8271.77,-53074.75,21393.271,-10327.963,-49272.664
969659.0510930863,-86873.21,-71838.016,-2740.56,8306.845,-53073.0,21400.758,-10326.416,-49272.46
969659.055093083,-86868.125,-71836.914,-2740.2344,8281.657,-53077.68,21397.828,-10328.003,-49273.074
969659.0590930796,-86867.88,-71835.82,-2741.6587,8255.412,-53076.906,21394.207,-10327.881,-49273.805
969659.0630930762,-86870.89,-71836.75,-2745.3208,8246.013,-53081.137,21388.916,-10325.603,-49270.266
969659.0670930729,-86869.39,-71841.31,-2745.1172,8267.578,-53079.633,21392.783,-10321.777,-49261.395
969659.0710930696,-86870.24,-71842.29,-2742.7573,8278.646,-53078.777,21395.02,-10324.138,-49261.844
969659.0750930662,-86874.31,-71840.91,-2743.856,8278.32,-53085.938,21391.074,-10327.841,-49269.246
969659.0790930629,-86874.555,-71842.086,-2744.995,8255.575,-53083.984,21388.145,-10329.55,-49265.383
969659.0830930596,-86870.32,-71839.84,-2745.7275,8223.349,-53083.133,21384.727,-10328.613,-49262.41
969659.0870930562,-86868.94,-71836.23,-2747.1924,8251.14,-53073.367,21389.893,-10327.2705,-49265.707
969659.0910930529,-86868.49,-71840.414,-2743.3677,8312.094,-53072.55,21398.926,-10324.545,-49261.883
969659.0950930495,-86863.04,-71840.78,-2741.8213,8296.509,-53072.55,21396.24,-10323.446,-49256.715
969659.0990930462,-86861.05,-71838.09,-2743.2861,8275.31,-53070.355,21388.307,-10325.969,-49261.64
969659.1030930429,-86863.98,-71835.98,-2746.6228,8266.235,-53075.44,21384.033,-10326.823,-49264.242
969659.1070930394,-86865.89,-71837.12,-2746.3787,8275.1875,-53072.594,21387.168,-10327.678,-49265.016
969659.1110930361,-86866.21,-71839.73,-2742.1875,8294.434,-53073.0,21390.098,-10325.195,-49263.227
969659.1150930328,-86869.59,-71839.68,-2744.3848,8277.304,-53087.242,21387.615,-10325.358,-49260.785
969659.1190930294,-86875.57,-71840.5,-2748.4946,8254.558,-53087.08,21386.76,-10325.766,-49262.13
969659.1230930261,-86877.0,-71836.67,-2752.116,8224.243,-53080.77,21383.424,-10327.353,-49268.965
969659.1270930228,-86873.66,-71835.82,-2750.0408,8263.632,-53064.168,21387.451,-10327.189,-49269.94
969659.1310930194,-86873.74,-71837.93,-2745.4834,8281.779,-53058.105,21390.83,-10326.579,-49262.492
969659.1350930161,-86872.03,-71835.53,-2744.5476,8266.154,-53053.062,21390.016,-10325.073,-49260.62
969659.1390930127,-86870.24,-71835.164,-2748.576,8255.371,-53070.844,21385.662,-10324.463,-49257.652
969659.1430930094,-86872.07,-71833.336,-2751.1394,8227.417,-53081.098,21381.797,-10319.58,-49246.504
969659.1470930061,-86868.984,-71836.875,-2748.3726,8262.289,-53074.26,21388.389,-10317.505,-49249.473
969659.1510930026,-86865.28,-71832.73,-2741.74,8303.955,-53070.926,21390.707,-10319.987,-49259.727
969659.1550929993,-86866.74,-71833.7,-2740.153,8292.358,-53083.008,21385.133,-10327.312,-49268.23
969659.159092996,-86868.25,-71833.984,-2744.3442,8276.652,-53082.93,21379.72,-10331.177,-49265.87
969659.1630929926,-86868.86,-71833.945,-2749.0234,8258.464,-53082.766,21372.193,-10335.002,-49263.754
969659.1670929893,-86871.7,-71838.09,-2747.1519,8283.773,-53075.36,21373.414,-10337.891,-49261.516
969659.171092986,-86872.234,-71839.6,-2743.4897,8300.049,-53073.49,21379.355,-10335.531,-49256.023
969659.1750929826,-86869.305,-71842.29,-2743.164,8270.102,-53081.137,21376.22,-10336.426,-49263.227
969659.1790929793,-86867.59,-71841.27,-2742.6758,8248.576,-53079.47,21372.193,-10339.152,-49277.793
969659.1830929759,-86866.664,-71838.016,-2744.7104,8238.363,-53080.812,21368.328,-10337.6875,-49272.746
969659.1870929726,-86864.42,-71837.77,-2739.5835,8265.585,-53082.195,21372.926,-10334.025,-49269.33
969659.1910929693,-86863.04,-71840.13,-2734.7007,8271.24,-53081.016,21379.15,-10333.496,-49274.008
969659.1950929658,-86867.516,-71840.25,-2739.9497,8265.422,-53075.81,21376.1,-10331.665,-49270.508
969659.1990929625,-86873.09,-71843.71,-2745.9312,8251.791,-53078.98,21369.06,-10335.043,-49271.28
969659.2030929592,-86871.7,-71845.664,-2749.8374,8229.208,-53086.914,21362.672,-10339.396,-49274.21
969659.2070929558,-86875.05,-71845.664,-2747.1519,8273.031,-53080.49,21369.914,-10335.531,-49269.41
969659.2110929525,-86870.89,-71845.016,-2742.92,8303.793,-53071.168,21376.953,-10330.688,-49264.203
969659.2150929492,-86865.805,-71841.11,-2741.5771,8274.862,-53076.945,21374.35,-10325.195,-49258.26
969659.2190929458,-86868.125,-71842.734,-2744.3035,8255.209,-53082.03,21369.14,-10318.808,-49245.402
969659.2230929425,-86868.695,-71843.1,-2743.978,8236.532,-53086.59,21363.242,-10321.289,-49252.727
969659.2270929391,-86866.54,-71840.3,-2737.9558,8266.602,-53080.73,21371.908,-10318.075,-49257.0
969659.2310929358,-86864.83,-71840.09,-2729.7363,8298.869,-53071.25,21378.174,-10314.372,-49254.52
969659.2350929325,-86864.79,-71838.09,-2728.8818,8289.348,-53072.754,21374.717,-10317.058,-49257.406
969659.239092929,-86874.39,-71844.32,-2736.369,8275.1875,-53076.824,21367.84,-10321.899,-49259.605
969659.2430929258,-86877.36,-71848.39,-2743.734,8255.168,-53079.918,21360.148,-10325.806,-49260.62
969659.2470929225,-86860.72,-71836.8,-2739.4614,8273.804,-53069.094,21363.078,-10325.603,-49259.24
969659.251092919,-86860.195,-71837.2,-2734.6191,8267.66,-53072.957,21366.496,-10325.073,-49256.715
969659.2550929157,-86861.375,-71833.984,-2736.6943,8258.627,-53082.52,21362.305,-10323.73,-49250.773
969659.2590929124,-86859.83,-71834.07,-2740.031,8255.697,-53080.527,21358.643,-10319.946,-49246.38
969659.263092909,-86856.65,-71831.99,-2742.7979,8245.199,-53083.375,21355.469,-10318.075,-49242.473
969659.2670929057,-86857.875,-71832.93,-2739.4614,8283.651,-53071.21,21363.078,-10316.65,-49244.754
969659.2710929023,-86862.875,-71835.82,-2736.6943,8311.157,-53069.215,21370.402,-10314.901,-49248.984
969659.275092899,-86866.13,-71835.77,-2738.729,8287.558,-53078.777,21367.025,-10315.593,-49254.965
969659.2790928957,-86864.38,-71834.35,-2743.734,8249.675,-53082.113,21361.654,-10316.569,-49250.53
969659.2830928923,-86857.79,-71833.17,-2742.7573,8235.8,-53079.55,21356.365,-10316.162,-49246.094
969659.287092889,-86855.96,-71831.14,-2740.6414,8275.676,-53069.824,21359.742,-10312.663,-49240.97
969659.2910928857,-86852.54,-71827.84,-2740.316,8292.766,-53076.297,21363.078,-10313.518,-49246.34
969659.2950928822,-86854.9,-71828.25,-2742.0654,8268.921,-53069.297,21360.719,-10311.239,-49240.97
969659.2990928789,-86856.65,-71827.19,-2747.2332,8248.861,-53074.016,21355.633,-10312.663,-49242.92
969659.3030928756,-86857.18,-71827.35,-2752.116,8229.37,-53077.84,21353.271,-10314.128,-49242.11
969659.3070928722,-86859.625,-71830.81,-2751.6277,8234.213,-53080.895,21357.748,-10311.076,-49236.9
969659.3110928689,-86865.32,-71833.58,-2748.9014,8278.361,-53075.32,21365.195,-10311.6455,-49239.625
969659.3150928655,-86863.24,-71834.35,-2747.274,8276.733,-53081.543,21361.451,-10314.738,-49242.312
969659.3190928622,-86858.65,-71834.555,-2747.9656,8249.634,-53088.746,21355.957,-10315.715,-49244.387
