timestamp,Fp1,Fp2,F3,Fz,F4,Cz,Pz,Oz
968986.6996553313,-82558.43,-66733.69,-19926.678,23186.484,-49741.54,-19008.504,-25540.162,-40308.51
968986.7036553279,-82556.73,-66729.66,-19932.658,23165.527,-49745.04,-19010.336,-25541.627,-40312.746
968986.7076553246,-82552.984,-66725.625,-19932.088,23152.06,-49740.645,-19007.936,-25535.93,-40305.95
968986.7116553213,-82551.76,-66725.14,-19929.89,23170.29,-49739.098,-19005.78,-25532.676,-40305.34
968986.7156553179,-82549.08,-66722.375,-19926.229,23196.209,-49738.934,-19005.209,-25533.814,-40312.38
968986.7196553146,-82553.19,-66723.516,-19928.63,23185.264,-49743.695,-19004.762,-25531.902,-40304.402
968986.7236553113,-82559.53,-66727.54,-19931.885,23164.715,-49752.688,-19004.803,-25531.21,-40304.2
968986.7276553079,-82558.64,-66722.984,-19932.7,23159.424,-49754.68,-19005.9,-25533.53,-40302.164
968986.7316553046,-82552.53,-66721.07,-19929.525,23186.443,-49741.336,-19006.512,-25538.535,-40310.832
968986.7356553013,-82554.0,-66723.266,-19928.223,23195.72,-49743.938,-19006.307,-25541.912,-40324.547
968986.7396552978,-82555.5,-66725.14,-19929.363,23180.99,-49750.203,-19005.412,-25541.912,-40318.973
968986.7436552945,-82557.45,-66725.71,-19932.252,23172.324,-49751.14,-19004.191,-25540.65,-40310.832
968986.7476552911,-82555.99,-66725.266,-19934.652,23164.023,-49746.055,-19003.785,-25538.9,-40306.438
968986.7516552878,-82560.875,-66727.13,-19934.57,23184.775,-49737.348,-19001.424,-25538.494,-40309.285
968986.7556552845,-82562.13,-66729.17,-19934.285,23195.395,-49738.363,-18999.227,-25539.227,-40317.14
968986.7596552811,-82563.6,-66727.055,-19935.588,23177.207,-49743.492,-19000.326,-25543.457,-40323.16
968986.7636552778,-82563.73,-66726.32,-19934.773,23160.32,-49751.02,-19002.93,-25548.096,-40325.523
968986.7676552745,-82566.57,-66730.35,-19935.506,23140.666,-49763.67,-19007.244,-25549.684,-40323.773
968986.7716552711,-82569.3,-66734.3,-19937.176,23171.266,-49761.273,-19009.033,-25550.578,-40314.25
968986.7756552678,-82569.54,-66735.39,-19934.246,23193.727,-49759.117,-19007.65,-25553.264,-40330.69
968986.7796552643,-82571.375,-66732.83,-19934.082,23177.451,-49756.51,-19005.209,-25550.213,-40333.254
968986.783655261,-82572.47,-66727.74,-19934.246,23167.156,-49756.96,-19000.977,-25542.889,-40325.24
968986.7876552577,-82568.97,-66730.51,-19935.14,23154.297,-49753.95,-18997.6,-25538.127,-40318.156
968986.7916552543,-82566.24,-66736.29,-19935.75,23180.787,-49742.72,-18994.14,-25533.0,-40311.605
968986.795655251,-82567.51,-66731.81,-19933.96,23208.781,-49744.59,-18991.658,-25531.088,-40313.355
968986.7996552477,-82571.086,-66732.38,-19932.129,23192.709,-49755.78,-18992.676,-25530.762,-40316.938
968986.8036552443,-82574.95,-66737.836,-19933.879,23164.104,-49768.477,-18995.2,-25533.936,-40317.914
968986.807655241,-82573.33,-66737.914,-19934.734,23145.469,-49780.152,-18999.268,-25539.674,-40319.5
968986.8116552377,-82567.914,-66734.17,-19931.479,23174.602,-49765.504,-18997.438,-25535.93,-40309.773
968986.8156552343,-82566.37,-66735.92,-19927.002,23193.93,-49757.12,-18992.879,-25530.273,-40295.29
968986.819655231,-82564.984,-66735.92,-19924.52,23185.547,-49767.133,-18989.422,-25527.752,-40299.113
968986.8236552275,-82564.17,-66733.766,-19926.637,23181.602,-49759.645,-18988.404,-25526.896,-40305.79
968986.8276552242,-82569.42,-66733.16,-19933.025,23172.283,-49758.586,-18989.746,-25526.816,-40306.887
968986.831655221,-82569.055,-66732.22,-19932.943,23175.986,-49748.293,-18990.479,-25529.582,-40308.84
968986.8356552175,-82570.72,-66736.9,-19929.89,23189.617,-49748.984,-18991.17,-25532.432,-40307.496
968986.8396552142,-82573.53,-66741.62,-19931.926,23150.596,-49771.16,-18991.17,-25535.441,-40307.66
968986.8436552109,-82578.9,-66745.2,-19932.74,23136.76,-49778.85,-18991.09,-25541.057,-40327.555
968986.8476552075,-82578.17,-66743.66,-19934.367,23158.691,-49774.13,-18990.764,-25541.057,-40328.043
968986.8516552042,-82577.03,-66737.555,-19933.432,23183.31,-49766.156,-18988.607,-25538.982,-40325.113
968986.8556552009,-82575.12,-66734.54,-19932.129,23196.738,-49759.89,-18988.078,-25536.256,-40321.656
968986.8596551975,-82573.81,-66731.125,-19931.275,23180.299,-49754.316,-18988.404,-25533.367,-40317.26
968986.8636551942,-82575.65,-66731.33,-19932.455,23161.338,-49750.367,-18989.746,-25532.553,-40313.883
968986.8676551908,-82575.16,-66731.9,-19935.182,23162.803,-49758.18,-18992.39,-25534.506,-40316.734
968986.8716551875,-82582.36,-66738.53,-19937.703,23177.166,-49755.902,-18990.357,-25533.732,-40315.066
968986.8756551842,-82592.33,-66746.18,-19940.023,23180.502,-49751.465,-18986.125,-25531.047,-40312.34
968986.8796551807,-82597.21,-66750.53,-19938.68,23163.209,-49761.516,-18983.725,-25529.053,-40311.363
968986.8836551774,-82591.68,-66753.22,-19937.176,23152.1,-49771.65,-18982.992,-25529.867,-40312.055
968986.8876551741,-82586.96,-66751.55,-19935.344,23142.172,-49783.816,-18986.37,-25531.17,-40309.125
968986.8916551707,-82579.305,-66744.47,-19932.008,23171.55,-49765.547,-18986.654,-25529.95,-40303.305
968986.8956551674,-82580.484,-66746.09,-19931.355,23194.824,-49758.953,-18984.334,-25528.402,-40301.676
968986.8996551641,-82587.81,-66754.195,-19935.385,23173.992,-49771.688,-18984.457,-25527.182,-40303.266
968986.9036551607,-82589.93,-66757.9,-19941.854,23157.715,-49772.3,-18985.434,-25529.664,-40308.27
968986.9076551574,-82588.3,-66756.67,-19944.012,23155.559,-49767.906,-18987.469,-25530.355,-40309.773
968986.911655154,-82583.375,-66751.75,-19940.959,23184.205,-49748.535,-18988.973,-25531.17,-40310.875
968986.9156551507,-82577.555,-66746.13,-19937.379,23194.906,-49742.027,-18988.934,-25534.262,-40310.426
968986.9196551474,-82576.58,-66741.984,-19935.344,23166.627,-49745.402,-18990.56,-25533.326,-40302.37
968986.9236551439,-82572.72,-66739.79,-19934.938,23151.896,-49750.69,-18992.473,-25533.936,-40297.895
968986.9276551406,-82569.016,-66737.63,-19934.734,23148.926,-49751.02,-18994.832,-25534.953,-40295.9
968986.9316551373,-82567.1,-66736.29,-19932.617,23175.578,-49742.11,-18994.588,-25538.697,-40306.07
968986.9356551339,-82564.17,-66733.766,-19927.857,23212.322,-49738.934,-18994.1,-25541.79,-40308.88
968986.9396551306,-82563.03,-66731.04,-19926.596,23202.557,-49741.05,-18993.693,-25544.516,-40309.367
968986.9436551273,-82561.57,-66730.15,-19928.143,23181.926,-49742.066,-18992.27,-25545.451,-40312.5
968986.9476551239,-82563.4,-66732.38,-19929.852,23166.83,-49745.04,-18993.164,-25546.875,-40317.14
968986.9516551206,-82568.32,-66737.1,-19930.217,23182.902,-49739.83,-18993.043,-25549.195,-40319.906
968986.9556551172,-82566.57,-66737.914,-19927.734,23193.727,-49736.94,-18990.154,-25547.527,-40314.008
968986.9596551139,-82565.96,-66737.19,-19928.793,23174.725,-49743.695,-18988.12,-25544.639,-40303.02
968986.9636551106,-82569.79,-66740.07,-19931.479,23162.477,-49750.855,-18987.184,-25543.457,-40305.055
968986.9676551071,-82576.83,-66741.3,-19935.262,23149.578,-49753.055,-18985.76,-25541.342,-40306.48
968986.9716551038,-82576.54,-66742.19,-19936.28,23178.834,-49742.758,-18983.725,-25542.645,-40321.94
968986.9756551005,-82578.414,-66745.24,-19935.14,23196.453,-49735.68,-18980.145,-25539.592,-40322.348
968986.9796550971,-82587.2,-66755.49,-19938.111,23178.428,-49749.39,-18978.76,-25538.047,-40321.492
968986.9836550938,-82591.92,-66758.914,-19941.0,23157.105,-49761.027,-18978.719,-25535.156,-40314.293
968986.9876550905,-82596.68,-66761.195,-19942.262,23142.62,-49771.28,-18978.639,-25533.041,-40314.09
968986.9916550871,-82603.07,-66769.01,-19943.115,23159.873,-49755.86,-18977.865,-25534.018,-40321.207
968986.9956550838,-82610.35,-66777.266,-19945.842,23184.652,-49752.28,-18975.83,-25533.855,-40320.516
968986.9996550804,-82618.695,-66783.77,-19949.3,23168.701,-49760.906,-18974.162,-25533.611,-40327.434
968987.0036550771,-82625.734,-66790.08,-19954.305,23138.998,-49777.71,-18973.553,-25533.082,-40325.36
968987.0076550738,-82629.766,-66794.6,-19957.072,23128.459,-49783.977,-18973.268,-25531.494,-40321.695
968987.0116550704,-82633.266,-66796.02,-19956.91,23158.123,-49776.367,-18971.72,-25530.152,-40323.65
968987.015655067,-82634.24,-66796.43,-19952.8,23171.469,-49776.246,-18970.053,-25527.1,-40317.3
968987.0196550637,-82631.266,-66796.1,-19948.895,23159.791,-49779.137,-18968.506,-25527.996,-40320.883
968987.0236550603,-82632.04,-66797.164,-19950.236,23142.05,-49786.46,-18970.988,-25531.658,-40320.23
968987.027655057,-82630.13,-66795.414,-19949.871,23146.484,-49782.188,-18974.285,-25534.547,-40321.902
968987.0316550537,-82625.37,-66794.195,-19949.178,23169.922,-49771.16,-18974.732,-25536.582,-40321.695
968987.0356550503,-82620.12,-66792.12,-19947.592,23174.033,-49772.137,-18976.033,-25540.447,-40323.855
968987.039655047,-82620.2,-66789.39,-19945.924,23146.201,-49777.426,-18975.79,-25540.406,-40321.82
968987.0436550436,-82621.7,-66791.75,-19949.586,23126.385,-49778.484,-18974.691,-25538.615,-40315.836
968987.0476550403,-82620.52,-66788.984,-19952.148,23131.43,-49779.5,-18975.506,-25538.006,-40318.973
968987.051655037,-82615.03,-66785.08,-19949.79,23163.209,-49763.957,-18975.057,-25537.15,-40317.547
968987.0556550336,-82612.875,-66784.99,-19945.883,23192.465,-49751.14,-18973.064,-25534.424,-40314.008
968987.0596550303,-82613.41,-66783.0,-19943.768,23198.975,-49752.688,-18971.232,-25530.234,-40308.676
968987.063655027,-82613.81,-66778.73,-19942.75,23184.855,-49756.43,-18971.6,-25528.037,-40304.16
968987.0676550235,-82612.8,-66779.42,-19944.824,23168.295,-49760.742,-18973.389,-25530.762,-40307.902
968987.0716550202,-82617.19,-66785.24,-19947.062,23169.15,-49762.41,-18974.162,-25532.39,-40307.293
968987.0756550168,-82616.21,-66785.56,-19946.777,23184.123,-49760.5,-18973.064,-25536.418,-40323.082
968987.0796550135,-82613.77,-66783.81,-19946.453,23185.67,-49759.93,-18972.209,-25536.377,-40323.04
968987.0836550102,-82620.65,-66788.54,-19945.557,23174.887,-49758.383,-18971.844,-25531.455,-40302.777
968987.0876550068,-82633.14,-66797.94,-19952.068,23156.332,-49765.098,-18972.25,-25530.682,-40296.875
968987.0916550035,-82652.51,-66820.84,-19957.764,23181.113,-49756.918,-18969.727,-25529.42,-40315.31
968987.0956550002,-82650.68,-66828.25,-19952.23,23193.93,-49759.156,-18969.158,-25529.42,-40312.215
968987.0996549968,-82623.82,-66803.34,-19940.838,23182.17,-49758.547,-18973.553,-25534.912,-40318.484
968987.1036549935,-82621.83,-66789.1,-19940.633,23168.986,-49757.938,-18975.912,-25538.574,-40318.24
968987.1076549902,-82635.13,-66799.84,-19945.027,23155.967,-49767.703,-18975.262,-25537.15,-40316.043
968987.1116549867,-82630.05,-66804.484,-19944.824,23175.172,-49767.62,-18973.836,-25535.809,-40315.023
968987.1156549834,-82628.22,-66807.375,-19943.523,23193.482,-49763.105,-18972.291,-25533.367,-40314.7
968987.11965498,-82643.19,-66822.92,-19943.807,23172.363,-49769.816,-18969.686,-25528.037,-40311.402
968987.1236549767,-82644.58,-66827.805,-19941.53,23142.213,-49783.164,-18969.523,-25525.758,-40311.24
968987.1276549734,-82631.31,-66817.71,-19934.45,23148.031,-49777.305,-18970.215,-25527.549,-40316.734
968987.13165497,-82632.086,-66826.664,-19931.275,23173.3,-49761.64,-18966.309,-25526.408,-40321.29
968987.1356549667,-82652.34,-66849.86,-19934.408,23190.635,-49766.24,-18962.402,-25523.723,-40315.188
968987.1396549634,-82658.45,-66846.84,-19936.727,23184.123,-49762.9,-18961.71,-25520.06,-40305.055
968987.14365496,-82649.09,-66835.82,-19934.773,23171.63,-49762.9,-18963.055,-25519.084,-40299.848
968987.1476549567,-82649.46,-66836.1,-19936.932,23158.082,-49764.934,-18965.008,-25522.299,-40301.27
968987.1516549534,-82660.16,-66844.484,-19937.988,23174.195,-49766.6,-18967.326,-25525.758,-40307.13
968987.15565495,-82672.69,-66859.625,-19938.152,23177.207,-49770.996,-18965.902,-25525.879,-40304.117
968987.1596549466,-82683.23,-66875.45,-19937.785,23163.006,-49772.707,-18966.188,-25526.002,-40305.625
968987.1636549432,-82685.836,-66881.8,-19935.344,23157.268,-49764.895,-18964.803,-25522.705,-40302.613
968987.1676549399,-82688.64,-66887.414,-19934.082,23147.584,-49764.49,-18962.322,-25516.928,-40295.656
968987.1716549366,-82689.414,-66895.43,-19932.537,23173.666,-49755.13,-18958.781,-25513.266,-40287.395
968987.1756549332,-82703.125,-66909.34,-19933.105,23190.879,-49756.594,-18954.225,-25509.727,-40286.336
968987.1796549299,-82714.93,-66923.79,-19932.008,23184.326,-49769.98,-18951.904,-25508.262,-40280.926
968987.1836549266,-82719.2,-66930.87,-19934.814,23161.133,-49781.74,-18952.19,-25510.092,-40277.63
968987.1876549232,-82735.27,-66944.7,-19940.023,23133.871,-49797.203,-18952.434,-25509.197,-40278.973
968987.1916549199,-82751.95,-66962.164,-19942.098,23155.559,-49794.92,-18948.162,-25502.402,-40269.33
968987.1956549166,-82769.125,-66981.445,-19941.121,23174.766,-49791.383,-18943.035,-25493.043,-40258.668
968987.1996549132,-82776.086,-66984.09,-19941.65,23156.17,-49788.13,-18939.576,-25487.266,-40250.613
968987.2036549099,-82778.69,-66981.77,-19942.586,23146.078,-49781.617,-18941.326,-25488.16,-40254.355
968987.2076549064,-82780.16,-66985.555,-19942.791,23141.602,-49782.758,-18943.768,-25491.375,-40253.867
968987.2116549031,-82781.25,-66993.57,-19939.373,23162.477,-49768.72,-18942.098,-25489.34,-40244.426
968987.2156548998,-82788.945,-67004.31,-19937.703,23178.143,-49770.47,-18937.826,-25486.328,-40241.13
968987.2196548964,-82798.875,-67014.2,-19937.744,23161.338,-49784.71,-18935.059,-25487.021,-40246.22
968987.2236548931,-82805.42,-67020.836,-19938.6,23140.463,-49798.543,-18933.188,-25487.51,-40242.066
968987.2276548898,-82811.81,-67026.66,-19942.18,23135.906,-49812.055,-18931.152,-25482.83,-40226.32
968987.2316548864,-82813.07,-67031.54,-19940.47,23150.146,-49805.867,-18929.566,-25481.406,-40243.004
968987.2356548831,-82812.87,-67032.92,-19937.5,23164.47,-49799.074,-18927.898,-25479.371,-40251.18
968987.2396548798,-82821.74,-67037.766,-19941.447,23138.592,-49796.31,-18925.457,-25473.918,-40230.836
968987.2436548764,-82829.96,-67039.836,-19944.295,23123.617,-49795.168,-18923.91,-25469.932,-40223.758
968987.2476548731,-82837.08,-67043.74,-19947.469,23119.467,-49790.12,-18925.457,-25472.25,-40232.016
968987.2516548696,-82849.04,-67052.49,-19950.928,23139.771,-49788.902,-18925.863,-25473.838,-40232.22
968987.2556548663,-82857.305,-67061.81,-19950.318,23161.906,-49792.402,-18923.016,-25473.797,-40233.36
968987.259654863,-82862.914,-67068.12,-19950.562,23150.066,-49799.24,-18920.818,-25472.373,-40226.32
968987.2636548596,-82867.48,-67070.27,-19952.637,23125.082,-49804.85,-18921.754,-25471.762,-40225.18
968987.2676548563,-82870.164,-67073.164,-19952.88,23117.025,-49809.45,-18924.275,-25471.762,-40224.895
968987.271654853,-82872.64,-67077.27,-19949.545,23145.06,-49801.395,-18923.096,-25468.547,-40222.25
968987.2756548496,-82877.484,-67081.38,-19944.54,23169.598,-49787.152,-18918.416,-25461.182,-40218.18
968987.2796548463,-82881.516,-67085.45,-19941.285,23147.787,-49788.37,-18913.982,-25455.771,-40208.945
968987.283654843,-82890.914,-67090.5,-19944.215,23129.395,-49802.734,-18915.203,-25458.008,-40206.42
968987.2876548396,-82895.34,-67096.72,-19949.91,23118.37,-49811.24,-18916.912,-25461.63,-40214.234
968987.2916548363,-82899.945,-67102.625,-19949.383,23147.178,-49802.938,-18915.406,-25459.27,-40215.09
968987.2956548329,-82904.625,-67111.21,-19949.504,23176.352,-49798.34,-18913.86,-25455.81,-40215.293
968987.2996548295,-82913.58,-67121.55,-19949.3,23166.424,-49802.613,-18914.021,-25455.201,-40211.63
968987.3036548262,-82918.99,-67126.23,-19951.416,23146.201,-49812.867,-18915.121,-25456.787,-40213.867
968987.3076548228,-82917.766,-67123.25,-19950.318,23113.12,-49820.438,-18916.871,-25456.543,-40212.363
968987.3116548195,-82918.78,-67123.58,-19948.201,23119.508,-49805.79,-18914.145,-25452.068,-40199.06
968987.3156548162,-82924.69,-67128.586,-19946.656,23129.72,-49807.332,-18911.336,-25452.76,-40199.992
968987.3196548128,-82927.414,-67129.234,-19947.674,23133.586,-49813.477,-18910.645,-25454.916,-40208.58
968987.3236548095,-82926.59,-67127.445,-19947.021,23119.793,-49812.664,-18909.1,-25451.945,-40205.85
968987.3276548062,-82929.85,-67129.516,-19949.707,23100.586,-49818.117,-18908.732,-25447.43,-40204.184
968987.3316548028,-82931.16,-67134.16,-19946.492,23131.268,-49812.867,-18906.535,-25442.791,-40197.957
968987.3356547995,-82937.46,-67139.77,-19944.295,23143.88,-49807.21,-18903.443,-25437.176,-40186.2
968987.3396547961,-82944.664,-67144.01,-19950.36,23131.512,-49817.832,-18902.02,-25431.885,-40180.016
968987.3436547928,-82946.78,-67144.49,-19951.092,23127.238,-49822.88,-18902.873,-25430.95,-40183.39
968987.3476547895,-82950.6,-67146.57,-19952.434,23126.182,-49818.81,-18903.85,-25429.404,-40181.844
968987.351654786,-82954.96,-67150.43,-19952.027,23148.438,-49811.89,-18902.629,-25430.908,-40185.184
968987.3556547827,-82961.266,-67158.086,-19952.312,23159.465,-49820.312,-18899.617,-25431.602,-40185.344
968987.3596547794,-82963.016,-67159.875,-19955.322,23124.96,-49833.09,-18899.293,-25431.682,-40182.375
968987.363654776,-82964.16,-67160.61,-19956.99,23124.756,-49832.4,-18899.617,-25431.396,-40182.82
968987.3676547727,-82966.68,-67163.66,-19956.422,23127.686,-49837.934,-18899.252,-25430.99,-40183.88
968987.3716547693,-82966.84,-67165.81,-19954.713,23129.639,-49834.066,-18898.926,-25429.404,-40178.793
968987.375654766,-82966.43,-67167.08,-19950.766,23137.127,-49826.785,-18896.77,-25426.025,-40169.23
968987.3796547627,-82971.44,-67173.14,-19950.115,23132.895,-49826.703,-18894.695,-25425.822,-40169.35
968987.3836547593,-82975.95,-67178.23,-19951.58,23112.713,-49835.492,-18895.752,-25429.729,-40188.883
968987.387654756,-82979.58,-67180.46,-19955.037,23102.377,-49838.83,-18899.252,-25433.758,-40185.223
968987.3916547527,-82981.04,-67181.84,-19954.102,23118.816,-49825.4,-18899.781,-25434.775,-40187.867
968987.3956547492,-82987.35,-67186.73,-19954.102,23125.773,-49827.11,-18897.705,-25432.902,-40184.938
968987.3996547459,-82993.0,-67188.195,-19956.014,23116.984,-49833.05,-18898.56,-25433.92,-40183.758
968987.4036547426,-82993.62,-67192.95,-19956.828,23109.172,-49834.637,-18899.17,-25432.252,-40179.324
968987.4076547392,-82991.945,-67193.04,-19957.234,23101.156,-49843.75,-18899.902,-25431.56,-40180.094
968987.4116547359,-82991.91,-67194.26,-19955.363,23124.268,-49833.58,-18896.973,-25428.752,-40176.758
968987.4156547325,-82994.02,-67197.47,-19952.678,23146.729,-49825.035,-18893.27,-25427.94,-40180.3
968987.4196547292,-82994.875,-67198.98,-19950.44,23139.61,-49832.316,-18892.578,-25425.498,-40175.133
968987.4236547259,-82995.93,-67200.28,-19950.848,23116.863,-49847.25,-18894.002,-25423.34,-40163.492
968987.4276547225,-82997.16,-67201.5,-19953.37,23098.389,-49856.445,-18895.834,-25424.072,-40164.145
968987.4316547192,-82994.02,-67201.17,-19953.166,23117.352,-49848.594,-18896.281,-25428.102,-40182.82
968987.4356547159,-82995.04,-67201.3,-19951.457,23134.889,-49839.926,-18895.549,-25432.496,-40196.86
968987.4396547124,-82996.5,-67200.6,-19948.04,23136.963,-49836.062,-18895.63,-25431.682,-40191.324
968987.4436547091,-82996.91,-67199.71,-19949.26,23131.836,-49832.234,-18896.281,-25431.602,-40185.508
968987.4476547058,-83002.484,-67203.375,-19950.604,23104.9,-49839.926,-18898.52,-25434.408,-40184.773
968987.4516547024,-83007.695,-67206.055,-19951.375,23118.531,-49832.4,-18896.525,-25436.28,-40188.03
968987.4556546991,-83010.13,-67210.45,-19950.725,23137.86,-49827.56,-18894.734,-25436.158,-40187.176
968987.4596546957,-83022.22,-67225.625,-19952.637,23140.666,-49840.78,-18892.172,-25434.611,-40186.566
968987.4636546924,-83043.016,-67251.18,-19956.707,23120.158,-49857.26,-18891.602,-25434.652,-40194.742
968987.4676546891,-83042.12,-67246.586,-19957.846,23097.9,-49858.277,-18892.049,-25435.629,-40194.05
968987.4716546857,-83014.28,-67213.586,-19947.145,23113.486,-49835.98,-18891.195,-25433.676,-40183.27
968987.4756546824,-83018.48,-67217.66,-19942.303,23111.004,-49832.52,-18889.812,-25434.043,-40181.926
968987.4796546791,-83036.83,-67238.65,-19945.232,23103.557,-49849.855,-18888.754,-25434.408,-40181.56
968987.4836546757,-83038.74,-67242.39,-19945.8,23114.787,-49851.156,-18890.137,-25434.938,-40178.14
968987.4876546724,-83044.48,-67245.81,-19947.021,23105.307,-49843.465,-18892.416,-25434.326,-40174.93
968987.491654669,-83052.25,-67257.33,-19947.062,23121.502,-49842.082,-18889.975,-25431.072,-40171.184
968987.4956546656,-83055.95,-67264.85,-19948.08,23141.684,-49838.91,-18886.557,-25427.084,-40162.8
968987.4996546623,-83055.99,-67268.805,-19947.957,23128.094,-49839.438,-18884.441,-25426.719,-40166.91
968987.5036546589,-83060.305,-67269.66,-19952.434,23113.201,-49846.926,-18884.725,-25429.16,-40179.363
968987.5076546556,-83059.25,-67267.62,-19953.98,23104.574,-49849.082,-18884.725,-25425.498,-40173.586
968987.5116546523,-83058.11,-67265.42,-19951.416,23112.428,-49849.285,-18883.057,-25423.545,-40171.227
968987.5156546489,-83058.555,-67267.7,-19946.941,23130.78,-49848.43,-18879.477,-25421.875,-40168.5
968987.5196546456,-83059.33,-67271.89,-19947.633,23139.365,-49850.14,-18878.744,-25423.951,-40172.934
968987.5236546423,-83061.61,-67273.93,-19951.498,23123.291,-49853.477,-18879.883,-25422.648,-40168.62
968987.5276546389,-83059.2,-67270.266,-19949.016,23099.814,-49845.01,-18880.371,-25419.475,-40163.617
968987.5316546356,-83053.39,-67267.21,-19946.248,23122.111,-49829.47,-18880.086,-25417.807,-40160.484
968987.5356546323,-83056.32,-67266.89,-19944.988,23142.904,-49824.26,-18880.697,-25419.922,-40169.027
968987.5396546288,-83060.38,-67268.44,-19944.824,23125.977,-49835.164,-18879.68,-25418.457,-40171.43
968987.5436546255,-83061.57,-67268.64,-19946.045,23113.975,-49846.965,-18878.541,-25419.068,-40166.465
968987.5476546221,-83062.26,-67268.805,-19947.389,23106.242,-49852.133,-18880.656,-25423.34,-40172.77
968987.5516546188,-83064.25,-67273.56,-19947.998,23117.799,-49845.46,-18880.25,-25422.242,-40176.883
968987.5556546155,-83065.96,-67281.05,-19946.371,23147.502,-49836.47,-18876.791,-25417.848,-40171.47
968987.5596546121,-83066.66,-67284.43,-19947.592,23139.812,-49843.14,-18874.35,-25417.93,-40172.49
968987.5636546088,-83071.29,-67285.04,-19950.195,23117.799,-49851.562,-18875.611,-25419.15,-40174.234
968987.5676546055,-83073.9,-67283.695,-19953.777,23101.4,-49852.824,-18878.377,-25421.387,-40174.97
968987.5716546021,-83070.4,-67282.63,-19953.654,23103.15,-49851.645,-18878.338,-25422.12,-40174.4
968987.5756545988,-83074.625,-67284.34,-19953.045,23136.639,-49846.723,-18875.285,-25420.98,-40175.008
968987.5796545955,-83075.4,-67286.3,-19952.719,23140.342,-49839.234,-18872.762,-25422.607,-40178.59
968987.583654592,-83074.34,-67287.88,-19951.742,23127.482,-49841.676,-18872.314,-25424.316,-40178.1
968987.5876545887,-83074.586,-67286.46,-19951.213,23104.941,-49846.883,-18871.908,-25426.475,-40179.73
968987.5916545853,-83078.17,-67286.055,-19951.54,23113.16,-49845.746,-18869.549,-25424.969,-40173.91
968987.595654582,-83077.15,-67286.055,-19949.3,23120.402,-49846.723,-18868.855,-25424.44,-40177.734
968987.5996545787,-83077.31,-67287.15,-19949.098,23111.816,-49853.477,-18869.955,-25424.277,-40176.883
968987.6036545753,-83080.484,-67287.68,-19948.812,23107.016,-49855.31,-18872.438,-25426.637,-40187.137
968987.607654572,-83079.266,-67287.15,-19950.684,23094.238,-49854.98,-18873.861,-25428.549,-40193.89
968987.6116545687,-83078.86,-67287.84,-19950.766,23116.09,-49845.867,-18872.559,-25425.172,-40185.305
968987.6156545653,-83083.414,-67291.75,-19950.115,23137.777,-49832.074,-18868.855,-25421.307,-40173.586
968987.619654562,-83082.36,-67288.05,-19948.162,23128.988,-49834.84,-18869.67,-25424.602,-40176.35
968987.6236545587,-83079.914,-67286.13,-19946.127,23118.572,-49845.137,-18870.85,-25427.084,-40183.555
968987.6276545553,-83077.555,-67284.63,-19946.697,23097.494,-49857.504,-18872.438,-25428.387,-40184.652
968987.631654552,-83075.03,-67282.516,-19945.72,23105.918,-49848.473,-18872.967,-25430.137,-40187.46
968987.6356545485,-83080.53,-67287.15,-19946.127,23136.191,-49845.99,-18871.094,-25428.02,-40181.07
968987.6396545452,-83081.055,-67290.125,-19948.08,23129.03,-49853.152,-18870.484,-25425.701,-40171.062
968987.6436545419,-83078.58,-67287.15,-19947.998,23123.496,-49857.625,-18871.826,-25427.002,-40174.156
968987.6476545385,-83076.83,-67284.95,-19950.44,23125.488,-49855.47,-18873.006,-25427.125,-40179.2
968987.6516545352,-83072.59,-67282.88,-19948.201,23137.574,-49845.867,-18871.541,-25426.758,-40175.05
968987.6556545319,-83071.945,-67281.74,-19943.768,23140.178,-49839.684,-18866.658,-25422.324,-40161.418
968987.6596545285,-83076.09,-67283.81,-19941.854,23127.158,-49840.332,-18863.973,-25419.598,-40162.516
968987.6636545252,-83075.12,-67285.04,-19941.406,23111.777,-49850.87,-18865.926,-25421.387,-40178.47
968987.6676545218,-83072.06,-67281.78,-19940.47,23111.816,-49846.883,-18864.787,-25419.068,-40169.11
968987.6716545185,-83071.336,-67280.234,-19938.844,23123.008,-49826.785,-18862.793,-25421.062,-40171.59
968987.6756545152,-83070.234,-67281.86,-19937.664,23149.781,-49820.844,-18859.334,-25421.469,-40175.008
968987.6796545117,-83073.164,-67282.11,-19939.453,23156.658,-49830.28,-18860.637,-25424.766,-40177.613
968987.6836545084,-83080.85,-67288.86,-19943.482,23123.008,-49846.03,-18863.404,-25426.107,-40179.688
968987.6876545051,-83084.64,-67291.42,-19949.422,23107.871,-49857.344,-18864.87,-25426.678,-40182.457
968987.6916545017,-83082.6,-67287.84,-19948.73,23125.732,-49847.168,-18864.217,-25426.31,-40175.008
968987.6956544984,-83081.914,-67288.984,-19946.248,23144.654,-49840.457,-18862.264,-25423.504,-40168.418
968987.6996544951,-83083.91,-67289.516,-19946.533,23138.307,-49842.043,-18862.264,-25424.072,-40177.41
968987.7036544917,-83087.445,-67288.984,-19949.91,23117.799,-49853.11,-18865.398,-25429.566,-40189.168
968987.7076544884,-83087.04,-67288.984,-19952.76,23102.744,-49858.277,-18866.455,-25428.467,-40180.094
968987.711654485,-83084.27,-67288.45,-19953.166,23113.566,-49851.24,-18865.316,-25427.41,-40181.52
968987.7156544817,-83090.25,-67294.07,-19953.084,23134.115,-49850.508,-18863.201,-25425.863,-40185.1
968987.7196544784,-83089.68,-67290.734,-19952.027,23140.178,-49841.27,-18860.352,-25423.87,-40186.566
968987.723654475,-83090.21,-67291.1,-19956.787,23126.385,-49841.758,-18860.516,-25427.084,-40185.305
968987.7276544716,-83090.25,-67291.1,-19960.857,23116.21,-49847.047,-18861.37,-25427.125,-40179.28
968987.7316544683,-83092.164,-67292.85,-19963.705,23122.926,-49844.363,-18862.996,-25430.46,-40194.336
968987.7356544649,-83097.086,-67302.01,-19963.338,23135.215,-49846.883,-18860.066,-25429.729,-40193.035
968987.7396544616,-83107.875,-67319.016,-19966.229,23128.012,-49846.355,-18857.87,-25428.143,-40193.44
968987.7436544583,-83110.72,-67312.91,-19968.709,23103.11,-49855.754,-18860.637,-25430.664,-40195.883
968987.7476544549,-83094.89,-67289.06,-19967.041,23097.412,-49853.273,-18863.852,-25432.293,-40191.895
968987.7516544516,-83090.91,-67288.125,-19964.803,23125.45,-49842.125,-18864.787,-25430.664,-40191.734
968987.7556544482,-83095.38,-67290.29,-19963.543,23146.404,-49826.133,-18862.996,-25430.746,-40190.066
968987.7596544449,-83098.43,-67291.71,-19964.111,23134.197,-49826.01,-18862.713,-25431.152,-40177.29
968987.7636544416,-83101.484,-67291.016,-19968.629,23113.322,-49837.527,-18866.537,-25436.443,-40181.03
968987.7676544382,-83102.664,-67290.445,-19971.883,23105.51,-49838.746,-18870.402,-25446.656,-40210.855
968987.7716544349,-83105.1,-67292.52,-19972.127,23123.82,-49831.992,-18868.49,-25448.283,-40214.64
968987.7756544315,-83105.72,-67296.43,-19973.064,23137.29,-49830.69,-18864.787,-25445.436,-40212.04
968987.7796544281,-83111.45,-67301.27,-19975.545,23133.383,-49840.047,-18862.59,-25442.547,-40202.92
968987.7836544248,-83110.92,-67299.69,-19975.3,23099.326,-49853.76,-18864.014,-25444.988,-40206.055
968987.7876544215,-83108.97,-67299.28,-19975.018,23093.71,-49861.004,-18866.537,-25446.533,-40207.848
968987.7916544181,-83107.51,-67299.44,-19974.895,23120.77,-49844.32,-18866.496,-25447.227,-40212.484
968987.7956544148,-83107.586,-67298.87,-19974.53,23150.146,-49832.97,-18864.99,-25447.348,-40213.664
968987.7996544114,-83112.96,-67305.18,-19975.871,23138.795,-49834.516,-18865.193,-25447.104,-40208.293
968987.8036544081,-83120.37,-67308.31,-19979.818,23107.139,-49845.297,-18866.334,-25447.43,-40207.723
968987.8076544048,-83118.125,-67304.24,-19982.707,23095.703,-49851.074,-18866.17,-25448.895,-40214.684
968987.8116544014,-83116.01,-67302.01,-19980.957,23119.955,-49840.902,-18865.52,-25450.318,-40216.676
968987.8156543981,-83118.33,-67303.305,-19980.021,23151.49,-49835.613,-18864.91,-25448.568,-40212.527
968987.8196543948,-83116.414,-67303.34,-19977.459,23143.434,-49842.367,-18863.607,-25446.25,-40208.008
968987.8236543913,-83116.3,-67301.27,-19979.207,23119.102,-49845.746,-18865.846,-25447.227,-40209.39
968987.827654388,-83117.19,-67301.516,-19981.04,23099.61,-49845.215,-18868.938,-25450.725,-40217.855
968987.8316543847,-83116.87,-67304.2,-19983.154,23107.627,-49844.81,-18869.832,-25451.621,-40220.38
968987.8356543813,-83117.234,-67306.97,-19980.469,23124.309,-49840.375,-18866.822,-25448.61,-40210.613
968987.839654378,-83116.21,-67308.19,-19976.889,23124.96,-49834.188,-18862.06,-25444.377,-40209.39
968987.8436543746,-83117.72,-67306.4,-19977.742,23109.416,-49850.71,-18861.451,-25441.162,-40206.79
968987.8476543713,-83121.99,-67307.336,-19979.9,23092.367,-49856.12,-18860.922,-25437.256,-40195.965
968987.851654368,-83123.05,-67311.28,-19977.336,23116.008,-49842.734,-18860.922,-25437.95,-40194.742
968987.8556543646,-83121.5,-67312.3,-19974.406,23133.668,-49834.27,-18859.62,-25438.273,-40185.63
968987.8596543613,-83121.3,-67310.23,-19976.36,23135.54,-49838.176,-18861.451,-25440.756,-40187.543
968987.863654358,-83123.01,-67309.9,-19981.365,23113.566,-49846.477,-18865.682,-25445.842,-40209.11
968987.8676543545,-83120.85,-67307.414,-19984.457,23083.62,-49846.316,-18867.066,-25444.377,-40208.008
968987.8716543512,-83123.05,-67310.67,-19984.904,23102.092,-49835.164,-18864.38,-25441.326,-40200.035
968987.8756543479,-83126.23,-67313.27,-19983.113,23131.959,-49825.81,-18862.102,-25443.076,-40208.984
968987.8796543445,-83126.75,-67316.53,-19981.934,23145.793,-49825.44,-18860.963,-25446.656,-40211.14
968987.8836543412,-83128.625,-67318.52,-19982.26,23119.426,-49832.44,-18862.102,-25449.707,-40212.28
968987.8876543378,-83126.266,-67313.766,-19983.562,23099.326,-49832.4,-18865.846,-25453.777,-40216.227
968987.8916543345,-83126.914,-67312.3,-19982.87,23108.887,-49826.336,-18866.537,-25451.742,-40209.637
968987.8956543312,-83128.3,-67314.78,-19981.04,23110.84,-49826.133,-18863.078,-25448.975,-40213.297
968987.8996543278,-83130.414,-67316.24,-19982.342,23110.312,-49831.18,-18861.004,-25450.074,-40221.844
968987.9036543245,-83132.57,-67316.94,-19985.31,23097.697,-49838.504,-18860.799,-25451.133,-40219.973
968987.9076543212,-83130.05,-67316.41,-19985.76,23086.834,-49839.52,-18859.54,-25450.969,-40215.74
968987.9116543178,-83124.68,-67313.516,-19982.951,23105.104,-49822.145,-18858.318,-25451.172,-40219.08
968987.9156543144,-83121.91,-67312.336,-19979.818,23134.277,-49816.0,-18856.975,-25450.033,-40217.33
968987.9196543111,-83122.27,-67314.45,-19980.104,23132.977,-49817.832,-18856.61,-25448.854,-40214.4
968987.9236543077,-83122.88,-67312.95,-19980.51,23112.713,-49825.277,-18857.504,-25448.812,-40213.785
968987.9276543044,-83123.74,-67311.484,-19979.736,23100.75,-49835.98,-18858.602,-25445.598,-40209.15
968987.931654301,-83124.48,-67314.336,-19978.395,23117.31,-49839.4,-18857.748,-25442.668,-40210.164
968987.9356542977,-83126.79,-67316.04,-19978.719,23131.348,-49838.38,-18854.9,-25441.65,-40209.188
968987.9396542944,-83131.43,-67318.93,-19981.121,23123.496,-49831.87,-18853.475,-25441.244,-40203.207
968987.943654291,-83137.74,-67323.695,-19984.62,23102.744,-49837.2,-18854.412,-25441.488,-40202.68
968987.9476542877,-83142.5,-67323.94,-19989.178,23084.473,-49846.355,-18857.545,-25445.924,-40216.31
968987.9516542844,-83139.484,-67318.97,-19990.846,23095.541,-49832.316,-18857.38,-25445.762,-40218.14
968987.955654281,-83141.93,-67323.65,-19992.39,23120.81,-49816.246,-18853.557,-25444.092,-40211.832
968987.9596542777,-83145.59,-67329.555,-19991.984,23120.361,-49813.926,-18852.295,-25446.25,-40221.03
968987.9636542742,-83151.86,-67337.52,-19995.402,23096.191,-49833.78,-18853.312,-25448.162,-40221.64
968987.9676542709,-83149.375,-67331.016,-19997.314,23090.781,-49843.305,-18853.191,-25447.307,-40218.06
968987.9716542676,-83131.63,-67311.85,-19990.398,23108.604,-49827.19,-18851.197,-25445.068,-40218.18
968987.9756542642,-83129.516,-67312.79,-19987.346,23136.557,-49819.906,-18848.512,-25443.686,-40222.047
968987.9796542609,-83136.97,-67316.81,-19990.113,23129.803,-49823.73,-18849.121,-25444.215,-40219.973
968987.9836542576,-83136.27,-67317.71,-19992.39,23086.914,-49832.36,-18850.83,-25447.43,-40220.95
968987.9876542542,-83135.13,-67318.4,-19993.164,23075.074,-49837.04,-18854.127,-25449.3,-40226.277
968987.9916542509,-83133.42,-67313.27,-19991.008,23106.854,-49826.254,-18855.672,-25450.115,-40228.355
968987.9956542476,-83134.04,-67312.75,-19987.752,23126.791,-49824.79,-18855.55,-25447.592,-40224.246
968987.9996542442,-83136.88,-67317.14,-19987.549,23130.941,-49820.516,-18854.004,-25444.377,-40220.215
968988.0036542409,-83141.16,-67319.3,-19991.334,23103.76,-49817.223,-18852.703,-25442.262,-40218.14
968988.0076542374,-83144.29,-67320.195,-19991.7,23080.648,-49819.867,-18852.54,-25441.447,-40219.484
968988.0116542341,-83146.32,-67320.03,-19992.352,23096.762,-49816.977,-18851.36,-25439.617,-40216.15
968988.0156542308,-83143.88,-67320.03,-19989.705,23098.064,-49817.586,-18849.162,-25439.006,-40213.91
968988.0196542274,-83142.625,-67320.03,-19986.775,23101.768,-49822.023,-18850.3,-25441.57,-40215.332
968988.0236542241,-83141.484,-67317.71,-19986.736,23088.828,-49836.387,-18853.516,-25442.871,-40212.65
968988.0276542208,-83139.08,-67315.43,-19987.672,23086.875,-49839.6,-18853.598,-25441.895,-40212.402
968988.0316542174,-83139.0,-67319.22,-19987.346,23113.525,-49827.434,-18849.977,-25437.705,-40211.305
968988.0356542141,-83145.59,-67324.1,-19987.184,23136.719,-49819.703,-18846.232,-25433.105,-40204.918
968988.0396542108,-83147.22,-67322.47,-19985.475,23132.244,-49821.656,-18843.262,-25431.723,-40204.062
968988.0436542074,-83149.46,-67325.08,-19987.102,23101.318,-49830.0,-18843.385,-25434.652,-40207.195
968988.0476542041,-83152.836,-67326.625,-19989.584,23082.52,-49837.89,-18845.094,-25436.035,-40209.312
968988.0516542007,-83150.02,-67323.65,-19986.775,23099.895,-49825.074,-18844.97,-25431.64,-40207.195
968988.0556541973,-83144.164,-67319.99,-19981.934,23128.988,-49819.46,-18843.994,-25428.875,-40207.926
968988.059654194,-83148.16,-67325.484,-19983.521,23126.018,-49830.895,-18841.797,-25427.328,-40196.168
968988.0636541906,-83148.64,-67326.5,-19985.393,23094.97,-49839.195,-18844.523,-25431.846,-40212.566
968988.0676541873,-83146.12,-67322.67,-19986.328,23070.11,-49845.34,-18846.518,-25437.705,-40228.516
968988.071654184,-83145.06,-67320.6,-19988.648,23099.406,-49837.566,-18844.28,-25432.74,-40213.176
968988.0756541806,-83140.71,-67321.33,-19984.295,23130.738,-49827.965,-18839.926,-25426.719,-40196.168
968988.0796541773,-83143.27,-67321.86,-19984.09,23124.676,-49820.395,-18837.973,-25423.87,-40187.664
968988.083654174,-83139.33,-67317.14,-19986.248,23094.564,-49830.203,-18840.414,-25429.81,-40214.113
968988.0876541706,-83138.76,-67314.29,-19985.107,23074.871,-49830.16,-18842.45,-25433.635,-40228.395
968988.0916541673,-83136.6,-67313.4,-19983.928,23096.477,-49823.324,-18840.291,-25432.21,-40221.52
968988.0956541639,-83135.22,-67314.25,-19982.463,23118.531,-49822.51,-18834.352,-25429.322,-40213.176
968988.0996541606,-83138.76,-67317.34,-19984.375,23122.152,-49833.457,-18832.031,-25428.752,-40209.312
968988.1036541573,-83143.48,-67322.836,-19989.91,23089.111,-49849.45,-18833.66,-25430.95,-40214.152
968988.1076541538,-83145.39,-67326.984,-19993.775,23074.057,-49857.75,-18835.734,-25431.072,-40218.465
968988.1116541505,-83141.85,-67327.84,-19993.123,23092.082,-49851.36,-18836.834,-25428.428,-40212.117
968988.1156541472,-83142.17,-67325.08,-19989.584,23110.596,-49830.324,-18834.432,-25423.748,-40212.08
968988.1196541438,-83150.88,-67328.45,-19990.887,23109.904,-49827.92,-18834.596,-25426.31,-40216.15
968988.1236541405,-83153.52,-67328.45,-19991.62,23102.54,-49844.32,-18835.572,-25432.984,-40223.473
968988.1276541372,-83150.19,-67324.47,-19991.21,23104.533,-49849.324,-18836.67,-25433.146,-40216.88
968988.1316541338,-83148.234,-67325.65,-19990.682,23112.305,-49833.293,-18834.88,-25430.42,-40211.957
968988.1356541305,-83143.516,-67325.28,-19988.281,23124.188,-49831.79,-18831.463,-25430.137,-40216.105
968988.1396541271,-83144.414,-67323.98,-19988.24,23116.172,-49839.97,-18833.455,-25433.92,-40221.152
968988.1436541238,-83149.13,-67327.35,-19989.38,23083.578,-49856.406,-18838.867,-25437.744,-40218.547
968988.1476541205,-83147.95,-67324.875,-19990.479,23068.076,-49859.703,-18840.17,-25438.07,-40218.71
968988.151654117,-83147.79,-67326.42,-19993.734,23095.785,-49852.176,-18838.99,-25439.291,-40215.945
968988.1556541137,-83148.32,-67328.66,-19994.549,23123.373,-49850.3,-18837.158,-25437.297,-40209.23
968988.1596541104,-83150.516,-67328.734,-19994.264,23130.738,-49849.53,-18835.613,-25437.297,-40222.21
968988.163654107,-83146.32,-67327.44,-19994.467,23101.238,-49855.51,-18835.002,-25434.775,-40225.3
968988.1676541037,-83144.734,-67323.77,-19992.96,23084.352,-49857.547,-18832.357,-25427.94,-40214.234
968988.1716541004,-83143.76,-67322.836,-19990.723,23109.54,-49847.453,-18829.793,-25423.016,-40208.902
968988.175654097,-83144.164,-67324.67,-19990.193,23127.89,-49843.184,-18828.695,-25425.701,-40213.258
968988.1796540937,-83147.016,-67328.25,-19991.252,23116.863,-49842.855,-18830.607,-25434.164,-40241.05
968988.1836540903,-83149.78,-67328.984,-19994.467,23082.56,-49852.867,-18832.113,-25438.232,-40237.55
968988.187654087,-83152.02,-67329.14,-19998.7,23064.291,-49861.086,-18833.904,-25437.705,-40230.836
968988.1916540837,-83150.92,-67329.47,-19997.926,23098.877,-49852.54,-18830.77,-25431.193,-40216.92
968988.1956540802,-83149.945,-67329.59,-19997.6,23121.99,-49841.555,-18828.898,-25430.46,-40220.094
968988.199654077,-83151.49,-67330.734,-19999.023,23121.99,-49834.516,-18828.613,-25431.52,-40220.867
968988.2036540736,-83154.38,-67331.79,-20003.256,23104.168,-49842.773,-18831.787,-25435.426,-40225.18
968988.2076540702,-83154.13,-67328.82,-20005.738,23086.549,-49849.043,-18834.393,-25437.705,-40226.36
968988.2116540669,-83151.33,-67328.45,-20004.15,23090.984,-49843.914,-18834.88,-25438.518,-40225.26
968988.2156540636,-83149.91,-67330.08,-20000.611,23099.65,-49847.78,-18831.99,-25436.035,-40218.59
968988.2196540602,-83152.59,-67332.484,-19998.414,23102.947,-49857.344,-18829.428,-25434.734,-40220.34
968988.2236540569,-83152.1,-67332.03,-20000.773,23082.805,-49856.57,-18831.584,-25439.414,-40231.61
968988.2276540535,-83153.445,-67332.84,-20002.4,23074.912,-49856.812,-18834.188,-25442.344,-40231.0
968988.2316540502,-83151.086,-67330.57,-19998.82,23082.725,-49852.5,-18832.846,-25442.953,-40234.863
968988.2356540469,-83147.26,-67329.43,-19996.217,23102.459,-49841.188,-18832.357,-25442.424,-40235.027
968988.2396540435,-83147.83,-67331.71,-19996.379,23114.258,-49837.28,-18831.951,-25441.0,-40228.844
968988.2436540402,-83151.77,-67332.93,-20002.889,23090.576,-49847.82,-18836.305,-25443.768,-40225.71
968988.2476540369,-83150.516,-67331.016,-20007.244,23063.965,-49857.953,-18835.816,-25442.547,-40220.34
968988.2516540334,-83148.73,-67329.914,-20006.47,23076.701,-49856.855,-18832.887,-25439.861,-40222.82
968988.2556540301,-83150.35,-67331.305,-20006.47,23096.273,-49848.188,-18830.934,-25440.756,-40227.582
968988.2596540267,-83151.695,-67332.234,-20007.0,23097.373,-49845.34,-18829.428,-25441.732,-40222.535
968988.2636540234,-83151.0,-67331.18,-20007.732,23072.836,-49851.24,-18829.916,-25442.18,-40223.39
968988.2676540201,-83147.22,-67326.58,-20008.016,23062.256,-49856.73,-18832.316,-25444.785,-40238.566
968988.2716540167,-83144.82,-67322.555,-20005.412,23093.385,-49846.6,-18829.793,-25441.814,-40231.527
968988.2756540134,-83145.06,-67321.54,-20003.947,23112.957,-49843.184,-18827.068,-25439.982,-40223.96
968988.2796540101,-83148.766,-67324.305,-20003.338,23109.904,-49849.406,-18826.742,-25441.123,-40231.65
968988.2836540067,-83151.53,-67324.71,-20005.086,23085.166,-49858.81,-18828.777,-25446.25,-40243.207
968988.2876540034,-83151.086,-67322.875,-20006.55,23073.771,-49863.73,-18832.887,-25451.133,-40246.38
968988.2916540001,-83154.95,-67326.055,-20005.78,23091.146,-49857.547,-18831.137,-25449.463,-40242.758
968988.2956539966,-83159.06,-67331.305,-20004.924,23108.766,-49856.57,-18829.916,-25446.86,-40239.176
968988.2996539933,-83160.89,-67332.73,-20006.268,23108.684,-49857.87,-18829.143,-25446.818,-40237.793
968988.3036539899,-83162.6,-67332.69,-20011.15,23077.19,-49866.7,-18829.916,-25447.55,-40234.05
968988.3076539866,-83163.945,-67332.44,-20013.957,23066.691,-49871.83,-18833.252,-25452.516,-40244.832
968988.3116539833,-83160.73,-67329.63,-20008.424,23094.564,-49857.137,-18832.195,-25453.777,-40252.24
968988.3156539799,-83159.43,-67330.61,-20004.232,23109.092,-49852.05,-18828.41,-25449.3,-40248.21
968988.3196539766,-83160.24,-67333.21,-20005.291,23106.65,-49860.395,-18826.457,-25447.633,-40242.188
968988.3236539733,-83159.63,-67330.69,-20004.314,23090.293,-49865.316,-18826.254,-25446.127,-40235.965
968988.3276539699,-83157.76,-67330.81,-20005.615,23071.738,-49874.023,-18828.492,-25446.574,-40235.11
968988.3316539666,-83161.83,-67332.36,-20007.812,23082.56,-49873.496,-18829.184,-25448.447,-40237.875
968988.3356539633,-83160.28,-67333.46,-20005.209,23098.064,-49866.62,-18827.678,-25446.656,-40236.086
968988.3396539598,-83160.12,-67334.48,-20005.656,23090.943,-49866.414,-18826.13,-25445.436,-40236.574
968988.3436539565,-83161.055,-67334.76,-20008.139,23076.05,-49864.137,-18825.033,-25446.412,-40240.152
968988.3476539531,-83162.6,-67335.37,-20009.645,23070.518,-49869.508,-18824.098,-25446.697,-40244.793
968988.3516539498,-83161.586,-67334.48,-20007.406,23089.844,-49865.36,-18824.707,-25448.121,-40252.36
968988.3556539465,-83171.43,-67339.84,-20009.521,23112.143,-49860.92,-18825.36,-25451.54,-40253.055
968988.3596539431,-83195.48,-67357.22,-20014.69,23110.76,-49864.42,-18823.324,-25453.492,-40259.44
968988.3636539398,-83191.61,-67363.37,-20014.527,23085.979,-49877.28,-18823.406,-25453.695,-40248.902
968988.3676539365,-83168.78,-67346.766,-20010.254,23059.043,-49880.13,-18823.568,-25452.516,-40245.934
968988.3716539331,-83162.195,-67338.7,-20007.162,23071.656,-49872.97,-18823.895,-25450.074,-40245.445
968988.3756539298,-83157.555,-67337.484,-20003.744,23096.152,-49861.29,-18823.934,-25448.365,-40242.15
968988.3796539265,-83158.41,-67340.09,-20004.354,23098.512,-49862.227,-18823.568,-25448.162,-40236.492
968988.383653923,-83162.72,-67340.86,-20005.127,23085.205,-49873.293,-18823.283,-25448.975,-40232.504
968988.3876539198,-83156.945,-67337.445,-20005.78,23069.906,-49880.21,-18826.13,-25453.857,-40244.184
968988.3916539163,-83148.93,-67336.71,-20003.744,23083.416,-49875.203,-18827.8,-25459.31,-40265.953
968988.395653913,-83145.875,-67333.74,-20000.447,23099.936,-49877.688,-18827.271,-25460.49,-40266.848
968988.3996539097,-83145.63,-67331.18,-19997.803,23105.55,-49882.164,-18825.318,-25459.637,-40264.363
968988.4036539063,-83147.79,-67331.42,-20000.691,23080.893,-49893.68,-18826.375,-25458.457,-40262.695
968988.407653903,-83146.41,-67328.984,-20000.732,23066.936,-49888.43,-18826.986,-25455.975,-40257.61
968988.4116538997,-83147.34,-67332.52,-20002.28,23085.002,-49878.664,-18826.904,-25452.068,-40248.453
968988.4156538963,-83146.69,-67335.0,-20000.408,23103.191,-49875.043,-18825.44,-25449.3,-40244.793
968988.419653893,-83147.914,-67341.39,-20000.691,23099.447,-49879.64,-18823.568,-25450.48,-40244.426
968988.4236538897,-83156.375,-67346.88,-20004.803,23071.9,-49897.137,-18823.771,-25451.377,-40246.91
968988.4276538863,-83159.95,-67346.56,-20006.674,23057.781,-49896.73,-18824.3,-25451.742,-40249.96
968988.431653883,-83163.54,-67349.24,-20007.691,23080.648,-49891.316,-18823.568,-25452.027,-40258.344
968988.4356538795,-83163.82,-67347.29,-20004.924,23104.086,-49878.906,-18821.371,-25450.725,-40255.777
968988.4396538762,-83164.15,-67348.92,-20004.354,23110.148,-49878.38,-18820.477,-25448.568,-40252.2
968988.4436538729,-83167.195,-67351.56,-20009.115,23084.637,-49885.5,-18821.453,-25449.586,-40253.62
968988.4476538695,-83170.984,-67350.914,-20010.662,23064.129,-49892.863,-18822.469,-25450.44,-40255.777
968988.4516538662,-83171.35,-67353.27,-20012.818,23061.158,-49889.773,-18821.168,-25449.668,-40252.523
968988.4556538629,-83173.26,-67356.33,-20012.574,23081.992,-49886.027,-18819.336,-25452.027,-40250.406
968988.4596538595,-83171.39,-67355.305,-20008.953,23103.271,-49888.797,-18819.906,-25457.602,-40259.523
968988.4636538562,-83171.555,-67355.92,-20010.945,23080.486,-49902.71,-18824.871,-25465.617,-40266.44
968988.4676538529,-83173.914,-67357.51,-20014.363,23063.518,-49908.69,-18827.352,-25469.443,-40271.566
968988.4716538495,-83173.914,-67357.42,-20015.504,23089.52,-49892.58,-18827.8,-25468.994,-40268.84
968988.4756538462,-83173.586,-67358.56,-20014.975,23114.219,-49887.207,-18826.375,-25468.1,-40265.75
968988.4796538427,-83174.12,-67361.94,-20013.266,23111.777,-49889.12,-18824.748,-25466.025,-40262.125
968988.4836538394,-83180.34,-67363.32,-20017.334,23070.68,-49894.125,-18826.457,-25465.537,-40266.074
968988.4876538361,-83183.555,-67363.57,-20020.06,23037.436,-49896.484,-18826.863,-25465.049,-40263.633
968988.4916538327,-83180.5,-67360.68,-20017.09,23071.453,-49881.27,-18826.05,-25462.322,-40261.516
968988.4956538294,-83179.57,-67358.484,-20014.73,23099.285,-49873.332,-18823.162,-25461.914,-40267.984
968988.4996538261,-83181.69,-67359.87,-20014.73,23093.426,-49867.8,-18821.574,-25461.06,-40263.875
968988.5036538227,-83179.98,-67357.38,-20015.504,23077.76,-49869.71,-18822.592,-25460.654,-40253.176
968988.5076538194,-83181.36,-67357.67,-20019.857,23062.42,-49887.13,-18825.887,-25463.705,-40262.94
968988.5116538161,-83181.64,-67360.11,-20020.428,23070.232,-49882.324,-18824.422,-25462.77,-40273.4
968988.5156538127,-83180.3,-67358.36,-20017.62,23100.912,-49874.35,-18821.127,-25460.37,-40265.953
968988.5196538094,-83181.03,-67357.67,-20017.172,23107.342,-49878.703,-18818.115,-25457.195,-40259.48
968988.523653806,-83181.89,-67361.29,-20018.066,23068.36,-49889.082,-18818.562,-25457.887,-40261.434
968988.5276538027,-83184.57,-67363.0,-20021.525,23045.533,-49891.523,-18818.156,-25457.969,-40259.684
968988.5316537993,-83181.805,-67359.664,-20021.404,23076.05,-49883.3,-18816.0,-25459.107,-40270.508
968988.5356537959,-83177.25,-67357.99,-20017.537,23101.28,-49880.008,-18812.826,-25456.91,-40272.016
968988.5396537926,-83180.83,-67361.9,-20015.219,23088.379,-49889.977,-18812.176,-25453.207,-40261.477
968988.5436537893,-83182.945,-67361.01,-20015.625,23063.07,-49900.594,-18813.68,-25452.637,-40259.48
968988.5476537859,-83181.32,-67359.664,-20017.457,23059.855,-49896.934,-18815.064,-25453.41,-40259.156
968988.5516537826,-83178.23,-67359.09,-20018.596,23071.209,-49889.773,-18815.47,-25452.637,-40258.22
968988.5556537792,-83180.625,-67359.984,-20018.025,23093.71,-49880.86,-18815.064,-25452.719,-40257.61
968988.5596537759,-83186.36,-67365.84,-20019.816,23107.586,-49882.203,-18815.145,-25455.404,-40260.99
968988.5636537726,-83187.38,-67364.83,-20019.979,23088.705,-49885.5,-18816.53,-25456.219,-40261.76
968988.5676537692,-83185.51,-67361.66,-20018.799,23059.531,-49884.848,-18816.203,-25456.91,-40262.613
968988.5716537659,-83185.67,-67364.87,-20020.387,23072.062,-49886.68,-18814.617,-25457.031,-40260.297
968988.5756537626,-83185.266,-67365.84,-20019.002,23080.242,-49883.79,-18813.232,-25456.463,-40265.586
968988.5796537591,-83187.55,-67364.42,-20020.387,23085.979,-49886.92,-18811.89,-25456.543,-40263.227
968988.5836537558,-83190.11,-67364.79,-20021.852,23062.176,-49890.79,-18810.71,-25456.38,-40261.395
968988.5876537525,-83191.94,-67363.85,-20023.072,23048.463,-49892.863,-18810.262,-25453.736,-40259.562
968988.5916537491,-83191.29,-67362.59,-20023.967,23080.486,-49884.688,-18808.96,-25453.654,-40263.957
968988.5956537458,-83188.195,-67362.305,-20024.334,23101.238,-49875.45,-18806.682,-25452.516,-40261.312
968988.5996537424,-83193.85,-67365.484,-20024.943,23092.123,-49875.652,-18807.455,-25454.875,-40263.348
968988.6036537391,-83196.984,-67366.7,-20028.768,23056.764,-49891.035,-18810.059,-25459.229,-40278.688
968988.6076537358,-83196.9,-67368.164,-20031.129,23036.947,-49897.055,-18809.773,-25457.52,-40273.195
968988.6116537324,-83197.19,-67367.555,-20030.803,23060.223,-49890.016,-18807.252,-25453.777,-40264.242
968988.6156537291,-83193.36,-67366.62,-20028.2,23081.584,-49871.504,-18805.828,-25454.387,-40253.582
968988.6196537258,-83192.75,-67368.05,-20025.555,23083.008,-49863.61,-18808.146,-25459.678,-40256.43
968988.6236537223,-83198.125,-67369.67,-20027.467,23069.336,-49873.09,-18812.785,-25465.82,-40280.723
968988.627653719,-83194.625,-67366.336,-20032.023,23054.12,-49877.402,-18814.82,-25465.088,-40272.95
968988.6316537157,-83193.41,-67365.69,-20033.0,23067.994,-49871.176,-18813.559,-25463.096,-40272.42
968988.6356537123,-83194.625,-67364.51,-20029.988,23072.348,-49866.414,-18809.896,-25460.572,-40273.195
968988.639653709,-83197.59,-67364.79,-20029.867,23077.434,-49864.34,-18808.35,-25461.346,-40273.926
968988.6436537056,-83200.12,-67366.375,-20035.441,23061.564,-49872.723,-18809.979,-25465.861,-40281.414
968988.6476537023,-83197.35,-67364.87,-20038.738,23052.328,-49876.832,-18810.873,-25466.473,-40280.234
968988.651653699,-83192.016,-67360.92,-20038.494,23059.287,-49869.754,-18811.482,-25464.926,-40279.83
968988.6556536956,-83192.586,-67361.82,-20036.133,23073.486,-49864.22,-18812.256,-25465.17,-40277.305
968988.6596536923,-83197.266,-67362.14,-20033.326,23071.818,-49869.47,-18810.467,-25465.373,-40276.004
968988.663653689,-83194.42,-67358.89,-20033.326,23058.105,-49870.73,-18811.28,-25463.299,-40270.266
968988.6676536856,-83191.57,-67357.625,-20033.406,23049.846,-49867.84,-18812.42,-25459.473,-40261.312
968988.6716536822,-83190.06,-67356.0,-20033.082,23052.287,-49868.938,-18809.611,-25457.725,-40258.75
968988.675653679,-83190.76,-67356.33,-20030.438,23077.842,-49863.16,-18805.014,-25458.537,-40271.04
968988.6796536755,-83189.17,-67356.734,-20028.564,23093.588,-49856.855,-18802.979,-25457.398,-40269.938
968988.6836536722,-83187.664,-67353.6,-20030.885,23064.17,-49862.062,-18806.072,-25461.508,-40274.21
968988.6876536688,-83193.24,-67356.125,-20034.059,23038.9,-49871.504,-18809.205,-25462.729,-40274.21
968988.6916536655,-83194.54,-67358.16,-20035.97,23048.748,-49866.496,-18808.553,-25459.107,-40268.72
968988.6956536622,-83192.836,-67356.65,-20034.424,23053.102,-49861.98,-18807.617,-25458.008,-40264.16
968988.6996536588,-83190.68,-67353.84,-20029.42,23075.115,-49858.562,-18807.658,-25463.46,-40271.08
968988.7036536555,-83191.695,-67353.15,-20028.932,23068.93,-49853.477,-18807.861,-25464.764,-40268.883
968988.7076536522,-83190.11,-67349.98,-20031.17,23045.695,-49854.332,-18806.316,-25463.908,-40268.637
968988.7116536488,-83188.52,-67347.82,-20031.209,23077.516,-49840.7,-18802.002,-25458.66,-40263.184
968988.7156536455,-83199.586,-67353.48,-20034.547,23084.473,-49836.875,-18796.754,-25455.975,-40265.83
968988.7196536422,-83210.984,-67366.58,-20037.639,23086.955,-49846.883,-18796.672,-25457.357,-40270.145
968988.7236536387,-83201.13,-67359.3,-20035.035,23070.842,-49861.53,-18801.758,-25462.566,-40270.348
968988.7276536354,-83194.945,-67348.516,-20034.627,23038.9,-49870.32,-18805.787,-25466.188,-40274.902
968988.731653632,-83201.945,-67353.766,-20034.791,23048.137,-49864.258,-18803.67,-25463.664,-40267.984
968988.7356536287,-83199.875,-67354.74,-20032.756,23075.4,-49855.55,-18801.96,-25465.008,-40269.41
968988.7396536254,-83197.47,-67355.23,-20030.273,23096.6,-49845.258,-18801.434,-25467.164,-40272.664
968988.743653622,-83198.125,-67351.36,-20030.885,23082.725,-49852.99,-18805.623,-25472.494,-40290.0
968988.7476536187,-83194.055,-67347.58,-20031.17,23057.373,-49862.67,-18808.473,-25471.965,-40281.94
968988.7516536154,-83192.55,-67347.945,-20030.232,23069.012,-49851.44,-18805.99,-25468.75,-40282.96
968988.755653612,-83193.04,-67349.53,-20028.646,23094.117,-49845.137,-18802.49,-25466.797,-40283.285
968988.7596536087,-83191.33,-67350.1,-20027.1,23089.52,-49847.168,-18800.334,-25465.576,-40278.973
968988.7636536054,-83193.04,-67347.86,-20028.729,23057.984,-49849.61,-18800.13,-25463.623,-40274.54
968988.767653602,-83199.95,-67349.33,-20035.686,23040.936,-49852.176,-18800.62,-25463.623,-40276.164
968988.7716535986,-83204.02,-67350.67,-20039.55,23075.889,-49848.715,-18799.764,-25463.379,-40276.855
968988.7756535952,-83204.1,-67351.766,-20038.941,23105.348,-49837.934,-18796.63,-25461.102,-40267.58
968988.7796535919,-83203.05,-67354.33,-20035.768,23093.832,-49839.926,-18795.818,-25461.02,-40266.684
968988.7836535886,-83203.21,-67352.87,-20034.871,23054.973,-49852.95,-18800.74,-25464.56,-40276.773
968988.7876535852,-83204.51,-67354.33,-20036.377,23045.127,-49855.184,-18806.805,-25469.646,-40283.49
968988.7916535819,-83205.0,-67355.1,-20035.32,23070.191,-49847.25,-18807.943,-25474.0,-40287.965
968988.7956535786,-83208.336,-67359.83,-20034.424,23098.797,-49837.08,-18803.143,-25472.291,-40286.01
968988.7996535752,-83206.26,-67358.4,-20031.494,23110.393,-49836.266,-18796.143,-25467.814,-40280.887
968988.8036535719,-83205.2,-67350.586,-20032.47,23080.566,-49855.51,-18795.574,-25466.635,-40280.113
968988.8076535686,-83207.16,-67350.99,-20037.11,23048.463,-49866.824,-18795.94,-25462.037,-40268.395
968988.8116535651,-83206.14,-67350.625,-20035.076,23054.729,-49864.383,-18795.37,-25459.96,-40274.984
968988.8156535618,-83207.4,-67352.945,-20031.373,23078.37,-49856.242,-18794.11,-25459.717,-40277.996
968988.8196535584,-83206.305,-67353.31,-20030.844,23089.64,-49850.87,-18794.8,-25460.857,-40278.16
968988.8236535551,-83209.11,-67353.555,-20032.023,23061.729,-49858.562,-18797.486,-25462.688,-40276.164
968988.8276535518,-83211.63,-67351.36,-20031.414,23048.219,-49863.08,-18797.975,-25465.049,-40274.617
968988.8316535484,-83203.375,-67350.625,-20029.338,23057.943,-49858.97,-18795.207,-25465.373,-40274.13
968988.8356535451,-83204.836,-67352.46,-20028.523,23075.033,-49856.242,-18791.871,-25464.031,-40274.617
968988.8396535418,-83211.06,-67355.92,-20029.053,23082.113,-49855.594,-18788.412,-25464.438,-40282.96
968988.8436535384,-83215.21,-67359.87,-20032.635,23044.027,-49868.33,-18789.55,-25467.773,-40285.605
968988.8476535351,-83216.11,-67359.78,-20035.36,23032.146,-49877.08,-18792.277,-25469.443,-40288.37
968988.8516535317,-83211.96,-67359.17,-20033.53,23057.537,-49864.098,-18792.48,-25468.71,-40284.426
968988.8556535284,-83208.3,-67358.16,-20028.973,23088.379,-49857.42,-18792.684,-25467.326,-40282.066
968988.859653525,-83207.44,-67358.36,-20026.814,23100.383,-49857.547,-18791.586,-25466.146,-40277.875
968988.8636535216,-83208.055,-67358.65,-20029.135,23073.812,-49871.664,-18793.58,-25465.943,-40275.23
968988.8676535183,-83210.33,-67360.6,-20030.926,23045.41,-49878.664,-18795.654,-25467.693,-40278.08
968988.871653515,-83207.234,-67357.51,-20030.885,23065.918,-49872.113,-18792.725,-25468.182,-40277.547
968988.8756535116,-83207.84,-67357.46,-20028.89,23086.06,-49871.38,-18787.068,-25465.658,-40274.7
968988.8796535083,-83212.24,-67362.59,-20026.002,23092.57,-49869.59,-18783.65,-25464.844,-40265.383
968988.883653505,-83211.23,-67360.96,-20026.205,23059.855,-49876.26,-18787.068,-25469.809,-40283.043
968988.8876535016,-83205.28,-67353.48,-20026.123,23039.795,-49877.28,-18792.604,-25471.518,-40300.945
968988.8916534983,-83202.35,-67349.086,-20024.008,23061.28,-49867.96,-18792.969,-25469.85,-40292.44
968988.8956534949,-83206.38,-67353.48,-20024.902,23069.865,-49866.375,-18789.959,-25468.506,-40288.574
968988.8996534916,-83208.58,-67357.42,-20021.607,23086.467,-49875.125,-18787.72,-25468.426,-40294.07
968988.9036534883,-83211.75,-67357.46,-20022.705,23064.129,-49884.645,-18787.15,-25467.285,-40289.836
968988.9076534848,-83213.87,-67358.89,-20027.467,23043.621,-49890.18,-18789.348,-25468.059,-40288.37
968988.9116534815,-83210.01,-67357.22,-20027.223,23064.414,-49885.38,-18785.889,-25468.018,-40289.47
968988.9156534782,-83209.68,-67356.04,-20025.31,23096.559,-49871.664,-18780.396,-25464.111,-40285.523
968988.9196534748,-83210.49,-67356.125,-20023.846,23111.451,-49872.113,-18778.035,-25460.49,-40281.453
968988.9236534715,-83215.09,-67359.83,-20026.49,23093.832,-49881.348,-18782.309,-25465.658,-40290.445
968988.9276534682,-83212.57,-67354.086,-20026.531,23059.652,-49885.133,-18786.092,-25469.402,-40293.62
968988.9316534648,-83209.07,-67349.94,-20022.543,23062.785,-49870.04,-18786.988,-25468.223,-40291.63
968988.9356534615,-83213.5,-67356.08,-20021.078,23090.008,-49864.18,-18785.28,-25465.781,-40289.836
968988.9396534581,-83214.44,-67358.766,-20018.596,23100.22,-49866.09,-18783.773,-25464.885,-40287.438
968988.9436534548,-83211.8,-67358.52,-20020.916,23064.047,-49878.133,-18786.662,-25466.879,-40293.17
968988.9476534515,-83211.836,-67355.76,-20023.479,23046.592,-49884.074,-18787.598,-25467.367,-40291.016
968988.951653448,-83211.51,-67358.69,-20022.625,23060.955,-49881.473,-18784.465,-25462.322,-40287.027
968988.9556534447,-83222.49,-67375.164,-20025.594,23083.62,-49880.94,-18779.217,-25456.666,-40282.594
968988.9596534414,-83234.13,-67383.914,-20029.5,23090.332,-49882.69,-18776.896,-25458.252,-40285.562
968988.963653438,-83226.97,-67361.086,-20030.6,23058.514,-49878.34,-18781.617,-25462.322,-40281.535
968988.9676534347,-83214.27,-67346.16,-20030.396,23033.896,-49870.117,-18785.28,-25461.264,-40266.074
968988.9716534314,-83215.62,-67352.13,-20031.78,23063.885,-49861.125,-18785.035,-25461.59,-40272.586
968988.975653428,-83214.16,-67353.4,-20031.17,23112.713,-49851.32,-18784.832,-25467.53,-40302.33
968988.9796534247,-83219.04,-67355.63,-20031.902,23113.322,-49858.24,-18782.43,-25469.2,-40297.527
968988.9836534213,-83225.71,-67361.695,-20036.053,23069.906,-49870.04,-18781.82,-25472.047,-40295.656
968988.987653418,-83225.71,-67359.83,-20039.104,23044.557,-49878.785,-18782.553,-25474.406,-40301.188
968988.9916534147,-83228.4,-67361.125,-20035.848,23054.729,-49873.09,-18780.682,-25472.82,-40301.96
968988.9956534113,-83225.18,-67358.56,-20030.518,23076.01,-49858.156,-18775.676,-25467.773,-40296.1
968988.999653408,-83220.75,-67353.31,-20026.205,23082.316,-49855.51,-18775.514,-25464.396,-40287.965
968989.0036534047,-83218.67,-67348.266,-20027.508,23061.564,-49863.12,-18778.32,-25463.014,-40284.465
968989.0076534012,-83217.41,-67348.555,-20027.1,23052.94,-49876.18,-18782.105,-25465.537,-40295.086
968989.0116533979,-83224.445,-67352.7,-20029.744,23065.838,-49876.793,-18781.902,-25468.994,-40301.15
968989.0156533946,-83229.414,-67356.94,-20034.059,23075.928,-49873.09,-18780.07,-25469.402,-40295.492
968989.0196533912,-83232.016,-67362.96,-20034.506,23096.273,-49870.363,-18777.264,-25469.035,-40294.23
968989.0236533879,-83234.87,-67364.586,-20034.994,23079.266,-49876.793,-18776.002,-25467.611,-40297.61
968989.0276533845,-83234.945,-67360.39,-20037.068,23054.932,-49881.88,-18775.879,-25463.746,-40293.133
968989.0316533812,-83231.08,-67358.97,-20034.059,23059.531,-49874.88,-18775.799,-25464.479,-40293.336
968989.0356533779,-83228.84,-67358.56,-20031.982,23073.242,-49867.11,-18775.27,-25467.45,-40296.793
968989.0396533745,-83236.53,-67364.42,-20032.635,23084.88,-49872.76,-18777.588,-25469.605,-40296.67
968989.0436533712,-83239.79,-67367.02,-20036.174,23047.73,-49886.07,-18780.803,-25471.436,-40301.8
968989.0476533679,-83239.18,-67363.77,-20038.9,23024.578,-49888.715,-18782.635,-25472.494,-40304.934
968989.0516533644,-83238.37,-67363.61,-20038.045,23054.404,-49880.25,-18779.785,-25468.385,-40299.44
968989.0556533611,-83241.13,-67369.02,-20035.686,23093.426,-49874.758,-18775.105,-25465.252,-40300.21
968989.0596533578,-83240.64,-67371.38,-20036.215,23103.76,-49880.13,-18772.258,-25465.576,-40299.766
968989.0636533544,-83239.305,-67368.66,-20037.598,23068.727,-49892.457,-18770.955,-25465.21,-40299.234
968989.0676533511,-83242.516,-67369.51,-20041.586,23034.588,-49899.66,-18770.428,-25463.705,-40301.066
968989.0716533477,-83245.61,-67372.56,-20042.48,23039.062,-49894.086,-18769.695,-25461.71,-40299.97
968989.0756533444,-83243.05,-67374.31,-20036.662,23074.016,-49889.082,-18768.27,-25458.945,-40290.773
968989.0796533411,-83243.77,-67374.43,-20031.902,23090.781,-49883.79,-18770.428,-25455.527,-40280.19
968989.0836533377,-83243.33,-67369.34,-20032.023,23067.18,-49888.957,-18775.31,-25460.043,-40288.94
968989.0876533344,-83243.05,-67369.18,-20031.617,23045.166,-49899.17,-18777.791,-25462.81,-40290.61
968989.0916533311,-83244.59,-67373.91,-20034.1,23054.484,-49899.945,-18775.555,-25465.943,-40299.723
968989.0956533276,-83244.1,-67373.5,-20035.238,23081.584,-49896.688,-18772.42,-25468.262,-40308.23
968989.0996533243,-83247.97,-67377.69,-20039.51,23090.129,-49897.504,-18770.467,-25470.379,-40310.832
968989.103653321,-83248.74,-67379.44,-20045.41,23067.871,-49902.875,-18769.49,-25470.256,-40306.844
968989.1076533176,-83244.47,-67374.31,-20044.557,23042.236,-49911.703,-18769.49,-25468.14,-40299.44
968989.1116533143,-83240.84,-67370.52,-20044.11,23056.64,-49902.957,-18767.457,-25465.576,-40294.92
968989.1156533109,-83240.44,-67370.77,-20040.324,23082.684,-49889.65,-18766.113,-25464.56,-40297.12
968989.1196533076,-83233.234,-67367.8,-20036.58,23093.791,-49886.516,-18769.451,-25463.705,-40297.934
968989.1236533043,-83228.15,-67361.29,-20034.953,23069.703,-49899.05,-18774.7,-25464.52,-40297.977
968989.1276533009,-83219.16,-67349.94,-20036.133,23047.527,-49898.234,-18776.938,-25468.1,-40319.46
968989.1316532976,-83219.36,-67348.88,-20035.686,23060.426,-49887.74,-18772.625,-25467.246,-40314.496
968989.1356532943,-83213.016,-67344.04,-20032.918,23088.705,-49878.418,-18765.34,-25466.473,-40311.65
968989.1396532909,-83210.57,-67347.17,-20032.918,23089.316,-49887.74,-18762.248,-25466.35,-40308.188
968989.1436532876,-83213.625,-67353.516,-20035.97,23059.531,-49908.53,-18764.08,-25467.693,-40306.355
968989.1476532841,-83210.33,-67334.27,-20041.383,23036.906,-49904.01,-18766.725,-25472.453,-40315.758
968989.1516532808,-83187.3,-67311.24,-20038.209,23058.188,-49880.293,-18770.223,-25476.645,-40320.56
968989.1556532775,-83168.22,-67296.39,-20033.895,23083.13,-49862.793,-18772.787,-25477.703,-40319.418
968989.1596532741,-83147.42,-67269.45,-20031.332,23100.506,-49856.61,-18776.408,-25478.395,-40316.45
968989.1636532708,-83131.35,-67244.71,-20031.373,23075.684,-49858.727,-18782.35,-25479.574,-40313.03
968989.1676532675,-83122.6,-67233.85,-20033.65,23042.686,-49867.72,-18784.953,-25481.934,-40326.09
968989.1716532641,-83109.09,-67218.38,-20033.244,23067.871,-49858.645,-18781.82,-25478.395,-40324.832
968989.1756532608,-83097.82,-67201.78,-20033.691,23091.35,-49836.305,-18777.547,-25475.424,-40318.523
968989.1796532575,-83087.41,-67185.02,-20033.732,23093.506,-49828.74,-18775.105,-25479.29,-40322.754
968989.1836532541,-83084.64,-67174.766,-20036.947,23065.186,-49846.68,-18775.555,-25485.475,-40327.84
968989.1876532508,-83079.47,-67165.49,-20038.574,23048.87,-49849.324,-18779.95,-25490.52,-40332.926
968989.1916532473,-83072.39,-67155.805,-20037.191,23058.676,-49833.008,-18781.982,-25493.734,-40342.9
968989.195653244,-83070.6,-67148.64,-20036.053,23086.67,-49820.883,-18783.203,-25498.047,-40347.82
968989.1996532407,-83071.66,-67144.01,-20039.754,23091.188,-49823.242,-18786.297,-25500.693,-40348.96
968989.2036532373,-83070.84,-67140.14,-20041.545,23074.3,-49828.047,-18789.348,-25500.041,-40343.465
968989.207653234,-83076.3,-67141.93,-20043.377,23060.223,-49822.023,-18790.324,-25497.559,-40340.78
968989.2116532307,-83075.32,-67143.11,-20043.295,23087.688,-49808.797,-18786.256,-25494.305,-40351.645
968989.2156532273,-83075.85,-67146.164,-20040.568,23115.887,-49800.863,-18779.541,-25487.428,-40342.57
968989.219653224,-83083.74,-67152.67,-20042.156,23128.215,-49809.53,-18776.611,-25485.027,-40337.484
968989.2236532207,-83099.29,-67164.96,-20047.242,23088.908,-49826.17,-18777.426,-25485.19,-40336.832
968989.2276532173,-83106.9,-67170.66,-20049.52,23052.41,-49837.605,-18778.729,-25487.225,-40342.9
968989.231653214,-83113.0,-67176.59,-20051.025,23067.871,-49833.336,-18777.508,-25488.975,-40348.594
968989.2356532105,-83120.61,-67186.85,-20049.602,23101.36,-49829.793,-18773.885,-25489.787,-40344.727
968989.2396532072,-83129.11,-67195.27,-20050.416,23095.541,-49829.55,-18774.049,-25491.172,-40340.13
968989.243653204,-83135.375,-67202.35,-20054.12,23058.229,-49836.426,-18775.676,-25494.549,-40333.414
968989.2476532005,-83139.484,-67205.98,-20055.217,23026.043,-49846.273,-18777.71,-25496.094,-40341.92
968989.2516531972,-83138.51,-67209.516,-20051.717,23042.36,-49838.746,-18778.484,-25497.479,-40358.97
968989.2556531939,-83145.59,-67219.08,-20048.87,23086.02,-49823.57,-18773.764,-25494.06,-40344.156
968989.2596531905,-83156.414,-67230.51,-20050.334,23095.338,-49828.86,-18771.932,-25496.379,-40347.94
968989.2636531872,-83159.47,-67232.305,-20051.31,23061.28,-49838.22,-18773.275,-25497.64,-40352.133
968989.2676531839,-83160.81,-67232.625,-20050.945,23051.475,-49843.305,-18773.234,-25492.31,-40340.496
968989.2716531805,-83160.97,-67232.22,-20048.87,23082.44,-49831.42,-18771.607,-25486.37,-40341.227
968989.2756531772,-83164.47,-67237.19,-20048.666,23098.186,-49826.824,-18769.287,-25484.863,-40343.223
968989.2796531738,-83173.18,-67246.87,-20050.701,23091.27,-49831.992,-18767.66,-25486.492,-40338.297
968989.2836531705,-83184.41,-67254.6,-20054.566,23061.076,-49847.37,-18767.416,-25487.305,-40336.996
968989.2876531671,-83190.76,-67259.805,-20058.105,23043.58,-49850.832,-18769.207,-25487.957,-40340.58
968989.2916531637,-83192.75,-67260.78,-20056.52,23061.564,-49840.496,-18769.572,-25488.16,-40343.996
968989.2956531604,-83189.17,-67260.945,-20051.148,23099.977,-49831.18,-18766.725,-25486.533,-40341.676
968989.2996531571,-83192.71,-67267.54,-20049.113,23095.867,-49826.703,-18766.928,-25486.654,-40335.9
968989.3036531537,-83197.8,-67268.96,-20052.572,23065.553,-49847.168,-18769.41,-25489.87,-40334.88
968989.3076531504,-83199.42,-67268.96,-20056.6,23042.4,-49861.168,-18772.055,-25489.38,-40327.76
968989.3116531471,-83202.88,-67271.24,-20060.262,23045.615,-49855.31,-18770.508,-25487.549,-40336.184
968989.3156531437,-83202.07,-67272.46,-20057.414,23077.11,-49841.676,-18766.154,-25485.393,-40341.434
968989.3196531404,-83201.87,-67273.32,-20056.152,23087.81,-49840.457,-18765.584,-25484.904,-40332.926
968989.323653137,-83206.46,-67275.23,-20058.879,23063.193,-49843.06,-18767.01,-25485.19,-40327.35
968989.3276531337,-83209.39,-67274.87,-20059.57,23040.732,-49848.797,-18766.277,-25482.871,-40325.6
968989.3316531304,-83205.2,-67272.79,-20054.2,23066.895,-49840.863,-18764.283,-25479.086,-40319.906
968989.3356531269,-83203.62,-67273.89,-20047.445,23102.133,-49830.895,-18762.248,-25479.168,-40318.32
968989.3396531236,-83208.055,-67279.3,-20044.393,23102.133,-49832.277,-18761.883,-25479.615,-40312.055
968989.3436531203,-83215.5,-67283.66,-20047.69,23063.803,-49851.93,-18763.469,-25483.887,-40322.31
968989.3476531169,-83221.48,-67287.31,-20051.922,23040.365,-49865.277,-18764.893,-25486.084,-40337.484
968989.3516531136,-83224.77,-67294.96,-20054.852,23052.816,-49855.023,-18766.56,-25487.549,-40335.938
968989.3556531103,-83223.63,-67295.375,-20053.875,23086.467,-49836.71,-18763.307,-25484.986,-40326.785
968989.3596531069,-83225.55,-67295.05,-20053.264,23092.773,-49834.637,-18760.418,-25480.389,-40319.254
968989.3636531036,-83228.31,-67294.07,-20055.908,23055.584,-49845.543,-18760.133,-25480.307,-40315.39
968989.3676531002,-83229.086,-67290.33,-20059.49,23017.54,-49861.29,-18761.8,-25481.812,-40327.395
968989.3716530969,-83227.016,-67291.305,-20059.57,23042.686,-49855.67,-18759.115,-25481.242,-40331.42
968989.3756530936,-83228.56,-67295.78,-20056.56,23081.992,-49836.184,-18756.227,-25478.395,-40326.824
968989.3796530901,-83234.54,-67300.78,-20057.252,23087.81,-49834.84,-18756.268,-25479.656,-40327.11
968989.3836530868,-83237.96,-67305.18,-20060.71,23066.367,-49846.273,-18758.709,-25481.365,-40333.336
968989.3876530835,-83235.96,-67304.04,-20060.955,23043.133,-49845.785,-18760.701,-25481.242,-40337.973
968989.3916530801,-83238.28,-67306.12,-20061.076,23059.164,-49832.234,-18758.342,-25478.271,-40329.754
968989.3956530768,-83239.305,-67310.305,-20059.57,23084.434,-49825.605,-18754.436,-25478.477,-40329.145
968989.3996530735,-83246.42,-67316.125,-20062.623,23077.23,-49833.62,-18751.465,-25479.941,-40331.668
968989.4036530701,-83249.02,-67320.97,-20064.576,23042.889,-49843.344,-18753.297,-25482.098,-40339.438
968989.4076530668,-83247.36,-67319.375,-20066.773,23031.535,-49858.156,-18756.633,-25484.13,-40336.305
968989.4116530634,-83246.3,-67318.12,-20063.111,23064.414,-49847.21,-18754.639,-25480.389,-40327.555
968989.4156530601,-83249.63,-67321.49,-20060.344,23104.574,-49831.992,-18753.377,-25483.074,-40346.64
968989.4196530568,-83254.56,-67323.53,-20060.426,23095.947,-49835.164,-18755.047,-25484.375,-40347.168
968989.4236530534,-83255.78,-67318.89,-20064.088,23059.611,-49843.63,-18757.977,-25483.44,-40340.82
968989.42765305,-83256.47,-67315.02,-20067.424,23028.117,-49849.45,-18759.318,-25481.69,-40340.58
968989.4316530467,-83253.87,-67312.91,-20068.318,23039.348,-49838.42,-18757.203,-25479.615,-40340.047
968989.4356530433,-83249.88,-67308.72,-20065.918,23089.031,-49820.438,-18754.762,-25478.395,-40334.27
968989.43965304,-83252.85,-67313.03,-20062.459,23085.37,-49820.598,-18753.338,-25479.412,-40332.316
968989.4436530367,-83255.21,-67316.9,-20062.5,23050.578,-49838.707,-18755.615,-25485.719,-40337.89
968989.4476530333,-83255.25,-67319.625,-20066.041,23036.785,-49833.54,-18757.691,-25488.281,-40338.137
968989.45165303,-83255.49,-67322.63,-20065.35,23055.38,-49824.42,-18755.656,-25489.625,-40342.773
968989.4556530266,-83252.93,-67323.85,-20059.205,23081.828,-49818.36,-18753.459,-25486.94,-40334.8
968989.4596530233,-83253.336,-67324.1,-20058.635,23082.236,-49823.895,-18752.441,-25482.219,-40329.59
968989.46365302,-83252.81,-67320.35,-20063.07,23049.357,-49829.918,-18756.023,-25482.992,-40331.625
968989.4676530166,-83248.984,-67316.086,-20064.088,23023.967,-49834.473,-18759.115,-25483.154,-40327.395
968989.4716530133,-83247.12,-67311.08,-20062.42,23053.508,-49823.69,-18755.738,-25482.951,-40340.66
968989.47565301,-83248.17,-67311.89,-20062.176,23094.035,-49815.555,-18751.14,-25482.586,-40347.25
968989.4796530065,-83257.29,-67321.54,-20064.168,23091.39,-49822.633,-18749.553,-25483.318,-40349.285
968989.4836530032,-83261.97,-67325.16,-20068.115,23038.209,-49835.652,-18749.635,-25481.812,-40339.723
968989.4876529998,-83260.83,-67322.266,-20069.865,23004.111,-49844.32,-18751.506,-25481.568,-40337.32
968989.4916529965,-83256.06,-67318.89,-20066.61,23027.873,-49837.812,-18749.635,-25479.168,-40343.71
968989.4956529932,-83249.63,-67314.62,-20062.256,23069.703,-49814.617,-18746.95,-25477.54,-40342.977
968989.4996529898,-83247.766,-67312.87,-20059.367,23076.336,-49809.367,-18745.564,-25476.93,-40341.84
968989.5036529865,-83253.87,-67311.73,-20061.035,23059.002,-49815.51,-18748.738,-25481.406,-40343.02
968989.5076529832,-83253.18,-67306.6,-20061.523,23041.83,-49820.438,-18751.465,-25487.549,-40350.344
968989.5116529798,-83256.19,-67310.18,-20060.344,23055.584,-49820.355,-18751.75,-25490.479,-40347.496
968989.5156529765,-83264.65,-67321.29,-20060.588,23078.533,-49812.46,-18751.506,-25491.21,-40343.71
968989.5196529732,-83266.36,-67324.67,-20057.008,23069.785,-49818.848,-18753.338,-25494.629,-40360.395
968989.5236529697,-83265.26,-67324.42,-20057.21,23041.709,-49835.652,-18753.215,-25492.596,-40353.477
968989.5276529664,-83262.01,-67322.305,-20058.676,23020.305,-49837.324,-18753.459,-25489.258,-40346.11
968989.531652963,-83254.27,-67317.14,-20057.414,23035.768,-49811.566,-18751.953,-25485.393,-40344.484
968989.5356529597,-83256.31,-67317.266,-20054.363,23069.947,-49806.113,-18746.908,-25481.486,-40340.293
968989.5396529564,-83265.83,-67325.08,-20055.014,23087.932,-49811.117,-18742.432,-25481.08,-40339.76
968989.543652953,-83274.13,-67327.35,-20060.547,23063.07,-49823.812,-18741.252,-25479.736,-40337.242
968989.5476529497,-83265.14,-67315.92,-20060.873,23033.285,-49837.324,-18742.84,-25480.389,-40335.938
968989.5516529464,-83251.02,-67305.46,-20056.52,23050.172,-49829.59,-18743.855,-25481.324,-40340.332
968989.555652943,-83251.47,-67304.73,-20053.387,23074.586,-49815.27,-18743.287,-25482.627,-40339.03
968989.5596529397,-83251.14,-67305.55,-20051.148,23086.02,-49807.984,-18742.352,-25483.154,-40332.234
968989.5636529364,-83253.336,-67308.39,-20052.287,23066.855,-49817.344,-18744.06,-25483.236,-40334.188
968989.567652933,-83255.86,-67309.86,-20055.867,23038.047,-49828.125,-18747.723,-25485.922,-40341.637
968989.5716529296,-83256.02,-67309.53,-20055.299,23063.152,-49818.93,-18745.158,-25483.236,-40336.67
968989.5756529262,-83261.88,-67312.625,-20053.752,23098.105,-49804.16,-18739.625,-25478.395,-40333.21
968989.5796529229,-83261.195,-67311.77,-20051.96,23096.152,-49804.04,-18738.281,-25479.412,-40340.863
968989.5836529196,-83259.65,-67309.734,-20052.531,23062.256,-49820.56,-18741.74,-25480.918,-40346.395
968989.5876529162,-83255.25,-67305.18,-20050.13,23039.307,-49827.312,-18742.39,-25477.012,-40337.04
968989.5916529129,-83250.98,-67302.66,-20049.031,23058.92,-49818.156,-18739.746,-25472.9,-40332.887
968989.5956529096,-83247.195,-67304.94,-20047.242,23090.82,-49812.785,-18737.672,-25471.965,-40331.707
968989.5996529062,-83248.54,-67308.96,-20047.12,23087.89,-49813.52,-18737.346,-25475.547,-40334.516
968989.6036529029,-83253.79,-67311.77,-20052.328,23046.266,-49830.69,-18739.178,-25477.988,-40334.35
968989.6076528996,-83250.9,-67309.94,-20053.387,23027.832,-49835.086,-18739.828,-25477.418,-40327.72
968989.6116528962,-83250.53,-67309.45,-20052.613,23048.463,-49830.12,-18737.225,-25474.365,-40328.613
968989.6156528929,-83260.17,-67316.98,-20053.752,23081.38,-49828.98,-18733.195,-25472.453,-40325.156
968989.6196528894,-83261.72,-67318.32,-20054.607,23084.678,-49832.03,-18732.91,-25475.342,-40335.164
968989.6236528861,-83259.93,-67315.11,-20054.566,23070.477,-49840.13,-18735.066,-25478.965,-40351.035
968989.6276528828,-83262.984,-67315.96,-20055.787,23040.61,-49840.13,-18736.898,-25478.191,-40344.688
968989.6316528794,-83263.72,-67319.87,-20051.96,23059.408,-49831.79,-18735.31,-25475.383,-40343.06
968989.6356528761,-83264.53,-67323.0,-20047.893,23091.676,-49823.773,-18731.527,-25474.326,-40341.96
968989.6396528728,-83264.9,-67324.055,-20047.566,23083.781,-49835.695,-18730.307,-25474.895,-40342.773
968989.6436528694,-83266.805,-67327.15,-20050.537,23057.21,-49846.883,-18732.748,-25477.58,-40344.81
968989.6476528661,-83268.516,-67325.445,-20054.81,23034.588,-49845.215,-18733.357,-25477.947,-40344.08
968989.6516528628,-83270.02,-67328.82,-20056.926,23051.23,-49832.44,-18731.324,-25474.854,-40339.64
968989.6556528594,-83268.07,-67329.1,-20055.014,23091.35,-49825.93,-18728.68,-25473.959,-40343.426
968989.6596528561,-83265.875,-67326.58,-20052.979,23106.934,-49825.727,-18728.68,-25473.674,-40342.9
968989.6636528526,-83264.24,-67323.445,-20051.717,23072.186,-49835.574,-18730.836,-25472.738,-40339.684
968989.6676528493,-83266.85,-67320.72,-20050.863,23029.705,-49850.63,-18734.701,-25473.47,-40339.805
968989.671652846,-83268.805,-67319.83,-20051.84,23028.24,-49847.94,-18734.783,-25473.105,-40344.28
968989.6756528426,-83268.555,-67323.125,-20052.166,23067.383,-49833.457,-18731.201,-25471.64,-40342.69
968989.6796528393,-83274.62,-67328.25,-20051.473,23091.879,-49833.133,-18730.916,-25476.523,-40343.06
968989.683652836,-83279.42,-67332.12,-20055.217,23077.637,-49842.773,-18734.986,-25483.115,-40352.664
968989.6876528326,-83278.65,-67330.41,-20061.117,23040.324,-49846.113,-18739.014,-25487.346,-40368.9
968989.6916528293,-83274.01,-67327.64,-20058.92,23044.475,-49837.117,-18736.816,-25484.213,-40358.562
968989.695652826,-83275.516,-67328.78,-20054.158,23080.445,-49832.03,-18730.55,-25479.412,-40349.895
968989.6996528226,-83275.8,-67327.96,-20052.37,23086.305,-49837.324,-18732.098,-25480.104,-40350.586
968989.7036528193,-83274.17,-67323.85,-20052.45,23048.87,-49844.85,-18736.125,-25483.36,-40356.61
968989.7076528159,-83270.19,-67319.625,-20051.758,23021.729,-49849.61,-18736.328,-25479.33,-40344.28
968989.7116528125,-83266.56,-67317.55,-20047.445,23057.496,-49841.066,-18733.033,-25477.336,-40340.66
968989.7156528092,-83266.85,-67320.68,-20044.19,23103.068,-49830.16,-18730.836,-25476.318,-40351.688
968989.7196528058,-83269.984,-67322.59,-20044.312,23094.809,-49836.47,-18727.947,-25474.53,-40349.082
968989.7236528025,-83271.24,-67321.414,-20047.283,23047.404,-49856.445,-18728.11,-25473.918,-40346.438
968989.7276527992,-83268.68,-67318.195,-20050.904,23020.59,-49859.66,-18730.754,-25476.97,-40350.426
968989.7316527958,-83265.95,-67316.0,-20048.26,23049.033,-49844.605,-18730.633,-25475.383,-40345.785
968989.7356527925,-83262.17,-67316.445,-20043.621,23099.773,-49828.37,-18728.068,-25471.152,-40341.715
968989.7396527892,-83265.625,-67318.484,-20043.58,23097.617,-49822.43,-18727.133,-25473.268,-40344.363
968989.7436527858,-83272.95,-67319.664,-20046.143,23061.361,-49835.29,-18727.783,-25475.383,-40344.566
968989.7476527825,-83271.85,-67319.7,-20046.875,23028.2,-49847.37,-18729.29,-25474.61,-40344.566
968989.751652779,-83268.555,-67315.555,-20046.102,23033.408,-49838.582,-18728.191,-25472.982,-40351.2
968989.7556527758,-83270.266,-67316.33,-20044.027,23072.227,-49827.312,-18723.47,-25469.402,-40349.938
968989.7596527725,-83268.31,-67316.33,-20039.795,23083.252,-49831.18,-18720.947,-25464.682,-40338.22
968989.763652769,-83267.055,-67313.97,-20042.725,23051.678,-49837.242,-18722.982,-25463.623,-40334.188
968989.7676527657,-83270.1,-67313.48,-20046.59,23021.363,-49844.566,-18724.773,-25462.281,-40326.62
968989.7716527624,-83270.67,-67316.53,-20046.102,23045.248,-49837.117,-18719.441,-25456.504,-40315.023
968989.775652759,-83266.65,-67316.81,-20044.148,23085.898,-49825.195,-18714.438,-25457.154,-40334.598
968989.7796527557,-83270.914,-67318.89,-20044.719,23083.008,-49827.477,-18715.17,-25463.217,-40352.297
968989.7836527523,-83274.375,-67313.88,-20045.533,23054.322,-49845.95,-18719.85,-25466.27,-40348.43
968989.787652749,-83271.65,-67309.164,-20045.736,23025.514,-49854.004,-18724.203,-25469.2,-40342.652
968989.7916527457,-83272.75,-67313.56,-20043.904,23051.799,-49840.984,-18721.762,-25468.426,-40340.7
968989.7956527423,-83274.78,-67316.61,-20041.707,23089.56,-49826.336,-18717.285,-25468.914,-40342.164
968989.799652739,-83279.75,-67321.62,-20044.027,23081.584,-49831.383,-18717.652,-25472.617,-40337.77
968989.8036527357,-83279.09,-67322.06,-20044.557,23048.34,-49839.805,-18719.361,-25473.389,-40349.938
968989.8076527322,-83274.21,-67317.55,-20045.736,23034.588,-49842.125,-18721.355,-25472.168,-40346.03
968989.8116527289,-83272.3,-67316.29,-20044.678,23070.395,-49832.195,-18720.338,-25471.72,-40344.93
968989.8156527256,-83273.84,-67320.766,-20041.545,23114.502,-49824.383,-18718.914,-25472.373,-40344.2
968989.8196527222,-83277.836,-67323.08,-20041.342,23108.928,-49829.715,-18718.182,-25477.256,-40354.695
968989.8236527189,-83280.805,-67322.43,-20044.516,23067.75,-49840.535,-18720.582,-25483.033,-40365.684
968989.8276527155,-83278.08,-67316.734,-20045.818,23031.658,-49846.355,-18722.371,-25483.398,-40365.36
968989.8316527122,-83275.19,-67316.53,-20044.19,23042.766,-49837.363,-18720.703,-25479.371,-40362.305
968989.8356527089,-83279.3,-67325.69,-20040.447,23070.924,-49827.23,-18717.082,-25471.396,-40348.39
968989.8396527055,-83280.93,-67329.59,-20039.021,23061.484,-49838.543,-18718.344,-25471.965,-40350.63
968989.8436527022,-83285.73,-67334.35,-20042.277,23036.662,-49856.977,-18720.744,-25475.75,-40350.586
968989.8476526989,-83289.35,-67336.02,-20045.125,23026.979,-49859.863,-18721.883,-25476.441,-40345.703
968989.8516526954,-83285.24,-67330.2,-20043.295,23059.693,-49847.09,-18722.371,-25479.209,-40358.684
968989.8556526921,-83284.875,-67331.79,-20041.871,23101.238,-49827.15,-18719.158,-25478.11,-40357.34
968989.8596526888,-83289.06,-67334.02,-20041.016,23096.64,-49826.62,-18717.977,-25476.482,-40351.32
968989.8636526854,-83291.305,-67334.88,-20043.54,23065.186,-49838.992,-18720.379,-25479.209,-40357.504
968989.8676526821,-83286.46,-67329.8,-20046.59,23036.459,-49848.066,-18720.785,-25477.988,-40356.57
968989.8716526787,-83282.48,-67326.336,-20045.207,23049.56,-49841.797,-18719.158,-25476.36,-40360.965
968989.8756526754,-83285.73,-67330.98,-20041.586,23081.299,-49837.117,-18717.367,-25471.844,-40358.156
968989.8796526721,-83289.02,-67333.7,-20040.447,23080.486,-49839.355,-18716.92,-25469.523,-40350.223
968989.8836526687,-83291.266,-67333.74,-20045.41,23049.154,-49849.406,-18719.197,-25470.215,-40343.465
968989.8876526654,-83288.62,-67334.234,-20046.672,23031.414,-49852.95,-18720.785,-25472.373,-40346.64
968989.8916526621,-83284.67,-67330.37,-20043.295,23063.64,-49840.58,-18718.385,-25469.361,-40334.15
968989.8956526587,-83284.47,-67325.69,-20039.633,23102.05,-49824.26,-18715.252,-25471.152,-40344.363
968989.8996526554,-83286.22,-67328.78,-20037.883,23089.967,-49831.055,-18714.314,-25476.645,-40363.12
968989.903652652,-83287.11,-67327.805,-20040.04,23048.057,-49846.07,-18716.188,-25476.562,-40360.84
968989.9076526486,-83282.11,-67319.5,-20042.236,23023.113,-49857.383,-18719.117,-25474.732,-40354.25
968989.9116526453,-83280.07,-67322.02,-20038.697,23064.738,-49841.023,-18717.45,-25469.89,-40349.61
968989.9156526419,-83282.59,-67328.25,-20032.797,23102.58,-49831.504,-18710.896,-25462.281,-40338.176
968989.9196526386,-83286.83,-67330.28,-20031.414,23087.12,-49836.184,-18709.717,-25461.143,-40337.16
968989.9236526353,-83285.69,-67329.14,-20032.39,23069.703,-49847.21,-18711.02,-25460.45,-40342.203
968989.9276526319,-83286.945,-67327.27,-20037.72,23039.145,-49847.09,-18712.932,-25459.88,-40349.57
968989.9316526286,-83286.3,-67323.695,-20040.406,23045.207,-49838.95,-18712.322,-25460.693,-40351.93
968989.9356526253,-83289.875,-67331.38,-20036.947,23087.12,-49840.293,-18708.904,-25462.2,-40352.62
968989.9396526219,-83301.44,-67340.375,-20038.33,23079.184,-49844.16,-18710.205,-25467.041,-40352.54
968989.9436526186,-83296.67,-67337.12,-20040.162,23043.662,-49857.625,-18715.373,-25473.105,-40359.17
968989.9476526153,-83293.91,-67332.44,-20041.83,23020.508,-49862.715,-18717.041,-25473.186,-40356.49
968989.9516526118,-83294.84,-67332.89,-20039.43,23045.004,-49849.69,-18714.64,-25465.21,-40333.742
968989.9556526085,-83293.945,-67327.31,-20035.32,23078.045,-49832.93,-18713.867,-25465.74,-40337.484
968989.9596526051,-83292.65,-67325.484,-20033.53,23072.674,-49841.555,-18717.326,-25475.83,-40366.375
968989.9636526018,-83293.055,-67325.73,-20034.832,23045.695,-49854.004,-18720.459,-25478.76,-40364.83
968989.9676525985,-83290.695,-67321.695,-20034.547,23030.723,-49851.727,-18720.338,-25477.54,-40367.88
968989.9716525951,-83288.62,-67322.15,-20032.064,23057.09,-49845.625,-18715.088,-25470.541,-40358.645
968989.9756525918,-83294.72,-67326.78,-20031.209,23096.314,-49837.04,-18710.572,-25467.53,-40353.355
968989.9796525885,-83294.805,-67325.93,-20028.035,23098.756,-49842.0,-18712.361,-25473.674,-40361.695
968989.9836525851,-83292.89,-67324.875,-20029.705,23070.598,-49855.105,-18715.332,-25475.709,-40362.387
968989.9876525818,-83294.516,-67326.336,-20030.926,23027.67,-49862.875,-18716.92,-25475.303,-40368.004
968989.9916525785,-83294.234,-67329.59,-20028.973,23023.031,-49851.645,-18714.111,-25474.041,-40361.98
968989.995652575,-83297.85,-67332.4,-20026.002,23077.88,-49827.637,-18711.305,-25473.105,-40359.133
968989.9996525717,-83304.164,-67336.02,-20024.414,23091.473,-49839.152,-18712.89,-25476.4,-40364.055
968990.0036525683,-83302.57,-67332.52,-20024.617,23044.598,-49856.49,-18715.17,-25477.783,-40363.04
968990.007652565,-83295.414,-67327.35,-20025.838,23024.984,-49859.66,-18716.105,-25477.621,-40378.297
968990.0116525617,-83295.45,-67328.05,-20026.326,23033.691,-49844.32,-18713.826,-25475.912,-40375.816
968990.0156525583,-83293.54,-67330.12,-20022.258,23077.8,-49832.277,-18713.014,-25476.197,-40372.07
968990.019652555,-83296.836,-67332.234,-20022.705,23085.125,-49841.72,-18712.81,-25474.326,-40356.49
968990.0236525517,-83299.234,-67334.39,-20024.252,23033.408,-49853.56,-18714.152,-25478.271,-40362.71
968990.0276525483,-83299.64,-67333.375,-20026.734,23014.242,-49849.734,-18716.512,-25483.44,-40380.82
968990.031652545,-83304.164,-67332.03,-20029.744,23054.12,-49839.723,-18716.309,-25484.05,-40382.285
968990.0356525417,-83301.805,-67334.8,-20026.326,23085.043,-49833.05,-18713.705,-25480.51,-40379.598
968990.0396525383,-83300.87,-67334.234,-20024.049,23081.016,-49830.85,-18712.24,-25475.303,-40359.863
968990.043652535,-83294.195,-67325.52,-20024.902,23050.498,-49844.65,-18713.338,-25479.574,-40366.58
968990.0476525315,-83284.71,-67317.1,-20023.805,23029.746,-49842.652,-18714.803,-25480.836,-40372.887
968990.0516525282,-83290.29,-67319.016,-20023.193,23043.377,-49833.54,-18715.291,-25481.771,-40378.664
968990.0556525249,-83290.53,-67319.83,-20020.305,23084.922,-49822.227,-18713.787,-25484.416,-40392.906
968990.0596525215,-83290.98,-67321.945,-20020.02,23078.818,-49825.81,-18713.299,-25483.604,-40386.355
968990.0636525182,-83295.414,-67325.93,-20021.24,23037.07,-49842.164,-18715.78,-25482.057,-40373.09
968990.0676525149,-83292.69,-67321.82,-20021.484,23020.225,-49844.035,-18717.367,-25482.057,-40376.26
968990.0716525115,-83281.01,-67307.25,-20017.537,23037.518,-49832.93,-18715.496,-25479.086,-40372.805
968990.0756525082,-83278.98,-67306.89,-20013.184,23062.217,-49826.582,-18713.664,-25478.76,-40371.46
968990.0796525048,-83272.46,-67302.695,-20008.383,23078.045,-49828.74,-18713.664,-25482.951,-40381.062
968990.0836525015,-83261.555,-67293.055,-20006.633,23042.36,-49845.258,-18716.594,-25483.848,-40374.39
968990.0876524982,-83259.484,-67290.734,-20005.78,23020.875,-49853.516,-18719.727,-25485.107,-40371.094
968990.0916524947,-83257.81,-67285.766,-20006.145,23045.533,-49837.445,-18721.15,-25490.967,-40391.887
968990.0956524914,-83250.41,-67273.64,-20002.4,23096.559,-49816.406,-18718.344,-25494.264,-40408.61
968990.0996524881,-83238.98,-67267.09,-20000.936,23095.215,-49821.74,-18718.67,-25494.426,-40405.52
968990.1036524847,-83233.484,-67259.16,-20002.727,23055.258,-49830.04,-18720.174,-25492.799,-40396.402
968990.1076524814,-83217.2,-67241.78,-20000.691,23023.846,-49835.86,-18721.191,-25491.172,-40394.86
968990.1116524781,-83202.88,-67224.57,-19997.844,23035.361,-49827.72,-18720.174,-25489.096,-40394.168
968990.1156524747,-83196.17,-67218.875,-19991.414,23087.646,-49816.33,-18715.047,-25488.201,-40391.93
968990.1196524714,-83183.31,-67208.414,-19988.037,23086.387,-49820.844,-18716.309,-25492.393,-40385.62
968990.123652468,-83166.875,-67191.695,-19988.77,23059.082,-49824.18,-18720.174,-25497.396,-40397.707
968990.1276524647,-83160.08,-67185.305,-19985.148,23036.377,-49825.117,-18722.168,-25498.21,-40408.0
968990.1316524614,-83153.65,-67181.6,-19983.074,23057.781,-49812.785,-18721.924,-25495.81,-40401.9
968990.135652458,-83152.14,-67172.81,-19979.33,23099.814,-49798.953,-18721.355,-25496.705,-40404.01
968990.1396524546,-83163.45,-67176.8,-19981.324,23091.432,-49819.5,-18721.6,-25496.746,-40406.414
968990.1436524513,-83150.39,-67169.88,-19978.15,23047.486,-49833.824,-18722.697,-25496.055,-40405.64
968990.1476524479,-83117.84,-67148.32,-19970.988,23028.2,-49828.125,-18723.023,-25495.729,-40405.723
968990.1516524446,-83123.13,-67138.71,-19973.389,23043.092,-49812.055,-18720.053,-25493.775,-40406.656
968990.1556524413,-83147.79,-67161.26,-19971.559,23080.69,-49800.496,-18714.559,-25487.713,-40397.176
968990.1596524379,-83146.85,-67172.484,-19964.764,23089.111,-49812.34,-18715.088,-25487.469,-40389.49
968990.1636524346,-83146.28,-67170.78,-19961.508,23058.31,-49822.957,-18721.273,-25493.734,-40389.69
968990.1676524312,-83156.66,-67179.77,-19962.85,23016.521,-49838.91,-18725.83,-25500.041,-40396.65
968990.1716524279,-83162.44,-67183.15,-19961.59,23048.3,-49833.21,-18722.168,-25497.926,-40401.855
968990.1756524246,-83170.17,-67193.484,-19956.219,23089.52,-49810.914,-18716.188,-25491.334,-40397.098
968990.1796524212,-83158.81,-67200.56,-19952.19,23089.438,-49811.566,-18715.455,-25490.764,-40397.707
968990.1836524179,-83169.03,-67206.305,-19952.23,23052.94,-49830.49,-18717.896,-25494.549,-40409.305
968990.1876524145,-83181.6,-67217.57,-19956.34,23020.264,-49844.035,-18718.75,-25493.328,-40409.508
968990.1916524111,-83180.664,-67218.38,-19949.83,23038.78,-49835.652,-18715.455,-25487.387,-40401.492
968990.1956524078,-83188.56,-67232.99,-19941.447,23076.254,-49835.734,-18711.508,-25487.266,-40401.855
968990.1996524045,-83202.4,-67246.79,-19940.186,23079.55,-49838.83,-18710.613,-25487.549,-40394.53
968990.2036524011,-83214.48,-67255.49,-19942.871,23033.326,-49853.152,-18710.572,-25484.904,-40384.645
968990.2076523978,-83226.4,-67265.71,-19943.889,23001.182,-49858.24,-18709.148,-25479.818,-40379.273
968990.2116523944,-83227.09,-67271.57,-19941.691,23030.762,-49845.46,-18706.422,-25477.256,-40383.22
968990.2156523911,-83224.04,-67274.13,-19937.785,23081.748,-49823.49,-18700.725,-25472.168,-40375.285
968990.2196523878,-83229.945,-67277.67,-19934.53,23085.41,-49829.55,-18699.545,-25472.168,-40380.7
968990.2236523844,-83233.805,-67277.34,-19933.838,23049.316,-49846.56,-18700.969,-25474.406,-40387.82
968990.227652381,-83235.92,-67275.19,-19935.426,23001.262,-49855.51,-18702.434,-25476.035,-40385.17
968990.2316523778,-83240.195,-67283.2,-19933.27,23017.578,-49850.832,-18702.719,-25479.453,-40389.895
968990.2356523743,-83243.66,-67291.55,-19902.629,23077.637,-49830.566,-18699.463,-25476.727,-40381.023
968990.239652371,-83253.016,-67296.266,-19872.479,23087.484,-49827.516,-18699.992,-25476.36,-40376.26
968990.2436523677,-83255.05,-67296.43,-19865.723,23052.531,-49840.742,-18703.166,-25478.76,-40374.96
968990.2476523643,-83251.38,-67296.1,-19859.457,23021.934,-49844.688,-18703.857,-25481.121,-40373.82
968990.251652361,-83257.81,-67302.82,-19854.736,23039.268,-49831.504,-18702.557,-25480.43,-40375.652
968990.2556523576,-83266.03,-67308.35,-19853.23,23079.469,-49818.89,-18699.3,-25479.9,-40379.56
968990.2596523543,-83263.47,-67312.54,-19851.562,23063.03,-49825.562,-18698.04,-25480.836,-40381.188
968990.263652351,-83269.01,-67318.16,-19850.018,23036.621,-49840.09,-18697.957,-25479.209,-40381.676
968990.2676523476,-83275.39,-67321.21,-19849.365,23007.691,-49848.105,-18698.445,-25477.662,-40378.297
968990.2716523443,-83275.76,-67324.586,-19845.174,23040.121,-49838.582,-18696.9,-25472.412,-40367.555
968990.275652341,-83277.34,-67329.06,-19842.408,23078.98,-49825.117,-18693.97,-25468.223,-40362.918
968990.2796523375,-83277.55,-67328.125,-19840.576,23075.115,-49822.88,-18693.848,-25467.814,-40356.773
968990.2836523342,-83282.836,-67331.95,-19841.676,23046.428,-49835.086,-18696.371,-25472.332,-40369.344
968990.2876523309,-83282.76,-67332.03,-19841.676,23007.732,-49846.152,-18697.877,-25474.447,-40376.996
968990.2916523275,-83281.62,-67328.53,-19841.96,23029.746,-49837.08,-18696.33,-25471.844,-40373.902
968990.2956523242,-83285.32,-67333.3,-19841.309,23076.295,-49818.074,-18690.674,-25467.041,-40357.098
968990.2996523208,-83292.766,-67343.14,-19837.484,23078.166,-49817.793,-18688.111,-25466.105,-40346.76
968990.3036523175,-83302.695,-67350.71,-19840.414,23045.371,-49834.027,-18689.738,-25467.896,-40344.973
968990.3076523142,-83302.9,-67348.39,-19843.994,23013.145,-49834.84,-18692.22,-25468.588,-40344.24
968990.3116523108,-83302.414,-67349.53,-19842.977,23022.014,-49836.996,-18690.797,-25465.21,-40338.543
968990.3156523075,-83302.164,-67354.21,-19837.525,23070.03,-49821.617,-18684.326,-25461.59,-40334.637
968990.3196523042,-83307.336,-67355.96,-19837.117,23078.654,-49823.69,-18683.39,-25459.31,-40330.973
968990.3236523008,-83308.96,-67354.58,-19839.682,23038.574,-49835.652,-18687.459,-25463.664,-40339.56
968990.3276522974,-83309.2,-67354.29,-19841.146,23014.568,-49842.977,-18687.012,-25464.6,-40337.16
968990.3316522941,-83312.46,-67356.24,-19839.031,23039.592,-49830.28,-18685.547,-25464.926,-40332.48
968990.3356522907,-83317.22,-67364.38,-19836.182,23075.604,-49818.848,-18684.855,-25472.373,-40343.426
968990.3396522874,-83321.17,-67374.15,-19834.555,23064.697,-49830.61,-18687.5,-25480.186,-40356.242
968990.343652284,-83320.07,-67373.86,-19834.27,23030.64,-49852.01,-18691.447,-25485.596,-40365.316
968990.3476522807,-83323.33,-67371.91,-19838.502,23002.158,-49864.95,-18692.912,-25486.045,-40356.082
968990.3516522774,-83323.734,-67372.73,-19837.078,23031.82,-49845.543,-18689.25,-25477.824,-40321.94
968990.355652274,-83325.766,-67381.15,-19833.496,23083.13,-49825.074,-18684.855,-25471.924,-40316.53
968990.3596522707,-83330.81,-67382.53,-19833.537,23079.957,-49824.22,-18685.018,-25480.225,-40358.44
968990.3636522674,-83329.23,-67377.32,-19832.154,23052.166,-49840.535,-18685.506,-25482.3,-40379.68
968990.367652264,-83326.46,-67375.164,-19832.398,23023.398,-49852.867,-18683.146,-25474.041,-40356.445
968990.3716522607,-83323.734,-67373.086,-19833.74,23037.191,-49844.688,-18678.793,-25468.059,-40345.906
968990.3756522572,-83323.65,-67377.52,-19833.375,23068.97,-49840.293,-18676.637,-25470.785,-40347.656
968990.3796522539,-83331.34,-67382.77,-19833.416,23066.447,-49850.75,-18676.799,-25473.633,-40347.74
968990.3836522506,-83333.7,-67383.71,-19834.025,23048.748,-49859.62,-18677.45,-25475.303,-40351.89
968990.3876522472,-83329.67,-67378.625,-19833.455,23030.518,-49864.543,-18677.613,-25474.244,-40353.477
968990.3916522439,-83326.13,-67375.57,-19831.014,23057.09,-49843.75,-18674.764,-25468.75,-40340.496
968990.3956522406,-83328.9,-67380.086,-19828.857,23097.088,-49826.945,-18669.027,-25461.426,-40318.24
968990.3996522372,-83335.33,-67386.234,-19830.281,23087.158,-49833.254,-18666.057,-25455.404,-40300.58
968990.4036522339,-83334.234,-67380.86,-19833.66,23032.512,-49847.94,-18668.133,-25458.13,-40314.94
968990.4076522306,-83335.57,-67376.836,-19838.135,23004.273,-49856.324,-18668.865,-25462.932,-40347.332
968990.4116522272,-83334.516,-67379.88,-19839.52,23037.314,-49842.816,-18668.295,-25465.902,-40370.402
968990.4156522239,-83332.52,-67383.42,-19836.223,23087.607,-49831.91,-18664.186,-25461.914,-40358.805
968990.4196522204,-83334.64,-67386.31,-19835.693,23087.566,-49839.926,-18663.9,-25462.646,-40338.992
968990.4236522171,-83339.89,-67387.734,-19838.746,23047.283,-49849.734,-18667.36,-25472.209,-40364.42
968990.4276522138,-83343.06,-67389.08,-19839.967,23004.803,-49864.746,-18669.271,-25475.018,-40386.965
968990.4316522104,-83343.266,-67389.41,-19837.932,23038.656,-49857.06,-18663.656,-25463.664,-40362.836
968990.4356522071,-83343.18,-67388.23,-19835.49,23097.697,-49843.387,-18658.977,-25457.154,-40349.324
968990.4396522038,-83341.72,-67391.52,-19834.473,23104.98,-49844.81,-18657.756,-25454.469,-40351.562
968990.4436522004,-83335.57,-67389.41,-19832.643,23070.639,-49856.527,-18656.658,-25452.637,-40351.156
968990.4476521971,-83332.08,-67386.92,-19837.525,23030.559,-49863.242,-18655.193,-25446.777,-40339.64
968990.4516521938,-83337.61,-67387.21,-19841.756,23037.762,-49855.062,-18653.523,-25446.127,-40341.31
968990.4556521904,-83343.914,-67391.03,-19842.855,23068.156,-49843.67,-18651.57,-25448.08,-40341.594
968990.4596521871,-83348.02,-67395.8,-19844.035,23064.25,-49846.477,-18651.938,-25450.766,-40339.52
968990.4636521837,-83350.38,-67393.35,-19846.639,23045.86,-49849.324,-18658.488,-25454.469,-40339.6
968990.4676521803,-83345.586,-67387.734,-19848.309,23035.93,-49854.574,-18662.72,-25453.98,-40336.02
968990.471652177,-83342.25,-67386.72,-19848.836,23055.87,-49850.3,-18660.727,-25451.336,-40337.16
968990.4756521736,-83341.555,-67387.945,-19847.738,23096.396,-49840.21,-18654.256,-25450.4,-40346.316
968990.4796521703,-83344.484,-67387.78,-19849.691,23090.861,-49844.44,-18652.344,-25449.098,-40339.64
968990.483652167,-83347.05,-67390.305,-19850.586,23053.834,-49862.793,-18654.217,-25446.045,-40324.137
968990.4876521636,-83348.266,-67390.95,-19849.041,23031.006,-49866.863,-18656.291,-25441.977,-40313.395
968990.4916521603,-83352.91,-67391.234,-19850.098,23049.277,-49864.746,-18656.25,-25443.076,-40339.4
968990.495652157,-83353.68,-67393.805,-19849.0,23098.186,-49860.19,-18652.914,-25447.145,-40364.83
968990.4996521536,-83349.37,-67392.46,-19848.023,23109.254,-49861.453,-18651.531,-25448.691,-40362.55
968990.5036521503,-83344.93,-67388.96,-19850.545,23067.424,-49864.746,-18653.24,-25448.854,-40351.93
968990.5076521469,-83348.11,-67387.375,-19858.074,23049.154,-49863.77,-18653.932,-25443.686,-40340.332
968990.5116521436,-83344.445,-67386.11,-19858.766,23077.312,-49848.27,-18651.002,-25439.006,-40337.32
968990.5156521403,-83338.26,-67385.99,-19850.953,23110.23,-49836.875,-18646.729,-25438.273,-40344.81
968990.5196521368,-83339.68,-67388.555,-19849.895,23091.39,-49845.46,-18647.014,-25438.762,-40344.24
968990.5236521335,-83345.26,-67389.65,-19852.54,23042.969,-49857.42,-18649.09,-25437.338,-40332.4
968990.5276521302,-83344.08,-67386.4,-19854.574,23026.855,-49853.56,-18653.035,-25435.71,-40334.11
968990.5316521268,-83342.33,-67386.48,-19852.986,23042.521,-49850.79,-18651.896,-25434.531,-40345.34
968990.5356521235,-83346.97,-67390.22,-19849.244,23090.049,-49845.01,-18646.688,-25431.723,-40341.92
968990.5396521202,-83346.27,-67391.93,-19853.475,23096.436,-49851.562,-18645.63,-25431.885,-40343.06
968990.5436521168,-83341.555,-67391.93,-19859.701,23055.99,-49862.633,-18649.861,-25432.578,-40342.816
968990.5476521135,-83340.414,-67390.016,-19861.451,23019.775,-49867.15,-18649.617,-25431.193,-40343.223
968990.5516521101,-83343.67,-67387.25,-19864.502,23025.146,-49867.637,-18646.77,-25431.479,-40342.977
968990.5556521068,-83345.625,-67388.19,-19862.02,23082.805,-49854.695,-18642.578,-25430.34,-40338.38
968990.5596521035,-83343.63,-67387.53,-19857.625,23086.264,-49859.17,-18643.555,-25436.932,-40355.594
968990.5636521,-83342.125,-67384.93,-19855.795,23060.223,-49863.73,-18647.014,-25440.146,-40354.37
968990.5676520967,-83341.48,-67384.6,-19856.771,23042.441,-49867.516,-18647.502,-25438.111,-40347.78
968990.5716520934,-83340.3,-67383.51,-19856.283,23059.896,-49858.81,-18647.014,-25436.646,-40347.82
968990.57565209,-83337.28,-67386.15,-19852.54,23092.734,-49842.207,-18645.834,-25436.89,-40353.64
968990.5796520867,-83339.64,-67388.555,-19848.43,23082.236,-49846.844,-18646.281,-25434.814,-40350.016
968990.5836520834,-83343.586,-67388.47,-19849.285,23052.857,-49857.137,-18649.334,-25434.326,-40349.61
968990.58765208,-83346.195,-67388.47,-19856.121,23029.705,-49864.91,-18652.955,-25438.07,-40370.242
968990.5916520767,-83345.79,-67387.58,-19859.375,23048.828,-49858.035,-18653.117,-25438.6,-40392.09
968990.5956520733,-83347.74,-67390.71,-19856.73,23097.168,-49845.543,-18647.787,-25436.768,-40394.168
968990.59965207,-83344.41,-67389.57,-19856.201,23093.303,-49854.656,-18645.71,-25437.094,-40392.945
968990.6036520667,-83345.586,-67388.875,-19858.44,23056.682,-49864.746,-18647.137,-25435.67,-40390.34
968990.6076520632,-83346.56,-67389.53,-19860.066,23026.775,-49878.094,-18646.2,-25431.52,-40389.65
968990.61165206,-83343.14,-67390.51,-19859.457,23041.748,-49877.156,-18642.863,-25428.752,-40395.957
968990.6156520566,-83347.58,-67393.59,-19859.213,23094.443,-49859.05,-18638.387,-25427.94,-40400.35
968990.6196520532,-83349.57,-67395.51,-19860.88,23093.303,-49858.36,-18640.951,-25432.049,-40404.42
968990.6236520499,-83343.266,-67393.88,-19860.922,23068.564,-49868.29,-18644.246,-25433.92,-40403.566
968990.6276520466,-83341.15,-67391.36,-19860.678,23047.73,-49868.043,-18645.508,-25434.002,-40401.57
968990.6316520432,-83338.914,-67387.375,-19859.701,23056.967,-49862.793,-18642.945,-25430.787,-40397.098
968990.6356520399,-83337.28,-67385.42,-19855.998,23091.473,-49849.652,-18640.219,-25430.137,-40395.71
968990.6396520365,-83338.09,-67385.42,-19854.371,23071.533,-49856.324,-18639.404,-25431.805,-40403.445
968990.6436520332,-83334.516,-67379.44,-19854.004,23044.963,-49863.973,-18639.812,-25429.893,-40397.992
968990.6476520299,-83326.91,-67372.84,-19853.963,23033.855,-49865.438,-18640.91,-25427.043,-40405.965
968990.6516520265,-83321.78,-67372.07,-19853.15,23057.129,-49855.47,-18638.062,-25424.357,-40398.113
968990.6556520232,-83324.914,-67377.445,-19854.94,23089.316,-49847.7,-18632.568,-25422.04,-40382.285
968990.6596520199,-83330.94,-67382.086,-19856.365,23096.518,-49848.473,-18634.889,-25429.037,-40405.6
968990.6636520164,-83340.25,-67394.37,-19858.928,23068.076,-49864.625,-18636.8,-25433.92,-40423.258
968990.6676520131,-83347.375,-67397.3,-19861.451,23038.291,-49876.18,-18637.451,-25432.129,-40421.51
968990.6716520097,-83331.14,-67371.13,-19860.922,23058.555,-49860.273,-18637.574,-25425.254,-40399.375
968990.6756520064,-83325.52,-67368.66,-19856.283,23084.637,-49850.06,-18635.174,-25424.48,-40401.9
968990.6796520031,-83332.16,-67377.89,-19854.248,23081.137,-49852.99,-18633.3,-25426.514,-40407.145
968990.6836519997,-83324.47,-67371.99,-19851.686,23061.117,-49858.48,-18634.766,-25427.287,-40405.926
968990.6876519964,-83319.26,-67365.44,-19852.254,23035.4,-49866.21,-18635.133,-25428.02,-40399.457
968990.6916519931,-83309.57,-67354.62,-19852.377,23064.617,-49848.51,-18635.01,-25430.176,-40422.363
968990.6956519897,-83310.836,-67355.76,-19849.488,23102.012,-49832.316,-18628.826,-25422.934,-40405.64
968990.6996519864,-83314.25,-67356.33,-19850.342,23102.256,-49837.363,-18631.389,-25423.219,-40401.285
968990.703651983,-83311.484,-67346.48,-19852.662,23063.111,-49848.227,-18636.922,-25429.77,-40422.28
968990.7076519796,-83313.52,-67346.516,-19856.16,23028.076,-49855.797,-18637.166,-25424.154,-40417.562
968990.7116519763,-83315.266,-67351.52,-19857.625,23050.09,-49839.805,-18634.807,-25423.38,-40422.28
968990.7156519729,-83315.266,-67350.305,-19854.695,23097.861,-49828.535,-18631.836,-25423.38,-40422.08
968990.7196519696,-83312.26,-67347.91,-19854.412,23105.062,-49839.4,-18631.307,-25422.975,-40421.1
968990.7236519663,-83308.43,-67344.484,-19857.057,23076.377,-49852.215,-18633.3,-25424.277,-40428.508
968990.7276519629,-83307.17,-67340.54,-19857.016,23045.533,-49852.336,-18633.3,-25421.916,-40426.758
968990.7316519596,-83309.57,-67339.03,-19855.713,23043.621,-49844.402,-18633.26,-25418.174,-40417.684
968990.7356519563,-83315.48,-67347.086,-19856.527,23077.8,-49834.92,-18633.26,-25418.865,-40412.76
968990.7396519529,-83318.766,-67347.695,-19857.016,23079.469,-49835.574,-18635.418,-25424.887,-40423.137
968990.7436519496,-83318.56,-67343.67,-19856.404,23062.379,-49848.51,-18640.504,-25428.346,-40432.617
968990.7476519463,-83318.65,-67342.37,-19856.61,23041.3,-49855.227,-18644.084,-25428.63,-40430.95
968990.7516519428,-83317.47,-67341.88,-19858.277,23064.535,-49837.812,-18643.066,-25425.457,-40427.695
968990.7556519395,-83316.33,-67343.79,-19855.754,23106.162,-49819.906,-18639.201,-25423.504,-40428.793
968990.7596519361,-83319.09,-67348.15,-19856.201,23097.576,-49827.516,-18636.8,-25424.154,-40435.06
968990.7636519328,-83318.32,-67347.21,-19855.145,23062.379,-49838.22,-18637.777,-25426.678,-40440.31
968990.7676519295,-83316.49,-67346.03,-19855.916,23043.906,-49844.605,-18641.805,-25428.834,-40440.066
968990.7716519261,-83312.75,-67343.06,-19858.357,23062.053,-49839.97,-18640.016,-25425.498,-40434.613
968990.7756519228,-83310.1,-67337.73,-19856.201,23100.465,-49825.766,-18634.969,-25421.387,-40432.902
968990.7796519195,-83313.234,-67341.27,-19855.713,23095.826,-49836.59,-18634.969,-25421.266,-40437.46
968990.7836519161,-83313.97,-67337.89,-19857.625,23040.936,-49847.293,-18635.945,-25420.777,-40431.684
968990.7876519128,-83308.96,-67332.234,-19857.992,23020.02,-49850.098,-18635.213,-25419.395,-40421.793
968990.7916519095,-83305.914,-67330.85,-19854.615,23050.62,-49832.766,-18632.691,-25415.406,-40417.81
968990.795651906,-83302.86,-67329.8,-19849.895,23096.64,-49814.78,-18630.574,-25415.812,-40436.89
968990.7996519028,-83309.086,-67333.46,-19848.268,23098.186,-49825.117,-18630.9,-25414.959,-40435.75
968990.8036518993,-83307.13,-67332.84,-19849.977,23068.93,-49842.0,-18633.709,-25414.43,-40437.703
968990.807651896,-83298.83,-67324.305,-19849.0,23060.467,-49844.973,-18634.36,-25413.86,-40437.703
968990.8116518927,-83297.28,-67320.84,-19848.023,23080.69,-49826.457,-18630.982,-25407.676,-40426.676
968990.8156518893,-83298.83,-67325.28,-19849.162,23112.428,-49812.297,-18625.326,-25404.541,-40434.41
968990.819651886,-83294.92,-67323.98,-19852.133,23103.354,-49817.18,-18623.535,-25401.246,-40421.43
968990.8236518827,-83294.92,-67318.766,-19855.633,23059.408,-49825.24,-18624.959,-25401.49,-40419.477
968990.8276518793,-83293.664,-67313.195,-19856.73,23036.215,-49831.34,-18626.14,-25405.682,-40437.99
968990.831651876,-83290.94,-67310.266,-19857.219,23057.7,-49823.406,-18625.244,-25405.234,-40441.53
968990.8356518727,-83284.34,-67308.02,-19854.615,23104.045,-49812.99,-18622.273,-25407.715,-40448.934
968990.8396518693,-83285.97,-67310.34,-19854.412,23111.451,-49807.293,-18623.7,-25411.744,-40449.707
968990.843651866,-83290.98,-67313.11,-19860.88,23069.703,-49819.46,-18626.385,-25417.521,-40458.254
968990.8476518625,-83290.85,-67313.03,-19863.24,23042.93,-49827.312,-18626.385,-25416.627,-40458.742
968990.8516518592,-83293.016,-67314.29,-19864.055,23053.305,-49816.57,-18623.455,-25408.732,-40443.973
968990.8556518559,-83295.25,-67313.88,-19862.02,23093.223,-49805.83,-18622.6,-25409.873,-40449.465
968990.8596518525,-83292.195,-67312.336,-19861.043,23100.303,-49806.195,-18623.291,-25412.07,-40455.12
968990.8636518492,-83291.1,-67310.43,-19860.31,23071.412,-49816.977,-18627.076,-25416.465,-40467.816
968990.8676518459,-83290.85,-67310.266,-19858.643,23041.668,-49827.273,-18629.639,-25418.986,-40474.812
968990.8716518425,-83284.63,-67306.89,-19859.578,23064.738,-49814.617,-18629.598,-25419.719,-40472.7
968990.8756518392,-83282.02,-67308.39,-19857.79,23106.162,-49806.562,-18626.059,-25415.568,-40464.316
968990.8796518359,-83287.805,-67310.95,-19860.19,23103.516,-49812.785,-18624.064,-25413.291,-40456.137
968990.8836518325,-83293.945,-67314.01,-19867.799,23069.988,-49827.72,-18628.215,-25417.562,-40458.008
968990.8876518292,-83297.04,-67317.55,-19873.291,23041.139,-49829.1,-18630.371,-25419.557,-40458.293
968990.8916518257,-83303.14,-67324.38,-19877.076,23060.71,-49819.05,-18628.377,-25412.762,-40438.19
968990.8956518224,-83304.89,-67329.67,-19875.732,23097.738,-49811.65,-18625.855,-25414.512,-40453.574
968990.8996518191,-83301.35,-67322.555,-19875.447,23090.17,-49817.426,-18625.53,-25415.691,-40467.49
968990.9036518157,-83300.74,-67320.31,-19876.22,23044.395,-49833.008,-18629.15,-25418.05,-40477.99
968990.9076518124,-83296.35,-67314.336,-19875.285,23029.95,-49837.73,-18632.812,-25423.545,-40499.637
968990.9116518091,-83295.53,-67309.25,-19873.7,23046.998,-49822.348,-18632.691,-25423.34,-40501.14
968990.9156518057,-83297.37,-67311.41,-19870.973,23088.42,-49802.734,-18630.86,-25421.55,-40492.8
968990.9196518024,-83299.6,-67315.35,-19869.752,23093.1,-49802.734,-18631.307,-25424.277,-40493.9
968990.9236517991,-83301.03,-67314.91,-19872.926,23074.912,-49817.14,-18635.295,-25431.56,-40504.52
968990.9276517957,-83300.26,-67312.42,-19877.809,23058.31,-49822.227,-18636.434,-25433.31,-40496.38
968990.9316517924,-83298.016,-67307.91,-19877.809,23063.477,-49810.71,-18633.342,-25428.467,-40486.695
968990.935651789,-83298.875,-67309.25,-19879.518,23079.916,-49802.41,-18631.756,-25429.729,-40491.66
968990.9396517857,-83301.516,-67308.8,-19880.006,23078.818,-49806.355,-18632.283,-25434.611,-40500.57
968990.9436517823,-83302.695,-67307.21,-19882.203,23054.729,-49815.39,-18634.197,-25437.705,-40518.027
968990.9476517789,-83299.73,-67304.89,-19885.254,23028.037,-49818.156,-18632.895,-25432.455,-40507.164
968990.9516517756,-83303.305,-67302.57,-19885.54,23063.396,-49804.445,-18630.086,-25429.12,-40503.5
968990.9556517723,-83302.984,-67305.79,-19878.459,23101.28,-49796.715,-18628.133,-25430.543,-40501.465
968990.9596517689,-83306.97,-67310.875,-19875.041,23100.262,-49800.254,-18625.326,-25431.152,-40498.293
968990.9636517656,-83307.984,-67312.87,-19877.4,23064.697,-49808.72,-18628.744,-25437.988,-40516.6
968990.9676517622,-83309.086,-67314.7,-19879.762,23024.17,-49818.605,-18630.535,-25437.744,-40517.05
968990.9716517589,-83305.75,-67311.52,-19876.994,23038.25,-49820.152,-18627.4,-25433.514,-40505.656
968990.9756517556,-83302.9,-67310.8,-19873.129,23083.66,-49805.258,-18623.576,-25426.963,-40490.316
968990.9796517522,-83301.07,-67307.58,-19870.525,23082.846,-49807.902,-18625.652,-25428.387,-40496.094
968990.9836517489,-83295.375,-67299.56,-19869.223,23057.822,-49815.023,-18626.953,-25432.252,-40510.05
968990.9876517456,-83300.58,-67299.234,-19871.867,23041.016,-49813.355,-18626.018,-25430.664,-40506.43
968990.9916517421,-83304.69,-67301.8,-19873.861,23064.902,-49797.773,-18622.193,-25424.805,-40487.348
968990.9956517388,-83297.24,-67299.28,-19871.826,23099.203,-49781.58,-18622.64,-25431.275,-40511.92
968990.9996517355,-83296.15,-67298.34,-19870.361,23097.982,-49788.82,-18625.326,-25439.576,-40532.51
968991.0036517321,-83298.1,-67297.24,-19871.379,23067.994,-49802.004,-18628.338,-25438.885,-40512.125
968991.0076517288,-83298.586,-67300.87,-19870.525,23041.586,-49817.465,-18629.924,-25435.914,-40491.824
968991.0116517254,-83300.945,-67305.26,-19866.375,23059.246,-49810.26,-18628.988,-25435.832,-40509.24
968991.0156517221,-83298.18,-67305.18,-19863.363,23097.088,-49795.574,-18627.28,-25437.094,-40523.355
968991.0196517188,-83298.42,-67307.78,-19859.66,23093.75,-49801.72,-18628.174,-25434.287,-40500.45
968991.0236517154,-83298.38,-67306.6,-19857.748,23062.338,-49808.39,-18631.348,-25436.768,-40507.855
968991.0276517121,-83297.484,-67305.586,-19857.87,23044.557,-49813.68,-18631.836,-25435.059,-40504.395
968991.0316517088,-83299.766,-67305.34,-19859.09,23058.229,-49813.926,-18631.47,-25433.229,-40503.62
968991.0356517053,-83300.13,-67307.91,-19856.486,23095.42,-49799.766,-18629.273,-25435.14,-40522.258
968991.039651702,-83299.44,-67309.94,-19854.127,23093.506,-49799.48,-18630.574,-25438.885,-40526.773
968991.0436516987,-83304.32,-67316.24,-19858.725,23061.89,-49818.973,-18631.227,-25437.664,-40507.324
968991.0476516953,-83305.055,-67312.99,-19863.037,23042.033,-49817.668,-18631.023,-25434.531,-40498.293
968991.051651692,-83304.41,-67311.36,-19862.916,23038.656,-49809.855,-18630.818,-25436.32,-40519.938
968991.0556516886,-83304.85,-67314.49,-19856.934,23075.928,-49802.207,-18629.11,-25436.85,-40518.15
968991.0596516853,-83305.055,-67316.164,-19850.262,23082.154,-49803.062,-18629.842,-25446.127,-40542.605
968991.063651682,-83306.766,-67315.31,-19848.836,23057.578,-49815.758,-18635.824,-25454.998,-40547.977
968991.0676516786,-83304.2,-67312.83,-19850.262,23049.154,-49824.06,-18637.533,-25453.98,-40531.7
968991.0716516753,-83300.5,-67313.97,-19850.912,23069.906,-49814.984,-18634.848,-25453.166,-40522.543
968991.075651672,-83301.07,-67316.445,-19848.389,23095.338,-49803.754,-18632.283,-25454.225,-40515.3
968991.0796516686,-83304.41,-67316.04,-19847.453,23085.898,-49806.355,-18632.527,-25458.416,-40524.13
968991.0836516652,-83307.375,-67318.69,-19851.156,23040.121,-49822.51,-18634.645,-25457.113,-40501.547
968991.087651662,-83311.04,-67319.46,-19854.615,23021.16,-49828.656,-18634.889,-25453.818,-40492.594
968991.0916516585,-83312.46,-67318.85,-19852.662,23043.213,-49820.027,-18635.742,-25457.887,-40532.676
968991.0956516552,-83312.09,-67319.87,-19850.83,23075.277,-49803.305,-18634.156,-25459.514,-40542.156
968991.0996516518,-83309.41,-67318.04,-19849.285,23087.77,-49802.41,-18635.58,-25465.088,-40541.465
968991.1036516485,-83316.61,-67324.75,-19851.197,23056.805,-49824.26,-18636.027,-25460.49,-40496.99
968991.1076516452,-83321.25,-67326.7,-19854.29,23028.484,-49837.484,-18637.94,-25462.12,-40525.39
968991.1116516418,-83323.0,-67328.58,-19855.266,23023.805,-49837.402,-18637.818,-25464.967,-40540.242
968991.1156516385,-83322.266,-67332.89,-19853.557,23056.072,-49828.37,-18636.312,-25465.455,-40517.62
968991.1196516352,-83328.17,-67328.984,-19855.55,23077.842,-49822.55,-18641.113,-25476.727,-40551.72
968991.1236516318,-83333.82,-67331.18,-19859.172,23046.795,-49838.016,-18645.467,-25483.848,-40568.93
968991.1276516285,-83338.664,-67333.664,-19861.695,23028.809,-49845.664,-18644.287,-25481.162,-40562.297
968991.1316516252,-83357.79,-67345.79,-19867.066,23047.486,-49839.234,-18640.584,-25476.768,-40556.113
968991.1356516217,-83369.95,-67358.56,-19866.984,23067.994,-49835.613,-18636.922,-25473.309,-40535.523
968991.1396516184,-83325.28,-67325.85,-19857.545,23069.824,-49834.15,-18642.172,-25476.645,-40513.957
968991.143651615,-83300.664,-67296.1,-19853.8,23049.521,-49836.348,-18650.066,-25489.87,-40554.16
968991.1476516117,-83313.16,-67297.04,-19861.41,23022.95,-49858.074,-18652.02,-25493.002,-40564.25
968991.1516516084,-83306.195,-67287.68,-19865.275,23038.168,-49858.645,-18649.861,-25491.008,-40560.14
968991.155651605,-83282.19,-67265.99,-19860.027,23071.533,-49843.793,-18649.74,-25499.635,-40592.69
968991.1596516017,-83273.73,-67249.02,-19851.441,23080.607,-49835.777,-18651.326,-25505.535,-40599.203
968991.1636515984,-83278.65,-67231.53,-19848.47,23056.357,-49839.56,-18654.053,-25502.686,-40575.523
968991.167651595,-83259.24,-67220.09,-19848.674,23027.305,-49846.438,-18655.803,-25498.943,-40545.535
968991.1716515917,-83221.4,-67202.72,-19843.914,23047.486,-49836.184,-18659.1,-25502.686,-40547.324
968991.1756515884,-83216.31,-67197.35,-19841.268,23079.875,-49828.98,-18660.93,-25512.736,-40604.82
968991.179651585,-83229.9,-67201.625,-19842.732,23083.62,-49840.617,-18663.453,-25516.887,-40622.477
968991.1836515816,-83231.734,-67203.375,-19844.035,23059.814,-49860.516,-18664.021,-25513.104,-40589.234
968991.1876515782,-83234.01,-67204.39,-19850.506,23045.004,-49865.156,-18663.412,-25509.197,-40564.617
968991.1916515749,-83235.72,-67201.375,-19852.58,23054.932,-49848.39,-18661.785,-25511.312,-40592.41
968991.1956515716,-83237.59,-67202.19,-19852.01,23094.523,-49832.316,-18658.203,-25512.127,-40623.94
968991.1996515682,-83250.29,-67211.14,-19855.389,23101.318,-49841.39,-18654.42,-25506.309,-40601.89
968991.2036515649,-83254.03,-67217.45,-19860.76,23060.996,-49859.09,-18655.559,-25507.732,-40599.938
968991.2076515616,-83255.86,-67219.28,-19861.084,23023.764,-49867.96,-18656.658,-25502.768,-40580.203
968991.2116515582,-83261.48,-67224.98,-19862.916,23025.555,-49872.316,-18655.682,-25495.322,-40547.85
968991.2156515549,-83262.01,-67223.76,-19864.137,23055.258,-49852.176,-18653.28,-25494.346,-40538.82
968991.2196515516,-83264.164,-67225.67,-19863.16,23072.062,-49849.61,-18654.46,-25505.494,-40600.344
968991.2236515481,-83268.19,-67228.44,-19863.852,23054.484,-49867.92,-18658.123,-25509.889,-40625.69
968991.2276515448,-83269.37,-67227.625,-19867.066,23040.691,-49869.957,-18660.768,-25511.436,-40621.42
968991.2316515414,-83273.93,-67233.56,-19872.518,23042.441,-49865.97,-18660.28,-25506.348,-40595.664
968991.2356515381,-83277.75,-67237.914,-19873.738,23069.5,-49860.516,-18657.715,-25504.436,-40580.895
968991.2396515348,-83283.61,-67246.625,-19874.432,23077.393,-49868.574,-18659.344,-25508.262,-40588.258
968991.2436515314,-83291.71,-67253.87,-19878.053,23048.057,-49875.938,-18660.32,-25512.248,-40608.4
968991.2476515281,-83300.58,-67257.53,-19885.01,23013.145,-49879.355,-18664.062,-25514.975,-40591.797
968991.2516515248,-83307.3,-67259.65,-19888.387,23024.863,-49874.84,-18663.29,-25507.895,-40553.14
968991.2556515214,-83304.484,-67257.53,-19887.736,23044.15,-49871.664,-18661.053,-25510.254,-40579.59
968991.2596515181,-83299.52,-67254.6,-19885.336,23051.719,-49872.316,-18663.533,-25518.963,-40638.062
968991.2636515147,-83301.84,-67260.58,-19889.568,23037.965,-49876.668,-18665.73,-25510.783,-40603.312
968991.2676515114,-83307.25,-67263.266,-19896.443,23010.377,-49880.13,-18666.871,-25504.844,-40591.676
968991.271651508,-83301.68,-67259.28,-19898.846,23022.543,-49876.426,-18666.748,-25510.01,-40612.957
968991.2756515046,-83302.414,-67263.266,-19897.258,23055.95,-49870.73,-18664.227,-25507.812,-40595.83
968991.2796515013,-83306.03,-67267.17,-19901.082,23060.264,-49879.07,-18663.574,-25505.941,-40577.15
968991.283651498,-83307.45,-67270.19,-19902.791,23026.652,-49894.656,-18666.463,-25511.191,-40594.156
968991.2876514946,-83309.125,-67272.79,-19904.867,22991.21,-49902.914,-18667.033,-25511.23,-40585.98
968991.2916514913,-83310.8,-67273.12,-19911.377,22992.92,-49893.434,-18666.18,-25508.75,-40567.465
968991.295651488,-83310.836,-67276.77,-19914.55,23029.746,-49883.3,-18666.424,-25515.504,-40589.844
968991.2996514846,-83315.92,-67284.63,-19917.848,23039.918,-49882.324,-18670.29,-25526.002,-40617.637
968991.3036514813,-83316.45,-67282.19,-19919.8,23028.77,-49885.254,-18670.695,-25528.2,-40604.086
968991.3076514779,-83320.31,-67285.24,-19925.416,23002.809,-49896.08,-18671.754,-25531.902,-40618.98
968991.3116514746,-83322.555,-67289.63,-19930.299,23007.406,-49897.42,-18667.807,-25527.832,-40609.62
968991.3156514713,-83328.414,-67297.28,-19930.787,23032.797,-49893.477,-18663.818,-25517.742,-40532.715
968991.3196514678,-83335.125,-67303.02,-19932.74,23034.385,-49900.72,-18668.377,-25527.223,-40572.062
968991.3236514645,-83331.18,-67301.03,-19932.82,23018.516,-49902.914,-18676.229,-25542.93,-40646.65
968991.3276514612,-83328.62,-67294.4,-19932.7,23004.314,-49907.715,-18678.467,-25542.521,-40660.645
968991.3316514578,-83331.18,-67290.61,-19933.229,23009.562,-49903.2,-18678.102,-25542.115,-40637.168
968991.3356514545,-83328.29,-67294.555,-19934.652,23039.512,-49898.97,-18676.84,-25537.191,-40616.414
968991.3396514512,-83333.78,-67301.64,-19937.582,23040.162,-49900.188,-18675.496,-25533.123,-40614.625
968991.3436514478,-83337.85,-67306.89,-19943.807,23015.26,-49915.61,-18675.334,-25532.92,-40632.082
968991.3476514445,-83338.34,-67302.94,-19952.8,22982.098,-49920.168,-18676.514,-25528.688,-40590.902
968991.3516514411,-83345.75,-67305.46,-19958.781,22987.266,-49915.242,-18674.805,-25521.69,-40560.59
968991.3556514378,-83345.26,-67310.55,-19957.52,23014.04,-49905.6,-18673.787,-25527.467,-40612.387
968991.3596514345,-83351.61,-67312.79,-19958.62,23016.928,-49907.758,-18674.684,-25529.623,-40624.797
968991.363651431,-83358.36,-67316.57,-19958.293,22999.96,-49925.58,-18677.938,-25528.89,-40614.098
968991.3676514277,-83368.53,-67311.16,-19962.646,22977.174,-49929.04,-18680.379,-25535.156,-40644.695
968991.3716514244,-83357.71,-67306.48,-19973.918,22972.129,-49927.734,-18680.867,-25534.75,-40639.324
968991.375651421,-83364.38,-67304.69,-19977.133,23005.168,-49927.695,-18678.59,-25533.691,-40607.668
968991.3796514177,-83361.33,-67305.586,-19978.883,23022.178,-49934.246,-18679.402,-25539.756,-40598.188
968991.3836514144,-83369.63,-67309.61,-19983.277,22989.951,-49936.28,-18683.594,-25546.104,-40626.06
968991.387651411,-83379.48,-67328.78,-19988.037,22967.45,-49947.715,-18684.326,-25546.266,-40633.06
968991.3916514077,-83362.51,-67318.85,-19990.154,22981.08,-49935.26,-18683.96,-25551.514,-40639.0
968991.3956514043,-83365.52,-67308.23,-19991.21,23007.773,-49923.137,-18681.396,-25544.719,-40601.523
968991.399651401,-83358.08,-67303.266,-19990.926,23018.066,-49919.68,-18682.373,-25543.783,-40595.99
968991.4036513977,-83363.04,-67301.8,-20000.488,22989.422,-49930.707,-18687.826,-25552.125,-40633.016
968991.4076513943,-83368.695,-67307.21,-20006.307,22929.484,-49940.84,-18689.535,-25552.125,-40639.527
968991.411651391,-83372.64,-67312.83,-20006.918,22908.082,-49933.555,-18689.738,-25556.152,-40675.008
968991.4156513877,-83384.52,-67319.79,-20016.521,22925.293,-49934.164,-18688.518,-25550.781,-40633.832
968991.4196513842,-83385.54,-67302.62,-20019.125,22922.607,-49922.285,-18692.098,-25553.467,-40644.98
968991.4236513809,-83386.555,-67296.836,-20017.62,22878.703,-49919.883,-18696.004,-25558.635,-40677.574
