timestamp,Fp1,Fp2,F3,Fz,F4,Cz,Pz,Oz
969026.9436216778,-82947.76,-67269.164,-18920.736,22645.834,-49381.105,-15732.666,-23528.281,-40877.688
969026.9476216745,-82944.38,-67267.13,-18920.898,22631.715,-49386.027,-15731.689,-23528.729,-40876.793
969026.9516216711,-82943.61,-67265.914,-18919.312,22660.564,-49381.758,-15727.824,-23522.584,-40868.082
969026.9556216678,-82946.54,-67268.72,-18915.771,22670.695,-49372.844,-15726.278,-23525.39,-40891.195
969026.9596216645,-82947.15,-67270.02,-18923.584,22648.56,-49376.387,-15725.668,-23525.758,-40889.73
969026.9636216611,-82948.164,-67268.03,-18923.666,22630.127,-49377.81,-15728.3125,-23527.955,-40890.055
969026.9676216578,-82945.68,-67265.38,-18923.463,22606.934,-49373.945,-15731.283,-23531.373,-40893.312
969026.9716216543,-82940.19,-67259.195,-18920.533,22642.375,-49364.46,-15728.923,-23526.572,-40883.914
969026.975621651,-82939.21,-67258.67,-18916.992,22679.16,-49358.277,-15724.325,-23520.59,-40874.27
969026.9796216477,-82942.266,-67260.7,-18916.098,22663.818,-49363.16,-15722.372,-23522.38,-40874.51
969026.9836216443,-82942.1,-67263.35,-18918.05,22634.521,-49376.875,-15725.708,-23526.572,-40884.36
969026.987621641,-82938.6,-67262.125,-18919.8,22604.9,-49385.418,-15728.3125,-23528.484,-40887.86
969026.9916216377,-82935.71,-67260.3,-18917.807,22625.408,-49372.438,-15726.807,-23525.635,-40884.277
969026.9956216343,-82936.445,-67261.44,-18916.707,22665.568,-49360.395,-15724.609,-23521.607,-40878.38
969026.999621631,-82938.64,-67262.82,-18916.219,22668.621,-49368.98,-15722.738,-23519.248,-40878.703
969027.0036216277,-82955.85,-67270.59,-18923.91,22626.506,-49376.465,-15723.511,-23518.027,-40881.31
969027.0076216243,-82969.04,-67280.73,-18930.543,22614.178,-49378.418,-15723.063,-23513.307,-40875.125
969027.011621621,-82944.016,-67274.7,-18918.172,22656.21,-49373.13,-15721.313,-23510.783,-40868.816
969027.0156216176,-82928.914,-67259.445,-18909.22,22677.166,-49369.875,-15718.262,-23508.79,-40869.344
969027.0196216143,-82931.84,-67255.82,-18912.232,22649.293,-49372.438,-15715.088,-23503.256,-40860.84
969027.023621611,-82928.96,-67253.26,-18913.453,22608.684,-49386.516,-15716.513,-23504.518,-40861.86
969027.0276216075,-82919.03,-67245.81,-18911.174,22595.256,-49395.836,-15721.558,-23510.174,-40875.082
969027.0316216042,-82911.87,-67243.164,-18907.918,22637.9,-49386.23,-15722.534,-23513.633,-40878.543
969027.0356216009,-82906.86,-67239.71,-18904.135,22676.719,-49375.41,-15721.436,-23516.807,-40880.086
969027.0396215975,-82905.27,-67234.7,-18903.158,22672.934,-49385.38,-15721.965,-23518.596,-40876.14
969027.0436215942,-82910.81,-67240.03,-18911.336,22631.797,-49404.34,-15723.1045,-23520.143,-40878.094
969027.0476215909,-82915.65,-67243.125,-18915.08,22604.29,-49416.016,-15723.959,-23522.502,-40896.484
969027.0516215875,-82912.03,-67238.734,-18910.523,22640.342,-49401.41,-15720.053,-23519.248,-40895.508
969027.0556215842,-82913.086,-67244.836,-18909.547,22683.758,-49387.207,-15715.088,-23516.154,-40884.44
969027.0596215808,-82914.266,-67249.43,-18906.373,22689.738,-49393.19,-15715.17,-23516.113,-40879.19
969027.0636215775,-82912.07,-67245.41,-18908.041,22642.498,-49407.715,-15719.809,-23521.037,-40896.242
969027.0676215742,-82915.29,-67247.766,-18911.092,22619.346,-49414.633,-15722.128,-23520.387,-40894.574
969027.0716215707,-82916.22,-67248.414,-18909.832,22643.31,-49410.484,-15720.175,-23516.684,-40885.215
969027.0756215674,-82917.93,-67251.14,-18905.844,22672.445,-49406.09,-15717.611,-23512.371,-40881.633
969027.0796215641,-82919.27,-67251.1,-18902.344,22682.008,-49406.21,-15715.617,-23509.604,-40882.203
969027.0836215607,-82918.7,-67247.805,-18904.988,22642.13,-49417.766,-15715.292,-23507.121,-40880.74
969027.0876215574,-82919.6,-67247.52,-18911.053,22615.602,-49419.637,-15713.908,-23506.104,-40881.96
969027.0916215541,-82917.52,-67247.44,-18910.4,22646.566,-49408.53,-15711.182,-23503.623,-40881.023
969027.0956215507,-82915.61,-67247.48,-18909.953,22679.648,-49396.08,-15709.677,-23503.053,-40879.07
969027.0996215474,-82919.07,-67250.695,-18913.697,22675.781,-49401.207,-15710.775,-23501.994,-40878.01
969027.103621544,-82922.37,-67250.81,-18915.04,22639.324,-49414.918,-15711.833,-23501.465,-40874.105
969027.1076215407,-82922.04,-67247.805,-18917.318,22618.246,-49411.785,-15714.804,-23503.418,-40878.055
969027.1116215374,-82922.0,-67248.414,-18913.086,22645.264,-49401.57,-15713.054,-23501.547,-40881.023
969027.115621534,-82921.47,-67253.055,-18908.488,22688.682,-49396.406,-15710.165,-23498.17,-40874.15
969027.1196215306,-82918.58,-67251.63,-18911.662,22679.363,-49400.105,-15708.984,-23497.479,-40868.246
969027.1236215273,-82918.26,-67246.38,-18910.768,22651.328,-49407.43,-15711.182,-23503.256,-40878.746
969027.1276215239,-82917.85,-67243.66,-18909.953,22631.756,-49408.57,-15711.02,-23502.238,-40878.867
969027.1316215206,-82913.336,-67242.68,-18909.383,22651.693,-49402.266,-15706.95,-23495.566,-40871.258
969027.1356215172,-82915.0,-67244.02,-18908.041,22669.598,-49396.527,-15706.543,-23493.896,-40872.64
969027.1396215139,-82921.305,-67249.39,-18910.441,22653.361,-49403.73,-15707.642,-23495.158,-40870.81
969027.1436215106,-82925.58,-67249.516,-18912.883,22630.25,-49411.785,-15709.595,-23495.89,-40868.777
969027.1476215072,-82922.85,-67243.94,-18918.621,22614.828,-49409.26,-15710.734,-23493.002,-40864.79
969027.1516215039,-82921.76,-67242.92,-18918.133,22653.117,-49399.863,-15709.677,-23494.346,-40869.63
969027.1556215006,-82924.64,-67245.69,-18915.242,22679.12,-49399.09,-15708.496,-23496.787,-40874.023
969027.1596214972,-82926.39,-67245.65,-18913.006,22667.848,-49399.293,-15708.334,-23497.031,-40872.684
969027.1636214938,-82924.12,-67244.47,-18912.842,22628.582,-49408.53,-15708.537,-23494.914,-40870.65
969027.1676214905,-82923.95,-67246.586,-18917.848,22606.527,-49424.52,-15710.043,-23497.682,-40876.75
969027.1716214871,-82921.19,-67246.75,-18916.463,22648.113,-49416.14,-15707.968,-23499.023,-40880.777
969027.1756214838,-82924.6,-67251.016,-18916.342,22674.766,-49405.76,-15705.852,-23497.844,-40877.77
969027.1796214804,-82922.98,-67248.7,-18917.562,22673.79,-49400.88,-15705.566,-23497.967,-40875.53
969027.1836214771,-82923.14,-67244.51,-18917.807,22648.398,-49412.19,-15706.828,-23498.17,-40874.023
969027.1876214738,-82921.305,-67244.39,-18918.58,22616.537,-49418.99,-15707.194,-23496.95,-40862.1
969027.1916214704,-82915.49,-67243.66,-18914.674,22645.793,-49409.59,-15704.184,-23495.525,-40869.266
969027.1956214671,-82916.38,-67247.56,-18909.709,22649.17,-49410.117,-15700.033,-23494.71,-40882.895
969027.1996214638,-82919.72,-67254.36,-18908.936,22649.17,-49417.684,-15699.138,-23493.531,-40880.535
969027.2036214604,-82922.69,-67254.11,-18911.377,22642.172,-49426.883,-15701.742,-23497.07,-40883.383
969027.207621457,-82922.33,-67250.2,-18915.324,22617.188,-49420.535,-15703.817,-23499.96,-40879.965
969027.2116214538,-82922.24,-67249.43,-18914.145,22659.994,-49401.9,-15702.881,-23499.023,-40879.965
969027.2156214503,-82918.055,-67246.91,-18913.33,22697.266,-49394.695,-15702.189,-23497.723,-40876.305
969027.219621447,-82918.99,-67250.25,-18914.266,22684.775,-49402.426,-15701.132,-23497.844,-40866.945
969027.2236214436,-82920.49,-67249.72,-18914.186,22635.133,-49415.61,-15702.841,-23500.164,-40875.203
969027.2276214403,-82919.92,-67245.98,-18913.86,22590.902,-49415.652,-15705.038,-23501.14,-40889.04
969027.231621437,-82918.336,-67245.24,-18913.9,22634.521,-49407.105,-15701.701,-23497.152,-40880.94
969027.2356214336,-82917.16,-67246.625,-18908.367,22667.645,-49396.812,-15697.836,-23497.152,-40883.668
969027.2396214303,-82918.46,-67247.93,-18908.488,22673.625,-49400.23,-15697.592,-23500.285,-40884.035
969027.243621427,-82921.92,-67247.766,-18911.012,22635.418,-49412.477,-15701.864,-23506.553,-40886.273
969027.2476214236,-82924.93,-67247.68,-18916.342,22605.592,-49417.44,-15707.438,-23512.574,-40888.31
969027.2516214203,-82925.13,-67251.23,-18918.133,22638.877,-49410.08,-15706.259,-23512.412,-40889.934
969027.255621417,-82921.63,-67253.54,-18917.604,22666.22,-49410.2,-15704.875,-23509.4,-40890.016
969027.2596214135,-82922.61,-67254.31,-18916.504,22661.5,-49411.906,-15704.956,-23509.807,-40888.836
969027.2636214102,-82923.875,-67256.67,-18919.434,22640.178,-49416.06,-15705.933,-23509.562,-40885.457
969027.2676214068,-82923.055,-67251.305,-18921.59,22625.082,-49419.11,-15705.688,-23509.238,-40886.598
969027.2716214035,-82925.78,-67252.81,-18919.19,22649.863,-49408.406,-15702.8,-23510.418,-40891.156
969027.2756214002,-82924.56,-67250.66,-18919.11,22677.246,-49404.867,-15701.62,-23510.498,-40891.316
969027.2796213968,-82919.68,-67245.61,-18915.242,22669.842,-49408.938,-15701.782,-23509.115,-40880.168
969027.2836213935,-82920.01,-67242.96,-18916.586,22618.734,-49420.207,-15705.038,-23508.994,-40865.277
969027.2876213902,-82917.805,-67241.3,-18916.18,22593.832,-49421.754,-15707.764,-23512.004,-40883.668
969027.2916213868,-82914.19,-67240.44,-18912.518,22632.488,-49403.242,-15704.387,-23510.418,-40887.535
969027.2956213835,-82908.086,-67236.33,-18910.564,22646.81,-49396.2,-15701.538,-23508.098,-40882.773
969027.2996213802,-82903.61,-67231.65,-18909.547,22659.953,-49397.625,-15698.894,-23508.342,-40884.074
969027.3036213767,-82911.586,-67244.18,-18914.021,22633.545,-49409.63,-15699.748,-23508.953,-40889.324
969027.3076213734,-82924.85,-67247.68,-18925.945,22606.04,-49418.418,-15700.969,-23506.592,-40884.24
969027.31162137,-82927.01,-67249.31,-18925.252,22635.215,-49406.7,-15699.707,-23504.314,-40878.867
969027.3156213667,-82882.65,-67205.484,-18913.615,22658.408,-49397.055,-15701.498,-23511.395,-40884.44
969027.3196213634,-82847.17,-67168.58,-18908.203,22661.377,-49395.996,-15704.224,-23513.592,-40890.34
969027.32362136,-82824.42,-67139.98,-18908.123,22640.545,-49398.64,-15710.124,-23517.01,-40894.53
969027.3276213567,-82798.016,-67102.58,-18907.838,22623.332,-49392.254,-15713.867,-23519.94,-40894.207
969027.3316213534,-82760.58,-67062.26,-18900.229,22671.63,-49363.324,-15713.095,-23522.705,-40900.15
969027.33562135,-82732.1,-67034.586,-18893.596,22700.195,-49345.664,-15710.775,-23526.45,-40906.047
969027.3396213467,-82708.414,-67004.56,-18890.422,22691.773,-49343.914,-15712.973,-23533.732,-40915.12
969027.3436213434,-82685.63,-66974.53,-18890.463,22661.906,-49364.707,-15718.628,-23542.197,-40924.93
969027.34762134,-82669.15,-66956.46,-18890.625,22640.625,-49371.785,-15721.436,-23543.01,-40923.504
969027.3516213367,-82645.43,-66928.71,-18886.475,22666.992,-49348.633,-15721.518,-23542.4,-40925.78
969027.3556213332,-82633.914,-66911.87,-18882.812,22709.27,-49337.2,-15719.809,-23543.498,-40929.688
969027.3596213299,-82627.0,-66907.19,-18880.78,22711.63,-49341.023,-15720.866,-23544.475,-40927.125
969027.3636213266,-82623.01,-66903.85,-18879.436,22662.803,-49348.715,-15725.668,-23550.254,-40939.168
969027.3676213232,-82628.54,-66906.5,-18884.48,22637.695,-49349.938,-15726.97,-23548.828,-40935.953
969027.3716213199,-82631.516,-66902.18,-18884.318,22667.93,-49346.355,-15724.487,-23547.852,-40932.21
969027.3756213166,-82642.336,-66911.46,-18885.742,22683.717,-49345.99,-15720.053,-23547.771,-40935.953
969027.3796213132,-82668.13,-66933.15,-18887.004,22681.56,-49340.008,-15716.594,-23545.492,-40930.992
969027.3836213099,-82675.414,-66942.79,-18887.33,22645.916,-49356.61,-15718.628,-23548.178,-40929.605
969027.3876213066,-82669.11,-66946.45,-18889.934,22631.715,-49369.344,-15720.5,-23550.701,-40933.31
969027.3916213032,-82686.04,-66961.47,-18883.709,22664.47,-49363.934,-15716.105,-23544.719,-40927.246
969027.3956212999,-82692.63,-66973.72,-18880.047,22686.402,-49354.25,-15712.81,-23542.236,-40924.97
969027.3996212964,-82701.7,-66987.43,-18879.803,22679.607,-49367.96,-15711.345,-23543.824,-40927.695
969027.4036212931,-82715.78,-66996.83,-18882.121,22637.656,-49381.27,-15713.542,-23545.695,-40927.29
969027.4076212898,-82727.79,-67011.68,-18889.73,22624.268,-49383.504,-15715.861,-23549.887,-40929.445
969027.4116212864,-82739.71,-67023.56,-18893.719,22649.863,-49373.13,-15712.973,-23548.748,-40929.402
969027.4156212831,-82752.36,-67034.34,-18891.44,22662.518,-49361.453,-15710.368,-23547.852,-40927.29
969027.4196212798,-82764.53,-67045.66,-18890.748,22675.213,-49366.824,-15709.677,-23545.818,-40920.94
969027.4236212764,-82773.234,-67051.96,-18896.24,22667.604,-49371.582,-15712.321,-23544.719,-40917.035
969027.4276212731,-82780.4,-67059.0,-18897.176,22647.055,-49375.367,-15711.996,-23540.527,-40913.74
969027.4316212697,-82783.41,-67063.68,-18894.613,22669.23,-49367.555,-15708.09,-23536.215,-40910.973
969027.4356212664,-82789.67,-67072.8,-18892.293,22702.271,-49363.895,-15706.34,-23536.865,-40907.555
969027.4396212631,-82802.734,-67086.34,-18893.799,22676.963,-49365.926,-15707.642,-23540.895,-40912.312
969027.4436212596,-82813.93,-67092.05,-18895.508,22633.75,-49378.582,-15708.537,-23542.848,-40919.477
969027.4476212563,-82823.49,-67095.3,-18897.787,22616.904,-49387.004,-15708.13,-23542.969,-40918.863
969027.451621253,-82835.734,-67098.88,-18893.88,22647.625,-49376.223,-15707.275,-23544.883,-40920.207
969027.4556212496,-82835.53,-67108.12,-18889.893,22687.256,-49365.438,-15705.16,-23545.086,-40917.4
969027.4596212463,-82828.94,-67117.39,-18889.201,22696.86,-49368.492,-15701.457,-23541.22,-40911.46
969027.463621243,-82834.35,-67123.3,-18893.107,22643.84,-49381.594,-15702.067,-23535.809,-40905.355
969027.4676212396,-82839.52,-67122.36,-18897.34,22609.742,-49393.11,-15704.956,-23535.85,-40907.758
969027.4716212363,-82842.086,-67123.66,-18898.193,22644.736,-49394.086,-15705.566,-23537.68,-40915.895
969027.4756212329,-82848.88,-67132.61,-18895.02,22682.7,-49390.547,-15702.353,-23538.086,-40921.47
969027.4796212296,-82858.97,-67141.73,-18896.2,22675.822,-49391.36,-15700.562,-23538.209,-40921.51
969027.4836212263,-82865.52,-67145.23,-18901.855,22615.805,-49407.35,-15702.475,-23538.25,-40918.254
969027.4876212229,-82867.516,-67144.21,-18901.611,22600.953,-49405.684,-15701.701,-23534.912,-40913.25
969027.4916212196,-82866.664,-67144.78,-18899.21,22655.6,-49390.547,-15696.899,-23527.71,-40900.92
969027.4956212163,-82866.78,-67148.93,-18892.822,22691.814,-49381.062,-15692.953,-23525.352,-40891.6
969027.4996212128,-82865.16,-67150.92,-18886.475,22692.018,-49379.234,-15694.214,-23526.287,-40880.574
969027.5036212095,-82866.91,-67151.25,-18887.615,22655.559,-49395.02,-15698.12,-23529.338,-40879.844
969027.5076212062,-82869.47,-67151.05,-18892.863,22627.523,-49406.82,-15699.626,-23530.967,-40881.88
969027.5116212028,-82869.1,-67153.65,-18889.975,22647.055,-49397.055,-15697.673,-23530.518,-40885.66
969027.5156211995,-82872.805,-67158.49,-18881.795,22668.662,-49389.61,-15693.319,-23527.264,-40881.633
969027.5196211961,-82878.586,-67159.99,-18883.83,22666.26,-49397.543,-15692.79,-23527.182,-40882.652
969027.5236211928,-82878.95,-67160.12,-18889.404,22618.613,-49416.63,-15696.533,-23528.646,-40882.45
969027.5276211895,-82878.87,-67158.98,-18889.363,22599.488,-49415.04,-15699.87,-23528.525,-40883.707
969027.5316211861,-82876.02,-67157.39,-18884.197,22628.623,-49398.805,-15697.754,-23526.611,-40876.305
969027.5356211828,-82874.39,-67158.98,-18878.541,22663.615,-49384.727,-15696.452,-23531.129,-40881.55
969027.5396211795,-82878.91,-67163.01,-18877.97,22667.197,-49381.633,-15695.679,-23536.215,-40890.055
969027.543621176,-82879.07,-67163.125,-18879.559,22623.252,-49391.562,-15696.005,-23535.076,-40887.695
969027.5476211727,-82879.97,-67161.22,-18882.203,22601.482,-49401.938,-15694.946,-23532.756,-40884.48
969027.5516211694,-82885.83,-67167.73,-18883.79,22624.229,-49400.676,-15692.424,-23529.094,-40887.94
969027.555621166,-82892.945,-67174.32,-18882.65,22656.25,-49387.86,-15690.593,-23529.094,-40894.656
969027.5596211627,-82898.195,-67178.836,-18880.941,22669.395,-49387.777,-15691.244,-23529.867,-40887.29
969027.5636211593,-82903.89,-67181.766,-18882.324,22630.941,-49406.453,-15694.336,-23530.03,-40887.29
969027.567621156,-82898.73,-67173.38,-18881.512,22612.225,-49405.316,-15696.086,-23528.973,-40890.953
969027.5716211527,-82891.12,-67165.37,-18875.203,22651.328,-49385.664,-15695.557,-23527.385,-40892.418
969027.5756211493,-82893.555,-67169.84,-18873.332,22673.666,-49381.758,-15691.813,-23526.45,-40890.625
969027.579621146,-82895.34,-67173.51,-18876.385,22668.783,-49389.242,-15690.1045,-23524.578,-40880.29
969027.5836211427,-82896.12,-67175.7,-18877.645,22617.188,-49404.707,-15692.546,-23521.69,-40872.07
969027.5876211392,-82893.96,-67174.03,-18878.785,22598.918,-49409.1,-15694.133,-23518.719,-40868.29
969027.591621136,-82893.35,-67171.47,-18876.059,22643.555,-49390.26,-15690.959,-23514.73,-40863.895
969027.5956211326,-82890.22,-67171.67,-18868.328,22692.791,-49378.176,-15686.85,-23510.865,-40858.156
969027.5996211292,-82891.97,-67173.42,-18868.611,22696.574,-49374.434,-15685.832,-23509.97,-40852.945
969027.6036211259,-82896.164,-67174.16,-18870.646,22646.525,-49385.906,-15689.047,-23514.73,-40862.184
969027.6076211225,-82894.734,-67174.03,-18872.885,22610.596,-49393.027,-15691.203,-23515.38,-40861.246
969027.6116211192,-82893.07,-67176.31,-18870.402,22629.803,-49389.57,-15687.744,-23512.045,-40859.133
969027.6156211159,-82891.32,-67178.47,-18865.113,22662.314,-49384.117,-15685.019,-23511.027,-40866.05
969027.6196211125,-82896.08,-67184.41,-18862.63,22686.484,-49380.574,-15686.687,-23516.033,-40873.09
969027.6236211092,-82896.12,-67182.45,-18863.281,22652.02,-49388.797,-15689.941,-23518.719,-40860.84
969027.6276211059,-82898.195,-67178.875,-18864.828,22616.334,-49396.85,-15691.772,-23520.59,-40858.523
969027.6316211025,-82902.23,-67179.164,-18868.855,22640.545,-49388.43,-15691.244,-23522.38,-40876.426
969027.6356210992,-82903.89,-67181.07,-18865.643,22672.04,-49383.14,-15690.39,-23524.943,-40879.76
969027.6396210958,-82907.35,-67185.586,-18863.281,22661.988,-49386.844,-15689.047,-23526.855,-40876.953
969027.6436210924,-82913.78,-67186.52,-18866.334,22613.893,-49403.242,-15689.575,-23524.13,-40873.332
969027.6476210891,-82910.04,-67182.984,-18869.385,22587.322,-49406.617,-15690.756,-23523.072,-40874.473
969027.6516210857,-82902.836,-67179.94,-18866.658,22624.838,-49385.945,-15687.948,-23517.09,-40867.594
969027.6556210824,-82904.09,-67183.27,-18861.451,22667.074,-49378.297,-15683.432,-23514.242,-40859.906
969027.6596210791,-82906.375,-67188.56,-18859.416,22669.8,-49382.203,-15683.838,-23518.19,-40861.086
969027.6636210757,-82911.91,-67189.05,-18862.875,22636.027,-49388.348,-15690.43,-23525.96,-40872.234
969027.6676210724,-82912.36,-67187.99,-18861.736,22593.994,-49399.336,-15693.481,-23532.432,-40888.715
969027.6716210691,-82913.414,-67191.41,-18862.713,22614.666,-49400.066,-15689.494,-23530.723,-40887.25
969027.6756210657,-82917.484,-67197.67,-18863.445,22654.338,-49391.93,-15685.181,-23530.885,-40882.69
969027.6796210624,-82915.9,-67196.414,-18860.84,22656.088,-49403.523,-15682.861,-23531.455,-40881.51
969027.683621059,-82916.95,-67196.21,-18859.578,22634.033,-49407.39,-15686.198,-23531.414,-40878.543
969027.6876210556,-82913.13,-67193.61,-18860.596,22608.807,-49397.3,-15688.762,-23529.705,-40872.64
969027.6916210523,-82909.1,-67188.64,-18859.334,22629.111,-49385.336,-15687.704,-23527.873,-40875.69
969027.6956210489,-82917.32,-67194.91,-18857.137,22655.6,-49381.348,-15685.507,-23524.62,-40876.305
969027.6996210456,-82922.94,-67203.05,-18853.027,22646.973,-49389.773,-15684.082,-23522.746,-40872.844
969027.7036210423,-82920.945,-67199.305,-18852.05,22605.389,-49399.78,-15689.128,-23528.281,-40875.0
969027.7076210389,-82925.54,-67199.055,-18850.3,22588.096,-49408.895,-15690.552,-23530.193,-40875.0
969027.7116210356,-82922.53,-67197.43,-18851.318,22620.81,-49395.59,-15687.134,-23525.717,-40868.777
969027.7156210323,-82920.414,-67199.586,-18851.238,22668.377,-49388.184,-15682.739,-23519.94,-40856.977
969027.7196210289,-82922.94,-67203.86,-18850.75,22670.207,-49395.59,-15682.861,-23524.008,-40873.09
969027.7236210256,-82922.57,-67199.875,-18851.97,22633.994,-49405.4,-15686.401,-23527.629,-40875.53
969027.7276210221,-82923.34,-67199.55,-18851.889,22589.438,-49414.918,-15688.599,-23527.793,-40866.742
969027.7316210188,-82920.86,-67200.484,-18849.65,22605.918,-49408.33,-15687.704,-23528.605,-40874.51
969027.7356210155,-82914.15,-67195.68,-18841.146,22657.35,-49392.54,-15683.594,-23526.896,-40877.645
969027.7396210121,-82920.29,-67199.99,-18839.52,22662.883,-49394.734,-15682.373,-23528.89,-40874.15
969027.7436210088,-82924.03,-67201.21,-18848.104,22629.639,-49414.188,-15685.059,-23532.35,-40881.062
969027.7476210055,-82926.76,-67204.63,-18852.662,22602.783,-49424.316,-15687.541,-23536.988,-40892.375
969027.7516210021,-82926.516,-67206.016,-18849.406,22617.27,-49408.082,-15685.466,-23535.85,-40896.2
969027.7556209988,-82924.03,-67207.44,-18843.426,22647.787,-49407.35,-15682.943,-23529.379,-40888.227
969027.7596209955,-82928.19,-67212.81,-18839.926,22642.375,-49417.156,-15681.234,-23526.979,-40880.82
969027.7636209921,-82932.74,-67212.08,-18846.07,22604.941,-49432.13,-15681.519,-23523.967,-40875.977
969027.7676209888,-82930.95,-67207.52,-18846.883,22585.693,-49430.504,-15680.624,-23520.143,-40868.816
969027.7716209854,-82926.68,-67205.53,-18840.21,22617.148,-49412.52,-15677.45,-23517.172,-40868.164
969027.775620982,-82927.82,-67207.89,-18836.914,22650.107,-49399.457,-15672.119,-23514.854,-40867.555
969027.7796209787,-82931.32,-67212.2,-18835.125,22656.006,-49397.016,-15670.207,-23515.83,-40871.258
969027.7836209753,-82928.914,-67207.93,-18837.443,22610.107,-49411.38,-15672.404,-23518.066,-40871.746
969027.787620972,-82931.16,-67208.21,-18842.123,22579.55,-49414.348,-15674.846,-23519.572,-40878.133
969027.7916209687,-82937.42,-67211.8,-18843.262,22602.58,-49408.0,-15672.16,-23517.578,-40876.1
969027.7956209653,-82937.46,-67212.57,-18840.21,22635.906,-49401.855,-15670.532,-23517.416,-40878.785
969027.799620962,-82932.7,-67211.51,-18835.287,22651.531,-49398.074,-15670.532,-23516.684,-40872.03
969027.8036209587,-82932.17,-67209.02,-18836.467,22619.06,-49403.117,-15673.259,-23516.846,-40869.71
969027.8076209553,-82934.98,-67209.59,-18841.064,22589.152,-49408.49,-15674.276,-23517.863,-40868.734
969027.811620952,-82932.21,-67207.93,-18837.89,22626.873,-49401.492,-15671.753,-23517.742,-40871.22
969027.8156209486,-82929.28,-67205.2,-18834.473,22661.582,-49392.09,-15668.62,-23516.562,-40863.65
969027.8196209453,-82931.64,-67210.25,-18836.752,22661.215,-49402.754,-15670.614,-23520.996,-40870.65
969027.823620942,-82931.73,-67207.44,-18839.355,22610.434,-49419.19,-15676.555,-23522.502,-40873.535
969027.8276209385,-82929.69,-67201.664,-18839.967,22574.586,-49423.26,-15679.159,-23521.16,-40868.652
969027.8316209352,-82928.23,-67204.23,-18833.904,22614.055,-49418.66,-15677.734,-23519.207,-40857.91
969027.8356209319,-82926.555,-67203.414,-18833.496,22645.225,-49406.7,-15674.154,-23515.016,-40844.605
969027.8396209285,-82931.48,-67207.69,-18833.578,22657.39,-49401.29,-15671.753,-23515.87,-40845.582
969027.8436209252,-82932.21,-67208.13,-18832.44,22621.135,-49412.312,-15673.178,-23517.66,-40849.49
969027.8476209219,-82926.59,-67201.87,-18833.334,22580.81,-49424.48,-15675.619,-23520.102,-40856.49
969027.8516209185,-82922.2,-67199.47,-18833.7,22607.383,-49407.39,-15673.95,-23521.281,-40861.86
969027.8556209152,-82930.46,-67208.09,-18833.21,22648.479,-49400.39,-15671.062,-23519.898,-40854.492
969027.8596209118,-82936.85,-67211.8,-18836.02,22647.217,-49410.973,-15670.614,-23520.59,-40852.215
969027.8636209085,-82938.73,-67213.18,-18839.234,22606.162,-49429.61,-15671.591,-23519.654,-40846.19
969027.8676209052,-82939.54,-67211.51,-18843.344,22582.725,-49434.734,-15673.178,-23520.996,-40850.914
969027.8716209017,-82935.34,-67206.305,-18840.496,22615.072,-49417.81,-15670.207,-23517.945,-40849.938
969027.8756208984,-82935.18,-67209.11,-18839.479,22643.19,-49410.24,-15666.789,-23517.701,-40853.23
969027.8796208951,-82941.734,-67216.11,-18840.414,22634.889,-49418.582,-15664.511,-23514.486,-40843.668
969027.8836208917,-82940.96,-67212.41,-18842.732,22604.533,-49421.67,-15667.155,-23516.928,-40844.81
969027.8876208884,-82935.47,-67203.125,-18846.6,22584.637,-49417.277,-15668.498,-23515.137,-40845.094
969027.8916208851,-82929.04,-67201.91,-18842.938,22623.984,-49403.65,-15666.748,-23508.057,-40839.07
969027.8956208817,-82929.2,-67204.1,-18836.549,22652.344,-49401.125,-15664.145,-23506.104,-40835.45
969027.8996208784,-82931.195,-67203.21,-18834.84,22649.984,-49408.69,-15663.452,-23505.86,-40827.883
969027.903620875,-82936.36,-67205.164,-18836.182,22600.424,-49425.215,-15668.498,-23507.732,-40830.77
969027.9076208717,-82939.66,-67204.875,-18837.646,22562.42,-49428.71,-15672.404,-23507.732,-40833.008
969027.9116208684,-82933.555,-67201.26,-18836.385,22606.812,-49405.113,-15669.841,-23506.918,-40831.383
969027.915620865,-82935.38,-67204.51,-18833.375,22653.89,-49395.305,-15664.836,-23503.662,-40821.695
969027.9196208616,-82936.57,-67207.97,-18832.154,22652.832,-49400.72,-15664.348,-23505.047,-40820.76
969027.9236208583,-82936.61,-67207.93,-18835.328,22617.555,-49411.418,-15670.044,-23511.883,-40830.04
969027.9276208549,-82935.51,-67205.164,-18839.152,22579.51,-49414.918,-15672.16,-23516.113,-40837.89
969027.9316208516,-82934.82,-67205.484,-18837.402,22608.643,-49404.746,-15669.516,-23514.121,-40839.195
969027.9356208483,-82934.05,-67206.664,-18834.27,22640.016,-49395.02,-15665.121,-23510.092,-40838.38
969027.9396208449,-82936.98,-67208.3,-18835.002,22649.537,-49397.137,-15664.267,-23508.262,-40835.53
969027.9436208416,-82937.99,-67208.21,-18837.117,22615.887,-49406.09,-15665.243,-23505.291,-40829.348
969027.9476208382,-82935.95,-67206.79,-18836.834,22588.664,-49410.688,-15666.992,-23506.756,-40830.65
969027.9516208349,-82934.33,-67206.34,-18835.734,22599.162,-49402.223,-15666.789,-23506.268,-40833.54
969027.9556208316,-82933.72,-67206.42,-18832.967,22647.258,-49395.836,-15662.883,-23504.07,-40826.5
969027.9596208282,-82932.21,-67205.41,-18830.77,22659.424,-49389.16,-15662.395,-23506.877,-40824.832
969027.9636208249,-82931.89,-67202.4,-18834.188,22616.822,-49405.195,-15665.731,-23507.121,-40811.117
969027.9676208216,-82934.125,-67199.95,-18838.826,22585.287,-49414.31,-15666.789,-23507.854,-40826.297
969027.9716208181,-82929.32,-67198.445,-18837.24,22623.535,-49394.33,-15663.127,-23505.535,-40836.02
969027.9756208148,-82930.016,-67203.164,-18836.223,22654.135,-49382.69,-15657.797,-23499.39,-40821.086
969027.9796208115,-82934.29,-67206.79,-18834.758,22654.867,-49394.656,-15656.21,-23500.164,-40822.105
969027.9836208081,-82934.41,-67203.05,-18836.305,22614.707,-49406.984,-15658.488,-23503.662,-40843.71
969027.9876208048,-82935.06,-67200.89,-18839.396,22588.95,-49412.723,-15661.093,-23503.053,-40841.227
969027.9916208014,-82934.45,-67202.76,-18839.438,22612.06,-49405.723,-15659.099,-23501.059,-40834.84
969027.9956207981,-82932.375,-67204.875,-18836.426,22640.625,-49397.055,-15657.593,-23498.414,-40833.05
969027.9996207948,-82931.64,-67202.234,-18833.904,22658.123,-49393.23,-15656.047,-23498.414,-40831.137
969028.0036207914,-82934.49,-67205.65,-18837.729,22614.137,-49405.195,-15657.715,-23498.74,-40826.785
969028.0076207881,-82937.586,-67204.96,-18842.53,22584.678,-49412.68,-15659.953,-23497.682,-40821.047
969028.0116207848,-82932.984,-67200.234,-18840.576,22626.75,-49396.08,-15655.762,-23491.293,-40815.227
969028.0156207813,-82933.35,-67201.78,-18836.914,22665.936,-49388.31,-15652.344,-23488.037,-40813.152
969028.019620778,-82934.29,-67203.33,-18836.508,22663.9,-49393.066,-15651.327,-23490.44,-40814.78
969028.0236207746,-82935.63,-67200.65,-18841.717,22616.904,-49408.69,-15656.698,-23498.008,-40832.926
969028.0276207713,-82931.44,-67196.62,-18844.85,22577.027,-49410.402,-15658.407,-23494.02,-40828.086
969028.031620768,-82924.52,-67193.97,-18838.46,22605.754,-49390.3,-15654.135,-23486.37,-40817.223
969028.0356207646,-82924.97,-67197.15,-18833.21,22653.117,-49382.69,-15650.473,-23481.895,-40812.746
969028.0396207613,-82929.12,-67198.125,-18833.293,22654.541,-49380.453,-15649.658,-23481.445,-40813.395
969028.043620758,-82928.76,-67193.89,-18836.223,22624.635,-49388.67,-15652.995,-23482.463,-40815.88
969028.0476207546,-82925.78,-67188.36,-18837.646,22599.121,-49392.457,-15655.273,-23486.084,-40822.266
969028.0516207513,-82920.9,-67185.305,-18844.85,22623.984,-49385.01,-15651.693,-23483.521,-40813.723
969028.055620748,-82922.37,-67186.85,-18840.74,22656.494,-49379.438,-15648.682,-23485.312,-40819.62
969028.0596207445,-82930.625,-67191.24,-18843.953,22648.682,-49387.29,-15648.886,-23488.12,-40820.355
969028.0636207412,-82936.28,-67193.97,-18850.994,22610.312,-49395.305,-15652.548,-23491.781,-40822.023
969028.0676207378,-82935.06,-67192.836,-18853.11,22586.914,-49400.473,-15654.989,-23493.408,-40824.344
969028.0716207345,-82929.164,-67188.16,-18850.912,22617.432,-49393.35,-15652.71,-23488.73,-40815.88
969028.0756207312,-82924.64,-67185.305,-18847.209,22667.766,-49381.918,-15647.014,-23483.44,-40811.08
969028.0796207278,-82927.21,-67188.48,-18844.646,22672.648,-49379.926,-15645.59,-23483.848,-40816.773
969028.0836207245,-82928.23,-67186.81,-18850.871,22623.861,-49392.54,-15649.618,-23486.084,-40818.523
969028.0876207212,-82924.44,-67183.76,-18852.824,22590.455,-49394.086,-15649.862,-23482.83,-40811.89
969028.0916207178,-82925.3,-67185.14,-18852.986,22622.64,-49382.69,-15646.2,-23480.877,-40814.617
969028.0956207145,-82929.81,-67189.984,-18851.521,22659.22,-49377.81,-15643.148,-23482.342,-40817.63
969028.0996207112,-82932.21,-67193.85,-18849.53,22663.33,-49383.098,-15644.084,-23485.557,-40822.105
969028.1036207078,-82936.04,-67193.52,-18851.4,22623.943,-49397.625,-15647.543,-23488.566,-40829.55
969028.1076207045,-82931.195,-67187.18,-18854.94,22587.607,-49399.66,-15647.258,-23482.342,-40819.703
969028.111620701,-82926.88,-67183.39,-18854.004,22612.754,-49395.508,-15643.433,-23475.791,-40808.676
969028.1156206977,-82930.18,-67188.4,-18854.086,22654.582,-49389.49,-15638.998,-23475.547,-40809.938
969028.1196206944,-82932.5,-67193.12,-18853.639,22650.27,-49389.406,-15638.388,-23478.15,-40813.68
969028.123620691,-82930.016,-67189.01,-18856.771,22605.186,-49400.027,-15642.538,-23483.725,-40830.812
969028.1276206877,-82928.14,-67185.55,-18860.719,22592.367,-49400.105,-15644.206,-23481.65,-40826.336
969028.1316206844,-82926.15,-67184.66,-18857.625,22641.236,-49384.117,-15642.782,-23478.76,-40821.13
969028.135620681,-82930.87,-67187.91,-18854.451,22672.812,-49376.06,-15640.829,-23477.947,-40820.027
969028.1396206777,-82936.28,-67196.33,-18857.748,22662.924,-49377.363,-15641.5205,-23481.69,-40823.773
969028.1436206744,-82938.4,-67194.625,-18859.295,22618.002,-49389.69,-15644.003,-23487.021,-40826.863
969028.147620671,-82938.11,-67191.125,-18862.59,22586.387,-49398.316,-15645.264,-23484.986,-40822.023
969028.1516206677,-82938.195,-67190.8,-18860.963,22606.854,-49382.45,-15642.172,-23483.848,-40826.945
969028.1556206642,-82938.68,-67192.47,-18860.963,22642.54,-49373.66,-15638.021,-23481.975,-40826.01
969028.1596206609,-82939.91,-67194.13,-18861.857,22635.459,-49378.99,-15637.614,-23482.139,-40825.277
969028.1636206576,-82939.62,-67192.266,-18865.438,22608.277,-49389.324,-15640.097,-23485.23,-40829.348
969028.1676206542,-82940.31,-67188.68,-18869.752,22597.412,-49384.81,-15641.765,-23485.393,-40818.44
969028.1716206509,-82938.11,-67191.33,-18866.13,22631.592,-49368.125,-15642.782,-23484.986,-40818.402
969028.1756206476,-82938.4,-67195.92,-18861.572,22654.785,-49363.484,-15642.944,-23491.455,-40844.363
969028.1796206442,-82937.664,-67193.24,-18858.195,22648.643,-49368.938,-15641.765,-23491.293,-40844.2
969028.1836206409,-82940.63,-67190.31,-18860.148,22594.646,-49397.098,-15641.032,-23484.336,-40828.207
969028.1876206376,-82938.64,-67186.93,-18862.834,22561.809,-49404.867,-15640.137,-23478.11,-40820.395
969028.1916206342,-82934.33,-67183.23,-18858.602,22614.38,-49385.54,-15638.021,-23478.232,-40833.254
969028.1956206309,-82937.5,-67188.11,-18857.463,22656.902,-49374.473,-15637.126,-23479.453,-40834.312
969028.1996206274,-82941.734,-67195.44,-18858.398,22673.26,-49374.15,-15637.573,-23483.195,-40836.875
969028.2036206241,-82941.53,-67191.57,-18860.066,22634.441,-49381.676,-15641.724,-23488.607,-40844.605
969028.2076206208,-82939.01,-67185.67,-18863.81,22596.396,-49385.945,-15644.003,-23488.852,-40842.33
969028.2116206174,-82939.414,-67187.016,-18862.996,22622.031,-49381.918,-15641.765,-23484.295,-40830.85
969028.2156206141,-82936.69,-67189.414,-18859.498,22663.291,-49374.676,-15638.55,-23482.951,-40836.223
969028.2196206108,-82936.12,-67189.62,-18856.445,22663.86,-49375.773,-15636.679,-23480.43,-40825.766
969028.2236206074,-82935.23,-67187.99,-18858.357,22624.229,-49390.016,-15637.248,-23478.027,-40816.938
969028.2276206041,-82936.36,-67185.914,-18864.217,22585.41,-49401.695,-15638.876,-23476.4,-40818.89
969028.2316206008,-82936.65,-67184.9,-18867.555,22602.783,-49394.41,-15637.736,-23475.303,-40819.46
969028.2356205974,-82935.34,-67185.836,-18864.38,22659.832,-49369.387,-15635.62,-23472.494,-40811.117
969028.2396205941,-82940.836,-67193.484,-18867.025,22650.555,-49372.07,-15636.882,-23474.0,-40814.332
969028.2436205907,-82943.81,-67195.56,-18872.723,22610.434,-49390.016,-15640.91,-23478.76,-40826.62
969028.2476205874,-82938.4,-67188.766,-18873.902,22591.838,-49393.27,-15640.747,-23477.865,-40826.5
969028.251620584,-82934.86,-67186.41,-18870.89,22618.816,-49376.508,-15637.98,-23475.098,-40827.965
969028.2556205806,-82934.086,-67188.36,-18866.21,22663.25,-49362.47,-15635.58,-23474.732,-40824.42
969028.2596205773,-82934.45,-67186.16,-18862.793,22652.1,-49363.406,-15636.353,-23475.871,-40819.46
969028.263620574,-82930.71,-67179.81,-18870.281,22601.36,-49378.133,-15637.248,-23474.57,-40816.082
969028.2676205706,-82932.05,-67176.15,-18872.967,22572.389,-49387.37,-15639.853,-23472.738,-40813.52
969028.2716205673,-82931.805,-67173.71,-18871.42,22623.008,-49379.03,-15638.184,-23473.268,-40818.44
969028.275620564,-82930.46,-67177.125,-18869.06,22663.006,-49366.09,-15633.83,-23473.715,-40821.414
969028.2796205606,-82934.62,-67182.7,-18870.281,22656.78,-49368.695,-15632.284,-23474.691,-40819.664
969028.2836205573,-82935.836,-67180.87,-18875.691,22611.451,-49385.457,-15636.679,-23479.168,-40825.277
969028.2876205539,-82938.84,-67181.27,-18879.436,22586.426,-49400.72,-15640.097,-23481.527,-40830.16
969028.2916205506,-82943.61,-67187.336,-18878.133,22621.867,-49396.85,-15636.557,-23478.232,-40825.277
969028.2956205473,-82946.086,-67190.19,-18875.57,22646.607,-49392.78,-15635.214,-23480.266,-40837.445
969028.2996205438,-82945.64,-67191.29,-18869.549,22636.436,-49390.547,-15635.01,-23481.61,-40841.715
969028.3036205405,-82941.04,-67185.305,-18867.066,22596.762,-49396.242,-15637.085,-23482.79,-40841.066
969028.3076205372,-82937.7,-67183.72,-18866.658,22575.645,-49393.68,-15636.027,-23481.895,-40837.85
969028.3116205338,-82934.66,-67179.61,-18865.193,22603.312,-49379.438,-15631.999,-23479.9,-40840.66
969028.3156205305,-82934.66,-67179.32,-18869.305,22648.113,-49369.754,-15627.89,-23475.912,-40835.938
969028.3196205272,-82939.74,-67185.95,-18868.979,22660.645,-49376.02,-15627.482,-23476.238,-40835.125
969028.3236205238,-82946.45,-67186.98,-18876.18,22633.098,-49392.336,-15629.68,-23478.883,-40841.715
969028.3276205205,-82943.36,-67182.09,-18883.586,22603.598,-49401.004,-15630.9,-23477.703,-40837.08
969028.3316205171,-82943.81,-67184.164,-18882.406,22621.99,-49386.395,-15627.6045,-23472.982,-40822.633
969028.3356205138,-82945.84,-67188.07,-18876.629,22658.814,-49372.234,-15623.698,-23469.89,-40822.836
969028.3396205105,-82944.016,-67189.086,-18872.07,22647.787,-49378.094,-15623.332,-23470.703,-40831.098
969028.343620507,-82941.04,-67185.51,-18870.2,22604.453,-49393.68,-15625.8545,-23471.518,-40831.34
969028.3476205037,-82935.55,-67179.32,-18870.932,22565.105,-49399.984,-15625.041,-23469.523,-40830.363
969028.3516205004,-82936.57,-67180.625,-18873.17,22596.885,-49394.453,-15622.803,-23467.164,-40829.02
969028.355620497,-82937.016,-67181.07,-18870.484,22647.746,-49382.203,-15621.501,-23467.082,-40822.227
969028.3596204937,-82936.52,-67183.31,-18869.588,22653.77,-49377.32,-15621.664,-23466.35,-40806.07
969028.3636204903,-82937.664,-67182.336,-18874.39,22617.432,-49390.707,-15624.1455,-23469.32,-40820.56
969028.367620487,-82940.63,-67182.984,-18879.15,22591.188,-49396.406,-15625.8545,-23470.867,-40834.758
969028.3716204837,-82940.8,-67181.6,-18878.174,22630.82,-49383.18,-15623.942,-23467.041,-40831.18
969028.3756204803,-82939.5,-67184.82,-18876.059,22668.213,-49373.863,-15620.402,-23464.072,-40827.312
969028.379620477,-82944.87,-67190.19,-18876.832,22652.305,-49379.56,-15617.961,-23461.914,-40826.254
969028.3836204737,-82944.74,-67184.53,-18879.03,22600.342,-49395.996,-15620.891,-23462.89,-40827.598
969028.3876204703,-82942.34,-67180.75,-18879.232,22576.986,-49402.63,-15623.82,-23462.24,-40826.785
969028.391620467,-82937.7,-67180.79,-18878.703,22617.229,-49389.0,-15623.047,-23460.084,-40823.0
969028.3956204636,-82934.53,-67184.125,-18872.64,22661.988,-49373.25,-15619.751,-23459.678,-40821.25
969028.3996204602,-82939.375,-67187.91,-18873.21,22656.494,-49372.805,-15619.629,-23463.95,-40825.645
969028.4036204569,-82941.57,-67184.33,-18875.488,22608.643,-49388.754,-15624.431,-23469.28,-40824.75
969028.4076204535,-82942.99,-67179.61,-18872.844,22581.707,-49396.934,-15628.134,-23471.762,-40838.176
969028.4116204502,-82936.85,-67174.97,-18879.883,22591.594,-49389.69,-15625.773,-23467.652,-40831.668
969028.4156204469,-82934.82,-67172.2,-18873.332,22642.578,-49380.617,-15619.141,-23462.566,-40822.266
969028.4196204435,-82935.06,-67174.08,-18868.816,22652.752,-49373.58,-15618.042,-23463.543,-40826.703
969028.4236204402,-82938.805,-67172.94,-18876.1,22616.7,-49385.867,-15620.728,-23467.367,-40834.188
969028.4276204369,-82936.445,-67172.77,-18879.15,22589.479,-49396.04,-15621.826,-23468.14,-40832.277
969028.4316204335,-82937.09,-67177.414,-18877.361,22612.875,-49390.016,-15620.769,-23466.879,-40836.875
969028.4356204302,-82935.67,-67177.94,-18872.355,22656.455,-49384.074,-15617.554,-23466.553,-40838.055
969028.4396204269,-82936.85,-67179.28,-18868.938,22640.504,-49397.137,-15617.025,-23468.303,-40839.805
969028.4436204234,-82938.4,-67177.695,-18870.932,22587.973,-49414.227,-15619.955,-23472.617,-40843.18
969028.4476204201,-82937.99,-67175.7,-18875.285,22573.447,-49422.04,-15622.03,-23472.738,-40838.22
969028.4516204167,-82938.195,-67177.86,-18875.041,22604.209,-49404.543,-15618.815,-23467.773,-40835.246
969028.4556204134,-82936.445,-67177.37,-18866.13,22657.432,-49386.312,-15615.153,-23467.002,-40836.754
969028.4596204101,-82928.1,-67172.77,-18864.91,22661.377,-49390.016,-15616.415,-23467.367,-40839.195
969028.4636204067,-82930.18,-67176.07,-18867.596,22621.014,-49406.13,-15617.961,-23466.27,-40836.508
969028.4676204034,-82930.79,-67176.19,-18870.076,22583.172,-49421.023,-15620.199,-23469.117,-40842.977
969028.4716204001,-82928.8,-67174.195,-18868.734,22591.025,-49414.55,-15617.636,-23470.541,-40846.438
969028.4756203967,-82932.01,-67176.15,-18866.414,22641.357,-49393.965,-15613.037,-23469.482,-40840.863
969028.4796203934,-82934.25,-67178.71,-18865.926,22643.922,-49390.625,-15612.427,-23471.64,-40847.453
969028.4836203901,-82935.14,-67177.33,-18869.955,22619.549,-49409.1,-15612.834,-23467.734,-40834.84
969028.4876203866,-82933.84,-67172.61,-18874.879,22589.56,-49410.484,-15614.38,-23466.146,-40823.73
969028.4916203833,-82933.516,-67172.08,-18874.756,22608.604,-49394.9,-15616.537,-23470.947,-40848.758
969028.4956203799,-82935.8,-67175.46,-18869.508,22659.1,-49384.035,-15613.119,-23471.232,-40863.688
969028.4996203766,-82938.88,-67180.38,-18866.455,22643.922,-49397.504,-15612.224,-23471.965,-40863.566
969028.5036203733,-82941.53,-67180.79,-18873.088,22590.252,-49415.45,-15613.566,-23472.047,-40858.277
969028.5076203699,-82933.88,-67173.99,-18877.645,22557.008,-49421.47,-15617.31,-23470.664,-40856.773
969028.5116203666,-82929.85,-67174.44,-18874.432,22596.965,-49409.75,-15613.281,-23466.553,-40854.82
969028.5156203633,-82931.805,-67181.6,-18868.287,22646.566,-49394.695,-15608.358,-23465.537,-40857.79
969028.5196203599,-82934.53,-67184.45,-18869.752,22642.822,-49401.734,-15608.684,-23467.693,-40856.0
969028.5236203566,-82934.734,-67180.625,-18872.07,22609.783,-49412.355,-15611.735,-23470.744,-40855.47
969028.5276203533,-82932.21,-67178.51,-18873.17,22586.102,-49410.484,-15613.647,-23471.111,-40854.98
969028.5316203499,-82929.24,-67176.19,-18873.25,22609.13,-49405.477,-15609.579,-23465.82,-40847.535
969028.5356203465,-82929.04,-67179.2,-18868.084,22640.098,-49404.055,-15605.469,-23461.71,-40842.734
969028.5396203431,-82935.71,-67183.72,-18869.264,22635.58,-49416.016,-15605.957,-23464.031,-40846.395
969028.5436203398,-82944.17,-67184.77,-18876.912,22598.715,-49429.934,-15605.673,-23462.852,-40840.496
969028.5476203365,-82940.06,-67179.77,-18878.053,22569.906,-49430.3,-15607.788,-23461.387,-40838.664
969028.5516203331,-82933.8,-67175.54,-18876.588,22599.773,-49413.902,-15605.51,-23461.06,-40848.633
969028.5556203298,-82931.805,-67175.336,-18869.588,22648.967,-49397.098,-15599.65,-23456.055,-40838.055
969028.5596203265,-82930.18,-67174.52,-18866.334,22641.846,-49400.676,-15598.715,-23457.48,-40839.887
969028.5636203231,-82927.86,-67172.24,-18866.334,22603.232,-49417.402,-15602.255,-23459.96,-40842.855
969028.5676203198,-82930.664,-67170.66,-18868.205,22572.062,-49424.316,-15606.73,-23463.787,-40843.387
969028.5716203165,-82934.29,-67171.1,-18871.135,22605.104,-49415.324,-15606.934,-23466.025,-40846.883
969028.5756203131,-82932.375,-67172.69,-18871.379,22648.56,-49402.47,-15603.72,-23461.793,-40841.35
969028.5796203098,-82935.14,-67173.914,-18871.705,22640.098,-49410.156,-15602.133,-23462.525,-40843.508
969028.5836203063,-82936.2,-67173.26,-18873.373,22588.95,-49433.758,-15604.818,-23467.164,-40851.605
969028.587620303,-82932.58,-67171.914,-18873.982,22562.012,-49435.305,-15606.853,-23468.71,-40852.5
969028.5916202997,-82930.75,-67172.98,-18870.117,22590.781,-49421.957,-15605.347,-23467.734,-40855.836
969028.5956202963,-82931.805,-67175.17,-18872.559,22640.666,-49414.348,-15603.068,-23466.025,-40852.582
969028.599620293,-82933.64,-67176.31,-18868.043,22641.643,-49411.38,-15602.377,-23466.838,-40850.75
969028.6036202897,-82930.95,-67172.2,-18866.863,22624.432,-49422.566,-15606.445,-23470.623,-40851.2
969028.6076202863,-82930.95,-67170.45,-18869.508,22598.389,-49431.64,-15607.666,-23470.988,-40854.332
969028.611620283,-82929.164,-67170.05,-18870.402,22620.688,-49421.836,-15604.696,-23468.955,-40854.086
969028.6156202797,-82930.3,-67171.875,-18867.352,22650.92,-49409.223,-15599.895,-23462.729,-40846.598
969028.6196202763,-82939.336,-67177.21,-18868.572,22634.033,-49421.266,-15600.098,-23463.828,-40847.453
969028.623620273,-82941.24,-67177.695,-18871.014,22598.633,-49438.723,-15601.522,-23463.42,-40850.426
969028.6276202695,-82934.734,-67172.0,-18871.582,22567.1,-49437.137,-15602.255,-23465.252,-40856.203
969028.6316202662,-82931.36,-67169.6,-18870.32,22589.396,-49425.62,-15599.447,-23463.34,-40852.703
969028.6356202629,-82936.28,-67175.91,-18861.775,22658.855,-49410.36,-15597.29,-23462.973,-40852.215
969028.6396202595,-82934.98,-67176.516,-18863.078,22660.035,-49416.26,-15598.145,-23467.652,-40848.188
969028.6436202562,-82936.445,-67177.29,-18864.178,22616.496,-49437.215,-15603.271,-23474.854,-40856.69
969028.6476202529,-82939.29,-67175.74,-18872.07,22573.568,-49448.12,-15605.917,-23479.98,-40877.77
969028.6516202495,-82942.914,-67176.68,-18878.256,22581.828,-49442.305,-15601.848,-23479.9,-40880.86
969028.6556202462,-82942.836,-67179.37,-18873.332,22634.807,-49426.11,-15599.162,-23475.627,-40871.46
969028.6596202428,-82941.734,-67177.37,-18869.467,22638.672,-49424.48,-15599.936,-23474.936,-40870.65
969028.6636202395,-82939.54,-67170.86,-18869.06,22601.848,-49438.273,-15602.051,-23474.365,-40874.676
969028.6676202362,-82938.6,-67170.29,-18868.043,22574.383,-49449.344,-15603.72,-23469.688,-40866.13
969028.6716202328,-82935.95,-67170.25,-18866.008,22616.172,-49431.438,-15602.702,-23468.1,-40866.17
969028.6756202294,-82936.81,-67171.8,-18864.178,22667.48,-49421.266,-15600.261,-23467.246,-40862.508
969028.6796202261,-82940.15,-67175.17,-18866.455,22641.357,-49418.62,-15601.522,-23469.768,-40865.97
969028.6836202227,-82939.5,-67170.375,-18870.77,22592.002,-49428.47,-15602.824,-23468.67,-40861.086
969028.6876202194,-82940.76,-67169.44,-18875.936,22567.262,-49437.91,-15604.736,-23470.053,-40860.92
969028.6916202161,-82940.23,-67169.15,-18874.064,22601.97,-49428.426,-15604.492,-23474.082,-40867.676
969028.6956202127,-82936.52,-67169.76,-18872.314,22641.357,-49415.367,-15600.464,-23472.535,-40865.03
969028.6996202094,-82940.59,-67174.766,-18872.844,22632.691,-49424.645,-15598.877,-23471.559,-40862.508
969028.703620206,-82942.586,-67177.164,-18873.25,22584.799,-49448.324,-15601.034,-23473.023,-40868.367
969028.7076202027,-82940.31,-67173.914,-18879.191,22565.553,-49453.125,-15604.289,-23473.186,-40872.56
969028.7116201994,-82939.984,-67175.13,-18879.395,22607.139,-49435.914,-15600.342,-23468.018,-40871.83
969028.715620196,-82940.555,-67179.77,-18875.611,22648.479,-49421.957,-15595.175,-23466.27,-40870.445
969028.7196201927,-82940.63,-67178.43,-18874.676,22663.615,-49419.92,-15594.564,-23468.547,-40868.98
969028.7236201894,-82940.72,-67176.84,-18879.72,22614.178,-49431.887,-15596.599,-23467.652,-40865.848
969028.7276201859,-82942.51,-67174.56,-18883.22,22572.227,-49441.49,-15598.267,-23466.35,-40868.043
969028.7316201826,-82941.125,-67176.68,-18880.25,22587.525,-49431.152,-15595.337,-23464.396,-40864.504
969028.7356201793,-82943.93,-67179.61,-18879.15,22620.729,-49421.59,-15590.17,-23463.42,-40861.94
969028.7396201759,-82949.38,-67183.516,-18879.07,22631.43,-49437.38,-15592.8955,-23468.14,-40866.984
969028.7436201726,-82952.555,-67183.68,-18880.047,22601.318,-49452.84,-15597.819,-23472.982,-40872.195
969028.7476201692,-82951.01,-67180.34,-18881.062,22572.266,-49446.37,-15600.22,-23475.465,-40875.082
969028.7516201659,-82947.63,-67181.84,-18881.104,22610.596,-49430.42,-15598.959,-23471.6,-40869.71
969028.7556201626,-82948.125,-67182.45,-18878.785,22664.55,-49408.734,-15594.931,-23469.564,-40871.055
969028.7596201592,-82950.805,-67180.34,-18879.232,22651.693,-49411.867,-15592.733,-23468.832,-40876.02
969028.7636201559,-82954.39,-67182.945,-18880.127,22610.719,-49433.84,-15595.134,-23469.809,-40882.69
969028.7676201526,-82953.45,-67180.99,-18883.3,22577.76,-49439.535,-15598.349,-23468.71,-40879.56
969028.7716201491,-82949.055,-67175.82,-18883.79,22605.957,-49429.28,-15595.947,-23466.105,-40875.652
969028.7756201458,-82956.586,-67187.336,-18885.295,22625.693,-49431.03,-15592.57,-23466.064,-40871.746
969028.7796201425,-82962.69,-67194.3,-18888.63,22617.92,-49443.2,-15592.448,-23472.25,-40880.37
969028.7836201391,-82961.8,-67190.43,-18891.56,22588.34,-49453.125,-15595.581,-23478.271,-40887.004
969028.7876201358,-82957.73,-67183.07,-18893.31,22564.82,-49453.9,-15597.372,-23480.592,-40889.324
969028.7916201324,-82954.63,-67184.29,-18889.568,22602.906,-49444.336,-15596.11,-23479.941,-40885.906
969028.7956201291,-82955.125,-67189.336,-18882.162,22653.402,-49430.258,-15593.506,-23478.354,-40884.24
969028.7996201258,-82962.04,-67194.22,-18881.877,22639.365,-49433.84,-15592.733,-23477.54,-40884.074
969028.8036201224,-82969.36,-67195.44,-18895.875,22590.088,-49442.26,-15593.71,-23477.256,-40882.773
969028.8076201191,-82970.625,-67194.5,-18897.746,22559.531,-49448.285,-15596.965,-23477.133,-40889.363
969028.8116201158,-82964.84,-67192.06,-18895.752,22590.414,-49435.67,-15595.541,-23474.61,-40890.137
969028.8156201123,-82969.93,-67197.92,-18891.887,22637.736,-49427.246,-15590.698,-23475.303,-40889.04
969028.819620109,-82993.086,-67219.36,-18895.508,22621.014,-49443.605,-15588.867,-23475.75,-40884.89
969028.8236201057,-82984.375,-67209.96,-18894.613,22584.27,-49451.945,-15590.658,-23475.83,-40883.3
969028.8276201023,-82955.37,-67179.08,-18887.615,22566.65,-49449.91,-15594.768,-23479.777,-40888.43
969028.831620099,-82956.22,-67179.73,-18887.29,22597.78,-49438.926,-15593.791,-23477.58,-40882.49
969028.8356200956,-82953.62,-67182.05,-18885.336,22650.92,-49423.42,-15592.082,-23480.674,-40885.945
969028.8396200923,-82949.055,-67175.945,-18886.15,22656.414,-49423.34,-15592.611,-23482.992,-40886.883
969028.843620089,-82954.43,-67176.59,-18889.607,22608.154,-49436.08,-15592.978,-23480.266,-40883.547
969028.8476200856,-82955.69,-67174.4,-18892.701,22568.97,-49436.2,-15594.849,-23479.86,-40884.89
969028.8516200823,-82958.26,-67177.984,-18891.033,22587.932,-49430.42,-15592.489,-23479.371,-40888.754
969028.855620079,-82958.375,-67181.84,-18885.213,22640.83,-49419.844,-15589.722,-23479.9,-40891.97
969028.8596200756,-82959.48,-67181.234,-18886.11,22640.992,-49419.516,-15590.82,-23481.975,-40892.824
969028.8636200723,-82962.69,-67180.87,-18889.04,22592.326,-49426.555,-15594.035,-23481.61,-40893.19
969028.867620069,-82959.15,-67181.48,-18888.307,22571.168,-49431.234,-15593.71,-23476.482,-40891.156
969028.8716200655,-82956.1,-67182.66,-18887.207,22593.629,-49431.844,-15590.942,-23471.924,-40885.785
969028.8756200622,-82956.1,-67185.02,-18882.732,22650.066,-49418.457,-15587.199,-23469.523,-40880.94
969028.8796200588,-82956.016,-67183.8,-18878.744,22656.7,-49415.164,-15587.036,-23470.623,-40883.06
969028.8836200555,-82954.555,-67182.74,-18881.023,22600.912,-49427.86,-15590.454,-23474.162,-40887.125
969028.8876200522,-82959.84,-67183.31,-18885.336,22560.508,-49429.973,-15592.733,-23474.691,-40887.492
969028.8916200488,-82959.44,-67184.734,-18890.219,22570.395,-49421.43,-15591.472,-23474.162,-40891.48
969028.8956200455,-82964.36,-67193.89,-18885.865,22625.164,-49409.14,-15587.891,-23476.645,-40893.395
969028.8996200422,-82964.64,-67195.805,-18886.027,22642.66,-49413.656,-15586.508,-23479.412,-40890.79
969028.9036200388,-82959.11,-67192.305,-18887.045,22596.436,-49430.707,-15587.729,-23479.574,-40889.773
969028.9076200355,-82958.21,-67188.27,-18886.598,22576.05,-49425.418,-15590.454,-23481.283,-40892.133
969028.9116200322,-82954.836,-67186.04,-18882.732,22619.67,-49413.008,-15587.6875,-23477.295,-40887.25
969028.9156200287,-82956.1,-67189.375,-18882.771,22663.615,-49406.66,-15583.7,-23474.406,-40886.965
969028.9196200254,-82960.82,-67193.4,-18883.912,22649.537,-49423.3,-15581.909,-23475.871,-40889.12
969028.923620022,-82958.945,-67192.22,-18888.143,22599.285,-49446.29,-15583.984,-23476.889,-40887.207
969028.9276200187,-82958.7,-67190.72,-18892.742,22568.441,-49451.703,-15585.124,-23478.11,-40890.098
969028.9316200154,-82958.74,-67188.516,-18893.799,22587.443,-49436.89,-15582.397,-23477.621,-40893.027
969028.935620012,-82957.12,-67190.92,-18889.73,22633.139,-49420.613,-15579.55,-23476.807,-40895.754
969028.9396200087,-82958.82,-67194.46,-18889.934,22619.629,-49431.113,-15580.526,-23479.574,-40901.773
969028.9436200054,-82963.83,-67194.79,-18890.87,22588.46,-49443.24,-15582.968,-23478.924,-40891.48
969028.947620002,-82965.58,-67190.8,-18891.357,22570.842,-49449.668,-15583.496,-23473.553,-40877.035
969028.9516199987,-82964.52,-67192.016,-18889.648,22610.922,-49437.703,-15578.451,-23465.455,-40861.043
969028.9556199952,-82959.31,-67194.3,-18881.633,22664.389,-49416.914,-15576.538,-23466.432,-40877.2
969028.959619992,-82959.8,-67192.836,-18881.227,22663.047,-49416.992,-15578.085,-23468.223,-40877.28
969028.9636199886,-82963.14,-67193.32,-18885.213,22623.21,-49436.28,-15580.119,-23468.994,-40870.77
969028.9676199852,-82961.59,-67188.31,-18892.742,22594.932,-49441.406,-15581.828,-23471.314,-40873.047
969028.9716199819,-82961.19,-67186.61,-18887.166,22629.111,-49426.758,-15580.241,-23472.941,-40873.008
969028.9756199786,-82962.484,-67187.18,-18889.527,22657.432,-49408.406,-15579.265,-23475.342,-40876.508
969028.9796199752,-82965.45,-67187.26,-18890.87,22633.342,-49423.79,-15579.55,-23478.639,-40885.297
969028.9836199719,-82973.31,-67190.63,-18894.002,22587.158,-49436.89,-15581.462,-23481.08,-40887.125
969028.9876199686,-82974.04,-67189.086,-18898.396,22570.232,-49443.28,-15585.693,-23482.91,-40892.418
969028.9916199652,-82967.57,-67185.95,-18897.625,22629.314,-49428.793,-15584.799,-23483.969,-40896.402
969028.9956199619,-82970.22,-67189.78,-18894.287,22675.293,-49413.086,-15582.397,-23484.863,-40899.375
969028.9996199585,-82976.89,-67191.94,-18892.375,22660.564,-49413.21,-15583.7,-23487.184,-40905.76
969029.0036199552,-82974.164,-67190.39,-18891.56,22616.578,-49426.027,-15585.815,-23488.201,-40907.473
969029.0076199519,-82970.42,-67185.23,-18893.799,22562.95,-49432.863,-15587.524,-23488.69,-40902.06
969029.0116199484,-82971.27,-67186.24,-18893.19,22591.432,-49420.98,-15583.171,-23483.848,-40894.043
969029.0156199451,-82965.05,-67185.34,-18884.766,22649.781,-49405.64,-15577.759,-23481.527,-40890.22
969029.0196199418,-82963.95,-67187.83,-18885.986,22642.334,-49405.6,-15578.573,-23488.607,-40897.543
969029.0236199384,-82969.93,-67191.61,-18890.422,22607.871,-49414.31,-15583.578,-23494.467,-40899.945
969029.0276199351,-82961.67,-67181.4,-18891.684,22582.113,-49411.867,-15588.867,-23491.781,-40892.824
969029.0316199318,-82968.34,-67184.66,-18892.457,22603.11,-49401.043,-15586.508,-23488.934,-40892.496
969029.0356199284,-82971.36,-67188.11,-18889.242,22655.03,-49392.375,-15580.811,-23484.904,-40891.316
969029.0396199251,-82972.945,-67189.414,-18888.916,22650.799,-49398.316,-15577.597,-23481.61,-40883.914
969029.0436199217,-82975.34,-67185.34,-18892.172,22604.656,-49407.676,-15579.102,-23482.178,-40882.938
969029.0476199184,-82972.375,-67180.664,-18897.258,22580.934,-49410.035,-15580.078,-23484.254,-40888.31
969029.0516199151,-82967.9,-67183.02,-18895.02,22616.863,-49397.383,-15577.353,-23481.812,-40887.656
969029.0556199116,-82973.88,-67190.19,-18898.438,22642.863,-49394.734,-15572.795,-23479.004,-40885.05
969029.0596199083,-82976.04,-67192.22,-18895.59,22626.303,-49407.96,-15573.568,-23483.36,-40892.418
969029.063619905,-82973.39,-67188.48,-18897.176,22593.832,-49414.145,-15578.41,-23484.498,-40887.29
969029.0676199016,-82970.75,-67184.82,-18897.87,22568.848,-49416.547,-15582.357,-23485.434,-40888.67
969029.0716198983,-82970.42,-67186.0,-18894.654,22605.225,-49405.438,-15580.893,-23484.783,-40892.09
969029.075619895,-82973.88,-67193.195,-18892.457,22663.78,-49397.83,-15576.416,-23485.393,-40895.145
969029.0796198916,-82975.586,-67196.17,-18891.766,22655.355,-49410.89,-15574.748,-23486.613,-40890.87
969029.0836198883,-82981.164,-67195.88,-18898.072,22597.78,-49421.47,-15576.498,-23489.219,-40886.027
969029.0876198849,-82981.445,-67192.75,-18901.814,22562.42,-49421.1,-15575.195,-23488.525,-40892.008
969029.0916198816,-82975.305,-67189.01,-18899.414,22593.223,-49407.15,-15573.324,-23486.29,-40891.684
969029.0956198783,-82971.44,-67189.58,-18891.236,22650.39,-49393.84,-15571.371,-23487.51,-40893.434
969029.0996198748,-82973.06,-67192.42,-18891.072,22641.357,-49404.5,-15573.202,-23493.002,-40900.15
969029.1036198715,-82974.41,-67188.234,-18897.584,22599.121,-49418.336,-15577.759,-23496.379,-40900.35
969029.1076198682,-82976.28,-67190.47,-18899.822,22577.027,-49422.934,-15577.759,-23494.385,-40895.754
969029.1116198648,-82979.21,-67192.14,-18904.256,22592.082,-49414.754,-15574.382,-23491.781,-40893.92
969029.1156198615,-82983.805,-67195.11,-18902.182,22645.143,-49407.715,-15570.435,-23491.375,-40903.2
969029.1196198582,-82985.07,-67193.445,-18899.578,22644.451,-49413.332,-15569.214,-23491.375,-40902.47
969029.1236198548,-82984.83,-67191.61,-18896.037,22596.762,-49430.586,-15572.021,-23491.252,-40895.02
969029.1276198515,-82976.65,-67183.35,-18895.223,22571.941,-49435.26,-15574.504,-23488.16,-40889.0
969029.1316198481,-82970.83,-67180.38,-18892.498,22617.025,-49412.8,-15572.592,-23482.3,-40884.195
969029.1356198448,-82971.56,-67185.47,-18884.93,22675.822,-49395.43,-15569.824,-23479.492,-40877.77
969029.1396198415,-82978.15,-67192.06,-18888.998,22660.768,-49408.164,-15569.702,-23481.895,-40878.297
969029.143619838,-82979.25,-67191.61,-18889.607,22609.945,-49422.934,-15572.592,-23487.672,-40880.574
969029.1476198348,-82979.86,-67189.414,-18892.986,22570.557,-49429.77,-15573.69,-23490.52,-40885.785
969029.1516198314,-82983.16,-67190.39,-18892.09,22589.355,-49423.383,-15571.086,-23492.799,-40906.78
969029.155619828,-82983.56,-67191.53,-18887.777,22645.264,-49409.426,-15567.546,-23491.172,-40904.215
969029.1596198247,-82984.09,-67192.42,-18893.19,22641.521,-49412.56,-15566.936,-23489.746,-40899.457
969029.1636198214,-82982.55,-67191.04,-18893.393,22597.494,-49422.85,-15569.784,-23491.578,-40909.953
969029.167619818,-82976.73,-67186.36,-18893.637,22582.113,-49419.19,-15571.249,-23490.154,-40908.895
969029.1716198147,-82971.234,-67182.78,-18891.969,22618.734,-49403.523,-15568.93,-23487.428,-40907.473
969029.1756198113,-82972.375,-67185.914,-18888.225,22669.027,-49394.004,-15563.925,-23486.125,-40906.25
969029.179619808,-82975.06,-67187.625,-18887.166,22656.861,-49407.105,-15564.86,-23488.73,-40905.68
969029.1836198047,-82977.664,-67184.05,-18890.545,22591.676,-49431.52,-15569.092,-23490.684,-40905.64
969029.1876198013,-82977.7,-67182.21,-18891.725,22559.49,-49436.89,-15569.174,-23487.469,-40899.54
969029.191619798,-82978.766,-67183.63,-18889.242,22598.105,-49418.01,-15564.86,-23484.66,-40901.246
969029.1956197947,-82977.016,-67185.47,-18883.342,22658.285,-49402.02,-15560.181,-23480.877,-40897.867
969029.1996197912,-82973.35,-67182.66,-18879.559,22649.455,-49408.938,-15561.076,-23480.225,-40899.13
969029.2036197879,-82971.03,-67178.47,-18882.324,22605.43,-49414.31,-15563.3955,-23476.604,-40892.375
969029.2076197846,-82968.18,-67174.03,-18883.18,22585.166,-49411.664,-15564.453,-23473.43,-40887.453
969029.2116197812,-82971.93,-67175.26,-18883.098,22613.77,-49407.715,-15562.785,-23472.088,-40886.965
969029.2156197779,-82980.1,-67184.9,-18883.22,22652.508,-49406.25,-15559.367,-23472.78,-40895.67
969029.2196197745,-82981.57,-67189.414,-18880.9,22642.13,-49416.26,-15558.96,-23477.865,-40906.535
969029.2236197712,-82985.234,-67190.39,-18889.04,22603.68,-49433.637,-15559.164,-23477.783,-40907.555
969029.2276197679,-82986.49,-67186.85,-18890.219,22577.027,-49443.402,-15561.768,-23479.453,-40907.473
969029.2316197645,-82982.1,-67184.25,-18889.486,22617.107,-49427.656,-15561.198,-23477.662,-40904.582
969029.2356197612,-82975.14,-67184.86,-18883.3,22666.3,-49407.227,-15554.892,-23471.965,-40898.277
969029.2396197579,-82978.234,-67184.49,-18883.383,22650.31,-49417.727,-15554.565,-23470.5,-40896.77
969029.2436197544,-82983.56,-67186.52,-18887.045,22596.273,-49436.402,-15557.373,-23471.436,-40900.23
969029.2476197511,-82982.18,-67184.9,-18889.16,22560.303,-49443.93,-15558.228,-23472.373,-40906.78
969029.2516197477,-82982.305,-67184.29,-18888.307,22600.994,-49437.543,-15556.152,-23472.78,-40905.64
969029.2556197444,-82987.35,-67190.31,-18882.936,22660.93,-49422.363,-15550.578,-23470.744,-40897.992
969029.2596197411,-82988.484,-67192.14,-18888.836,22652.467,-49427.734,-15551.88,-23476.482,-40903.484
969029.2636197377,-82988.08,-67189.91,-18893.475,22611.084,-49438.234,-15556.315,-23482.463,-40909.793
969029.2676197344,-82987.914,-67187.26,-18896.566,22590.861,-49442.832,-15557.902,-23478.191,-40902.47
969029.2716197311,-82985.72,-67185.75,-18895.955,22617.066,-49437.215,-15555.339,-23475.018,-40907.227
969029.2756197277,-82982.34,-67185.71,-18890.828,22661.297,-49415.73,-15550.781,-23474.691,-40906.293
969029.2796197244,-82978.97,-67181.44,-18890.666,22650.84,-49420.25,-15551.677,-23475.059,-40899.902
969029.2836197211,-82979.29,-67180.34,-18889.527,22600.668,-49437.176,-15552.653,-23475.424,-40902.344
969029.2876197177,-82979.58,-67180.22,-18892.293,22577.23,-49443.36,-15553.061,-23471.64,-40898.52
969029.2916197143,-82983.766,-67184.98,-18889.04,22608.604,-49436.89,-15550.415,-23469.158,-40900.96
969029.2956197109,-82985.68,-67188.6,-18889.242,22647.746,-49427.043,-15546.794,-23468.467,-40900.188
969029.2996197076,-82989.18,-67190.76,-18887.371,22638.307,-49428.145,-15547.974,-23471.518,-40898.52
969029.3036197043,-82989.18,-67191.734,-18887.615,22583.172,-49445.438,-15550.009,-23471.844,-40901.773
969029.3076197009,-82989.99,-67193.766,-18887.615,22559.611,-49458.78,-15551.107,-23473.797,-40914.754
969029.3116196976,-82985.4,-67192.836,-18888.672,22608.562,-49445.07,-15549.194,-23472.738,-40906.453
969029.3156196943,-82986.53,-67196.49,-18888.143,22663.127,-49429.65,-15545.736,-23473.145,-40918.094
969029.3196196909,-82993.164,-67198.28,-18892.416,22645.387,-49439.984,-15547.241,-23476.318,-40922.69
969029.3236196876,-82995.484,-67193.484,-18895.59,22588.217,-49454.184,-15550.334,-23478.557,-40917.645
969029.3276196843,-82993.86,-67191.33,-18899.74,22541.953,-49463.79,-15552.653,-23479.492,-40918.703
969029.3316196809,-82991.375,-67191.734,-18898.438,22573.975,-49447.88,-15549.438,-23478.436,-40916.832
969029.3356196776,-82989.99,-67195.31,-18892.498,22647.422,-49433.637,-15544.597,-23474.326,-40909.914
969029.3396196741,-82989.34,-67197.92,-18890.422,22650.107,-49439.984,-15546.631,-23478.068,-40909.344
969029.3436196708,-82990.6,-67200.69,-18895.549,22610.922,-49448.61,-15551.066,-23479.777,-40909.26
969029.3476196675,-82992.19,-67200.97,-18898.885,22587.81,-49451.133,-15550.903,-23476.848,-40908.164
969029.3516196641,-82988.04,-67195.68,-18899.049,22604.736,-49437.543,-15548.91,-23476.523,-40915.49
969029.3556196608,-82988.164,-67198.24,-18895.955,22651.938,-49427.043,-15543.498,-23475.627,-40912.438
969029.3596196575,-82989.914,-67201.91,-18895.06,22635.54,-49444.867,-15541.748,-23474.447,-40906.94
969029.3636196541,-82987.555,-67197.76,-18894.002,22582.398,-49460.125,-15542.44,-23475.75,-40906.902
969029.3676196508,-82984.74,-67193.04,-18893.555,22572.062,-49458.293,-15543.173,-23475.18,-40901.164
969029.3716196475,-82989.46,-67197.72,-18895.102,22601.36,-49452.637,-15543.579,-23475.22,-40899.54
969029.3756196441,-82992.88,-67201.01,-18891.154,22654.664,-49444.01,-15542.358,-23480.55,-40911.418
969029.3796196408,-82994.23,-67203.164,-18892.293,22646.607,-49455.527,-15544.516,-23485.88,-40921.348
969029.3836196373,-82999.15,-67204.875,-18893.719,22594.117,-49468.67,-15550.212,-23492.31,-40931.152
969029.387619634,-82995.65,-67197.96,-18897.46,22577.11,-49468.344,-15549.805,-23489.707,-40930.258
969029.3916196307,-82986.82,-67192.914,-18894.37,22611.125,-49446.29,-15543.417,-23481.121,-40921.1
969029.3956196273,-82989.016,-67197.305,-18891.154,22646.037,-49438.723,-15536.052,-23479.656,-40923.992
969029.399619624,-82993.414,-67202.15,-18888.998,22647.99,-49443.727,-15534.099,-23476.238,-40918.336
969029.4036196207,-82991.58,-67199.75,-18889.73,22611.248,-49453.492,-15535.849,-23474.814,-40919.516
969029.4076196173,-82987.305,-67196.82,-18897.46,22567.709,-49460.777,-15538.127,-23473.43,-40917.156
969029.411619614,-82988.24,-67196.9,-18895.508,22605.836,-49449.14,-15536.337,-23472.535,-40917.4
969029.4156196107,-82988.33,-67199.38,-18890.545,22643.31,-49442.914,-15532.919,-23472.656,-40920.613
969029.4196196073,-82988.98,-67199.586,-18890.504,22636.516,-49459.188,-15534.628,-23474.0,-40917.24
969029.423619604,-82988.24,-67196.29,-18893.678,22605.795,-49468.71,-15539.104,-23476.97,-40913.86
969029.4276196006,-82987.305,-67192.34,-18898.357,22566.57,-49469.484,-15542.766,-23481.201,-40924.44
969029.4316195972,-82984.09,-67190.88,-18900.066,22609.375,-49450.727,-15539.836,-23477.418,-40924.277
969029.435619594,-82984.5,-67195.4,-18894.654,22662.191,-49439.453,-15532.1045,-23470.012,-40915.57
969029.4396195905,-82986.01,-67196.125,-18890.828,22639.283,-49447.797,-15531.088,-23469.89,-40911.05
969029.4436195872,-82984.664,-67193.97,-18893.88,22592.123,-49463.867,-15534.506,-23471.477,-40919.11
969029.4476195839,-82984.46,-67193.16,-18899.984,22554.852,-49473.27,-15536.703,-23468.059,-40911.62
969029.4516195805,-82984.01,-67193.52,-18898.602,22593.344,-49460.29,-15536.011,-23466.105,-40912.438
969029.4556195772,-82984.09,-67194.87,-18894.207,22654.95,-49437.785,-15535.727,-23470.297,-40916.953
969029.4596195739,-82990.03,-67198.164,-18893.393,22652.996,-49444.133,-15536.174,-23474.365,-40910.645
969029.4636195705,-82993.414,-67195.88,-18900.758,22609.213,-49463.83,-15539.104,-23479.9,-40929.73
969029.4676195672,-82990.73,-67191.57,-18903.076,22578.33,-49473.758,-15542.44,-23480.877,-40933.473
969029.4716195638,-82990.44,-67194.055,-18903.484,22605.674,-49456.91,-15539.0625,-23476.768,-40925.66
969029.4756195605,-82997.93,-67200.97,-18900.838,22644.695,-49451.945,-15534.912,-23475.303,-40927.29
969029.4796195572,-82999.31,-67203.9,-18899.7,22637.29,-49458.863,-15533.977,-23478.516,-40929.812
969029.4836195537,-83000.086,-67202.92,-18905.396,22588.135,-49472.414,-15536.133,-23478.883,-40927.652
969029.4876195504,-82998.62,-67199.586,-18908.326,22562.217,-49477.094,-15536.011,-23474.488,-40925.05
969029.4916195471,-82998.01,-67196.25,-18906.738,22608.604,-49453.453,-15534.221,-23474.203,-40928.14
969029.4956195437,-82997.36,-67197.47,-18901.775,22666.139,-49432.54,-15530.722,-23473.064,-40930.707
969029.4996195404,-82999.19,-67201.42,-18901.938,22648.357,-49447.062,-15532.471,-23474.203,-40926.92
969029.5036195371,-83003.79,-67204.47,-18906.414,22590.658,-49470.5,-15536.337,-23478.271,-40929.402
969029.5076195337,-83003.38,-67203.66,-18907.35,22555.46,-49471.965,-15537.313,-23478.027,-40927.734
969029.5116195304,-83002.08,-67202.48,-18906.738,22597.25,-49451.254,-15534.018,-23476.482,-40926.15
969029.515619527,-83003.3,-67207.28,-18901.734,22659.344,-49435.996,-15531.86,-23477.5,-40930.867
969029.5196195237,-83005.984,-67205.2,-18903.973,22651.367,-49446.492,-15532.675,-23479.209,-40929.527
969029.5236195204,-83003.5,-67200.195,-18906.088,22592.734,-49458.254,-15534.14,-23479.656,-40927.207
969029.527619517,-83002.52,-67195.92,-18909.262,22561.28,-49463.707,-15536.947,-23477.947,-40924.723
969029.5316195136,-83005.05,-67198.695,-18908.773,22593.385,-49451.945,-15536.255,-23475.83,-40920.9
969029.5356195103,-83001.38,-67198.94,-18902.467,22656.658,-49434.938,-15532.309,-23473.797,-40926.96
969029.5396195069,-83002.32,-67198.33,-18901.205,22648.234,-49436.688,-15531.169,-23472.129,-40920.41
969029.5436195036,-83004.72,-67198.81,-18905.477,22599.447,-49450.277,-15533.163,-23474.854,-40922.73
969029.5476195002,-83006.35,-67196.74,-18909.668,22573.895,-49455.527,-15535.686,-23476.97,-40923.258
969029.5516194969,-83006.63,-67199.18,-18907.146,22595.664,-49441.0,-15532.797,-23473.797,-40915.406
969029.5556194936,-83009.6,-67207.44,-18903.28,22656.7,-49430.586,-15529.582,-23476.4,-40917.81
969029.5596194902,-83014.77,-67209.76,-18901.326,22635.54,-49439.58,-15532.634,-23485.312,-40929.973
969029.5636194869,-83010.055,-67204.96,-18901.367,22580.69,-49454.43,-15536.133,-23485.148,-40925.336
969029.5676194836,-83007.57,-67199.34,-18905.355,22563.07,-49460.938,-15536.337,-23480.266,-40916.344
969029.5716194801,-83001.875,-67197.516,-18901.896,22587.81,-49444.95,-15533.041,-23475.139,-40920.41
969029.5756194768,-83000.53,-67199.79,-18895.793,22657.635,-49423.098,-15526.896,-23472.535,-40919.15
969029.5796194735,-83005.01,-67203.734,-18893.758,22656.82,-49431.723,-15526.205,-23476.035,-40925.418
969029.5836194701,-83009.12,-67203.01,-18901.326,22604.9,-49452.19,-15528.198,-23475.871,-40914.676
969029.5876194668,-83009.08,-67201.21,-18906.902,22568.889,-49458.54,-15530.355,-23476.4,-40920.207
969029.5916194634,-83008.625,-67201.5,-18907.064,22595.053,-49451.863,-15527.873,-23473.959,-40931.03
969029.5956194601,-83010.54,-67204.43,-18902.467,22652.14,-49437.46,-15523.031,-23469.361,-40919.56
969029.5996194568,-83012.25,-67206.625,-18902.67,22644.125,-49445.07,-15523.031,-23470.908,-40912.273
969029.6036194534,-83005.375,-67199.55,-18903.24,22593.344,-49456.098,-15526.733,-23477.012,-40929.2
969029.6076194501,-82999.15,-67191.49,-18903.035,22584.678,-49452.68,-15529.785,-23477.256,-40926.92
969029.6116194468,-82996.7,-67191.2,-18900.229,22608.928,-49440.51,-15527.588,-23475.791,-40919.35
969029.6156194434,-82997.6,-67198.24,-18897.787,22653.443,-49422.08,-15524.17,-23477.865,-40918.863
969029.61961944,-83002.484,-67201.664,-18901.734,22633.18,-49433.96,-15526.286,-23480.998,-40922.69
969029.6236194368,-83008.266,-67197.39,-18903.688,22582.887,-49454.918,-15530.681,-23482.586,-40924.887
969029.6276194333,-83009.89,-67195.4,-18900.066,22568.115,-49458.418,-15532.634,-23481.812,-40922.934
969029.63161943,-83003.91,-67191.53,-18902.914,22605.021,-49435.508,-15531.372,-23479.492,-40920.25
969029.6356194266,-83006.8,-67195.234,-18900.676,22668.174,-49420.004,-15526.001,-23476.93,-40915.49
969029.6396194233,-83012.945,-67202.15,-18902.02,22670.654,-49431.887,-15526.611,-23480.795,-40920.453
969029.64361942,-83018.48,-67205.98,-18908.367,22599.691,-49454.266,-15530.07,-23483.643,-40920.777
969029.6476194166,-83012.29,-67201.984,-18910.28,22559.205,-49457.36,-15528.239,-23480.998,-40918.824
969029.6516194133,-83008.305,-67198.445,-18906.291,22597.576,-49442.02,-15523.601,-23480.104,-40923.746
969029.65561941,-83009.89,-67198.24,-18906.088,22646.24,-49427.33,-15519.613,-23480.062,-40928.59
969029.6596194066,-83008.305,-67195.68,-18903.28,22639.527,-49429.973,-15519.491,-23481.69,-40936.402
969029.6636194033,-83005.336,-67192.75,-18904.46,22601.441,-49443.32,-15523.031,-23479.9,-40935.71
969029.6676194,-83001.38,-67189.7,-18904.785,22563.438,-49445.395,-15524.374,-23477.459,-40926.473
969029.6716193965,-82996.34,-67186.484,-18900.229,22598.756,-49425.863,-15520.305,-23472.982,-40920.94
969029.6756193932,-82995.77,-67189.336,-18894.287,22665.04,-49411.664,-15514.608,-23465.82,-40907.676
969029.6796193898,-82997.12,-67191.734,-18890.057,22652.02,-49425.54,-15515.178,-23465.455,-40903.605
969029.6836193865,-82999.15,-67190.47,-18894.37,22600.547,-49443.93,-15518.433,-23468.914,-40908.246
969029.6876193832,-83000.86,-67191.164,-18900.39,22569.541,-49448.12,-15519.287,-23468.467,-40909.508
969029.6916193798,-83003.54,-67192.67,-18902.955,22603.395,-49432.742,-15517.741,-23468.75,-40908.69
969029.6956193765,-83006.836,-67193.97,-18904.46,22658.164,-49426.72,-15514.526,-23470.256,-40908.977
969029.6996193732,-83006.02,-67192.14,-18907.715,22646.12,-49437.137,-15517.131,-23474.61,-40914.676
969029.7036193698,-83005.336,-67185.75,-18910.809,22594.035,-49436.363,-15523.275,-23478.516,-40921.633
969029.7076193665,-83008.51,-67185.75,-18913.656,22566.488,-49437.34,-15525.595,-23475.791,-40918.99
969029.7116193632,-83025.68,-67206.625,-18917.725,22602.988,-49428.426,-15519.857,-23469.523,-40919.312
969029.7156193597,-83030.44,-67216.836,-18914.227,22663.412,-49418.297,-15513.916,-23465.74,-40917.93
969029.7196193564,-82997.03,-67186.41,-18905.314,22656.414,-49420.25,-15517.131,-23471.762,-40919.84
969029.723619353,-82998.25,-67182.5,-18906.129,22606.162,-49437.38,-15520.956,-23479.371,-40928.71
969029.7276193497,-83015.51,-67204.23,-18909.262,22560.873,-49461.266,-15519.897,-23476.93,-40922.61
969029.7316193464,-83022.46,-67210.29,-18909.627,22589.355,-49449.75,-15518.433,-23474.203,-40914.47
969029.735619343,-83023.36,-67215.13,-18906.129,22646.729,-49427.613,-15515.585,-23474.57,-40912.11
969029.7396193397,-83022.95,-67213.99,-18903.117,22641.807,-49433.027,-15517.09,-23480.104,-40909.75
969029.7436193364,-83028.65,-67215.17,-18909.18,22602.906,-49438.64,-15521.484,-23483.36,-40918.215
969029.747619333,-83033.41,-67217.695,-18912.8,22571.33,-49435.02,-15523.764,-23482.342,-40917.645
969029.7516193297,-83033.61,-67219.16,-18909.75,22606.812,-49423.34,-15520.915,-23481.69,-40926.758
969029.7556193264,-83031.375,-67218.79,-18907.959,22657.676,-49413.21,-15516.5205,-23483.074,-40933.72
969029.759619323,-83032.19,-67221.234,-18907.918,22635.865,-49437.34,-15516.724,-23482.139,-40925.863
969029.7636193197,-83029.664,-67216.39,-18910.97,22582.275,-49449.504,-15519.9795,-23481.201,-40925.17
969029.7676193162,-83026.37,-67208.87,-18911.5,22548.748,-49446.777,-15521.484,-23475.668,-40921.875
969029.7716193129,-83023.64,-67207.89,-18907.715,22586.387,-49423.504,-15518.433,-23468.791,-40916.016
969029.7756193096,-83025.64,-67216.96,-18903.24,22644.492,-49409.668,-15515.137,-23469.85,-40921.062
969029.7796193062,-83029.46,-67220.54,-18902.832,22646.69,-49418.133,-15515.178,-23471.232,-40920.98
969029.7836193029,-83029.625,-67220.38,-18904.46,22604.941,-49444.746,-15518.188,-23473.145,-40920.777
969029.7876192996,-83035.32,-67224.77,-18909.424,22571.494,-49453.613,-15520.712,-23472.332,-40912.395
969029.7916192962,-83032.76,-67222.29,-18910.482,22601.238,-49435.63,-15517.741,-23476.93,-40926.676
969029.7956192929,-83033.086,-67225.625,-18904.623,22641.684,-49427.207,-15512.614,-23477.05,-40928.02
969029.7996192896,-83037.97,-67231.41,-18908.53,22615.602,-49428.062,-15512.777,-23475.791,-40919.07
969029.8036192862,-83038.74,-67230.76,-18911.459,22569.256,-49434.082,-15513.998,-23476.441,-40916.992
969029.8076192829,-83038.78,-67226.81,-18913.045,22563.314,-49434.285,-15515.137,-23475.424,-40916.547
969029.8116192794,-83035.65,-67226.32,-18913.453,22601.197,-49415.45,-15512.329,-23471.72,-40915.73
969029.8156192761,-83033.2,-67227.83,-18910.32,22659.873,-49403.81,-15509.074,-23470.541,-40921.305
969029.8196192728,-83035.61,-67227.336,-18909.75,22659.506,-49410.523,-15510.661,-23472.941,-40918.094
969029.8236192694,-83039.63,-67225.71,-18913.86,22604.086,-49429.934,-15515.137,-23478.271,-40927.9
969029.8276192661,-83043.5,-67225.18,-18919.719,22568.727,-49438.844,-15517.944,-23476.562,-40926.555
969029.8316192628,-83041.14,-67224.086,-18916.18,22601.318,-49420.9,-15514.486,-23471.6,-40919.84
969029.8356192594,-83039.63,-67227.5,-18908.855,22655.03,-49406.047,-15508.871,-23469.402,-40915.49
969029.8396192561,-83041.22,-67227.87,-18907.023,22656.17,-49411.785,-15508.586,-23471.924,-40911.01
969029.8436192527,-83041.42,-67222.13,-18908.691,22607.057,-49418.703,-15513.103,-23475.668,-40918.418
969029.8476192494,-83038.78,-67217.695,-18909.588,22558.799,-49417.727,-15516.113,-23474.203,-40918.742
969029.8516192461,-83042.93,-67223.39,-18910.482,22591.025,-49409.668,-15513.184,-23471.965,-40916.707
969029.8556192426,-83064.82,-67244.71,-18916.26,22636.924,-49416.668,-15509.115,-23475.18,-40919.72
969029.8596192393,-83078.01,-67259.16,-18915.447,22634.4,-49429.73,-15509.807,-23477.58,-40918.785
969029.863619236,-83053.19,-67239.016,-18906.658,22589.355,-49436.2,-15514.934,-23483.643,-40930.46
969029.8676192326,-83033.86,-67216.35,-18911.865,22551.066,-49432.457,-15517.782,-23484.742,-40925.824
969029.8716192293,-83048.22,-67230.8,-18917.115,22587.24,-49413.414,-15514.364,-23477.58,-40907.145
969029.875619226,-83048.71,-67237.266,-18909.832,22641.643,-49407.918,-15508.342,-23475.912,-40904.99
969029.8796192226,-83048.34,-67238.24,-18904.094,22630.656,-49426.96,-15509.929,-23481.324,-40930.504
969029.8836192193,-83057.21,-67240.32,-18906.209,22575.521,-49441.773,-15513.591,-23487.102,-40944.133
969029.8876192159,-83060.75,-67240.69,-18908.773,22554.078,-49436.605,-15514.12,-23485.23,-40938.152
969029.8916192126,-83056.97,-67239.42,-18906.617,22606.365,-49424.848,-15509.5625,-23480.592,-40932.863
969029.8956192093,-83058.72,-67243.49,-18903.2,22665.812,-49409.426,-15504.11,-23476.848,-40925.984
969029.8996192059,-83058.76,-67244.34,-18904.176,22649.496,-49410.848,-15506.877,-23483.074,-40935.508
969029.9036192026,-83060.43,-67247.88,-18908.367,22584.393,-49433.066,-15510.132,-23483.115,-40929.242
969029.9076191992,-83063.44,-67247.766,-18912.11,22552.49,-49440.145,-15510.295,-23480.225,-40923.91
969029.9116191958,-83060.75,-67246.26,-18909.547,22594.117,-49436.2,-15505.859,-23475.506,-40922.12
969029.9156191925,-83059.125,-67248.78,-18904.256,22641.602,-49426.758,-15502.686,-23474.61,-40924.113
969029.9196191892,-83056.73,-67247.36,-18902.264,22638.348,-49434.695,-15503.174,-23475.262,-40919.637
969029.9236191858,-83057.5,-67246.34,-18906.129,22594.035,-49451.62,-15504.761,-23475.627,-40920.574
969029.9276191825,-83055.26,-67241.414,-18909.1,22569.459,-49455.527,-15505.046,-23473.797,-40916.707
969029.9316191791,-83053.76,-67242.76,-18906.861,22615.398,-49443.402,-15500.61,-23470.012,-40913.86
969029.9356191758,-83057.17,-67246.055,-18903.117,22663.047,-49432.457,-15496.216,-23468.71,-40922.73
969029.9396191725,-83059.33,-67245.85,-18902.059,22648.682,-49445.64,-15496.094,-23467.693,-40920.86
969029.9436191691,-83061.57,-67246.42,-18902.426,22583.822,-49460.734,-15498.495,-23467.164,-40919.07
969029.9476191658,-83056.195,-67240.484,-18904.053,22555.664,-49456.746,-15499.675,-23465.332,-40917.117
969029.9516191625,-83052.66,-67239.42,-18907.635,22600.791,-49441.203,-15497.925,-23462.688,-40911.62
969029.955619159,-83054.41,-67244.75,-18907.268,22665.488,-49425.824,-15496.745,-23467.205,-40922.28
969029.9596191557,-83058.07,-67249.836,-18907.309,22655.152,-49435.957,-15498.739,-23474.0,-40931.234
969029.9636191524,-83060.1,-67247.07,-18910.156,22593.506,-49452.19,-15501.018,-23474.814,-40926.883
969029.967619149,-83057.7,-67236.78,-18912.232,22556.926,-49460.492,-15502.238,-23471.355,-40919.883
969029.9716191457,-83057.74,-67237.59,-18908.203,22585.043,-49449.42,-15499.228,-23466.758,-40913.332
969029.9756191423,-83056.195,-67240.73,-18902.1,22641.643,-49433.27,-15494.426,-23462.402,-40902.47
969029.979619139,-83052.33,-67237.23,-18896.932,22646.322,-49432.863,-15492.27,-23461.793,-40905.68
969029.9836191357,-83056.93,-67239.55,-18902.182,22587.81,-49455.73,-15495.443,-23465.74,-40911.46
969029.9876191323,-83055.38,-67238.61,-18908.855,22555.217,-49463.992,-15495.646,-23463.787,-40905.234
969029.991619129,-83051.15,-67237.96,-18906.82,22597.82,-49445.152,-15490.845,-23459.678,-40903.973
969029.9956191257,-83053.266,-67241.5,-18902.02,22650.432,-49433.676,-15487.59,-23460.084,-40909.18
969029.9996191222,-83058.76,-67243.94,-18901.287,22625.041,-49444.01,-15490.194,-23464.64,-40909.383
969030.003619119,-83058.92,-67239.83,-18900.31,22572.389,-49466.72,-15493.856,-23467.896,-40913.37
969030.0076191156,-83055.55,-67236.414,-18904.582,22556.152,-49461.02,-15495.321,-23465.049,-40905.52
969030.0116191122,-83055.26,-67236.734,-18906.576,22601.645,-49437.46,-15493.815,-23461.143,-40901.367
969030.0156191089,-83055.79,-67241.87,-18901.082,22651.734,-49432.13,-15491.699,-23464.6,-40914.676
969030.0196191055,-83055.71,-67242.44,-18899.7,22633.586,-49446.086,-15491.496,-23467.123,-40916.42
969030.0236191022,-83054.08,-67239.75,-18900.92,22584.678,-49461.184,-15494.548,-23467.246,-40917.035
969030.0276190989,-83052.66,-67236.414,-18902.223,22549.602,-49468.465,-15497.192,-23468.303,-40917.727
969030.0316190955,-83050.945,-67236.21,-18898.64,22612.713,-49444.664,-15496.501,-23465.861,-40906.332
969030.0356190922,-83051.44,-67242.31,-18895.59,22671.143,-49430.79,-15495.6875,-23463.867,-40910.562
969030.0396190889,-83057.13,-67245.85,-18898.967,22652.467,-49446.047,-15497.152,-23469.605,-40929.812
969030.0436190855,-83063.68,-67245.65,-18907.023,22592.814,-49466.72,-15499.756,-23471.273,-40925.824
969030.0476190822,-83067.75,-67248.54,-18912.312,22550.13,-49480.023,-15501.221,-23472.209,-40928.67
969030.0516190788,-83064.82,-67248.3,-18909.262,22602.58,-49457.113,-15497.519,-23470.053,-40928.996
969030.0556190754,-83063.64,-67249.02,-18903.688,22655.559,-49437.625,-15494.263,-23470.744,-40926.8
969030.0596190721,-83064.82,-67248.984,-18902.059,22640.137,-49443.402,-15492.839,-23469.2,-40911.05
969030.0636190687,-83062.55,-67243.98,-18903.646,22596.477,-49455.73,-15495.443,-23470.297,-40916.098
969030.0676190654,-83061.98,-67240.484,-18906.617,22573.324,-49461.305,-15496.054,-23472.25,-40933.023
969030.0716190621,-83064.17,-67239.46,-18910.645,22609.824,-49445.516,-15492.554,-23468.71,-40930.46
969030.0756190587,-83064.086,-67243.2,-18908.447,22647.46,-49434.004,-15489.868,-23470.664,-40936.32
969030.0796190554,-83069.42,-67248.58,-18910.197,22625.814,-49450.035,-15493.449,-23475.506,-40940.105
969030.0836190521,-83083.945,-67263.51,-18914.592,22586.182,-49475.547,-15494.67,-23473.715,-40934.41
969030.0876190487,-83100.63,-67282.43,-18917.889,22568.156,-49478.598,-15495.361,-23468.506,-40924.316
969030.0916190454,-83071.25,-67248.82,-18908.53,22615.602,-49449.383,-15493.815,-23467.082,-40918.457
969030.095619042,-83038.945,-67216.68,-18898.438,22681.193,-49425.703,-15491.374,-23472.088,-40923.3
969030.0996190386,-83038.25,-67214.84,-18898.438,22670.004,-49429.566,-15491.984,-23475.668,-40932.66
969030.1036190353,-83032.15,-67203.21,-18901.652,22603.395,-49441.895,-15494.101,-23474.691,-40924.277
969030.1076190319,-83016.195,-67182.375,-18903.443,22580.893,-49448.855,-15496.948,-23473.309,-40923.016
969030.1116190286,-83004.766,-67171.266,-18901.938,22623.047,-49430.504,-15495.646,-23474.895,-40928.67
969030.1156190253,-82999.07,-67167.69,-18899.21,22682.617,-49426.516,-15491.618,-23476.035,-40933.92
969030.1196190219,-82994.23,-67161.5,-18897.746,22664.186,-49443.36,-15491.089,-23477.092,-40937.543
969030.1236190186,-82992.59,-67157.836,-18901.246,22598.838,-49458.945,-15494.548,-23477.05,-40934.816
969030.1276190153,-82993.86,-67158.86,-18902.426,22571.941,-49454.184,-15495.769,-23476.318,-40936.77
969030.1316190119,-82998.984,-67166.51,-18900.39,22618.246,-49439.7,-15493.652,-23474.895,-40937.297
969030.1356190086,-83004.84,-67173.95,-18896.973,22669.15,-49426.473,-15490.805,-23475.547,-40936.727
969030.1396190051,-83008.67,-67176.11,-18897.38,22672.975,-49429.934,-15491.659,-23481.201,-40944.297
969030.1436190018,-83011.84,-67175.336,-18902.996,22611.857,-49449.586,-15495.972,-23483.604,-40944.54
969030.1476189985,-83011.234,-67173.55,-18907.023,22573.406,-49459.676,-15497.233,-23481.201,-40933.96
969030.1516189951,-83011.72,-67176.84,-18907.47,22597.617,-49447.39,-15494.67,-23476.562,-40924.766
969030.1556189918,-83009.89,-67177.82,-18901.693,22656.982,-49429.402,-15491.333,-23474.977,-40929.2
969030.1596189885,-83013.92,-67180.95,-18900.676,22647.422,-49436.973,-15490.316,-23476.523,-40931.6
969030.1636189851,-83017.625,-67185.38,-18903.729,22598.105,-49450.035,-15491.374,-23475.83,-40930.504
969030.1676189818,-83016.484,-67182.82,-18904.95,22566.285,-49452.72,-15490.764,-23474.814,-40928.062
969030.1716189785,-83020.71,-67183.8,-18906.902,22621.543,-49435.793,-15488.444,-23473.715,-40921.51
969030.1756189751,-83024.62,-67189.54,-18904.256,22673.057,-49423.26,-15486.003,-23476.318,-40937.664
969030.1796189718,-83030.64,-67194.664,-18905.03,22649.09,-49439.94,-15488.77,-23480.186,-40944.38
969030.1836189684,-83031.945,-67195.11,-18908.447,22583.781,-49464.766,-15493.53,-23480.674,-40938.76
969030.187618965,-83031.78,-67195.03,-18909.547,22563.232,-49467.652,-15495.972,-23482.707,-40948.12
969030.1916189617,-83030.16,-67196.086,-18910.564,22614.178,-49449.707,-15494.263,-23483.115,-40954.145
969030.1956189583,-83032.19,-67198.81,-18906.902,22659.18,-49441.203,-15490.845,-23481.162,-40953.453
969030.199618955,-83035.24,-67199.26,-18907.35,22654.99,-49451.094,-15490.886,-23479.86,-40947.836
969030.2036189517,-83031.91,-67192.75,-18912.557,22607.016,-49456.504,-15493.815,-23477.256,-40943.81
969030.2076189483,-83032.76,-67190.43,-18914.715,22572.266,-49459.27,-15494.914,-23476.97,-40941.203
969030.211618945,-83032.48,-67191.81,-18913.29,22617.92,-49444.99,-15493.286,-23476.807,-40940.96
969030.2156189417,-83030.6,-67196.086,-18907.146,22659.953,-49434.773,-15491.171,-23476.197,-40934.773
969030.2196189383,-83032.8,-67201.83,-18907.35,22637.656,-49447.105,-15492.717,-23481.406,-40939.453
969030.223618935,-83037.56,-67203.414,-18908.123,22579.51,-49459.92,-15496.582,-23483.766,-40939.78
969030.2276189316,-83036.99,-67199.99,-18911.824,22556.113,-49461.02,-15497.396,-23482.3,-40937.582
969030.2316189283,-83037.234,-67199.875,-18914.754,22612.428,-49440.188,-15493.979,-23479.29,-40941.69
969030.235618925,-83042.56,-67205.24,-18910.238,22658.814,-49439.535,-15489.95,-23478.842,-40944.176
969030.2396189215,-83045.125,-67208.09,-18913.168,22634.848,-49458.293,-15490.397,-23480.186,-40937.34
969030.2436189182,-83047.85,-67206.71,-18917.807,22586.264,-49473.715,-15493.53,-23484.945,-40941.69
969030.2476189149,-83048.38,-67204.67,-18921.184,22568.4,-49467.773,-15494.182,-23487.51,-40949.953
969030.2516189115,-83045.29,-67201.7,-18921.062,22611.166,-49448.082,-15489.462,-23486.166,-40949.75
969030.2556189082,-83038.49,-67199.055,-18917.684,22663.209,-49428.223,-15486.044,-23486.492,-40943.36
969030.2596189049,-83032.31,-67196.86,-18913.697,22653.037,-49435.996,-15486.694,-23487.63,-40944.703
969030.2636189015,-83033.49,-67197.836,-18911.092,22599.936,-49456.016,-15487.671,-23483.562,-40940.145
969030.2676188982,-83029.7,-67191.98,-18912.639,22564.129,-49461.062,-15487.387,-23479.086,-40936.08
969030.2716188948,-83033.53,-67196.945,-18912.191,22605.836,-49448.652,-15487.59,-23478.191,-40934.164
969030.2756188915,-83036.26,-67202.64,-18909.262,22658.936,-49431.684,-15487.143,-23483.725,-40943.117
969030.2796188882,-83038.21,-67204.63,-18908.611,22646.525,-49439.74,-15488.647,-23487.549,-40944.703
969030.2836188847,-83046.305,-67205.37,-18913.25,22593.71,-49468.14,-15491.821,-23488.525,-40943.89
969030.2876188814,-83044.48,-67201.3,-18915.854,22582.357,-49467.9,-15493.652,-23490.602,-40954.43
969030.2916188781,-83040.81,-67200.73,-18914.795,22637.656,-49445.07,-15489.014,-23487.51,-40949.137
969030.2956188747,-83040.0,-67201.83,-18912.11,22673.545,-49431.438,-15487.143,-23487.102,-40946.535
969030.2996188714,-83039.59,-67202.19,-18910.809,22648.682,-49446.047,-15488.322,-23488.73,-40953.25
969030.3036188681,-83040.81,-67201.46,-18915.08,22581.504,-49468.344,-15491.374,-23488.242,-40948.285
969030.3076188647,-83039.266,-67195.4,-18915.486,22552.328,-49468.344,-15493.693,-23486.492,-40946.74
969030.3116188614,-83036.016,-67195.72,-18911.174,22613.12,-49445.723,-15491.699,-23483.154,-40936.566
969030.315618858,-83033.37,-67198.65,-18908.203,22673.504,-49426.96,-15486.9795,-23479.697,-40919.965
969030.3196188547,-83033.734,-67198.77,-18905.273,22656.373,-49436.08,-15488.811,-23486.857,-40942.832
969030.3236188514,-83035.04,-67197.96,-18906.414,22596.273,-49457.156,-15491.984,-23489.34,-40946.94
969030.327618848,-83035.52,-67196.01,-18908.691,22562.988,-49459.676,-15492.676,-23487.225,-40948.977
969030.3316188446,-83035.97,-67199.83,-18906.129,22604.127,-49449.79,-15489.462,-23484.416,-40942.914
969030.3356188413,-83042.32,-67208.54,-18909.506,22649.658,-49438.887,-15485.759,-23485.596,-40939.09
969030.3396188379,-83043.83,-67208.336,-18909.832,22642.742,-49437.625,-15484.294,-23488.363,-40941.367
969030.3436188346,-83040.61,-67200.805,-18912.312,22607.178,-49445.477,-15489.014,-23493.246,-40950.074
969030.3476188313,-83043.17,-67198.445,-18917.807,22574.992,-49448.0,-15491.699,-23495.322,-40948.773
969030.3516188279,-83043.016,-67198.65,-18918.904,22615.846,-49432.293,-15486.816,-23491.252,-40946.98
969030.3556188246,-83043.91,-67199.586,-18915.162,22660.605,-49424.195,-15484.091,-23491.66,-40950.97
969030.3596188212,-83053.8,-67205.0,-18916.3,22629.436,-49436.28,-15486.084,-23494.102,-40950.156
969030.3636188179,-83056.805,-67205.24,-18918.172,22581.219,-49452.68,-15487.549,-23491.66,-40946.535
969030.3676188146,-83053.266,-67204.76,-18920.29,22560.71,-49454.957,-15487.956,-23487.021,-40944.664
969030.3716188112,-83050.375,-67206.664,-18916.586,22629.15,-49437.582,-15483.073,-23482.91,-40943.2
969030.3756188079,-83056.89,-67213.625,-18912.8,22671.225,-49424.316,-15479.696,-23480.307,-40936.117
969030.3796188046,-83058.64,-67215.21,-18912.436,22650.188,-49433.188,-15481.527,-23483.115,-40938.234
969030.3836188011,-83061.484,-67215.54,-18917.604,22584.96,-49452.07,-15485.393,-23484.66,-40940.105
969030.3876187978,-83064.7,-67213.586,-18922.04,22544.922,-49458.254,-15485.718,-23483.562,-40941.53
969030.3916187945,-83061.08,-67210.86,-18920.533,22603.068,-49436.85,-15481.853,-23483.725,-40951.824
969030.3956187911,-83059.86,-67212.41,-18917.889,22659.832,-49426.066,-15477.255,-23483.318,-40952.84
969030.3996187878,-83060.18,-67210.77,-18919.719,22648.438,-49434.855,-15478.923,-23484.66,-40953.25
969030.4036187844,-83058.76,-67204.1,-18923.463,22599.406,-49446.414,-15482.829,-23485.23,-40953.33
969030.4076187811,-83058.516,-67204.836,-18926.025,22571.533,-49449.832,-15484.66,-23486.533,-40954.754
969030.4116187778,-83059.25,-67208.82,-18926.922,22613.69,-49432.332,-15480.998,-23483.154,-40944.99
969030.4156187744,-83061.484,-67210.21,-18924.398,22658.164,-49415.652,-15479.37,-23484.375,-40939.78
969030.4196187711,-83064.54,-67211.305,-18923.992,22635.133,-49421.43,-15480.469,-23486.207,-40946.332
969030.4236187678,-83068.16,-67212.98,-18926.229,22567.22,-49447.188,-15482.666,-23483.807,-40950.195
969030.4276187643,-83065.555,-67206.46,-18930.828,22543.986,-49444.297,-15483.073,-23481.895,-40954.1
969030.431618761,-83067.51,-67208.375,-18930.705,22595.215,-49423.383,-15479.94,-23480.51,-40951.906
969030.4356187576,-83074.266,-67216.23,-18926.514,22647.46,-49415.0,-15476.97,-23483.521,-40949.992
969030.4396187543,-83078.29,-67221.48,-18925.74,22640.422,-49424.848,-15477.743,-23487.102,-40951.863
969030.443618751,-83074.47,-67217.164,-18927.043,22586.387,-49439.656,-15480.307,-23488.201,-40950.32
969030.4476187476,-83066.9,-67210.45,-18923.504,22555.705,-49441.773,-15480.713,-23487.266,-40950.36
969030.4516187443,-83064.54,-67212.484,-18921.266,22603.639,-49423.055,-15477.214,-23484.13,-40946.86
969030.455618741,-83067.34,-67217.086,-18920.166,22645.916,-49409.75,-15475.098,-23485.19,-40947.105
969030.4596187376,-83070.11,-67218.71,-18924.275,22627.117,-49423.137,-15474.528,-23484.742,-40949.137
969030.4636187343,-83072.59,-67217.77,-18930.543,22567.832,-49443.562,-15476.481,-23484.498,-40948.16
969030.467618731,-83072.76,-67213.91,-18934.652,22544.719,-49446.492,-15476.481,-23483.643,-40949.668
969030.4716187275,-83073.164,-67214.36,-18934.408,22580.893,-49437.703,-15472.25,-23483.033,-40951.58
969030.4756187242,-83080.28,-67220.42,-18932.861,22607.748,-49428.387,-15472.087,-23489.178,-40960.29
969030.4796187208,-83083.21,-67223.35,-18932.414,22604.045,-49434.938,-15473.674,-23491.252,-40956.258
969030.4836187175,-83085.53,-67222.414,-18935.71,22563.314,-49454.918,-15475.952,-23487.834,-40945.965
969030.4876187142,-83089.234,-67222.78,-18939.78,22530.152,-49463.95,-15479.086,-23488.77,-40955.85
969030.4916187108,-83084.35,-67220.79,-18936.768,22592.45,-49439.902,-15475.749,-23487.59,-40961.47
969030.4956187075,-83080.125,-67221.36,-18930.096,22646.525,-49425.703,-15472.656,-23485.76,-40953.816
969030.4996187042,-83081.95,-67221.234,-18928.02,22624.146,-49430.176,-15473.389,-23487.021,-40953.94
969030.5036187008,-83084.07,-67219.41,-18930.584,22555.46,-49438.438,-15476.522,-23492.066,-40964.6
969030.5076186975,-83081.71,-67215.13,-18933.553,22522.95,-49447.918,-15478.76,-23493.205,-40963.38
969030.5116186942,-83076.664,-67215.45,-18931.438,22585.328,-49433.473,-15475.383,-23491.7,-40961.996
969030.5156186908,-83079.76,-67220.586,-18929.525,22633.018,-49424.48,-15474.365,-23495.117,-40963.016
969030.5196186875,-83083.09,-67224.41,-18927.45,22615.805,-49435.1,-15476.44,-23499.268,-40964.234
969030.523618684,-83088.14,-67226.12,-18933.146,22573.691,-49455.203,-15479.126,-23497.844,-40961.996
969030.5276186807,-83090.45,-67225.38,-18939.982,22539.592,-49462.566,-15479.086,-23493.979,-40953.043
969030.5316186774,-83084.39,-67223.96,-18934.57,22583.293,-49437.543,-15475.302,-23490.234,-40943.44
969030.535618674,-83083.62,-67227.016,-18928.914,22631.186,-49425.945,-15473.1045,-23492.637,-40961.14
969030.5396186707,-83086.96,-67227.42,-18924.44,22635.215,-49432.82,-15473.022,-23495.89,-40972.574
969030.5436186674,-83076.26,-67216.07,-18932.332,22578.898,-49443.848,-15474.284,-23491.943,-40955.242
969030.547618664,-83075.85,-67212.0,-18933.27,22544.557,-49442.63,-15475.912,-23491.904,-40951.906
969030.5516186607,-83074.1,-67213.75,-18929.81,22589.111,-49434.004,-15474.284,-23493.896,-40965.332
969030.5556186574,-83074.625,-67215.66,-18925.293,22625.45,-49429.85,-15471.069,-23495.729,-40967.652
969030.559618654,-83079.8,-67217.086,-18921.266,22615.479,-49436.523,-15471.64,-23495.688,-40961.59
969030.5636186507,-83079.63,-67215.54,-18921.59,22574.18,-49447.266,-15474.121,-23492.188,-40948.73
969030.5676186472,-83079.8,-67207.52,-18927.775,22546.998,-49449.383,-15473.999,-23489.502,-40941.977
969030.5716186439,-83072.96,-67206.016,-18923.219,22600.871,-49428.062,-15467.407,-23483.969,-40947.31
969030.5756186406,-83072.59,-67209.84,-18919.963,22647.502,-49414.348,-15462.606,-23483.398,-40950.766
969030.5796186372,-83075.93,-67209.76,-18921.59,22632.08,-49427.29,-15463.705,-23489.055,-40954.47
969030.5836186339,-83077.555,-67208.945,-18925.781,22576.54,-49443.36,-15465.576,-23491.172,-40958.05
969030.5876186306,-83075.52,-67207.36,-18928.06,22535.97,-49457.03,-15465.861,-23487.916,-40956.383
969030.5916186272,-83069.99,-67206.18,-18924.969,22583.13,-49438.844,-15464.56,-23486.695,-40959.516
969030.5956186239,-83072.15,-67213.7,-18921.184,22628.947,-49428.223,-15465.332,-23489.219,-40959.23
969030.5996186206,-83073.81,-67217.41,-18918.742,22618.246,-49437.176,-15469.116,-23491.252,-40956.055
969030.6036186172,-83068.28,-67209.44,-18917.928,22558.96,-49449.832,-15470.947,-23490.316,-40952.598
969030.6076186139,-83067.1,-67205.77,-18922.445,22546.184,-49451.133,-15469.442,-23486.94,-40950.97
969030.6116186104,-83067.266,-67206.664,-18918.133,22595.176,-49434.773,-15466.064,-23483.521,-40951.906
969030.6156186071,-83067.914,-67212.61,-18913.371,22640.707,-49424.074,-15461.67,-23482.545,-40950.81
969030.6196186038,-83072.47,-67214.97,-18913.574,22622.559,-49435.387,-15461.142,-23483.807,-40952.19
969030.6236186004,-83075.32,-67211.95,-18916.912,22564.861,-49451.785,-15463.745,-23484.05,-40953.656
969030.6276185971,-83073.57,-67209.15,-18918.904,22527.305,-49470.582,-15465.17,-23482.26,-40950.156
969030.6316185938,-83074.22,-67211.875,-18916.668,22575.156,-49450.48,-15462.036,-23479.412,-40950.195
969030.6356185904,-83078.86,-67218.55,-18913.574,22627.158,-49432.66,-15459.392,-23481.121,-40952.35
969030.6396185871,-83076.625,-67215.62,-18913.33,22609.986,-49444.215,-15460.246,-23482.748,-40954.875
969030.6436185838,-83074.914,-67210.53,-18916.992,22559.043,-49456.586,-15463.827,-23485.027,-40958.008
969030.6476185804,-83080.08,-67213.14,-18920.818,22537.15,-49456.625,-15464.763,-23482.871,-40956.95
969030.6516185771,-83077.48,-67213.5,-18919.354,22595.338,-49439.74,-15459.717,-23480.55,-40951.215
969030.6556185737,-83073.61,-67215.45,-18916.18,22652.02,-49427.86,-15457.642,-23483.44,-40950.645
969030.6596185704,-83079.63,-67221.97,-18915.568,22642.375,-49443.44,-15457.764,-23486.084,-40963.992
969030.663618567,-83083.055,-67223.47,-18919.434,22574.18,-49467.41,-15460.205,-23485.678,-40959.96
969030.6676185636,-83078.984,-67216.35,-18921.346,22529.338,-49476.973,-15464.4375,-23486.004,-40961.14
969030.6716185603,-83079.39,-67217.29,-18919.434,22574.139,-49452.477,-15460.124,-23484.986,-40964.723
969030.675618557,-83084.15,-67225.14,-18917.725,22615.52,-49444.258,-15456.015,-23486.207,-40958.457
969030.6796185536,-83084.96,-67225.836,-18915.324,22610.516,-49461.55,-15456.909,-23491.334,-40968.223
969030.6836185503,-83081.95,-67221.64,-18915.203,22565.674,-49477.297,-15461.142,-23496.705,-40978.355
969030.687618547,-83077.96,-67220.87,-18915.854,22535.523,-49475.465,-15462.321,-23494.02,-40971.598
969030.6916185436,-83076.17,-67220.54,-18916.219,22584.393,-49457.48,-15460.979,-23493.002,-40970.094
969030.6956185403,-83081.18,-67224.0,-18913.25,22634.441,-49436.89,-15462.199,-23497.152,-40971.56
969030.6996185369,-83087.81,-67228.68,-18915.65,22620.605,-49441.69,-15463.298,-23498.17,-40963.016
969030.7036185336,-83086.71,-67224.94,-18923.748,22559.775,-49453.086,-15464.763,-23495.443,-40965.945
969030.7076185303,-83082.44,-67221.16,-18925.62,22534.668,-49467.043,-15465.739,-23493.896,-40975.953
969030.7116185268,-83079.47,-67221.97,-18925.375,22583.781,-49455.406,-15461.304,-23492.92,-40974.246
969030.7156185235,-83080.61,-67221.766,-18919.11,22624.473,-49441.12,-15457.764,-23495.402,-40975.63
969030.7196185202,-83081.664,-67221.93,-18919.148,22606.445,-49451.133,-15459.229,-23496.99,-40973.145
969030.7236185168,-83082.32,-67220.586,-18920.125,22565.309,-49470.418,-15462.6875,-23497.031,-40973.51
969030.7276185135,-83085.21,-67218.51,-18922.404,22549.684,-49476.484,-15465.658,-23497.479,-40971.234
969030.7316185101,-83085.62,-67221.27,-18920.533,22604.004,-49450.97,-15463.786,-23498.576,-40973.062
969030.7356185068,-83088.586,-67227.87,-18918.701,22649.008,-49446.453,-15462.484,-23501.262,-40974.895
969030.7396185035,-83092.086,-67229.984,-18919.312,22613.607,-49455.324,-15463.827,-23505.127,-40977.824
969030.7436185001,-83093.34,-67230.23,-18924.52,22560.182,-49476.44,-15469.035,-23509.97,-40983.766
969030.7476184968,-83094.61,-67225.51,-18928.955,22531.332,-49482.91,-15471.029,-23510.377,-40985.598
969030.7516184935,-83091.516,-67222.375,-18924.643,22590.252,-49452.72,-15466.716,-23509.604,-40992.676
969030.75561849,-83090.09,-67227.87,-18918.58,22640.342,-49441.203,-15462.199,-23508.871,-40993.613
969030.7596184867,-83091.59,-67227.87,-18918.092,22609.416,-49451.05,-15460.775,-23506.836,-40989.016
969030.7636184834,-83091.23,-67222.13,-18921.795,22553.63,-49467.043,-15461.996,-23505.78,-40988.77
969030.76761848,-83089.97,-67222.13,-18924.643,22522.666,-49475.586,-15462.077,-23500.367,-40980.062
969030.7716184767,-83090.17,-67221.84,-18922.73,22575.115,-49462.812,-15456.625,-23493.734,-40968.14
969030.7756184733,-83092.94,-67224.9,-18919.76,22617.066,-49451.297,-15450.806,-23490.887,-40963.34
969030.77961847,-83092.125,-67223.15,-18919.23,22595.744,-49460.004,-15450.521,-23494.14,-40986.168
969030.7836184667,-83092.53,-67221.64,-18922.69,22544.475,-49478.516,-15453.776,-23494.914,-40988.85
969030.7876184633,-83090.7,-67219.2,-18928.71,22531.129,-49484.54,-15454.834,-23491.984,-40980.875
969030.79161846,-83089.84,-67220.54,-18935.873,22588.34,-49463.867,-15451.823,-23490.072,-40977.215
969030.7956184567,-83093.43,-67224.734,-18935.791,22624.188,-49447.715,-15451.254,-23495.24,-40985.35
969030.7996184533,-83097.78,-67228.07,-18937.297,22605.389,-49459.188,-15453.125,-23498.088,-40987.71
969030.80361845,-83091.68,-67222.05,-18938.68,22547.73,-49478.152,-15453.735,-23491.537,-40977.215
969030.8076184466,-83088.3,-67216.63,-18937.867,22528.605,-49474.855,-15454.55,-23486.613,-40973.27
969030.8116184432,-83085.29,-67215.3,-18937.744,22582.805,-49456.18,-15449.748,-23484.58,-40969.363
969030.8156184399,-83085.05,-67214.84,-18934.814,22607.342,-49451.703,-15449.341,-23486.166,-40970.543
969030.8196184365,-83086.59,-67216.68,-18933.025,22592.002,-49461.55,-15451.823,-23491.252,-40982.3
969030.8236184332,-83077.48,-67207.69,-18934.611,22559.652,-49469.035,-15454.753,-23494.873,-40985.35
969030.8276184299,-83069.625,-67192.875,-18936.605,22523.031,-49478.8,-15456.462,-23491.252,-40977.215
969030.8316184265,-83056.07,-67179.61,-18930.135,22570.762,-49459.92,-15453.735,-23488.69,-40974.082
969030.8356184232,-83045.58,-67175.3,-18922.04,22630.127,-49438.926,-15451.172,-23486.41,-40961.47
969030.8396184199,-83038.66,-67163.375,-18921.998,22608.154,-49449.63,-15453.857,-23490.928,-40967.45
969030.8436184165,-83023.84,-67149.336,-18925.172,22568.197,-49470.258,-15456.462,-23497.64,-40991.902
969030.8476184132,-83020.39,-67147.3,-18931.355,22556.56,-49476.605,-15457.316,-23495.77,-40984.703
969030.8516184099,-83013.35,-67140.22,-18931.111,22613.201,-49447.88,-15454.59,-23494.834,-40983.887
969030.8556184064,-82983.445,-67112.39,-18920.41,22663.494,-49416.953,-15453.898,-23501.547,-40990.316
969030.8596184031,-82941.98,-67067.38,-18909.547,22630.656,-49421.875,-15459.88,-23508.465,-40984.78
969030.8636183997,-82930.18,-67048.75,-18912.436,22578.654,-49438.64,-15463.501,-23510.174,-40991.66
969030.8676183964,-82927.29,-67039.63,-18918.092,22543.906,-49440.27,-15465.861,-23509.97,-41004.07
969030.8716183931,-82908.9,-67020.71,-18914.104,22604.209,-49414.918,-15464.315,-23509.521,-41000.203
969030.8756183897,-82887.58,-66996.22,-18907.43,22657.146,-49403.28,-15463.339,-23514.771,-41009.195
969030.8796183864,-82877.28,-66988.37,-18902.873,22634.482,-49414.43,-15465.048,-23517.01,-41013.023
969030.8836183831,-82865.16,-66972.086,-18902.67,22595.785,-49425.293,-15469.279,-23520.508,-41014.285
969030.8876183797,-82847.74,-66949.71,-18907.35,22563.926,-49421.754,-15471.029,-23519.084,-41012.574
969030.8916183764,-82838.625,-66943.52,-18905.232,22611.654,-49399.58,-15466.797,-23516.195,-41010.703
969030.8956183731,-82820.48,-66927.125,-18896.363,22657.105,-49393.15,-15465.251,-23519.125,-41015.91
969030.8996183696,-82816.2,-66922.484,-18893.637,22642.254,-49406.17,-15465.942,-23521.037,-41019.574
969030.9036183663,-82814.7,-66911.99,-18900.799,22591.758,-49417.562,-15468.791,-23519.125,-41016.684
969030.9076183629,-82815.06,-66906.05,-18906.738,22565.635,-49412.11,-15469.809,-23516.357,-41018.027
969030.9116183596,-82808.92,-66907.266,-18904.664,22621.094,-49382.812,-15465.82,-23513.836,-41020.67
969030.9156183563,-82800.375,-66905.68,-18897.176,22661.297,-49374.023,-15464.03,-23516.318,-41026.855
969030.9196183529,-82806.27,-66907.48,-18896.404,22638.307,-49390.87,-15466.269,-23520.508,-41034.71
969030.9236183496,-82810.914,-66909.67,-18898.357,22586.508,-49414.105,-15470.663,-23522.055,-41039.55
969030.9276183463,-82805.586,-66906.62,-18898.031,22563.682,-49422.773,-15472.982,-23523.113,-41041.3
969030.9316183429,-82809.086,-66911.42,-18899.17,22625.611,-49404.746,-15469.32,-23521.77,-41039.145
969030.9356183396,-82819.09,-66918.01,-18901.896,22666.953,-49391.93,-15465.617,-23519.492,-41032.594
969030.9396183363,-82825.484,-66920.45,-18903.035,22639.242,-49401.777,-15467.651,-23520.184,-41031.375
969030.9436183329,-82828.734,-66922.85,-18904.5,22581.707,-49418.54,-15466.472,-23515.79,-41024.496
969030.9476183295,-82840.91,-66931.52,-18906.291,22549.969,-49430.83,-15464.844,-23509.562,-41016.93
969030.9516183261,-82856.0,-66950.32,-18903.605,22611.654,-49413.21,-15460.368,-23504.639,-41010.99
969030.9556183228,-82864.83,-66965.7,-18900.799,22667.197,-49415.12,-15458.74,-23507.447,-41017.336
969030.9596183195,-82875.25,-66975.51,-18902.547,22641.928,-49423.504,-15461.182,-23508.79,-41017.215
969030.9636183161,-82889.61,-66989.18,-18904.705,22582.357,-49439.09,-15462.158,-23510.215,-41017.09
969030.9676183128,-82891.16,-66992.8,-18904.867,22559.938,-49438.19,-15462.362,-23507.162,-41008.586
969030.9716183095,-82899.17,-67003.42,-18903.076,22617.473,-49412.883,-15458.334,-23504.924,-41015.79
969030.9756183061,-82922.65,-67022.99,-18903.89,22651.287,-49405.195,-15455.607,-23507.162,-41020.305
969030.9796183028,-82933.59,-67033.94,-18904.541,22619.346,-49420.25,-15456.137,-23509.97,-41020.957
969030.9836182995,-82941.24,-67039.555,-18909.75,22552.775,-49440.676,-15460.002,-23511.436,-41023.6
969030.987618296,-82953.94,-67051.96,-18913.127,22535.156,-49449.586,-15460.979,-23508.994,-41022.504
969030.9916182928,-82961.06,-67060.02,-18910.97,22599.936,-49434.53,-15457.153,-23507.244,-41020.223
969030.9956182893,-82967.57,-67068.65,-18907.35,22647.34,-49418.418,-15452.556,-23504.314,-41011.72
969030.999618286,-82976.52,-67078.29,-18908.123,22626.1,-49428.145,-15451.416,-23503.174,-41005.008
969031.0036182827,-82983.445,-67083.5,-18911.215,22564.129,-49443.2,-15453.857,-23500.0,-40990.848
969031.0076182793,-82989.79,-67089.73,-18917.562,22537.762,-49448.73,-15455.7705,-23497.967,-40996.785
969031.011618276,-82993.0,-67093.67,-18915.406,22583.172,-49438.926,-15450.806,-23495.646,-41004.07
969031.0156182727,-82998.09,-67100.016,-18910.28,22624.35,-49430.38,-15448.486,-23494.02,-40995.2
969031.0196182693,-83005.45,-67105.39,-18908.855,22616.416,-49433.15,-15449.463,-23495.566,-40996.258
969031.023618266,-83011.35,-67109.21,-18912.72,22548.34,-49459.23,-15453.329,-23498.861,-41004.598
969031.0276182626,-83014.77,-67113.89,-18914.877,22526.367,-49465.293,-15455.974,-23497.314,-41000.406
969031.0316182593,-83019.45,-67122.766,-18911.377,22592.734,-49440.145,-15453.451,-23498.7,-41002.566
969031.035618256,-83021.69,-67129.03,-18902.955,22637.412,-49423.992,-15448.975,-23500.244,-41000.285
969031.0396182525,-83028.16,-67137.086,-18902.67,22615.113,-49434.246,-15450.399,-23504.314,-41006.473
969031.0436182492,-83034.71,-67139.77,-18912.639,22562.826,-49455.812,-15454.224,-23506.756,-41015.465
969031.0476182459,-83036.3,-67141.12,-18916.586,22546.225,-49458.58,-15454.387,-23503.418,-41012.94
969031.0516182425,-83039.02,-67145.06,-18915.162,22602.336,-49435.914,-15451.01,-23499.594,-41009.727
969031.0556182392,-83044.03,-67153.36,-18911.5,22637.086,-49425.336,-15448.608,-23500.205,-41012.9
969031.0596182359,-83048.95,-67159.75,-18913.86,22603.924,-49442.63,-15451.904,-23504.844,-41014.65
969031.0636182325,-83053.55,-67162.72,-18918.824,22540.527,-49470.176,-15454.753,-23508.3,-41014.242
969031.0676182292,-83052.05,-67160.65,-18919.475,22507.285,-49472.74,-15454.672,-23502.076,-41006.348
969031.0716182258,-83047.98,-67160.69,-18914.51,22578.574,-49440.473,-15448.649,-23494.59,-40995.363
969031.0756182225,-83048.42,-67164.63,-18910.32,22627.523,-49428.387,-15444.377,-23490.275,-40979.086
969031.0796182192,-83050.13,-67164.875,-18909.465,22608.684,-49439.332,-15445.598,-23492.92,-40972.25
969031.0836182158,-83050.3,-67162.4,-18909.059,22562.012,-49453.086,-15449.829,-23499.512,-40985.23
969031.0876182124,-83053.51,-67162.92,-18912.639,22519.654,-49455.77,-15451.538,-23499.309,-40980.67
969031.0916182091,-83053.875,-67164.31,-18906.088,22573.162,-49435.547,-15449.463,-23499.838,-40981.934
969031.0956182057,-83051.84,-67164.39,-18906.658,22598.756,-49423.383,-15447.47,-23500.732,-40988.61
969031.0996182024,-83054.37,-67167.4,-18907.146,22581.543,-49434.164,-15446.493,-23501.994,-40986.37
969031.1036181991,-83057.74,-67169.31,-18909.994,22542.197,-49448.242,-15445.598,-23497.6,-40973.797
969031.1076181957,-83059.57,-67169.64,-18913.209,22525.146,-49451.297,-15445.395,-23493.084,-40985.35
969031.1116181924,-83061.69,-67173.914,-18910.768,22591.514,-49430.504,-15441.528,-23488.486,-40979.9
969031.115618189,-83065.35,-67182.25,-18907.512,22639.934,-49423.504,-15439.291,-23487.834,-40978.56
969031.1196181857,-83071.54,-67183.43,-18906.209,22612.549,-49434.57,-15439.697,-23487.102,-40976.277
969031.1236181824,-83069.336,-67177.695,-18908.814,22551.678,-49449.14,-15443.278,-23486.492,-40975.992
969031.127618179,-83066.164,-67175.375,-18911.824,22518.393,-49449.016,-15443.767,-23484.742,-40972.21
969031.1316181757,-83068.08,-67179.69,-18911.174,22573.365,-49425.496,-15437.663,-23481.08,-40976.81
969031.1356181724,-83069.09,-67186.24,-18909.262,22625.611,-49417.605,-15434.042,-23481.73,-40976.89
969031.1396181689,-83071.984,-67189.414,-18911.297,22600.303,-49431.4,-15434.611,-23484.58,-40975.832
969031.1436181656,-83077.35,-67190.63,-18914.877,22543.662,-49440.51,-15436.6455,-23488.322,-40982.79
969031.1476181623,-83077.88,-67187.625,-18917.725,22526.205,-49437.95,-15438.029,-23488.404,-40983.523
969031.1516181589,-83074.55,-67186.98,-18913.086,22586.223,-49423.668,-15436.687,-23487.305,-40983.36
969031.1556181556,-83075.56,-67187.38,-18909.791,22615.195,-49414.918,-15436.157,-23489.746,-40987.387
969031.1596181522,-83081.75,-67188.195,-18909.871,22593.426,-49425.945,-15437.5,-23492.148,-40985.965
969031.1636181489,-83082.12,-67183.19,-18915.61,22543.498,-49437.95,-15440.552,-23496.055,-40986.53
969031.1676181456,-83077.805,-67178.914,-18919.842,22522.666,-49436.605,-15440.674,-23497.559,-40987.184
969031.1716181422,-83080.98,-67182.945,-18919.678,22582.56,-49412.395,-15437.744,-23499.432,-40987.59
969031.1756181389,-83082.08,-67187.5,-18916.26,22624.838,-49399.09,-15435.181,-23500.408,-40984.945
969031.1796181356,-83085.984,-67190.23,-18917.604,22598.633,-49410.727,-15434.53,-23498.902,-40969.93
969031.1836181321,-83087.0,-67187.26,-18923.422,22531.373,-49429.12,-15438.518,-23499.146,-40978.965
969031.1876181288,-83082.73,-67181.766,-18921.998,22515.504,-49425.215,-15441.528,-23499.676,-41004.395
969031.1916181255,-83083.664,-67188.27,-18919.068,22580.607,-49406.414,-15436.035,-23495.2,-40993.367
969031.1956181221,-83090.17,-67196.74,-18917.725,22624.92,-49405.438,-15430.705,-23493.613,-40992.066
969031.1996181188,-83095.22,-67201.74,-18917.562,22610.23,-49411.582,-15430.339,-23493.693,-40995.445
969031.2036181154,-83093.1,-67199.18,-18918.621,22559.043,-49425.293,-15430.502,-23491.13,-40993.492
969031.2076181121,-83089.07,-67193.97,-18922.201,22524.496,-49426.68,-15430.664,-23486.29,-40988.445
969031.2116181088,-83093.55,-67199.875,-18920.492,22575.889,-49406.414,-15427.287,-23484.375,-40983.156
969031.2156181054,-83115.73,-67222.62,-18925.416,22601.889,-49408.203,-15425.741,-23484.66,-40981.934
969031.2196181021,-83114.51,-67220.74,-18921.346,22591.146,-49416.3,-15427.49,-23487.672,-40987.43
969031.2236180988,-83079.914,-67185.914,-18914.998,22543.498,-49417.36,-15432.495,-23493.896,-40993.613
969031.2276180953,-83083.87,-67185.586,-18921.225,22525.635,-49421.754,-15432.251,-23491.008,-40985.758
969031.231618092,-83090.945,-67201.09,-18919.11,22585.37,-49415.203,-15429.118,-23488.566,-40982.34
969031.2356180887,-83083.01,-67196.375,-18910.97,22628.5,-49405.4,-15426.921,-23488.037,-40980.266
969031.2396180853,-83088.586,-67195.4,-18907.797,22601.482,-49415.0,-15426.921,-23489.666,-40982.22
969031.243618082,-83093.67,-67194.5,-18915.936,22559.531,-49429.402,-15428.508,-23488.934,-40982.3
969031.2476180786,-83094.04,-67196.49,-18916.057,22538.494,-49427.656,-15429.606,-23487.916,-40982.3
969031.2516180753,-83093.18,-67198.57,-18912.273,22596.803,-49408.406,-15425.7,-23485.352,-40985.68
969031.255618072,-83095.87,-67202.92,-18911.053,22629.72,-49408.285,-15423.706,-23489.014,-40992.8
969031.2596180686,-83101.56,-67206.95,-18915.324,22591.309,-49424.113,-15424.683,-23492.107,-40994.547
969031.2636180653,-83104.086,-67205.24,-18920.045,22533.57,-49439.82,-15427.531,-23494.508,-41003.785
969031.267618062,-83101.69,-67200.52,-18923.38,22521.363,-49434.246,-15427.002,-23491.375,-40998.617
969031.2716180586,-83099.53,-67205.04,-18920.695,22596.191,-49417.523,-15424.643,-23490.764,-40997.965
969031.2756180553,-83098.59,-67206.26,-18914.998,22634.766,-49406.617,-15423.422,-23493.164,-41001.1
969031.279618052,-83102.7,-67209.84,-18914.754,22598.838,-49414.918,-15424.316,-23494.426,-40999.27
969031.2836180485,-83107.625,-67212.61,-18916.992,22529.541,-49432.78,-15424.805,-23490.316,-40984.62
969031.2876180452,-83106.85,-67208.5,-18916.586,22510.377,-49438.234,-15423.259,-23488.525,-40992.72
969031.2916180418,-83103.07,-67204.39,-18914.186,22582.805,-49411.906,-15418.742,-23485.678,-40992.15
969031.2956180385,-83102.91,-67204.266,-18909.547,22633.586,-49399.863,-15416.748,-23489.055,-40997.965
969031.2996180352,-83101.73,-67203.49,-18907.186,22598.47,-49407.227,-15418.579,-23490.44,-40992.8
969031.3036180318,-83098.836,-67201.78,-18907.105,22533.164,-49426.516,-15421.143,-23490.072,-40998.617
969031.3076180285,-83096.766,-67199.95,-18910.197,22516.357,-49433.92,-15421.591,-23488.648,-40998.78
969031.3116180252,-83094.93,-67200.6,-18909.383,22581.543,-49413.617,-15418.213,-23490.154,-41000.203
969031.3156180218,-83097.58,-67208.13,-18905.762,22617.92,-49405.64,-15412.883,-23489.707,-40997.152
969031.3196180185,-83101.445,-67211.836,-18905.682,22585.166,-49410.2,-15414.877,-23490.44,-40997.76
969031.323618015,-83104.9,-67209.72,-18911.785,22535.768,-49430.91,-15418.945,-23492.473,-40998.535
969031.3276180117,-83105.1,-67206.34,-18913.777,22525.025,-49444.5,-15418.742,-23489.38,-40996.707
969031.3316180084,-83102.09,-67206.016,-18914.633,22585.37,-49431.03,-15414.47,-23484.54,-40992.676
969031.335618005,-83100.875,-67208.01,-18908.123,22640.707,-49413.535,-15411.865,-23484.66,-40995.242
969031.3396180017,-83107.51,-67212.0,-18908.57,22605.55,-49425.62,-15414.389,-23485.107,-40995.73
969031.3436179984,-83114.75,-67213.016,-18913.453,22538.738,-49446.25,-15416.382,-23485.23,-40995.363
969031.347617995,-83114.71,-67211.95,-18919.516,22517.945,-49447.348,-15415.976,-23482.707,-40989.137
969031.3516179917,-83115.52,-67214.03,-18920.125,22582.887,-49427.695,-15409.587,-23476.523,-40982.707
969031.3556179884,-83116.09,-67216.43,-18919.312,22621.582,-49417.684,-15405.925,-23478.68,-40993.33
969031.359617985,-83116.3,-67218.51,-18919.475,22590.861,-49441.164,-15407.268,-23480.633,-40988.324
969031.3636179817,-83114.586,-67217.086,-18920.533,22538.697,-49458.293,-15412.842,-23485.475,-40999.88
969031.3676179782,-83111.78,-67213.5,-18924.316,22519.654,-49455.04,-15415.243,-23486.736,-41009.97
969031.371617975,-83111.45,-67217.37,-18923.219,22569.703,-49442.26,-15412.964,-23482.504,-41007.12
969031.3756179716,-83112.67,-67220.13,-18920.574,22612.266,-49431.234,-15411.052,-23481.08,-41005.332
969031.3796179682,-83119.19,-67221.97,-18919.475,22594.238,-49441.082,-15411.947,-23481.934,-41002.523
969031.3836179649,-83120.61,-67219.41,-18924.928,22537.232,-49457.156,-15414.714,-23485.19,-41006.715
969031.3876179616,-83117.27,-67217.125,-18928.467,22524.984,-49451.418,-15413.452,-23481.65,-40998.414
969031.3916179582,-83116.01,-67215.05,-18924.275,22580.527,-49428.47,-15408.122,-23477.906,-40995.523
969031.3956179549,-83114.664,-67213.38,-18920.857,22610.76,-49424.645,-15404.541,-23475.303,-40991.375
969031.3996179516,-83117.555,-67215.21,-18919.434,22584.555,-49441.53,-15404.907,-23479.045,-40994.63
969031.4036179482,-83117.76,-67215.414,-18924.725,22536.459,-49452.965,-15406.738,-23480.592,-41010.824
969031.4076179449,-83119.19,-67215.86,-18927.205,22516.846,-49457.36,-15407.268,-23476.93,-41013.633
969031.4116179415,-83119.02,-67215.91,-18922.078,22576.133,-49446.617,-15403.28,-23472.332,-41005.414
969031.4156179382,-83119.8,-67219.41,-18917.889,22609.945,-49436.445,-15399.17,-23469.482,-40999.715
969031.4196179349,-83121.87,-67219.93,-18918.701,22571.371,-49450.887,-15400.065,-23471.355,-41002.89
969031.4236179314,-83123.05,-67218.305,-18922.078,22520.713,-49460.695,-15402.426,-23471.965,-41009.684
969031.4276179281,-83118.57,-67215.74,-18926.229,22509.807,-49455.812,-15401.896,-23466.553,-41002.973
969031.4316179248,-83112.63,-67211.8,-18922.078,22573.203,-49431.277,-15397.705,-23460.37,-40991.375
969031.4356179214,-83108.445,-67208.78,-18917.277,22630.86,-49412.477,-15395.264,-23459.148,-40980.51
969031.4396179181,-83109.625,-67209.07,-18915.771,22612.143,-49420.25,-15399.374,-23470.256,-40994.754
969031.4436179148,-83109.664,-67209.234,-18917.684,22553.955,-49442.383,-15403.931,-23479.086,-41010.5
969031.4476179114,-83112.51,-67208.5,-18922.69,22527.508,-49454.836,-15405.64,-23480.307,-41017.62
969031.4516179081,-83116.21,-67216.07,-18925.457,22569.5,-49441.45,-15401.652,-23477.662,-41013.836
969031.4556179047,-83121.14,-67222.945,-18924.725,22609.172,-49436.32,-15397.543,-23476.727,-41015.3
969031.4596179014,-83127.52,-67223.02,-18928.182,22593.914,-49445.844,-15399.414,-23476.807,-41011.516
969031.463617898,-83132.29,-67224.0,-18933.35,22546.062,-49462.566,-15406.291,-23479.086,-41014.406
969031.4676178946,-83130.086,-67224.29,-18937.42,22540.447,-49459.188,-15408.8545,-23482.463,-41025.27
969031.4716178913,-83124.43,-67221.93,-18932.902,22597.291,-49443.562,-15406.576,-23483.725,-41016.4
969031.475617888,-83123.62,-67221.97,-18925.904,22635.336,-49436.523,-15404.379,-23486.248,-41020.875
969031.4796178846,-83128.99,-67226.6,-18925.822,22593.75,-49455.12,-15404.338,-23488.525,-41032.84
969031.4836178813,-83129.56,-67226.6,-18931.723,22529.705,-49478.07,-15407.39,-23490.479,-41036.01
969031.487617878,-83123.86,-67221.56,-18933.025,22517.66,-49474.367,-15408.732,-23489.87,-41032.188
969031.4916178746,-83117.555,-67219.445,-18926.96,22591.473,-49452.434,-15405.151,-23487.428,-41029.258
969031.4956178713,-83115.195,-67219.2,-18923.666,22647.625,-49444.746,-15402.792,-23487.793,-41031.25
969031.4996178679,-83118.086,-67219.08,-18923.463,22614.463,-49450.562,-15403.442,-23488.242,-41027.344
969031.5036178646,-83120.37,-67218.71,-18924.928,22548.87,-49454.55,-15407.756,-23487.102,-41024.375
969031.5076178613,-83119.875,-67218.875,-18927.49,22525.473,-49462.65,-15409.546,-23483.44,-41021.77
969031.5116178578,-83118.414,-67219.08,-18928.06,22571.006,-49454.023,-15403.809,-23477.092,-41020.875
969031.5156178545,-83118.57,-67224.77,-18922.975,22605.754,-49448.812,-15398.112,-23472.576,-41022.992
969031.5196178512,-83122.52,-67228.44,-18922.566,22589.764,-49465.414,-15399.008,-23471.803,-41025.27
969031.5236178478,-83122.93,-67225.586,-18923.91,22549.072,-49473.758,-15400.146,-23471.232,-41022.83
969031.5276178445,-83123.3,-67223.15,-18927.938,22529.826,-49465.58,-15401.327,-23471.559,-41021.61
969031.5316178412,-83126.18,-67227.3,-18927.613,22574.26,-49448.082,-15399.821,-23472.412,-41021.566
969031.5356178378,-83128.54,-67231.81,-18925.457,22602.174,-49452.92,-15400.31,-23479.697,-41035.28
969031.5396178345,-83129.84,-67231.164,-18926.555,22570.639,-49462.973,-15401.449,-23483.684,-41041.63
969031.5436178311,-83129.03,-67225.914,-18927.898,22538.006,-49466.188,-15400.961,-23482.016,-41041.707
969031.5476178278,-83128.5,-67223.266,-18929.037,22510.783,-49473.715,-15400.432,-23479.004,-41036.867
969031.5516178245,-83128.625,-67228.44,-18927.043,22569.662,-49450.684,-15395.671,-23475.668,-41040.406
969031.555617821,-83130.01,-67231.85,-18925.66,22614.055,-49434.082,-15392.7,-23471.477,-41033.61
969031.5596178178,-83132.81,-67228.72,-18927.043,22588.664,-49443.523,-15396.118,-23473.715,-41031.58
969031.5636178144,-83133.266,-67225.71,-18931.967,22544.19,-49457.03,-15398.071,-23476.604,-41031.78
969031.567617811,-83131.19,-67222.375,-18933.717,22527.1,-49459.96,-15396.403,-23472.494,-41021.77
969031.5716178077,-83129.516,-67224.57,-18935.14,22576.54,-49443.605,-15392.66,-23470.094,-41023.64
969031.5756178044,-83128.5,-67225.836,-18932.332,22608.969,-49441.33,-15391.398,-23476.768,-41038.535
969031.579617801,-83132.65,-67226.89,-18932.74,22573.65,-49454.184,-15393.066,-23479.697,-41038.21
969031.5836177977,-83132.53,-67224.77,-18937.42,22524.375,-49468.344,-15394.328,-23479.086,-41043.66
969031.5876177943,-83129.64,-67224.37,-18941.57,22514.69,-49467.816,-15395.468,-23479.004,-41041.42
969031.591617791,-83127.61,-67226.32,-18937.215,22572.877,-49447.88,-15393.718,-23479.736,-41035.727
969031.5956177877,-83130.54,-67227.22,-18933.229,22611.328,-49436.89,-15392.822,-23484.416,-41040.082
969031.5996177843,-83136.72,-67229.984,-18932.658,22589.275,-49453.086,-15394.084,-23489.625,-41058.15
969031.603617781,-83138.72,-67230.19,-18934.611,22532.879,-49470.176,-15397.217,-23490.967,-41053.305
969031.6076177777,-83130.375,-67225.586,-18932.74,22515.178,-49478.273,-15399.414,-23493.084,-41058.39
969031.6116177742,-83129.44,-67225.38,-18933.758,22564.088,-49462.04,-15398.112,-23492.188,-41056.805
969031.6156177709,-83132.41,-67230.47,-18933.635,22601.156,-49454.43,-15395.956,-23491.008,-41053.508
969031.6196177675,-83129.97,-67228.68,-18929.2,22586.467,-49457.44,-15394.9795,-23488.607,-41046.793
969031.6236177642,-83127.69,-67220.38,-18930.623,22531.088,-49460.29,-15395.63,-23485.596,-41039.594
969031.6276177609,-83124.88,-67217.05,-18932.74,22516.195,-49462.363,-15395.793,-23482.83,-41038.574
969031.6316177575,-83120.0,-67217.05,-18930.705,22577.23,-49437.297,-15392.741,-23480.43,-41042.93
969031.6356177542,-83122.12,-67216.02,-18926.19,22609.66,-49429.28,-15391.195,-23482.83,-41047.406
969031.6396177509,-83129.516,-67219.16,-18924.928,22582.154,-49449.953,-15393.881,-23487.428,-41045.41
969031.6436177475,-83132.445,-67224.086,-18928.59,22525.229,-49473.797,-15399.455,-23494.834,-41056.195
969031.6476177442,-83131.96,-67225.22,-18931.926,22505.615,-49471.395,-15402.385,-23497.152,-41060.67
969031.6516177409,-83128.13,-67223.76,-18928.996,22560.264,-49452.19,-15398.234,-23495.973,-41059.49
969031.6556177374,-83126.79,-67226.12,-18925.13,22595.582,-49453.29,-15396.525,-23496.217,-41058.637
969031.6596177341,-83133.305,-67226.195,-18928.467,22574.098,-49459.35,-15398.071,-23497.234,-41054.73
969031.6636177307,-83134.4,-67223.06,-18933.96,22522.625,-49458.66,-15400.146,-23499.594,-41057.008
