timestamp,Fp1,Fp2,F3,Fz,F4,Cz,Pz,Oz
887068.1560705614,-56652.55,-73635.42,5922.3228,-9331.462,-4332.6826,-25000.814,-17788.33,4273.275
887068.1600705571,-56669.434,-73652.55,5912.842,-9337.321,-4338.9893,-25006.836,-17802.125,4257.324
887068.1640705528,-56673.18,-73648.56,5914.917,-9336.589,-4341.0645,-25005.697,-17800.252,4251.7905
887068.1680705486,-56671.51,-73649.13,5920.329,-9338.217,-4348.348,-25004.844,-17796.346,4246.623
887068.1720705442,-56671.348,-73651.695,5914.714,-9340.861,-4347.738,-25004.15,-17795.654,4244.3037
887068.1760705399,-56673.79,-73654.055,5909.0576,-9342.448,-4343.4653,-25002.28,-17795.451,4240.438
887068.1800705356,-56673.42,-73658.41,5912.3535,-9342.937,-4351.9287,-24999.879,-17792.44,4239.8276
887068.1840705313,-56679.73,-73667.36,5910.5225,-9344.279,-4353.109,-25004.355,-17795.33,4230.713
887068.188070527,-56682.7,-73675.3,5908.325,-9344.32,-4356.242,-25005.576,-17800.945,4217.7734
887068.1920705227,-56683.434,-73679.2,5907.5117,-9345.663,-4357.137,-25002.727,-17800.66,4216.96
887068.1960705183,-56676.68,-73671.15,5912.9233,-9341.064,-4346.3545,-25002.686,-17800.049,4214.966
887068.2000705141,-56680.83,-73667.69,5911.418,-9342.773,-4349.04,-25002.32,-17803.996,4210.653
887068.2040705098,-56685.223,-73669.31,5907.4707,-9344.849,-4357.463,-25004.03,-17807.576,4203.7354
887068.2080705055,-56686.08,-73668.26,5905.4365,-9344.564,-4355.1025,-25004.559,-17806.479,4202.881
887068.2120705012,-56687.5,-73665.57,5909.5054,-9344.687,-4349.447,-25002.605,-17799.725,4215.454
887068.2160704968,-56685.02,-73665.85,5910.97,-9345.175,-4350.4233,-25002.605,-17796.916,4221.029
887068.2200704926,-56680.83,-73666.34,5915.609,-9345.012,-4360.433,-25002.076,-17791.871,4229.167
887068.2240704882,-56682.742,-73669.03,5918.132,-9342.733,-4353.5156,-25001.832,-17790.691,4232.707
887068.228070484,-56676.15,-73657.19,5922.811,-9337.524,-4357.137,-24996.582,-17779.42,4250.6514
887068.2320704797,-56669.355,-73654.46,5926.2695,-9336.386,-4346.761,-24992.717,-17772.787,4265.666
887068.2360704753,-56668.254,-73655.48,5927.9785,-9335.49,-4341.39,-24988.77,-17772.38,4273.641
887068.2400704711,-56670.37,-73661.26,5926.0254,-9336.833,-4339.6406,-24984.58,-17773.602,4272.0947
887068.2440704667,-56669.395,-73665.04,5925.6187,-9335.775,-4335.7344,-24985.76,-17776.123,4273.0713
887068.2480704625,-56670.168,-73663.375,5925.7407,-9334.229,-4335.8154,-24987.63,-17781.535,4271.9727
887068.2520704581,-56669.883,-73661.7,5925.659,-9334.595,-4339.0303,-24988.242,-17786.297,4266.195
887068.2560704538,-56669.8,-73664.875,5926.0254,-9333.903,-4329.3867,-24989.625,-17790.568,4259.237
887068.2600704496,-56668.38,-73664.555,5930.827,-9333.578,-4329.59,-24988.975,-17789.877,4262.6143
887068.2640704452,-56668.254,-73659.34,5928.874,-9332.031,-4333.171,-24987.875,-17783.936,4267.2935
887068.268070441,-56673.87,-73660.445,5921.346,-9334.433,-4337.606,-24988.486,-17780.559,4264.7705
887068.2720704366,-56675.05,-73661.74,5924.6016,-9334.88,-4337.036,-24986.613,-17778.89,4258.789
887068.2760704323,-56678.02,-73663.05,5922.16,-9335.979,-4336.019,-24985.557,-17780.03,4252.4414
887068.280070428,-56683.066,-73668.5,5918.132,-9337.729,-4342.6514,-24985.719,-17779.785,4257.0396
887068.2840704237,-56689.58,-73672.0,5914.144,-9338.42,-4344.5234,-24988.242,-17779.46,4256.7954
887068.2880704195,-56696.21,-73678.06,5914.551,-9340.454,-4353.1904,-24989.178,-17782.756,4238.6885
887068.2920704151,-56694.133,-73676.59,5914.266,-9338.623,-4345.215,-24989.299,-17784.303,4231.0386
887068.2960704108,-56690.227,-73671.51,5918.0503,-9336.752,-4342.5293,-24989.258,-17784.465,4230.184
887068.3000704065,-56689.74,-73674.4,5919.027,-9336.508,-4345.9067,-24988.078,-17782.635,4229.045
887068.3040704022,-56687.664,-73675.21,5919.027,-9336.02,-4349.4062,-24988.975,-17784.75,4221.029
887068.3080703979,-56683.23,-73669.68,5921.916,-9335.449,-4353.597,-24986.045,-17784.1,4215.21
887068.3120703936,-56682.902,-73669.6,5921.0205,-9335.815,-4347.6973,-24983.48,-17781.658,4220.5
887068.3160703892,-56683.92,-73673.664,5920.9395,-9338.461,-4345.866,-24982.3,-17778.646,4229.533
887068.320070385,-56686.242,-73672.53,5920.98,-9339.56,-4345.337,-24983.848,-17780.844,4232.951
887068.3240703807,-56685.67,-73665.77,5922.4854,-9338.827,-4341.3086,-24986.207,-17781.82,4236.206
887068.3280703764,-56676.27,-73655.88,5925.578,-9335.327,-4331.34,-24983.807,-17777.547,4250.936
887068.3320703721,-56670.13,-73655.16,5925.2524,-9333.862,-4331.136,-24983.115,-17778.523,4256.3477
887068.3360703677,-56666.344,-73659.34,5925.7407,-9333.944,-4331.584,-24985.475,-17780.03,4265.666
887068.3400703635,-56668.99,-73664.266,5921.5903,-9334.229,-4327.8403,-24987.672,-17786.621,4262.4106
887068.3440703591,-56665.527,-73653.98,5927.6123,-9329.509,-4318.5225,-24987.51,-17785.197,4271.81
887068.3480703549,-56667.523,-73651.734,5928.4263,-9329.143,-4316.162,-24988.201,-17785.36,4271.566
887068.3520703505,-56664.023,-73647.71,5927.2056,-9331.34,-4325.8467,-24985.068,-17782.797,4272.0137
887068.3560703462,-56657.758,-73636.84,5932.5767,-9329.062,-4322.5913,-24983.398,-17778.361,4278.8496
887068.360070342,-56653.688,-73632.37,5934.6113,-9327.678,-4322.1846,-24980.957,-17769.816,4288.6963
887068.3640703376,-56658.164,-73642.13,5933.3496,-9326.254,-4327.6777,-24979.533,-17764.975,4291.626
887068.3680703334,-56663.086,-73648.44,5934.6113,-9327.597,-4334.1064,-24983.236,-17768.514,4273.0713
887068.372070329,-56667.688,-73649.74,5931.4375,-9331.828,-4334.758,-24985.107,-17767.701,4271.6064
887068.3760703247,-56669.965,-73655.766,5924.4385,-9333.7,-4334.758,-24985.107,-17769.002,4268.677
887068.3800703204,-56670.574,-73654.7,5924.398,-9333.578,-4328.41,-24985.393,-17774.049,4253.093
887068.3840703161,-56670.004,-73654.3,5928.874,-9334.147,-4327.8403,-24987.266,-17775.514,4248.3726
887068.3880703119,-56665.652,-73646.445,5934.896,-9332.764,-4336.3447,-24984.904,-17774.17,4248.291
887068.3920703075,-56666.953,-73646.94,5929.077,-9334.147,-4333.74,-24984.092,-17778.158,4240.804
887068.3960703032,-56663.86,-73648.03,5933.3906,-9333.496,-4330.892,-24985.19,-17780.355,4239.746
887068.4000702989,-56661.34,-73648.6,5934.326,-9332.683,-4340.6577,-24984.01,-17783.732,4230.1025
887068.4040702946,-56665.082,-73650.76,5934.448,-9333.09,-4339.681,-24988.607,-17792.44,4223.0635
887068.4080702902,-56665.082,-73652.875,5934.896,-9332.683,-4333.659,-24991.62,-17794.027,4222.534
887068.412070286,-56663.496,-73655.195,5936.9307,-9333.334,-4337.85,-24991.66,-17795.492,4223.9585
887068.4160702816,-56662.273,-73653.2,5934.0415,-9335.002,-4334.7983,-24989.91,-17791.545,4236.084
887068.4200702774,-56666.668,-73659.016,5929.6875,-9334.799,-4329.3867,-24990.479,-17791.79,4242.4727
887068.4240702731,-56670.004,-73664.516,5934.8145,-9334.188,-4336.1006,-24989.707,-17789.227,4246.135
887068.4280702687,-56671.67,-73664.43,5933.6753,-9336.02,-4337.4023,-24990.154,-17787.883,4247.3145
887068.4320702645,-56667.645,-73660.69,5938.3545,-9336.06,-4334.6357,-24987.875,-17782.227,4260.498
887068.4360702601,-56666.953,-73662.03,5941.162,-9337.321,-4334.554,-24988.486,-17783.082,4267.334
887068.4400702559,-56669.273,-73665.04,5937.0527,-9339.641,-4337.5244,-24987.998,-17783.611,4267.619
887068.4440702515,-56675.293,-73665.125,5934.7334,-9339.926,-4336.1006,-24988.975,-17784.912,4269.5312
887068.4480702472,-56676.11,-73662.766,5934.326,-9339.641,-4334.1475,-24988.852,-17782.43,4268.3105
887068.452070243,-56677.246,-73662.68,5926.799,-9340.048,-4330.6074,-24986.613,-17783.488,4266.7236
887068.4560702386,-56676.395,-73659.836,5928.9146,-9341.105,-4335.8154,-24985.719,-17784.709,4267.375
887068.4600702344,-56678.957,-73658.41,5928.0195,-9340.495,-4333.5776,-24987.63,-17784.709,4271.159
887068.46407023,-56685.266,-73663.21,5926.229,-9341.064,-4341.024,-24988.445,-17788.127,4262.6143
887068.4680702257,-56688.152,-73668.58,5923.0957,-9343.344,-4347.6157,-24989.34,-17790.324,4252.279
887068.4720702214,-56689.008,-73673.38,5924.4385,-9346.029,-4346.0693,-24987.143,-17786.297,4244.751
887068.4760702171,-56694.824,-73677.25,5926.5137,-9345.988,-4345.337,-24984.416,-17788.33,4245.0767
887068.4800702129,-56704.348,-73687.336,5921.631,-9347.494,-4349.243,-24987.51,-17793.945,4237.671
887068.4840702085,-56706.91,-73686.445,5919.515,-9347.412,-4352.9053,-24987.06,-17789.266,4233.5615
887068.4880702042,-56705.895,-73690.266,5921.0615,-9346.762,-4349.8945,-24986.98,-17790.568,4228.0684
887068.4920701999,-56705.363,-73689.945,5924.3574,-9347.29,-4348.674,-24984.904,-17790.812,4227.092
887068.4960701956,-56708.62,-73693.85,5922.567,-9348.837,-4349.691,-24985.516,-17797.078,4215.7393
887068.5000701913,-56707.766,-73694.7,5921.4683,-9347.128,-4349.5283,-24988.12,-17803.102,4208.293
887068.504070187,-56709.23,-73694.99,5918.701,-9346.232,-4359.66,-24991.74,-17809.979,4203.939
887068.5080701826,-56714.438,-73697.92,5918.376,-9345.744,-4352.9053,-24992.92,-17817.506,4195.6787
887068.5120701784,-56717.613,-73696.45,5917.2773,-9344.401,-4341.5938,-24991.7,-17816.203,4203.0845
887068.516070174,-56709.35,-73688.03,5921.672,-9343.1,-4354.004,-24988.404,-17809.002,4211.589
887068.5200701698,-56706.91,-73682.91,5926.0664,-9342.285,-4353.6787,-24987.225,-17804.402,4212.8906
887068.5240701655,-56718.02,-73689.21,5923.5435,-9344.931,-4359.375,-24988.525,-17804.932,4213.42
887068.5280701611,-56721.926,-73689.86,5925.171,-9345.663,-4359.619,-24990.113,-17806.844,4218.4653
887068.5320701569,-56712.08,-73684.66,5923.5435,-9345.947,-4351.6846,-24986.533,-17794.637,4236.5723
887068.5360701525,-56706.098,-73683.63,5923.584,-9344.564,-4346.151,-24985.312,-17793.213,4242.2285
887068.5400701483,-56704.348,-73684.98,5924.6016,-9343.506,-4344.116,-24984.375,-17792.928,4243.205
887068.544070144,-56712.85,-73687.664,5921.0615,-9345.378,-4340.007,-24987.225,-17796.713,4236.369
887068.5480701396,-56718.832,-73691.98,5923.828,-9344.931,-4343.5874,-24986.328,-17794.922,4242.676
887068.5520701354,-56723.88,-73700.195,5922.2007,-9347.168,-4354.7363,-24983.969,-17791.504,4246.623
887068.556070131,-56732.22,-73713.22,5921.2646,-9346.802,-4355.7944,-24981.73,-17788.738,4250.0815
887068.5600701268,-56734.133,-73713.664,5922.567,-9343.1,-4344.035,-24982.83,-17793.945,4246.053
887068.5640701224,-56730.836,-73709.72,5922.567,-9342.123,-4347.209,-24986.736,-17801.555,4237.59
887068.5680701181,-56741.742,-73720.09,5921.7124,-9344.564,-4350.7896,-24988.363,-17800.945,4233.6426
887068.5720701138,-56748.047,-73726.69,5914.7544,-9346.884,-4338.7046,-24986.004,-17794.027,4243.7744
887068.5760701095,-56751.793,-73732.83,5915.324,-9348.022,-4335.9785,-24985.637,-17791.545,4248.535
887068.5800701053,-56770.062,-73745.61,5909.0576,-9350.952,-4340.2915,-24987.021,-17792.277,4246.338
887068.5840701009,-56790.246,-73762.17,5903.646,-9354.736,-4348.999,-24986.41,-17788.738,4250.6104
887068.5880700966,-56802.41,-73774.3,5897.99,-9357.26,-4346.0693,-24982.951,-17783.082,4256.633
887068.5920700923,-56814.25,-73788.62,5896.566,-9359.619,-4343.547,-24979.168,-17781.82,4259.237
887068.596070088,-56824.22,-73800.87,5896.037,-9362.509,-4350.342,-24975.953,-17779.338,4263.8755
887068.6000700837,-56835.246,-73817.75,5891.3574,-9363.647,-4352.702,-24973.633,-17772.34,4269.206
887068.6040700794,-56850.547,-73836.43,5887.8174,-9365.927,-4350.627,-24974.406,-17767.822,4272.949
887068.608070075,-56865.234,-73849.53,5882.7314,-9367.758,-4352.051,-24974.162,-17766.602,4267.8633
887068.6120700708,-56875.285,-73861.82,5880.3306,-9369.263,-4344.564,-24971.559,-17764.04,4272.0137
887068.6160700665,-56883.586,-73873.945,5879.5576,-9371.176,-4335.9785,-24971.232,-17762.41,4279.3784
887068.6200700622,-56885.176,-73878.54,5881.2666,-9370.402,-4344.116,-24969.117,-17752.564,4294.637
887068.6240700579,-56901.574,-73891.52,5874.471,-9373.901,-4354.2075,-24966.188,-17745.809,4306.885
887068.6280700535,-56908.043,-73892.01,5875.2036,-9373.657,-4351.5625,-24966.553,-17743.734,4316.5693
887068.6320700493,-56905.4,-73894.164,5881.7954,-9375.448,-4349.0806,-24966.635,-17745.809,4317.2607
887068.636070045,-56910.156,-73902.23,5879.0693,-9375.8955,-4348.5107,-24966.432,-17748.617,4319.4175
887068.6400700407,-56909.63,-73908.66,5876.0176,-9375.244,-4345.866,-24966.27,-17747.518,4324.87
887068.6440700364,-56912.805,-73912.48,5879.2725,-9374.472,-4351.6846,-24965.332,-17745.361,4326.213
887068.648070032,-56918.094,-73915.57,5878.1333,-9374.675,-4349.6504,-24964.64,-17746.867,4322.225
887068.6520700278,-56926.637,-73923.016,5873.8203,-9377.116,-4350.464,-24966.105,-17753.459,4310.0996
887068.6560700234,-56923.87,-73919.96,5875.244,-9376.099,-4349.6504,-24964.355,-17748.088,4318.807
887068.6600700192,-56930.83,-73928.8,5871.826,-9378.093,-4356.405,-24966.879,-17750.732,4320.4346
887068.6640700148,-56936.035,-73933.8,5872.274,-9377.238,-4357.1777,-24968.914,-17751.385,4315.715
887068.6680700105,-56941.0,-73938.64,5876.9126,-9376.059,-4354.696,-24969.158,-17752.076,4306.926
887068.6720700063,-56937.42,-73933.88,5878.418,-9376.099,-4353.6377,-24967.082,-17741.62,4314.9414
887068.6760700019,-56941.49,-73936.32,5871.4194,-9377.279,-4348.8364,-24963.46,-17738.525,4324.056
887068.6800699977,-56947.227,-73942.305,5871.867,-9377.401,-4348.796,-24960.816,-17739.178,4318.563
887068.6840699933,-56955.12,-73947.63,5867.839,-9378.174,-4347.982,-24962.729,-17738.24,4315.511
887068.688069989,-56956.83,-73945.35,5866.4146,-9379.558,-4362.427,-24961.223,-17735.475,4321.2485
887068.6920699847,-56955.08,-73942.67,5871.216,-9378.215,-4349.7314,-24959.758,-17730.877,4329.3867
887068.6960699804,-56962.04,-73952.19,5868.6934,-9379.11,-4344.8486,-24959.84,-17730.795,4331.6245
887068.7000699762,-56962.363,-73954.67,5871.7856,-9380.778,-4357.585,-24960.41,-17731.73,4329.3457
887068.7040699718,-56956.18,-73945.88,5873.576,-9377.319,-4350.0977,-24961.63,-17730.266,4323.4863
887068.7080699675,-56957.6,-73944.016,5872.4365,-9376.099,-4348.633,-24961.467,-17728.516,4325.155
887068.7120699632,-56963.83,-73955.04,5872.0703,-9378.337,-4347.168,-24961.346,-17729.127,4322.103
887068.7160699589,-56969.688,-73957.36,5871.216,-9381.674,-4348.3076,-24961.914,-17733.846,4324.9106
887068.7200699546,-56974.043,-73965.66,5867.839,-9383.423,-4348.3887,-24963.258,-17740.113,4321.533
887068.7240699503,-56974.773,-73965.21,5868.612,-9381.226,-4348.226,-24965.414,-17738.648,4325.6025
887068.7280699459,-56967.855,-73954.23,5867.025,-9378.947,-4348.3076,-24963.828,-17730.998,4343.2617
887068.7320699417,-56963.38,-73952.11,5872.7217,-9379.761,-4353.2715,-24962.24,-17730.713,4351.766
887068.7360699374,-56968.59,-73960.53,5873.7793,-9382.121,-4356.323,-24959.88,-17731.527,4353.3936
887068.7400699331,-56963.79,-73954.266,5873.047,-9379.028,-4346.0693,-24959.393,-17734.254,4349.6094
887068.7440699288,-56963.38,-73953.9,5874.349,-9376.709,-4346.1914,-24958.945,-17736.492,4348.1855
887068.7480699244,-56968.223,-73956.42,5872.3145,-9376.465,-4346.395,-24961.305,-17739.828,4349.2026
887068.7520699202,-56967.734,-73956.51,5872.4775,-9377.768,-4341.268,-24962.646,-17744.71,4344.93
887068.7560699158,-56971.477,-73964.12,5874.5527,-9379.761,-4349.7725,-24961.63,-17749.105,4344.4824
887068.7600699116,-56967.207,-73956.664,5874.797,-9375.8545,-4340.8613,-24960.287,-17748.902,4344.157
887068.7640699073,-56969.85,-73955.57,5871.704,-9375.692,-4338.2163,-24960.979,-17747.152,4343.0586
887068.7680699029,-56974.977,-73958.984,5872.3145,-9379.761,-4351.8477,-24960.49,-17743.205,4341.838
887068.7720698987,-56972.13,-73957.97,5873.698,-9381.063,-4344.8896,-24958.049,-17742.799,4348.0225
887068.7760698943,-56971.07,-73955.94,5873.7793,-9380.534,-4338.9893,-24958.172,-17746.826,4341.2275
887068.7800698901,-56980.266,-73961.19,5869.2627,-9382.284,-4356.9336,-24955.445,-17742.107,4346.029
887068.7840698857,-56987.67,-73968.18,5865.6006,-9380.656,-4352.1323,-24956.828,-17738.24,4347.0054
887068.7880698814,-56981.69,-73969.28,5872.6807,-9381.47,-4357.463,-24960.205,-17745.525,4338.8267
887068.7920698771,-56972.332,-73957.484,5880.249,-9379.558,-4355.5503,-24956.137,-17737.508,4348.8364
887068.7960698728,-56981.04,-73965.13,5878.052,-9380.127,-4347.168,-24954.266,-17733.521,4351.9697
887068.8000698686,-56988.324,-73978.03,5873.9424,-9383.22,-4363.2407,-24955.934,-17735.271,4348.633
887068.8040698642,-56990.723,-73978.64,5872.7217,-9383.139,-4359.416,-24956.219,-17733.44,4348.2666
887068.8080698599,-56992.23,-73975.99,5873.861,-9382.895,-4358.1543,-24956.422,-17729.777,4350.0977
887068.8120698556,-56993.086,-73983.52,5872.518,-9384.318,-4357.707,-24955.12,-17730.877,4348.918
887068.8160698513,-56993.613,-73983.12,5871.4194,-9382.854,-4345.337,-24954.062,-17733.643,4350.708
887068.820069847,-56996.91,-73990.12,5869.67,-9384.115,-4357.3813,-24951.986,-17731.771,4353.109
887068.8240698427,-56994.305,-73988.77,5872.274,-9384.929,-4372.7217,-24952.922,-17730.957,4346.2324
887068.8280698383,-56994.1,-73977.83,5870.8906,-9382.69,-4361.125,-24955.078,-17734.254,4341.7563
887068.8320698341,-56997.926,-73980.72,5868.6934,-9384.766,-4364.7056,-24953.736,-17736.004,4343.628
887068.8360698298,-56998.58,-73988.98,5868.286,-9386.3125,-4367.4316,-24950.44,-17734.09,4346.5576
887068.8400698255,-56985.72,-73980.59,5876.587,-9381.918,-4355.184,-24946.982,-17724.977,4355.876
887068.8440698212,-56991.945,-73985.35,5874.5527,-9380.534,-4354.9805,-24949.26,-17729.533,4348.2666
887068.8480698168,-56992.8,-73985.44,5877.116,-9378.866,-4356.5674,-24951.416,-17731.975,4347.3716
887068.8520698126,-56994.062,-73982.22,5875.8955,-9380.737,-4356.201,-24951.05,-17734.66,4346.0693
887068.8560698082,-56989.22,-73978.84,5874.797,-9381.999,-4353.882,-24951.377,-17735.84,4344.808
887068.860069804,-56985.76,-73975.836,5877.2383,-9379.843,-4360.1074,-24952.068,-17735.271,4345.866
887068.8640697997,-56994.875,-73981.41,5871.9893,-9381.674,-4363.729,-24954.713,-17738.078,4343.3027
887068.8680697953,-56998.375,-73985.35,5873.9424,-9381.999,-4360.5957,-24953.574,-17739.096,4335.9375
887068.8720697911,-56996.258,-73984.21,5878.459,-9381.308,-4365.194,-24954.51,-17738.037,4336.711
887068.8760697867,-56998.945,-73987.59,5872.5586,-9383.911,-4373.861,-24954.51,-17736.084,4344.1978
887068.8800697825,-56995.65,-73990.32,5874.349,-9383.505,-4369.67,-24953.166,-17733.807,4347.29
887068.8840697781,-56995.117,-73985.555,5879.7607,-9380.697,-4365.0312,-24953.574,-17731.08,4346.843
887068.8880697738,-56991.945,-73980.39,5877.6045,-9380.29,-4356.4453,-24954.143,-17728.557,4349.8945
887068.8920697696,-56992.555,-73981.2,5875.0815,-9382.365,-4353.1904,-24952.393,-17730.145,4341.1865
887068.8960697652,-56992.11,-73985.92,5877.3604,-9385.01,-4360.3516,-24951.824,-17728.68,4340.6577
887068.900069761,-56991.945,-73992.59,5875.8955,-9384.97,-4362.956,-24950.807,-17726.277,4346.6797
887068.9040697566,-56993.777,-73992.76,5877.889,-9381.877,-4361.2876,-24951.457,-17725.912,4344.7266
887068.9080697523,-56997.03,-73992.23,5875.122,-9382.69,-4366.008,-24952.354,-17727.783,4343.2617
887068.912069748,-57000.164,-73996.46,5873.1284,-9384.44,-4367.025,-24950.889,-17733.562,4337.728
887068.9160697437,-56997.64,-73995.0,5875.692,-9385.661,-4362.02,-24949.18,-17730.998,4339.8438
887068.9200697395,-56999.105,-73996.55,5875.2036,-9385.498,-4362.6304,-24950.684,-17733.521,4340.9424
887068.9240697351,-57004.723,-73999.06,5868.856,-9386.557,-4366.089,-24954.428,-17738.363,4334.554
887068.9280697308,-57006.594,-73996.13,5871.216,-9384.766,-4358.724,-24955.607,-17736.94,4337.2803
887068.9320697265,-57003.625,-73992.516,5872.6807,-9386.271,-4366.008,-24956.219,-17737.549,4329.061
887068.9360697222,-57003.867,-73996.87,5871.501,-9386.108,-4367.269,-24955.486,-17738.24,4332.4385
887068.9400697179,-57001.832,-73995.0,5873.7793,-9384.033,-4364.38,-24953.695,-17736.166,4337.4434
887068.9440697136,-56999.23,-73990.97,5876.7905,-9380.981,-4352.417,-24957.684,-17735.76,4336.263
887068.9480697092,-56994.508,-73989.55,5883.342,-9380.209,-4364.177,-24956.951,-17732.016,4338.176
887068.952069705,-56988.527,-73986.66,5884.7656,-9380.331,-4366.13,-24955.81,-17731.242,4343.75
887068.9560697007,-56993.086,-73989.625,5881.185,-9380.9,-4353.597,-24956.463,-17735.516,4342.977
887068.9600696964,-56999.84,-73994.95,5877.116,-9382.65,-4357.137,-24959.025,-17742.31,4333.9033
887068.9640696921,-57002.93,-73995.445,5878.54,-9382.69,-4366.781,-24961.426,-17743.084,4332.601
887068.9680696877,-57003.83,-73994.63,5878.662,-9380.453,-4363.8105,-24963.543,-17745.117,4329.956
887068.9720696835,-56997.805,-73986.62,5881.2666,-9377.849,-4352.987,-24962.443,-17743.49,4328.41
887068.9760696791,-56988.73,-73982.625,5885.946,-9377.401,-4359.3345,-24962.24,-17739.422,4336.9956
887068.9800696749,-56990.36,-73988.2,5882.5684,-9377.686,-4360.6367,-24961.834,-17742.799,4337.7686
887068.9840696706,-56992.027,-73989.75,5883.016,-9377.686,-4362.02,-24962.158,-17737.387,4347.087
887068.9880696662,-56992.23,-73991.664,5881.6733,-9377.319,-4361.8574,-24961.63,-17731.73,4354.411
887068.992069662,-56994.67,-73989.14,5882.243,-9377.6045,-4355.957,-24961.182,-17733.44,4357.951
887068.9960696576,-56992.027,-73992.44,5884.8877,-9374.553,-4353.801,-24961.06,-17731.121,4355.835
887069.0000696534,-56995.117,-74000.45,5883.342,-9376.059,-4362.142,-24962.2,-17732.38,4351.4404
887069.004069649,-56999.473,-74001.1,5885.783,-9377.36,-4358.114,-24964.64,-17732.951,4347.738
887069.0080696447,-57000.9,-73997.766,5879.1504,-9377.523,-4351.115,-24967.53,-17734.945,4346.395
887069.0120696404,-56998.13,-73999.23,5880.697,-9377.523,-4352.661,-24967.938,-17741.17,4335.897
887069.0160696361,-56993.695,-74001.18,5885.3354,-9378.418,-4364.299,-24964.56,-17736.328,4341.512
887069.0200696319,-56995.812,-74001.75,5886.882,-9377.727,-4360.311,-24962.81,-17732.666,4343.425
887069.0240696275,-57008.344,-74004.16,5881.3887,-9377.401,-4353.3125,-24966.594,-17737.305,4341.1865
887069.0280696232,-56999.473,-73997.234,5888.713,-9375.57,-4363.8105,-24968.832,-17739.014,4337.8906
887069.0320696189,-56990.316,-73990.36,5889.323,-9377.686,-4361.5723,-24967.734,-17736.084,4345.215
887069.0360696146,-56991.375,-73992.68,5890.869,-9378.337,-4357.3813,-24966.879,-17736.451,4345.825
887069.0400696103,-57001.793,-74006.06,5886.3525,-9381.145,-4365.316,-24968.303,-17738.322,4340.0474
887069.044069606,-57004.844,-74010.87,5882.6094,-9379.883,-4363.1187,-24968.018,-17740.967,4336.589
887069.0480696016,-57000.816,-74006.266,5886.434,-9376.587,-4363.2812,-24968.71,-17741.414,4341.3086
887069.0520695974,-57004.6,-74008.47,5884.847,-9377.6045,-4358.1543,-24969.85,-17743.693,4341.1055
887069.0560695931,-57007.12,-74008.75,5878.825,-9382.365,-4359.172,-24971.396,-17748.7,4333.415
887069.0600695888,-57000.082,-73999.59,5884.725,-9380.778,-4366.211,-24969.117,-17741.17,4344.6455
887069.0640695845,-57002.24,-74001.1,5888.4688,-9376.506,-4358.9277,-24968.506,-17742.717,4337.2803
887069.0680695801,-57002.035,-74001.266,5888.9976,-9377.686,-4364.0137,-24969.361,-17741.13,4337.5244
887069.0720695759,-57006.39,-74007.29,5885.946,-9378.093,-4359.4565,-24968.955,-17739.137,4341.5938
887069.0760695715,-57002.93,-74006.19,5890.3403,-9376.913,-4345.9883,-24966.432,-17737.06,4344.116
887069.0800695673,-56996.746,-74002.24,5889.201,-9377.523,-4357.788,-24965.658,-17735.19,4345.866
887069.084069563,-57003.418,-74005.984,5888.2246,-9378.906,-4366.0483,-24968.506,-17733.113,4346.802
887069.0880695586,-57004.68,-74006.11,5892.2935,-9376.465,-4353.475,-24969.158,-17731.975,4346.5576
887069.0920695544,-56998.047,-73999.68,5898.5596,-9375.285,-4350.5454,-24969.32,-17730.592,4353.231
887069.09606955,-56995.527,-73993.414,5895.1826,-9377.197,-4346.3545,-24967.814,-17731.61,4348.999
887069.1000695458,-56997.316,-73995.61,5892.6597,-9378.256,-4350.2607,-24967.002,-17731.04,4351.156
887069.1040695414,-56996.258,-73993.62,5894.6533,-9374.96,-4356.771,-24969.238,-17733.48,4349.813
887069.1080695371,-57002.44,-73997.48,5895.3047,-9375.326,-4356.1606,-24969.646,-17737.143,4345.622
887069.1120695329,-57004.113,-73995.32,5893.5957,-9378.744,-4356.3643,-24967.938,-17736.736,4348.674
887069.1160695285,-57002.85,-74000.41,5895.345,-9379.802,-4354.289,-24967.285,-17735.107,4348.3076
887069.1200695243,-57004.76,-74000.9,5890.625,-9380.127,-4351.278,-24970.703,-17738.934,4340.251
887069.1240695199,-57004.477,-73998.3,5886.312,-9381.348,-4363.851,-24970.703,-17737.102,4347.982
887069.1280695156,-57007.406,-74002.445,5887.655,-9379.558,-4358.8057,-24971.191,-17739.34,4340.1694
887069.1320695113,-57006.188,-74004.92,5884.359,-9378.5,-4353.0684,-24970.664,-17739.787,4340.9424
887069.136069507,-56999.188,-74002.41,5886.8003,-9380.493,-4360.84,-24968.547,-17734.742,4350.6675
887069.1400695028,-57001.832,-74006.31,5890.422,-9381.022,-4359.619,-24970.908,-17736.898,4348.633
887069.1440694984,-57004.316,-74010.91,5884.359,-9379.965,-4359.741,-24970.135,-17735.963,4346.5576
887069.148069494,-57006.633,-74014.484,5880.127,-9381.836,-4363.5664,-24970.297,-17736.898,4341.024
887069.1520694898,-57012.207,-74021.52,5879.232,-9383.261,-4362.956,-24969.482,-17740.234,4338.9487
887069.1560694855,-57009.81,-74023.805,5880.127,-9384.115,-4364.787,-24966.676,-17739.299,4337.5244
887069.1600694812,-57012.37,-74023.6,5875.936,-9385.173,-4356.0386,-24964.56,-17738.484,4343.75
887069.1640694769,-57010.867,-74017.87,5880.168,-9383.627,-4364.3394,-24967.205,-17740.52,4338.745
887069.1680694725,-57012.82,-74017.5,5878.54,-9381.877,-4364.502,-24969.85,-17743.408,4330.0376
887069.1720694683,-57008.14,-74015.99,5879.883,-9382.8125,-4363.607,-24970.053,-17739.502,4338.9893
887069.176069464,-57000.613,-74011.805,5876.4243,-9383.098,-4360.1074,-24966.514,-17730.877,4349.121
887069.1800694597,-57003.137,-74014.53,5875.285,-9382.8125,-4350.3013,-24964.234,-17730.145,4348.755
887069.1840694554,-57001.426,-74008.625,5872.5586,-9382.365,-4356.893,-24963.867,-17728.354,4350.952
887069.188069451,-57002.44,-74004.4,5875.244,-9380.575,-4361.206,-24961.223,-17727.498,4350.3013
887069.1920694468,-57001.508,-74003.38,5878.581,-9378.825,-4354.289,-24958.863,-17725.994,4351.3594
887069.1960694424,-57003.46,-74003.3,5876.2207,-9379.558,-4352.661,-24960.205,-17730.672,4346.4355
887069.2000694382,-57001.953,-74006.47,5875.6104,-9379.313,-4356.6084,-24962.281,-17739.422,4340.7393
887069.2040694339,-57007.0,-74006.516,5875.285,-9378.906,-4357.666,-24967.326,-17746.867,4330.5664
887069.2080694295,-57003.746,-73996.91,5880.005,-9376.587,-4349.243,-24968.547,-17741.049,4333.252
887069.2120694253,-56994.71,-73990.234,5876.953,-9377.523,-4356.8115,-24967.408,-17738.037,4344.035
887069.2160694209,-56987.062,-73984.17,5877.116,-9376.547,-4352.295,-24966.553,-17739.705,4346.273
887069.2200694167,-56980.43,-73978.84,5881.1445,-9372.641,-4348.1855,-24967.205,-17738.69,4347.046
887069.2240694123,-56981.934,-73971.234,5880.819,-9368.734,-4344.0757,-24969.688,-17746.826,4324.992
887069.228069408,-56979.13,-73957.28,5881.1035,-9369.467,-4347.575,-24970.256,-17747.6,4327.4336
887069.2320694037,-56967.285,-73947.43,5885.173,-9369.263,-4338.4604,-24970.379,-17749.959,4329.2236
887069.2360693994,-56959.92,-73948.24,5883.8706,-9368.327,-4336.3037,-24970.176,-17753.256,4329.997
887069.2400693952,-56950.44,-73941.94,5891.6426,-9367.147,-4347.168,-24970.379,-17755.86,4325.6836
887069.2440693908,-56944.746,-73935.55,5896.5254,-9365.723,-4353.3125,-24973.512,-17760.295,4318.1562
887069.2480693865,-56933.594,-73915.94,5893.1074,-9362.915,-4344.93,-24973.959,-17759.725,4318.319
887069.2520693822,-56926.15,-73909.51,5898.763,-9362.793,-4340.8613,-24973.756,-17759.074,4318.685
887069.2560693779,-56926.598,-73911.586,5897.99,-9365.112,-4345.378,-24973.389,-17761.312,4314.372
887069.2600693736,-56923.098,-73909.55,5901.042,-9363.078,-4348.3887,-24972.494,-17757.936,4319.255
887069.2640693693,-56917.44,-73902.305,5898.1934,-9362.265,-4346.4355,-24974.285,-17753.377,4322.347
887069.268069365,-56917.156,-73898.93,5896.322,-9362.427,-4345.0117,-24972.941,-17756.062,4314.331
887069.2720693607,-56920.207,-73902.67,5897.5425,-9363.647,-4340.088,-24972.82,-17760.133,4307.495
887069.2760693564,-56911.176,-73894.05,5904.46,-9361.735,-4329.753,-24969.97,-17754.842,4319.336
887069.2800693521,-56906.82,-73888.92,5899.984,-9360.718,-4332.7637,-24968.303,-17752.238,4321.208
887069.2840693478,-56909.26,-73887.414,5896.7285,-9359.945,-4327.108,-24972.78,-17756.268,4315.3076
887069.2880693434,-56916.79,-73891.195,5894.8975,-9363.525,-4339.885,-24973.43,-17757.121,4312.297
887069.2920693392,-56926.84,-73899.01,5890.747,-9366.537,-4339.193,-24974.65,-17760.213,4308.2275
887069.2960693348,-56924.887,-73897.79,5892.375,-9367.514,-4333.5776,-24971.885,-17757.324,4311.239
887069.3000693306,-56928.184,-73905.31,5892.456,-9370.036,-4343.8315,-24972.129,-17755.574,4313.1104
887069.3040693263,-56933.72,-73910.81,5891.8867,-9367.432,-4335.124,-24974.691,-17755.127,4311.8086
887069.3080693219,-56938.723,-73911.625,5891.1543,-9368.124,-4343.628,-24974.691,-17752.727,4315.4707
887069.3120693177,-56944.99,-73916.18,5893.0664,-9371.135,-4345.134,-24975.75,-17752.645,4314.9414
887069.3160693133,-56943.688,-73917.03,5895.63,-9370.6875,-4339.8438,-24972.494,-17749.268,4322.9575
887069.3200693091,-56950.645,-73923.42,5883.1787,-9371.542,-4344.32,-24971.68,-17747.967,4325.887
887069.3240693047,-56955.527,-73922.0,5884.3994,-9369.345,-4344.5234,-24974.203,-17747.355,4324.382
887069.3280693004,-56963.746,-73930.55,5881.958,-9368.856,-4340.6577,-24976.156,-17750.285,4322.754
887069.3320692962,-56962.402,-73934.695,5883.5044,-9368.774,-4339.071,-24972.412,-17746.541,4328.6133
887069.3360692918,-56959.516,-73930.83,5881.6733,-9371.46,-4342.285,-24973.023,-17748.455,4323.5273
887069.3400692876,-56967.285,-73942.836,5876.2207,-9373.657,-4347.738,-24975.18,-17757.121,4314.8193
887069.3440692832,-56972.293,-73948.53,5879.0283,-9373.047,-4352.3765,-24976.238,-17753.988,4317.4644
887069.3480692789,-56975.586,-73945.84,5884.481,-9372.07,-4346.1104,-24975.791,-17746.623,4329.1016
887069.3520692746,-56974.246,-73942.14,5882.324,-9372.681,-4346.1914,-24973.715,-17742.717,4335.449
887069.3560692703,-56973.918,-73946.086,5882.4463,-9373.088,-4344.1978,-24972.291,-17742.635,4334.4727
887069.360069266,-56972.74,-73952.44,5883.83,-9373.047,-4347.4937,-24971.68,-17740.967,4334.6763
887069.3640692617,-56980.633,-73958.21,5884.9287,-9372.722,-4347.087,-24970.094,-17739.705,4331.9907
887069.3680692574,-56980.797,-73954.14,5886.0273,-9373.942,-4354.6143,-24965.373,-17732.992,4339.5996
887069.3720692531,-56981.203,-73952.72,5887.4106,-9374.919,-4356.7305,-24963.014,-17729.451,4342.611
887069.3760692488,-56983.727,-73959.31,5884.847,-9375.488,-4352.2544,-24964.111,-17733.113,4340.0474
887069.3800692445,-56991.418,-73965.945,5880.127,-9378.215,-4358.602,-24968.506,-17738.12,4337.036
887069.3840692402,-56995.973,-73967.086,5880.168,-9378.256,-4359.294,-24971.273,-17739.014,4334.9204
887069.3880692358,-56999.758,-73970.26,5877.279,-9379.802,-4366.333,-24971.559,-17742.596,4330.3633
887069.3920692316,-56995.363,-73969.16,5878.6216,-9378.174,-4357.9917,-24968.223,-17740.723,4333.049
887069.3960692273,-56992.35,-73974.77,5880.9814,-9379.883,-4360.189,-24968.303,-17737.143,4342.082
887069.400069223,-56993.777,-73980.15,5879.0693,-9378.337,-4355.1025,-24968.547,-17736.166,4339.5186
887069.4040692187,-57001.465,-73984.7,5874.675,-9380.168,-4354.7363,-24970.5,-17736.287,4334.839
887069.4080692143,-57008.914,-73984.055,5873.4946,-9381.226,-4357.137,-24969.361,-17735.84,4333.659
887069.4120692101,-57004.844,-73981.04,5883.667,-9381.389,-4354.289,-24966.514,-17729.94,4340.454
887069.4160692057,-57007.406,-73987.47,5884.1963,-9382.65,-4359.0903,-24966.797,-17733.521,4335.7344
887069.4200692015,-57007.938,-73987.47,5875.163,-9382.487,-4350.2197,-24969.035,-17736.043,4336.7515
887069.4240691971,-57014.12,-73991.78,5868.449,-9383.017,-4355.998,-24970.256,-17735.475,4336.263
887069.4280691928,-57010.176,-73989.22,5878.4995,-9380.941,-4357.8696,-24971.885,-17733.725,4336.5073
887069.4320691886,-57012.86,-73986.984,5875.2036,-9382.487,-4361.2876,-24968.588,-17731.445,4339.5186
887069.4360691842,-57014.69,-73985.88,5870.4023,-9382.568,-4354.289,-24966.717,-17735.922,4344.9707
887069.44006918,-57016.848,-73994.63,5866.374,-9384.318,-4360.0264,-24967.002,-17742.555,4338.2163
887069.4440691756,-57014.73,-73991.78,5872.966,-9382.69,-4364.38,-24966.676,-17739.096,4343.221
887069.4480691713,-57014.04,-73990.766,5875.8955,-9381.796,-4362.264,-24969.117,-17737.875,4340.8203
887069.452069167,-57010.54,-73992.59,5876.0176,-9382.772,-4355.184,-24969.2,-17737.264,4342.489
887069.4560691627,-57003.95,-73990.56,5879.5576,-9380.981,-4355.3877,-24968.223,-17732.992,4352.051
887069.4600691585,-57005.293,-73994.59,5884.481,-9381.43,-4362.1826,-24964.193,-17728.23,4358.7646
887069.4640691541,-57010.254,-73995.61,5883.464,-9381.633,-4364.299,-24965.129,-17728.23,4356.771
887069.4680691498,-57008.75,-73991.17,5882.894,-9380.778,-4360.0264,-24962.24,-17720.826,4365.56
887069.4720691455,-57009.523,-73991.25,5884.2773,-9381.389,-4358.6426,-24959.637,-17717.732,4369.67
887069.4760691412,-57012.207,-73995.93,5880.8594,-9382.935,-4352.7427,-24959.96,-17721.111,4363.2407
887069.480069137,-57016.645,-74002.16,5877.8076,-9384.604,-4354.533,-24958.537,-17725.871,4354.8584
887069.4840691326,-57016.074,-73994.266,5879.8423,-9381.267,-4356.4453,-24958.863,-17720.379,4360.881
887069.4880691282,-57021.16,-73994.18,5879.598,-9381.104,-4365.8857,-24961.305,-17720.744,4357.8696
887069.492069124,-57020.348,-73991.664,5883.5044,-9381.063,-4356.3643,-24963.135,-17724.53,4355.754
887069.4960691197,-57021.16,-73994.305,5881.0225,-9382.568,-4358.724,-24963.543,-17727.418,4352.783
887069.5000691154,-57022.87,-73996.46,5882.243,-9382.04,-4361.5317,-24963.623,-17733.318,4344.2793
887069.5040691111,-57024.457,-74000.53,5880.29,-9381.796,-4363.159,-24964.275,-17734.62,4344.157
887069.5080691067,-57033.0,-74007.61,5876.709,-9383.789,-4364.1357,-24967.246,-17740.805,4329.1426
887069.5120691025,-57034.26,-74008.34,5873.291,-9386.76,-4363.4033,-24967.205,-17739.705,4328.247
887069.5160690981,-57026.33,-74004.195,5874.3896,-9384.644,-4360.881,-24967.002,-17735.393,4334.432
887069.5200690939,-57028.65,-74012.29,5869.426,-9386.149,-4364.665,-24965.781,-17734.172,4334.2695
887069.5240690896,-57026.207,-74009.24,5873.983,-9381.958,-4356.323,-24967.002,-17732.79,4338.867
887069.5280690852,-57029.785,-74010.7,5875.57,-9384.318,-4363.2812,-24969.035,-17735.066,4332.6826
887069.532069081,-57023.848,-74000.086,5881.5107,-9384.237,-4366.252,-24968.182,-17732.057,4335.083
887069.5360690766,-57019.25,-73996.34,5882.121,-9385.132,-4357.3813,-24967.734,-17729.736,4344.5234
887069.5400690724,-57027.062,-74006.31,5878.8657,-9386.882,-4349.121,-24966.797,-17735.148,4337.1177
887069.544069068,-57028.16,-74008.586,5880.493,-9386.435,-4362.8745,-24965.088,-17735.271,4329.2646
887069.5480690637,-57033.45,-74010.5,5877.0347,-9384.726,-4360.9214,-24965.617,-17736.654,4328.8574
887069.5520690595,-57030.316,-74012.78,5877.4414,-9385.254,-4360.1074,-24963.746,-17731.16,4338.257
887069.5560690551,-57027.14,-74004.766,5879.6387,-9385.254,-4364.502,-24964.031,-17728.271,4342.285
887069.5600690509,-57022.992,-74003.13,5882.202,-9385.742,-4363.4443,-24963.176,-17729.451,4339.7627
887069.5640690465,-57021.934,-74003.38,5885.946,-9384.848,-4363.7695,-24965.902,-17733.398,4338.094
887069.5680690422,-57020.305,-74003.055,5882.8125,-9384.033,-4361.6943,-24968.547,-17730.469,4339.1523
887069.5720690379,-57017.09,-73999.39,5885.132,-9383.627,-4352.9463,-24965.088,-17725.465,4347.2495
887069.5760690336,-57015.547,-73993.9,5884.3184,-9384.033,-4351.6846,-24963.46,-17725.22,4351.4814
887069.5800690294,-57017.906,-73995.0,5881.1445,-9384.644,-4341.512,-24964.234,-17731.201,4340.373
887069.584069025,-57028.65,-74004.234,5879.354,-9385.539,-4357.585,-24962.81,-17733.521,4331.543
887069.5880690207,-57026.652,-73995.93,5883.8706,-9382.8125,-4355.1025,-24964.072,-17731.283,4333.944
887069.5920690164,-57027.266,-73998.91,5879.8423,-9385.539,-4353.6787,-24964.885,-17736.736,4329.875
887069.5960690121,-57024.375,-74001.914,5875.366,-9387.045,-4351.9697,-24963.055,-17736.451,4329.59
887069.6000690078,-57019.94,-73991.336,5876.7905,-9384.929,-4355.591,-24963.867,-17732.951,4334.88
887069.6040690035,-57024.496,-73991.664,5875.285,-9383.83,-4351.2373,-24965.658,-17731.771,4338.135
887069.6080689991,-57025.516,-73996.55,5878.052,-9383.586,-4352.173,-24965.088,-17729.127,4336.67
887069.6120689949,-57018.965,-73993.77,5879.9644,-9385.01,-4354.289,-24966.188,-17729.412,4335.6934
887069.6160689906,-57016.4,-73993.49,5881.185,-9385.132,-4348.552,-24966.676,-17727.742,4342.8955
887069.6200689862,-57018.434,-73992.44,5884.847,-9385.214,-4353.9634,-24964.479,-17726.318,4348.877
887069.624068982,-57019.53,-73991.25,5881.7954,-9383.708,-4351.888,-24964.031,-17726.36,4348.0635
887069.6280689776,-57025.72,-73999.59,5879.802,-9382.976,-4343.506,-24965.252,-17731.201,4336.3853
887069.6320689734,-57025.473,-73998.375,5878.9473,-9385.254,-4344.564,-24964.805,-17732.87,4333.74
887069.636068969,-57017.99,-73992.88,5882.528,-9385.905,-4357.8696,-24962.2,-17727.742,4343.425
887069.6400689647,-57026.29,-74002.445,5880.3306,-9387.167,-4363.2,-24964.56,-17732.422,4336.3447
887069.6440689604,-57027.387,-73997.97,5878.581,-9385.254,-4357.707,-24967.164,-17730.672,4337.4023
887069.6480689561,-57029.867,-73999.23,5877.767,-9383.464,-4356.079,-24969.117,-17734.62,4328.8984
887069.6520689519,-57026.695,-73996.95,5879.5576,-9383.586,-4348.8364,-24967.53,-17731.893,4336.1006
887069.6560689475,-57030.4,-74000.49,5884.1553,-9385.905,-4354.411,-24967.734,-17732.992,4340.6577
887069.6600689432,-57033.367,-74012.086,5876.0176,-9389.364,-4358.846,-24969.238,-17738.934,4330.4854
887069.6640689389,-57030.4,-74007.734,5879.4355,-9385.986,-4351.7256,-24969.361,-17738.078,4329.6714
887069.6680689346,-57028.04,-74000.9,5888.835,-9382.162,-4351.115,-24969.443,-17735.637,4336.5073
887069.6720689303,-57028.65,-74000.125,5886.556,-9384.399,-4345.0522,-24968.832,-17738.12,4334.066
887069.676068926,-57026.41,-74000.77,5886.1494,-9384.5625,-4342.6514,-24968.426,-17736.98,4337.6465
887069.6800689216,-57021.973,-74000.61,5886.4746,-9381.552,-4340.332,-24965.861,-17733.236,4345.825
887069.6840689174,-57022.055,-73998.375,5888.3057,-9382.446,-4356.242,-24966.797,-17729.615,4346.7207
887069.6880689131,-57026.367,-73993.9,5888.387,-9382.69,-4352.458,-24967.938,-17729.736,4339.6406
887069.6920689088,-57025.434,-73992.07,5886.4746,-9382.121,-4349.8535,-24965.537,-17726.4,4345.337
887069.6960689045,-57023.36,-73998.25,5889.608,-9380.941,-4343.506,-24965.049,-17726.074,4346.1104
887069.7000689001,-57029.22,-74008.18,5888.916,-9382.162,-4350.179,-24964.64,-17729.615,4338.135
887069.7040688959,-57031.7,-74014.9,5886.4746,-9381.958,-4354.696,-24964.764,-17731.69,4333.8623
887069.7080688915,-57033.57,-74011.48,5883.0977,-9384.033,-4353.597,-24966.514,-17734.254,4333.74
887069.7120688873,-57025.598,-74010.5,5887.6953,-9382.284,-4349.0806,-24965.293,-17733.684,4339.885
887069.716068883,-57023.926,-74010.5,5885.661,-9382.121,-4343.3433,-24963.623,-17734.254,4338.0537
887069.7200688786,-57022.137,-74001.34,5887.9805,-9382.406,-4351.8066,-24964.438,-17734.213,4333.659
887069.7240688744,-57021.85,-73999.06,5890.0146,-9378.906,-4343.7095,-24966.676,-17733.562,4337.728
887069.72806887,-57018.72,-73995.85,5894.613,-9376.465,-4339.3555,-24968.467,-17733.074,4338.745
887069.7320688658,-57016.4,-73996.75,5897.583,-9378.337,-4345.866,-24967.002,-17731.893,4341.716
887069.7360688614,-57024.742,-74008.22,5893.7583,-9382.08,-4351.7256,-24966.594,-17734.701,4335.6123
887069.7400688571,-57026.652,-74011.27,5894.1245,-9381.145,-4353.1904,-24964.355,-17734.213,4334.0254
887069.7440688529,-57030.273,-74015.1,5890.422,-9380.981,-4346.2324,-24965.861,-17735.31,4333.13
887069.7480688485,-57025.84,-74008.71,5893.0664,-9381.348,-4350.83,-24966.553,-17732.625,4336.5073
887069.7520688443,-57024.7,-74009.08,5893.677,-9382.08,-4351.7256,-24965.373,-17731.324,4340.4136
887069.7560688399,-57023.645,-74009.6,5895.752,-9383.098,-4348.226,-24965.17,-17733.521,4339.8438
887069.7600688356,-57019.207,-74004.03,5896.444,-9381.755,-4349.6094,-24968.14,-17735.922,4337.077
887069.7640688313,-57021.973,-74000.61,5898.926,-9378.337,-4349.691,-24967.205,-17733.398,4336.833
887069.768068827,-57025.473,-74004.6,5896.444,-9378.5,-4352.417,-24966.514,-17731.242,4339.8438
887069.7720688228,-57027.1,-74006.39,5892.7,-9380.737,-4348.2666,-24966.309,-17733.521,4337.6875
887069.7760688184,-57028.973,-74011.76,5889.852,-9383.098,-4348.999,-24964.56,-17734.904,4335.49
887069.780068814,-57021.65,-74003.46,5893.0664,-9380.331,-4347.575,-24963.746,-17732.625,4341.268
887069.7840688098,-57029.625,-74004.766,5894.857,-9378.581,-4343.628,-24965.781,-17738.934,4331.421
887069.7880688055,-57033.043,-74004.6,5893.0664,-9377.523,-4339.437,-24967.246,-17740.479,4327.7183
887069.7920688012,-57032.31,-74010.09,5893.3105,-9379.802,-4346.965,-24967.693,-17741.17,4328.8574
887069.7960687969,-57028.32,-74011.72,5894.4907,-9381.958,-4346.7207,-24966.92,-17736.287,4335.897
887069.8000687925,-57018.92,-73999.88,5899.3735,-9378.906,-4346.0693,-24965.781,-17733.357,4338.0537
887069.8040687883,-57018.76,-73996.99,5900.9604,-9377.808,-4348.552,-24965.537,-17729.33,4341.39
887069.808068784,-57029.707,-74007.734,5895.549,-9382.04,-4352.295,-24969.117,-17733.033,4336.3037
887069.8120687797,-57029.707,-74001.1,5898.8037,-9382.8125,-4345.459,-24966.797,-17729.451,4338.8267
887069.8160687754,-57026.33,-73995.52,5894.613,-9382.65,-4344.7266,-24965.781,-17730.592,4337.1177
887069.820068771,-57029.176,-73999.43,5889.486,-9383.22,-4348.0635,-24968.1,-17736.004,4336.2227
887069.8240687668,-57031.863,-73999.06,5890.666,-9381.47,-4338.135,-24970.42,-17740.682,4328.3286
887069.8280687624,-57028.85,-73995.81,5895.793,-9379.924,-4340.9834,-24969.443,-17739.137,4328.8984
887069.8320687582,-57025.637,-73992.19,5895.549,-9382.487,-4343.425,-24968.75,-17738.81,4328.6133
887069.8360687539,-57025.92,-73991.46,5893.3516,-9384.196,-4340.902,-24967.53,-17734.822,4334.9204
887069.8400687495,-57028.402,-73996.34,5894.8164,-9385.539,-4345.9473,-24966.92,-17733.928,4338.2163
887069.8440687453,-57030.684,-74000.94,5892.253,-9384.115,-4349.813,-24968.303,-17736.287,4332.9673
887069.8480687409,-57031.617,-74002.32,5895.0195,-9381.186,-4340.454,-24973.756,-17743.043,4321.737
887069.8520687367,-57029.504,-74005.49,5897.5425,-9384.929,-4352.417,-24971.07,-17741.334,4327.2705
887069.8560687323,-57032.51,-74015.75,5893.921,-9386.963,-4351.8066,-24972.412,-17745.32,4324.3003
887069.860068728,-57032.758,-74010.375,5894.4907,-9384.481,-4346.802,-24971.64,-17743.328,4321.8184
887069.8640687237,-57035.89,-74006.8,5894.165,-9383.586,-4348.1445,-24970.094,-17737.793,4326.213
887069.8680687194,-57034.63,-74002.52,5895.3047,-9383.179,-4352.824,-24970.744,-17738.281,4327.9624
887069.8720687152,-57030.6,-73999.35,5896.6475,-9381.958,-4347.6973,-24970.867,-17737.102,4331.177
887069.8760687108,-57028.77,-73996.055,5897.6646,-9382.935,-4344.157,-24968.262,-17736.695,4327.0264
887069.8800687065,-57028.32,-73995.445,5899.455,-9380.127,-4345.7847,-24966.473,-17735.84,4326.7417
887069.8840687022,-57030.887,-73995.98,5900.1875,-9379.395,-4339.3555,-24968.262,-17733.44,4331.95
887069.8880686979,-57032.797,-73998.82,5898.3564,-9380.656,-4342.041,-24970.338,-17735.475,4329.6714
887069.8920686936,-57030.234,-73998.21,5898.519,-9380.005,-4346.3545,-24968.303,-17736.41,4329.6714
887069.8960686893,-57030.56,-74004.84,5898.397,-9381.47,-4341.716,-24970.42,-17740.113,4325.643
887069.900068685,-57029.38,-74001.75,5897.1763,-9380.941,-4337.6465,-24970.053,-17737.957,4329.468
887069.9040686807,-57034.875,-74003.945,5897.7866,-9381.999,-4351.0337,-24971.559,-17738.934,4324.382
887069.9080686764,-57039.023,-74009.52,5896.1997,-9384.521,-4353.76,-24971.07,-17736.654,4326.823
887069.9120686721,-57037.805,-74008.305,5894.8975,-9384.115,-4339.437,-24971.965,-17740.438,4317.1797
887069.9160686678,-57031.78,-74003.3,5896.24,-9384.807,-4337.4434,-24973.227,-17741.578,4316.4473
887069.9200686634,-57033.734,-74005.66,5895.3857,-9387.695,-4346.5576,-24972.088,-17739.584,4324.178
887069.9240686592,-57029.582,-74002.445,5894.45,-9385.661,-4345.5,-24973.227,-17739.502,4326.2534
887069.9280686548,-57028.363,-73997.234,5897.949,-9385.254,-4347.4937,-24974.326,-17739.543,4323.12
887069.9320686506,-57025.72,-73991.17,5901.286,-9385.661,-4343.506,-24974.0,-17736.084,4326.416
887069.9360686463,-57027.875,-73995.61,5900.106,-9385.376,-4338.4604,-24975.139,-17737.834,4327.1484
887069.9400686419,-57029.297,-74000.77,5897.746,-9385.336,-4341.5527,-24973.389,-17736.248,4330.3223
887069.9440686377,-57036.62,-74000.77,5894.735,-9385.01,-4345.256,-24972.576,-17737.06,4325.3174
887069.9480686333,-57037.273,-73999.19,5894.287,-9384.521,-4344.116,-24975.994,-17742.555,4322.0625
887069.9520686291,-57039.633,-74005.21,5892.253,-9388.062,-4343.628,-24977.744,-17748.861,4316.6914
887069.9560686247,-57037.965,-73999.836,5888.9976,-9387.492,-4341.8784,-24975.871,-17742.96,4330.3633
887069.9600686204,-57037.926,-73999.48,5891.3574,-9386.801,-4343.75,-24973.47,-17739.828,4335.49
887069.9640686162,-57041.75,-74005.375,5893.677,-9387.655,-4341.8784,-24974.0,-17741.008,4330.77
887069.9680686118,-57044.395,-74006.72,5897.1763,-9389.975,-4350.871,-24975.18,-17740.764,4326.986
887069.9720686076,-57043.824,-74000.41,5897.949,-9388.347,-4345.2964,-24973.838,-17738.12,4331.828
887069.9760686032,-57051.84,-74014.445,5892.9854,-9391.765,-4348.4297,-24974.895,-17743.652,4331.462
887069.9800685989,-57050.05,-74016.28,5892.7817,-9391.602,-4345.459,-24974.041,-17742.596,4334.432
887069.9840685946,-57050.824,-74018.92,5890.625,-9391.4795,-4350.6675,-24975.139,-17736.572,4335.9785
887069.9880685903,-57052.41,-74021.94,5893.514,-9391.846,-4357.9917,-24973.756,-17733.195,4333.7812
887069.992068586,-57046.957,-74018.48,5894.5723,-9391.5205,-4356.649,-24970.5,-17730.184,4333.5776
887069.9960685817,-57047.773,-74016.12,5891.7646,-9392.253,-4353.0684,-24969.97,-17730.145,4333.008
887070.0000685774,-57048.18,-74012.945,5892.5376,-9392.334,-4358.846,-24971.844,-17735.027,4327.6777
887070.0040685731,-57057.254,-74016.12,5889.6895,-9393.026,-4361.654,-24970.379,-17735.107,4326.823
887070.0080685688,-57055.83,-74010.17,5884.8877,-9392.294,-4348.999,-24973.35,-17734.416,4326.1313
887070.0120685645,-57054.812,-74015.95,5885.376,-9393.677,-4354.004,-24972.373,-17736.287,4327.1484
887070.0160685602,-57057.09,-74023.44,5887.004,-9392.985,-4352.336,-24973.064,-17742.188,4320.6787
887070.0200685558,-57056.684,-74026.734,5888.672,-9390.056,-4348.877,-24974.082,-17744.549,4321.7773
887070.0240685516,-57055.46,-74025.76,5887.248,-9388.266,-4355.062,-24974.53,-17742.596,4325.4805
887070.0280685473,-57052.53,-74012.984,5894.9385,-9386.719,-4356.242,-24975.18,-17740.031,4325.6025
887070.032068543,-57051.477,-74008.586,5898.153,-9387.045,-4352.783,-24975.342,-17738.322,4328.41
887070.0360685387,-57051.8,-74011.11,5897.5425,-9388.144,-4345.744,-24974.814,-17737.63,4332.113
887070.0400685343,-57051.92,-74014.53,5895.793,-9388.835,-4347.575,-24974.977,-17739.014,4332.0312
887070.0440685301,-57051.758,-74010.055,5896.4033,-9389.079,-4355.835,-24977.256,-17742.96,4323.446
887070.0480685257,-57060.305,-74017.5,5895.915,-9389.323,-4352.458,-24979.98,-17747.314,4317.1387
887070.0520685215,-57060.344,-74016.03,5898.397,-9388.713,-4343.221,-24978.027,-17741.943,4327.5557
887070.0560685172,-57058.637,-74022.26,5901.4893,-9389.689,-4348.552,-24975.424,-17740.031,4330.8105
887070.0600685128,-57050.254,-74010.664,5898.1934,-9386.882,-4341.3086,-24974.65,-17740.398,4330.6885
887070.0640685086,-57047.977,-74008.266,5897.502,-9387.655,-4350.2197,-24974.732,-17741.863,4324.056
887070.0680685042,-57051.312,-74006.266,5895.793,-9388.51,-4348.104,-24975.547,-17741.375,4327.6367
887070.0720685,-57048.87,-74006.02,5898.3154,-9388.957,-4344.5234,-24973.674,-17738.201,4333.415
887070.0760684956,-57043.99,-74000.9,5899.4956,-9388.998,-4341.4307,-24972.088,-17735.88,4335.5713
887070.0800684913,-57045.9,-74000.695,5896.24,-9388.469,-4345.0522,-24970.379,-17738.893,4329.59
887070.084068487,-57047.406,-74001.71,5896.7285,-9388.021,-4343.791,-24972.453,-17745.809,4319.336
887070.0880684827,-57045.453,-73999.39,5899.9023,-9386.841,-4350.83,-24973.227,-17744.71,4325.8467
887070.0920684785,-57039.55,-73998.91,5903.8086,-9384.44,-4337.5654,-24970.256,-17738.078,4334.6357
887070.0960684741,-57039.348,-74008.55,5901.6113,-9386.027,-4338.3384,-24969.727,-17740.113,4330.6885
887070.1000684698,-57037.926,-74012.78,5904.5005,-9388.794,-4356.649,-24968.018,-17738.607,4330.9326
887070.1040684655,-57043.38,-74016.89,5904.419,-9388.876,-4360.3926,-24970.094,-17741.863,4323.7715
887070.1080684612,-57048.098,-74013.305,5902.466,-9386.638,-4345.744,-24970.459,-17741.537,4326.7417
887070.112068457,-57050.418,-74015.46,5894.9385,-9388.388,-4339.7217,-24968.506,-17736.775,4337.2397
887070.1160684526,-57041.992,-74009.195,5901.571,-9390.422,-4344.2383,-24964.885,-17729.451,4342.977
887070.1200684482,-57039.633,-73999.8,5902.7915,-9388.916,-4346.1914,-24965.21,-17730.55,4337.8906
887070.124068444,-57039.55,-73999.555,5904.2563,-9385.661,-4345.866,-24967.814,-17737.102,4328.5728
887070.1280684397,-57043.5,-74003.22,5904.175,-9385.742,-4343.75,-24969.238,-17736.328,4332.3164
887070.1320684354,-57046.957,-74001.79,5900.106,-9388.428,-4336.2227,-24969.117,-17734.13,4335.449
887070.1360684311,-57047.61,-74000.81,5901.4893,-9387.858,-4340.129,-24966.717,-17729.94,4348.5107
887070.1400684267,-57044.23,-74005.414,5905.884,-9385.376,-4338.867,-24965.781,-17727.336,4360.84
887070.1440684225,-57044.07,-74004.805,5906.169,-9385.336,-4352.214,-24965.17,-17722.412,4371.338
887070.1480684181,-57048.707,-74006.39,5906.2095,-9385.905,-4350.6675,-24965.496,-17722.615,4366.6587
887070.1520684139,-57048.992,-74004.6,5903.5645,-9386.963,-4338.745,-24965.21,-17725.79,4356.527
887070.1560684096,-57049.848,-74009.16,5901.245,-9387.777,-4338.4604,-24964.316,-17727.459,4355.6724
887070.1600684052,-57046.387,-74011.72,5905.3955,-9386.638,-4342.6924,-24964.682,-17730.062,4355.4688
887070.164068401,-57049.4,-74012.66,5907.3486,-9386.068,-4345.6626,-24963.787,-17729.086,4350.83
887070.1680683966,-57048.707,-74009.32,5906.291,-9383.627,-4340.251,-24964.764,-17729.248,4347.534
887070.1720683924,-57043.54,-74002.93,5910.5635,-9382.731,-4340.902,-24967.123,-17728.76,4345.825
887070.176068388,-57047.285,-74009.69,5903.8496,-9386.353,-4342.8145,-24968.303,-17730.104,4345.703
887070.1800683837,-57042.277,-74006.555,5906.291,-9383.301,-4332.4385,-24967.611,-17728.883,4350.3013
887070.1840683795,-57043.62,-74005.01,5905.0293,-9383.464,-4337.4023,-24965.537,-17725.75,4349.6094
887070.1880683751,-57039.55,-74003.26,5912.3945,-9382.284,-4339.559,-24965.537,-17722.738,4348.999
887070.1920683709,-57041.547,-74007.49,5908.9766,-9385.254,-4343.1396,-24967.45,-17725.057,4352.3765
887070.1960683665,-57045.535,-74012.9,5908.1626,-9387.045,-4340.332,-24967.938,-17730.104,4346.1914
887070.2000683622,-57045.453,-74007.086,5906.535,-9386.557,-4338.867,-24968.344,-17733.48,4340.2915
887070.2040683579,-57047.49,-74008.14,5905.477,-9387.695,-4351.9697,-24969.85,-17733.318,4342.5293
887070.2080683536,-57045.207,-74003.99,5908.6104,-9385.783,-4345.5,-24971.436,-17732.3,4340.332
887070.2120683494,-57044.8,-74006.92,5908.366,-9384.929,-4341.1865,-24972.168,-17737.264,4334.432
887070.216068345,-57045.453,-74013.555,5906.6978,-9386.23,-4337.036,-24973.105,-17740.723,4329.2646
887070.2200683407,-57047.57,-74018.19,5906.535,-9384.237,-4333.252,-24973.838,-17740.682,4331.0957
887070.2240683364,-57045.047,-74020.23,5904.785,-9383.789,-4348.918,-24971.355,-17736.084,4336.467
887070.2280683321,-57048.098,-74023.27,5902.466,-9385.051,-4345.866,-24971.396,-17733.887,4339.3555
887070.2320683278,-57044.64,-74019.164,5906.616,-9385.824,-4340.78,-24970.867,-17732.057,4338.501
887070.2360683235,-57041.668,-74015.26,5907.3896,-9387.37,-4335.6123,-24968.914,-17729.94,4342.8145
887070.2400683191,-57046.145,-74019.82,5903.768,-9390.056,-4345.0522,-24969.32,-17734.578,4338.7046
887070.2440683149,-57048.06,-74016.85,5901.6113,-9389.812,-4344.1978,-24970.012,-17733.643,4334.3916
887070.2480683106,-57051.434,-74015.22,5904.0527,-9388.306,-4344.035,-24966.717,-17730.389,4334.432
887070.2520683063,-57053.266,-74014.94,5902.2217,-9387.289,-4343.547,-24965.861,-17734.66,4331.014
887070.256068302,-57050.824,-74012.414,5905.2734,-9386.475,-4343.384,-24965.373,-17733.725,4338.4604
887070.2600682976,-57051.883,-74020.19,5904.785,-9385.702,-4338.745,-24968.506,-17739.828,4333.0894
887070.2640682934,-57054.406,-74026.53,5905.1924,-9385.539,-4340.251,-24970.541,-17740.316,4334.88
887070.268068289,-57052.453,-74018.68,5911.9062,-9383.464,-4346.6797,-24970.908,-17736.654,4338.664
887070.2720682848,-57049.195,-74009.805,5908.9355,-9385.417,-4350.83,-24969.727,-17734.457,4341.5938
887070.2760682805,-57052.86,-74018.48,5904.2563,-9386.963,-4344.5234,-24968.262,-17737.672,4334.1064
887070.2800682761,-57058.594,-74029.91,5901.5303,-9386.882,-4342.5293,-24968.1,-17741.62,4326.05
887070.2840682719,-57055.3,-74022.18,5906.5757,-9386.719,-4346.395,-24968.547,-17737.387,4334.1475
887070.2880682675,-57056.36,-74021.52,5905.8027,-9386.882,-4336.792,-24967.693,-17733.195,4342.3667
887070.2920682633,-57054.934,-74018.84,5906.0874,-9387.126,-4332.9673,-24966.309,-17730.916,4343.3027
887070.2960682589,-57058.066,-74019.94,5902.2217,-9387.37,-4334.2695,-24966.229,-17733.318,4341.146
887070.3000682546,-57056.36,-74022.5,5907.1045,-9386.394,-4347.9004,-24966.105,-17730.877,4344.6455
887070.3040682503,-57056.195,-74021.85,5905.4365,-9385.62,-4344.6045,-24969.402,-17733.643,4335.49
887070.308068246,-57054.406,-74019.05,5904.419,-9384.685,-4342.733,-24969.768,-17731.08,4336.426
887070.3120682418,-57054.973,-74019.25,5904.5005,-9385.864,-4340.251,-24969.443,-17730.184,4340.698
887070.3160682374,-57055.91,-74023.195,5905.6807,-9388.347,-4349.365,-24968.385,-17734.457,4337.2803
887070.3200682331,-57057.945,-74027.55,5903.4424,-9387.451,-4355.835,-24968.14,-17734.783,4335.8564
887070.3240682288,-57056.805,-74024.945,5905.4365,-9385.254,-4349.8945,-24968.467,-17730.469,4342.855
887070.3280682245,-57059.45,-74027.02,5903.3613,-9386.638,-4348.3076,-24969.523,-17734.945,4333.415
887070.3320682202,-57059.164,-74033.0,5900.92,-9388.591,-4349.121,-24970.256,-17736.125,4337.158
887070.3360682159,-57052.168,-74031.74,5905.599,-9385.214,-4346.802,-24971.436,-17736.775,4335.083
887070.3400682115,-57054.812,-74035.24,5905.111,-9385.173,-4344.93,-24971.273,-17737.875,4336.833
887070.3440682073,-57056.723,-74031.25,5900.594,-9382.324,-4337.3213,-24973.594,-17739.34,4337.484
887070.348068203,-57058.8,-74029.055,5897.7866,-9383.952,-4353.231,-24973.512,-17739.422,4335.083
887070.3520681987,-57056.562,-74028.24,5895.1416,-9389.201,-4357.2593,-24972.656,-17740.438,4336.1816
887070.3560681944,-57049.805,-74024.7,5898.3564,-9389.934,-4357.463,-24972.006,-17740.113,4333.374
887070.36006819,-57056.723,-74030.48,5896.4033,-9388.998,-4349.5283,-24971.68,-17739.828,4336.67
887070.3640681858,-57065.84,-74035.52,5894.165,-9387.411,-4352.9463,-24973.512,-17739.705,4337.606
887070.3680681814,-57068.035,-74030.31,5891.8867,-9388.266,-4353.597,-24975.098,-17742.066,4328.247
887070.3720681772,-57064.047,-74025.02,5896.159,-9386.394,-4347.0054,-24972.576,-17737.793,4336.67
887070.3760681729,-57064.008,-74028.24,5892.009,-9389.038,-4344.157,-24971.436,-17739.502,4335.8564
887070.3800681685,-57061.934,-74030.805,5892.375,-9388.835,-4353.3936,-24968.547,-17736.41,4340.454
887070.3840681643,-57060.266,-74025.23,5894.8164,-9385.986,-4351.644,-24967.123,-17735.271,4341.6343
887070.3880681599,-57061.85,-74023.195,5895.1416,-9383.464,-4345.7847,-24970.744,-17739.625,4337.606
887070.3920681557,-57054.445,-74022.664,5897.949,-9382.976,-4339.2334,-24973.35,-17737.387,4344.2383
887070.3960681513,-57047.69,-74022.22,5901.123,-9384.115,-4348.5923,-24970.785,-17730.469,4358.3174
887070.400068147,-57051.883,-74025.27,5902.2627,-9384.115,-4348.8364,-24968.262,-17728.23,4359.741
887070.4040681428,-57056.926,-74031.05,5898.5596,-9383.586,-4340.2915,-24969.238,-17727.336,4356.0386
887070.4080681384,-57059.41,-74035.69,5896.444,-9385.376,-4352.783,-24970.094,-17726.482,4355.632
887070.4120681342,-57058.92,-74042.805,5893.1074,-9387.573,-4353.2715,-24969.28,-17726.277,4355.3467
887070.4160681298,-57051.758,-74033.29,5902.2627,-9384.359,-4339.966,-24966.39,-17720.541,4363.4033
887070.4200681255,-57050.375,-74028.85,5894.5312,-9382.609,-4343.913,-24964.234,-17719.482,4362.427
887070.4240681212,-57056.562,-74031.336,5894.0024,-9384.359,-4348.4297,-24966.676,-17723.959,4353.5566
887070.4280681169,-57057.375,-74026.164,5891.4795,-9383.383,-4344.7676,-24969.646,-17726.727,4354.8994
887070.4320681127,-57058.8,-74027.06,5894.3687,-9382.895,-4338.9893,-24967.938,-17728.354,4355.876
887070.4360681083,-57062.22,-74031.25,5894.8975,-9384.766,-4344.686,-24969.035,-17732.586,4349.4873
887070.440068104,-57061.89,-74030.93,5892.131,-9387.533,-4354.004,-24969.402,-17734.863,4343.5874
887070.4440680997,-57060.875,-74023.4,5892.5376,-9382.162,-4346.3545,-24971.965,-17734.701,4340.1694
887070.4480680954,-57056.438,-74018.72,5897.258,-9382.446,-4355.2656,-24971.68,-17732.504,4341.96
887070.4520680911,-57055.746,-74017.945,5896.444,-9385.62,-4355.1436,-24968.467,-17732.38,4343.669
887070.4560680868,-57058.88,-74023.69,5893.4736,-9386.3125,-4352.173,-24968.955,-17734.213,4342.6924
887070.4600680824,-57061.402,-74028.0,5893.84,-9386.353,-4354.696,-24968.914,-17733.48,4342.7734
887070.4640680782,-57069.746,-74028.32,5892.334,-9386.963,-4356.9746,-24969.402,-17736.613,4333.944
887070.4680680739,-57070.312,-74022.586,5887.7363,-9387.695,-4349.6504,-24969.117,-17736.816,4329.875
887070.4720680696,-57060.387,-74020.34,5892.2935,-9387.085,-4344.564,-24967.57,-17732.016,4341.3496
887070.4760680653,-57058.676,-74023.56,5892.8633,-9388.266,-4344.32,-24967.814,-17733.887,4343.099
887070.4800680609,-57064.047,-74026.37,5887.004,-9388.469,-4348.348,-24969.402,-17736.695,4335.083
887070.4840680567,-57063.965,-74021.52,5886.8003,-9387.451,-4342.5293,-24970.176,-17731.812,4339.966
887070.4880680523,-57069.258,-74021.52,5886.19,-9385.498,-4343.099,-24969.89,-17733.44,4341.5938
887070.4920680481,-57069.336,-74019.45,5885.132,-9387.045,-4343.9536,-24969.158,-17735.434,4335.9785
887070.4960680438,-57070.438,-74026.2,5882.243,-9390.219,-4351.074,-24970.135,-17737.508,4326.416
887070.5000680394,-57068.035,-74020.836,5883.911,-9386.963,-4347.209,-24968.791,-17734.457,4331.218
887070.5040680352,-57068.727,-74024.09,5885.254,-9386.108,-4346.273,-24969.85,-17730.469,4340.576
887070.5080680308,-57073.12,-74023.03,5887.8174,-9383.993,-4342.6514,-24969.076,-17732.91,4338.2163
887070.5120680266,-57069.703,-74016.28,5889.201,-9385.336,-4343.1396,-24966.309,-17732.057,4333.171
887070.5160680222,-57068.2,-74015.46,5884.237,-9388.347,-4334.961,-24965.617,-17730.184,4333.7812
887070.5200680179,-57074.465,-74018.11,5877.645,-9388.388,-4336.792,-24969.768,-17734.742,4335.246
887070.5240680136,-57075.727,-74016.28,5883.0977,-9386.353,-4345.6626,-24970.664,-17730.104,4340.0474
887070.5280680093,-57076.945,-74019.62,5883.8706,-9387.573,-4352.987,-24971.273,-17731.69,4336.9956
887070.5320680051,-57077.23,-74018.27,5881.6733,-9387.533,-4347.0054,-24972.453,-17736.004,4332.235
887070.5360680007,-57078.41,-74016.08,5883.464,-9387.817,-4341.716,-24973.838,-17739.46,4329.834
887070.5400679964,-57077.15,-74014.734,5884.6436,-9388.794,-4349.935,-24972.656,-17738.404,4328.8574
887070.5440679921,-57075.074,-74011.11,5884.6436,-9387.98,-4354.9805,-24972.209,-17732.79,4332.2754
887070.5480679878,-57078.332,-74011.195,5887.492,-9386.149,-4342.8955,-24972.006,-17734.986,4328.695
887070.5520679835,-57071.7,-74006.8,5889.8115,-9383.098,-4338.7046,-24970.5,-17730.55,4337.362
887070.5560679792,-57066.613,-74014.94,5890.869,-9385.498,-4344.808,-24970.703,-17730.348,4339.6406
887070.5600679748,-57062.95,-74019.29,5890.9507,-9385.661,-4344.5234,-24970.338,-17729.086,4340.0474
887070.5640679706,-57064.13,-74018.19,5892.9854,-9385.661,-4341.96,-24970.785,-17727.906,4340.1694
887070.5680679663,-57064.78,-74015.664,5892.5376,-9385.498,-4340.251,-24974.61,-17729.656,4338.176
887070.572067962,-57065.43,-74015.055,5892.09,-9387.492,-4345.581,-24973.838,-17727.865,4339.1113
887070.5760679577,-57068.32,-74015.46,5888.794,-9389.812,-4344.7676,-24972.982,-17728.76,4341.268
887070.5800679533,-57068.566,-74014.445,5887.085,-9390.219,-4345.215,-24973.227,-17730.062,4340.617
887070.5840679491,-57074.668,-74021.57,5884.237,-9388.835,-4353.109,-24973.47,-17731.283,4336.8735
887070.5880679447,-57070.438,-74015.26,5891.3574,-9387.167,-4346.7207,-24970.664,-17724.244,4343.669
887070.5920679405,-57066.938,-74015.55,5889.2417,-9387.777,-4343.506,-24970.012,-17723.43,4344.8896
887070.5960679362,-57062.42,-74011.72,5890.8286,-9389.73,-4348.674,-24967.814,-17719.564,4352.2544
887070.6000679318,-57062.746,-74009.28,5888.143,-9390.625,-4342.489,-24968.506,-17721.844,4350.1387
887070.6040679276,-57067.426,-74012.984,5885.742,-9390.869,-4346.802,-24970.947,-17724.977,4345.6626
887070.6080679232,-57065.066,-74007.04,5891.317,-9388.062,-4343.913,-24972.78,-17722.656,4349.935
887070.612067919,-57068.08,-74009.24,5894.4907,-9389.608,-4340.576,-24973.594,-17725.586,4343.8315
887070.6160679146,-57067.223,-74012.01,5891.9272,-9390.829,-4353.0273,-24971.803,-17727.05,4346.4355
887070.6200679103,-57071.21,-74016.484,5890.7065,-9388.713,-4343.75,-24973.633,-17732.422,4341.1865
887070.624067906,-57069.703,-74010.99,5887.777,-9388.876,-4335.49,-24974.65,-17728.475,4345.256
887070.6280679017,-57069.176,-74005.82,5891.1543,-9388.916,-4342.8145,-24972.982,-17724.568,4346.3545
887070.6320678975,-57064.13,-74002.766,5893.27,-9390.015,-4344.4014,-24970.338,-17722.127,4349.569
887070.6360678931,-57062.055,-74006.836,5892.456,-9390.707,-4342.285,-24970.176,-17724.447,4347.8193
887070.6400678888,-57063.234,-74005.414,5889.8115,-9387.899,-4338.9487,-24969.97,-17727.703,4347.046
887070.6440678845,-57064.332,-74005.9,5891.683,-9388.916,-4352.336,-24970.42,-17725.627,4350.342
887070.6480678802,-57069.664,-74004.64,5890.259,-9388.51,-4353.5156,-24970.744,-17726.156,4343.8315
887070.652067876,-57066.938,-74000.086,5888.713,-9390.381,-4343.872,-24964.56,-17722.697,4348.796
887070.6560678716,-57060.63,-73998.21,5892.009,-9389.893,-4346.1914,-24962.281,-17720.215,4354.8994
887070.6600678673,-57058.555,-73997.44,5891.4795,-9388.347,-4338.0537,-24965.17,-17726.766,4344.3604
887070.664067863,-57059.367,-74000.734,5894.4907,-9386.435,-4338.908,-24967.896,-17728.76,4341.0645
887070.6680678587,-57060.344,-73997.48,5895.7114,-9384.929,-4341.5938,-24967.611,-17724.365,4348.3076
887070.6720678544,-57063.805,-74001.63,5893.0664,-9386.19,-4334.3916,-24968.75,-17728.23,4340.576
887070.6760678501,-57062.707,-74004.36,5895.223,-9388.51,-4346.4355,-24966.92,-17728.639,4340.0474
887070.6800678457,-57066.855,-74007.33,5890.788,-9390.015,-4349.8535,-24967.814,-17730.795,4340.1694
887070.6840678415,-57072.715,-74007.445,5891.6016,-9389.689,-4344.3604,-24969.32,-17731.893,4336.1816
887070.6880678372,-57073.61,-74004.56,5891.3574,-9388.51,-4341.919,-24966.92,-17728.191,4339.7217
887070.6920678329,-57071.086,-74002.93,5889.4453,-9390.219,-4335.1646,-24965.658,-17730.145,4339.1113
887070.6960678286,-57074.26,-74012.01,5888.916,-9394.694,-4347.575,-24967.326,-17732.098,4339.2334
887070.7000678242,-57078.74,-74015.22,5888.835,-9394.694,-4350.0166,-24970.623,-17734.334,4336.3447
887070.70406782,-57077.8,-74009.85,5886.8003,-9393.759,-4355.9165,-24971.762,-17734.213,4335.0425
887070.7080678156,-57079.145,-74011.15,5890.869,-9392.863,-4352.4985,-24971.64,-17735.799,4331.3804
887070.7120678114,-57069.664,-74007.61,5893.3516,-9391.317,-4346.924,-24971.6,-17730.184,4337.4023
887070.716067807,-57073.45,-74013.02,5890.9507,-9392.172,-4347.209,-24974.854,-17736.898,4331.828
887070.7200678027,-57075.36,-74009.28,5889.201,-9392.66,-4347.087,-24970.379,-17737.672,4331.421
887070.7240677985,-57078.086,-74008.914,5894.043,-9391.724,-4356.4453,-24968.75,-17734.295,4333.7812
887070.7280677941,-57076.457,-74002.81,5895.8335,-9389.812,-4352.0103,-24967.49,-17731.486,4335.49
887070.7320677899,-57077.72,-74011.4,5895.0195,-9392.904,-4352.214,-24967.205,-17733.033,4333.3335
887070.7360677855,-57076.38,-74013.23,5893.026,-9392.172,-4345.256,-24967.611,-17732.016,4336.5073
887070.7400677812,-57070.395,-74007.85,5897.868,-9387.899,-4340.21,-24966.758,-17726.441,4343.506
887070.744067777,-57072.918,-74010.74,5898.8447,-9388.469,-4342.9365,-24970.338,-17729.248,4336.1006
887070.7480677726,-57069.746,-74006.31,5901.408,-9386.963,-4341.4307,-24969.646,-17728.312,4339.966
887070.7520677684,-57072.227,-74011.11,5898.7227,-9390.137,-4346.802,-24969.28,-17726.645,4345.581
887070.756067764,-57072.43,-74008.42,5895.549,-9391.235,-4343.8315,-24969.523,-17727.783,4347.29
887070.7600677597,-57070.07,-74008.18,5901.937,-9389.486,-4336.5073,-24968.059,-17727.336,4342.9365
887070.7640677554,-57070.64,-74006.92,5904.907,-9388.55,-4336.467,-24966.35,-17725.057,4340.454
887070.7680677511,-57068.156,-74000.734,5904.419,-9386.271,-4339.7217,-24968.955,-17724.812,4344.686
887070.7720677468,-57065.35,-74003.055,5903.117,-9386.068,-4343.0586,-24969.727,-17725.057,4350.993
887070.7760677425,-57068.36,-74009.04,5900.2686,-9387.695,-4346.0693,-24970.256,-17728.639,4341.716
887070.7800677381,-57063.723,-74004.48,5903.524,-9387.777,-4339.7217,-24971.355,-17732.137,4334.3506
887070.7840677339,-57065.105,-73998.58,5900.3096,-9385.864,-4333.5776,-24974.406,-17738.078,4327.4336
887070.7880677296,-57063.684,-73991.13,5897.6646,-9385.051,-4336.914,-24974.895,-17734.742,4331.34
887070.7920677253,-57058.96,-73981.98,5905.5586,-9384.726,-4337.8906,-24974.041,-17732.016,4336.0596
887070.796067721,-57051.883,-73974.9,5911.621,-9382.284,-4328.3286,-24974.895,-17736.166,4334.3506
887070.8000677166,-57047.285,-73968.55,5911.54,-9382.935,-4330.2817,-24974.936,-17739.178,4330.4854
887070.8040677124,-57045.492,-73962.81,5912.679,-9382.08,-4335.897,-24978.027,-17740.234,4328.5728
887070.808067708,-57040.69,-73958.62,5914.2256,-9382.284,-4334.066,-24982.748,-17746.42,4318.4004
887070.8120677038,-57027.55,-73942.586,5918.9453,-9381.267,-4329.305,-24981.69,-17742.066,4323.6494
887070.8160676995,-57021.77,-73935.23,5919.841,-9380.168,-4328.2065,-24982.463,-17744.02,4329.7935
887070.8200676951,-57017.703,-73926.8,5913.8594,-9381.348,-4331.584,-24983.36,-17748.617,4318.563
887070.8240676909,-57018.8,-73922.61,5913.656,-9378.947,-4330.3223,-24984.172,-17752.4,4311.4014
887070.8280676865,-57012.695,-73909.99,5921.8345,-9375.937,-4323.4053,-24986.328,-17752.441,4310.954
887070.8320676823,-57003.83,-73900.64,5919.1084,-9375.285,-4321.981,-24987.102,-17752.809,4313.192
887070.8360676779,-57002.32,-73902.914,5921.0205,-9377.971,-4325.521,-24986.045,-17752.564,4310.547
887070.8400676736,-56989.543,-73888.39,5921.4277,-9374.634,-4322.469,-24982.586,-17745.525,4317.627
887070.8440676694,-56988.08,-73879.31,5925.4966,-9371.42,-4317.383,-24984.336,-17747.355,4316.3657
887070.848067665,-56985.56,-73873.7,5926.1885,-9368.612,-4311.076,-24987.021,-17748.617,4317.22
887070.8520676607,-56982.586,-73871.055,5925.456,-9372.6,-4323.6084,-24987.875,-17750.082,4319.7837
887070.8560676564,-56975.14,-73867.8,5931.7627,-9372.355,-4318.8477,-24988.037,-17749.594,4320.516
887070.8600676521,-56974.33,-73863.164,5924.642,-9371.257,-4313.1104,-24987.875,-17755.168,4313.192
887070.8640676478,-56976.93,-73861.984,5926.88,-9370.891,-4310.466,-24990.684,-17757.61,4311.7676
887070.8680676435,-56980.43,-73866.87,5930.664,-9371.501,-4324.626,-24989.666,-17755.086,4315.918
887070.8720676391,-56983.766,-73864.3,5933.5938,-9370.565,-4311.6865,-24989.258,-17756.389,4314.8193
887070.8760676349,-56985.516,-73867.31,5925.9443,-9371.704,-4306.234,-24986.98,-17754.07,4319.906
887070.8800676306,-56984.906,-73876.18,5930.3794,-9372.192,-4312.8257,-24984.66,-17747.559,4329.6714
887070.8840676263,-56988.977,-73880.05,5931.234,-9370.972,-4314.1685,-24986.613,-17748.943,4322.347
887070.888067622,-56996.79,-73887.984,5929.199,-9371.094,-4311.605,-24987.834,-17751.912,4316.4473
887070.8920676176,-57004.152,-73897.26,5924.0317,-9374.105,-4311.076,-24988.037,-17753.541,4318.197
887070.8960676134,-57001.67,-73897.46,5922.4043,-9376.831,-4319.133,-24986.816,-17749.838,4323.3643
887070.900067609,-57005.09,-73895.06,5921.672,-9375.8955,-4311.4014,-24986.207,-17748.576,4321.8994
887070.9040676048,-57008.87,-73895.47,5925.456,-9374.838,-4321.452,-24987.59,-17748.17,4321.8184
887070.9080676005,-57010.62,-73895.76,5927.694,-9375.041,-4321.452,-24990.357,-17752.076,4319.1733
887070.9120675961,-57019.613,-73909.71,5925.3745,-9378.988,-4317.912,-24989.543,-17754.598,4318.6035
887070.9160675919,-57022.87,-73914.8,5925.2524,-9380.615,-4328.247,-24985.19,-17750.203,4327.352
887070.9200675875,-57020.633,-73914.06,5924.6016,-9379.436,-4326.864,-24984.01,-17747.885,4333.3335
887070.9240675833,-57023.48,-73918.54,5927.043,-9378.825,-4331.706,-24983.928,-17745.484,4338.9893
887070.9280675789,-57026.29,-73925.414,5926.0254,-9379.477,-4332.4385,-24981.61,-17736.287,4343.0176
887070.9320675746,-57027.67,-73925.26,5925.985,-9378.337,-4319.255,-24979.697,-17729.248,4346.843
887070.9360675704,-57033.773,-73933.96,5918.1724,-9383.098,-4319.824,-24981.08,-17734.904,4339.7627
887070.940067566,-57041.953,-73941.695,5917.4805,-9384.44,-4321.737,-24981.65,-17737.834,4337.2397
887070.9440675618,-57045.617,-73942.914,5916.1787,-9384.115,-4327.5146,-24980.51,-17735.23,4341.5527
887070.9480675574,-57053.266,-73948.04,5913.778,-9384.155,-4325.643,-24982.871,-17742.146,4331.828
887070.9520675531,-57057.945,-73950.56,5911.9873,-9386.027,-4325.9277,-24983.604,-17746.135,4323.283
887070.9560675488,-57056.805,-73949.71,5913.1675,-9386.557,-4333.822,-24981.568,-17744.996,4331.0957
887070.9600675445,-57057.66,-73951.945,5916.26,-9386.027,-4333.374,-24981.406,-17747.723,4326.538
887070.9640675402,-57062.746,-73957.69,5911.133,-9386.557,-4335.124,-24982.79,-17749.35,4324.748
887070.9680675359,-57062.99,-73960.05,5914.673,-9385.539,-4332.0312,-24982.342,-17747.234,4330.2817
887070.9720675315,-57058.27,-73958.336,5919.7593,-9386.841,-4325.8467,-24980.754,-17745.2,4332.3975
887070.9760675273,-57061.32,-73963.5,5919.963,-9389.975,-4330.2817,-24978.191,-17743.367,4335.5713
887070.980067523,-57059.98,-73963.46,5919.027,-9386.679,-4314.1685,-24977.988,-17741.822,4331.8687
887070.9840675187,-57060.223,-73963.586,5918.213,-9386.027,-4324.992,-24978.477,-17738.525,4338.745
887070.9880675144,-57062.46,-73966.11,5922.8516,-9388.103,-4339.6406,-24978.883,-17737.508,4341.146
887070.99206751,-57069.133,-73976.32,5917.7246,-9389.364,-4331.828,-24979.33,-17743.367,4334.1064
887070.9960675058,-57074.707,-73982.305,5915.039,-9392.456,-4335.327,-24977.295,-17744.996,4330.1597
887071.0000675014,-57067.832,-73978.03,5918.254,-9390.747,-4336.8735,-24977.744,-17740.031,4339.8438
887071.0040674972,-57070.355,-73978.15,5911.9873,-9388.876,-4328.044,-24979.086,-17737.102,4341.96
887071.0080674929,-57076.906,-73980.19,5911.947,-9389.608,-4336.2227,-24979.004,-17736.857,4341.4717
887071.0120674885,-57075.81,-73981.65,5914.4697,-9392.7,-4341.6343,-24977.05,-17733.807,4340.1694
887071.0160674843,-57074.14,-73983.32,5915.039,-9392.416,-4344.2793,-24974.814,-17731.486,4344.8486
887071.0200674799,-57078.086,-73986.01,5912.2725,-9392.05,-4345.378,-24974.326,-17736.043,4340.454
887071.0240674757,-57083.945,-73988.28,5912.4756,-9391.643,-4340.007,-24976.28,-17739.096,4337.9316
887071.0280674713,-57076.17,-73980.266,5918.132,-9387.289,-4334.1064,-24975.83,-17733.033,4341.675
887071.032067467,-57076.05,-73976.73,5920.858,-9387.614,-4335.205,-24976.156,-17732.422,4343.7095
887071.0360674628,-57075.523,-73976.195,5922.567,-9388.103,-4329.631,-24977.174,-17731.283,4352.661
887071.0400674584,-57075.766,-73973.836,5916.504,-9387.126,-4322.876,-24976.97,-17731.242,4360.2295
887071.0440674542,-57080.977,-73977.54,5914.958,-9386.841,-4331.0957,-24977.865,-17734.66,4359.375
887071.0480674498,-57084.11,-73980.8,5916.4634,-9387.289,-4326.823,-24978.477,-17738.607,4364.868
887071.0520674455,-57087.28,-73981.695,5916.87,-9387.939,-4324.626,-24978.883,-17742.473,4356.5674
887071.0560674412,-57085.734,-73984.336,5916.0566,-9391.765,-4327.881,-24978.477,-17739.543,4359.375
887071.0600674369,-57083.62,-73986.94,5919.5557,-9390.666,-4322.754,-24976.36,-17736.816,4365.6006
887071.0640674327,-57092.45,-73994.55,5912.9233,-9391.806,-4328.6543,-24976.441,-17738.078,4358.114
887071.0680674283,-57092.082,-73995.24,5913.7373,-9392.66,-4334.1475,-24974.326,-17729.33,4368.449
887071.072067424,-57091.188,-73994.67,5918.5386,-9394.491,-4337.8096,-24973.105,-17724.773,4373.0063
887071.0760674197,-57092.98,-73995.12,5915.324,-9392.334,-4328.817,-24973.838,-17725.22,4373.9424
887071.0800674154,-57089.113,-73997.234,5911.418,-9390.341,-4321.2485,-24974.041,-17725.383,4371.1753
887071.0840674111,-57095.746,-74004.88,5913.127,-9391.643,-4332.235,-24976.889,-17730.348,4360.5957
887071.0880674068,-57094.484,-73999.43,5917.806,-9390.341,-4334.6763,-24980.104,-17732.91,4354.7773
887071.0920674024,-57088.3,-73993.25,5914.388,-9390.015,-4338.9487,-24976.848,-17728.15,4360.881
887071.0960673982,-57089.926,-74002.32,5914.673,-9391.235,-4339.0303,-24974.326,-17728.15,4364.624
887071.1000673939,-57090.902,-74004.56,5913.8184,-9390.544,-4333.5776,-24973.959,-17728.639,4364.746
887071.1040673896,-57097.13,-74003.79,5911.499,-9389.853,-4334.3916,-24976.035,-17733.562,4350.749
887071.1080673853,-57098.555,-74001.23,5917.7246,-9387.817,-4329.0205,-24975.709,-17729.168,4352.702
887071.1120673809,-57104.82,-74010.87,5916.5854,-9392.578,-4336.019,-24974.936,-17733.44,4348.0225
887071.1160673767,-57103.11,-74015.55,5910.604,-9396.362,-4340.332,-24972.291,-17735.027,4348.3887
887071.1200673723,-57100.305,-74015.14,5914.2256,-9393.2705,-4334.88,-24974.0,-17734.62,4345.215
887071.1240673681,-57106.0,-74023.52,5910.604,-9394.206,-4338.9487,-24976.482,-17739.34,4336.711
887071.1280673638,-57101.074,-74017.01,5911.418,-9392.578,-4338.094,-24976.645,-17734.172,4345.825
887071.1320673594,-57100.71,-74018.84,5913.656,-9391.806,-4328.7764,-24977.703,-17734.172,4354.0854
887071.1360673552,-57102.297,-74020.06,5911.418,-9393.555,-4334.1064,-24977.295,-17735.23,4348.918
887071.1400673508,-57099.652,-74015.055,5913.127,-9391.235,-4333.6997,-24975.994,-17733.807,4348.755
887071.1440673466,-57102.418,-74012.9,5916.0156,-9387.573,-4331.014,-24976.238,-17730.998,4351.278
887071.1480673422,-57107.832,-74017.62,5918.9453,-9389.853,-4343.872,-24975.75,-17727.418,4359.8228
887071.1520673379,-57108.97,-74018.39,5918.579,-9390.625,-4336.5073,-24975.465,-17727.947,4358.032
887071.1560673336,-57100.06,-74016.805,5914.144,-9393.2295,-4337.036,-24975.342,-17727.174,4361.7354
887071.1600673293,-57098.555,-74015.75,5915.324,-9390.91,-4340.9834,-24975.627,-17730.428,4357.707
887071.1640673251,-57099.367,-74015.55,5914.5103,-9386.638,-4340.902,-24977.377,-17731.854,4359.9043
887071.1680673207,-57098.145,-74015.875,5918.4165,-9384.359,-4330.7295,-24977.174,-17732.098,4359.294
887071.1720673164,-57092.652,-74013.02,5918.213,-9385.539,-4329.6714,-24973.43,-17730.754,4358.032
887071.1760673121,-57090.617,-74017.336,5923.2993,-9387.085,-4334.066,-24971.396,-17729.045,4353.109
887071.1800673078,-57092.45,-74020.39,5923.869,-9387.411,-4331.9907,-24972.373,-17723.348,4356.201
887071.1840673035,-57098.145,-74021.484,5917.8467,-9387.451,-4334.2285,-24972.82,-17722.006,4360.1074
887071.1880672992,-57099.33,-74016.12,5916.26,-9388.916,-4344.157,-24970.582,-17717.855,4368.327
887071.1920672948,-57102.99,-74022.5,5915.2427,-9390.829,-4339.3555,-24970.297,-17717.488,4370.2393
887071.1960672906,-57100.75,-74027.47,5914.2256,-9390.625,-4333.822,-24971.477,-17721.111,4363.9326
887071.2000672863,-57105.715,-74026.77,5914.0625,-9391.928,-4341.4307,-24971.803,-17725.057,4362.1016
887071.204067282,-57109.66,-74025.11,5917.7246,-9388.591,-4340.78,-24971.64,-17722.047,4367.513
887071.2080672777,-57111.816,-74022.914,5919.963,-9385.132,-4320.964,-24972.82,-17722.9,4369.2627
887071.2120672733,-57110.35,-74027.63,5922.8926,-9384.848,-4328.4507,-24974.0,-17727.947,4362.9966
887071.2160672691,-57106.527,-74027.63,5919.8813,-9387.248,-4342.407,-24972.78,-17727.703,4360.2705
887071.2200672647,-57104.29,-74026.66,5918.823,-9387.655,-4337.1177,-24972.535,-17732.178,4357.0557
887071.2240672605,-57101.2,-74024.17,5918.9453,-9386.027,-4331.014,-24974.203,-17734.01,4353.3125
887071.2280672562,-57102.54,-74024.945,5916.301,-9387.451,-4327.759,-24973.023,-17726.441,4363.4033
887071.2320672518,-57100.87,-74024.74,5920.207,-9387.858,-4335.002,-24970.623,-17724.08,4364.543
887071.2360672476,-57098.633,-74027.43,5921.7124,-9387.614,-4333.049,-24972.006,-17729.98,4360.718
887071.2400672432,-57094.2,-74029.664,5925.1304,-9386.23,-4335.775,-24972.9,-17733.928,4356.4453
887071.244067239,-57097.58,-74032.266,5925.537,-9385.051,-4342.5293,-24976.686,-17739.666,4345.378
887071.2480672346,-57103.844,-74037.84,5924.764,-9386.435,-4339.1523,-24978.598,-17742.676,4339.8438
887071.2520672303,-57102.215,-74038.74,5920.736,-9389.73,-4340.617,-24977.947,-17738.322,4348.0635
887071.2560672261,-57089.277,-74035.89,5929.403,-9388.876,-4345.2964,-24974.203,-17730.145,4359.172
887071.2600672217,-57087.61,-74033.086,5933.879,-9385.946,-4341.8784,-24974.0,-17725.79,4369.1
887071.2640672175,-57094.973,-74040.164,5930.339,-9384.604,-4339.559,-24975.83,-17728.924,4371.826
887071.2680672131,-57096.316,-74045.086,5935.425,-9386.679,-4353.231,-24975.547,-17727.01,4377.8486
887071.2720672088,-57097.21,-74044.44,5928.3857,-9390.503,-4353.0684,-24977.295,-17728.23,4378.418
887071.2760672045,-57094.402,-74042.195,5927.246,-9390.91,-4343.994,-24976.238,-17728.76,4374.3896
887071.2800672002,-57088.664,-74034.14,5934.1636,-9389.526,-4344.157,-24973.838,-17727.498,4378.093
887071.284067196,-57089.926,-74028.69,5928.5483,-9390.951,-4352.458,-24973.309,-17723.104,4382.65
887071.2880671916,-57092.082,-74024.17,5923.7876,-9391.684,-4345.378,-24975.262,-17726.482,4371.948
887071.2920671873,-57085.574,-74022.5,5932.373,-9390.219,-4338.786,-24974.488,-17729.736,4362.142
887071.296067183,-57073.45,-74013.23,5936.4014,-9387.858,-4335.083,-24972.453,-17727.947,4370.9717
887071.3000671787,-57072.594,-74015.55,5935.6284,-9384.604,-4331.909,-24974.61,-17730.877,4368.449
887071.3040671744,-57074.426,-74023.16,5941.4473,-9385.986,-4342.8145,-24978.639,-17736.857,4357.137
887071.3080671701,-57078.695,-74021.77,5937.419,-9386.394,-4341.4307,-24979.533,-17734.334,4357.5034
887071.3120671657,-57083.457,-74025.15,5929.5654,-9387.492,-4334.6357,-24980.389,-17733.846,4359.172
887071.3160671615,-57085.45,-74031.336,5930.013,-9389.323,-4342.7734,-24980.754,-17738.566,4353.801
887071.3200671572,-57084.434,-74035.12,5930.542,-9388.469,-4342.6924,-24982.139,-17742.473,4352.092
887071.3240671529,-57086.914,-74036.7,5928.2637,-9388.184,-4342.7734,-24984.783,-17744.793,4348.3076
887071.3280671486,-57091.758,-74033.81,5925.863,-9388.306,-4340.78,-24985.596,-17745.729,4343.8315
887071.3320671442,-57083.336,-74023.805,5931.926,-9386.597,-4334.88,-24984.742,-17744.264,4345.9883
887071.33606714,-57077.637,-74023.73,5936.971,-9385.458,-4341.268,-24981.324,-17739.828,4355.9165
887071.3400671356,-57080.773,-74031.78,5933.7974,-9385.254,-4338.786,-24981.162,-17735.76,4361.2876
887071.3440671314,-57091.434,-74038.45,5935.588,-9385.417,-4340.007,-24982.383,-17736.248,4360.189
887071.348067127,-57090.457,-74029.3,5934.204,-9383.789,-4338.745,-24982.992,-17735.027,4357.2188
887071.3520671227,-57080.566,-74023.32,5934.448,-9382.69,-4326.091,-24981.486,-17733.643,4362.6304
887071.3560671185,-57076.5,-74028.57,5936.5234,-9387.004,-4340.698,-24981.445,-17733.725,4366.008
887071.3600671141,-57081.75,-74032.43,5932.0884,-9387.411,-4349.4062,-24982.057,-17735.76,4361.206
887071.3640671099,-57081.383,-74026.2,5932.414,-9384.929,-4340.373,-24982.992,-17737.06,4357.2593
887071.3680671055,-57082.113,-74026.05,5932.17,-9385.458,-4332.6416,-24983.766,-17739.705,4353.231
887071.3720671012,-57070.11,-74019.01,5935.791,-9386.516,-4336.914,-24981.162,-17736.287,4362.264
887071.376067097,-57055.91,-74005.45,5939.331,-9386.597,-4332.9673,-24981.162,-17734.822,4367.147
887071.3800670926,-57057.17,-74002.85,5940.4707,-9385.417,-4331.828,-24981.445,-17736.572,4362.6304
887071.3840670884,-57050.17,-73995.81,5944.133,-9383.505,-4339.071,-24981.934,-17734.498,4365.3975
887071.388067084,-57039.96,-73984.58,5939.9824,-9383.179,-4338.3384,-24986.492,-17742.025,4352.9463
887071.3920670797,-57038.293,-73977.83,5938.9243,-9383.383,-4333.4556,-24987.713,-17749.105,4346.2324
887071.3960670754,-57030.113,-73971.31,5942.4644,-9381.796,-4333.171,-24988.77,-17750.326,4344.93
887071.4000670711,-57026.41,-73965.5,5940.511,-9381.186,-4325.9277,-24988.445,-17750.0,4345.215
887071.4040670668,-57023.97,-73956.87,5940.796,-9382.854,-4335.775,-24992.432,-17750.0,4339.3965
887071.4080670625,-57018.066,-73945.516,5943.115,-9380.859,-4331.95,-24994.223,-17750.611,4334.7983
887071.4120670581,-57012.656,-73936.65,5942.4644,-9384.115,-4329.7935,-24992.92,-17749.594,4339.071
887071.4160670539,-57005.902,-73927.25,5943.5225,-9385.214,-4332.5605,-24993.043,-17752.117,4341.1865
887071.4200670496,-57007.734,-73925.09,5940.1855,-9384.521,-4330.2817,-24998.82,-17764.648,4326.864
887071.4240670453,-57017.703,-73933.35,5935.466,-9383.667,-4330.078,-25000.041,-17768.637,4317.383
887071.428067041,-57015.625,-73928.836,5933.5938,-9383.667,-4330.892,-24999.39,-17764.975,4325.2363
887071.4320670366,-57011.72,-73920.05,5938.68,-9383.911,-4337.2397,-24997.6,-17762.207,4329.468
887071.4360670324,-57010.01,-73917.12,5940.145,-9381.958,-4326.457,-24993.938,-17760.133,4327.108
887071.440067028,-57013.633,-73923.586,5936.483,-9384.155,-4332.5605,-24993.816,-17761.434,4325.9688
887071.4440670238,-57021.324,-73924.4,5928.874,-9384.033,-4329.956,-24992.555,-17758.871,4329.753
887071.4480670195,-57025.72,-73921.76,5930.908,-9382.284,-4318.929,-24994.996,-17756.959,4323.568
887071.4520670151,-57031.332,-73922.69,5923.9097,-9387.37,-4325.1953,-24996.379,-17758.912,4323.3237
887071.4560670109,-57036.582,-73931.73,5919.841,-9389.648,-4327.3926,-24994.182,-17761.271,4330.2
887071.4600670065,-57040.69,-73940.59,5914.795,-9389.893,-4327.0674,-24993.164,-17756.145,4334.88
887071.4640670023,-57042.277,-73939.78,5914.551,-9388.55,-4333.944,-24995.484,-17750.53,4340.7393
887071.468066998,-57047.73,-73939.25,5912.883,-9386.149,-4328.817,-24994.02,-17752.482,4331.5024
887071.4720669936,-57052.453,-73949.67,5910.5635,-9388.306,-4323.3643,-24991.293,-17753.338,4330.892
887071.4760669894,-57049.24,-73952.31,5912.5166,-9389.282,-4329.9155,-24989.178,-17751.912,4336.467
887071.480066985,-57049.074,-73953.33,5913.574,-9388.916,-4331.8687,-24988.16,-17751.303,4342.2446
887071.4840669808,-57050.457,-73961.14,5909.668,-9387.614,-4330.0376,-24988.77,-17748.17,4347.9004
887071.4880669764,-57055.42,-73969.81,5906.9014,-9390.137,-4332.2754,-24990.723,-17750.936,4338.4604
887071.4920669721,-57060.547,-73975.34,5905.925,-9393.677,-4333.8623,-24991.293,-17755.006,4333.049
887071.4960669678,-57062.625,-73978.31,5908.0405,-9393.393,-4328.6543,-24989.258,-17749.959,4348.918
887071.5000669635,-57063.316,-73974.164,5905.0293,-9393.677,-4333.171,-24988.77,-17751.344,4349.3247
887071.5040669593,-57067.75,-73975.266,5903.3203,-9393.677,-4340.6577,-24992.717,-17754.68,4340.495
887071.5080669549,-57075.44,-73982.75,5905.2734,-9389.975,-4327.108,-24992.637,-17753.5,4346.0693
887071.5120669506,-57076.824,-73988.04,5908.4473,-9389.812,-4328.7764,-24991.904,-17754.559,4336.0596
887071.5160669463,-57076.906,-73993.0,5910.8887,-9390.625,-4334.88,-24992.555,-17759.645,4328.939
887071.520066942,-57075.684,-73996.09,5907.1455,-9393.718,-4343.913,-24992.637,-17760.133,4331.7466
887071.5240669377,-57079.1,-73993.53,5906.3315,-9393.921,-4342.2446,-24994.873,-17760.418,4328.3286
887071.5280669334,-57081.18,-73989.99,5905.233,-9394.328,-4335.5713,-24997.193,-17759.848,4330.892
887071.532066929,-57082.4,-73992.8,5905.925,-9397.217,-4336.548,-24993.857,-17759.36,4329.6714
887071.5360669248,-57082.52,-74001.016,5903.198,-9398.642,-4340.7393,-24990.44,-17754.477,4337.077
887071.5400669205,-57085.98,-74005.58,5901.408,-9399.292,-4343.75,-24990.805,-17752.85,4340.576
887071.5440669162,-57092.734,-74008.06,5896.24,-9398.234,-4338.786,-24993.979,-17753.459,4334.1475
887071.5480669119,-57089.316,-74002.04,5898.3154,-9396.933,-4340.454,-24993.45,-17749.797,4334.3916
887071.5520669075,-57087.04,-73999.76,5905.355,-9395.508,-4333.659,-24994.385,-17750.936,4336.914
887071.5560669033,-57090.496,-74006.11,5905.599,-9398.031,-4338.542,-24991.496,-17752.197,4334.5947
887071.5600668989,-57090.496,-74010.99,5902.954,-9397.543,-4338.42,-24989.99,-17750.855,4337.5244
887071.5640668947,-57093.547,-74011.48,5900.5127,-9397.136,-4342.5703,-24991.293,-17750.936,4336.467
887071.5680668904,-57099.0,-74013.47,5899.17,-9398.56,-4340.1694,-24994.102,-17751.262,4331.6245
887071.572066886,-57095.5,-74012.49,5902.2217,-9400.798,-4347.412,-24991.334,-17745.729,4337.4434
887071.5760668818,-57091.72,-74011.805,5903.3203,-9400.1875,-4342.7734,-24990.398,-17746.826,4339.7217
887071.5800668774,-57094.77,-74016.89,5897.1357,-9403.239,-4346.7207,-24990.52,-17745.646,4346.2324
887071.5840668732,-57098.715,-74017.78,5898.031,-9400.31,-4342.204,-24991.578,-17742.635,4346.8833
887071.5880668688,-57107.707,-74021.164,5896.24,-9401.855,-4341.797,-24992.96,-17744.996,4340.78
887071.5920668645,-57103.965,-74019.01,5900.8384,-9399.984,-4336.426,-24992.717,-17744.1,4342.733
887071.5960668602,-57101.32,-74021.12,5905.721,-9400.229,-4335.775,-24991.781,-17744.832,4346.8833
887071.6000668559,-57107.098,-74027.266,5900.92,-9402.141,-4340.495,-24990.56,-17745.443,4347.6973
887071.6040668517,-57106.164,-74026.98,5896.688,-9401.164,-4350.4233,-24988.975,-17738.69,4353.1904
887071.6080668473,-57104.574,-74024.58,5903.524,-9399.984,-4344.0757,-24990.44,-17738.81,4347.7783
887071.612066843,-57105.31,-74028.484,5903.4834,-9401.408,-4339.6406,-24988.281,-17738.81,4347.2495
887071.6160668387,-57105.797,-74031.05,5898.967,-9402.141,-4343.506,-24990.275,-17740.193,4349.243
887071.6200668344,-57106.082,-74031.05,5899.4956,-9400.513,-4338.867,-24992.148,-17747.07,4343.669
887071.6240668301,-57103.64,-74029.586,5900.4316,-9398.642,-4336.1816,-24992.799,-17746.338,4343.994
887071.6280668258,-57106.445,-74033.33,5898.6816,-9400.391,-4347.046,-24994.59,-17745.605,4349.162
887071.6320668214,-57105.188,-74028.81,5900.635,-9400.065,-4344.035,-24992.066,-17742.39,4353.231
887071.6360668172,-57104.94,-74027.75,5902.1406,-9398.886,-4335.5713,-24989.584,-17738.525,4362.427
887071.6400668129,-57107.547,-74037.03,5898.6006,-9399.78,-4343.872,-24990.723,-17742.39,4361.2876
887071.6440668086,-57114.258,-74037.92,5897.258,-9400.31,-4336.426,-24994.06,-17746.053,4352.2544
887071.6480668043,-57110.68,-74025.96,5899.658,-9399.78,-4339.193,-24993.043,-17739.096,4358.8867
887071.6520667999,-57112.348,-74032.836,5899.211,-9402.629,-4339.559,-24992.596,-17739.299,4353.5156
887071.6560667957,-57103.965,-74029.664,5900.798,-9404.135,-4345.256,-24989.422,-17735.555,4361.5317
887071.6600667913,-57103.965,-74029.75,5901.4487,-9402.344,-4346.965,-24987.305,-17736.207,4360.881
887071.6640667871,-57108.24,-74031.25,5902.303,-9399.902,-4340.78,-24988.77,-17736.695,4357.0557
887071.6680667828,-57114.34,-74031.66,5897.99,-9401.896,-4339.9253,-24989.178,-17739.705,4350.342
887071.6720667784,-57115.645,-74032.88,5898.6006,-9404.663,-4345.866,-24989.299,-17739.422,4348.4297
887071.6760667742,-57116.62,-74033.086,5896.6064,-9404.338,-4335.4087,-24988.648,-17739.34,4348.3887
887071.6800667698,-57120.527,-74039.92,5894.287,-9404.501,-4339.2744,-24991.537,-17743.408,4344.808
887071.6840667656,-57119.71,-74050.87,5897.9087,-9401.245,-4343.3027,-24994.02,-17742.758,4345.459
887071.6880667612,-57121.543,-74054.81,5898.6006,-9402.304,-4351.0337,-24995.932,-17743.572,4342.8145
887071.6920667569,-57115.684,-74046.51,5896.444,-9402.67,-4344.686,-24995.973,-17742.27,4346.6797
887071.6960667527,-57115.723,-74047.65,5899.8213,-9403.769,-4342.8955,-24993.979,-17743.246,4347.331
887071.7000667483,-57121.83,-74054.61,5897.461,-9404.582,-4343.8315,-24994.305,-17745.402,4343.7095
887071.7040667441,-57128.5,-74058.02,5898.6816,-9403.85,-4335.4087,-24998.088,-17748.902,4341.39
887071.7080667397,-57126.63,-74058.72,5897.746,-9404.785,-4352.173,-24999.146,-17750.367,4334.2285
887071.7120667354,-57124.88,-74053.59,5893.1885,-9405.314,-4348.3076,-24996.787,-17746.42,4340.129
887071.7160667311,-57123.945,-74051.48,5894.613,-9406.006,-4339.966,-24995.85,-17745.2,4340.78
887071.7200667268,-57123.254,-74055.586,5897.624,-9404.257,-4335.083,-24994.793,-17743.367,4344.116
887071.7240667226,-57126.223,-74052.086,5898.7227,-9403.646,-4343.506,-24992.758,-17738.973,4347.9004
887071.7280667182,-57125.367,-74046.59,5900.0244,-9404.46,-4344.442,-24993.857,-17735.963,4350.993
887071.7320667139,-57122.723,-74044.84,5901.3267,-9404.338,-4340.495,-24992.31,-17734.66,4353.882
887071.7360667096,-57125.613,-74054.2,5900.594,-9407.39,-4338.501,-24991.578,-17737.305,4349.447
887071.7400667053,-57130.37,-74063.44,5897.0137,-9409.953,-4345.581,-24991.904,-17736.857,4357.422
887071.744066701,-57132.69,-74062.26,5898.6006,-9409.343,-4350.3013,-24993.408,-17738.607,4354.411
887071.7480666967,-57126.02,-74053.14,5904.2563,-9404.175,-4336.2227,-24993.734,-17737.225,4354.5737
887071.7520666923,-57123.7,-74054.73,5904.826,-9405.762,-4334.5947,-24993.572,-17739.91,4354.3296
887071.7560666881,-57119.387,-74058.27,5900.8384,-9407.715,-4329.0205,-24992.352,-17739.137,4357.829
887071.7600666838,-57118.777,-74065.35,5899.0073,-9409.221,-4332.4385,-24992.107,-17740.438,4357.7476
887071.7640666795,-57120.117,-74065.11,5902.2627,-9409.384,-4351.4404,-24992.107,-17740.438,4354.411
887071.7680666752,-57121.016,-74057.66,5902.466,-9406.494,-4346.273,-24997.6,-17741.414,4354.411
887071.7720666708,-57122.887,-74059.86,5895.427,-9409.221,-4339.803,-25000.773,-17743.49,4347.1274
887071.7760666666,-57127.566,-74066.2,5893.27,-9412.028,-4336.711,-24998.658,-17742.555,4346.6797
887071.7800666622,-57131.555,-74067.42,5892.1714,-9415.324,-4350.6675,-24994.467,-17739.258,4350.464
887071.784066658,-57129.926,-74060.18,5893.5957,-9412.313,-4345.703,-24995.973,-17740.805,4348.47
887071.7880666537,-57125.082,-74051.76,5900.635,-9408.936,-4339.0303,-24997.682,-17739.502,4346.761
887071.7920666493,-57127.484,-74052.164,5899.9434,-9410.156,-4344.2383,-25000.123,-17745.037,4340.7393
887071.7960666451,-57127.77,-74055.34,5894.4907,-9412.109,-4339.6406,-25000.45,-17745.2,4343.628
887071.8000666407,-57124.555,-74053.71,5899.4956,-9409.668,-4332.113,-24999.676,-17742.066,4350.708
887071.8040666365,-57127.85,-74057.7,5901.123,-9407.512,-4338.0127,-25001.1,-17741.658,4355.1436
887071.8080666321,-57132.203,-74061.04,5903.6865,-9408.081,-4343.8315,-25001.914,-17743.002,4353.1494
887071.8120666278,-57127.727,-74053.19,5895.4673,-9408.8545,-4337.199,-25000.53,-17741.863,4353.6787
887071.8160666235,-57128.543,-74058.23,5897.583,-9412.15,-4349.813,-24998.82,-17739.99,4359.0903
887071.8200666192,-57126.75,-74061.08,5900.798,-9412.598,-4348.1445,-24998.332,-17738.934,4361.776
887071.824066615,-57133.223,-74059.82,5901.286,-9411.581,-4346.4766,-25000.082,-17738.81,4359.945
887071.8280666106,-57135.5,-74051.03,5900.92,-9409.343,-4344.4824,-24999.064,-17737.264,4356.1606
887071.8320666063,-57130.902,-74042.56,5902.71,-9408.529,-4339.4775,-25000.855,-17740.52,4349.121
887071.836066602,-57125.695,-74045.734,5905.8433,-9406.413,-4336.67,-25002.197,-17742.27,4354.9805
887071.8400665977,-57127.566,-74051.68,5904.216,-9406.901,-4348.674,-25001.303,-17741.455,4359.497
887071.8440665934,-57135.46,-74052.984,5901.2046,-9405.844,-4352.295,-25004.07,-17743.043,4359.2124
887071.8480665891,-57132.367,-74041.305,5905.355,-9402.019,-4332.235,-25004.559,-17743.531,4351.3184
887071.8520665847,-57128.258,-74043.09,5902.2627,-9404.338,-4340.6577,-25003.662,-17745.32,4353.4346
887071.8560665805,-57125.285,-74045.05,5898.967,-9405.803,-4334.6763,-25001.994,-17745.281,4359.741
887071.8600665762,-57127.81,-74044.15,5899.333,-9406.698,-4332.723,-25000.367,-17746.785,4354.818
887071.8640665719,-57131.836,-74048.18,5897.054,-9406.128,-4335.2866,-25002.605,-17749.635,4342.6924
887071.8680665676,-57131.31,-74046.266,5901.3267,-9404.989,-4338.2163,-25003.012,-17749.47,4339.5186
887071.8720665632,-57135.582,-74053.19,5898.3564,-9408.691,-4333.74,-25002.85,-17753.215,4336.3037
887071.876066559,-57131.96,-74057.01,5903.646,-9408.732,-4342.326,-25001.873,-17747.396,4349.365
887071.8800665546,-57123.945,-74053.51,5906.616,-9406.616,-4347.29,-25000.367,-17737.59,4360.9214
887071.8840665504,-57135.176,-74056.234,5901.8965,-9407.837,-4346.273,-25001.344,-17736.41,4359.9854
887071.8880665461,-57148.4,-74064.86,5897.0137,-9411.662,-4349.6094,-25004.03,-17740.52,4349.365
887071.8920665417,-57149.902,-74069.586,5896.7695,-9412.964,-4347.8193,-25001.914,-17742.39,4348.552
887071.8960665375,-57146.73,-74068.445,5894.1245,-9414.47,-4344.6045,-24997.64,-17741.496,4354.045
887071.9000665331,-57137.82,-74063.07,5897.99,-9411.621,-4342.8145,-24995.89,-17739.096,4358.48
887071.9040665289,-57140.26,-74060.71,5900.1875,-9409.831,-4339.7627,-24998.861,-17741.863,4352.417
887071.9080665245,-57146.28,-74058.72,5898.397,-9412.517,-4347.331,-25000.244,-17741.984,4352.458
887071.9120665202,-57148.234,-74057.78,5899.292,-9413.737,-4340.2915,-24998.252,-17741.943,4355.3467
887071.916066516,-57148.4,-74066.37,5898.8037,-9416.26,-4336.3037,-24998.129,-17746.176,4352.051
887071.9200665116,-57139.773,-74061.0,5897.502,-9416.667,-4341.1055,-25000.367,-17748.373,4348.3076
887071.9240665074,-57143.434,-74067.875,5896.24,-9414.429,-4344.9707,-25001.588,-17751.873,4340.088
887071.928066503,-57143.273,-74066.61,5901.245,-9411.174,-4345.459,-25000.57,-17750.814,4340.21
887071.9320664987,-57143.027,-74066.24,5900.879,-9411.581,-4342.204,-25000.285,-17751.22,4338.094
887071.9360664944,-57134.32,-74060.75,5901.245,-9411.052,-4337.199,-24996.623,-17741.7,4350.4233
887071.9400664901,-57133.02,-74060.23,5903.3203,-9410.808,-4342.6924,-24997.844,-17741.09,4345.6626
887071.9440664859,-57135.906,-74065.15,5900.7163,-9409.424,-4342.855,-25000.082,-17739.258,4346.8833
887071.9480664815,-57137.82,-74066.41,5909.0576,-9406.088,-4343.506,-24998.7,-17733.846,4352.661
887071.9520664772,-57135.703,-74058.96,5915.8125,-9407.634,-4348.8364,-24996.623,-17731.201,4357.422
887071.9560664729,-57135.785,-74059.66,5906.6978,-9408.0,-4333.3335,-24995.484,-17732.057,4360.189
887071.9600664686,-57140.668,-74066.77,5901.8555,-9409.18,-4328.125,-24995.932,-17736.043,4359.3345
887071.9640664643,-57142.58,-74068.97,5905.355,-9409.546,-4338.0127,-24996.014,-17739.95,4344.116
887071.96806646,-57144.043,-74066.98,5904.582,-9409.668,-4335.653,-24998.455,-17743.896,4336.3447
887071.9720664556,-57144.29,-74068.12,5901.937,-9411.499,-4335.1646,-24999.268,-17747.03,4341.512
887071.9760664514,-57136.395,-74063.6,5904.663,-9410.238,-4340.373,-24996.582,-17746.258,4346.151
887071.980066447,-57135.95,-74067.34,5906.7793,-9409.018,-4338.257,-24997.926,-17748.658,4340.6577
887071.9840664428,-57138.918,-74067.99,5905.599,-9408.0,-4336.2227,-24998.455,-17745.646,4337.077
887071.9880664385,-57139.12,-74069.79,5909.79,-9407.309,-4349.162,-25000.45,-17743.775,4340.78
887071.9920664341,-57131.88,-74063.73,5914.3066,-9405.884,-4342.407,-24999.146,-17742.188,4343.547
887071.9960664299,-57126.914,-74060.02,5915.487,-9407.634,-4342.855,-24998.861,-17744.06,4343.628
887072.0000664255,-57127.117,-74059.53,5914.836,-9407.268,-4340.1694,-24999.268,-17743.246,4347.3716
887072.0040664213,-57131.023,-74059.086,5915.9346,-9408.447,-4343.1396,-25000.367,-17739.014,4353.2715
887072.008066417,-57134.645,-74058.11,5914.836,-9406.616,-4343.221,-25001.1,-17736.816,4357.137
887072.0120664126,-57138.836,-74064.45,5912.435,-9411.215,-4350.342,-25003.623,-17738.525,4353.6787
887072.0160664084,-57138.55,-74065.516,5907.756,-9412.313,-4343.913,-25001.22,-17737.102,4356.201
887072.020066404,-57139.445,-74064.21,5909.3833,-9408.691,-4331.543,-25000.855,-17738.934,4355.306
887072.0240663998,-57147.016,-74068.766,5908.7324,-9409.546,-4336.1816,-25002.809,-17739.422,4356.405
887072.0280663954,-57151.246,-74075.89,5907.634,-9410.36,-4343.2617,-25001.994,-17737.02,4358.48
887072.0320663911,-57149.008,-74077.84,5905.721,-9411.052,-4340.8613,-25002.523,-17743.938,4344.035
887072.0360663868,-57145.02,-74074.875,5905.7617,-9410.4,-4351.8477,-25002.035,-17745.646,4343.3433
887072.0400663825,-57139.895,-74066.445,5909.0576,-9408.8955,-4344.2793,-25002.117,-17748.129,4338.8267
887072.0440663783,-57146.812,-74070.84,5905.5586,-9410.645,-4344.157,-25005.168,-17753.094,4331.299
887072.0480663739,-57151.734,-74077.44,5906.3315,-9410.686,-4341.797,-25006.877,-17753.133,4330.8105
887072.0520663696,-57151.043,-74074.914,5906.372,-9409.14,-4338.7046,-25005.738,-17749.105,4338.7046
887072.0560663653,-57138.227,-74066.41,5907.9185,-9407.309,-4338.42,-25003.826,-17743.896,4346.517
887072.060066361,-57139.527,-74070.516,5905.355,-9408.447,-4342.2446,-25002.197,-17744.385,4342.163
887072.0640663566,-57143.598,-74069.5,5906.128,-9406.169,-4336.8735,-25005.453,-17746.746,4338.257
887072.0680663524,-57145.062,-74065.15,5908.325,-9406.576,-4335.327,-25004.395,-17744.793,4339.2334
887072.072066348,-57143.637,-74062.26,5911.174,-9407.227,-4334.1064,-24999.838,-17742.473,4341.919
887072.0760663438,-57139.65,-74063.6,5910.5635,-9409.058,-4338.176,-24997.234,-17741.13,4344.8896
887072.0800663395,-57137.94,-74061.12,5907.186,-9410.238,-4343.221,-24996.502,-17736.572,4349.04
887072.0840663351,-57145.184,-74069.586,5905.477,-9408.651,-4345.9883,-24998.74,-17733.969,4350.179
887072.0880663309,-57144.53,-74063.16,5908.244,-9407.553,-4336.019,-24999.635,-17732.625,4352.336
887072.0920663265,-57134.24,-74057.87,5918.01,-9406.291,-4333.822,-24998.332,-17730.957,4357.91
887072.0960663223,-57127.16,-74058.31,5916.87,-9405.966,-4337.972,-24996.055,-17730.307,4362.264
887072.100066318,-57128.95,-74060.875,5919.3115,-9404.338,-4340.8613,-24997.926,-17732.83,4361.45
887072.1040663136,-57133.14,-74065.31,5916.3413,-9403.198,-4340.576,-24999.879,-17736.41,4354.2075
887072.1080663094,-57135.664,-74066.0,5913.086,-9404.175,-4349.6094,-24998.902,-17736.816,4345.744
887072.112066305,-57126.344,-74054.12,5918.1724,-9400.269,-4336.833,-24997.844,-17731.201,4360.1484
887072.1160663008,-57129.6,-74055.055,5918.742,-9402.1,-4331.6245,-24998.047,-17732.586,4361.776
887072.1200662964,-57132.49,-74058.48,5917.928,-9402.588,-4332.357,-24998.414,-17734.66,4354.492
887072.1240662921,-57136.965,-74059.164,5910.075,-9401.205,-4329.2646,-25000.45,-17737.508,4349.8945
887072.1280662878,-57130.37,-74052.49,5917.1143,-9400.1875,-4337.8096,-24999.756,-17732.3,4354.5737
887072.1320662835,-57125.043,-74052.77,5921.794,-9401.896,-4339.885,-25000.164,-17732.422,4354.7363
887072.1360662793,-57128.055,-74060.63,5921.0615,-9403.728,-4341.146,-24998.455,-17734.742,4357.9917
887072.1400662749,-57134.89,-74066.53,5916.545,-9404.826,-4336.792,-24998.21,-17738.281,4351.3594
887072.1440662706,-57140.953,-74068.89,5908.0,-9405.64,-4339.0303,-24999.268,-17736.775,4355.632
887072.1480662663,-57147.34,-74067.55,5909.668,-9403.158,-4335.897,-24997.64,-17739.34,4354.289
887072.152066262,-57138.105,-74056.234,5918.62,-9400.513,-4325.6025,-24997.803,-17741.455,4350.5454
887072.1560662577,-57134.117,-74051.555,5914.673,-9398.926,-4330.9326,-24997.234,-17740.357,4352.58
887072.1600662534,-57137.695,-74055.14,5915.3647,-9399.008,-4334.554,-24999.146,-17740.234,4350.9116
887072.164066249,-57137.414,-74060.14,5914.8765,-9399.74,-4341.716,-24999.512,-17732.83,4358.073
887072.1680662448,-57136.11,-74062.586,5917.5215,-9400.717,-4345.9883,-24999.229,-17733.602,4357.3813
887072.1720662405,-57136.027,-74065.516,5915.6904,-9402.507,-4342.8955,-24997.6,-17735.352,4350.179
887072.1760662362,-57131.836,-74061.52,5915.08,-9402.222,-4333.293,-24996.217,-17737.59,4351.9287
887072.1800662319,-57131.51,-74058.31,5915.5273,-9403.524,-4338.0537,-24994.102,-17734.701,4358.236
887072.1840662275,-57141.48,-74060.266,5914.4287,-9403.769,-4337.728,-24996.338,-17732.342,4360.189
887072.1880662233,-57149.133,-74067.67,5914.592,-9404.989,-4344.7266,-24996.867,-17730.592,4363.2812
887072.1920662189,-57138.184,-74062.26,5919.7593,-9403.036,-4338.867,-24996.99,-17729.29,4363.2407
887072.1960662147,-57135.297,-74060.75,5918.132,-9403.158,-4335.49,-24997.111,-17734.863,4358.8057
887072.2000662104,-57138.227,-74066.2,5919.027,-9403.036,-4343.506,-24996.543,-17740.926,4349.4873
887072.204066206,-57141.195,-74069.26,5919.2305,-9402.426,-4337.4434,-24998.902,-17741.578,4347.6562
887072.2080662018,-57140.586,-74064.91,5915.8936,-9401.53,-4336.2227,-24999.594,-17738.404,4353.231
887072.2120661974,-57136.56,-74061.98,5920.1255,-9402.426,-4333.3335,-24996.176,-17734.986,4354.6553
887072.2160661932,-57135.46,-74063.6,5923.4214,-9401.978,-4333.293,-24992.84,-17732.707,4358.8867
887072.2200661888,-57142.58,-74071.49,5918.8643,-9402.222,-4335.49,-24992.758,-17735.434,4357.666
887072.2240661845,-57147.586,-74078.45,5915.5684,-9402.751,-4342.6514,-24993.896,-17736.98,4356.4453
887072.2280661803,-57147.137,-74069.79,5919.027,-9400.757,-4342.611,-24998.21,-17740.846,4345.9473
887072.2320661759,-57148.926,-74068.97,5915.5273,-9402.751,-4339.9253,-24999.756,-17744.996,4342.285
887072.2360661717,-57144.86,-74073.65,5910.4004,-9404.582,-4342.204,-24998.21,-17742.025,4351.9287
887072.2400661673,-57143.76,-74075.97,5914.2256,-9401.001,-4338.623,-24999.35,-17743.164,4354.818
887072.244066163,-57144.695,-74078.33,5912.069,-9400.269,-4342.2446,-24999.35,-17745.973,4346.843
887072.2480661587,-57139.773,-74072.47,5915.6494,-9399.902,-4341.5527,-24995.484,-17739.38,4352.987
887072.2520661544,-57133.547,-74069.22,5924.8457,-9399.78,-4337.2803,-24992.352,-17735.271,4358.6836
887072.2560661501,-57138.715,-74071.01,5920.085,-9399.862,-4331.5024,-24990.684,-17739.625,4354.7773
887072.2600661458,-57146.934,-74080.28,5912.6387,-9402.548,-4332.113,-24994.996,-17745.605,4348.877
887072.2640661414,-57149.62,-74076.74,5911.9873,-9403.28,-4344.4824,-24997.803,-17743.367,4348.755
887072.2680661372,-57149.21,-74064.66,5917.7246,-9399.17,-4339.437,-24997.844,-17739.137,4353.5156
887072.2720661329,-57149.7,-74067.14,5914.836,-9398.967,-4338.257,-24997.031,-17738.404,4358.6836
887072.2760661286,-57144.94,-74070.56,5913.656,-9399.699,-4326.66,-24995.443,-17739.014,4363.363
887072.2800661243,-57143.516,-74069.664,5917.928,-9401.286,-4330.9326,-24995.402,-17738.934,4362.793
887072.2840661199,-57140.79,-74063.68,5921.672,-9399.902,-4338.664,-24994.182,-17732.016,4374.5117
887072.2880661157,-57140.098,-74054.52,5920.8984,-9399.211,-4331.543,-24996.42,-17728.23,4383.464
887072.2920661113,-57143.395,-74061.98,5918.498,-9401.001,-4337.3213,-24994.182,-17724.65,4390.991
887072.2960661071,-57142.297,-74064.74,5920.288,-9400.391,-4338.0127,-24993.896,-17725.18,4393.27
887072.3000661028,-57142.09,-74064.01,5918.62,-9400.065,-4334.4727,-24994.752,-17729.98,4385.01
887072.3040660984,-57149.7,-74067.914,5916.26,-9400.269,-4338.664,-24995.158,-17731.69,4380.249
887072.3080660942,-57147.137,-74066.57,5917.806,-9398.723,-4336.0596,-24997.64,-17734.254,4369.8325
887072.3120660898,-57150.23,-74076.17,5913.8184,-9399.74,-4331.421,-24998.047,-17741.334,4359.3345
887072.3160660856,-57149.21,-74078.734,5919.1084,-9400.513,-4336.426,-24995.117,-17743.043,4358.7646
887072.3200660812,-57141.684,-74072.516,5921.916,-9398.926,-4345.6626,-24995.037,-17742.596,4354.94
887072.3240660769,-57140.668,-74069.13,5923.9097,-9397.746,-4349.121,-24998.008,-17740.643,4356.893
887072.3280660727,-57143.8,-74070.234,5923.462,-9396.525,-4338.176,-25000.693,-17744.264,4349.6094
887072.3320660683,-57141.156,-74069.79,5923.34,-9397.461,-4338.0127,-24996.787,-17737.102,4358.9683
887072.3360660641,-57135.336,-74065.59,5924.642,-9397.624,-4332.235,-24995.361,-17734.863,4366.008
887072.3400660597,-57140.625,-74070.68,5923.1772,-9398.479,-4334.554,-24992.514,-17735.719,4357.788
887072.3440660554,-57147.668,-74070.27,5921.0615,-9397.787,-4335.5713,-24993.164,-17733.725,4359.66
887072.3480660511,-57156.414,-74072.35,5913.127,-9401.001,-4344.035,-24992.432,-17731.61,4364.746
887072.3520660468,-57153.73,-74069.5,5915.4463,-9401.652,-4335.205,-24989.625,-17731.771,4361.369
887072.3560660426,-57152.02,-74070.31,5915.5684,-9404.826,-4330.4443,-24989.951,-17736.166,4352.661
887072.3600660382,-57144.613,-74065.35,5917.684,-9404.175,-4341.512,-24991.904,-17735.637,4358.114
887072.3640660339,-57147.504,-74062.38,5917.8877,-9400.595,-4337.1177,-24992.88,-17738.12,4355.4688
887072.3680660296,-57150.84,-74061.81,5921.753,-9399.374,-4334.188,-24992.555,-17735.475,4359.9043
887072.3720660253,-57144.816,-74056.27,5920.532,-9399.984,-4327.2705,-24992.92,-17735.799,4358.4395
887072.376066021,-57144.74,-74061.73,5921.346,-9401.652,-4336.2227,-24991.416,-17734.904,4359.9043
887072.3800660167,-57151.855,-74074.34,5918.5386,-9401.896,-4342.733,-24992.31,-17736.492,4354.6553
887072.3840660123,-57155.56,-74080.484,5918.4165,-9401.815,-4346.965,-24997.111,-17743.693,4345.337
887072.3880660081,-57150.473,-74070.35,5921.4277,-9399.577,-4344.7676,-24996.746,-17740.113,4351.3184
887072.3920660038,-57147.586,-74063.68,5921.753,-9398.153,-4332.3164,-24994.914,-17739.137,4347.3716
887072.3960659995,-57141.887,-74063.766,5926.473,-9397.868,-4336.426,-24992.84,-17738.078,4351.644
887072.4000659952,-57142.906,-74062.46,5922.2007,-9397.787,-4338.501,-24993.775,-17739.217,4353.882
887072.4040659908,-57150.555,-74069.375,5918.254,-9398.071,-4334.432,-24996.176,-17745.646,4344.0757
887072.4080659866,-57153.363,-74068.04,5920.614,-9397.543,-4335.4087,-24994.346,-17744.629,4342.8955
887072.4120659822,-57149.133,-74064.82,5923.381,-9396.322,-4334.6357,-24992.025,-17738.934,4352.1323
887072.416065978,-57152.426,-74067.18,5922.9736,-9396.2,-4332.4385,-24992.107,-17738.852,4355.998
887072.4200659737,-57160.2,-74074.51,5918.213,-9398.275,-4330.5664,-24992.596,-17739.746,4352.783
887072.4240659693,-57151.004,-74063.234,5921.0615,-9393.474,-4331.706,-24992.596,-17735.475,4362.264
887072.4280659651,-57147.504,-74061.85,5921.753,-9394.165,-4329.468,-24993.246,-17733.725,4366.4146
887072.4320659607,-57147.3,-74065.72,5921.7124,-9396.281,-4326.66,-24993.49,-17736.37,4359.009
887072.4360659565,-57142.5,-74064.21,5929.525,-9395.793,-4329.2646,-24992.352,-17733.766,4365.9263
887072.4400659521,-57141.113,-74068.36,5930.0947,-9395.02,-4331.0547,-24990.967,-17731.08,4369.426
887072.4440659478,-57137.453,-74058.02,5933.9194,-9392.538,-4328.7764,-24992.352,-17728.15,4368.327
887072.4480659436,-57140.87,-74056.84,5928.9146,-9392.822,-4330.2817,-24992.676,-17725.953,4372.8027
887072.4520659392,-57141.24,-74061.65,5929.8096,-9395.386,-4330.2,-24989.828,-17721.844,4381.633
887072.456065935,-57140.3,-74065.88,5927.124,-9399.374,-4335.531,-24989.055,-17722.615,4375.4478
887072.4600659306,-57148.48,-74071.54,5918.701,-9401.693,-4341.3086,-24988.975,-17724.488,4370.4834
887072.4640659263,-57149.375,-74067.63,5922.4043,-9399.455,-4339.437,-24991.334,-17723.756,4376.6685
887072.468065922,-57153.117,-74061.93,5921.7124,-9400.106,-4333.8623,-24993.37,-17725.709,4365.967
887072.4720659177,-57151.695,-74060.8,5921.1426,-9401.164,-4328.003,-24992.514,-17726.4,4370.4834
887072.4760659134,-57141.684,-74058.31,5925.659,-9398.642,-4326.1313,-24990.764,-17726.93,4371.0127
887072.4800659091,-57143.477,-74061.85,5922.9736,-9400.473,-4342.2446,-24988.648,-17727.01,4367.717
887072.4840659047,-57149.008,-74060.34,5920.451,-9399.862,-4338.0537,-24990.887,-17730.145,4363.729
887072.4880659005,-57147.055,-74054.69,5921.794,-9397.421,-4334.6763,-24992.107,-17728.76,4366.9434
887072.4920658962,-57147.098,-74058.15,5915.731,-9397.095,-4329.3867,-24991.863,-17729.98,4361.328
887072.4960658919,-57143.965,-74062.79,5915.731,-9398.804,-4330.9326,-24991.7,-17732.219,4358.846
887072.5000658876,-57142.99,-74062.99,5913.127,-9399.862,-4335.368,-24989.625,-17731.283,4359.8228
887072.5040658832,-57144.043,-74058.96,5915.487,-9399.292,-4331.218,-24989.137,-17728.76,4363.2407
887072.508065879,-57148.195,-74061.89,5915.161,-9399.374,-4329.0205,-24990.234,-17729.98,4361.8574
887072.5120658746,-57142.62,-74066.24,5917.4805,-9398.723,-4329.3867,-24990.805,-17728.516,4367.1064
887072.5160658704,-57137.86,-74060.305,5917.684,-9400.351,-4331.7466,-24990.275,-17728.842,4368.734
887072.5200658661,-57136.312,-74062.75,5916.9517,-9401.449,-4336.589,-24989.91,-17728.719,4370.4834
887072.5240658617,-57142.418,-74063.6,5917.6025,-9399.902,-4339.0303,-24988.893,-17729.736,4366.618
887072.5280658575,-57144.25,-74063.27,5915.731,-9400.106,-4336.9956,-24988.69,-17730.428,4365.5195
887072.5320658531,-57138.836,-74059.53,5915.853,-9400.065,-4331.462,-24986.29,-17725.098,4374.0234
887072.5360658489,-57136.8,-74065.59,5916.5854,-9400.024,-4335.775,-24987.143,-17729.045,4368.5713
887072.5400658445,-57132.49,-74065.59,5920.207,-9398.031,-4336.1816,-24987.225,-17727.377,4371.1753
887072.5440658402,-57137.902,-74065.39,5918.9453,-9398.193,-4342.6924,-24988.77,-17725.465,4372.64
887072.548065836,-57133.63,-74058.92,5920.41,-9396.2,-4341.2275,-24988.486,-17723.959,4381.429
887072.5520658316,-57133.223,-74055.016,5916.7075,-9396.403,-4329.061,-24987.672,-17725.3,4381.1035
887072.5560658274,-57134.074,-74062.75,5913.615,-9398.52,-4330.119,-24988.566,-17729.168,4371.9077
887072.560065823,-57127.523,-74065.63,5918.376,-9400.065,-4345.9473,-24989.299,-17728.557,4370.8906
887072.5640658187,-57131.27,-74063.73,5918.2944,-9398.479,-4338.0537,-24992.352,-17731.365,4368.5303
887072.5680658144,-57131.43,-74063.4,5920.1255,-9397.461,-4335.8154,-24993.49,-17732.87,4369.9546
887072.5720658101,-57133.14,-74068.28,5916.382,-9400.065,-4333.252,-24993.816,-17732.625,4372.5586
887072.5760658059,-57128.99,-74066.61,5914.0625,-9399.943,-4327.759,-24993.938,-17729.33,4375.9766
887072.5800658015,-57130.78,-74066.33,5911.5806,-9400.106,-4337.362,-24993.857,-17727.742,4375.2036
887072.5840657972,-57133.465,-74064.01,5913.371,-9400.635,-4342.5293,-24994.14,-17726.318,4372.1113
887072.5880657929,-57135.703,-74062.3,5915.7715,-9398.356,-4340.495,-24993.37,-17722.127,4378.9062
887072.5920657886,-57135.05,-74064.58,5914.795,-9397.868,-4337.8096,-24993.857,-17724.0,4376.0986
887072.5960657843,-57130.496,-74070.11,5912.883,-9400.879,-4332.7637,-24996.582,-17726.889,4374.7153
887072.60006578,-57134.89,-74079.67,5912.9233,-9401.815,-4332.927,-24996.908,-17728.027,4371.5415
887072.6040657756,-57129.395,-74070.72,5914.673,-9399.292,-4331.828,-24999.188,-17723.023,4378.174
887072.6080657714,-57136.152,-74078.734,5910.9297,-9402.222,-4344.8896,-25000.367,-17722.982,4377.523
887072.612065767,-57135.867,-74078.45,5913.8184,-9401.083,-4329.9155,-25000.244,-17721.6,4384.033
887072.6160657628,-57131.797,-74075.16,5914.836,-9400.798,-4326.864,-24996.99,-17717.652,4394.084
887072.6200657585,-57136.477,-74076.09,5916.0566,-9402.1,-4330.2,-24996.787,-17720.785,4389.4043
887072.6240657541,-57140.344,-74077.31,5914.0625,-9400.513,-4330.6885,-24996.014,-17721.232,4385.01
887072.6280657499,-57139.445,-74076.21,5913.7373,-9400.595,-4336.3853,-24996.42,-17720.338,4380.412
887072.6320657455,-57140.06,-74076.46,5911.296,-9401.571,-4335.7344,-24995.078,-17720.338,4380.371
887072.6360657413,-57140.79,-74075.69,5906.5757,-9403.931,-4332.3975,-24994.385,-17721.559,4383.5044
887072.640065737,-57141.36,-74080.85,5907.6743,-9403.361,-4336.548,-24995.605,-17725.262,4380.7373
887072.6440657326,-57141.97,-74081.71,5904.907,-9403.442,-4337.4023,-24995.89,-17724.488,4377.075
887072.6480657284,-57143.637,-74079.35,5909.953,-9402.792,-4336.711,-24997.031,-17719.361,4383.6265
887072.652065724,-57149.09,-74081.99,5907.959,-9404.663,-4340.6577,-25000.0,-17726.4,4374.797
887072.6560657198,-57149.54,-74084.234,5905.6396,-9404.785,-4329.0205,-24999.309,-17730.877,4372.1113
887072.6600657154,-57147.258,-74082.36,5910.4414,-9403.28,-4334.758,-24998.008,-17727.459,4377.6855
887072.6640657111,-57147.91,-74081.95,5910.726,-9403.32,-4335.49,-24999.309,-17723.348,4389.079
887072.6680657069,-57153.08,-74080.53,5911.499,-9404.46,-4335.9375,-25002.441,-17731.445,4368.978
887072.6720657025,-57151.652,-74076.21,5910.3193,-9402.751,-4324.951,-25002.727,-17732.586,4366.089
887072.6760656983,-57146.73,-74076.01,5905.6807,-9406.25,-4339.559,-25000.082,-17728.15,4378.2554
887072.6800656939,-57147.098,-74078.62,5904.704,-9407.227,-4344.564,-24996.787,-17728.719,4369.0596
887072.6840656896,-57143.312,-74075.766,5908.773,-9403.728,-4338.867,-24998.984,-17728.068,4370.2803
887072.6880656853,-57146.445,-74075.484,5909.5054,-9405.722,-4337.8096,-25000.732,-17730.633,4369.629
887072.692065681,-57147.504,-74075.56,5909.587,-9407.431,-4330.8105,-24999.797,-17733.521,4366.8623
887072.6960656767,-57145.67,-74074.305,5913.452,-9407.797,-4330.3223,-24996.99,-17735.76,4367.4727
887072.7000656724,-57135.418,-74071.21,5912.191,-9404.663,-4336.1816,-24996.094,-17732.951,4373.535
887072.704065668,-57141.727,-74077.555,5911.3364,-9402.222,-4337.4434,-24998.008,-17734.334,4363.159
887072.7080656638,-57150.27,-74082.44,5907.3486,-9404.175,-4337.036,-24998.78,-17736.125,4359.619
887072.7120656595,-57150.637,-74084.35,5908.773,-9404.826,-4329.509,-24998.576,-17736.775,4361.5317
887072.7160656552,-57148.074,-74082.28,5910.36,-9406.372,-4331.828,-24996.46,-17736.287,4364.177
887072.7200656509,-57151.33,-74079.836,5903.646,-9404.989,-4320.923,-24996.217,-17736.98,4361.898
887072.7240656465,-57149.824,-74073.9,5908.1626,-9404.338,-4332.9673,-24997.803,-17736.857,4360.1484
887072.7280656423,-57150.84,-74073.57,5909.7495,-9403.728,-4331.6245,-25001.059,-17736.775,4361.247
887072.732065638,-57148.48,-74071.66,5910.1973,-9404.338,-4332.1533,-24997.234,-17728.23,4377.9707
887072.7360656337,-57149.293,-74076.78,5909.8716,-9406.535,-4336.792,-24995.973,-17729.004,4380.046
887072.7400656294,-57150.598,-74079.96,5907.3896,-9406.169,-4337.5244,-24994.873,-17734.54,4371.867
887072.744065625,-57158.082,-74080.65,5905.599,-9410.075,-4347.7783,-24995.77,-17739.014,4365.4785
887072.7480656208,-57149.62,-74067.63,5913.9814,-9406.128,-4331.909,-24994.752,-17729.86,4379.3945
887072.7520656164,-57148.277,-74066.2,5913.208,-9405.437,-4323.6084,-24994.223,-17729.168,4377.075
887072.7560656122,-57149.54,-74071.01,5913.127,-9406.413,-4331.421,-24993.613,-17728.76,4377.075
887072.7600656078,-57150.312,-74072.35,5912.6387,-9405.844,-4338.379,-24996.623,-17734.54,4369.0596
887072.7640656035,-57152.875,-74079.305,5908.081,-9406.494,-4339.885,-25001.465,-17734.945,4371.6636
887072.7680655993,-57155.64,-74078.734,5907.1045,-9405.029,-4329.468,-25001.832,-17732.3,4374.756
887072.7720655949,-57160.89,-74083.62,5907.756,-9407.431,-4342.163,-25001.791,-17732.951,4377.0347
887072.7760655907,-57151.492,-74080.08,5912.191,-9407.512,-4340.4136,-24996.582,-17726.93,4385.4575
887072.7800655863,-57146.445,-74069.79,5915.324,-9403.198,-4320.3535,-24994.385,-17725.994,4388.143
887072.784065582,-57152.223,-74077.84,5913.0454,-9403.605,-4337.8096,-24997.031,-17728.598,4384.5215
887072.7880655777,-57151.492,-74077.19,5911.418,-9404.053,-4341.146,-24998.943,-17728.598,4383.7485
887072.7920655734,-57151.777,-74075.234,5910.97,-9405.884,-4337.4023,-24998.129,-17727.742,4381.3477
887072.7960655692,-57151.367,-74075.36,5910.1973,-9406.535,-4332.6826,-24996.014,-17728.639,4381.5513
887072.8000655648,-57159.59,-74082.52,5908.651,-9406.657,-4337.8906,-24995.81,-17727.742,4381.7954
887072.8040655605,-57164.105,-74083.945,5912.8013,-9406.169,-4347.575,-24998.535,-17728.027,4386.678
887072.8080655562,-57156.863,-74074.586,5916.097,-9402.426,-4329.6714,-25000.45,-17729.94,4385.051
887072.8120655519,-57158.164,-74075.32,5911.784,-9403.85,-4331.421,-24998.943,-17730.672,4384.8877
887072.8160655476,-57157.188,-74081.586,5909.79,-9406.413,-4337.5244,-24997.234,-17732.586,4385.0913
887072.8200655433,-57153.85,-74087.69,5911.9062,-9405.844,-4333.659,-24997.64,-17730.592,4386.678
887072.8240655389,-57159.387,-74090.86,5909.79,-9405.111,-4337.4434,-24999.39,-17731.893,4382.08
887072.8280655347,-57162.844,-74089.03,5911.2144,-9406.25,-4338.0537,-24998.617,-17731.404,4381.633
887072.8320655304,-57162.76,-74089.44,5911.9062,-9407.1045,-4331.543,-24996.623,-17734.213,4381.307
887072.8360655261,-57163.574,-74094.69,5911.9873,-9406.616,-4322.7134,-24996.299,-17739.502,4376.3022
887072.8400655218,-57158.043,-74097.66,5914.266,-9408.203,-4341.1055,-24993.49,-17734.498,4383.016
887072.8440655174,-57156.82,-74090.78,5909.3833,-9405.07,-4337.6465,-24995.24,-17729.207,4389.486
887072.8480655132,-57161.297,-74092.0,5911.9062,-9403.646,-4334.31,-24997.844,-17732.016,4386.1084
887072.8520655088,-57161.34,-74092.57,5912.9233,-9405.803,-4335.205,-24997.355,-17732.137,4384.033
887072.8560655046,-57162.438,-74094.69,5912.435,-9406.901,-4332.8047,-24997.967,-17733.846,4381.877
887072.8600655003,-57161.703,-74093.266,5913.9404,-9403.769,-4339.2744,-24996.99,-17731.283,4383.586
887072.8640654959,-57167.277,-74097.58,5912.9233,-9401.449,-4335.0425,-24998.332,-17732.79,4379.5166
887072.8680654917,-57172.406,-74101.04,5914.4697,-9404.989,-4335.6934,-24998.21,-17734.213,4377.9707
887072.8720654873,-57164.55,-74093.71,5911.7026,-9409.099,-4339.437,-24996.379,-17723.47,4390.2183
887072.8760654831,-57162.76,-74097.984,5913.615,-9409.14,-4338.0127,-24997.234,-17724.365,4387.1665
887072.8800654787,-57161.95,-74096.16,5914.551,-9408.936,-4348.5923,-24998.617,-17728.842,4388.143
887072.8840654744,-57169.19,-74102.17,5913.0454,-9408.691,-4350.464,-24999.188,-17730.795,4382.65
887072.8880654701,-57173.586,-74106.24,5912.1504,-9408.163,-4345.1743,-25001.059,-17731.242,4381.2256
887072.8920654658,-57171.594,-74105.555,5912.1504,-9405.925,-4334.5947,-24998.74,-17726.562,4389.079
887072.8960654616,-57171.266,-74111.45,5911.0923,-9406.982,-4322.673,-24997.64,-17729.574,4388.835
887072.9000654572,-57165.977,-74110.15,5915.283,-9407.023,-4339.559,-24997.031,-17731.324,4388.1836
887072.9040654529,-57167.277,-74114.95,5916.0566,-9405.355,-4339.885,-24999.473,-17733.602,4386.7188
887072.9080654486,-57166.547,-74112.59,5913.5337,-9405.762,-4339.1523,-25001.873,-17734.416,4380.046
887072.9120654443,-57167.605,-74116.17,5914.795,-9407.1455,-4341.838,-25002.076,-17734.295,4376.994
887072.91606544,-57158.977,-74111.21,5917.7246,-9406.006,-4336.9956,-25002.482,-17736.328,4378.4995
887072.9200654357,-57159.547,-74115.56,5915.487,-9406.332,-4345.825,-25000.938,-17736.37,4378.825
887072.9240654313,-57172.04,-74127.28,5910.7666,-9406.738,-4354.2075,-25001.67,-17737.469,4375.6104
887072.9280654271,-57171.51,-74128.7,5914.8765,-9405.762,-4353.2715,-25001.629,-17734.416,4380.005
887072.9320654228,-57165.69,-74119.55,5919.4336,-9406.21,-4342.3667,-25001.303,-17735.19,4381.877
887072.9360654185,-57163.25,-74117.88,5921.0615,-9407.553,-4343.75,-24999.064,-17731.975,4388.143
887072.9400654142,-57159.59,-74120.28,5916.301,-9407.39,-4343.994,-24999.756,-17733.195,4389.4453
887072.9440654098,-57160.08,-74117.84,5917.6436,-9406.25,-4349.121,-25002.28,-17738.12,4378.9062
887072.9480654056,-57159.832,-74116.91,5919.3525,-9403.972,-4343.547,-25003.947,-17740.193,4373.1284
887072.9520654012,-57154.22,-74117.516,5917.9688,-9404.501,-4340.251,-25003.5,-17739.258,4378.459
887072.956065397,-57142.785,-74105.266,5929.24,-9403.28,-4335.49,-25002.482,-17740.072,4384.847
887072.9600653927,-57136.844,-74090.66,5929.403,-9402.426,-4335.8154,-25002.686,-17739.137,4384.074
887072.9640653883,-57142.418,-74091.555,5922.241,-9400.92,-4335.531,-25004.314,-17740.967,4374.105
887072.9680653841,-57140.79,-74082.805,5924.154,-9400.961,-4343.8315,-25006.023,-17741.375,4372.1924
887072.9720653797,-57128.34,-74070.72,5926.351,-9397.827,-4332.9673,-25005.412,-17740.316,4373.739
887072.9760653755,-57126.14,-74070.35,5924.886,-9398.315,-4329.183,-25006.186,-17747.438,4367.839
887072.9800653711,-57116.457,-74058.43,5930.013,-9394.409,-4327.0264,-25007.895,-17749.188,4366.374
