timestamp,Fp1,Fp2,F3,Fz,F4,Cz,Pz,Oz
887834.8792456205,-68526.25,-66488.28,9638.713,-4127.8076,-17880.697,-27555.625,-21766.44,9012.98
887834.8832456162,-68522.26,-66479.695,9645.508,-4127.6855,-17884.48,-27554.281,-21757.488,9020.305
887834.8872456119,-68520.875,-66479.74,9648.764,-4128.296,-17879.803,-27552.125,-21755.047,9021.322
887834.8912456075,-68527.836,-66488.28,9640.747,-4131.063,-17884.48,-27551.025,-21758.465,9017.985
887834.8952456033,-68528.52,-66487.67,9647.461,-4127.9297,-17885.05,-27551.352,-21761.719,9017.05
887834.8992455989,-68519.125,-66479.45,9642.863,-4126.465,-17872.559,-27552.084,-21760.092,9023.886
887834.9032455947,-68523.6,-66485.44,9646.118,-4126.6685,-17876.262,-27555.705,-21767.66,9014.404
887834.9072455904,-68524.25,-66492.19,9651.286,-4128.174,-17877.197,-27558.635,-21773.967,9008.749
887834.911245586,-68523.73,-66486.25,9644.003,-4128.174,-17869.832,-27560.873,-21775.066,9013.713
887834.9152455818,-68517.83,-66478.27,9641.439,-4125.122,-17881.512,-27562.541,-21772.705,9018.107
887834.9192455774,-68516.195,-66474.04,9643.921,-4123.291,-17869.914,-27565.064,-21773.438,9019.775
887834.9232455732,-68514.57,-66475.016,9652.1,-4122.5996,-17868.734,-27562.744,-21768.719,9021.973
887834.9272455688,-68521.734,-66484.26,9646.078,-4127.645,-17871.95,-27561.117,-21771.484,9017.619
887834.9312455645,-68524.17,-66486.78,9641.317,-4130.371,-17866.943,-27557.902,-21767.13,9028.402
887834.9352455602,-68510.78,-66476.93,9650.961,-4126.384,-17865.357,-27558.229,-21759.727,9042.603
887834.9392455559,-68511.03,-66478.11,9654.094,-4125.5293,-17872.682,-27557.943,-21761.436,9035.686
887834.9432455517,-68514.164,-66481.695,9652.751,-4122.5586,-17875.447,-27557.537,-21764.854,9025.839
887834.9472455473,-68510.09,-66475.79,9656.982,-4120.687,-17868.002,-27552.734,-21760.742,9031.494
887834.951245543,-68517.62,-66483.56,9657.1045,-4123.9424,-17875.285,-27550.01,-21760.947,9033.488
887834.9552455387,-68522.22,-66488.484,9651.652,-4124.3896,-17873.82,-27553.793,-21764.527,9025.92
887834.9592455344,-68516.484,-66481.65,9659.506,-4121.7856,-17878.377,-27553.264,-21757.162,9034.953
887834.9632455301,-68518.48,-66481.695,9657.1045,-4122.4775,-17879.273,-27554.078,-21756.512,9036.296
887834.9672455258,-68520.8,-66483.195,9654.623,-4124.5933,-17873.902,-27556.479,-21760.377,9029.135
887834.9712455214,-68520.67,-66478.64,9658.977,-4123.169,-17872.803,-27556.846,-21764.69,9026.489
887834.9752455172,-68525.27,-66485.96,9651.855,-4124.919,-17869.223,-27557.537,-21768.678,9020.59
887834.9792455129,-68520.914,-66488.28,9650.024,-4126.5464,-17880.25,-27559.082,-21770.387,9017.456
887834.9832455086,-68529.55,-66492.8,9647.787,-4127.401,-17878.174,-27559.938,-21776.896,9010.742
887834.9872455043,-68524.54,-66488.89,9650.798,-4125.041,-17872.152,-27563.64,-21776.367,9013.388
887834.9912454999,-68520.43,-66486.01,9657.959,-4122.152,-17867.27,-27565.146,-21777.588,9013.55
887834.9952454957,-68526.05,-66490.84,9654.541,-4124.5933,-17884.562,-27565.553,-21779.42,9008.342
887834.9992454913,-68524.62,-66488.734,9658.773,-4125.407,-17888.104,-27566.244,-21780.559,9005.9
887835.0032454871,-68524.25,-66489.09,9661.296,-4125.0,-17888.143,-27566.447,-21776.734,9009.644
887835.0072454828,-68518.11,-66481.81,9660.238,-4122.3555,-17870.525,-27563.559,-21767.213,9018.718
887835.0112454784,-68518.92,-66481.77,9654.094,-4123.454,-17867.188,-27560.914,-21760.295,9028.361
887835.0152454742,-68522.79,-66487.555,9663.412,-4123.698,-17877.156,-27561.24,-21764.283,9027.263
887835.0192454698,-68523.32,-66490.484,9655.111,-4126.5464,-17880.574,-27559.043,-21762.168,9024.496
887835.0232454656,-68529.18,-66495.41,9653.769,-4128.052,-17885.621,-27557.74,-21761.963,9019.287
887835.0272454612,-68529.016,-66495.52,9655.844,-4128.662,-17888.143,-27557.537,-21762.207,9020.956
887835.0312454569,-68533.24,-66502.65,9656.698,-4129.802,-17893.23,-27556.396,-21766.154,9020.305
887835.0352454527,-68528.41,-66495.37,9662.395,-4124.797,-17886.76,-27561.809,-21766.684,9028.524
887835.0392454483,-68526.98,-66493.414,9659.668,-4125.936,-17889.934,-27559.814,-21761.191,9041.342
887835.0432454441,-68527.06,-66495.77,9655.884,-4125.6104,-17884.521,-27562.135,-21765.016,9035.727
887835.0472454397,-68529.3,-66497.766,9659.343,-4124.0234,-17885.662,-27563.273,-21770.305,9024.699
887835.0512454354,-68532.8,-66500.2,9658.813,-4125.407,-17892.537,-27564.861,-21773.643,9021.566
887835.0552454311,-68528.73,-66494.836,9668.498,-4124.105,-17894.328,-27563.438,-21771.078,9024.78
887835.0592454268,-68527.18,-66498.984,9659.912,-4125.163,-17893.84,-27562.908,-21769.248,9017.863
887835.0632454226,-68522.87,-66497.07,9654.907,-4124.5527,-17880.494,-27563.273,-21765.463,9024.821
887835.0672454182,-68517.21,-66491.13,9663.615,-4122.1924,-17876.1,-27565.879,-21768.963,9021.037
887835.0712454139,-68514.41,-66488.2,9665.487,-4119.751,-17886.598,-27566.773,-21774.537,9010.661
887835.0752454096,-68525.59,-66500.2,9659.953,-4125.0,-17893.148,-27564.902,-21777.914,9003.622
887835.0792454053,-68517.3,-66489.42,9662.517,-4121.4194,-17882.121,-27566.57,-21766.236,9024.089
887835.083245401,-68516.12,-66489.75,9663.818,-4122.518,-17879.314,-27567.871,-21771.729,9022.868
887835.0872453967,-68515.38,-66482.26,9669.76,-4120.3613,-17867.39,-27568.238,-21772.87,9024.292
887835.0912453923,-68519.734,-66483.44,9665.894,-4122.274,-17871.664,-27567.506,-21774.578,9020.996
887835.0952453881,-68520.39,-66487.14,9668.335,-4123.2505,-17881.307,-27567.506,-21774.822,9020.63
887835.0992453838,-68513.92,-66480.92,9676.433,-4123.088,-17884.115,-27566.326,-21771.852,9025.635
887835.1032453795,-68515.79,-66487.8,9666.504,-4124.9595,-17883.016,-27563.926,-21772.422,9019.897
887835.1072453752,-68510.945,-66488.94,9670.98,-4123.698,-17881.023,-27562.623,-21767.05,9032.39
887835.1112453708,-68506.15,-66488.61,9671.265,-4123.2505,-17890.87,-27563.314,-21766.398,9035.6045
887835.1152453666,-68520.67,-66502.445,9663.656,-4126.872,-17905.885,-27564.332,-21770.264,9030.803
887835.1192453622,-68521.61,-66495.52,9662.802,-4123.983,-17894.246,-27564.453,-21770.469,9025.391
887835.123245358,-68515.875,-66483.73,9664.958,-4121.257,-17882.324,-27564.535,-21774.62,9022.258
887835.1272453537,-68519.62,-66488.89,9663.737,-4123.413,-17890.545,-27567.139,-21783.123,9018.84
887835.1312453493,-68533.2,-66494.305,9661.296,-4124.634,-17889.975,-27569.906,-21788.006,9013.998
887835.1352453451,-68517.664,-66477.664,9665.854,-4119.8325,-17886.271,-27568.809,-21776.45,9027.304
887835.1392453407,-68516.805,-66473.31,9663.818,-4120.443,-17881.55,-27569.865,-21773.113,9028.891
887835.1432453365,-68521.484,-66475.51,9665.161,-4122.8027,-17882.162,-27569.621,-21773.967,9027.263
887835.1472453321,-68520.875,-66472.91,9665.771,-4122.5996,-17873.78,-27564.453,-21768.434,9034.668
887835.1512453278,-68519.66,-66472.21,9667.48,-4122.03,-17869.67,-27561.24,-21763.633,9038.778
887835.1552453235,-68525.96,-66478.92,9661.784,-4123.7793,-17877.523,-27559.205,-21763.021,9029.826
887835.1592453192,-68533.81,-66483.766,9660.075,-4127.075,-17882.568,-27560.303,-21768.555,9029.46
887835.163245315,-68535.08,-66484.336,9656.535,-4128.581,-17881.756,-27560.264,-21766.236,9035.808
887835.1672453106,-68521.24,-66470.586,9656.535,-4124.634,-17880.738,-27558.676,-21750.57,9064.25
887835.1712453063,-68532.02,-66481.445,9660.889,-4124.797,-17888.592,-27562.338,-21761.76,9050.009
887835.175245302,-68528.61,-66477.79,9664.185,-4122.925,-17884.766,-27564.25,-21763.998,9045.248
887835.1792452977,-68524.45,-66472.945,9661.906,-4123.861,-17880.047,-27565.47,-21764.201,9038.493
887835.1832452934,-68523.64,-66478.516,9665.527,-4121.948,-17881.756,-27566.57,-21767.742,9041.26
887835.1872452891,-68524.21,-66478.68,9668.132,-4120.9717,-17879.11,-27566.814,-21774.334,9031.942
887835.1912452847,-68521.164,-66477.87,9669.475,-4119.67,-17872.518,-27568.441,-21775.146,9026.652
887835.1952452805,-68514.04,-66470.5,9671.062,-4118.205,-17877.645,-27568.809,-21770.143,9033.8545
887835.1992452762,-68517.5,-66474.65,9668.62,-4120.5244,-17882.527,-27568.076,-21773.031,9034.872
887835.2032452719,-68522.79,-66478.84,9669.922,-4122.8438,-17886.23,-27566.447,-21772.99,9035.441
887835.2072452676,-68519.695,-66476.89,9674.194,-4121.7856,-17879.924,-27563.965,-21766.44,9041.992
887835.2112452632,-68525.555,-66479.984,9674.927,-4122.152,-17874.92,-27564.658,-21768.271,9031.088
887835.215245259,-68538.17,-66482.38,9659.872,-4125.2036,-17880.33,-27561.605,-21763.672,9033.813
887835.2192452546,-68544.48,-66491.21,9660.482,-4127.523,-17893.107,-27563.193,-21768.76,9026.652
887835.2232452504,-68544.68,-66495.93,9667.033,-4125.936,-17887.86,-27564.291,-21773.926,9023.764
887835.2272452461,-68544.6,-66494.51,9666.138,-4126.506,-17882.568,-27564.129,-21775.555,9022.258
887835.2312452417,-68544.234,-66489.95,9666.098,-4124.634,-17880.818,-27564.576,-21777.955,9016.602
887835.2352452375,-68555.914,-66500.125,9661.662,-4127.6045,-17904.135,-27565.39,-21780.803,9015.951
887835.2392452331,-68569.586,-66514.81,9654.745,-4132.4463,-17910.36,-27566.203,-21787.314,9002.89
887835.2432452289,-68552.086,-66498.25,9663.696,-4125.2036,-17884.604,-27565.756,-21780.479,9011.76
887835.2472452245,-68549.56,-66499.96,9671.347,-4123.8203,-17886.883,-27564.576,-21783.285,9010.051
887835.2512452202,-68545.78,-66497.73,9667.114,-4123.8203,-17891.766,-27561.89,-21779.623,9014.242
887835.255245216,-68549.484,-66493.37,9665.935,-4123.3726,-17889.893,-27563.314,-21776.979,9015.381
887835.2592452116,-68557.91,-66500.41,9669.638,-4126.18,-17894.451,-27565.268,-21783.367,9009.929
887835.2632452074,-68560.23,-66506.43,9668.905,-4127.0347,-17890.87,-27564.941,-21788.127,9005.9
887835.267245203,-68558.11,-66508.305,9668.742,-4127.279,-17883.871,-27563.844,-21789.023,9004.721
887835.2712451987,-68555.055,-66505.01,9672.404,-4125.6104,-17879.15,-27562.826,-21789.43,9002.075
887835.2752451944,-68558.516,-66509.93,9669.882,-4127.3604,-17893.434,-27566.732,-21796.143,8994.141
887835.2792451901,-68554.484,-66510.945,9666.748,-4127.9707,-17896.566,-27568.645,-21795.207,8996.094
887835.2832451859,-68554.164,-66505.66,9670.207,-4125.4478,-17889.568,-27566.406,-21793.865,9003.703
887835.2872451815,-68553.23,-66504.56,9674.235,-4124.878,-17888.672,-27563.72,-21795.29,9004.028
887835.2912451772,-68540.41,-66487.47,9672.201,-4121.135,-17877.076,-27565.35,-21795.94,9001.791
887835.2952451729,-68538.9,-66479.375,9670.126,-4120.8496,-17879.436,-27568.156,-21801.23,8995.769
887835.2992451686,-68530.73,-66473.88,9678.793,-4117.92,-17880.291,-27568.564,-21796.836,9006.714
887835.3032451643,-68532.92,-66473.23,9669.108,-4120.1987,-17875.732,-27569.053,-21800.09,9001.628
887835.30724516,-68508.95,-66455.53,9683.065,-4117.1064,-17875.53,-27569.053,-21793.457,9012.817
887835.3112451556,-68492.92,-66438.03,9685.588,-4112.59,-17871.623,-27568.768,-21788.697,9022.055
887835.3152451514,-68491.91,-66429.484,9686.523,-4111.7354,-17872.926,-27570.232,-21797.812,9002.971
887835.319245147,-68489.34,-66428.19,9687.541,-4112.712,-17880.371,-27571.25,-21803.672,8985.637
887835.3232451428,-68470.22,-66407.39,9690.186,-4109.538,-17866.17,-27568.727,-21795.818,8993.896
887835.3272451385,-68454.76,-66390.664,9694.946,-4106.323,-17856.445,-27570.354,-21799.48,8995.361
887835.3312451341,-68451.26,-66377.2,9694.743,-4103.76,-17851.645,-27572.55,-21804.893,8996.867
887835.3352451299,-68443.195,-66366.414,9697.0625,-4101.8477,-17858.318,-27572.43,-21800.537,9006.877
887835.3392451255,-68432.62,-66353.07,9704.55,-4098.5923,-17849.773,-27574.219,-21798.057,9005.859
887835.3432451213,-68431.36,-66352.83,9706.625,-4098.3887,-17840.658,-27577.393,-21803.63,8993.896
887835.347245117,-68426.72,-66353.15,9712.158,-4096.029,-17834.31,-27577.354,-21805.87,8993.49
887835.3512451126,-68428.67,-66356.9,9704.184,-4099.162,-17834.148,-27576.66,-21805.096,8989.706
887835.3552451084,-68437.13,-66358.03,9706.259,-4100.7896,-17844.238,-27576.54,-21804.973,8993.693
887835.359245104,-68440.63,-66362.39,9704.672,-4099.0806,-17848.553,-27575.725,-21803.346,9000.448
887835.3632450998,-68443.16,-66369.95,9707.4795,-4099.4873,-17848.227,-27574.83,-21798.584,9010.702
887835.3672450954,-68452.03,-66380.29,9709.717,-4101.522,-17854.33,-27572.021,-21795.451,9011.76
887835.3712450911,-68461.95,-66386.4,9707.357,-4102.7427,-17858.398,-27570.312,-21794.23,9011.149
887835.3752450868,-68472.58,-66394.49,9704.956,-4102.458,-17864.502,-27571.494,-21793.701,9011.353
887835.3792450825,-68477.22,-66402.43,9702.556,-4104.94,-17865.56,-27570.395,-21791.953,9014.12
887835.3832450783,-68473.76,-66401.66,9706.747,-4103.8413,-17856.934,-27571.697,-21793.092,9008.749
887835.3872450739,-68469.81,-66402.34,9709.27,-4102.417,-17850.057,-27566.814,-21780.07,9029.501
887835.3912450696,-68474.086,-66411.17,9707.194,-4105.184,-17856.201,-27565.918,-21774.658,9037.558
887835.3952450653,-68485.76,-66420.78,9706.991,-4108.3984,-17873.494,-27566.406,-21774.375,9035.4
887835.399245061,-68499.23,-66436.77,9705.078,-4110.5957,-17879.477,-27567.1,-21775.799,9031.901
887835.4032450567,-68499.23,-66437.055,9707.397,-4109.9854,-17870.076,-27568.604,-21776.287,9034.14
887835.4072450524,-68503.79,-66444.3,9714.071,-4110.3926,-17863.404,-27567.303,-21779.746,9028.076
887835.411245048,-68508.305,-66448.04,9703.939,-4111.9385,-17856.324,-27566.082,-21778.037,9029.785
887835.4152450438,-68508.34,-66450.32,9705.119,-4111.4097,-17860.271,-27568.115,-21779.95,9030.111
887835.4192450395,-68508.83,-66455.37,9706.34,-4111.6943,-17866.62,-27569.621,-21780.682,9028.076
887835.4232450352,-68505.45,-66453.414,9701.742,-4113.2,-17869.996,-27566.285,-21772.666,9036.987
887835.4272450309,-68512.05,-66456.18,9701.62,-4113.485,-17866.17,-27566.162,-21775.596,9029.541
887835.4312450265,-68516.484,-66462.28,9701.904,-4113.4033,-17864.746,-27568.686,-21779.135,9031.291
887835.4352450223,-68517.17,-66461.51,9706.34,-4111.898,-17871.99,-27566.611,-21778.646,9034.79
887835.439245018,-68521.81,-66467.37,9705.7295,-4112.793,-17872.438,-27565.959,-21778.24,9038.656
887835.4432450137,-68520.59,-66469.69,9709.758,-4114.665,-17876.424,-27565.553,-21776.572,9041.992
887835.4472450094,-68521.04,-66474.61,9712.28,-4114.299,-17869.344,-27567.18,-21776.49,9038.33
887835.451245005,-68523.4,-66476.81,9708.903,-4114.3394,-17870.646,-27564.982,-21772.217,9038.737
887835.4552450008,-68526.086,-66481.125,9709.961,-4115.2344,-17879.68,-27562.95,-21767.945,9041.016
887835.4592449964,-68535.97,-66492.39,9710.165,-4116.577,-17873.047,-27563.438,-21771.525,9026.205
887835.4632449922,-68534.016,-66486.66,9703.41,-4118.8154,-17871.46,-27559.693,-21763.592,9039.389
887835.4672449878,-68530.48,-66492.19,9708.496,-4118.7744,-17876.465,-27561.402,-21770.264,9029.175
887835.4712449835,-68530.36,-66495.89,9705.282,-4118.2456,-17882.568,-27562.541,-21772.299,9030.07
887835.4752449793,-68529.38,-66491.01,9707.072,-4117.8794,-17888.021,-27561.402,-21766.562,9040.324
887835.4792449749,-68530.4,-66489.83,9707.764,-4117.92,-17879.883,-27561.2,-21764.975,9042.155
887835.4832449707,-68536.13,-66488.65,9710.246,-4115.56,-17875.041,-27562.826,-21767.13,9043.213
887835.4872449663,-68528.61,-66486.78,9713.42,-4114.4614,-17878.377,-27563.844,-21762.736,9055.664
887835.491244962,-68531.91,-66488.37,9716.105,-4112.793,-17876.709,-27562.826,-21766.725,9051.596
887835.4952449577,-68542.73,-66497.44,9718.384,-4115.682,-17884.969,-27563.803,-21773.56,9037.924
887835.4992449534,-68540.53,-66493.62,9709.677,-4116.374,-17888.104,-27563.72,-21768.88,9047.7705
887835.5032449492,-68539.516,-66493.37,9712.484,-4116.618,-17886.598,-27564.129,-21772.014,9047.852
887835.5072449448,-68535.81,-66495.16,9712.606,-4118.4897,-17878.621,-27562.42,-21769.898,9046.062
887835.5112449405,-68539.516,-66501.266,9707.072,-4119.222,-17885.174,-27562.217,-21772.217,9045.41
887835.5152449362,-68534.99,-66496.13,9710.124,-4116.9844,-17894.654,-27564.088,-21775.514,9036.621
887835.5192449319,-68534.43,-66498.45,9706.665,-4117.2285,-17892.293,-27564.047,-21777.06,9035.767
887835.5232449276,-68530.31,-66497.52,9710.734,-4116.699,-17888.836,-27566.041,-21776.246,9038.696
887835.5272449233,-68525.15,-66491.17,9714.966,-4113.2407,-17877.809,-27567.018,-21774.943,9040.527
887835.5312449189,-68538.58,-66497.52,9713.298,-4113.363,-17876.75,-27566.406,-21779.258,9037.68
887835.5352449147,-68543.91,-66502.04,9704.387,-4117.1875,-17890.584,-27567.383,-21783.773,9024.008
887835.5392449104,-68535.195,-66494.8,9708.293,-4116.781,-17888.875,-27566.936,-21777.467,9027.06
887835.5432449061,-68540.94,-66497.16,9712.077,-4118.408,-17884.156,-27564.861,-21774.537,9030.6
887835.5472449018,-68545.984,-66505.01,9721.558,-4119.344,-17883.424,-27562.95,-21772.543,9031.169
887835.5512448974,-68533.61,-66498.58,9715.942,-4121.1753,-17888.713,-27561.158,-21769.98,9039.145
887835.5552448932,-68534.75,-66503.336,9712.24,-4122.03,-17897.543,-27559.164,-21771.973,9028.972
887835.5592448888,-68535.69,-66506.19,9718.384,-4121.6636,-17899.7,-27557.943,-21771.037,9032.471
887835.5632448846,-68526.77,-66502.16,9726.685,-4118.327,-17886.23,-27559.814,-21768.352,9036.093
887835.5672448803,-68517.7,-66495.69,9725.912,-4116.13,-17879.72,-27559.082,-21766.562,9038.29
887835.5712448759,-68527.8,-66511.805,9722.819,-4119.1,-17891.236,-27562.338,-21776.45,9030.803
887835.5752448717,-68526.37,-66510.3,9725.424,-4116.496,-17898.846,-27561.523,-21776.002,9029.663
887835.5792448673,-68526.164,-66510.3,9725.302,-4117.3096,-17902.791,-27561.89,-21776.164,9032.715
887835.5832448631,-68522.87,-66505.945,9724.121,-4116.455,-17895.996,-27561.076,-21774.293,9032.553
887835.5872448587,-68522.42,-66508.83,9733.684,-4115.072,-17890.91,-27562.908,-21780.844,9027.914
887835.5912448544,-68522.586,-66511.88,9731.527,-4114.5835,-17894.816,-27562.705,-21781.332,9027.141
887835.5952448501,-68528.69,-66518.92,9719.931,-4116.9434,-17897.34,-27560.67,-21779.217,9018.718
887835.5992448458,-68529.336,-66515.95,9723.349,-4116.577,-17894.328,-27563.559,-21781.17,9015.463
887835.6032448416,-68540.125,-66522.664,9721.151,-4119.2627,-17899.74,-27564.17,-21784.547,9007.69
887835.6072448372,-68539.15,-66524.09,9727.783,-4120.117,-17896.2,-27562.95,-21780.152,9013.103
887835.6112448329,-68544.15,-66528.65,9720.866,-4121.7856,-17900.229,-27561.646,-21780.479,9013.428
887835.6152448286,-68540.445,-66525.07,9721.191,-4119.629,-17893.555,-27563.926,-21778.484,9021.892
887835.6192448243,-68533.695,-66512.53,9723.145,-4116.089,-17896.24,-27565.879,-21776.002,9029.745
887835.62324482,-68528.61,-66508.305,9726.278,-4114.868,-17891.195,-27564.941,-21776.328,9025.229
887835.6272448157,-68528.2,-66510.99,9728.76,-4115.8857,-17894.654,-27561.117,-21774.943,9028.036
887835.6312448113,-68526.25,-66512.53,9730.347,-4115.56,-17893.963,-27558.105,-21769.328,9039.551
887835.6352448071,-68531.13,-66513.02,9726.481,-4117.269,-17901.246,-27560.791,-21769.98,9031.982
887835.6392448028,-68539.555,-66518.234,9723.796,-4120.931,-17909.424,-27564.902,-21776.572,9025.513
887835.6432447985,-68533.66,-66515.55,9730.185,-4119.5884,-17895.143,-27564.535,-21772.34,9030.762
887835.6472447942,-68526.086,-66507.53,9740.601,-4115.8447,-17881.674,-27559.734,-21762.248,9044.149
887835.6512447898,-68523.44,-66504.88,9737.061,-4115.804,-17885.133,-27558.879,-21760.54,9042.318
887835.6552447856,-68524.336,-66501.55,9728.109,-4117.3096,-17894.451,-27560.547,-21760.174,9043.01
887835.6592447812,-68525.07,-66499.516,9727.499,-4115.2344,-17897.95,-27560.508,-21760.174,9048.096
887835.663244777,-68530.52,-66513.555,9730.795,-4118.286,-17894.084,-27560.059,-21763.184,9039.673
887835.6672447727,-68534.06,-66515.46,9731.771,-4118.327,-17883.139,-27559.49,-21764.568,9036.418
887835.6712447683,-68539.76,-66517.78,9727.051,-4119.1406,-17900.146,-27558.555,-21764.73,9037.639
887835.6752447641,-68539.47,-66511.555,9728.149,-4117.0654,-17896.16,-27559.775,-21765.342,9042.807
887835.6792447597,-68548.14,-66519.29,9728.109,-4120.9717,-17889.16,-27561.24,-21771.201,9037.72
887835.6832447555,-68552.414,-66523.84,9728.923,-4122.8027,-17879.883,-27562.908,-21778.24,9023.153
887835.6872447511,-68537.36,-66513.1,9727.377,-4120.7686,-17892.01,-27558.838,-21769.084,9036.174
887835.6912447468,-68535.41,-66513.43,9726.481,-4117.391,-17899.129,-27560.873,-21772.178,9036.418
887835.6952447426,-68539.555,-66516.4,9724.487,-4117.961,-17906.658,-27561.768,-21776.164,9029.053
887835.6992447382,-68547.94,-66519.66,9731.486,-4119.1,-17907.309,-27562.705,-21778.158,9021.933
887835.703244734,-68549.805,-66519.78,9722.046,-4119.344,-17897.908,-27563.232,-21781.576,9021.973
887835.7072447296,-68549.93,-66530.195,9722.209,-4121.216,-17888.021,-27564.658,-21785.32,9020.02
887835.7112447253,-68543.78,-66526.94,9729.777,-4119.2627,-17882.568,-27562.582,-21782.838,9020.346
887835.715244721,-68543.336,-66532.23,9728.435,-4120.3613,-17894.166,-27562.988,-21782.715,9015.422
887835.7192447167,-68546.555,-66535.61,9727.173,-4121.379,-17905.314,-27562.094,-21772.625,9034.18
887835.7232447125,-68552.66,-66535.81,9727.783,-4120.565,-17901.693,-27561.484,-21771.607,9040.243
887835.7272447081,-68547.41,-66526.695,9731.405,-4119.9546,-17892.578,-27560.588,-21775.879,9035.116
887835.7312447038,-68546.02,-66520.96,9730.347,-4118.856,-17885.701,-27562.297,-21781.7,9027.141
887835.7352446995,-68544.72,-66518.76,9727.336,-4119.222,-17898.56,-27562.705,-21778.158,9031.21
887835.7392446952,-68558.68,-66524.82,9725.18,-4120.2393,-17899.943,-27561.89,-21779.541,9025.1875
887835.7432446909,-68560.71,-66525.15,9725.912,-4118.978,-17889.283,-27561.523,-21782.676,9019.125
887835.7472446866,-68558.07,-66529.87,9733.5205,-4120.3613,-17887.574,-27560.629,-21785.117,9017.294
887835.7512446822,-68552.734,-66531.13,9723.063,-4121.2974,-17887.207,-27560.1,-21783.977,9020.427
887835.755244678,-68553.43,-66532.92,9718.669,-4120.443,-17889.201,-27559.49,-21779.826,9026.001
887835.7592446737,-68561.12,-66536.13,9720.581,-4123.0063,-17897.625,-27561.89,-21780.234,9023.804
887835.7632446694,-68556.89,-66531.66,9726.645,-4120.7275,-17889.527,-27562.95,-21778.932,9029.379
887835.7672446651,-68553.96,-66530.16,9730.388,-4118.1235,-17886.11,-27562.908,-21780.559,9031.82
887835.7712446607,-68555.34,-66532.31,9727.743,-4120.2803,-17889.16,-27560.873,-21778.281,9032.1045
887835.7752446565,-68562.5,-66540.49,9725.912,-4120.9717,-17896.973,-27562.379,-21780.803,9020.508
887835.7792446521,-68555.18,-66537.234,9721.965,-4121.257,-17899.129,-27562.664,-21778.77,9020.793
887835.7832446478,-68550.5,-66530.6,9727.702,-4121.46,-17891.643,-27562.785,-21778.564,9024.414
887835.7872446436,-68550.87,-66531.5,9729.492,-4121.216,-17878.865,-27563.682,-21780.152,9023.356
887835.7912446392,-68555.586,-66540.04,9726.481,-4121.2974,-17882.488,-27561.523,-21779.379,9022.136
887835.795244635,-68558.516,-66543.42,9729.858,-4120.6055,-17891.602,-27562.664,-21779.705,9029.094
887835.7992446306,-68553.836,-66542.73,9733.684,-4120.6465,-17894.246,-27562.541,-21776.367,9032.837
887835.8032446263,-68558.15,-66544.805,9724.365,-4122.8027,-17895.467,-27563.438,-21778.85,9029.094
887835.807244622,-68554.94,-66536.91,9733.603,-4119.2627,-17873.25,-27564.617,-21780.234,9027.954
887835.8112446177,-68555.34,-66531.54,9735.2295,-4118.205,-17872.07,-27561.973,-21777.02,9030.314
887835.8152446134,-68558.88,-66527.47,9729.94,-4120.6055,-17887.818,-27560.629,-21773.805,9032.064
887835.8192446091,-68560.47,-66527.18,9729.899,-4119.344,-17882.65,-27562.297,-21777.508,9028.076
887835.8232446047,-68555.99,-66528.89,9735.515,-4118.978,-17881.674,-27563.72,-21781.982,9022.746
887835.8272446005,-68542.93,-66524.17,9739.38,-4116.618,-17874.756,-27561.2,-21778.24,9027.344
887835.8312445962,-68545.94,-66527.8,9736.898,-4117.3096,-17878.215,-27560.791,-21779.176,9025.839
887835.8352445919,-68545.62,-66528.08,9737.224,-4115.9263,-17888.957,-27557.943,-21774.13,9028.239
887835.8392445876,-68552.62,-66533.98,9735.637,-4118.612,-17889.08,-27553.875,-21770.916,9026.9375
887835.8432445832,-68562.336,-66541.38,9736.572,-4123.3726,-17894.654,-27551.27,-21769.004,9034.302
887835.847244579,-68557.91,-66538.62,9745.239,-4121.5415,-17885.701,-27553.793,-21768.637,9048.015
887835.8512445746,-68562.22,-66534.79,9727.987,-4122.925,-17886.354,-27551.719,-21761.639,9062.012
887835.8552445704,-68560.23,-66528.81,9729.33,-4122.274,-17890.057,-27551.066,-21760.947,9060.913
887835.8592445661,-68559.33,-66532.43,9730.469,-4122.966,-17881.633,-27551.963,-21769.857,9039.673
887835.8632445617,-68550.375,-66527.875,9735.84,-4118.8154,-17871.014,-27553.346,-21773.967,9034.953
887835.8672445575,-68543.5,-66523.16,9743.896,-4118.0015,-17871.746,-27549.48,-21771.363,9046.387
887835.8712445531,-68544.4,-66521.65,9746.054,-4116.903,-17873.25,-27547.607,-21771.201,9050.334
887835.8752445489,-68551.516,-66522.18,9744.873,-4116.374,-17880.209,-27551.066,-21778.158,9041.708
887835.8792445445,-68550.664,-66521.52,9745.524,-4115.3975,-17881.023,-27553.467,-21780.111,9042.888
887835.8832445402,-68546.63,-66523.48,9748.576,-4114.99,-17872.273,-27554.77,-21784.547,9032.593
887835.887244536,-68545.66,-66518.96,9746.176,-4114.8276,-17876.709,-27553.346,-21786.621,9020.63
887835.8912445316,-68542.766,-66517.375,9751.303,-4114.095,-17888.713,-27551.148,-21783.447,9024.984
887835.8952445274,-68546.23,-66522.055,9747.6,-4116.089,-17889.08,-27552.246,-21782.838,9030.518
887835.899244523,-68549.69,-66525.43,9753.215,-4116.13,-17890.828,-27552.816,-21781.17,9035.238
887835.9032445187,-68555.79,-66533.29,9740.316,-4119.0186,-17884.197,-27552.37,-21784.547,9024.292
887835.9072445144,-68548.38,-66527.14,9746.745,-4115.438,-17873.088,-27551.758,-21779.46,9030.192
887835.9112445101,-68552.21,-66527.02,9750.041,-4113.9326,-17873.576,-27553.143,-21779.826,9031.982
887835.9152445059,-68549.805,-66527.02,9752.116,-4113.159,-17872.355,-27550.701,-21775.39,9032.837
887835.9192445015,-68545.62,-66521.484,9754.272,-4113.607,-17873.129,-27550.701,-21773.438,9039.0625
887835.9232444972,-68544.96,-66522.87,9752.93,-4115.4785,-17872.762,-27549.357,-21774.62,9037.802
887835.9272444929,-68541.55,-66520.96,9760.336,-4113.2,-17864.422,-27548.951,-21771.934,9044.353
887835.9312444886,-68543.055,-66522.95,9754.272,-4113.4443,-17869.467,-27549.969,-21776.775,9037.964
887835.9352444843,-68546.39,-66523.89,9755.046,-4112.264,-17872.559,-27551.31,-21778.646,9037.069
887835.93924448,-68548.22,-66524.45,9752.035,-4113.6885,-17875.488,-27551.922,-21780.64,9026.53
887835.9432444756,-68544.27,-66519.53,9757.854,-4111.9385,-17867.188,-27549.033,-21776.367,9034.628
887835.9472444714,-68541.1,-66515.95,9764.323,-4108.7646,-17864.705,-27547.73,-21774.822,9045.37
887835.951244467,-68541.1,-66521.57,9757.609,-4110.6367,-17867.92,-27545.898,-21771.852,9044.475
887835.9552444628,-68546.47,-66521.57,9757.04,-4111.328,-17869.752,-27548.87,-21771.934,9042.033
887835.9592444585,-68556.32,-66527.914,9752.523,-4113.4033,-17878.297,-27551.799,-21774.578,9039.958
887835.9632444541,-68560.67,-66534.22,9755.29,-4114.868,-17876.629,-27555.176,-21783.611,9022.095
887835.9672444499,-68555.95,-66538.66,9758.952,-4114.543,-17874.023,-27555.38,-21783.0,9023.031
887835.9712444455,-68544.195,-66529.3,9766.276,-4109.5786,-17866.822,-27551.555,-21774.334,9038.493
887835.9752444413,-68541.625,-66521.65,9758.667,-4106.7305,-17861.98,-27550.904,-21772.543,9049.683
887835.979244437,-68545.49,-66526.125,9765.056,-4106.527,-17863.525,-27550.986,-21773.967,9051.677
887835.9832444326,-68550.62,-66530.56,9762.207,-4107.2188,-17860.352,-27551.23,-21779.053,9036.418
887835.9872444284,-68551.72,-66528.89,9761.882,-4109.945,-17860.271,-27550.334,-21779.582,9035.686
887835.991244424,-68551.39,-66529.625,9764.038,-4110.067,-17871.826,-27547.283,-21778.402,9036.174
887835.9952444198,-68556.36,-66530.805,9760.702,-4110.6772,-17874.635,-27549.398,-21783.123,9033.285
887835.9992444154,-68561.41,-66536.625,9759.848,-4111.898,-17877.076,-27549.725,-21781.25,9036.215
887836.0032444111,-68552.37,-66533.0,9765.951,-4110.4736,-17870.443,-27547.975,-21776.408,9043.498
887836.0072444069,-68551.07,-66535.73,9767.334,-4110.3926,-17865.357,-27548.87,-21783.814,9029.297
887836.0112444025,-68546.555,-66531.54,9772.299,-4108.5205,-17858.766,-27546.875,-21779.338,9038.615
887836.0152443983,-68549.89,-66530.56,9771.281,-4108.3174,-17863.77,-27548.016,-21778.32,9037.069
887836.0192443939,-68554.65,-66534.875,9771.078,-4109.9854,-17879.07,-27550.986,-21779.99,9031.088
887836.0232443896,-68547.41,-66529.22,9770.224,-4107.707,-17870.443,-27549.725,-21775.107,9036.093
887836.0272443853,-68553.39,-66538.17,9767.416,-4109.131,-17867.84,-27551.514,-21778.32,9032.715
887836.031244381,-68553.39,-66537.72,9771.484,-4109.375,-17875.732,-27548.422,-21776.49,9034.912
887836.0352443767,-68561.16,-66536.7,9767.375,-4111.1655,-17877.28,-27549.766,-21782.39,9026.611
887836.0392443724,-68571.66,-66545.45,9759.074,-4113.485,-17879.395,-27552.734,-21788.615,9017.497
887836.043244368,-68571.21,-66547.734,9763.021,-4113.5254,-17880.412,-27553.346,-21790.121,9017.05
887836.0472443638,-68567.836,-66546.914,9768.188,-4113.485,-17872.518,-27553.06,-21790.812,9012.899
887836.0512443595,-68567.95,-66546.39,9776.042,-4111.6133,-17871.379,-27552.734,-21787.11,9023.071
887836.0552443552,-68565.23,-66543.22,9765.788,-4111.8574,-17877.97,-27552.37,-21786.865,9019.287
887836.0592443509,-68566.164,-66545.58,9765.666,-4110.9214,-17875.0,-27552.94,-21787.314,9017.822
887836.0632443465,-68572.43,-66553.8,9774.862,-4111.45,-17874.188,-27553.346,-21793.295,9009.033
887836.0672443423,-68568.93,-66550.26,9771.118,-4112.02,-17879.762,-27551.514,-21790.895,9017.538
887836.071244338,-68566.53,-66549.93,9771.729,-4111.003,-17873.21,-27552.287,-21791.748,9020.264
887836.0752443337,-68568.73,-66546.06,9770.427,-4108.6426,-17863.852,-27552.531,-21788.818,9021.811
887836.0792443294,-68573.85,-66549.44,9770.264,-4109.619,-17872.967,-27553.59,-21791.016,9011.19
887836.083244325,-68568.4,-66541.71,9777.548,-4109.05,-17874.105,-27550.334,-21783.814,9023.886
887836.0872443208,-68568.24,-66544.555,9778.524,-4109.66,-17871.46,-27548.91,-21782.92,9025.513
887836.0912443164,-68572.06,-66551.15,9774.333,-4110.311,-17874.553,-27547.16,-21780.762,9028.483
887836.0952443122,-68578.66,-66555.34,9773.886,-4111.125,-17882.771,-27548.26,-21782.268,9027.954
887836.0992443078,-68578.164,-66552.164,9769.816,-4112.386,-17878.256,-27550.01,-21783.326,9026.571
887836.1032443035,-68579.23,-66551.19,9771.892,-4113.1187,-17866.7,-27550.457,-21785.035,9021.484
887836.1072442993,-68573.695,-66546.39,9775.024,-4110.881,-17854.33,-27549.602,-21782.268,9022.705
887836.1112442949,-68575.69,-66549.234,9775.92,-4112.549,-17866.781,-27550.172,-21785.117,9018.718
887836.1152442907,-68576.3,-66545.984,9780.437,-4109.538,-17870.729,-27551.025,-21783.326,9019.816
887836.1192442863,-68586.34,-66548.99,9775.106,-4110.5957,-17870.525,-27553.916,-21789.186,9010.173
887836.123244282,-68583.664,-66550.62,9779.297,-4111.8164,-17869.223,-27554.607,-21791.953,9009.359
887836.1272442777,-68578.984,-66548.99,9782.756,-4112.9966,-17868.043,-27554.16,-21790.65,9015.463
887836.1312442734,-68571.945,-66542.69,9784.465,-4108.724,-17860.271,-27551.596,-21786.5,9020.142
887836.1352442692,-68571.21,-66544.64,9781.088,-4110.5957,-17873.088,-27554.281,-21793.05,9008.993
887836.1392442648,-68577.15,-66543.336,9782.187,-4110.4736,-17871.094,-27557.7,-21797.363,8999.756
887836.1432442605,-68577.76,-66545.49,9785.238,-4109.497,-17861.004,-27556.682,-21794.719,9004.069
887836.1472442562,-68569.79,-66543.945,9783.732,-4109.05,-17864.055,-27553.996,-21788.574,9017.05
887836.1512442519,-68574.83,-66544.03,9782.959,-4110.759,-17872.559,-27556.56,-21793.336,9018.474
887836.1552442476,-68581.99,-66549.03,9781.128,-4111.45,-17877.686,-27555.87,-21796.916,9006.714
887836.1592442433,-68578.984,-66548.1,9783.447,-4111.491,-17880.9,-27555.502,-21796.143,8997.966
887836.1632442389,-68572.96,-66546.06,9786.621,-4110.5957,-17867.717,-27554.2,-21791.26,9006.836
887836.1672442347,-68565.8,-66539.47,9790.08,-4107.707,-17860.148,-27552.979,-21788.615,9013.469
887836.1712442304,-68567.18,-66537.92,9790.771,-4108.2764,-17864.99,-27553.916,-21789.836,9015.869
887836.1752442261,-68571.9,-66544.6,9790.039,-4107.8696,-17866.537,-27555.42,-21790.244,9014.12
887836.1792442218,-68570.11,-66544.555,9790.8125,-4107.422,-17864.299,-27554.12,-21785.197,9025.676
887836.1832442174,-68567.75,-66545.01,9793.457,-4107.2188,-17861.613,-27553.184,-21785.28,9024.374
887836.1872442132,-68563.27,-66543.625,9795.614,-4107.666,-17853.924,-27554.484,-21786.174,9023.031
887836.1912442088,-68566.164,-66547.125,9794.312,-4109.009,-17858.44,-27556.234,-21784.75,9030.437
887836.1952442046,-68569.26,-66550.664,9793.986,-4108.9683,-17870.32,-27556.479,-21783.123,9024.862
887836.1992442003,-68569.016,-66549.12,9796.306,-4108.032,-17865.193,-27557.293,-21787.03,9010.946
887836.2032441959,-68569.5,-66547.33,9798.706,-4108.6426,-17858.602,-27555.787,-21783.896,9016.643
887836.2072441917,-68573.65,-66557.5,9797.526,-4110.759,-17858.074,-27553.467,-21786.174,9018.718
887836.2112441873,-68577.555,-66562.3,9791.667,-4113.6475,-17858.113,-27552.857,-21784.22,9020.63
887836.2152441831,-68571.58,-66555.38,9794.027,-4111.5317,-17858.318,-27555.502,-21781.088,9024.414
887836.2192441787,-68571.01,-66548.625,9798.3,-4110.1074,-17860.637,-27555.746,-21783.285,9024.008
887836.2232441744,-68566.086,-66543.01,9798.706,-4108.114,-17848.715,-27556.64,-21784.262,9022.177
887836.2272441701,-68562.87,-66545.49,9794.882,-4109.05,-17855.916,-27557.414,-21785.645,9019.003
887836.2312441658,-68562.7,-66545.58,9796.103,-4109.131,-17852.215,-27557.537,-21790.812,9013.428
887836.2352441616,-68566.0,-66540.08,9796.0205,-4108.2764,-17854.98,-27558.635,-21793.092,9011.149
887836.2392441572,-68565.31,-66542.36,9798.422,-4108.9277,-17868.246,-27558.514,-21793.213,9014.853
887836.2432441529,-68564.7,-66544.4,9796.916,-4109.131,-17856.73,-27557.334,-21792.969,9015.056
887836.2472441486,-68559.33,-66544.234,9799.154,-4108.1953,-17849.244,-27553.955,-21785.809,9017.497
887836.2512441443,-68561.04,-66551.19,9799.927,-4107.463,-17852.742,-27555.46,-21790.447,9008.423
887836.25524414,-68561.484,-66553.39,9797.607,-4106.0386,-17857.748,-27558.066,-21794.068,9005.087
887836.2592441357,-68566.86,-66559.0,9793.335,-4108.846,-17866.74,-27557.537,-21792.156,9006.633
887836.2632441313,-68569.375,-66561.16,9799.4795,-4110.5146,-17859.986,-27558.758,-21793.295,9008.098
887836.2672441271,-68572.836,-66563.97,9799.032,-4110.3926,-17852.133,-27558.432,-21793.05,9012.695
887836.2712441228,-68568.56,-66559.94,9798.91,-4108.114,-17854.695,-27553.549,-21788.371,9013.103
887836.2752441185,-68569.336,-66555.625,9798.259,-4106.6895,-17858.684,-27556.031,-21789.633,9015.015
887836.2792441142,-68570.92,-66556.07,9797.7295,-4107.1777,-17855.713,-27556.926,-21790.691,9014.364
887836.2832441098,-68568.36,-66555.055,9805.258,-4107.829,-17849.0,-27554.81,-21788.25,9020.061
887836.2872441056,-68563.516,-66551.07,9813.762,-4106.893,-17836.67,-27551.637,-21781.902,9023.315
887836.2912441012,-68565.11,-66555.42,9812.704,-4106.2827,-17841.96,-27550.537,-21774.252,9031.657
887836.295244097,-68566.94,-66559.41,9809.611,-4105.713,-17855.266,-27552.816,-21775.758,9029.46
887836.2992440927,-68575.08,-66566.37,9801.066,-4110.1074,-17860.393,-27556.113,-21782.268,9018.066
887836.3032440883,-68571.375,-66559.29,9803.02,-4110.3926,-17857.625,-27556.031,-21779.379,9027.06
887836.3072440841,-68566.445,-66557.74,9808.024,-4108.4395,-17848.145,-27555.625,-21782.715,9024.048
887836.3112440797,-68568.4,-66569.26,9807.251,-4108.5615,-17855.877,-27557.496,-21787.762,9017.944
887836.3152440755,-68566.445,-66571.05,9808.31,-4108.1953,-17861.37,-27558.31,-21786.256,9017.253
887836.3192440711,-68570.4,-66570.48,9807.699,-4108.6426,-17861.084,-27560.588,-21786.459,9014.079
887836.3232440668,-68563.07,-66561.52,9813.803,-4105.7944,-17848.389,-27558.758,-21785.727,9014.648
887836.3272440626,-68562.016,-66568.08,9813.965,-4107.544,-17841.268,-27559.043,-21788.291,9016.4795
887836.3312440582,-68557.62,-66567.22,9814.453,-4107.544,-17844.89,-27559.043,-21790.324,9014.201
887836.335244054,-68560.67,-66567.38,9810.629,-4109.5786,-17850.586,-27557.943,-21789.674,9015.259
887836.3392440496,-68573.04,-66573.164,9801.88,-4113.159,-17858.033,-27559.57,-21795.898,9000.692
887836.3432440453,-68569.91,-66571.62,9807.292,-4113.1187,-17850.79,-27556.967,-21794.842,8997.6
887836.347244041,-68560.305,-66563.56,9816.732,-4110.2295,-17834.473,-27554.729,-21791.709,9008.871
887836.3512440367,-68568.36,-66565.8,9813.477,-4109.66,-17836.102,-27554.443,-21793.174,9010.132
887836.3552440325,-68569.375,-66568.08,9812.948,-4109.253,-17849.162,-27556.602,-21792.604,9011.841
887836.3592440281,-68570.84,-66572.875,9812.419,-4109.5786,-17857.504,-27557.781,-21791.992,9014.608
887836.3632440238,-68577.6,-66572.67,9815.756,-4111.8574,-17855.021,-27559.287,-21798.545,8999.96
887836.3672440195,-68565.02,-66563.31,9819.58,-4109.4565,-17838.42,-27556.316,-21791.748,9011.394
887836.3712440152,-68561.08,-66557.25,9819.784,-4107.463,-17841.39,-27553.752,-21783.936,9019.816
887836.3752440109,-68566.57,-66562.99,9820.72,-4106.6895,-17842.652,-27553.223,-21780.64,9022.339
887836.3792440066,-68573.734,-66568.16,9815.512,-4108.7646,-17850.262,-27556.396,-21784.912,9016.276
887836.3832440022,-68572.15,-66563.97,9817.546,-4109.8633,-17849.691,-27557.74,-21788.86,9011.475
887836.387243998,-68570.195,-66561.81,9821.33,-4108.48,-17840.74,-27557.455,-21791.26,9007.935
887836.3912439937,-68572.35,-66565.555,9822.348,-4108.032,-17848.553,-27557.455,-21791.057,9016.562
887836.3952439894,-68574.055,-66571.945,9818.767,-4108.7646,-17856.61,-27558.838,-21790.65,9010.864
887836.3992439851,-68572.67,-66565.76,9821.005,-4109.9043,-17866.62,-27560.1,-21791.465,9009.359
887836.4032439807,-68571.21,-66560.95,9822.958,-4109.3345,-17851.033,-27555.787,-21790.406,9013.916
887836.4072439765,-68566.37,-66556.32,9827.841,-4108.48,-17835.246,-27554.363,-21784.832,9023.682
887836.4112439721,-68570.516,-66563.6,9823.73,-4109.782,-17839.723,-27557.496,-21790.61,9013.672
887836.4152439679,-68574.586,-66566.66,9823.608,-4107.3,-17847.371,-27560.303,-21793.05,9013.103
887836.4192439636,-68579.06,-66569.13,9825.725,-4107.0967,-17850.098,-27560.791,-21795.29,9008.261
887836.4232439592,-68573.08,-66565.06,9830.852,-4106.7305,-17848.47,-27558.838,-21791.668,9010.742
887836.427243955,-68566.2,-66560.34,9829.55,-4105.998,-17840.576,-27557.09,-21788.006,9025.106
887836.4312439506,-68569.79,-66563.36,9827.556,-4106.2827,-17845.5,-27559.652,-21793.945,9015.829
887836.4352439464,-68573.2,-66571.82,9825.48,-4108.1543,-17855.592,-27562.012,-21798.38,9008.301
887836.439243942,-68576.336,-66572.59,9830.038,-4108.236,-17859.334,-27563.6,-21800.822,9002.482
887836.4432439377,-68577.03,-66567.75,9827.8,-4107.707,-17845.906,-27563.152,-21797.852,9000.692
887836.4472439334,-68573.734,-66566.86,9829.672,-4106.7305,-17837.402,-27561.076,-21794.23,9004.924
887836.4512439291,-68574.38,-66568.766,9827.922,-4106.527,-17837.322,-27559.775,-21793.05,9005.819
887836.4552439249,-68569.016,-66568.12,9829.55,-4105.754,-17855.592,-27559.043,-21787.883,9011.679
887836.4592439205,-68565.555,-66568.85,9832.113,-4106.527,-17866.008,-27559.043,-21785.564,9015.3
887836.4632439162,-68570.195,-66573.24,9829.956,-4108.1543,-17856.934,-27558.96,-21787.07,9011.963
887836.4672439119,-68574.18,-66576.78,9828.369,-4110.1484,-17843.182,-27558.35,-21791.871,9007.69
887836.4712439076,-68574.18,-66575.484,9827.597,-4110.5957,-17844.85,-27555.584,-21788.656,9007.202
887836.4752439033,-68572.67,-66573.0,9830.974,-4108.724,-17857.219,-27555.828,-21786.094,9014.12
887836.479243899,-68567.18,-66565.31,9834.961,-4105.6724,-17846.191,-27557.74,-21783.123,9016.846
887836.4832438946,-68566.33,-66562.87,9836.996,-4106.7305,-17843.547,-27555.137,-21780.07,9022.868
887836.4872438904,-68560.43,-66563.44,9834.025,-4106.9746,-17831.422,-27554.281,-21781.982,9017.05
887836.4912438861,-68559.66,-66564.49,9834.799,-4105.713,-17831.666,-27554.363,-21781.617,9024.414
887836.4952438818,-68561.32,-66566.695,9834.473,-4106.7305,-17847.535,-27557.537,-21781.332,9023.682
887836.4992438775,-68555.22,-66561.56,9835.693,-4106.12,-17843.262,-27558.432,-21782.959,9013.51
887836.5032438731,-68552.695,-66561.89,9836.67,-4105.51,-17831.951,-27556.072,-21785.564,9017.172
887836.5072438689,-68558.02,-66567.63,9836.264,-4107.0557,-17827.068,-27555.34,-21790.977,9015.219
887836.5112438645,-68555.914,-66566.086,9836.182,-4106.6895,-17823.406,-27554.893,-21789.877,9017.09
887836.5152438603,-68556.68,-66567.836,9834.433,-4107.0967,-17833.21,-27555.705,-21792.36,9014.038
887836.519243856,-68558.84,-66567.67,9829.753,-4107.707,-17841.553,-27557.74,-21793.986,9009.521
887836.5232438516,-68558.43,-66568.16,9834.147,-4106.2827,-17834.107,-27555.217,-21789.268,9017.66
887836.5272438474,-68559.125,-66567.016,9836.792,-4105.998,-17835.45,-27556.764,-21790.732,9015.707
887836.531243843,-68556.48,-66565.555,9832.357,-4107.3813,-17841.35,-27557.658,-21794.922,9009.237
887836.5352438388,-68555.7,-66562.586,9833.618,-4104.6553,-17842.45,-27559.49,-21798.748,9005.859
887836.5392438344,-68559.66,-66565.68,9835.368,-4104.6143,-17849.895,-27561.402,-21797.648,9006.918
887836.5432438301,-68563.93,-66569.5,9833.415,-4106.1606,-17848.715,-27559.855,-21797.12,9008.423
887836.5472438259,-68564.49,-66575.28,9837.362,-4106.1606,-17841.146,-27558.31,-21794.76,9013.428
887836.5512438215,-68567.67,-66577.31,9836.386,-4105.998,-17838.99,-27559.246,-21797.893,9008.423
887836.5552438173,-68573.37,-66577.6,9834.555,-4108.3174,-17847.047,-27559.043,-21798.137,9000.773
887836.5592438129,-68587.04,-66583.91,9831.096,-4110.3516,-17857.951,-27562.053,-21803.102,8993.083
887836.5632438086,-68577.84,-66575.85,9831.137,-4106.649,-17840.576,-27559.164,-21800.09,9001.181
887836.5672438043,-68569.79,-66575.08,9833.456,-4105.3877,-17830.69,-27556.52,-21797.69,9005.249
887836.5712438,-68569.664,-66576.91,9836.06,-4106.8525,-17837.037,-27554.973,-21795.33,9006.511
887836.5752437958,-68569.3,-66570.84,9836.874,-4108.48,-17848.268,-27559.246,-21792.807,9010.864
887836.5792437914,-68580.484,-66576.984,9828.939,-4112.7524,-17851.807,-27560.264,-21795.29,9003.947
887836.583243787,-68583.74,-66583.58,9830.241,-4113.4033,-17849.895,-27560.14,-21798.79,8996.298
887836.5872437828,-68581.26,-66587.81,9830.119,-4112.5083,-17843.506,-27559.979,-21798.137,9000.814
887836.5912437785,-68581.75,-66591.07,9832.886,-4109.0903,-17836.629,-27560.303,-21805.908,8992.514
887836.5952437742,-68584.19,-66591.27,9829.062,-4108.8867,-17842.896,-27560.629,-21807.902,8983.276
887836.5992437699,-68584.15,-66585.82,9826.904,-4110.433,-17859.334,-27559.531,-21804.566,8990.438
887836.6032437655,-68586.39,-66585.0,9829.875,-4112.915,-17846.355,-27561.484,-21807.09,8988.892
887836.6072437613,-68584.15,-66587.28,9833.456,-4113.2407,-17839.52,-27561.688,-21809.326,8986.532
887836.611243757,-68581.71,-66583.5,9834.595,-4110.84,-17844.441,-27559.979,-21807.21,8992.88
887836.6152437527,-68590.86,-66583.74,9831.503,-4110.718,-17855.266,-27561.523,-21809.287,8990.723
887836.6192437484,-68588.55,-66584.19,9832.764,-4111.003,-17858.236,-27559.938,-21805.908,8988.566
887836.623243744,-68589.97,-66581.18,9836.792,-4111.1655,-17842.855,-27560.303,-21810.791,8982.788
887836.6272437398,-68584.68,-66582.69,9839.193,-4112.3047,-17842.488,-27559.367,-21810.996,8988.241
887836.6312437354,-68576.09,-66580.77,9837.524,-4109.9854,-17841.635,-27558.473,-21807.455,8994.06
887836.6352437312,-68575.69,-66580.28,9837.565,-4110.189,-17849.488,-27557.861,-21803.467,8997.478
887836.6392437269,-68580.77,-66584.35,9835.205,-4112.386,-17856.934,-27557.74,-21801.596,9002.157
887836.6432437225,-68585.37,-66587.69,9835.571,-4112.3047,-17843.67,-27558.146,-21801.596,8999.268
887836.6472437183,-68579.14,-66584.72,9836.264,-4110.433,-17834.92,-27559.531,-21803.102,8993.246
887836.6512437139,-68579.555,-66584.11,9837.362,-4112.142,-17840.658,-27559.287,-21803.508,8995.158
887836.6552437097,-68578.695,-66578.414,9840.861,-4110.3926,-17849.08,-27556.846,-21795.615,9004.028
887836.6592437053,-68584.234,-66580.69,9840.414,-4111.8164,-17854.371,-27557.74,-21794.598,9007.976
887836.663243701,-68585.695,-66580.65,9842.651,-4111.8574,-17845.215,-27555.584,-21792.686,9003.906
887836.6672436967,-68583.82,-66588.625,9842.855,-4112.264,-17840.414,-27552.613,-21786.621,9021.362
887836.6712436924,-68581.305,-66589.73,9842.611,-4112.793,-17843.832,-27552.207,-21786.826,9026.205
887836.6752436882,-68583.46,-66587.484,9839.885,-4112.915,-17851.033,-27554.363,-21791.465,9010.661
887836.6792436838,-68588.09,-66590.82,9844.035,-4111.4097,-17857.342,-27558.555,-21797.324,9005.981
887836.6832436795,-68589.03,-66592.53,9841.879,-4112.427,-17850.586,-27561.117,-21805.096,8998.535
887836.6872436752,-68588.79,-66594.52,9839.111,-4113.607,-17846.559,-27559.775,-21807.21,8994.345
887836.6912436709,-68582.234,-66591.63,9843.1,-4113.851,-17845.744,-27555.543,-21801.475,8998.495
887836.6952436666,-68576.625,-66583.62,9846.518,-4111.2876,-17842.855,-27554.363,-21795.29,9002.971
887836.6992436623,-68579.23,-66581.34,9848.308,-4109.782,-17847.78,-27555.055,-21793.457,8997.844
887836.703243658,-68579.555,-66586.875,9850.749,-4111.003,-17841.96,-27555.908,-21793.174,9001.425
887836.7072436537,-68579.19,-66588.586,9849.609,-4110.881,-17837.688,-27555.99,-21795.33,9005.29
887836.7112436494,-68581.75,-66591.15,9847.331,-4110.7993,-17837.402,-27556.438,-21797.893,9006.308
887836.7152436451,-68584.96,-66591.48,9846.518,-4109.172,-17842.285,-27558.838,-21802.451,8999.553
887836.7192436408,-68585.0,-66587.0,9848.593,-4110.555,-17847.453,-27560.996,-21802.125,8998.373
887836.7232436364,-68586.06,-66589.97,9849.976,-4110.4736,-17845.582,-27557.984,-21802.084,8996.542
887836.7272436322,-68584.88,-66595.5,9849.895,-4112.956,-17838.176,-27554.404,-21801.107,8993.979
887836.7312436278,-68578.53,-66586.59,9856.853,-4111.206,-17831.828,-27555.176,-21800.457,8997.437
887836.7352436236,-68586.1,-66589.93,9851.115,-4112.2236,-17843.994,-27555.299,-21797.445,9001.465
887836.7392436193,-68580.61,-66583.62,9851.4,-4110.3926,-17848.186,-27554.81,-21788.494,9012.451
887836.7432436149,-68578.58,-66576.91,9858.032,-4108.5205,-17844.605,-27553.264,-21786.256,9015.666
887836.7472436107,-68576.01,-66580.08,9861.572,-4108.236,-17839.479,-27552.287,-21789.918,9010.539
887836.7512436063,-68578.05,-66586.305,9861.694,-4109.172,-17838.826,-27551.637,-21791.139,9012.492
887836.7552436021,-68584.15,-66588.586,9857.504,-4108.9683,-17835.652,-27552.49,-21793.254,9011.719
887836.7592435977,-68584.8,-66585.9,9855.876,-4108.8867,-17834.717,-27554.566,-21791.545,9013.306
887836.7632435934,-68583.58,-66592.29,9859.782,-4110.881,-17839.438,-27551.922,-21789.836,9016.073
887836.7672435892,-68577.03,-66588.09,9861.003,-4110.6772,-17829.06,-27548.87,-21791.342,9008.423
887836.7712435848,-68577.15,-66586.19,9856.608,-4109.375,-17825.074,-27549.072,-21792.318,9003.052
887836.7752435806,-68582.93,-66586.63,9855.185,-4107.707,-17837.77,-27553.264,-21794.76,9004.3545
887836.7792435762,-68584.64,-66585.94,9856.323,-4106.8525,-17845.338,-27554.484,-21793.498,9005.168
887836.7832435719,-68581.95,-66588.91,9863.119,-4106.201,-17836.385,-27554.037,-21789.715,9010.539
887836.7872435676,-68574.875,-66587.41,9865.438,-4105.1025,-17833.375,-27552.775,-21790.121,9010.295
887836.7912435633,-68566.695,-66584.07,9869.263,-4103.923,-17821.371,-27553.06,-21791.26,9014.364
887836.795243559,-68567.875,-66588.22,9864.828,-4105.51,-17836.59,-27554.484,-21794.15,9011.271
887836.7992435547,-68569.26,-66588.79,9863.119,-4106.3643,-17846.72,-27554.16,-21794.23,9008.911
887836.8032435504,-68568.81,-66590.414,9869.629,-4107.91,-17841.35,-27552.166,-21793.662,9008.789
887836.8072435461,-68564.54,-66587.98,9875.732,-4106.649,-17831.787,-27551.637,-21793.295,9009.521
887836.8112435418,-68563.68,-66585.86,9873.291,-4106.1606,-17828.94,-27554.932,-21800.213,8998.983
887836.8152435375,-68566.0,-66582.73,9874.187,-4106.9746,-17838.299,-27555.137,-21797.975,9003.418
887836.8192435332,-68570.56,-66584.07,9871.379,-4107.2593,-17841.594,-27556.438,-21799.398,8995.036
887836.8232435288,-68570.07,-66584.39,9873.007,-4107.1777,-17835.816,-27554.2,-21794.11,9008.749
887836.8272435246,-68568.65,-66584.44,9873.861,-4107.5034,-17827.557,-27554.77,-21795.207,9011.3125
887836.8312435203,-68565.76,-66582.4,9877.971,-4104.696,-17828.328,-27555.787,-21796.51,9005.371
887836.835243516,-68566.57,-66579.914,9876.018,-4103.76,-17830.404,-27556.56,-21793.986,9007.487
887836.8392435117,-68570.6,-66584.234,9873.535,-4106.12,-17834.92,-27557.658,-21793.662,9008.993
887836.8432435073,-68563.44,-66580.85,9880.575,-4106.2827,-17831.38,-27557.7,-21791.953,9012.207
887836.8472435031,-68555.18,-66575.445,9888.266,-4106.6084,-17827.84,-27555.217,-21789.592,9021.933
887836.8512434987,-68555.99,-66577.88,9885.498,-4106.9336,-17826.416,-27553.793,-21787.965,9022.827
887836.8552434945,-68562.99,-66585.734,9883.342,-4106.079,-17837.729,-27556.396,-21792.969,9008.627
887836.8592434902,-68571.414,-66584.76,9883.057,-4107.3,-17844.85,-27557.252,-21793.174,9004.477
887836.8632434858,-68577.03,-66586.266,9884.766,-4108.5615,-17839.723,-27556.846,-21793.945,9001.791
887836.8672434816,-68571.05,-66583.54,9888.916,-4104.7773,-17827.719,-27554.12,-21790.406,9011.19
887836.8712434772,-68566.37,-66582.69,9891.4795,-4103.6787,-17830.242,-27555.014,-21792.033,9016.4795
887836.875243473,-68564.54,-66578.62,9890.788,-4103.5566,-17832.52,-27556.926,-21791.18,9011.963
887836.8792434686,-68566.53,-66581.305,9891.113,-4103.231,-17838.582,-27555.38,-21788.006,9011.76
887836.8832434643,-68568.97,-66579.96,9889.893,-4103.353,-17836.793,-27554.404,-21790.812,9003.988
887836.88724346,-68563.4,-66579.76,9892.09,-4101.2373,-17829.143,-27553.102,-21790.406,9009.685
887836.8912434557,-68559.0,-66583.13,9892.741,-4100.505,-17829.63,-27552.37,-21789.43,9011.271
887836.8952434515,-68569.016,-66584.64,9890.829,-4102.336,-17842.285,-27553.387,-21789.389,9012.004
887836.8992434471,-68581.14,-66589.32,9886.882,-4104.4517,-17853.068,-27556.723,-21792.93,9010.254
887836.9032434428,-68581.09,-66590.45,9888.916,-4103.1904,-17851.238,-27556.316,-21796.795,9000.814
887836.9072434385,-68567.99,-66582.93,9896.892,-4100.505,-17846.15,-27552.695,-21794.557,9006.877
887836.9112434342,-68563.31,-66580.484,9902.344,-4099.8945,-17844.197,-27552.572,-21792.277,9014.079
887836.91524343,-68567.586,-66582.89,9894.369,-4099.121,-17847.371,-27553.264,-21792.807,9010.051
887836.9192434256,-68576.54,-66587.24,9891.235,-4099.6094,-17851.93,-27552.857,-21792.848,9002.89
887836.9232434212,-68581.95,-66587.65,9890.829,-4101.9287,-17849.568,-27555.46,-21797.607,8998.129
887836.927243417,-68576.984,-66582.28,9892.009,-4101.115,-17837.2,-27555.99,-21796.225,9007.121
887836.9312434127,-68573.77,-66581.016,9892.497,-4101.5625,-17830.078,-27556.52,-21796.836,9003.378
887836.9352434084,-68577.234,-66584.8,9888.957,-4100.83,-17841.39,-27557.822,-21796.348,8999.553
887836.9392434041,-68584.27,-66587.484,9888.103,-4102.051,-17852.336,-27556.152,-21794.639,9000.407
887836.9432433997,-68586.75,-66592.29,9888.916,-4103.882,-17848.674,-27556.967,-21797.324,8999.878
887836.9472433955,-68582.93,-66599.086,9889.975,-4105.957,-17840.82,-27558.025,-21801.352,9002.401
887836.9512433911,-68574.22,-66590.375,9892.538,-4104.411,-17835.164,-27557.049,-21799.805,8996.135
887836.9552433869,-68581.34,-66592.57,9890.219,-4105.4688,-17851.4,-27560.14,-21804.443,8981.12
887836.9592433826,-68587.41,-66596.16,9886.23,-4106.5674,-17859.254,-27561.89,-21802.613,8987.468
887836.9632433782,-68589.16,-66591.96,9889.853,-4105.591,-17851.115,-27561.85,-21801.596,8995.81
887836.967243374,-68584.27,-66595.3,9892.334,-4105.428,-17843.262,-27559.49,-21799.398,9000.082
887836.9712433696,-68583.54,-66603.44,9893.718,-4106.323,-17846.436,-27556.52,-21796.592,9001.425
887836.9752433654,-68587.73,-66602.91,9893.352,-4105.4688,-17855.957,-27556.152,-21795.086,8995.524
887836.979243361,-68594.93,-66604.82,9890.097,-4108.3984,-17861.736,-27558.676,-21796.104,8992.473
887836.9832433567,-68592.0,-66606.98,9891.276,-4108.8057,-17853.068,-27560.752,-21802.207,8989.218
887836.9872433525,-68583.74,-66602.17,9893.84,-4106.12,-17839.967,-27558.635,-21800.293,8992.514
887836.9912433481,-68582.84,-66599.2,9896.647,-4105.713,-17839.234,-27556.885,-21799.48,8991.008
887836.9952433438,-68585.45,-66595.016,9897.095,-4104.289,-17843.344,-27558.025,-21800.781,8983.195
887836.9992433395,-68592.05,-66599.086,9892.619,-4106.5674,-17852.01,-27559.367,-21800.822,8984.375
887837.0032433352,-68587.484,-66594.61,9899.455,-4106.079,-17841.676,-27558.432,-21794.23,8995.483
887837.0072433309,-68585.25,-66592.86,9907.675,-4103.6787,-17836.752,-27556.031,-21794.516,8995.483
887837.0112433266,-68584.92,-66594.32,9906.698,-4102.4985,-17837.932,-27555.299,-21796.266,8999.634
887837.0152433222,-68584.48,-66594.28,9901.489,-4102.7427,-17846.355,-27557.129,-21798.79,8997.885
887837.019243318,-68589.73,-66595.625,9900.31,-4104.37,-17853.883,-27559.979,-21801.025,8992.106
887837.0232433137,-68590.3,-66596.31,9906.21,-4102.661,-17852.05,-27558.96,-21800.66,8994.263
887837.0272433094,-68592.164,-66599.94,9908.8955,-4105.062,-17846.559,-27558.758,-21802.734,8987.834
887837.0312433051,-68586.8,-66597.66,9908.61,-4101.644,-17835.37,-27558.555,-21798.545,8998.942
887837.0352433007,-68587.41,-66598.39,9906.942,-4099.5283,-17842.164,-27558.025,-21794.883,9004.028
887837.0392432965,-68589.68,-66592.53,9906.738,-4099.284,-17847.656,-27559.57,-21793.986,8998.698
887837.0432432921,-68590.54,-66582.44,9909.099,-4099.365,-17844.727,-27559.693,-21794.23,8997.844
887837.0472432879,-68590.17,-66585.82,9910.116,-4099.6504,-17835.775,-27560.02,-21797.73,8998.169
887837.0512432836,-68591.88,-66589.52,9909.302,-4098.1445,-17826.701,-27559.082,-21798.016,8995.728
887837.0552432792,-68599.0,-66591.48,9905.029,-4099.365,-17834.758,-27559.45,-21795.98,8999.105
887837.059243275,-68600.836,-66589.73,9904.053,-4100.993,-17842.57,-27560.385,-21793.662,8996.298
887837.0632432706,-68602.79,-66591.72,9903.931,-4102.6206,-17834.88,-27559.693,-21794.719,8993.083
887837.0672432664,-68597.91,-66596.11,9907.39,-4103.719,-17837.973,-27558.27,-21793.418,8996.46
887837.071243262,-68589.03,-66589.64,9909.465,-4099.8945,-17831.055,-27556.723,-21789.43,9010.986
887837.0752432577,-68592.49,-66592.2,9910.075,-4100.627,-17843.873,-27557.252,-21790.04,9007.487
887837.0792432535,-68595.3,-66593.18,9910.4,-4100.383,-17852.742,-27559.246,-21791.668,8995.932
887837.0832432491,-68598.11,-66592.086,9910.36,-4102.092,-17842.652,-27560.67,-21790.527,9001.303
887837.0872432449,-68593.34,-66595.055,9914.348,-4101.6846,-17831.746,-27559.693,-21790.0,9003.378
887837.0912432405,-68588.38,-66592.53,9916.098,-4100.505,-17830.445,-27560.14,-21791.424,9002.238
887837.0952432362,-68590.58,-66592.37,9914.348,-4099.9756,-17836.914,-27562.705,-21791.3,9005.249
887837.0992432319,-68591.59,-66593.875,9913.452,-4100.505,-17844.482,-27563.72,-21790.936,9007.284
887837.1032432276,-68587.73,-66593.305,9916.83,-4101.156,-17836.346,-27563.03,-21793.254,9002.727
887837.1072432233,-68590.25,-66590.21,9916.138,-4101.7256,-17829.916,-27562.5,-21795.898,9003.54
887837.111243219,-68591.07,-66590.78,9915.8125,-4100.749,-17829.305,-27560.996,-21795.94,9000.407
887837.1152432146,-68594.89,-66595.91,9915.283,-4101.522,-17835.328,-27560.508,-21794.11,8994.914
887837.1192432104,-68596.88,-66598.31,9911.987,-4103.1494,-17836.873,-27561.361,-21794.922,8989.624
887837.1232432061,-68595.18,-66598.15,9911.825,-4103.923,-17832.805,-27560.791,-21794.678,8995.117
887837.1272432018,-68590.13,-66596.516,9917.155,-4102.458,-17826.498,-27560.344,-21792.277,9000.488
887837.1312431975,-68585.125,-66597.695,9917.969,-4101.9287,-17829.346,-27558.96,-21788.494,9003.866
887837.1352431931,-68590.375,-66594.65,9915.243,-4102.1323,-17839.64,-27559.49,-21788.982,9004.436
887837.1392431889,-68597.45,-66596.07,9915.08,-4102.336,-17847.006,-27560.914,-21790.08,9006.592
887837.1432431845,-68597.984,-66601.4,9914.673,-4103.9634,-17841.432,-27563.518,-21796.713,8994.751
887837.1472431803,-68591.8,-66602.055,9917.318,-4102.6206,-17831.746,-27562.379,-21799.236,8989.584
887837.151243176,-68590.78,-66599.9,9917.847,-4101.1963,-17828.857,-27561.443,-21796.55,8991.659
887837.1552431716,-68589.84,-66599.445,9916.26,-4102.6206,-17834.148,-27562.744,-21796.143,8995.077
887837.1592431674,-68591.96,-66594.484,9914.795,-4102.661,-17842.244,-27562.95,-21794.883,9000.163
887837.163243163,-68591.68,-66596.64,9914.47,-4104.411,-17835.531,-27563.844,-21797.648,8989.502
887837.1672431588,-68582.73,-66593.55,9918.823,-4103.353,-17824.422,-27562.705,-21798.545,8985.84
887837.1712431544,-68582.32,-66594.61,9917.685,-4103.6377,-17824.3,-27563.518,-21798.584,8994.385
887837.1752431501,-68583.82,-66591.27,9916.952,-4102.2544,-17831.178,-27564.658,-21799.357,8995.117
887837.1792431459,-68581.83,-66590.945,9918.986,-4101.074,-17838.299,-27565.512,-21798.828,8994.223
887837.1832431415,-68582.73,-66598.72,9919.882,-4103.353,-17837.729,-27564.982,-21800.416,8986.45
887837.1872431373,-68577.92,-66594.89,9923.544,-4102.824,-17831.625,-27562.908,-21800.904,8986.938
887837.1912431329,-68579.14,-66591.19,9922.404,-4103.597,-17825.807,-27561.729,-21799.846,8986.776
887837.1952431286,-68581.51,-66593.43,9921.184,-4104.167,-17831.666,-27563.926,-21798.422,8986.288
887837.1992431243,-68580.61,-66586.59,9923.544,-4101.8477,-17836.467,-27565.146,-21795.818,8990.479
887837.20324312,-68576.17,-66579.555,9925.09,-4102.051,-17832.805,-27565.064,-21795.127,8994.101
887837.2072431158,-68575.89,-66573.65,9925.659,-4101.6846,-17821.004,-27565.797,-21795.86,8994.385
887837.2112431114,-68558.23,-66560.63,9928.427,-4098.755,-17814.535,-27564.373,-21795.127,8992.839
887837.215243107,-68549.16,-66555.75,9931.519,-4097.534,-17821.86,-27564.209,-21792.686,9000.8955
887837.2192431028,-68547.53,-66545.01,9931.152,-4098.2666,-17824.586,-27567.262,-21794.312,8999.39
887837.2232430985,-68531.25,-66529.91,9934.855,-4096.4355,-17817.791,-27568.4,-21799.398,8985.107
887837.2272430942,-68516.12,-66515.51,9940.674,-4095.2964,-17805.46,-27566.123,-21803.102,8977.011
887837.2312430899,-68505.21,-66500.695,9942.302,-4093.6687,-17798.34,-27566.367,-21805.705,8979.33
887837.2352430855,-68499.68,-66484.336,9943.359,-4090.9426,-17808.188,-27570.68,-21808.92,8979.777
887837.2392430813,-68485.234,-66462.164,9948.69,-4087.8909,-17811.28,-27574.627,-21812.705,8967.001
887837.243243077,-68471.766,-66444.42,9952.759,-4085.1238,-17798.707,-27575.969,-21812.95,8973.145
887837.2472430727,-68465.86,-66437.46,9954.672,-4083.7405,-17789.959,-27575.236,-21813.926,8980.266
887837.2512430684,-68461.55,-66432.414,9955.852,-4080.6072,-17790.365,-27574.098,-21814.373,8975.546
887837.255243064,-68462.164,-66432.54,9954.143,-4080.8513,-17801.107,-27575.195,-21813.03,8980.0625
887837.2592430598,-68468.836,-66433.31,9952.515,-4081.6653,-17810.344,-27577.068,-21812.785,8983.887
887837.2632430554,-68474.0,-66436.28,9953.573,-4083.6184,-17807.82,-27577.557,-21813.232,8979.208
887837.2672430512,-68469.28,-66438.805,9961.182,-4082.072,-17795.98,-27575.236,-21812.988,8978.231
887837.2712430469,-68469.16,-66443.24,9959.066,-4082.1536,-17792.645,-27577.19,-21815.594,8979.045
887837.2752430425,-68475.79,-66448.24,9952.637,-4083.2114,-17797.363,-27580.04,-21820.436,8967.937
887837.2792430383,-68479.25,-66450.28,9952.148,-4083.8218,-17796.266,-27579.795,-21817.791,8977.58
887837.2832430339,-68482.625,-66458.5,9955.607,-4084.31,-17796.916,-27579.998,-21817.506,8975.993
887837.2872430297,-68495.85,-66468.55,9954.875,-4086.2632,-17797.893,-27579.102,-21815.146,8978.516
887837.2912430253,-68498.78,-66473.02,9954.387,-4086.2632,-17797.566,-27577.393,-21813.438,8982.463
887837.295243021,-68504.27,-66483.195,9951.701,-4088.3792,-17805.014,-27575.36,-21810.344,8985.148
887837.2992430168,-68515.75,-66496.13,9951.091,-4090.6577,-17812.988,-27574.098,-21807.578,8983.073
887837.3032430124,-68518.48,-66506.11,9955.038,-4091.9597,-17811.402,-27574.83,-21809.367,8979.248
887837.3072430082,-68521.85,-66515.22,9956.096,-4092.0818,-17805.623,-27574.016,-21810.955,8981.894
887837.3112430038,-68531.58,-66519.05,9953.329,-4092.6108,-17809.082,-27573.65,-21808.799,8983.195
887837.3152429995,-68531.66,-66518.72,9953.857,-4092.6921,-17824.057,-27575.521,-21810.264,8979.004
887837.3192429952,-68538.086,-66526.2,9952.922,-4094.442,-17843.506,-27577.88,-21812.705,8978.19
887837.3232429909,-68541.625,-66533.37,9953.857,-4096.4766,-17856.771,-27579.834,-21816.447,8976.685
887837.3272429866,-68542.195,-66537.03,9958.822,-4097.209,-17861.004,-27578.248,-21814.25,8978.638
887837.3312429823,-68546.51,-66541.016,9958.456,-4098.552,-17865.072,-27576.742,-21813.232,8974.813
887837.335242978,-68551.39,-66543.664,9956.706,-4099.365,-17870.89,-27575.604,-21811.688,8978.801
887837.3392429737,-68558.8,-66549.12,9952.841,-4101.4,-17883.18,-27576.336,-21812.988,8970.419
887837.3432429694,-68565.39,-66557.5,9954.143,-4104.045,-17889.283,-27576.54,-21813.844,8966.553
887837.3472429651,-68565.72,-66553.71,9959.147,-4102.702,-17879.07,-27574.83,-21812.623,8975.952
887837.3512429608,-68571.25,-66554.61,9959.514,-4102.295,-17876.059,-27574.992,-21811.28,8978.882
887837.3552429564,-68575.234,-66559.086,9955.7295,-4104.045,-17881.918,-27578.37,-21816.57,8970.703
887837.3592429522,-68577.44,-66562.75,9953.9795,-4104.411,-17889.73,-27581.38,-21818.727,8963.461
887837.3632429478,-68577.44,-66564.21,9957.927,-4104.6143,-17892.09,-27580.934,-21815.879,8966.635
887837.3672429436,-68578.21,-66566.734,9960.979,-4105.0215,-17882.65,-27577.637,-21811.809,8973.552
887837.3712429393,-68581.18,-66569.625,9962.24,-4105.1025,-17884.807,-27576.416,-21806.52,8980.429
887837.3752429349,-68582.73,-66570.07,9961.02,-4105.062,-17896.281,-27577.598,-21803.346,8982.382
887837.3792429307,-68584.76,-66574.95,9961.914,-4105.713,-17901.45,-27579.672,-21803.467,8973.145
887837.3832429263,-68584.84,-66579.43,9963.217,-4105.632,-17894.94,-27579.184,-21802.287,8978.801
887837.3872429221,-68583.01,-66580.04,9963.908,-4108.1543,-17881.592,-27579.225,-21803.223,8985.759
887837.3912429177,-68584.68,-66581.664,9965.82,-4109.0903,-17874.879,-27578.086,-21804.24,8981.853
887837.3952429134,-68590.7,-66578.086,9965.048,-4108.3174,-17878.377,-27579.469,-21806.193,8979.94
887837.3992429092,-68591.59,-66576.54,9963.989,-4106.2827,-17888.63,-27582.195,-21809.123,8977.702
887837.4032429048,-68590.54,-66581.71,9966.96,-4105.591,-17893.758,-27583.496,-21810.588,8980.876
887837.4072429006,-68588.22,-66585.29,9969.6045,-4107.5034,-17890.707,-27584.107,-21812.785,8982.3
887837.4112428962,-68586.63,-66577.15,9971.436,-4105.591,-17890.828,-27584.066,-21814.047,8980.225
887837.4152428919,-68583.78,-66573.65,9972.494,-4103.6787,-17896.078,-27584.066,-21812.744,8982.626
887837.4192428876,-68583.664,-66573.49,9975.912,-4102.8647,-17899.455,-27586.102,-21814.047,8983.684
887837.4232428833,-68585.57,-66573.98,9978.027,-4105.3877,-17895.752,-27585.41,-21815.879,8978.19
887837.427242879,-68589.97,-66572.15,9982.016,-4107.7476,-17888.836,-27584.107,-21816.203,8980.835
887837.4312428747,-68590.945,-66582.12,9982.26,-4107.91,-17882.447,-27584.596,-21821.533,8973.308
887837.4352428704,-68597.05,-66589.56,9978.271,-4108.724,-17885.824,-27586.305,-21828.29,8962.158
887837.4392428661,-68604.21,-66595.625,9977.824,-4110.3516,-17890.91,-27587.443,-21829.916,8961.02
887837.4432428618,-68602.74,-66592.81,9980.632,-4111.45,-17881.268,-27587.852,-21830.81,8954.306
887837.4472428575,-68599.9,-66589.68,9979.696,-4111.003,-17871.705,-27585.938,-21831.951,8950.155
887837.4512428532,-68598.39,-66589.805,9981.608,-4110.1074,-17861.98,-27586.914,-21836.426,8946.127
887837.4552428488,-68597.13,-66590.86,9982.707,-4107.666,-17864.38,-27588.258,-21836.426,8949.585
887837.4592428446,-68601.04,-66594.484,9980.51,-4108.6426,-17868.45,-27590.17,-21833.781,8954.875
887837.4632428403,-68601.73,-66592.98,9982.097,-4108.9277,-17859.54,-27591.025,-21835.084,8947.266
887837.467242836,-68597.58,-66590.17,9986.084,-4108.9683,-17856.121,-27589.479,-21830.934,8954.224
887837.4712428317,-68592.49,-66588.87,9988.159,-4107.137,-17856.121,-27586.305,-21826.172,8963.745
887837.4752428273,-68597.62,-66584.35,9983.887,-4107.015,-17868.328,-27585.41,-21827.88,8958.171
887837.4792428231,-68602.46,-66587.484,9979.411,-4108.2764,-17882.121,-27586.67,-21830.12,8954.794
887837.4832428187,-68602.54,-66588.99,9979.655,-4107.91,-17879.11,-27586.752,-21831.992,8950.195
887837.4872428145,-68603.03,-66586.59,9981.527,-4107.3,-17871.053,-27586.71,-21833.334,8951.498
887837.4912428102,-68604.78,-66591.23,9982.788,-4106.771,-17876.1,-27588.217,-21833.537,8953.003
887837.4952428058,-68605.305,-66594.04,9983.154,-4106.6895,-17886.639,-27589.275,-21834.88,8953.9795
887837.4992428016,-68606.65,-66590.05,9985.922,-4106.8115,-17890.504,-27591.188,-21837.932,8947.714
887837.5032427972,-68605.76,-66594.52,9989.543,-4108.032,-17889.69,-27592.896,-21838.705,8948.527
887837.507242793,-68604.9,-66592.49,9989.665,-4109.741,-17883.057,-27591.635,-21838.055,8952.393
887837.5112427886,-68598.555,-66584.84,9989.421,-4106.8115,-17864.34,-27591.594,-21838.787,8948.486
887837.5152427843,-68594.85,-66590.3,9987.834,-4104.6553,-17862.916,-27590.943,-21837.607,8948.446
887837.51924278,-68598.92,-66591.35,9987.631,-4105.2656,-17862.428,-27591.92,-21836.264,8950.521
887837.5232427757,-68603.03,-66587.85,9989.543,-4106.2827,-17856.08,-27592.285,-21835.246,8950.236
887837.5272427715,-68600.18,-66583.945,9992.758,-4105.184,-17847.656,-27589.355,-21831.707,8959.839
887837.5312427671,-68595.54,-66582.195,9990.397,-4101.8477,-17843.994,-27588.258,-21829.998,8967.611
887837.5352427628,-68596.97,-66583.3,9987.143,-4103.109,-17851.238,-27588.828,-21829.469,8967.326
887837.5392427585,-68604.375,-66589.93,9987.224,-4104.696,-17858.766,-27587.158,-21826.783,8970.256
887837.5432427542,-68605.92,-66596.68,9988.566,-4106.8525,-17854.9,-27586.223,-21826.457,8967.326
887837.54724275,-68606.445,-66592.61,9985.759,-4107.2188,-17844.605,-27585.613,-21826.416,8961.182
887837.5512427456,-68603.15,-66591.27,9987.753,-4104.8994,-17844.686,-27584.066,-21824.83,8964.682
887837.5552427412,-68602.87,-66590.62,9989.502,-4105.4688,-17857.951,-27584.88,-21825.4,8960.693
887837.559242737,-68607.14,-66592.98,9990.356,-4107.0557,-17867.31,-27586.71,-21826.213,8960.409
887837.5632427327,-68609.13,-66593.875,9995.972,-4109.782,-17862.875,-27587.525,-21828.898,8959.677
887837.5672427284,-68605.02,-66591.35,9998.291,-4108.602,-17855.877,-27586.102,-21830.322,8961.304
887837.5712427241,-68603.27,-66589.195,9997.925,-4108.846,-17855.877,-27584.025,-21829.143,8970.256
887837.5752427197,-68609.09,-66594.445,9996.257,-4108.7646,-17866.13,-27586.467,-21830.486,8957.031
887837.5792427155,-68611.78,-66591.23,9995.199,-4105.998,-17874.594,-27586.102,-21828.166,8955.974
887837.5832427111,-68611.53,-66587.0,9994.833,-4106.323,-17869.508,-27586.834,-21830.81,8949.463
887837.5872427069,-68611.49,-66584.84,9999.716,-4105.184,-17857.3,-27586.426,-21832.195,8950.969
887837.5912427026,-68613.77,-66595.42,10000.448,-4105.957,-17852.662,-27585.816,-21830.363,8956.665
887837.5952426982,-68614.18,-66598.266,9995.972,-4108.032,-17862.387,-27585.898,-21828.37,8959.595
887837.599242694,-68613.57,-66602.09,9996.338,-4108.3174,-17874.512,-27585.734,-21826.254,8966.024
887837.6032426896,-68615.07,-66597.375,9997.478,-4107.544,-17867.27,-27586.223,-21827.8,8961.345
887837.6072426854,-68610.68,-66594.08,9998.82,-4107.0967,-17849.162,-27586.346,-21830.69,8955.241
887837.611242681,-68607.586,-66591.836,9998.495,-4104.8584,-17843.182,-27585.734,-21826.986,8962.199
887837.6152426767,-68603.68,-66588.586,9996.989,-4104.289,-17848.309,-27586.223,-21823.568,8969.564
887837.6192426725,-68605.59,-66588.18,9996.054,-4105.2246,-17857.83,-27588.055,-21826.133,8965.454
887837.6232426681,-68610.39,-66590.21,9995.158,-4106.8115,-17860.271,-27587.81,-21826.986,8965.251
887837.6272426639,-68605.266,-66594.12,9995.443,-4109.009,-17853.11,-27586.102,-21826.54,8964.763
887837.6312426595,-68604.78,-66592.695,9996.46,-4107.7476,-17852.05,-27583.457,-21826.133,8966.797
887837.6352426552,-68606.9,-66592.81,9996.176,-4106.6084,-17859.66,-27583.62,-21825.725,8965.048
887837.6392426509,-68608.234,-66589.93,9996.623,-4107.015,-17861.695,-27585.693,-21824.463,8960.49
887837.6432426466,-68604.984,-66590.91,9998.007,-4106.6895,-17857.748,-27587.037,-21822.51,8966.716
887837.6472426424,-68601.04,-66590.5,10000.244,-4106.079,-17848.797,-27586.914,-21820.762,8978.638
887837.651242638,-68601.65,-66589.16,9999.675,-4105.6724,-17849.285,-27586.223,-21820.762,8976.848
887837.6552426337,-68602.58,-66589.6,9998.251,-4104.818,-17860.76,-27586.955,-21824.219,8966.635
887837.6592426294,-68603.555,-66595.016,10000.407,-4104.167,-17868.611,-27586.143,-21822.062,8968.872
887837.6632426251,-68613.2,-66600.55,10002.075,-4105.2246,-17867.025,-27586.223,-21823.771,8969.32
887837.6672426208,-68625.98,-66599.9,10003.256,-4107.0557,-17861.166,-27586.834,-21828.166,8963.583
887837.6712426165,-68638.47,-66600.34,10001.628,-4108.724,-17861.816,-27585.979,-21827.88,8966.431
887837.6752426121,-68640.22,-66595.664,9999.431,-4106.12,-17868.531,-27584.596,-21824.748,8968.954
887837.6792426079,-68640.586,-66592.77,9999.228,-4102.824,-17872.803,-27584.678,-21824.424,8966.96
887837.6832426036,-68642.414,-66590.91,10001.506,-4102.2544,-17874.512,-27586.508,-21823.121,8971.436
887837.6872425993,-68642.91,-66592.45,10005.412,-4102.539,-17875.53,-27586.305,-21822.307,8978.516
887837.691242595,-68641.85,-66589.56,10008.545,-4101.888,-17872.479,-27585.613,-21825.848,8973.267
887837.6952425906,-68639.28,-66585.25,10009.481,-4100.2607,-17877.076,-27586.426,-21829.63,8963.908
887837.6992425864,-68642.87,-66591.19,10005.209,-4102.702,-17884.969,-27587.852,-21829.875,8964.071
887837.703242582,-68643.555,-66596.516,10003.093,-4104.4517,-17887.004,-27588.867,-21831.137,8962.158
887837.7072425778,-68644.05,-66596.234,10003.744,-4105.835,-17881.268,-27585.898,-21831.787,8960.165
887837.7112425735,-68645.19,-66592.57,10004.436,-4105.7944,-17881.227,-27584.717,-21830.607,8964.03
887837.7152425691,-68643.96,-66590.375,10002.971,-4104.8994,-17885.174,-27585.938,-21829.713,8972.29
887837.7192425649,-68642.78,-66595.5,10002.035,-4103.3125,-17881.062,-27587.973,-21829.346,8972.412
887837.7232425605,-68638.39,-66597.29,10005.412,-4102.987,-17873.943,-27588.34,-21827.271,8977.783
887837.7272425563,-68631.02,-66591.39,10010.824,-4103.5566,-17872.682,-27587.484,-21825.521,8971.843
887837.7312425519,-68627.61,-66592.0,10015.829,-4103.597,-17874.512,-27585.287,-21819.744,8980.266
887837.7352425476,-68626.266,-66590.945,10013.347,-4103.4346,-17884.645,-27586.467,-21819.418,8982.3
887837.7392425433,-68627.81,-66591.68,10010.458,-4102.7427,-17891.887,-27587.037,-21820.965,8975.952
887837.743242539,-68630.54,-66593.51,10006.755,-4104.167,-17890.26,-27586.387,-21820.477,8975.383
887837.7472425348,-68628.54,-66595.13,10010.051,-4105.51,-17883.748,-27584.352,-21820.232,8970.703
887837.7512425304,-68629.97,-66596.4,10011.3125,-4105.591,-17881.062,-27581.625,-21814.861,8976.645
887837.7552425261,-68636.6,-66597.78,10009.277,-4106.8115,-17886.11,-27581.787,-21812.541,8977.051
887837.7592425218,-68640.586,-66595.95,10009.318,-4106.4863,-17891.969,-27583.008,-21814.617,8980.632
887837.7632425175,-68637.53,-66592.49,10011.557,-4105.2656,-17889.852,-27584.148,-21815.635,8978.516
887837.7672425132,-68633.875,-66593.266,10015.788,-4104.6553,-17880.453,-27583.66,-21816.244,8977.499
887837.7712425089,-68632.04,-66586.02,10016.887,-4103.719,-17876.832,-27583.904,-21818.4,8980.103
887837.7752425045,-68636.27,-66587.98,10012.736,-4103.2715,-17882.04,-27586.264,-21824.707,8973.552
887837.7792425003,-68640.26,-66592.086,10009.726,-4103.475,-17888.836,-27586.549,-21824.463,8976.237
887837.783242496,-68643.555,-66594.2,10009.196,-4104.5737,-17889.771,-27585.572,-21821.127,8976.359
887837.7872424917,-68644.984,-66599.086,10009.481,-4108.1543,-17881.023,-27584.473,-21821.453,8970.5
887837.7912424874,-68641.195,-66600.016,10010.336,-4106.9336,-17881.836,-27582.236,-21820.639,8977.58
887837.795242483,-68642.87,-66597.695,10006.633,-4104.696,-17889.363,-27581.828,-21818.809,8978.476
887837.7992424788,-68645.875,-66600.305,10006.552,-4105.51,-17896.16,-27584.922,-21820.15,8972.941
887837.8032424744,-68645.266,-66597.45,10011.923,-4104.7773,-17890.504,-27586.63,-21818.36,8973.145
887837.8072424702,-68642.21,-66592.695,10015.707,-4103.2715,-17877.361,-27586.752,-21815.39,8980.388
887837.8112424659,-68638.76,-66592.49,10016.317,-4100.179,-17872.885,-27585.49,-21815.879,8982.504
887837.8152424615,-68640.26,-66595.54,10017.172,-4100.505,-17880.697,-27585.125,-21817.668,8981.079
887837.8192424573,-68641.64,-66594.81,10017.131,-4104.045,-17891.846,-27586.305,-21819.785,8978.842
887837.8232424529,-68640.18,-66586.39,10017.985,-4104.533,-17887.898,-27585.775,-21818.197,8978.394
887837.8272424487,-68637.45,-66587.32,10019.653,-4105.6724,-17876.629,-27583.62,-21814.535,8985.393
887837.8312424443,-68638.19,-66587.98,10016.846,-4104.9805,-17874.309,-27582.602,-21816.855,8984.416
887837.83524244,-68637.17,-66586.34,10016.4795,-4102.417,-17883.668,-27585.287,-21819.906,8983.154
887837.8392424358,-68635.91,-66588.75,10019.653,-4101.1963,-17886.395,-27586.06,-21819.459,8982.951
887837.8432424314,-68632.125,-66586.14,10022.502,-4100.0977,-17886.598,-27584.922,-21816.691,8982.544
887837.8472424272,-68626.34,-66582.195,10021.933,-4101.3184,-17879.883,-27583.008,-21813.762,8992.147
887837.8512424228,-68631.06,-66583.375,10020.874,-4102.336,-17874.797,-27583.781,-21817.668,8991.13
887837.8552424185,-68631.47,-66574.99,10020.671,-4099.4873,-17878.785,-27586.914,-21823.121,8969.6045
887837.8592424142,-68625.9,-66568.766,10019.572,-4097.86,-17885.54,-27589.234,-21825.562,8964.926
887837.8632424099,-68617.59,-66558.23,10023.275,-4096.029,-17885.621,-27588.258,-21823.73,8974.121
887837.8672424057,-68609.01,-66541.51,10029.338,-4095.9475,-17876.465,-27587.281,-21825.604,8976.196
887837.8712424013,-68602.87,-66536.83,10029.419,-4096.1104,-17871.541,-27585.613,-21827.76,8971.884
887837.875242397,-68591.31,-66522.22,10023.356,-4091.3494,-17865.234,-27585.857,-21828.695,8971.721
887837.8792423927,-68579.8,-66503.74,10026.53,-4087.2805,-17877.441,-27587.443,-21826.295,8973.755
887837.8832423884,-68568.69,-66492.8,10032.675,-4086.2632,-17877.156,-27588.46,-21825.969,8970.988
887837.8872423841,-68552.53,-66482.22,10042.358,-4087.1177,-17871.297,-27587.24,-21824.504,8976.115
887837.8912423798,-68540.125,-66469.2,10045.492,-4086.7922,-17864.014,-27588.176,-21830.363,8969.523
887837.8952423754,-68532.19,-66457.195,10038.412,-4086.2632,-17867.107,-27589.111,-21830.607,8971.436
887837.8992423712,-68529.91,-66450.69,10038.778,-4083.781,-17870.973,-27590.74,-21834.19,8968.262
887837.9032423669,-68522.016,-66437.22,10038.696,-4082.1536,-17859.66,-27592.002,-21838.705,8962.199
887837.9072423626,-68521.484,-66431.36,10038.615,-4082.2756,-17850.465,-27593.994,-21843.955,8960.653
887837.9112423583,-68524.945,-66427.66,10038.208,-4081.6245,-17845.988,-27595.297,-21845.541,8957.4795
887837.9152423539,-68526.164,-66435.43,10036.987,-4082.0315,-17859.213,-27594.076,-21838.787,8967.001
887837.9192423497,-68524.01,-66436.36,10040.731,-4079.468,-17870.729,-27593.14,-21830.12,8977.499
887837.9232423453,-68530.68,-66449.75,10039.226,-4081.4617,-17867.352,-27592.938,-21827.598,8978.923
887837.9272423411,-68535.61,-66455.77,10036.581,-4085.5308,-17859.742,-27592.002,-21831.016,8972.738
887837.9312423368,-68545.695,-66470.055,10033.0,-4086.9956,-17859.457,-27592.002,-21833.537,8970.703
887837.9352423324,-68558.63,-66475.71,10031.657,-4087.4026,-17860.76,-27591.188,-21836.02,8964.6
887837.9392423282,-68568.65,-66478.31,10035.36,-4086.9548,-17863.484,-27591.879,-21831.87,8974.528
887837.9432423238,-68572.76,-66480.06,10032.1045,-4087.199,-17864.87,-27593.547,-21829.307,8980.673
887837.9472423196,-68573.77,-66490.234,10034.384,-4088.9895,-17863.934,-27591.879,-21829.021,8983.643
887837.9512423152,-68579.63,-66506.8,10028.605,-4091.7563,-17862.713,-27590.21,-21827.271,8988.607
887837.9552423109,-68584.68,-66514.61,10026.408,-4092.1633,-17869.14,-27589.56,-21828.654,8974.447
887837.9592423066,-68590.375,-66518.96,10028.646,-4092.855,-17881.633,-27590.414,-21826.336,8972.616
887837.9632423023,-68595.87,-66522.34,10030.925,-4093.9536,-17886.922,-27589.764,-21824.219,8971.762
887837.9672422981,-68594.65,-66524.13,10033.691,-4093.0583,-17885.092,-27589.275,-21824.586,8983.276
887837.9712422937,-68595.38,-66532.48,10030.273,-4092.2446,-17889.648,-27590.414,-21828.898,8976.359
887837.9752422894,-68590.25,-66526.2,10031.494,-4090.617,-17888.184,-27592.652,-21832.154,8958.781
887837.9792422851,-68597.66,-66528.57,10029.541,-4093.2212,-17901.367,-27591.229,-21829.672,8967.651
887837.9832422808,-68601.195,-66525.72,10027.141,-4092.0413,-17894.043,-27589.967,-21829.346,8973.796
887837.9872422765,-68600.06,-66532.63,10027.629,-4094.5232,-17889.607,-27589.396,-21828.37,8973.633
887837.9912422722,-68604.375,-66543.664,10028.728,-4096.5576,-17895.143,-27586.955,-21830.852,8966.635
887837.9952422678,-68595.13,-66537.11,10030.884,-4091.3494,-17893.758,-27589.234,-21828.898,8974.528
887837.9992422636,-68597.66,-66542.6,10027.914,-4091.146,-17903.158,-27591.064,-21830.16,8970.378
887838.0032422593,-68593.95,-66541.016,10031.657,-4092.326,-17908.814,-27589.682,-21827.23,8972.29
887838.007242255,-68595.7,-66540.9,10035.971,-4093.099,-17900.473,-27590.049,-21828.451,8974.976
887838.0112422507,-68605.51,-66542.766,10035.116,-4094.8894,-17899.943,-27589.479,-21831.625,8970.053
887838.0152422463,-68607.016,-66548.71,10031.088,-4094.8489,-17908.203,-27590.455,-21834.066,8966.105
887838.0192422421,-68602.58,-66548.83,10030.029,-4092.1633,-17912.883,-27592.205,-21833.74,8971.232
887838.0232422377,-68604.17,-66552.05,10032.512,-4092.6921,-17912.842,-27589.885,-21830.771,8971.191
887838.0272422335,-68601.73,-66546.06,10033.773,-4092.57,-17899.658,-27586.102,-21825.115,8973.511
887838.0312422292,-68606.53,-66551.92,10031.901,-4091.8376,-17892.13,-27583.293,-21822.633,8978.19
887838.0352422248,-68607.71,-66560.95,10035.727,-4092.2854,-17914.715,-27586.508,-21825.4,8969.768
887838.0392422206,-68606.33,-66562.87,10030.966,-4093.7095,-17929.402,-27587.688,-21826.254,8962.443
887838.0432422162,-68599.445,-66551.15,10030.151,-4093.9944,-17920.086,-27585.002,-21819.906,8976.44
887838.047242212,-68604.78,-66553.43,10035.319,-4097.1274,-17908.691,-27585.41,-21823.08,8975.139
887838.0512422076,-68603.68,-66552.695,10034.506,-4096.5576,-17901.775,-27587.729,-21823.895,8979.736
887838.0552422033,-68600.305,-66548.22,10033.61,-4095.6626,-17900.838,-27587.363,-21820.15,8984.904
887838.0592421991,-68605.76,-66553.23,10027.182,-4099.2026,-17915.08,-27586.752,-21819.541,8991.74
887838.0632421947,-68604.17,-66549.89,10027.751,-4099.447,-17910.035,-27586.182,-21819.906,8991.049
887838.0672421905,-68604.62,-66554.65,10030.518,-4102.58,-17898.602,-27584.229,-21820.518,8990.438
887838.0712421861,-68604.01,-66558.59,10031.982,-4105.2246,-17901.043,-27583.496,-21821.494,8991.821
887838.0752421818,-68609.87,-66563.766,10029.907,-4106.201,-17914.715,-27585.734,-21827.434,8978.19
887838.0792421775,-68603.88,-66558.72,10030.64,-4104.7363,-17916.26,-27586.549,-21824.383,8984.66
887838.0832421732,-68603.15,-66554.98,10029.663,-4104.6553,-17918.133,-27586.182,-21822.674,8993.368
887838.087242169,-68601.04,-66549.44,10032.837,-4103.0273,-17904.826,-27583.863,-21821.209,8998.413
887838.0912421646,-68606.24,-66551.48,10032.593,-4103.475,-17900.717,-27583.008,-21824.545,8996.216
887838.0952421603,-68613.57,-66559.37,10030.151,-4105.9165,-17911.297,-27584.025,-21826.986,8992.31
887838.099242156,-68615.4,-66561.89,10029.257,-4108.236,-17916.545,-27584.352,-21823.486,8992.106
887838.1032421517,-68610.76,-66554.41,10029.013,-4108.7646,-17906.982,-27585.693,-21822.998,8992.147
887838.1072421474,-68610.07,-66555.586,10031.291,-4107.788,-17900.146,-27585.734,-21827.922,8988.322
887838.1112421431,-68601.766,-66563.56,10034.953,-4108.9683,-17926.27,-27583.008,-21822.47,8991.862
887838.1152421387,-68599.734,-66557.58,10036.581,-4105.306,-17920.98,-27582.969,-21824.3,8988.403
887838.1192421345,-68610.68,-66556.16,10031.576,-4104.37,-17923.096,-27583.904,-21826.66,8984.701
887838.1232421302,-68615.97,-66553.1,10031.698,-4104.2075,-17916.83,-27584.19,-21827.88,8982.26
887838.1272421259,-68612.96,-66556.16,10030.762,-4106.8525,-17912.03,-27583.213,-21829.143,8986.776
887838.1312421216,-68611.125,-66557.87,10034.18,-4106.5674,-17916.18,-27582.969,-21831.096,8988.403
887838.1352421172,-68616.62,-66557.5,10033.407,-4105.876,-17918.172,-27584.555,-21837.158,8972.656
887838.139242113,-68618.94,-66558.88,10030.884,-4106.9336,-17924.48,-27583.984,-21833.66,8978.027
887838.1432421086,-68622.234,-66568.65,10027.629,-4107.666,-17922.648,-27583.578,-21831.992,8979.818
887838.1472421044,-68624.35,-66572.35,10033.0,-4110.0264,-17917.562,-27582.44,-21830.283,8980.469
887838.1512421,-68617.02,-66559.164,10041.26,-4107.3,-17906.291,-27581.422,-21823.895,8996.216
887838.1552420957,-68620.81,-66564.25,10036.581,-4107.91,-17908.855,-27582.44,-21829.998,8984.335
887838.1592420915,-68623.66,-66566.04,10031.901,-4108.2764,-17914.062,-27582.44,-21832.643,8975.261
887838.1632420871,-68627.41,-66565.59,10032.309,-4107.8696,-17909.506,-27583.416,-21834.88,8976.278
887838.1672420829,-68626.47,-66565.23,10030.64,-4107.3,-17897.055,-27584.19,-21835.775,8982.056
887838.1712420785,-68624.92,-66564.375,10034.302,-4108.358,-17904.908,-27583.822,-21836.02,8980.429
887838.1752420742,-68623.82,-66562.79,10036.743,-4106.9336,-17906.453,-27584.514,-21838.746,8973.877
887838.17924207,-68624.96,-66564.82,10033.163,-4107.788,-17911.256,-27586.346,-21840.943,8974.365
887838.1832420656,-68626.99,-66568.52,10035.034,-4109.416,-17917.562,-27586.06,-21837.12,8982.097
887838.1872420614,-68623.05,-66566.33,10038.615,-4107.829,-17908.203,-27582.236,-21832.113,8986.532
887838.191242057,-68626.38,-66569.09,10037.395,-4109.009,-17910.28,-27580.852,-21835.287,8979.208
887838.1952420527,-68619.02,-66564.91,10044.067,-4106.6895,-17907.146,-27581.992,-21836.102,8983.398
887838.1992420484,-68621.42,-66561.73,10031.372,-4108.5205,-17919.76,-27581.219,-21833.578,8982.463
887838.2032420441,-68624.516,-66567.22,10027.507,-4109.782,-17913.086,-27583.416,-21835.41,8984.863
887838.2072420398,-68620.32,-66571.74,10031.901,-4109.497,-17899.943,-27582.805,-21838.99,8980.673
887838.2112420355,-68610.88,-66565.72,10034.75,-4110.759,-17910.035,-27579.916,-21834.27,8988.811
887838.2152420311,-68613.53,-66572.1,10032.349,-4112.02,-17917.604,-27581.666,-21836.793,8981.527
887838.2192420269,-68612.63,-66571.9,10033.447,-4108.9683,-17919.8,-27582.357,-21832.398,8989.502
887838.2232420226,-68603.11,-66566.2,10039.877,-4106.9746,-17923.137,-27583.457,-21830.566,8988.241
887838.2272420182,-68606.164,-66566.29,10044.719,-4107.463,-17916.83,-27583.457,-21836.387,8981.771
887838.231242014,-68609.055,-66564.7,10036.825,-4107.015,-17906.25,-27583.701,-21839.764,8983.887
887838.2352420096,-68617.27,-66569.17,10030.559,-4106.9336,-17908.65,-27585.002,-21845.256,8973.511
887838.2392420054,-68617.44,-66565.88,10034.099,-4105.9165,-17921.713,-27582.031,-21837.688,8981.242
887838.243242001,-68618.164,-66570.27,10037.761,-4106.405,-17927.328,-27580.404,-21828.898,8995.483
887838.2472419967,-68621.3,-66579.59,10034.872,-4109.05,-17919.598,-27578.29,-21827.19,8994.101
887838.2512419925,-68620.57,-66580.65,10035.808,-4106.8115,-17908.814,-27579.387,-21831.707,8989.868
887838.2552419881,-68615.36,-66575.805,10041.016,-4103.882,-17916.748,-27579.102,-21826.54,8997.885
887838.2592419839,-68620.28,-66578.86,10038.778,-4106.201,-17931.275,-27581.504,-21831.178,8990.52
887838.2632419795,-68621.586,-66569.42,10035.116,-4106.6895,-17930.502,-27581.625,-21829.875,8986.9795
887838.2672419752,-68620.16,-66564.086,10034.628,-4104.004,-17910.604,-27580.12,-21829.55,8986.125
887838.271241971,-68618.125,-66566.94,10042.074,-4102.173,-17905.314,-27577.922,-21830.322,8987.753
887838.2752419666,-68616.46,-66566.98,10040.976,-4101.074,-17922.363,-27577.963,-21828.29,8991.537
887838.2792419624,-68624.8,-66573.37,10038.696,-4101.4814,-17932.332,-27577.76,-21826.66,8996.989
887838.283241958,-68617.88,-66575.28,10048.666,-4100.627,-17933.229,-27577.148,-21824.383,8998.088
887838.2872419537,-68618.125,-66578.53,10048.584,-4102.458,-17932.7,-27577.719,-21826.254,8998.332
887838.2912419494,-68610.39,-66563.07,10046.347,-4099.162,-17918.865,-27576.621,-21819.662,9012.411
887838.2952419451,-68610.39,-66559.61,10048.462,-4096.965,-17916.139,-27576.54,-21820.068,9014.445
887838.2992419408,-68612.96,-66562.54,10043.701,-4098.0635,-17929.89,-27576.498,-21821.453,9009.807
887838.3032419365,-68615.484,-66565.266,10048.95,-4098.552,-17938.6,-27576.172,-21821.656,9006.43
887838.3072419321,-68620.484,-66571.82,10051.514,-4100.2197,-17940.35,-27576.904,-21828.98,8993.896
887838.3112419279,-68622.11,-66576.5,10053.142,-4101.522,-17939.373,-27576.213,-21831.38,8993.286
887838.3152419236,-68613.41,-66565.8,10049.846,-4095.2964,-17934.814,-27575.48,-21818.115,9013.388
887838.3192419193,-68614.18,-66565.63,10049.4795,-4093.0583,-17937.176,-27577.148,-21822.186,9004.68
887838.323241915,-68617.92,-66571.74,10052.084,-4095.2556,-17934.49,-27578.777,-21827.8,8993.368
887838.3272419106,-68612.836,-66571.125,10055.583,-4097.86,-17946.33,-27576.986,-21823.61,9003.662
887838.3312419064,-68610.31,-66575.16,10054.199,-4097.29,-17940.553,-27577.148,-21823.61,9003.093
887838.335241902,-68616.21,-66572.96,10050.985,-4096.965,-17941.162,-27578.086,-21828.29,8996.135
887838.3392418978,-68622.805,-66573.65,10053.101,-4098.755,-17948.242,-27578.166,-21828.29,8994.385
887838.3432418935,-68615.32,-66564.54,10058.228,-4096.1104,-17937.582,-27576.783,-21819.824,9005.249
887838.3472418891,-68615.4,-66564.82,10058.146,-4096.924,-17936.564,-27576.295,-21818.809,9010.336
887838.3512418849,-68613.53,-66561.08,10056.03,-4097.575,-17934.611,-27572.062,-21817.059,9012.004
887838.3552418805,-68611.45,-66563.36,10055.705,-4095.2556,-17943.28,-27572.877,-21815.268,9016.4795
887838.3592418763,-68614.46,-66569.5,10050.944,-4097.331,-17949.3,-27576.701,-21818.97,9013.51
887838.3632418719,-68616.78,-66572.516,10050.985,-4098.2666,-17945.842,-27577.23,-21822.754,9008.749
887838.3672418676,-68619.71,-66574.586,10049.805,-4098.877,-17930.543,-27575.766,-21826.133,8996.826
887838.3712418634,-68625.86,-66576.74,10056.071,-4099.569,-17923.951,-27574.342,-21828.451,9002.93
887838.375241859,-68619.02,-66570.07,10064.941,-4095.6218,-17923.422,-27574.627,-21821.127,9006.511
887838.3792418548,-68617.02,-66566.2,10048.056,-4095.3372,-17923.34,-27575.156,-21817.588,9007.568
887838.3832418504,-68618.62,-66568.56,10049.805,-4095.866,-17922.322,-27577.148,-21821.615,9002.035
887838.3872418461,-68615.805,-66562.38,10059.367,-4094.1165,-17935.14,-27576.172,-21822.55,9003.825
887838.3912418418,-68615.805,-66567.22,10061.157,-4095.7847,-17927.125,-27576.783,-21823.895,9007.202
887838.3952418375,-68620.89,-66577.4,10055.868,-4097.86,-17929.078,-27577.598,-21825.807,9002.727
887838.3992418332,-68617.92,-66571.17,10053.305,-4096.029,-17933.105,-27577.11,-21825.645,9002.849
887838.4032418289,-68614.87,-66566.445,10058.35,-4093.9128,-17927.816,-27576.58,-21822.227,9003.134
887838.4072418245,-68617.92,-66573.9,10046.957,-4098.0635,-17932.496,-27574.545,-21824.18,9002.563
887838.4112418203,-68613.65,-66573.08,10054.647,-4097.8193,-17923.787,-27571.777,-21821.9,9007.731
887838.415241816,-68616.54,-66574.67,10052.002,-4097.6562,-17914.795,-27573.691,-21826.05,9006.226
887838.4192418117,-68615.07,-66574.67,10055.99,-4097.575,-17944.744,-27572.51,-21818.809,9015.219
887838.4232418074,-68617.8,-66576.945,10055.868,-4098.1445,-17949.748,-27573.162,-21817.1,9015.422
887838.427241803,-68610.555,-66570.64,10061.564,-4097.046,-17932.414,-27573.936,-21814.129,9029.907
887838.4312417988,-68609.945,-66568.766,10065.308,-4097.2495,-17922.81,-27573.895,-21819.092,9022.095
887838.4352417944,-68614.38,-66571.29,10060.791,-4097.9004,-17929.932,-27574.057,-21824.383,9010.742
887838.4392417902,-68615.93,-66567.1,10065.023,-4095.7034,-17938.72,-27576.05,-21822.348,9011.353
887838.4432417859,-68622.48,-66576.46,10067.343,-4098.918,-17939.088,-27575.115,-21823.568,9008.017
887838.4472417815,-68614.46,-66562.42,10055.502,-4098.5923,-17930.379,-27571.982,-21814.332,9020.142
887838.4512417773,-68615.52,-66560.06,10064.413,-4096.273,-17930.867,-27572.062,-21817.588,9011.3125
887838.4552417729,-68620.37,-66572.266,10059.611,-4099.447,-17943.197,-27572.998,-21821.86,8996.704
887838.4592417687,-68618.414,-66576.21,10058.269,-4098.552,-17941.977,-27577.271,-21823.203,8995.81
887838.4632417643,-68617.64,-66573.85,10059.855,-4098.918,-17947.062,-27576.54,-21818.564,9002.6455
887838.46724176,-68615.97,-66571.54,10061.401,-4097.738,-17938.232,-27572.877,-21812.623,9019.206
887838.4712417558,-68621.016,-66578.94,10059.57,-4099.3247,-17930.46,-27573.61,-21819.053,9017.375
887838.4752417514,-68625.25,-66581.38,10063.029,-4100.0166,-17950.154,-27572.104,-21822.389,9004.191
887838.4792417472,-68627.89,-66577.516,10056.926,-4098.1855,-17951.904,-27572.877,-21818.768,9009.481
887838.4832417428,-68626.99,-66573.81,10061.401,-4097.046,-17953.125,-27572.389,-21815.43,9016.887
887838.4872417385,-68620.85,-66573.61,10066.8545,-4097.86,-17946.736,-27570.557,-21812.623,9022.868
887838.4912417342,-68616.58,-66577.27,10066.244,-4099.365,-17941.447,-27570.557,-21815.635,9015.056
887838.4952417299,-68618.695,-66582.69,10071.737,-4098.918,-17946.533,-27570.15,-21817.588,9012.411
887838.4992417257,-68619.71,-66575.69,10062.256,-4097.575,-17945.436,-27570.965,-21812.785,9015.097
887838.5032417213,-68624.31,-66573.125,10057.251,-4096.3135,-17939.82,-27570.68,-21814.25,9008.505
887838.507241717,-68632.81,-66584.76,10060.832,-4099.284,-17944.662,-27569.744,-21820.965,9003.662
887838.5112417127,-68628.7,-66588.79,10066.8545,-4097.86,-17942.953,-27568.238,-21821.86,9009.848
887838.5152417084,-68618.05,-66579.23,10070.028,-4093.7908,-17945.068,-27567.791,-21815.47,9020.874
887838.5192417041,-68619.18,-66580.08,10062.622,-4096.0693,-17944.662,-27569.336,-21818.604,9014.242
887838.5232416998,-68612.14,-66575.69,10069.987,-4095.9475,-17951.54,-27567.547,-21816.162,9018.066
887838.5272416954,-68611.086,-66575.03,10075.399,-4094.279,-17940.512,-27565.959,-21815.553,9019.775
887838.5312416912,-68610.72,-66573.2,10075.684,-4094.9302,-17932.576,-27565.39,-21819.012,9016.235
887838.5352416869,-68622.195,-66577.35,10074.626,-4096.761,-17939.9,-27567.791,-21827.88,9000.326
887838.5392416826,-68617.31,-66573.65,10075.399,-4092.57,-17942.871,-27568.441,-21823.08,9006.999
887838.5432416783,-68614.664,-66580.08,10072.795,-4092.8958,-17937.176,-27567.832,-21819.336,9017.334
887838.5472416739,-68613.28,-66580.65,10078.085,-4094.9302,-17941.0,-27568.035,-21817.547,9019.694
887838.5512416697,-68617.23,-66584.76,10080.119,-4096.802,-17948.08,-27569.053,-21824.098,9002.523
887838.5552416653,-68616.664,-66584.59,10079.184,-4095.744,-17953.328,-27570.477,-21823.162,9014.73
887838.5592416611,-68619.06,-66582.484,10070.435,-4094.0757,-17953.736,-27572.145,-21823.73,9010.864
887838.5632416568,-68618.86,-66575.4,10074.016,-4091.431,-17940.594,-27570.557,-21823.162,9008.83
887838.5672416524,-68615.73,-66578.25,10083.944,-4091.675,-17942.059,-27568.035,-21819.703,9019.247
887838.5712416482,-68610.44,-66576.3,10083.456,-4092.733,-17936.89,-27567.791,-21822.998,9020.915
887838.5752416438,-68617.19,-66576.42,10078.776,-4093.4653,-17943.156,-27567.383,-21826.904,9015.219
887838.5792416396,-68628.18,-66584.31,10073.161,-4094.808,-17954.387,-27567.22,-21829.55,9006.063
887838.5832416352,-68622.234,-66576.58,10078.451,-4093.0178,-17940.47,-27570.232,-21828.086,9007.528
887838.5872416309,-68613.57,-66574.47,10088.908,-4091.3901,-17936.727,-27567.139,-21822.918,9016.073
887838.5912416267,-68612.23,-66578.125,10090.251,-4092.5295,-17932.008,-27566.611,-21827.19,9012.777
887838.5952416223,-68613.69,-66578.49,10085.979,-4093.5874,-17942.342,-27563.965,-21823.73,9012.777
887838.5992416181,-68616.375,-66576.055,10084.555,-4091.3494,-17947.469,-27564.658,-21820.72,9009.929
887838.6032416137,-68622.52,-66580.04,10087.036,-4091.9192,-17941.977,-27568.32,-21823.854,9010.986
887838.6072416094,-68621.664,-66578.734,10092.692,-4092.6516,-17937.256,-27567.383,-21821.941,9021.811
887838.6112416051,-68614.71,-66574.67,10093.14,-4090.1287,-17935.059,-27564.861,-21821.574,9020.305
887838.6152416008,-68611.33,-66580.77,10089.56,-4090.2102,-17942.668,-27564.738,-21823.936,9012.004
887838.6192415965,-68616.62,-66586.19,10087.932,-4092.0413,-17950.398,-27566.162,-21826.254,9008.342
887838.6232415922,-68612.96,-66582.93,10095.581,-4090.8206,-17943.768,-27567.791,-21823.406,9014.364
887838.6272415878,-68611.9,-66581.305,10094.971,-4091.0647,-17939.982,-27566.203,-21824.139,9013.591
887838.6312415836,-68611.164,-66580.12,10096.3955,-4091.8376,-17942.098,-27564.941,-21826.295,9013.713
887838.6352415793,-68607.83,-66576.625,10099.406,-4091.5935,-17943.4,-27565.674,-21824.545,9016.4795
887838.639241575,-68606.53,-66576.09,10098.755,-4090.9426,-17942.586,-27564.576,-21817.1,9016.073
887838.6432415707,-68608.08,-66577.76,10099.854,-4091.3494,-17941.162,-27567.18,-21820.232,9011.149
887838.6472415663,-68612.63,-66583.13,10099.487,-4093.262,-17937.094,-27565.838,-21821.33,9014.201
887838.6512415621,-68614.55,-66585.37,10100.22,-4094.279,-17932.781,-27565.105,-21822.47,9019.735
887838.6552415577,-68602.625,-66575.52,10108.154,-4090.1287,-17935.71,-27565.227,-21812.297,9033.244
887838.6592415535,-68603.6,-66570.88,10108.765,-4089.844,-17950.928,-27564.861,-21809.49,9032.756
887838.6632415492,-68601.445,-66559.164,10111.125,-4086.0598,-17935.506,-27565.064,-21809.123,9035.319
887838.6672415448,-68601.445,-66563.27,10101.156,-4088.8267,-17922.607,-27564.373,-21810.508,9035.36
887838.6712415406,-68602.055,-66569.87,10105.998,-4089.966,-17926.107,-27562.95,-21812.826,9032.919
887838.6752415362,-68603.48,-66573.41,10105.917,-4090.9426,-17934.938,-27564.006,-21816.773,9021.77
887838.679241532,-68607.67,-66577.516,10104.492,-4092.7737,-17945.516,-27565.838,-21818.238,9016.4795
887838.6832415276,-68610.11,-66583.13,10106.486,-4094.1165,-17945.72,-27565.715,-21819.256,9012.98
887838.6872415233,-68599.695,-66575.03,10106.771,-4092.8958,-17936.85,-27561.158,-21811.768,9022.38
887838.6912415191,-68597.086,-66571.21,10109.823,-4090.6577,-17930.014,-27561.361,-21809.326,9031.128
887838.6952415147,-68604.62,-66579.23,10106.242,-4089.2742,-17924.154,-27564.861,-21813.438,9025.1875
887838.6992415105,-68604.414,-66592.66,10104.248,-4089.4778,-17933.432,-27567.547,-21813.72,9023.682
887838.7032415061,-68605.19,-66599.125,10102.539,-4090.9426,-17930.258,-27569.092,-21814.941,9022.299
887838.7072415018,-68599.41,-66597.21,10110.637,-4091.8784,-17932.576,-27569.133,-21817.383,9022.014
887838.7112414975,-68598.47,-66598.63,10114.421,-4091.268,-17929.24,-27568.97,-21820.68,9018.026
887838.7152414932,-68591.48,-66590.13,10105.347,-4088.6638,-17928.223,-27565.553,-21812.256,9024.577
887838.719241489,-68587.65,-66580.61,10114.096,-4088.257,-17936.727,-27563.152,-21807.334,9029.175
887838.7232414846,-68577.4,-66581.586,10120.891,-4086.426,-17934.408,-27564.373,-21810.832,9027.67
887838.7272414803,-68572.47,-66576.375,10119.182,-4085.7341,-17922.404,-27566.041,-21813.518,9024.008
887838.731241476,-68568.16,-66572.96,10117.065,-4086.9143,-17910.604,-27565.47,-21817.668,9020.712
887838.7352414717,-68562.3,-66566.49,10120.483,-4085.3274,-17911.297,-27566.57,-21822.104,9011.149
887838.7392414674,-68550.91,-66546.8,10118.449,-4083.3743,-17927.572,-27569.58,-21826.621,9004.477
887838.7432414631,-68545.78,-66535.61,10116.821,-4081.5837,-17913.697,-27575.604,-21834.066,9004.761
887838.7472414587,-68520.19,-66501.95,10129.436,-4077.7183,-17908.326,-27573.73,-21826.05,9021.933
887838.7512414545,-68502.69,-66481.94,10140.625,-4076.0906,-17899.617,-27573.691,-21829.102,9009.033
887838.7552414502,-68487.02,-66465.01,10134.726,-4072.9575,-17908.162,-27576.54,-21830.934,9007.8125
887838.7592414459,-68474.57,-66450.08,10142.985,-4067.9526,-17908.041,-27577.271,-21832.357,8998.454
887838.7632414416,-68468.02,-66441.086,10142.741,-4066.2437,-17901.246,-27574.79,-21826.092,9007.284
887838.7672414372,-68475.79,-66447.43,10142.944,-4069.4583,-17902.02,-27573.283,-21827.354,9003.378
887838.771241433,-68463.625,-66436.445,10149.496,-4068.9292,-17902.385,-27572.186,-21824.383,9008.545
887838.7752414286,-68450.16,-66427.29,10146.933,-4069.3767,-17898.152,-27570.762,-21823.324,9010.01
887838.7792414244,-68453.984,-66433.31,10145.427,-4067.139,-17898.193,-27574.219,-21831.543,8991.293
887838.78324142,-68467.77,-66445.195,10146.566,-4069.7837,-17909.383,-27575.4,-21832.725,8991.13
887838.7872414157,-68463.7,-66443.93,10151.53,-4070.5974,-17911.215,-27578.086,-21837.81,8985.759
887838.7912414115,-68468.266,-66449.26,10152.954,-4069.5396,-17909.059,-27579.307,-21845.379,8981.486
887838.7952414071,-68471.97,-66451.46,10138.347,-4069.2954,-17909.791,-27579.795,-21845.012,8978.027
887838.7992414029,-68480.67,-66458.13,10136.149,-4070.679,-17907.715,-27579.143,-21843.018,8983.48
887838.8032413985,-68487.34,-66467.49,10136.475,-4074.097,-17912.436,-27575.766,-21835.246,8996.867
887838.8072413942,-68489.34,-66474.61,10140.747,-4075.9685,-17906.291,-27572.998,-21830.607,9000.651
887838.81124139,-68495.77,-66486.45,10144.694,-4077.3928,-17898.234,-27570.477,-21829.266,9002.238
887838.8152413856,-68507.53,-66498.375,10139.201,-4079.468,-17907.268,-27569.459,-21825.4,9010.539
887838.8192413814,-68517.91,-66506.8,10137.085,-4080.6887,-17913.656,-27571.9,-21822.47,9017.741
887838.823241377,-68520.39,-66517.375,10137.126,-4083.1301,-17926.88,-27569.58,-21817.832,9018.066
887838.8272413727,-68521.37,-66521.89,10139.486,-4084.3508,-17915.73,-27566.367,-21811.646,9024.008
887838.8312413684,-68524.82,-66519.25,10136.557,-4085.775,-17903.605,-27566.488,-21809.896,9025.229
887838.8352413641,-68538.62,-66535.65,10130.534,-4087.4026,-17902.385,-27568.604,-21817.912,9014.608
887838.8392413598,-68534.55,-66538.74,10126.913,-4086.548,-17912.639,-27567.994,-21813.6,9018.759
887838.8432413555,-68534.71,-66542.36,10132.365,-4086.1003,-17917.521,-27566.855,-21810.71,9027.954
887838.8472413511,-68538.74,-66544.35,10136.841,-4086.8735,-17914.307,-27567.018,-21810.955,9032.634
887838.8512413469,-68551.11,-66556.48,10138.876,-4087.7688,-17915.324,-27566.367,-21810.955,9029.135
887838.8552413426,-68557.82,-66561.28,10136.108,-4086.5886,-17904.826,-27568.809,-21813.438,9021.851
887838.8592413383,-68558.8,-66561.36,10134.726,-4087.484,-17905.518,-27568.889,-21808.758,9027.629
887838.863241334,-68561.65,-66559.82,10133.383,-4088.9895,-17914.55,-27568.727,-21805.217,9032.797
887838.8672413296,-68565.31,-66564.414,10134.644,-4089.1929,-17909.018,-27565.756,-21806.316,9032.715
887838.8712413254,-68572.875,-66575.56,10133.22,-4091.3901,-17909.627,-27565.797,-21810.832,9035.563
887838.875241321,-68582.805,-66585.05,10139.689,-4093.3025,-17918.904,-27567.383,-21812.42,9031.698
887838.8792413168,-68577.555,-66581.51,10137.37,-4091.7563,-17923.584,-27567.1,-21806.193,9036.703
887838.8832413125,-68580.33,-66580.69,10136.638,-4092.2039,-17926.025,-27564.861,-21803.346,9044.516
887838.8872413081,-68581.016,-66577.15,10135.905,-4092.977,-17913.25,-27564.738,-21798.057,9057.373
887838.8912413039,-68585.9,-66581.51,10131.592,-4093.384,-17910.28,-27566.406,-21804.77,9039.958
887838.8952412995,-68592.49,-66592.81,10131.145,-4093.9536,-17921.63,-27565.959,-21809.082,9031.454
887838.8992412953,-68590.74,-66595.22,10131.877,-4092.977,-17917.033,-27566.447,-21806.479,9032.837
887838.903241291,-68590.984,-66596.4,10137.207,-4093.3025,-17920.004,-27567.791,-21807.293,9027.426
887838.9072412866,-68597.66,-66603.44,10146.444,-4094.1978,-17925.252,-27567.1,-21808.514,9032.756
887838.9112412824,-68593.51,-66597.945,10139.689,-4093.14,-17916.342,-27565.064,-21804.443,9035.034
887838.915241278,-68594.32,-66595.91,10131.552,-4092.1633,-17918.865,-27563.355,-21798.137,9039.511
887838.9192412738,-68598.35,-66595.625,10131.552,-4093.3025,-17929.525,-27561.688,-21797.648,9041.382
887838.9232412694,-68605.43,-66598.02,10135.824,-4095.7034,-17928.914,-27560.832,-21799.725,9043.213
887838.9272412651,-68605.555,-66604.9,10141.765,-4095.9475,-17921.428,-27560.264,-21797.363,9048.584
887838.9312412608,-68602.42,-66611.86,10141.154,-4097.982,-17924.969,-27557.293,-21795.492,9043.945
887838.9352412565,-68600.305,-66606.65,10141.968,-4095.9067,-17920.41,-27561.605,-21798.463,9044.149
887838.9392412523,-68608.4,-66609.5,10137.98,-4096.639,-17914.062,-27565.146,-21806.031,9035.156
887838.9432412479,-68611.125,-66616.17,10136.638,-4098.755,-17927.37,-27565.43,-21804.404,9035.767
887838.9472412436,-68607.55,-66612.63,10140.991,-4096.4766,-17920.29,-27565.47,-21799.48,9050.375
887838.9512412393,-68608.03,-66612.555,10148.112,-4096.761,-17919.19,-27564.332,-21801.066,9051.555
887838.955241235,-68613.65,-66615.07,10145.793,-4097.9004,-17916.748,-27565.309,-21805.543,9047.485
887838.9592412307,-68615.6,-66615.766,10131.836,-4099.6504,-17926.19,-27564.25,-21803.346,9050.537
887838.9632412264,-68612.23,-66619.14,10142.009,-4098.5923,-17930.543,-27561.117,-21800.375,9048.503
887838.967241222,-68608.93,-66615.4,10145.59,-4099.243,-17927.49,-27559.855,-21796.916,9051.2295
887838.9712412178,-68608.73,-66616.5,10148.845,-4097.453,-17914.674,-27561.729,-21799.033,9044.027
887838.9752412135,-68609.3,-66617.516,10148.967,-4096.7207,-17918.865,-27562.217,-21801.148,9045.939
887838.9792412092,-68611.53,-66616.414,10141.357,-4096.761,-17921.875,-27562.217,-21799.602,9053.264
887838.9832412049,-68616.3,-66622.36,10142.578,-4098.3887,-17925.375,-27564.047,-21806.152,9041.179
887838.9872412005,-68622.52,-66625.45,10145.305,-4100.993,-17932.781,-27566.814,-21812.053,9034.668
887838.9912411963,-68620.89,-66620.04,10145.874,-4099.162,-17921.55,-27562.95,-21804.12,9055.705
887838.9952411919,-68615.27,-66618.82,10152.1,-4096.965,-17922.566,-27561.484,-21798.992,9059.164
887838.9992411877,-68616.5,-66620.65,10142.05,-4097.9414,-17924.236,-27563.314,-21801.025,9047.404
887839.0032411834,-68615.73,-66623.336,10152.954,-4098.348,-17921.63,-27562.135,-21803.06,9038.086
887839.007241179,-68614.625,-66619.47,10150.106,-4099.6094,-17926.27,-27557.373,-21794.8,9053.223
887839.0112411748,-68606.28,-66610.27,10157.593,-4094.564,-17915.04,-27557.414,-21787.965,9066.528
887839.0152411704,-68613.445,-66620.57,10151.896,-4097.209,-17913.941,-27562.42,-21801.596,9044.434
887839.0192411662,-68624.72,-66632.29,10144.938,-4099.935,-17920.086,-27561.688,-21806.275,9040.08
887839.0232411618,-68623.21,-66627.52,10146.24,-4100.586,-17921.795,-27559.164,-21802.246,9046.753
887839.0272411575,-68624.96,-66632.695,10153.036,-4100.1387,-17931.52,-27558.146,-21798.91,9045.044
887839.0312411533,-68626.266,-66637.05,10160.767,-4099.162,-17926.473,-27559.979,-21801.799,9040.649
887839.0352411489,-68626.47,-66636.555,10144.084,-4099.7725,-17924.031,-27557.822,-21799.846,9042.847
887839.0392411447,-68628.18,-66641.85,10144.613,-4098.552,-17923.666,-27562.094,-21805.38,9031.494
887839.0432411403,-68625.81,-66638.02,10146.77,-4097.738,-17929.443,-27562.094,-21801.23,9040.894
887839.047241136,-68623.7,-66637.21,10152.914,-4098.8364,-17931.967,-27558.635,-21798.38,9040.324
887839.0512411317,-68623.414,-66637.78,10158.122,-4098.999,-17919.475,-27558.473,-21797.893,9038.534
887839.0552411274,-68622.195,-66634.04,10160.075,-4097.982,-17915.527,-27559.164,-21800.293,9043.62
887839.0592411231,-68624.35,-66635.17,10157.064,-4099.0806,-17925.09,-27560.1,-21806.52,9037.761
887839.0632411188,-68628.42,-66640.586,10163.615,-4097.412,-17928.223,-27560.223,-21806.275,9032.593
887839.0672411144,-68626.43,-66641.12,10158.122,-4098.9585,-17926.107,-27556.885,-21797.568,9049.194
887839.0712411102,-68628.38,-66644.05,10150.839,-4101.7256,-17915.61,-27557.455,-21799.195,9049.887
887839.0752411059,-68629.516,-66639.28,10157.837,-4099.3247,-17918.66,-27555.87,-21799.44,9046.143
887839.0792411016,-68627.41,-66636.805,10158.366,-4097.29,-17930.746,-27554.404,-21798.625,9041.87
887839.0832410973,-68624.35,-66637.05,10157.837,-4097.2495,-17928.63,-27556.479,-21800.742,9041.708
887839.0872410929,-68624.31,-66640.914,10155.192,-4097.6562,-17920.574,-27555.217,-21799.154,9039.958
887839.0912410887,-68629.11,-66640.38,10159.546,-4095.2964,-17909.871,-27555.42,-21795.451,9048.788
887839.0952410843,-68631.836,-66638.47,10158.651,-4095.9475,-17914.307,-27557.17,-21790.244,9055.583
887839.0992410801,-68636.27,-66642.83,10162.842,-4097.2495,-17925.66,-27557.049,-21792.277,9051.677
887839.1032410758,-68638.266,-66640.38,10157.187,-4099.935,-17923.178,-27556.031,-21793.174,9049.724
887839.1072410714,-68637.58,-66636.68,10160.686,-4100.1387,-17924.236,-27554.973,-21794.842,9051.352
887839.1112410672,-68633.79,-66633.875,10159.546,-4098.3076,-17908.285,-27553.752,-21792.156,9053.711
887839.1152410628,-68630.05,-66635.42,10166.098,-4096.924,-17915.121,-27553.549,-21791.504,9056.885
887839.1192410586,-68635.74,-66646.0,10158.732,-4099.691,-17927.246,-27555.787,-21800.498,9041.87
887839.1232410542,-68635.22,-66644.9,10156.942,-4098.674,-17910.645,-27555.625,-21799.887,9044.149
887839.1272410499,-68637.086,-66645.96,10158.203,-4101.8477,-17918.172,-27553.672,-21800.416,9040.854
887839.1312410457,-68632.04,-66647.586,10167.48,-4099.691,-17914.51,-27556.072,-21798.79,9042.033
887839.1352410413,-68633.016,-66648.44,10170.654,-4099.3247,-17922.04,-27554.973,-21799.846,9046.0205
887839.1392410371,-68629.07,-66644.29,10173.381,-4095.7034,-17916.3,-27557.21,-21801.596,9047.607
887839.1432410327,-68626.67,-66636.92,10169.597,-4095.8254,-17917.36,-27555.908,-21793.58,9058.1875
887839.1472410284,-68630.45,-66635.625,10172.648,-4095.4998,-17912.15,-27556.926,-21796.754,9050.863
887839.1512410241,-68627.61,-66637.9,10171.265,-4094.7268,-17903.2,-27554.2,-21793.865,9055.827
887839.1552410198,-68626.47,-66646.77,10170.41,-4097.534,-17917.807,-27554.12,-21792.115,9054.6875
887839.1592410156,-68632.65,-66646.65,10166.748,-4098.8364,-17921.184,-27554.932,-21796.55,9048.381
887839.1632410112,-68635.54,-66644.86,10167.644,-4098.226,-17915.812,-27556.723,-21799.602,9045.532
887839.1672410069,-68623.45,-66637.086,10174.276,-4095.4998,-17904.623,-27554.973,-21800.13,9045.776
887839.1712410026,-68624.96,-66641.32,10180.217,-4095.744,-17904.42,-27552.979,-21802.94,9045.126
887839.1752409983,-68621.13,-66634.04,10186.483,-4091.4714,-17899.537,-27554.81,-21802.287,9047.201
887839.179240994,-68622.4,-66636.03,10187.785,-4090.6577,-17908.895,-27559.002,-21805.705,9043.783
887839.1832409897,-68629.84,-66639.69,10174.154,-4092.0818,-17906.373,-27561.28,-21808.31,9039.226
887839.1872409853,-68627.04,-66629.72,10182.617,-4091.7563,-17908.936,-27556.926,-21795.574,9054.892
887839.1912409811,-68619.43,-66632.164,10179.851,-4093.9536,-17907.959,-27553.549,-21785.238,9072.429
887839.1952409768,-68618.86,-66631.836,10181.071,-4093.506,-17912.395,-27551.514,-21782.146,9075.236
887839.1992409725,-68619.02,-66631.555,10179.281,-4092.2446,-17901.164,-27550.01,-21781.006,9076.05
887839.2032409682,-68621.26,-66635.87,10182.373,-4093.7095,-17908.488,-27548.137,-21779.258,9067.221
887839.2072409638,-68620.24,-66633.625,10189.941,-4093.099,-17899.984,-27550.701,-21780.396,9054.932
887839.2112409596,-68622.6,-66632.164,10182.048,-4094.1978,-17893.148,-27551.84,-21785.482,9049.643
887839.2152409552,-68633.22,-66642.26,10179.443,-4094.1978,-17896.037,-27553.264,-21794.395,9041.26
887839.219240951,-68632.37,-66645.914,10179.892,-4095.5405,-17913.168,-27557.822,-21799.154,9039.877
887839.2232409467,-68625.66,-66641.97,10183.024,-4093.262,-17916.951,-27557.455,-21795.004,9049.927
887839.2272409423,-68626.266,-66646.77,10192.749,-4092.448,-17908.895,-27556.52,-21793.457,9055.908
887839.2312409381,-68620.69,-66644.37,10188.11,-4092.0005,-17901.531,-27554.404,-21786.541,9072.348
887839.2352409337,-68625.0,-66641.73,10195.231,-4090.4949,-17905.965,-27553.143,-21788.615,9074.423
887839.2392409295,-68629.516,-66640.79,10187.297,-4092.2854,-17910.36,-27552.207,-21785.156,9073.935
887839.2432409251,-68628.016,-66642.09,10187.866,-4092.855,-17903.809,-27552.979,-21784.953,9070.923
887839.2472409208,-68629.27,-66635.42,10191.406,-4092.855,-17899.537,-27551.88,-21787.314,9065.43
887839.2512409166,-68627.73,-66632.65,10197.998,-4092.733,-17903.402,-27551.107,-21786.459,9059.896
887839.2552409122,-68629.92,-66641.08,10186.931,-4095.2964,-17904.664,-27553.549,-21788.291,9062.175
887839.259240908,-68624.31,-66636.31,10188.11,-4092.0413,-17907.309,-27555.787,-21790.854,9060.629
887839.2632409036,-68633.51,-66643.805,10195.923,-4092.1226,-17905.111,-27559.693,-21801.719,9047.7705
887839.2672408993,-68628.18,-66638.23,10190.063,-4091.1052,-17901.611,-27561.2,-21797.16,9055.542
887839.271240895,-68626.67,-66641.484,10190.593,-4091.675,-17904.541,-27557.334,-21795.248,9060.588
887839.2752408907,-68630.82,-66640.99,10192.912,-4091.5935,-17905.762,-27554.729,-21790.08,9065.796
887839.2792408864,-68636.92,-66641.805,10188.64,-4095.9475,-17916.016,-27555.34,-21793.377,9060.263
887839.2832408821,-68625.66,-66635.3,10198.527,-4091.8784,-17903.809,-27552.775,-21788.168,9054.851
887839.2872408777,-68628.87,-66643.234,10202.23,-4094.686,-17915.162,-27551.148,-21786.377,9056.193
887839.2912408735,-68632.77,-66649.45,10202.189,-4097.982,-17908.406,-27550.09,-21783.0,9057.699
887839.2952408692,-68630.945,-66644.86,10188.437,-4097.453,-17905.72,-27549.928,-21778.402,9062.744
887839.2992408649,-68633.305,-66646.08,10185.1,-4097.209,-17907.635,-27551.23,-21777.549,9059.408
887839.3032408606,-68636.234,-66644.25,10194.255,-4096.5576,-17911.336,-27552.734,-21778.117,9057.902
887839.3072408562,-68640.14,-66649.01,10195.028,-4099.162,-17917.766,-27552.816,-21786.906,9050.049
887839.311240852,-68635.945,-66646.57,10200.766,-4097.2495,-17906.738,-27556.64,-21796.184,9045.004
887839.3152408476,-68629.72,-66638.875,10199.748,-4090.617,-17886.598,-27558.229,-21798.3,9045.288
887839.3192408434,-68628.336,-66635.22,10197.795,-4091.431,-17898.764,-27556.275,-21795.207,9049.235
887839.3232408391,-68631.67,-66638.35,10200.562,-4092.6921,-17910.645,-27557.984,-21798.584,9052.979
887839.3272408347,-68632.37,-66638.96,10203.9795,-4090.3728,-17898.723,-27558.555,-21803.346,9039.551
887839.3312408305,-68636.15,-66646.41,10206.95,-4091.3088,-17903.361,-27559.979,-21803.63,9040.935
887839.3352408261,-68641.6,-66657.68,10201.66,-4091.675,-17903.646,-27563.762,-21809.45,9036.865
887839.3392408219,-68642.83,-66656.336,10197.795,-4089.8845,-17903.484,-27564.332,-21809.611,9032.023
887839.3432408175,-68641.56,-66646.08,10198.324,-4090.0474,-17912.068,-27562.46,-21803.223,9043.945
887839.3472408132,-68640.305,-66648.73,10207.153,-4087.606,-17900.514,-27563.232,-21805.014,9039.226
887839.351240809,-68640.38,-66653.81,10206.747,-4089.5999,-17906.209,-27560.223,-21799.072,9042.236
887839.3552408046,-68647.42,-66658.24,10204.346,-4091.2273,-17907.553,-27556.56,-21801.555,9032.837
887839.3592408004,-68641.44,-66651.82,10209.229,-4089.8032,-17898.072,-27556.602,-21796.428,9041.179
887839.363240796,-68641.64,-66659.51,10208.334,-4092.0413,-17895.549,-27556.031,-21794.883,9047.363
887839.3672407917,-68642.54,-66661.83,10210.165,-4091.8784,-17897.95,-27556.64,-21793.092,9053.671
887839.3712407874,-68636.92,-66656.414,10220.215,-4088.2976,-17895.387,-27553.955,-21787.03,9065.1045
887839.3752407831,-68634.4,-66648.6,10219.482,-4086.6702,-17892.09,-27555.908,-21785.4,9062.012
887839.3792407789,-68643.84,-66655.48,10204.102,-4089.3962,-17890.016,-27557.537,-21790.0,9049.113
887839.3832407745,-68646.28,-66660.24,10208.049,-4089.966,-17893.025,-27557.781,-21792.197,9047.7705
887839.3872407702,-68637.66,-66657.39,10220.419,-4089.6404,-17905.803,-27553.955,-21785.441,9060.791
887839.3912407659,-68639.08,-66658.164,10222.412,-4091.675,-17904.338,-27552.898,-21788.78,9058.798
887839.3952407616,-68641.766,-66657.39,10212.973,-4091.146,-17890.951,-27553.143,-21795.654,9044.108
887839.3992407573,-68642.87,-66661.83,10212.769,-4092.57,-17908.367,-27551.393,-21793.336,9047.893
887839.403240753,-68636.805,-66647.26,10220.175,-4089.1929,-17896.81,-27552.41,-21789.633,9049.683
887839.4072407486,-68637.125,-66646.0,10223.837,-4092.0818,-17901.45,-27554.281,-21790.488,9049.235
887839.4112407444,-68640.79,-66653.89,10220.663,-4091.8376,-17894.49,-27553.955,-21789.307,9050.09
887839.41524074,-68642.62,-66658.0,10210.327,-4090.739,-17899.74,-27553.752,-21791.709,9050.253
887839.4192407358,-68645.266,-66666.14,10217.733,-4091.431,-17916.748,-27558.066,-21798.625,9040.976
887839.4232407315,-68650.555,-66664.47,10213.542,-4092.1226,-17908.244,-27560.629,-21804.77,9031.088
887839.4272407271,-68646.2,-66652.8,10222.128,-4089.0708,-17886.922,-27559.043,-21801.27,9038.534
887839.4312407229,-68647.586,-66659.22,10221.924,-4090.3323,-17886.434,-27560.996,-21805.502,9036.052
887839.4352407185,-68648.234,-66663.17,10225.952,-4090.3323,-17895.06,-27559.164,-21806.396,9030.07
887839.4392407143,-68644.086,-66660.52,10223.267,-4090.5356,-17909.994,-27556.56,-21801.719,9037.924
887839.44324071,-68643.88,-66663.414,10225.546,-4091.2273,-17907.146,-27556.52,-21800.904,9039.429
887839.4472407056,-68641.195,-66656.58,10227.133,-4091.268,-17897.625,-27554.24,-21799.072,9042.155
887839.4512407014,-68642.336,-66659.63,10238.403,-4091.3901,-17899.658,-27555.38,-21803.752,9037.395
887839.455240697,-68644.984,-66659.43,10228.19,-4089.7625,-17891.277,-27555.584,-21801.596,9043.579
887839.4592406927,-68642.62,-66657.516,10223.471,-4088.9895,-17904.135,-27555.176,-21797.201,9047.485
887839.4632406884,-68631.266,-66645.43,10235.84,-4085.0833,-17893.434,-27557.414,-21798.178,9050.009
887839.4672406841,-68631.63,-66647.99,10240.153,-4086.7922,-17889.812,-27556.52,-21796.104,9051.147
887839.4712406798,-68637.45,-66649.984,10241.089,-4088.908,-17894.125,-27554.77,-21794.434,9050.334
887839.4752406755,-68636.11,-66646.12,10240.845,-4088.786,-17893.637,-27553.672,-21792.156,9051.962
887839.4792406711,-68634.52,-66646.164,10233.48,-4088.8674,-17889.08,-27554.2,-21792.969,9046.469
887839.4832406669,-68632.57,-66652.43,10231.283,-4089.315,-17888.143,-27556.072,-21794.434,9046.103
887839.4872406626,-68631.19,-66651.695,10235.312,-4088.2163,-17883.465,-27555.38,-21795.94,9052.165
887839.4912406583,-68636.31,-66659.79,10243.693,-4088.4604,-17892.09,-27556.805,-21800.945,9041.87
887839.495240654,-68626.586,-66676.07,10252.279,-4085.5308,-17890.38,-27561.729,-21802.734,9045.736
887839.4992406496,-68630.29,-66688.805,10257.04,-4087.199,-17903.28,-27564.047,-21807.09,9040.283
887839.5032406454,-68634.08,-66692.836,10259.848,-4087.1584,-17908.162,-27563.965,-21806.805,9037.72
887839.507240641,-68626.51,-66693.195,10267.456,-4084.7576,-17897.908,-27563.844,-21802.166,9046.672
887839.5112406368,-68627.16,-66697.8,10276.001,-4084.2693,-17887.248,-27564.861,-21805.502,9046.957
887839.5152406325,-68627.484,-66692.95,10271.24,-4086.2632,-17898.846,-27560.508,-21802.857,9043.132
887839.5192406281,-68626.06,-66684.82,10279.582,-4083.2927,-17896.688,-27560.873,-21803.955,9035.6045
887839.5232406239,-68631.43,-66699.75,10281.942,-4086.426,-17900.146,-27561.28,-21805.99,9030.111
887839.5272406195,-68638.47,-66708.54,10283.569,-4090.861,-17912.557,-27558.799,-21803.752,9033.081
887839.5312406153,-68641.28,-66705.28,10287.517,-4091.431,-17910.197,-27559.367,-21803.387,9038.249
887839.535240611,-68633.914,-66701.83,10298.91,-4085.7341,-17898.64,-27560.1,-21799.48,9042.44
887839.5392406066,-68640.51,-66709.19,10304.321,-4086.9956,-17906.82,-27559.814,-21804.24,9034.953
887839.5432406024,-68632.24,-66705.89,10315.552,-4086.3853,-17899.861,-27562.297,-21807.496,9034.384
887839.547240598,-68622.97,-66693.195,10304.199,-4084.717,-17885.498,-27560.873,-21799.602,9040.202
887839.5512405938,-68622.68,-66694.79,10314.697,-4085.8562,-17895.346,-27558.92,-21798.504,9042.725
887839.5552405894,-68621.38,-66700.32,10319.092,-4086.4666,-17899.17,-27560.303,-21800.62,9041.992
887839.5592405851,-68622.234,-66702.72,10324.951,-4085.9377,-17899.373,-27561.076,-21802.775,9035.116
887839.5632405808,-68618.05,-66696.45,10329.0205,-4085.0425,-17889.04,-27560.264,-21795.41,9051.555
887839.5672405765,-68620.16,-66693.69,10333.374,-4086.8735,-17899.455,-27560.059,-21796.592,9047.607
887839.5712405723,-68632.086,-66701.7,10330.648,-4089.3962,-17903.24,-27560.752,-21804.363,9033.8545
887839.5752405679,-68635.625,-66709.35,10329.387,-4089.152,-17902.67,-27560.059,-21805.908,9027.954
887839.5792405636,-68639.734,-66713.586,10330.811,-4088.6233,-17900.96,-27562.46,-21809.367,9024.17
887839.5832405593,-68642.83,-66715.01,10327.2705,-4092.2854,-17906.658,-27562.135,-21808.799,9025.229
887839.587240555,-68643.96,-66718.43,10336.02,-4093.3025,-17904.744,-27559.082,-21807.537,9026.611
887839.5912405507,-68637.945,-66714.84,10342.651,-4092.6516,-17905.926,-27556.438,-21801.678,9032.1045
887839.5952405464,-68640.305,-66709.19,10349.772,-4088.3792,-17894.166,-27559.775,-21803.264,9031.25
887839.599240542,-68639.2,-66711.1,10336.548,-4088.6233,-17903.2,-27561.402,-21802.41,9031.738
887839.6032405378,-68644.45,-66721.56,10346.191,-4091.3901,-17913.656,-27561.361,-21806.072,9025.595
887839.6072405335,-68637.33,-66722.13,10354.655,-4091.0647,-17912.273,-27559.49,-21801.555,9034.343
887839.6112405292,-68635.7,-66719.445,10358.5205,-4090.2102,-17895.875,-27561.24,-21804.078,9035.36
887839.6152405249,-68643.03,-66721.16,10361.654,-4090.861,-17911.662,-27562.908,-21807.861,9028.769
887839.6192405205,-68642.87,-66719.65,10360.148,-4088.7046,-17912.883,-27564.617,-21810.467,9026.652
887839.6232405163,-68641.93,-66713.09,10357.585,-4088.3792,-17907.47,-27563.682,-21815.43,9014.812
887839.6272405119,-68634.73,-66700.93,10366.781,-4085.4087,-17894.246,-27562.744,-21818.604,9014.567
887839.6312405077,-68619.67,-66690.63,10368.693,-4083.4963,-17883.586,-27565.35,-21820.762,9017.66
887839.6352405034,-68618.086,-66681.03,10377.401,-4083.008,-17890.504,-27567.953,-21822.47,9012.614
887839.639240499,-68597.25,-66660.81,10380.29,-4077.3113,-17891.887,-27570.762,-21826.133,9005.819
887839.6432404948,-68584.234,-66643.72,10384.97,-4075.8872,-17887.654,-27570.965,-21831.096,8998.535
887839.6472404904,-68577.4,-66630.945,10390.585,-4074.1782,-17887.898,-27569.744,-21826.336,9006.063
887839.6512404862,-68559.66,-66614.75,10404.745,-4072.388,-17889.568,-27571.086,-21826.336,9006.796
887839.6552404818,-68537.64,-66593.47,10412.436,-4067.3423,-17885.254,-27572.145,-21823.854,9015.259
887839.6592404775,-68527.875,-66576.984,10414.877,-4063.5989,-17884.889,-27573.08,-21824.098,9014.445
887839.6632404733,-68522.664,-66566.2,10417.847,-4062.907,-17884.033,-27575.521,-21828.777,9009.44
887839.6672404689,-68519.25,-66561.73,10419.027,-4064.9822,-17877.85,-27576.336,-21832.357,9005.209
887839.6712404647,-68516.08,-66559.41,10422.201,-4064.4534,-17876.629,-27575.766,-21835.043,9001.221
887839.6752404603,-68517.26,-66560.75,10419.475,-4062.0933,-17874.92,-27578.37,-21837.12,8998.576
887839.679240456,-68513.19,-66557.945,10423.462,-4061.3608,-17892.01,-27574.707,-21833.008,8993.652
887839.6832404517,-68516.64,-66561.445,10431.56,-4062.785,-17893.31,-27576.133,-21835.37,8989.868
887839.6872404474,-68530.31,-66580.41,10431.519,-4065.9182,-17898.193,-27576.336,-21840.496,8984.335
887839.6912404431,-68525.88,-66571.54,10419.353,-4065.9182,-17880.656,-27576.172,-21836.02,8989.014
887839.6952404388,-68524.01,-66564.49,10422.648,-4065.674,-17880.818,-27576.498,-21832.846,8991.049
887839.6992404344,-68529.83,-66566.0,10427.206,-4063.192,-17875.244,-27578.207,-21832.195,8992.229
887839.7032404302,-68539.516,-66578.086,10426.596,-4064.494,-17877.85,-27573.447,-21831.543,8993.652
887839.7072404259,-68547.81,-66588.83,10431.682,-4067.2202,-17883.586,-27570.068,-21828.574,8997.152
887839.7112404216,-68562.09,-66609.414,10426.066,-4069.8245,-17874.92,-27569.377,-21829.469,9001.181
