timestamp,Fp1,Fp2,F3,Fz,F4,Cz,Pz,Oz
1395938.7921577126,-57225.426,-64858.277,-17943.848,160.15625,-16912.395,18168.498,11605.795,-5770.345
1395938.7961577086,-57221.316,-64852.664,-17939.656,167.3584,-16906.82,18173.016,11602.499,-5769.6533
1395938.8001577044,-57211.47,-64835.695,-17927.205,186.07585,-16906.414,18188.518,11606.486,-5757.4873
1395938.8041577002,-57209.68,-64833.457,-17922.893,188.43588,-16908.244,18195.924,11611.288,-5753.8657
1395938.808157696,-57224.203,-64853.355,-17936.035,171.75293,-16909.465,18182.293,11609.823,-5765.0557
1395938.812157692,-57232.79,-64862.47,-17944.215,162.67905,-16908.895,18170.736,11607.707,-5770.0195
1395938.8161576877,-57227.133,-64846.4,-17937.664,174.3978,-16907.227,18174.928,11609.05,-5763.713
1395938.8201576835,-57215.902,-64823.773,-17927.205,191.2435,-16907.186,18186.89,11611.816,-5755.249
1395938.8241576792,-57216.27,-64824.992,-17925.008,191.85385,-16912.8,18193.318,11613.607,-5754.6387
1395938.8281576752,-57233.605,-64849.082,-17934.49,175.69987,-16916.586,18181.072,11612.427,-5760.295
1395938.832157671,-57240.848,-64864.22,-17940.186,167.3991,-16912.72,18168.295,11610.2705,-5764.73
1395938.8361576668,-57231.242,-64851.32,-17934.123,178.54819,-16906.902,18171.754,11611.247,-5753.703
1395938.8401576625,-57219.89,-64835.168,-17922.12,196.5739,-16906.373,18186.89,11616.537,-5737.671
1395938.8441576583,-57223.676,-64842.004,-17920.207,199.056,-16915.936,18192.424,11621.054,-5736.125
1395938.8481576543,-57236.9,-64863.16,-17929.566,182.25098,-16918.865,18181.6,11622.152,-5745.931
1395938.85215765,-57241.457,-64867.473,-17937.42,173.74675,-16911.988,18171.428,11622.437,-5753.7437
1395938.8561576458,-57230.105,-64853.883,-17932.82,184.57031,-16904.582,18172.363,11620.972,-5752.2383
1395938.8601576416,-57218.184,-64834.72,-17921.916,201.41602,-16902.14,18186.564,11622.844,-5742.269
1395938.8641576376,-57219.523,-64837.08,-17920.98,200.76498,-16906.494,18193.238,11625.122,-5741.374
1395938.8681576333,-57238.324,-64866.457,-17934.408,182.08823,-16912.518,18180.908,11621.786,-5757.5684
1395938.872157629,-57252.688,-64882.977,-17942.83,170.12534,-16915.365,18166.627,11617.106,-5767.09
1395938.8761576249,-57245.445,-64873.414,-17936.158,180.58269,-16911.988,18170.33,11615.723,-5761.963
1395938.8801576206,-57235.56,-64851.973,-17925.416,196.08562,-16912.68,18183.635,11618.408,-5753.784
1395938.8841576166,-57235.395,-64852.336,-17923.299,196.81804,-16918.336,18187.664,11620.524,-5751.18
1395938.8881576124,-57247.4,-64878.01,-17934.814,180.82683,-16922.975,18175.416,11620.81,-5758.9927
1395938.8921576082,-57253.258,-64891.44,-17941.814,171.38672,-16919.963,18161.947,11618.449,-5766.561
1395938.896157604,-57251.26,-64879.03,-17935.14,181.80339,-16914.715,18166.139,11616.374,-5763.4277
1395938.9001576,-57238.934,-64862.227,-17924.48,199.34082,-16914.307,18181.885,11618.286,-5749.0645
1395938.9041575957,-57239.83,-64873.17,-17923.299,198.81186,-16918.621,18188.803,11620.81,-5747.762
1395938.9081575915,-57252.16,-64895.1,-17932.373,181.3558,-16920.41,18177.205,11620.239,-5760.783
1395938.9121575872,-57260.215,-64906.293,-17938.924,173.0957,-16919.516,18164.592,11616.415,-5768.1885
1395938.916157583,-57250.855,-64886.395,-17932.049,184.81445,-16913.494,18165.203,11615.642,-5760.661
1395938.920157579,-57242.395,-64871.34,-17919.963,199.78842,-16912.477,18179.24,11618.124,-5747.03
1395938.9241575748,-57246.992,-64882.895,-17921.102,196.45183,-16920.654,18183.146,11616.74,-5749.0234
1395938.9281575705,-57260.582,-64901.816,-17933.39,179.76889,-16925.701,18170.818,11613.7295,-5761.434
1395938.9321575663,-57271.484,-64915.406,-17942.871,171.875,-16923.38,18159.912,11611.044,-5771.9727
1395938.9361575623,-57268.273,-64907.23,-17938.111,181.96616,-16919.719,18162.191,11609.457,-5771.688
1395938.940157558,-57257.246,-64883.06,-17925.66,199.91049,-16917.889,18177.734,11613.485,-5760.661
1395938.9441575538,-57258.383,-64883.465,-17923.055,200.43945,-16923.178,18183.432,11617.676,-5758.83
1395938.9481575496,-57268.35,-64907.023,-17934.205,185.26205,-16927.572,18171.55,11616.903,-5769.206
1395938.9521575454,-57278.484,-64917.2,-17941.447,176.31023,-16925.822,18158.855,11614.706,-5774.4956
1395938.9561575414,-57270.996,-64899.418,-17933.39,190.51108,-16919.027,18162.68,11616.618,-5767.334
1395938.9601575371,-57255.09,-64869.67,-17919.963,208.98438,-16913.656,18178.71,11622.844,-5751.994
1395938.964157533,-57250.773,-64865.97,-17916.627,210.08301,-16915.447,18185.506,11625.204,-5748.576
1395938.9681575287,-57261.19,-64892.01,-17926.799,194.33594,-16918.336,18173.992,11623.169,-5758.016
1395938.9721575247,-57268.15,-64901.41,-17935.182,184.81445,-16916.545,18161.256,11619.711,-5766.2764
1395938.9761575204,-57262.535,-64888.266,-17931.031,194.45801,-16914.021,18164.795,11620.728,-5760.946
1395938.9801575162,-57255.09,-64874.15,-17921.59,209.55405,-16916.424,18179.81,11623.82,-5750.57
1395938.984157512,-57259.973,-64880.617,-17920.695,209.87956,-16923.422,18186.809,11624.96,-5750.122
1395938.988157508,-57271.363,-64906.58,-17933.39,192.30144,-16927.938,18174.684,11622.763,-5762.9395
1395938.9921575037,-57278.527,-64911.746,-17941.814,184.32617,-16928.223,18162.965,11621.216,-5767.09
1395938.9961574995,-57270.145,-64889.527,-17934.002,195.84148,-16925.822,18167.36,11621.054,-5761.963
1395939.0001574953,-57255.902,-64869.59,-17921.59,214.19272,-16925.334,18179.81,11623.535,-5752.9297
1395939.004157491,-57255.21,-64873.293,-17920.37,215.00652,-16929.322,18185.303,11626.709,-5747.762
1395939.008157487,-57267.62,-64889.324,-17932.576,197.3877,-16936.768,18171.51,11622.803,-5756.999
1395939.0121574828,-57267.58,-64892.785,-17938.314,192.50488,-16933.025,18160.604,11619.507,-5762.085
1395939.0161574786,-57261.438,-64883.508,-17931.355,202.43327,-16929.2,18165.691,11621.948,-5753.825
1395939.0201574743,-57249.39,-64865.316,-17923.178,217.32585,-16930.867,18181.031,11623.779,-5744.9546
1395939.0241574703,-57246.867,-64857.953,-17922.648,217.16309,-16936.523,18186.076,11622.844,-5745.4834
1395939.028157466,-57263.633,-64872.48,-17935.955,199.46289,-16938.64,18173.26,11620.891,-5757.4873
1395939.0321574619,-57272.83,-64882.285,-17943.604,187.09311,-16934.979,18163.656,11619.589,-5763.5093
1395939.0361574576,-57257.53,-64858.645,-17936.482,199.34082,-16927.816,18170.29,11622.192,-5755.046
1395939.0401574534,-57243.938,-64841.758,-17926.758,215.29135,-16927.979,18183.92,11626.018,-5741.74
1395939.0441574494,-57239.137,-64836.836,-17924.969,216.18652,-16930.135,18189.82,11630.575,-5736.6133
1395939.0481574452,-57251.06,-64851.645,-17935.223,200.72429,-16930.502,18177.328,11629.883,-5748.291
1395939.052157441,-57261.23,-64860.598,-17943.686,190.14487,-16925.984,18163.697,11627.319,-5755.005
1395939.0561574367,-57248.414,-64840.984,-17939.006,199.91049,-16919.434,18166.951,11627.6455,-5749.8374
1395939.0601574327,-57238.73,-64823.285,-17930.46,214.15202,-16920.29,18181.64,11632.202,-5738.078
1395939.0641574285,-57242.066,-64816.977,-17928.346,216.91895,-16920.533,18189.982,11638.672,-5732.137
1395939.0681574242,-57253.95,-64840.336,-17940.227,198.48633,-16926.025,18177.613,11638.144,-5741.8623
1395939.07215742,-57257.734,-64843.426,-17949.139,189.5752,-16921.59,18164.795,11634.685,-5748.657
1395939.0761574158,-57246.055,-64817.75,-17941.732,202.43327,-16911.012,18167.684,11634.196,-5741.211
1395939.0801574118,-57229.656,-64800.58,-17927.613,220.37761,-16910.035,18181.682,11638.347,-5726.7256
1395939.0841574075,-57227.746,-64798.91,-17925.09,222.33073,-16912.598,18187.988,11641.032,-5720.1743
1395939.0881574033,-57239.543,-64815.473,-17937.744,205.32227,-16914.715,18176.717,11640.951,-5727.783
1395939.092157399,-57251.63,-64822.348,-17946.9,194.05112,-16911.297,18162.598,11638.266,-5733.358
1395939.096157395,-57247.195,-64807.824,-17940.023,203.77605,-16905.64,18164.145,11636.108,-5728.8413
1395939.1001573908,-57235.76,-64794.76,-17931.56,218.91277,-16905.477,18179.24,11639.16,-5716.6343
1395939.1041573866,-57235.965,-64803.55,-17930.99,217.9769,-16911.58,18184.652,11640.137,-5715.4136
1395939.1081573823,-57244.67,-64820.395,-17938.72,203.97949,-16909.139,18170.533,11636.801,-5728.109
1395939.1121573783,-57251.426,-64824.016,-17946.86,196.32976,-16903.523,18157.186,11635.824,-5729.0854
1395939.116157374,-57244.305,-64805.46,-17942.547,204.63054,-16900.188,18161.053,11636.108,-5719.7676
1395939.1201573699,-57230.957,-64788.656,-17932.82,220.25554,-16901.082,18174.357,11635.783,-5711.2227
1395939.1241573656,-57234.62,-64794.273,-17931.072,221.51694,-16904.217,18181.764,11636.923,-5712.4434
1395939.1281573614,-57244.71,-64814.984,-17940.43,204.63054,-16903.85,18168.865,11635.783,-5723.226
1395939.1321573574,-57247.926,-64825.32,-17948.121,193.6849,-16900.229,18156.494,11633.057,-5731.0386
1395939.1361573532,-57242.84,-64812.094,-17943.238,202.59604,-16896.037,18161.662,11633.098,-5724.8535
1395939.140157349,-57231.934,-64790.61,-17930.379,221.39487,-16897.217,18175.904,11635.458,-5713.786
1395939.1441573447,-57230.105,-64789.51,-17926.434,223.75488,-16899.578,18181.031,11637.614,-5713.9893
1395939.1481573407,-57244.14,-64807.742,-17937.867,206.66504,-16900.635,18169.963,11637.451,-5723.3076
1395939.1521573365,-57252.688,-64816.246,-17946.533,196.5332,-16897.34,18156.453,11633.627,-5735.3516
1395939.1561573322,-57245.402,-64800.62,-17940.35,208.33334,-16890.91,18158.367,11630.697,-5731.5674
1395939.160157328,-57239.3,-64788.37,-17930.543,224.5687,-16891.398,18174.764,11633.667,-5719.93
1395939.1641573238,-57242.92,-64791.914,-17931.275,222.57487,-16896.648,18180.746,11636.027,-5716.919
1395939.1681573198,-57254.52,-64807.293,-17941.082,205.93262,-16897.137,18169.19,11635.254,-5724.8535
1395939.1721573155,-57260.05,-64813.887,-17947.713,198.48633,-16892.334,18158.203,11633.952,-5731.2827
1395939.1761573113,-57251.63,-64797.773,-17942.586,208.0892,-16888.062,18160.035,11630.575,-5730.754
1395939.180157307,-57243.734,-64778.402,-17931.6,224.44662,-16887.492,18174.56,11631.877,-5721.395
1395939.184157303,-57245.04,-64781.617,-17930.664,225.13835,-16891.48,18182.496,11633.789,-5720.0522
1395939.1881572988,-57256.023,-64802.74,-17942.059,208.25195,-16892.701,18169.678,11631.796,-5733.8867
1395939.1921572946,-57261.598,-64808.92,-17948.771,198.73047,-16888.713,18156.17,11630.453,-5739.2173
1395939.1961572904,-57255.984,-64803.266,-17943.441,211.14096,-16883.504,18160.36,11631.755,-5729.289
1395939.2001572861,-57244.914,-64789.88,-17930.135,229.16667,-16882.04,18176.19,11637.004,-5713.3384
1395939.2041572821,-57246.83,-64794.11,-17930.543,229.41081,-16888.387,18180.176,11638.957,-5714.885
1395939.208157278,-57262.695,-64816.938,-17942.994,212.76855,-16891.44,18166.504,11635.458,-5727.702
1395939.2121572737,-57269.453,-64823.57,-17949.871,201.25327,-16888.592,18154.42,11631.633,-5735.0264
1395939.2161572694,-57261.516,-64809.855,-17943.482,208.57748,-16884.521,18154.5,11630.371,-5730.998
1395939.2201572654,-57247.52,-64789.31,-17931.967,225.54526,-16887.33,18170.492,11636.923,-5714.803
1395939.2241572612,-57245.973,-64784.426,-17929.607,229.0039,-16890.096,18179.037,11642.09,-5712.6875
1395939.228157257,-57256.836,-64801.11,-17940.633,213.3789,-16890.748,18166.26,11640.707,-5722.4937
1395939.2321572527,-57261.598,-64810.957,-17946.736,203.81674,-16886.8,18153.768,11636.963,-5728.1904
1395939.2361572485,-57255.535,-64802.695,-17939.9,214.76237,-16881.592,18156.982,11634.318,-5723.0225
1395939.2401572445,-57249.27,-64788.25,-17926.799,232.62534,-16883.18,18171.754,11636.394,-5713.7046
1395939.2441572403,-57248.7,-64788.94,-17923.422,237.46745,-16887.615,18180.502,11639.975,-5711.955
1395939.248157236,-57259.727,-64806.805,-17934.734,220.54037,-16888.672,18168.865,11637.533,-5720.215
1395939.2521572318,-57264.0,-64806.195,-17944.377,210.73405,-16886.11,18155.396,11633.708,-5729.411
1395939.2561572278,-57256.555,-64791.223,-17939.697,218.87207,-16881.062,18157.553,11632.854,-5727.987
1395939.2601572236,-57243.938,-64771.527,-17927.246,236.57227,-16878.541,18174.031,11637.777,-5711.833
1395939.2641572193,-57247.277,-64775.15,-17925.457,239.37988,-16881.227,18179.484,11641.724,-5706.0547
1395939.268157215,-57260.215,-64796.227,-17935.629,224.1211,-16882.568,18165.691,11639.853,-5717.204
1395939.272157211,-57265.3,-64800.99,-17941.041,217.24448,-16879.11,18152.508,11635.864,-5723.1445
1395939.2761572069,-57253.625,-64785.605,-17931.885,230.55014,-16873.617,18154.176,11634.888,-5717.0005
1395939.2801572026,-57243.613,-64771.812,-17919.354,248.25034,-16874.35,18171.754,11640.747,-5704.0205
1395939.2841571984,-57244.062,-64772.42,-17918.336,247.5586,-16878.582,18180.99,11646.606,-5701.986
1395939.2881571942,-57256.555,-64789.715,-17929.77,229.24805,-16881.307,18166.342,11642.985,-5717.2446
1395939.2921571902,-57264.49,-64800.906,-17937.947,218.91277,-16880.25,18155.03,11638.062,-5729.818
1395939.296157186,-57257.367,-64790.812,-17931.926,227.49838,-16877.361,18157.838,11636.679,-5728.6377
1395939.3001571817,-57247.805,-64774.824,-17918.783,245.60547,-16875.041,18172.566,11639.038,-5718.221
1395939.3041571775,-57248.7,-64779.91,-17916.912,247.76205,-16878.582,18178.02,11641.276,-5715.007
1395939.3081571735,-57258.02,-64805.055,-17927.41,232.09636,-16880.453,18167.48,11640.381,-5723.3076
1395939.3121571692,-57267.5,-64813.805,-17937.541,222.53418,-16878.297,18154.867,11637.167,-5733.3174
1395939.316157165,-57261.598,-64795.004,-17931.926,233.92741,-16873.17,18159.139,11636.597,-5728.5156
1395939.3201571607,-57247.355,-64773.93,-17917.969,252.9297,-16872.64,18175.701,11643.881,-5709.5137
1395939.3241571565,-57250.9,-64772.543,-17917.156,253.45866,-16878.785,18180.055,11644.897,-5707.6416
1395939.3281571525,-57266.887,-64794.516,-17929.81,236.73503,-16884.969,18169.312,11643.148,-5715.4136
1395939.3321571483,-57273.074,-64802.613,-17936.035,229.69565,-16884.807,18157.186,11642.782,-5723.348
1395939.336157144,-57263.39,-64791.02,-17929.484,238.40332,-16881.592,18161.988,11643.759,-5715.9834
1395939.3401571398,-57255.902,-64784.426,-17919.922,250.24416,-16883.992,18175.701,11646.892,-5704.2236
1395939.3441571358,-57253.137,-64785.2,-17916.668,254.88283,-16890.38,18183.432,11650.961,-5701.986
1395939.3481571316,-57265.87,-64803.875,-17928.223,239.17644,-16896.2,18173.666,11651.449,-5710.8154
1395939.3521571273,-57270.754,-64814.902,-17936.28,230.22461,-16890.422,18158.611,11649.496,-5716.512
1395939.356157123,-57260.54,-64795.74,-17928.02,241.65854,-16882.771,18159.912,11649.008,-5712.972
1395939.3601571189,-57250.53,-64774.945,-17915.486,260.45737,-16878.094,18175.781,11654.013,-5698.242
1395939.3641571149,-57252.28,-64774.05,-17913.574,262.08496,-16882.771,18182.781,11657.431,-5692.8306
1395939.3681571106,-57264.977,-64798.383,-17925.537,242.30957,-16886.678,18170.004,11652.67,-5705.6074
1395939.3721571064,-57272.707,-64809.9,-17935.018,229.0039,-16886.678,18155.844,11647.787,-5712.5654
1395939.3761571022,-57265.465,-64794.8,-17930.584,241.69922,-16880.086,18159.75,11644.775,-5708.822
1395939.3801570982,-57254.234,-64783.773,-17918.865,260.05048,-16879.598,18177.328,11647.665,-5699.1377
1395939.384157094,-57251.953,-64784.875,-17917.195,261.1898,-16886.842,18183.064,11648.193,-5699.0156
1395939.3881570897,-57268.15,-64809.207,-17928.264,244.46616,-16891.56,18169.312,11645.142,-5710.775
1395939.3921570855,-57277.426,-64817.14,-17935.832,234.98535,-16889.242,18158.406,11642.294,-5720.459
1395939.3961570815,-57268.637,-64799.727,-17930.664,247.02963,-16883.79,18162.924,11641.887,-5715.902
1395939.4001570772,-57254.6,-64780.887,-17918.986,264.4043,-16880.574,18178.02,11645.874,-5702.1484
1395939.404157073,-57258.14,-64789.227,-17916.342,266.03192,-16883.83,18183.635,11649.536,-5698.6494
1395939.4081570688,-57271.973,-64811.402,-17925.984,250.4476,-16888.672,18169.475,11648.601,-5709.1064
1395939.4121570645,-57275.758,-64821.37,-17932.617,241.33301,-16887.695,18157.268,11644.247,-5715.9834
1395939.4161570605,-57269.125,-64806.805,-17925.496,251.83107,-16883.83,18160.848,11642.172,-5712.5244
1395939.4201570563,-57255.86,-64785.32,-17912.354,270.91473,-16882.365,18174.195,11643.393,-5700.7246
1395939.424157052,-57260.99,-64787.316,-17910.4,272.50165,-16888.387,18179.443,11643.84,-5698.446
1395939.4281570478,-57276.45,-64811.08,-17922.566,254.06902,-16890.992,18166.504,11642.212,-5710.124
1395939.4321570438,-57279.34,-64816.0,-17929.77,247.19238,-16885.133,18153.605,11638.754,-5718.2617
1395939.4361570396,-57271.28,-64799.848,-17922.486,257.24286,-16881.55,18155.6,11636.679,-5717.3667
1395939.4401570354,-57260.01,-64784.344,-17911.621,273.8851,-16883.424,18170.818,11638.306,-5708.2114
1395939.4441570311,-57261.07,-64791.953,-17911.541,273.60028,-16888.387,18175.74,11640.707,-5708.8623
1395939.448157027,-57268.637,-64809.41,-17921.307,255.85939,-16889.283,18161.336,11638.835,-5719.686
1395939.452157023,-57273.234,-64818.156,-17929.24,247.1517,-16885.824,18149.09,11637.411,-5722.2495
1395939.4561570187,-57264.04,-64806.805,-17922.04,258.99252,-16881.47,18153.605,11639.934,-5714.1523
1395939.4601570144,-57260.176,-64787.805,-17911.092,275.5127,-16879.72,18168.377,11643.393,-5704.59
1395939.4641570102,-57262.29,-64792.81,-17910.686,276.85547,-16883.586,18174.887,11647.258,-5701.294
1395939.4681570062,-57270.957,-64814.945,-17922.16,260.4167,-16887.29,18161.865,11644.816,-5712.036
1395939.472157002,-57280.152,-64828.047,-17929.688,250.36623,-16885.742,18149.334,11643.026,-5716.5938
1395939.4761569977,-57270.348,-64810.02,-17923.584,261.1898,-16880.168,18152.303,11646.078,-5705.6074
1395939.4801569935,-57260.176,-64786.95,-17911.256,279.37827,-16878.906,18168.254,11651.9375,-5690.3486
1395939.4841569893,-57260.99,-64787.03,-17908.691,281.20932,-16885.213,18174.236,11652.629,-5691.488
1395939.4881569853,-57276.734,-64818.688,-17922.04,263.79395,-16887.695,18162.191,11649.211,-5704.305
1395939.492156981,-57289.918,-64833.58,-17930.379,252.44142,-16883.912,18149.537,11647.014,-5710.8154
1395939.4961569768,-57279.34,-64818.566,-17920.777,262.8581,-16879.68,18150.229,11645.834,-5708.008
1395939.5001569726,-57264.285,-64795.86,-17909.1,282.4707,-16881.348,18165.527,11649.455,-5695.7197
1395939.5041569686,-57262.13,-64799.36,-17907.918,284.26108,-16888.63,18172.283,11653.076,-5690.023
1395939.5081569643,-57274.21,-64822.227,-17918.986,266.80502,-16888.875,18159.832,11650.146,-5699.341
1395939.51215696,-57281.25,-64822.88,-17926.922,257.08008,-16886.598,18146.322,11645.915,-5707.601
1395939.5161569559,-57271.242,-64802.94,-17921.266,269.3685,-16880.494,18148.357,11646.362,-5703.288
1395939.5201569516,-57261.23,-64786.418,-17909.953,285.64453,-16876.994,18164.754,11647.502,-5694.255
1395939.5241569476,-57268.027,-64786.785,-17909.383,283.93555,-16885.824,18170.898,11648.845,-5695.5566
1395939.5281569434,-57280.97,-64810.1,-17917.44,269.49057,-16892.375,18158.895,11649.089,-5703.0845
1395939.5321569392,-57291.383,-64824.586,-17925.863,260.7829,-16891.725,18144.898,11644.735,-5708.9033
1395939.536156935,-57283.938,-64816.977,-17920.125,271.60645,-16886.598,18147.87,11644.816,-5704.183
1395939.540156931,-57270.348,-64799.93,-17908.57,289.1032,-16884.604,18162.924,11647.461,-5694.133
1395939.5441569267,-57269.37,-64806.6,-17904.95,289.99838,-16888.916,18168.783,11648.479,-5692.627
1395939.5481569225,-57282.594,-64823.082,-17913.29,275.30927,-16890.463,18155.07,11645.671,-5701.823
1395939.5521569182,-57290.812,-64829.062,-17921.63,263.83466,-16887.451,18140.422,11643.515,-5708.171
1395939.5561569142,-57281.7,-64808.312,-17914.836,274.21063,-16882.895,18143.475,11646.159,-5699.4224
1395939.56015691,-57268.15,-64792.074,-17904.217,292.52118,-16883.057,18159.465,11646.77,-5691.203
1395939.5641569057,-57272.098,-64799.156,-17903.646,293.05014,-16889.486,18166.463,11647.38,-5691.8945
1395939.5681569015,-57287.03,-64817.953,-17914.389,277.05893,-16894.328,18153.402,11646.24,-5700.4805
1395939.5721568973,-57296.51,-64824.668,-17921.225,269.8161,-16890.016,18142.213,11644.816,-5704.997
1395939.5761568933,-57288.293,-64816.125,-17916.545,277.14032,-16883.627,18146.566,11642.7,-5700.5615
1395939.580156889,-57277.1,-64796.43,-17903.809,294.75912,-16882.04,18162.72,11645.63,-5689.4126
1395939.5841568848,-57276.45,-64796.31,-17902.264,297.56674,-16887.451,18167.645,11648.275,-5686.727
1395939.5881568806,-57287.68,-64818.81,-17913.615,282.30795,-16892.498,18154.867,11649.089,-5694.824
1395939.5921568766,-57297.69,-64829.797,-17921.795,272.01337,-16889.648,18142.578,11646.688,-5703.247
1395939.5961568723,-57288.37,-64808.39,-17915.691,282.5521,-16883.586,18145.223,11645.224,-5698.161
1395939.600156868,-57273.723,-64784.63,-17906.006,300.6999,-16882.771,18161.092,11647.705,-5687.785
1395939.6041568639,-57277.387,-64790.57,-17903.564,301.26953,-16884.562,18169.312,11650.879,-5684.8145
1395939.6081568596,-57292.402,-64811.688,-17915.406,285.7666,-16887.574,18156.982,11650.229,-5695.964
1395939.6121568556,-57302.492,-64828.574,-17923.828,275.47202,-16887.207,18143.555,11649.374,-5702.922
1395939.6161568514,-57293.38,-64815.84,-17916.83,285.3597,-16885.213,18146.322,11651.164,-5697.103
1395939.6201568472,-57280.52,-64797.367,-17906.861,302.2868,-16885.742,18161.256,11654.257,-5684.652
1395939.624156843,-57283.977,-64801.8,-17904.541,303.67026,-16889.812,18167.766,11656.738,-5681.3154
1395939.628156839,-57292.523,-64821.13,-17911.418,288.49286,-16891.357,18155.273,11653.28,-5691.8945
1395939.6321568347,-57295.207,-64828.453,-17918.701,279.45966,-16890.26,18140.219,11646.444,-5702.23
1395939.6361568305,-57287.805,-64807.21,-17913.045,290.69012,-16885.336,18143.025,11645.264,-5697.917
1395939.6401568262,-57282.88,-64793.01,-17902.71,304.60614,-16886.271,18156.617,11648.315,-5686.157
1395939.644156822,-57284.18,-64801.637,-17901.57,304.11786,-16892.701,18162.436,11650.554,-5689.575
1395939.648156818,-57296.184,-64827.027,-17913.656,289.46942,-16894.898,18151.164,11648.193,-5703.6133
1395939.6521568138,-57303.145,-64836.55,-17920.94,281.73828,-16892.822,18138.062,11641.846,-5709.554
1395939.6561568095,-57295.492,-64822.062,-17912.436,291.70737,-16888.672,18140.504,11640.91,-5702.9624
1395939.6601568053,-57283.285,-64802.37,-17897.908,310.0179,-16886.068,18156.373,11645.305,-5688.7617
1395939.6641568013,-57282.96,-64802.207,-17895.834,310.0586,-16891.725,18164.836,11650.635,-5683.3496
1395939.668156797,-57293.38,-64818.77,-17907.35,296.14258,-16894.084,18154.541,11650.432,-5691.61
1395939.6721567928,-57300.703,-64829.47,-17915.936,286.6211,-16895.143,18140.707,11646.444,-5700.8057
1395939.6761567886,-57295.9,-64821.25,-17910.93,296.63086,-16892.904,18141.236,11644.328,-5692.912
1395939.6801567846,-57287.273,-64803.1,-17898.926,313.96484,-16893.393,18157.105,11647.99,-5679.24
1395939.6841567804,-57285.24,-64808.15,-17896.525,316.73178,-16897.664,18164.021,11650.839,-5677.9785
1395939.6881567761,-57299.562,-64832.887,-17906.78,297.11914,-16902.14,18150.838,11648.804,-5687.7036
1395939.692156772,-57309.53,-64840.336,-17914.674,287.31284,-16899.455,18135.457,11644.206,-5696.859
1395939.6961567677,-57304.242,-64825.44,-17911.133,299.64194,-16890.91,18139.607,11646.484,-5690.9995
1395939.7001567637,-57289.43,-64803.305,-17897.176,317.30145,-16888.225,18157.309,11653.524,-5675.293
1395939.7041567594,-57289.062,-64803.996,-17894.572,318.03387,-16891.072,18163.086,11655.966,-5675.7407
1395939.7081567552,-57301.312,-64830.773,-17903.89,301.14746,-16898.438,18150.188,11655.3955,-5688.0293
1395939.712156751,-57312.01,-64837.934,-17913.29,291.70737,-16896.973,18137.777,11650.351,-5696.4927
1395939.716156747,-57304.688,-64816.57,-17908.65,303.62958,-16889.16,18139.812,11648.886,-5689.8604
1395939.7201567427,-57287.477,-64800.863,-17894.654,322.22495,-16888.469,18154.541,11653.931,-5675.1304
1395939.7241567385,-57290.812,-64805.055,-17893.758,322.55048,-16891.521,18160.238,11659.058,-5667.7656
1395939.7281567343,-57306.766,-64830.49,-17906.494,304.93164,-16894.979,18146.363,11659.14,-5676.677
1395939.73215673,-57312.094,-64840.336,-17912.762,294.75912,-16893.066,18132.121,11657.1455,-5686.4014
1395939.736156726,-57308.72,-64827.027,-17907.553,305.70477,-16888.63,18133.871,11657.1455,-5681.234
1395939.7401567218,-57302.492,-64806.684,-17896.363,323.2829,-16891.316,18147.746,11658.488,-5669.5967
1395939.7441567176,-57302.492,-64810.266,-17894.246,323.12012,-16895.71,18153.932,11659.994,-5668.742
1395939.7481567133,-57314.008,-64827.516,-17904.094,307.04755,-16899.943,18143.352,11660.319,-5677.4497
1395939.7521567093,-57323.652,-64833.66,-17912.557,297.81088,-16898.234,18130.982,11657.1455,-5679.3623
1395939.756156705,-57315.797,-64824.992,-17907.756,309.40756,-16890.87,18132.65,11657.309,-5675.0083
1395939.7601567009,-57305.625,-64817.1,-17895.752,325.7243,-16889.852,18147.014,11663.412,-5662.5166
1395939.7641566966,-57304.65,-64814.7,-17893.637,328.2064,-16893.23,18153.605,11663.086,-5661.947
1395939.7681566924,-57319.215,-64835.37,-17905.559,309.08203,-16897.42,18138.754,11657.837,-5677.3276
1395939.7721566884,-57328.332,-64849.613,-17914.795,297.7702,-16892.254,18127.238,11656.616,-5682.8613
1395939.7761566842,-57319.5,-64834.72,-17908.041,310.4248,-16885.418,18133.79,11659.872,-5674.1133
1395939.78015668,-57311.688,-64812.992,-17895.143,330.11884,-16889.12,18150.635,11665.649,-5661.0923
1395939.7841566757,-57315.676,-64817.06,-17892.822,331.5023,-16894.166,18158.0,11669.556,-5659.343
1395939.7881566717,-57327.477,-64841.637,-17902.67,316.77246,-16898.275,18145.955,11668.457,-5670.8174
1395939.7921566674,-57337.65,-64854.332,-17911.824,303.34473,-16897.828,18131.307,11665.405,-5677.6123
1395939.7961566632,-57332.156,-64841.39,-17907.146,312.33725,-16890.951,18135.133,11666.586,-5667.8877
1395939.800156659,-57329.062,-64843.914,-17896.16,325.92773,-16898.072,18150.025,11672.241,-5652.832
1395939.8041566547,-57342.367,-64856.324,-17898.396,323.56772,-16905.762,18158.082,11677.612,-5649.9434
1395939.8081566507,-57343.184,-64855.918,-17907.838,309.97723,-16899.861,18145.793,11670.288,-5664.388
1395939.8121566465,-57340.457,-64853.355,-17914.062,304.7282,-16892.701,18129.518,11662.313,-5677.368
1395939.8161566423,-57346.805,-64849.69,-17911.092,313.06967,-16891.236,18131.47,11663.493,-5671.0205
1395939.820156638,-57344.727,-64844.688,-17902.303,329.3864,-16890.545,18147.87,11669.434,-5655.9653
1395939.824156634,-57352.418,-64852.582,-17903.688,328.45053,-16896.2,18154.988,11672.282,-5652.385
1395939.8281566298,-57366.008,-64876.875,-17913.656,311.88965,-16899.049,18142.945,11669.963,-5661.052
1395939.8321566256,-57373.09,-64881.758,-17918.904,303.95508,-16892.945,18128.459,11665.487,-5668.62
1395939.8361566213,-57372.195,-64872.887,-17913.33,312.66278,-16890.096,18131.756,11665.731,-5663.127
1395939.8401566173,-57363.77,-64861.86,-17903.2,327.96225,-16895.184,18146.81,11669.189,-5651.571
1395939.844156613,-57356.445,-64857.668,-17901.855,331.54297,-16900.92,18153.32,11670.695,-5651.001
1395939.8481566089,-57374.39,-64883.508,-17916.219,313.15106,-16908.447,18139.893,11666.911,-5663.615
1395939.8521566046,-57382.164,-64898.234,-17927.857,303.71094,-16906.332,18125.164,11662.028,-5675.985
1395939.8561566004,-57375.246,-64883.02,-17924.52,313.27313,-16901.043,18128.215,11658.488,-5674.7236
1395939.8601565964,-57363.61,-64863.363,-17912.883,330.93262,-16901.287,18143.025,11661.947,-5659.1797
1395939.8641565922,-57363.445,-64860.883,-17911.5,331.66504,-16905.193,18150.39,11665.161,-5655.884
1395939.868156588,-57373.457,-64876.996,-17921.021,315.91797,-16907.309,18137.127,11665.08,-5661.296
1395939.8721565837,-57380.13,-64877.727,-17930.584,306.47787,-16905.355,18122.762,11662.924,-5663.1675
1395939.8761565797,-57375.613,-64864.465,-17926.229,316.73178,-16899.578,18127.889,11666.098,-5653.524
1395939.8801565755,-57362.43,-64847.293,-17914.021,332.76367,-16896.852,18141.398,11670.37,-5643.4736
1395939.8841565712,-57359.99,-64849.125,-17911.5,336.87338,-16899.781,18149.781,11674.398,-5641.6426
1395939.888156567,-57373.902,-64864.992,-17921.307,320.55664,-16902.67,18139.283,11676.147,-5647.746
1395939.8921565628,-57380.25,-64868.45,-17928.752,310.70966,-16900.066,18126.912,11675.619,-5651.6113
1395939.8961565588,-57370.73,-64847.58,-17923.26,319.9463,-16892.945,18131.674,11675.537,-5641.9272
1395939.9001565545,-57358.36,-64821.168,-17914.062,335.40854,-16889.934,18146.281,11678.874,-5627.4414
1395939.9041565503,-57362.836,-64826.297,-17913.697,335.5713,-16893.475,18152.303,11680.054,-5626.3022
1395939.908156546,-57377.28,-64847.17,-17925.252,317.9118,-16895.143,18140.34,11677.328,-5635.9053
1395939.912156542,-57386.926,-64855.797,-17933.635,305.2165,-16893.31,18127.523,11674.357,-5640.788
1395939.9161565378,-57382.855,-64851.89,-17929.932,313.55795,-16886.842,18131.756,11676.147,-5632.2837
1395939.9201565336,-57375.49,-64832.074,-17921.346,328.125,-16885.254,18147.014,11681.03,-5617.5947
1395939.9241565294,-57360.883,-64816.125,-17915.65,332.6823,-16884.93,18152.426,11682.658,-5618.164
1395939.9281565251,-57365.44,-64834.477,-17924.684,316.6504,-16886.719,18139.04,11682.455,-5629.7607
1395939.9321565211,-57376.996,-64841.39,-17935.344,305.542,-16882.732,18124.309,11678.02,-5637.126
1395939.936156517,-57368.207,-64824.223,-17929.566,316.52832,-16875.773,18129.395,11677.165,-5631.5513
1395939.9401565127,-57361.207,-64805.586,-17918.213,335.04233,-16872.518,18146.12,11682.943,-5616.1704
1395939.9441565084,-57362.348,-64806.805,-17918.133,334.7982,-16876.262,18153.605,11685.791,-5614.1357
1395939.9481565044,-57374.066,-64826.906,-17930.584,317.30145,-16880.574,18142.537,11684.123,-5624.1455
1395939.9521565002,-57377.727,-64828.086,-17935.547,308.75653,-16876.1,18131.756,11682.007,-5628.215
1395939.956156496,-57371.867,-64817.832,-17930.746,319.0918,-16871.42,18134.562,11683.1875,-5621.0127
1395939.9601564917,-57362.305,-64797.73,-17921.307,333.69955,-16871.908,18147.787,11686.035,-5611.8164
1395939.9641564875,-57366.78,-64798.75,-17918.295,334.7575,-16876.385,18153.932,11687.866,-5610.311
1395939.9681564835,-57381.066,-64819.867,-17930.176,315.95868,-16879.11,18140.26,11685.059,-5622.3145
1395939.9721564793,-57387.37,-64824.3,-17936.727,308.26825,-16875.855,18127.523,11681.274,-5630.9814
1395939.976156475,-57383.996,-64805.79,-17930.543,317.098,-16872.193,18130.209,11680.705,-5624.8374
1395939.9801564708,-57367.637,-64785.44,-17918.783,335.12372,-16869.02,18146.078,11685.019,-5610.5146
1395939.9841564668,-57364.746,-64777.59,-17917.156,337.6872,-16871.094,18153.89,11688.07,-5604.2075
1395939.9881564626,-57378.867,-64797.73,-17929.566,320.23114,-16875.691,18141.766,11685.751,-5617.025
1395939.9921564583,-57386.516,-64811.242,-17936.28,308.71582,-16873.658,18128.133,11683.1875,-5629.5166
1395939.996156454,-57380.82,-64799.766,-17931.885,319.70215,-16868.693,18132.08,11684.164,-5624.634
1395940.00015645,-57374.27,-64783.164,-17920.898,335.612,-16871.502,18146.77,11686.523,-5616.699
1395940.0041564459,-57376.387,-64778.73,-17918.457,339.2334,-16877.768,18153.85,11689.25,-5611.8164
1395940.0081564416,-57390.42,-64794.11,-17928.752,324.1374,-16876.912,18140.625,11688.151,-5621.1753
1395940.0121564374,-57398.113,-64802.74,-17935.547,314.37177,-16872.03,18129.639,11685.913,-5627.6045
1395940.0161564332,-57390.625,-64788.168,-17929.363,323.12012,-16863.893,18132.447,11685.588,-5619.548
1395940.0201564291,-57383.26,-64766.97,-17918.213,338.29755,-16861.613,18145.59,11688.07,-5605.998
1395940.024156425,-57384.89,-64769.86,-17915.406,340.00653,-16865.682,18150.838,11688.151,-5605.632
1395940.0281564207,-57392.457,-64793.62,-17925.172,324.8698,-16867.635,18138.795,11685.913,-5618.9375
1395940.0321564164,-57403.16,-64801.11,-17935.1,316.28418,-16863.281,18126.465,11684.326,-5626.831
1395940.0361564124,-57395.918,-64784.184,-17930.95,324.99188,-16857.83,18129.436,11684.692,-5623.413
1395940.0401564082,-57387.37,-64763.754,-17918.66,339.7624,-16858.074,18145.467,11690.227,-5610.2295
1395940.044156404,-57387.13,-64756.715,-17916.342,340.5355,-16862.752,18151.652,11693.359,-5605.7944
1395940.0481563997,-57398.6,-64776.695,-17926.799,326.4974,-16866.008,18139.363,11691.8545,-5612.427
1395940.0521563955,-57406.293,-64786.38,-17934.611,317.42352,-16862.428,18123.78,11688.599,-5620.2803
1395940.0561563915,-57398.156,-64768.516,-17928.264,326.86362,-16854.615,18126.059,11688.192,-5614.258
1395940.0601563873,-57383.508,-64751.344,-17915.283,345.21484,-16854.127,18142.254,11691.732,-5602.051
1395940.064156383,-57385.05,-64762.82,-17912.842,345.98798,-16859.172,18147.705,11692.058,-5602.458
1395940.0681563788,-57402.305,-64780.316,-17924.236,331.38022,-16862.752,18135.498,11687.622,-5615.194
1395940.0721563748,-57410.363,-64785.727,-17934.002,320.19043,-16859.701,18122.314,11683.472,-5620.7275
1395940.0761563706,-57395.715,-64769.9,-17928.143,331.33954,-16854.248,18125.732,11683.716,-5611.491
1395940.0801563663,-57383.383,-64756.145,-17916.668,347.61557,-16856.486,18140.79,11685.141,-5602.8647
1395940.084156362,-57384.727,-64756.27,-17915.08,348.51074,-16861.207,18147.664,11687.785,-5606.9336
1395940.0881563579,-57398.438,-64777.71,-17926.88,332.15332,-16863.77,18134.807,11684.937,-5620.8906
1395940.0921563539,-57417.44,-64800.09,-17936.564,322.71323,-16862.59,18124.959,11686.6455,-5624.0234
1395940.0961563496,-57435.754,-64810.266,-17935.955,328.73535,-16863.281,18133.748,11695.3125,-5610.0264
1395940.1001563454,-57405.844,-64780.926,-17915.324,348.18524,-16861.287,18146.81,11696.777,-5598.2666
1395940.1041563412,-57372.56,-64748.902,-17907.797,355.10254,-16858.969,18148.723,11691.691,-5601.8477
1395940.1081563372,-57385.176,-64769.33,-17921.266,338.29755,-16862.996,18132.812,11687.866,-5615.7227
1395940.112156333,-57385.38,-64770.793,-17927.002,330.32227,-16859.254,18120.85,11686.117,-5622.0703
1395940.1161563287,-57377.89,-64758.793,-17921.51,338.17548,-16857.342,18122.479,11683.798,-5620.158
1395940.1201563245,-57357.42,-64740.36,-17906.047,355.79428,-16854.533,18135.906,11685.547,-5610.2295
1395940.1241563205,-57356.57,-64741.457,-17906.373,357.42188,-16860.76,18141.521,11685.71,-5608.8867
1395940.1281563162,-57369.348,-64756.43,-17918.865,341.02377,-16867.717,18127.809,11680.542,-5620.4834
1395940.132156312,-57376.832,-64759.402,-17926.393,330.36298,-16868.246,18116.74,11676.474,-5627.6045
1395940.1361563078,-57373.902,-64747.844,-17922.322,338.9079,-16863.201,18120.646,11677.694,-5619.995
1395940.1401563035,-57365.48,-64728.8,-17911.824,356.6081,-16861.043,18135.742,11682.129,-5605.1025
1395940.1441562995,-57368.734,-64739.465,-17910.482,357.2998,-16866.822,18142.13,11683.513,-5602.824
1395940.1481562953,-57380.21,-64769.29,-17923.992,340.9017,-16870.281,18130.574,11677.734,-5616.903
1395940.152156291,-57388.184,-64777.71,-17932.617,330.93262,-16867.555,18114.828,11669.8,-5629.232
1395940.1561562868,-57381.473,-64760.62,-17927.125,340.94238,-16862.834,18118.287,11670.248,-5623.535
1395940.1601562828,-57366.58,-64734.05,-17912.639,359.98535,-16859.254,18137.371,11678.752,-5607.7476
1395940.1641562786,-57370.77,-64742.72,-17912.068,358.92743,-16866.21,18144.816,11681.763,-5607.544
1395940.1681562744,-57389.977,-64768.883,-17923.299,341.7155,-16871.46,18131.959,11680.258,-5620.1987
1395940.1721562701,-57400.72,-64782.72,-17931.805,332.19403,-16871.99,18117.188,11678.02,-5629.8423
1395940.176156266,-57393.477,-64770.348,-17925.496,342.1631,-16868.084,18120.77,11679.484,-5622.4365
1395940.180156262,-57388.88,-64753.582,-17912.639,359.57846,-16867.96,18136.475,11686.564,-5607.585
1395940.1841562577,-57388.062,-64759.523,-17913.209,358.11362,-16872.438,18141.766,11688.965,-5608.9683
1395940.1881562534,-57397.707,-64778.65,-17924.684,341.51205,-16874.064,18130.33,11685.913,-5617.8794
1395940.1921562492,-57405.195,-64785.08,-17931.967,333.0078,-16873.17,18116.74,11683.716,-5619.4663
1395940.1961562452,-57397.83,-64768.72,-17927.043,344.5638,-16867.717,18120.932,11686.728,-5612.02
1395940.200156241,-57390.953,-64753.83,-17918.133,359.0495,-16867.596,18135.986,11688.721,-5598.999
1395940.2041562367,-57395.754,-64758.18,-17918.336,359.53778,-16872.844,18141.725,11687.744,-5599.4873
1395940.2081562325,-57409.305,-64777.387,-17928.549,344.03485,-16873.943,18130.941,11686.564,-5614.0547
1395940.2121562283,-57412.477,-64783.57,-17934.652,335.65268,-16871.502,18117.39,11683.798,-5624.5933
1395940.2161562243,-57406.945,-64772.016,-17927.45,346.39487,-16866.74,18119.588,11683.676,-5616.008
1395940.22015622,-57394.86,-64754.723,-17914.307,364.13574,-16865.438,18135.54,11687.297,-5600.0166
1395940.2241562158,-57392.742,-64760.906,-17912.15,365.84473,-16874.838,18144.207,11689.982,-5601.6846
1395940.2281562116,-57404.46,-64781.047,-17926.393,348.55145,-16879.354,18130.33,11684.855,-5617.269
1395940.2321562076,-57411.83,-64786.176,-17936.768,337.93134,-16874.064,18113.973,11678.589,-5627.8486
1395940.2361562033,-57411.582,-64770.1,-17932.17,348.42938,-16867.432,18117.188,11678.101,-5624.5527
1395940.240156199,-57401.53,-64746.055,-17918.01,367.39096,-16865.52,18134.074,11680.868,-5611.654
1395940.2441561949,-57403.605,-64747.52,-17915.283,369.7103,-16870.809,18140.096,11683.472,-5607.341
1395940.2481561906,-57413.78,-64770.145,-17925.781,354.61426,-16871.502,18127.727,11683.228,-5616.2925
1395940.2521561866,-57421.227,-64775.35,-17935.262,345.21484,-16869.629,18110.678,11679.24,-5625.5293
1395940.2561561824,-57417.766,-64765.098,-17930.705,353.2308,-16868.408,18113.363,11677.287,-5621.379
1395940.2601561781,-57405.48,-64753.46,-17917.604,369.46616,-16867.27,18128.906,11681.152,-5608.5615
1395940.264156174,-57404.46,-64754.477,-17911.865,373.29102,-16872.355,18137.41,11683.92,-5607.3
1395940.26815617,-57420.74,-64777.793,-17924.113,357.58466,-16873.82,18124.635,11681.682,-5616.089
1395940.2721561657,-57434.53,-64789.594,-17935.223,344.88934,-16871.95,18109.54,11677.084,-5625.244
1395940.2761561614,-57427.613,-64774.78,-17932.781,353.92255,-16868.734,18108.236,11674.805,-5622.1113
1395940.2801561572,-57415.734,-64746.91,-17921.795,374.43036,-16866.902,18123.21,11676.758,-5610.067
1395940.2841561532,-57416.344,-64751.26,-17920.574,375.0814,-16871.42,18129.15,11681.763,-5602.987
1395940.288156149,-57432.496,-64776.004,-17933.514,356.9743,-16878.133,18115.072,11681.4375,-5612.671
1395940.2921561447,-57440.715,-64779.42,-17942.098,345.62177,-16875.732,18100.3,11675.863,-5626.3022
1395940.2961561405,-57434.652,-64769.29,-17936.97,353.10873,-16873.902,18099.08,11671.347,-5625.936
1395940.3001561363,-57424.887,-64755.008,-17926.514,369.09995,-16874.756,18112.305,11671.835,-5614.665
1395940.3041561323,-57424.887,-64751.426,-17921.225,372.0703,-16876.994,18118.979,11675.659,-5610.2295
1395940.308156128,-57438.03,-64770.348,-17934.002,355.7129,-16883.098,18106.283,11674.276,-5620.931
1395940.3121561238,-57448.812,-64782.066,-17942.668,345.17416,-16880.25,18090.984,11668.539,-5630.615
1395940.3161561196,-57442.59,-64757.69,-17936.646,356.48602,-16874.105,18092.285,11668.905,-5624.3086
1395940.3201561156,-57433.105,-64739.098,-17925.049,372.84344,-16875.488,18108.277,11673.218,-5610.189
1395940.3241561113,-57431.6,-64738.73,-17923.666,376.2207,-16880.33,18115.234,11674.968,-5605.51
1395940.328156107,-57445.68,-64753.91,-17936.482,359.86328,-16884.645,18100.506,11668.864,-5620.8906
1395940.3321561029,-57453.37,-64757.45,-17944.5,348.38867,-16885.498,18085.043,11662.517,-5634.1147
1395940.3361560986,-57446.29,-64741.008,-17938.965,357.01498,-16880.78,18087.81,11661.865,-5629.598
1395940.3401560946,-57436.363,-64725.1,-17926.066,374.91864,-16880.615,18101.848,11663.371,-5614.8276
1395940.3441560904,-57436.035,-64731.12,-17923.992,377.64487,-16884.725,18107.625,11663.981,-5612.427
1395940.3481560862,-57451.457,-64752.77,-17936.97,361.8978,-16885.05,18095.988,11662.354,-5625.407
1395940.352156082,-57461.145,-64761.965,-17943.848,352.13217,-16881.836,18082.52,11661.906,-5631.836
1395940.356156078,-57452.273,-64749.637,-17940.105,362.7116,-16879.354,18086.508,11663.168,-5622.518
1395940.3601560737,-57434.98,-64728.64,-17928.834,380.08627,-16876.873,18102.703,11667.114,-5608.032
1395940.3641560695,-57437.746,-64725.71,-17926.393,381.71387,-16879.273,18108.113,11669.76,-5604.248
1395940.3681560652,-57450.523,-64742.312,-17936.646,364.50195,-16884.441,18093.873,11667.888,-5615.072
1395940.372156061,-57458.133,-64753.582,-17944.621,352.8646,-16879.965,18080.893,11665.121,-5618.9375
1395940.376156057,-57452.07,-64738.61,-17939.941,362.14194,-16875.855,18083.252,11663.33,-5613.078
1395940.3801560528,-57440.15,-64718.305,-17927.613,380.98145,-16877.93,18098.918,11666.911,-5604.248
1395940.3841560485,-57439.21,-64715.824,-17926.758,386.1491,-16880.127,18106.812,11669.475,-5601.8477
1395940.3881560443,-57454.31,-64739.137,-17938.191,369.7917,-16881.062,18093.018,11666.098,-5615.56
1395940.3921560403,-57467.734,-64752.566,-17946.33,359.33432,-16880.168,18078.125,11662.231,-5623.6167
1395940.396156036,-57461.305,-64747.684,-17940.797,369.50684,-16876.22,18080.81,11663.94,-5613.973
1395940.4001560318,-57447.96,-64732.63,-17927.531,388.42773,-16872.682,18097.982,11671.306,-5600.4233
1395940.4041560276,-57449.426,-64736.25,-17926.393,388.6312,-16876.465,18105.836,11673.34,-5601.522
1395940.4081560236,-57464.234,-64756.188,-17938.518,372.9655,-16879.232,18093.303,11671.103,-5611.4097
1395940.4121560194,-57477.582,-64767.094,-17946.656,364.62402,-16877.28,18080.201,11669.963,-5617.5537
1395940.4161560151,-57466.92,-64754.6,-17941.773,374.3083,-16871.826,18083.09,11671.591,-5610.433
1395940.420156011,-57451.824,-64737.918,-17930.787,393.75815,-16868.45,18099.854,11675.456,-5596.3545
1395940.4241560067,-57455.812,-64733.117,-17928.387,396.11816,-16875.773,18107.016,11675.863,-5594.564
1395940.4281560027,-57466.797,-64751.793,-17938.355,379.06903,-16880.86,18095.662,11674.724,-5606.242
1395940.4321559984,-57471.805,-64767.54,-17947.674,368.0013,-16877.686,18080.16,11671.509,-5616.2925
1395940.4361559942,-57465.78,-64759.44,-17944.58,378.2959,-16871.42,18081.584,11670.817,-5609.9854
1395940.44015599,-57453.98,-64736.125,-17933.188,395.62988,-16871.541,18096.436,11673.91,-5593.3027
1395940.444155986,-57453.37,-64736.98,-17931.193,396.60645,-16875.855,18102.336,11674.276,-5592.5703
1395940.4481559817,-57468.832,-64763.918,-17945.15,380.57455,-16881.348,18089.559,11671.387,-5605.713
1395940.4521559775,-57474.855,-64782.72,-17953.004,371.7448,-16879.883,18077.027,11668.335,-5612.3457
1395940.4561559733,-57468.59,-64771.324,-17945.72,383.1787,-16873.006,18078.857,11666.626,-5607.463
1395940.460155969,-57455.527,-64748.05,-17933.797,399.08856,-16870.564,18093.182,11668.742,-5597.168
1395940.464155965,-57457.645,-64749.027,-17933.229,400.5127,-16876.873,18097.494,11667.807,-5597.6973
1395940.4681559608,-57475.383,-64767.742,-17944.377,383.91113,-16881.633,18084.676,11664.551,-5606.4863
1395940.4721559566,-57483.97,-64779.22,-17952.352,371.25653,-16881.307,18072.633,11663.046,-5613.2812
1395940.4761559523,-57477.703,-64767.375,-17946.248,383.7077,-16875.814,18076.457,11664.958,-5607.463
1395940.4801559483,-57468.06,-64745.77,-17934.164,401.7334,-16875.855,18093.465,11668.417,-5595.6626
1395940.484155944,-57468.223,-64745.324,-17934.326,402.05893,-16879.477,18099.121,11668.783,-5594.32
1395940.4881559398,-57479.98,-64760.906,-17946.29,386.71875,-16883.465,18087.402,11666.504,-5604.8994
1395940.4921559356,-57488.895,-64765.79,-17954.916,376.91245,-16881.43,18072.674,11663.29,-5612.8745
1395940.4961559314,-57482.953,-64751.344,-17949.545,384.64355,-16875.488,18073.854,11664.673,-5606.7305
1395940.5001559274,-57470.34,-64730.918,-17936.89,401.16376,-16873.21,18090.21,11671.347,-5588.623
1395940.5041559231,-57471.477,-64729.086,-17933.92,404.94794,-16876.1,18098.309,11675.334,-5580.892
1395940.508155919,-57488.65,-64755.13,-17945.924,388.42773,-16880.168,18083.62,11674.235,-5589.3555
1395940.5121559147,-57494.71,-64766.074,-17953.898,378.25522,-16878.703,18066.244,11669.353,-5599.243
1395940.5161559107,-57482.547,-64752.566,-17944.824,390.58432,-16870.443,18070.354,11670.573,-5589.1523
1395940.5201559064,-57467.652,-64727.62,-17931.764,409.6273,-16867.025,18087.646,11676.474,-5574.748
1395940.5241559022,-57468.1,-64730.754,-17930.502,413.57422,-16873.006,18093.303,11678.915,-5572.998
1395940.528155898,-57476.484,-64748.414,-17942.059,399.00717,-16877.117,18079.998,11675.903,-5586.548
1395940.5321558937,-57484.5,-64757.734,-17950.277,387.93945,-16874.635,18067.18,11672.7705,-5593.1396
1395940.5361558897,-57481.855,-64756.88,-17943.115,397.2982,-16869.264,18069.824,11673.95,-5584.961
1395940.5401558855,-57467.207,-64736.41,-17926.799,416.74805,-16866.293,18086.467,11679.443,-5567.79
1395940.5441558813,-57472.09,-64732.22,-17926.229,416.25977,-16873.943,18093.465,11679.81,-5567.912
1395940.548155877,-57490.277,-64758.344,-17940.512,400.34995,-16876.873,18080.322,11676.555,-5581.828
1395940.552155873,-57498.535,-64771.61,-17951.01,391.19467,-16872.967,18066.285,11673.828,-5591.716
1395940.5561558688,-57494.305,-64754.844,-17947.348,396.68784,-16868.652,18068.93,11674.154,-5589.2744
1395940.5601558646,-57481.73,-64731.082,-17934.938,412.1501,-16865.926,18083.049,11678.02,-5578.4507
1395940.5641558603,-57478.68,-64732.668,-17932.781,415.85287,-16871.502,18091.35,11680.461,-5574.341
1395940.5681558563,-57495.04,-64756.51,-17944.133,400.91962,-16874.47,18077.637,11679.606,-5584.4727
1395940.572155852,-57504.68,-64762.047,-17951.986,392.86298,-16872.234,18063.72,11674.4795,-5593.75
1395940.5761558479,-57499.066,-64748.09,-17948.486,402.5879,-16871.094,18065.838,11673.422,-5587.158
1395940.5801558436,-57489.18,-64726.727,-17936.646,417.84668,-16869.832,18080.486,11676.474,-5577.0264
1395940.5841558394,-57492.598,-64732.426,-17935.182,419.14877,-16874.92,18086.71,11677.653,-5577.0264
1395940.5881558354,-57507.12,-64765.465,-17948.854,400.0244,-16881.512,18074.504,11675.375,-5586.6294
1395940.5921558312,-57513.918,-64779.582,-17958.13,389.52637,-16879.11,18062.664,11672.852,-5594.035
1395940.596155827,-57509.727,-64769.816,-17956.014,400.14648,-16876.506,18065.797,11671.306,-5592.733
1395940.6001558227,-57500.938,-64750.652,-17943.318,416.5039,-16874.105,18080.201,11673.34,-5584.1475
1395940.6041558187,-57496.42,-64751.875,-17938.885,419.71844,-16878.703,18084.676,11675.456,-5580.4443
1395940.6081558145,-57510.54,-64763.633,-17949.871,401.85547,-16882.977,18069.377,11671.265,-5592.041
1395940.6121558102,-57526.53,-64777.1,-17960.49,391.35742,-16881.512,18055.584,11666.992,-5600.464
1395940.616155806,-57522.668,-64768.434,-17955.607,398.15268,-16876.059,18059.164,11667.929,-5595.0522
1395940.6201558018,-57512.453,-64750.45,-17943.28,415.60873,-16874.635,18074.951,11671.387,-5580.892
1395940.6241557978,-57513.39,-64752.688,-17943.28,417.11426,-16879.965,18080.77,11671.713,-5581.828
1395940.6281557935,-57529.867,-64781.535,-17956.666,400.43134,-16883.709,18069.947,11671.265,-5592.326
1395940.6321557893,-57537.805,-64793.176,-17965.658,389.36362,-16882.0,18055.584,11668.132,-5600.0166
1395940.636155785,-57527.914,-64780.766,-17957.846,400.9603,-16878.094,18057.008,11666.22,-5594.8486
1395940.640155781,-57517.215,-64764.367,-17944.906,418.2536,-16879.07,18070.312,11668.01,-5584.758
1395940.6441557768,-57517.133,-64768.027,-17941.447,419.27084,-16882.365,18078.328,11672.7705,-5580.6074
1395940.6481557726,-57528.16,-64786.746,-17952.434,403.7679,-16882.977,18066.977,11673.34,-5588.2163
1395940.6521557684,-57533.613,-64791.3,-17961.467,395.223,-16880.209,18054.973,11672.648,-5589.559
1395940.6561557641,-57524.496,-64766.36,-17956.178,406.57553,-16872.193,18058.635,11675.741,-5578.532
1395940.6601557601,-57516.562,-64746.3,-17944.012,423.74677,-16870.443,18073.69,11680.054,-5564.8604
1395940.664155756,-57515.016,-64746.992,-17938.477,426.55438,-16872.518,18079.672,11682.048,-5565.4707
1395940.6681557517,-57525.188,-64766.81,-17949.3,408.81348,-16876.424,18066.732,11679.729,-5578.044
1395940.6721557474,-57538.21,-64777.266,-17957.643,399.21063,-16875.57,18055.258,11678.305,-5583.7812
1395940.6761557434,-57532.797,-64764.445,-17951.824,407.5521,-16871.176,18058.635,11680.583,-5577.352
1395940.6801557392,-57523.6,-64747.805,-17941.61,422.3226,-16874.512,18074.504,11685.1,-5564.8193
1395940.684155735,-57527.305,-64750.164,-17940.309,425.13022,-16878.826,18083.455,11688.599,-5560.913
1395940.6881557307,-57539.55,-64771.566,-17952.963,408.6914,-16881.47,18072.348,11685.71,-5573.8936
1395940.6921557267,-57544.8,-64790.0,-17962.932,397.6644,-16880.209,18058.105,11679.159,-5585.0425
1395940.6961557225,-57534.996,-64785.32,-17958.781,406.53485,-16876.22,18060.71,11676.758,-5578.247
1395940.7001557183,-57524.09,-64762.82,-17946.412,422.60742,-16875.041,18078.572,11681.641,-5565.0635
1395940.704155714,-57524.945,-64751.547,-17946.33,424.64194,-16881.47,18086.02,11683.31,-5565.674
1395940.7081557098,-57540.12,-64769.695,-17957.44,408.6914,-16886.475,18073.771,11681.519,-5576.7417
1395940.7121557058,-57545.656,-64778.527,-17964.682,399.37338,-16887.777,18060.467,11683.676,-5578.0845
1395940.7161557015,-57538.086,-64763.633,-17960.246,411.90594,-16885.133,18061.361,11684.001,-5564.8604
1395940.7201556973,-57526.53,-64740.44,-17948.854,427.6937,-16883.871,18075.887,11685.954,-5552.002
1395940.724155693,-57525.637,-64735.11,-17948.65,426.63574,-16889.12,18080.934,11686.279,-5551.758
1395940.728155689,-57539.96,-64754.805,-17961.71,410.88867,-16893.352,18066.488,11681.56,-5564.209
1395940.7321556848,-57543.176,-64767.418,-17968.832,400.75684,-16887.94,18053.387,11680.054,-5571.737
1395940.7361556806,-57534.465,-64755.94,-17965.047,410.23764,-16882.283,18055.99,11683.391,-5564.8604
1395940.7401556764,-57524.254,-64734.457,-17954.469,425.29297,-16882.61,18070.557,11686.198,-5552.3276
1395940.7441556721,-57520.43,-64730.227,-17952.027,427.81577,-16886.76,18077.107,11687.5,-5549.886
1395940.7481556681,-57535.363,-64744.957,-17966.146,410.15625,-16888.875,18065.553,11684.164,-5562.2153
1395940.752155664,-57545.207,-64748.82,-17978.312,399.04785,-16883.424,18053.426,11679.118,-5571.737
1395940.7561556597,-57537.723,-64739.18,-17974.61,406.3314,-16877.85,18055.46,11678.183,-5568.8887
1395940.7601556554,-57527.754,-64720.625,-17962.484,423.70605,-16875.652,18070.068,11682.211,-5557.414
1395940.7641556514,-57529.055,-64714.723,-17958.62,426.87988,-16875.855,18077.027,11685.222,-5554.647
1395940.7681556472,-57539.145,-64729.496,-17970.867,409.1797,-16879.883,18065.43,11685.303,-5562.7036
1395940.772155643,-57543.824,-64731.938,-17979.574,397.2575,-16873.902,18053.996,11684.408,-5565.8774
1395940.7761556387,-57538.574,-64720.42,-17974.812,404.3376,-16871.094,18055.42,11683.472,-5559.4893
1395940.7801556345,-57524.293,-64701.01,-17962.281,423.0957,-16871.95,18068.97,11685.222,-5549.4795
1395940.7841556305,-57522.87,-64699.79,-17960.45,426.59506,-16873.21,18072.43,11686.768,-5547.7295
1395940.7881556263,-57535.566,-64719.934,-17970.215,409.26108,-16872.803,18059.326,11686.605,-5555.6235
1395940.792155622,-57544.152,-64730.676,-17978.76,397.50165,-16871.785,18046.346,11685.1,-5563.7207
1395940.7961556178,-57537.805,-64713.707,-17973.633,407.71484,-16866.902,18049.887,11683.554,-5557.9834
1395940.8001556138,-57530.152,-64688.195,-17964.6,424.60126,-16866.13,18063.436,11683.96,-5548.625
1395940.8041556096,-57531.945,-64691.773,-17962.605,425.94403,-16868.979,18071.98,11689.982,-5545.4917
1395940.8081556053,-57542.44,-64715.13,-17972.982,411.2142,-16871.217,18061.646,11690.837,-5554.3623
1395940.812155601,-57549.766,-64723.31,-17981.648,397.17612,-16869.06,18049.195,11688.314,-5559.4893
1395940.8161555969,-57541.383,-64708.215,-17976.238,403.0355,-16861.207,18052.328,11687.378,-5553.7925
1395940.8201555929,-57528.973,-64686.527,-17963.95,422.3226,-16858.562,18066.447,11690.1455,-5542.44
1395940.8241555886,-57528.77,-64691.652,-17961.06,426.87988,-16860.84,18074.26,11690.674,-5544.1084
1395940.8281555844,-57542.93,-64718.914,-17971.762,411.25488,-16862.996,18061.564,11687.988,-5555.827
1395940.8321555802,-57556.03,-64725.547,-17982.545,400.30927,-16862.225,18044.8,11682.861,-5564.6567
1395940.8361555762,-57550.01,-64708.418,-17977.742,410.72592,-16856.121,18047.81,11682.089,-5559.53
1395940.840155572,-57537.723,-64687.664,-17966.268,430.01303,-16852.215,18064.006,11686.605,-5544.637
1395940.8441555677,-57540.246,-64689.984,-17964.682,431.4372,-16854.98,18072.062,11691.203,-5540.1206
1395940.8481555635,-57551.477,-64705.12,-17975.465,415.56805,-16856.648,18058.838,11689.494,-5552.8564
1395940.8521555595,-57563.844,-64714.113,-17986.287,401.89618,-16857.586,18042.848,11684.123,-5564.209
1395940.8561555552,-57558.27,-64696.13,-17983.766,411.33627,-16853.271,18043.172,11681.315,-5562.3374
1395940.860155551,-57539.348,-64677.492,-17969.97,428.67026,-16850.465,18059.773,11686.687,-5549.0723
1395940.8641555468,-57539.348,-64671.918,-17966.553,431.51855,-16853.23,18068.768,11689.616,-5545.41
1395940.8681555425,-57550.01,-64692.26,-17976.115,416.09702,-16856.854,18056.479,11688.559,-5553.63
1395940.8721555385,-57558.88,-64704.105,-17983.684,403.88998,-16855.225,18044.557,11686.85,-5559.774
1395940.8761555343,-57551.965,-64687.055,-17974.977,414.5101,-16848.918,18048.828,11688.64,-5553.467
1395940.88015553,-57543.01,-64667.035,-17964.314,432.45444,-16847.209,18063.559,11692.343,-5544.0674
1395940.8841555258,-57542.117,-64674.113,-17963.705,435.4248,-16852.418,18071.86,11694.052,-5542.562
1395940.8881555218,-57555.992,-64698.367,-17975.424,417.52118,-16857.463,18059.611,11691.325,-5552.9785
1395940.8921555176,-57564.58,-64714.03,-17983.44,407.59277,-16856.242,18046.307,11691.122,-5556.1523
1395940.8961555134,-57554.566,-64693.484,-17975.953,417.60254,-16850.668,18051.107,11692.546,-5544.8813
1395940.9001555091,-57543.54,-64677.37,-17964.438,432.77997,-16851.115,18066.488,11693.563,-5535.9297
1395940.904155505,-57545.86,-64687.176,-17961.71,432.49512,-16858.969,18072.348,11693.686,-5538.33
1395940.908155501,-57558.8,-64706.625,-17972.941,415.89355,-16861.207,18060.059,11694.377,-5548.218
1395940.9121554967,-57567.793,-64715.13,-17982.748,404.82587,-16860.19,18046.225,11692.221,-5552.816
1395940.9161554924,-57560.266,-64698.57,-17975.057,417.31772,-16851.482,18049.887,11693.808,-5542.3584
1395940.9201554882,-57546.184,-64680.746,-17962.605,434.93652,-16849.324,18066.895,11697.754,-5530.721
1395940.9241554842,-57543.742,-64675.66,-17960.775,438.11035,-16858.969,18071.533,11694.54,-5534.546
1395940.92815548,-57559.125,-64692.387,-17974.65,421.22397,-16863.69,18056.396,11687.988,-5548.991
1395940.9321554757,-57567.547,-64704.47,-17983.562,410.4411,-16861.451,18043.783,11685.222,-5557.251
1395940.9361554715,-57563.64,-64697.676,-17978.15,417.84668,-16854.33,18046.307,11684.978,-5551.229
1395940.9401554673,-57555.707,-64678.996,-17968.791,433.59375,-16852.906,18060.791,11688.925,-5539.8765
1395940.9441554633,-57554.973,-64678.1,-17964.479,436.7269,-16855.754,18068.562,11692.871,-5536.5806
1395940.948155459,-57564.496,-64697.348,-17974.0,423.38055,-16856.04,18055.46,11691.04,-5548.34
1395940.9521554548,-57573.73,-64712.12,-17981.69,413.04526,-16858.154,18041.26,11687.175,-5556.0303
1395940.9561554505,-57570.273,-64701.254,-17975.953,420.6543,-16853.842,18041.098,11686.728,-5548.9097
1395940.9601554465,-57554.363,-64675.54,-17965.496,438.51727,-16849.203,18055.95,11688.965,-5536.418
1395940.9641554423,-57548.992,-64672.082,-17964.723,445.63803,-16852.254,18063.396,11691.528,-5535.6855
1395940.968155438,-57563.438,-64701.5,-17975.545,428.87372,-16857.992,18052.166,11691.244,-5543.213
1395940.9721554338,-57576.336,-64714.64,-17984.375,415.60873,-16853.924,18037.518,11687.704,-5551.88
1395940.9761554296,-57568.2,-64704.227,-17977.174,424.56055,-16847.982,18041.057,11687.256,-5548.1772
1395940.9801554256,-57554.242,-64688.07,-17963.502,442.8304,-16847.168,18057.7,11691.691,-5538.208
1395940.9841554214,-57556.4,-64687.746,-17962.81,443.92905,-16853.76,18066.732,11695.272,-5533.895
1395940.9881554171,-57569.418,-64703.41,-17973.877,427.12402,-16859.62,18056.275,11694.58,-5543.905
1395940.992155413,-57583.418,-64711.43,-17984.863,414.99838,-16857.951,18043.172,11690.593,-5553.7925
1395940.996155409,-57576.336,-64704.023,-17980.633,422.56674,-16855.672,18043.66,11690.1045,-5548.34
1395941.0001554047,-57565.27,-64687.055,-17968.588,440.30762,-16855.348,18058.105,11692.261,-5535.075
1395941.0041554004,-57564.375,-64693.81,-17965.78,444.01044,-16860.23,18065.309,11692.993,-5532.186
1395941.0081553962,-57581.055,-64715.58,-17979.656,429.64682,-16865.643,18052.002,11689.128,-5544.3115
1395941.0121553922,-57594.035,-64731.164,-17988.607,416.70737,-16863.566,18039.266,11687.704,-5551.677
1395941.016155388,-57585.9,-64718.344,-17983.074,427.7751,-16855.225,18043.457,11690.1455,-5542.44
1395941.0201553837,-57573.406,-64697.105,-17972.25,441.85385,-16857.422,18059.57,11694.377,-5527.995
1395941.0241553795,-57575.36,-64690.51,-17970.459,442.66766,-16861.736,18064.129,11698.283,-5526.0825
1395941.0281553753,-57586.793,-64709.84,-17979.574,429.23993,-16863.078,18052.002,11698.12,-5532.5522
1395941.0321553713,-57596.4,-64731.49,-17989.299,418.00946,-16863.484,18038.453,11692.749,-5540.2427
1395941.036155367,-57593.02,-64726.727,-17985.107,427.6123,-16859.822,18040.447,11689.86,-5539.1035
1395941.0401553628,-57577.76,-64707.316,-17972.9,445.71942,-16857.992,18055.379,11689.331,-5530.884
1395941.0441553586,-57574.426,-64709.758,-17970.256,449.34082,-16862.793,18060.344,11689.494,-5530.1514
1395941.0481553546,-57591.23,-64725.344,-17982.79,432.5765,-16867.352,18048.504,11687.134,-5539.1035
1395941.0521553503,-57601.2,-64726.848,-17990.52,422.52606,-16862.469,18037.232,11685.751,-5544.7188
1395941.056155346,-57599.652,-64714.438,-17986.531,430.33856,-16857.951,18040.895,11687.175,-5536.743
1395941.0601553419,-57589.152,-64708.78,-17977.254,445.8415,-16857.625,18056.967,11690.308,-5526.3267
1395941.0641553376,-57588.258,-64715.254,-17976.36,445.7601,-16864.096,18062.988,11691.895,-5531.8604
1395941.0681553336,-57602.418,-64735.56,-17985.475,433.47168,-16865.56,18052.572,11692.302,-5541.423
1395941.0721553294,-57613.28,-64745.324,-17991.537,422.11914,-16864.746,18038.045,11688.884,-5548.055
1395941.0761553252,-57608.195,-64728.03,-17987.63,431.8441,-16863.322,18037.924,11684.164,-5546.2646
1395941.080155321,-57596.273,-64706.91,-17975.871,449.58496,-16864.299,18052.654,11684.57,-5537.5166
1395941.084155317,-57595.38,-64705.977,-17974.203,451.66016,-16869.955,18061.809,11688.762,-5536.9873
1395941.0881553127,-57610.11,-64722.17,-17984.09,435.9538,-16872.234,18049.357,11687.948,-5545.4917
1395941.0921553085,-57619.59,-64734.01,-17991.13,423.33984,-16870.564,18034.18,11684.733,-5550.3745
1395941.0961553042,-57613.527,-64722.58,-17987.02,434.85516,-16867.146,18034.018,11682.17,-5549.398
1395941.1001553,-57604.332,-64705.69,-17976.645,450.84637,-16867.92,18047.322,11685.425,-5537.4756
1395941.104155296,-57605.754,-64703.656,-17971.844,455.44434,-16870.605,18054.89,11688.681,-5533.529
1395941.1081552918,-57618.574,-64726.117,-17982.87,439.12762,-16875.244,18041.18,11683.594,-5548.584
1395941.1121552875,-57628.99,-64736.453,-17994.629,429.64682,-16874.105,18026.082,11676.025,-5560.791
1395941.1161552833,-57629.03,-64723.594,-17992.432,436.23862,-16869.752,18028.932,11675.131,-5555.339
1395941.1201552793,-57617.96,-64699.14,-17979.98,451.29395,-16870.646,18045.248,11679.24,-5542.8467
1395941.124155275,-57621.137,-64701.906,-17977.783,453.89813,-16875.977,18053.467,11681.479,-5542.3584
1395941.1281552708,-57636.152,-64721.965,-17990.072,437.45932,-16879.924,18039.186,11680.42,-5551.9614
1395941.1321552666,-57640.137,-64733.848,-17998.535,428.30405,-16877.889,18024.658,11681.071,-5554.9727
1395941.1361552626,-57628.258,-64722.414,-17990.967,437.5407,-16871.582,18026.693,11682.78,-5546.224
1395941.1401552584,-57616.254,-64700.89,-17977.377,455.44434,-16869.06,18042.36,11689.453,-5530.477
1395941.1441552541,-57612.062,-64697.188,-17973.553,459.18784,-16872.438,18050.781,11693.075,-5523.4375
1395941.14815525,-57623.293,-64716.27,-17983.887,444.0918,-16875.57,18039.674,11690.186,-5535.034
1395941.1521552457,-57634.44,-64726.645,-17994.264,433.5124,-16873.861,18025.31,11682.78,-5545.6543
1395941.1561552417,-57632.246,-64717.45,-17989.828,443.6849,-16868.043,18025.146,11677.612,-5542.8467
1395941.1601552374,-57618.33,-64698.938,-17977.418,461.3851,-16866.7,18038.412,11678.305,-5530.0703
1395941.1641552332,-57617.027,-64701.5,-17973.064,464.7624,-16872.234,18045.33,11680.054,-5528.076
1395941.168155229,-57633.547,-64722.332,-17986.043,447.95737,-16878.297,18033.611,11677.979,-5539.795
1395941.172155225,-57641.727,-64730.266,-17996.053,434.61102,-16872.762,18020.143,11676.677,-5548.1772
1395941.1761552207,-57634.848,-64716.758,-17991.455,443.48145,-16869.305,18022.42,11677.49,-5543.905
1395941.1801552165,-57625.734,-64699.547,-17980.225,459.3099,-16870.24,18037.15,11683.472,-5527.629
1395941.1841552122,-57627.2,-64705.285,-17978.719,461.99545,-16874.676,18043.336,11689.616,-5525.3096
1395941.188155208,-57639.73,-64721.926,-17988.24,446.6146,-16875.447,18032.064,11692.221,-5534.912
1395941.192155204,-57645.918,-64732.992,-17995.281,436.76758,-16871.582,18019.654,11690.837,-5539.1035
1395941.1961551998,-57640.098,-64723.15,-17988.607,447.22495,-16869.1,18023.193,11692.261,-5532.878
1395941.2001551955,-57627.81,-64706.91,-17975.79,464.43686,-16869.914,18038.697,11697.51,-5522.38
1395941.2041551913,-57628.46,-64708.293,-17972.453,467.36655,-16873.291,18047.852,11699.179,-5524.2515
1395941.2081551873,-57640.137,-64732.016,-17984.498,449.25946,-16878.906,18034.588,11693.767,-5539.8765
1395941.212155183,-57645.305,-64744.914,-17991.62,438.3138,-16874.512,18019.49,11688.559,-5548.869
1395941.2161551788,-57638.957,-64731.12,-17986.898,448.6084,-16869.832,18021.2,11685.425,-5543.376
1395941.2201551746,-57630.58,-64715.336,-17975.586,465.86102,-16869.549,18033.611,11685.181,-5536.865
1395941.2241551704,-57626.1,-64717.492,-17974.0,469.44174,-16874.635,18041.463,11685.344,-5537.191
1395941.2281551664,-57640.137,-64734.785,-17983.236,453.9795,-16877.076,18031.414,11684.53,-5549.0317
1395941.2321551621,-57653.81,-64750.492,-17992.717,442.58627,-16876.791,18015.79,11680.664,-5555.664
1395941.236155158,-57648.074,-64742.23,-17988.363,451.45673,-16871.217,18018.31,11680.542,-5548.1367
1395941.2401551537,-57632.895,-64721.152,-17978.191,469.84863,-16870.688,18033.162,11685.385,-5531.942
1395941.2441551497,-57630.78,-64723.27,-17972.656,473.51074,-16874.756,18040.568,11687.175,-5527.629
1395941.2481551454,-57641.97,-64745.16,-17981.527,458.98438,-16876.873,18029.744,11683.716,-5536.052
1395941.2521551412,-57654.176,-64753.83,-17994.02,444.987,-16877.645,18014.812,11679.037,-5543.5386
1395941.256155137,-57648.684,-64743.45,-17990.154,454.14227,-16872.723,18016.316,11678.02,-5535.9297
1395941.2601551327,-57632.61,-64721.152,-17977.133,472.0866,-16868.693,18030.193,11682.414,-5520.508
1395941.2641551287,-57639.203,-64718.387,-17975.994,474.0804,-16872.111,18035.604,11685.71,-5519.5723
1395941.2681551245,-57650.96,-64740.195,-17985.596,460.04233,-16878.053,18024.658,11686.157,-5530.477
1395941.2721551203,-57654.707,-64754.355,-17994.06,448.40497,-16874.35,18009.48,11681.4375,-5537.883
1395941.276155116,-57648.926,-64745.973,-17988.973,456.99057,-16870.24,18011.475,11679.321,-5533.122
1395941.280155112,-57637.74,-64724.203,-17976.482,475.46387,-16868.938,18025.473,11682.455,-5520.1416
1395941.2841551078,-57636.64,-64720.95,-17971.883,480.10254,-16869.996,18031.738,11685.1,-5519.1245
1395941.2881551036,-57651.125,-64738.12,-17985.799,463.41962,-16874.676,18019.043,11680.583,-5532.2266
1395941.2921550993,-57663.574,-64754.6,-17997.438,449.01532,-16874.268,18003.459,11675.944,-5540.7715
1395941.2961550953,-57661.582,-64751.344,-17990.764,457.39746,-16869.996,18005.127,11677.409,-5534.6274
1395941.300155091,-57651.207,-64726.523,-17978.76,474.81284,-16866.74,18020.305,11682.902,-5519.6533
1395941.3041550869,-57650.066,-64718.59,-17977.498,477.90527,-16870.525,18028.729,11685.71,-5513.7534
1395941.3081550826,-57661.094,-64743.004,-17988.445,462.80927,-16876.506,18018.514,11682.17,-5527.588
1395941.3121550784,-57669.23,-64749.96,-17995.85,454.06088,-16871.217,18006.268,11677.734,-5540.731
1395941.3161550744,-57661.01,-64734.336,-17990.357,461.34442,-16864.99,18006.633,11675.171,-5537.313
1395941.3201550702,-57651.695,-64722.25,-17977.865,478.06805,-16865.193,18022.055,11680.136,-5524.048
1395941.324155066,-57650.637,-64721.195,-17975.057,482.95087,-16869.914,18030.518,11682.739,-5523.4375
1395941.3281550617,-57663.74,-64740.848,-17986.451,467.57,-16875.691,18018.637,11680.868,-5535.482
1395941.3321550577,-57674.4,-64752.08,-17994.549,455.60712,-16875.244,18005.291,11679.525,-5543.498
1395941.3361550535,-57669.965,-64743.086,-17991.578,461.42578,-16873.82,18007.447,11678.915,-5536.255
1395941.3401550492,-57658.57,-64727.418,-17979.736,476.9287,-16873.373,18022.828,11683.065,-5521.8916
1395941.344155045,-57658.0,-64724.855,-17976.074,479.98047,-16875.367,18031.006,11686.157,-5521.7285
1395941.3481550408,-57668.254,-64748.82,-17986.084,466.3086,-16878.256,18020.834,11686.768,-5533.203
1395941.3521550368,-57679.324,-64767.62,-17994.71,456.70575,-16876.709,18006.633,11684.408,-5537.069
1395941.3561550325,-57675.05,-64758.344,-17988.973,467.9769,-16873.006,18008.342,11684.53,-5528.524
1395941.3601550283,-57665.04,-64734.62,-17977.05,484.13086,-16870.32,18022.828,11688.029,-5516.3984
1395941.364155024,-57663.496,-64730.88,-17974.324,486.0433,-16876.994,18030.438,11692.261,-5512.329
1395941.36815502,-57675.66,-64755.496,-17985.596,468.13965,-16882.771,18020.955,11691.8545,-5516.8457
1395941.3721550158,-57682.293,-64771.04,-17993.45,454.95605,-16884.766,18007.568,11690.308,-5521.688
1395941.3761550116,-57675.58,-64760.867,-17989.705,462.97202,-16880.656,18008.139,11688.07,-5521.037
1395941.3801550074,-57666.504,-64744.1,-17979.656,480.99774,-16881.145,18024.049,11691.813,-5510.62
1395941.3841550031,-57667.48,-64751.387,-17977.865,482.01498,-16883.912,18032.553,11694.621,-5513.387
1395941.3881549991,-57676.555,-64768.07,-17986.898,468.09897,-16886.354,18019.37,11692.749,-5524.333
1395941.392154995,-57685.06,-64777.957,-17994.832,458.0892,-16886.639,18004.965,11688.599,-5533.325
1395941.3961549907,-57682.78,-64767.863,-17990.275,467.08173,-16878.744,18006.959,11689.331,-5526.408
1395941.4001549864,-57670.168,-64749.473,-17977.662,486.5316,-16877.564,18022.502,11693.93,-5511.0273
1395941.4041549824,-57671.836,-64748.414,-17976.441,488.68817,-16882.568,18029.582,11694.865,-5509.481
1395941.4081549782,-57686.2,-64768.11,-17988.607,474.5687,-16885.092,18019.451,11692.017,-5519.0024
1395941.412154974,-57697.023,-64776.938,-17999.188,463.50098,-16883.871,18003.377,11686.931,-5530.477
1395941.4161549697,-57693.28,-64769.656,-17994.385,472.37143,-16878.133,18004.191,11685.344,-5527.4253
1395941.4201549657,-57680.95,-64755.535,-17981.812,490.88544,-16880.086,18019.49,11685.222,-5515.8286
1395941.4241549615,-57676.23,-64753.83,-17976.074,496.2972,-16884.197,18024.943,11684.978,-5514.8115
1395941.4281549572,-57685.426,-64769.656,-17986.94,481.48602,-16887.33,18012.33,11682.251,-5526.937
1395941.432154953,-57692.832,-64773.44,-17996.297,469.9707,-16883.098,17999.35,11679.525,-5532.2676
1395941.4361549488,-57685.547,-64757.203,-17989.746,479.69565,-16875.855,18001.465,11678.63,-5526.3267
1395941.4401549448,-57675.336,-64741.17,-17979.9,494.7917,-16877.117,18013.062,11680.786,-5517.5376
1395941.4441549405,-57674.4,-64746.746,-17976.727,498.0062,-16881.145,18021.037,11685.751,-5513.1836
1395941.4481549363,-57692.75,-64769.574,-17987.549,482.70673,-16885.418,18009.48,11684.733,-5521.7285
1395941.452154932,-57702.19,-64779.016,-17996.664,471.51694,-16884.848,17995.32,11683.472,-5526.0825
1395941.456154928,-57690.758,-64768.11,-17991.17,479.8584,-16879.191,17998.25,11684.286,-5519.4907
1395941.4601549238,-57681.4,-64753.01,-17978.963,498.94208,-16880.615,18014.607,11688.599,-5505.249
1395941.4641549196,-57679.688,-64751.387,-17976.197,502.36005,-16887.127,18022.299,11692.424,-5502.401
1395941.4681549154,-57693.848,-64772.668,-17986.328,484.21225,-16891.357,18010.662,11691.8545,-5511.068
1395941.4721549111,-57699.87,-64790.812,-17994.629,470.78452,-16888.184,17999.797,11690.674,-5514.282
1395941.4761549071,-57690.105,-64774.66,-17988.648,480.79428,-16886.027,18002.482,11693.156,-5504.232
1395941.480154903,-57681.52,-64759.117,-17977.459,500.0,-16884.969,18016.766,11696.005,-5491.089
1395941.4841548987,-57684.652,-64765.18,-17974.691,504.02835,-16889.12,18021.443,11695.476,-5493.164
1395941.4881548944,-57703.125,-64783.082,-17985.596,488.28125,-16891.44,18010.906,11691.813,-5507.324
1395941.4921548904,-57710.9,-64791.79,-17993.328,478.84116,-16888.387,17998.943,11686.239,-5517.009
1395941.4961548862,-57706.586,-64783.285,-17990.887,487.87436,-16884.441,18000.896,11685.954,-5511.7188
1395941.500154882,-57696.7,-64764.57,-17980.55,504.06903,-16885.295,18014.16,11688.151,-5500.7734
1395941.5041548777,-57702.07,-64775.434,-17978.354,506.51044,-16889.975,18020.752,11691.0,-5497.925
1395941.5081548735,-57717.164,-64795.453,-17988.607,490.153,-16894.207,18009.645,11691.203,-5509.3184
1395941.5121548695,-57722.008,-64797.895,-17997.6,479.04462,-16886.475,17997.355,11686.931,-5516.5205
1395941.5161548653,-57719.402,-64782.15,-17994.467,487.3047,-16881.104,17997.885,11685.1,-5510.783
1395941.520154861,-57707.887,-64763.836,-17980.916,507.0801,-16882.365,18014.771,11688.3955,-5497.3555
1395941.5241548568,-57707.277,-64769.207,-17978.027,507.487,-16888.957,18022.014,11689.372,-5497.8438
1395941.5281548528,-57719.2,-64791.098,-17990.154,490.6413,-16894.41,18008.953,11685.995,-5512.9805
1395941.5321548486,-57730.836,-64803.59,-17998.738,478.55634,-16892.457,17995.037,11684.489,-5520.8335
1395941.5361548443,-57729.13,-64791.63,-17992.066,487.58954,-16885.01,17995.77,11682.211,-5514.608
1395941.54015484,-57713.055,-64768.395,-17979.86,508.54495,-16884.074,18009.277,11685.263,-5501.709
1395941.5441548359,-57712.89,-64773.113,-17978.354,510.29462,-16893.352,18016.195,11687.582,-5498.4946
1395941.5481548319,-57725.305,-64789.676,-17987.428,495.23926,-16894.246,18006.348,11686.6455,-5508.8706
1395941.5521548276,-57732.79,-64801.637,-17997.07,482.62534,-16894.695,17991.21,11682.658,-5519.735
1395941.5561548234,-57729.94,-64790.53,-17993.328,490.2751,-16890.828,17991.781,11681.152,-5517.0493
1395941.5601548192,-57713.258,-64775.637,-17981.73,509.31805,-16891.316,18006.512,11684.286,-5504.476
1395941.5641548152,-57711.875,-64771.77,-17978.15,511.88153,-16896.648,18013.672,11688.681,-5499.1865
1395941.568154811,-57727.62,-64783.9,-17991.7,493.0013,-16902.67,18002.768,11687.663,-5508.1787
1395941.5721548067,-57735.312,-64792.402,-18001.385,483.43915,-16900.025,17991.252,11687.785,-5512.37
1395941.5761548025,-57730.062,-64778.73,-17997.723,492.47235,-16895.467,17994.02,11689.413,-5506.1035
1395941.5801547985,-57719.24,-64757.367,-17988.037,507.69046,-16898.031,18006.756,11691.488,-5496.826
1395941.5841547942,-57721.03,-64761.8,-17988.81,508.87045,-16903.24,18011.598,11690.674,-5498.169
1395941.58815479,-57738.16,-64783.49,-18002.482,494.01855,-16908.936,17998.902,11686.035,-5511.068
1395941.5921547858,-57749.31,-64795.695,-18010.945,483.56122,-16907.186,17985.027,11681.234,-5519.857
1395941.5961547815,-57737.305,-64776.86,-18003.703,492.51303,-16901.896,17987.834,11683.269,-5509.6436
1395941.6001547775,-57727.46,-64747.4,-17994.264,508.3415,-16900.879,18005.209,11689.087,-5496.053
1395941.6041547733,-57724.246,-64743.246,-17992.025,513.42773,-16901.287,18013.143,11688.07,-5496.338
1395941.608154769,-57735.027,-64764.285,-18005.33,496.21582,-16903.85,17999.188,11681.926,-5511.678
1395941.6121547648,-57746.707,-64773.48,-18017.254,482.01498,-16903.076,17981.975,11677.531,-5519.043
1395941.6161547608,-57741.09,-64760.95,-18012.451,489.13574,-16896.037,17984.986,11677.979,-5512.9395
1395941.6201547566,-57730.957,-64744.145,-18001.668,505.28973,-16895.387,18000.326,11684.082,-5500.5293
1395941.6241547524,-57728.883,-64740.6,-18000.164,507.9346,-16903.89,18008.871,11685.425,-5497.5586
1395941.6281547481,-57744.914,-64758.26,-18013.795,491.57715,-16907.797,17997.111,11679.24,-5513.591
1395941.632154744,-57754.844,-64767.254,-18025.635,480.46875,-16904.867,17982.87,11675.334,-5522.4204
1395941.63615474,-57741.54,-64740.24,-18019.41,490.80405,-16896.688,17984.822,11675.578,-5514.974
1395941.6401547357,-57724.043,-64715.824,-18005.168,508.2601,-16895.305,17999.879,11680.014,-5502.8076
1395941.6441547314,-57720.99,-64720.664,-18002.686,511.9222,-16898.357,18008.057,11684.326,-5501.9126
1395941.6481547272,-57734.01,-64742.35,-18015.422,493.65234,-16900.432,17994.752,11679.851,-5513.265
1395941.6521547232,-57745.605,-64755.535,-18025.758,481.5267,-16896.12,17978.516,11674.357,-5523.0713
1395941.656154719,-57739.91,-64740.805,-18022.34,490.76337,-16888.266,17980.266,11673.503,-5517.741
1395941.6601547147,-57723.31,-64718.02,-18008.3,507.52768,-16887.086,17997.111,11678.427,-5503.4995
1395941.6641547105,-57721.723,-64710.29,-18005.127,511.02704,-16890.504,18003.785,11679.321,-5501.4243
1395941.6681547062,-57733.24,-64728.438,-18015.992,494.83237,-16894.41,17992.514,11676.066,-5513.143
1395941.6721547022,-57741.58,-64734.99,-18025.025,482.7474,-16893.514,17979.086,11671.469,-5524.9434
1395941.676154698,-57735.68,-64718.67,-18020.834,490.31577,-16888.387,17981.771,11671.794,-5517.2935
1395941.6801546938,-57723.594,-64698.938,-18008.83,508.2601,-16888.469,17994.71,11674.765,-5503.9062
1395941.6841546895,-57720.582,-64698.812,-18005.086,511.1898,-16896.932,18001.547,11676.799,-5501.18
1395941.6881546855,-57734.703,-64711.387,-18013.387,496.45996,-16898.682,17988.934,11675.537,-5511.3936
1395941.6921546813,-57742.883,-64716.473,-18023.723,483.6833,-16894.207,17972.453,11670.654,-5519.6943
1395941.696154677,-57738.812,-64703.453,-18019.898,490.2751,-16889.12,17972.371,11669.475,-5512.8584
1395941.7001546728,-57728.844,-64688.887,-18009.318,508.66702,-16889.69,17987.387,11673.015,-5504.883
1395941.7041546688,-57732.707,-64689.09,-18009.645,511.51532,-16895.752,17996.258,11676.066,-5504.802
1395941.7081546646,-57747.926,-64703.777,-18022.014,492.91992,-16896.648,17986.492,11671.672,-5518.5547
1395941.7121546604,-57753.867,-64709.965,-18029.338,482.7474,-16889.607,17971.965,11667.114,-5526.9775
1395941.7161546561,-57748.375,-64708.01,-18024.049,491.98407,-16887.41,17972.047,11665.609,-5520.4673
1395941.720154652,-57735.92,-64692.953,-18011.922,508.66702,-16888.266,17987.225,11667.807,-5509.9287
1395941.724154648,-57732.832,-64690.434,-18007.244,512.57324,-16894.37,17995.402,11667.929,-5511.3936
1395941.7281546437,-57747.926,-64708.375,-18018.637,496.3379,-16896.932,17984.09,11664.999,-5525.92
1395941.7321546394,-57755.902,-64721.723,-18026.531,485.83984,-16893.799,17970.135,11664.389,-5529.46
1395941.7361546352,-57753.38,-64706.3,-18022.299,495.03583,-16885.174,17970.623,11663.33,-5523.3154
1395941.7401546312,-57741.457,-64680.87,-18011.15,511.51532,-16881.145,17988.445,11667.399,-5507.5684
1395941.744154627,-57735.8,-64680.625,-18009.686,517.08984,-16885.133,17997.682,11672.323,-5502.075
1395941.7481546227,-57750.285,-64702.355,-18021.525,499.2269,-16887.492,17985.23,11671.103,-5513.0615
1395941.7521546185,-57758.344,-64712.61,-18026.367,488.36264,-16883.748,17971.518,11670.898,-5515.666
1395941.7561546143,-57752.605,-64699.18,-18022.746,496.45996,-16879.559,17975.994,11671.387,-5506.7954
1395941.7601546103,-57743.695,-64678.793,-18013.469,514.8926,-16880.127,17992.717,11675.781,-5496.2974
1395941.764154606,-57747.56,-64684.207,-18010.701,517.61884,-16886.23,18000.123,11677.206,-5497.518
1395941.7681546018,-57756.715,-64699.87,-18021.973,501.87177,-16891.602,17987.63,11675.619,-5508.2603
1395941.7721545976,-57768.273,-64712.324,-18031.129,489.2578,-16886.883,17971.924,11673.747,-5513.55
1395941.7761545936,-57764.527,-64694.83,-18027.02,497.5993,-16882.65,17973.797,11674.113,-5505.4526
1395941.7801545893,-57747.64,-64672.527,-18014.404,514.64844,-16884.033,17988.648,11677.409,-5489.38
1395941.784154585,-57744.55,-64669.477,-18009.93,518.4326,-16886.19,17995.605,11677.206,-5486.125
1395941.7881545809,-57757.855,-64688.152,-18020.875,505.53387,-16888.836,17984.66,11676.758,-5494.426
1395941.7921545766,-57763.348,-64698.082,-18027.752,496.3786,-16887.127,17970.541,11673.828,-5502.9707
1395941.7961545726,-57763.062,-64686.242,-18027.303,500.85452,-16886.271,17970.174,11670.695,-5500.4883
1395941.8001545684,-57752.523,-64663.78,-18017.049,516.154,-16886.19,17987.305,11675.985,-5487.02
1395941.8041545642,-57751.832,-64665.246,-18014.486,519.73474,-16888.469,17996.746,11679.892,-5485.6772
1395941.80815456,-57763.145,-64687.785,-18024.984,503.29593,-16892.66,17984.783,11676.107,-5498.4946
1395941.812154556,-57772.586,-64697.062,-18035.564,492.79785,-16891.44,17969.482,11672.648,-5506.592
1395941.8161545517,-57764.285,-64684.29,-18029.988,502.03452,-16885.906,17972.088,11672.689,-5499.0645
1395941.8201545475,-57754.19,-64668.38,-18016.969,516.5609,-16885.824,17985.678,11673.34,-5489.502
1395941.8241545432,-57756.633,-64668.99,-18014.404,517.5375,-16892.781,17991.293,11673.747,-5487.264
1395941.828154539,-57769.86,-64693.973,-18026.164,501.87177,-16896.322,17980.307,11669.963,-5498.0063
1395941.832154535,-57778.566,-64708.293,-18037.965,488.72885,-16896.12,17964.844,11667.033,-5507.4463
1395941.8361545308,-57770.55,-64697.715,-18034.668,497.43652,-16887.98,17964.803,11666.423,-5501.4243
1395941.8401545265,-57753.95,-64668.62,-18020.06,519.4092,-16883.3,17980.998,11671.387,-5488.3223
1395941.8441545223,-57757.406,-64670.574,-18017.701,521.68787,-16889.201,17987.184,11671.591,-5488.7695
1395941.8481545183,-57767.58,-64692.305,-18026.531,505.45248,-16894.084,17975.262,11669.23,-5499.756
1395941.852154514,-57775.35,-64710.656,-18035.645,493.9372,-16891.725,17961.02,11665.976,-5506.3887
1395941.8561545098,-57771.484,-64708.133,-18032.553,500.20346,-16887.207,17962.361,11667.399,-5500.041
1395941.8601545056,-57757.812,-64688.844,-18019.287,517.61884,-16887.29,17977.254,11669.516,-5488.485
1395941.8641545016,-57756.88,-64690.797,-18016.033,521.11816,-16891.033,17984.334,11670.695,-5487.549
1395941.8681544974,-57771.566,-64715.58,-18027.02,504.1097,-16896.363,17971.559,11665.405,-5500.366
1395941.8721544931,-57781.25,-64721.234,-18038.86,492.2689,-16896.24,17954.428,11657.959,-5512.573
1395941.876154489,-57775.27,-64703.574,-18034.547,502.23798,-16890.34,17957.234,11658.8545,-5503.7437
1395941.8801544847,-57765.504,-64685.266,-18022.217,519.4906,-16888.754,17974.324,11663.859,-5491.9434
1395941.8841544806,-57767.297,-64691.816,-18019.816,520.6299,-16895.916,17983.521,11666.708,-5490.7637
1395941.8881544764,-57781.66,-64716.637,-18031.047,503.49936,-16901.082,17971.883,11665.202,-5499.1865
1395941.8921544722,-57789.797,-64727.418,-18038.9,493.4082,-16901.287,17957.684,11661.621,-5503.337
1395941.896154468,-57777.184,-64713.016,-18034.791,503.62143,-16893.19,17957.684,11660.563,-5496.379
1395941.900154464,-57760.133,-64692.223,-18020.996,523.35614,-16889.201,17972.494,11667.033,-5480.062
1395941.9041544597,-57756.348,-64690.92,-18016.725,525.83826,-16891.725,17979.86,11670.451,-5476.4404
1395941.9081544555,-57774.902,-64713.46,-18029.053,509.84702,-16897.42,17968.059,11666.708,-5490.438
1395941.9121544512,-57786.83,-64722.94,-18039.104,499.79657,-16895.102,17954.266,11663.9,-5496.867
1395941.916154447,-57777.67,-64707.36,-18034.1,506.51044,-16892.578,17956.38,11663.249,-5491.9844
1395941.920154443,-57765.18,-64685.754,-18019.49,523.9258,-16892.334,17974.447,11668.864,-5478.5566
1395941.9241544388,-57764.367,-64687.137,-18018.475,526.4486,-16898.357,17980.469,11670.37,-5478.2715
1395941.9281544345,-57775.96,-64708.293,-18029.744,511.02704,-16901.205,17968.791,11668.661,-5489.38
1395941.9321544303,-57787.68,-64724.406,-18039.021,498.57587,-16900.758,17953.816,11665.69,-5497.762
1395941.9361544263,-57777.63,-64706.504,-18033.285,507.28354,-16892.904,17955.648,11664.673,-5491.903
1395941.940154422,-57768.23,-64691.203,-18022.299,524.04785,-16895.428,17971.518,11669.556,-5478.1494
1395941.9441544178,-57768.312,-64694.215,-18021.81,526.97754,-16900.514,17980.184,11670.573,-5476.6035
1395941.9481544136,-57780.234,-64712.484,-18033.611,511.6374,-16902.547,17969.809,11668.213,-5487.02
1395941.9521544094,-57792.117,-64722.78,-18040.283,500.0,-16899.781,17954.875,11665.487,-5493.449
1395941.9561544054,-57783.773,-64714.113,-18034.424,508.6263,-16894.775,17956.299,11666.83,-5486.8164
1395941.9601544011,-57771.484,-64701.215,-18024.049,524.90234,-16896.12,17970.785,11669.678,-5479.6143
1395941.964154397,-57770.227,-64702.92,-18019.898,531.25,-16900.473,17977.498,11668.945,-5478.3936
1395941.9681543927,-57784.26,-64721.07,-18029.217,515.7064,-16904.135,17965.008,11666.382,-5489.38
1395941.9721543887,-57796.266,-64741.418,-18036.824,500.20346,-16904.785,17948.771,11662.231,-5499.756
1395941.9761543844,-57785.605,-64727.906,-18032.268,508.95184,-16900.92,17948.486,11660.36,-5492.2285
1395941.9801543802,-57775.676,-64707.727,-18020.264,525.63477,-16901.326,17963.582,11664.389,-5481.201
1395941.984154376,-57778.445,-64705.57,-18018.23,528.93066,-16905.314,17969.93,11666.667,-5480.184
1395941.9881543717,-57787.395,-64720.297,-18028.443,516.27606,-16906.291,17959.84,11666.911,-5487.549
1395941.9921543677,-57792.32,-64732.426,-18036.459,506.3477,-16903.117,17947.43,11666.83,-5491.496
1395941.9961543635,-57785.93,-64720.42,-18029.826,516.3574,-16897.34,17950.398,11668.01,-5483.7646
1395942.0001543593,-57772.992,-64699.098,-18017.01,533.28455,-16896.322,17965.943,11671.143,-5472.046
1395942.004154355,-57772.668,-64698.246,-18012.492,535.19696,-16900.594,17974.568,11675.334,-5467.611
1395942.008154351,-57782.637,-64725.26,-18023.602,519.20575,-16904.867,17962.158,11674.643,-5478.6787
1395942.0121543468,-57790.04,-64734.05,-18034.262,507.9346,-16902.059,17944.459,11669.189,-5489.543
1395942.0161543426,-57788.574,-64719.32,-18030.232,515.58435,-16895.508,17944.662,11666.423,-5485.9214
1395942.0201543383,-57777.793,-64696.574,-18017.01,534.2204,-16894.207,17960.572,11666.626,-5473.348
1395942.0241543343,-57779.297,-64702.64,-18013.062,538.6963,-16897.664,17968.059,11668.661,-5470.866
1395942.02815433,-57793.945,-64718.63,-18025.27,521.80994,-16903.32,17955.445,11666.789,-5480.7944
1395942.0321543259,-57804.04,-64732.547,-18034.953,508.6263,-16904.297,17941.854,11665.854,-5488.5664
1395942.0361543216,-57795.656,-64726.36,-18030.438,514.64844,-16901.49,17943.889,11665.283,-5484.416
1395942.0401543174,-57791.832,-64706.34,-18022.543,531.00586,-16902.71,17959.393,11667.196,-5471.273
1395942.0441543134,-57790.938,-64707.074,-18020.102,535.6039,-16905.396,17970.418,11672.607,-5464.885
1395942.0481543092,-57807.008,-64740.24,-18032.918,518.02576,-16911.459,17958.7,11670.736,-5476.074
1395942.052154305,-57820.723,-64756.96,-18042.074,504.67938,-16913.127,17940.186,11662.517,-5491.8213
1395942.0561543007,-57814.293,-64739.18,-18034.668,513.46844,-16905.314,17942.709,11663.249,-5485.2705
1395942.0601542967,-57803.918,-64719.402,-18025.594,529.5817,-16905.07,17957.805,11666.464,-5473.104
1395942.0641542925,-57803.02,-64722.535,-18024.455,531.6569,-16911.58,17965.414,11668.132,-5471.2324
1395942.0681542882,-57816.69,-64746.3,-18037.15,515.38086,-16918.865,17952.596,11663.9,-5486.654
1395942.072154284,-57825.562,-64754.4,-18045.94,504.15042,-16917.4,17941.041,11660.278,-5494.0596
1395942.0761542798,-57816.977,-64742.8,-18039.186,513.7533,-16909.627,17943.197,11661.418,-5485.9214
1395942.0801542758,-57805.055,-64722.82,-18024.781,531.1279,-16908.53,17959.352,11665.69,-5470.9883
1395942.0841542715,-57806.277,-64728.68,-18023.885,533.08105,-16919.312,17964.682,11666.464,-5469.808
1395942.0881542673,-57818.93,-64755.58,-18033.895,514.7705,-16925.904,17949.219,11661.174,-5484.131
1395942.092154263,-57824.18,-64771.61,-18041.707,502.31937,-16921.957,17936.117,11657.431,-5496.1753
1395942.096154259,-57821.21,-64760.418,-18038.412,511.2305,-16917.36,17938.396,11657.553,-5492.839
1395942.1001542548,-57807.617,-64738.04,-18024.049,530.9245,-16917.48,17954.06,11661.947,-5477.336
1395942.1041542506,-57807.7,-64740.766,-18020.264,534.2204,-16921.957,17962.2,11665.609,-5471.151
1395942.1081542464,-57818.24,-64765.344,-18031.25,519.7754,-16926.19,17951.375,11665.527,-5479.167
1395942.1121542421,-57822.836,-64773.723,-18037.883,507.32425,-16922.04,17937.988,11663.656,-5486.6943
1395942.116154238,-57822.797,-64763.023,-18033.936,514.8926,-16916.748,17939.535,11662.476,-5482.829
1395942.1201542339,-57815.39,-64750.45,-18025.229,530.8024,-16918.092,17952.557,11663.371,-5473.633
1395942.1241542296,-57809.9,-64748.375,-18019.857,534.30176,-16921.143,17958.822,11667.114,-5470.581
1395942.1281542254,-57819.62,-64764.49,-18028.32,520.38574,-16925.13,17946.818,11664.958,-5479.7363
1395942.1321542214,-57831.668,-64776.33,-18039.227,508.6263,-16925.049,17927.654,11658.447,-5489.99
1395942.1361542172,-57825.766,-64760.297,-18033.732,517.13055,-16917.604,17926.758,11654.989,-5486.084
1395942.140154213,-57811.89,-64741.254,-18020.672,534.87146,-16914.104,17941.854,11655.6,-5473.999
1395942.1441542087,-57812.38,-64739.707,-18017.293,539.30664,-16919.271,17949.219,11658.163,-5471.5986
1395942.1481542047,-57825.766,-64763.266,-18028.035,524.6582,-16923.91,17939.088,11658.122,-5480.713
1395942.1521542005,-57836.996,-64785.117,-18039.062,512.93945,-16924.195,17923.748,11654.46,-5490.7227
1395942.1561541962,-57831.953,-64768.8,-18035.727,519.3278,-16918.824,17923.625,11651.571,-5492.676
1395942.160154192,-57819.824,-64742.473,-18024.252,536.3363,-16919.719,17939.738,11654.989,-5483.032
1395942.1641541878,-57817.87,-64743.37,-18022.014,541.2191,-16926.473,17947.957,11657.431,-5479.126
1395942.1681541838,-57829.836,-64769.535,-18030.273,526.16376,-16931.031,17936.28,11656.494,-5488.3223
1395942.1721541795,-57840.78,-64783.9,-18037.557,512.98016,-16927.938,17921.307,11653.564,-5496.46
1395942.1761541753,-57836.875,-64777.184,-18034.262,520.75195,-16922.566,17921.346,11652.141,-5493.2456
1395942.180154171,-57823.977,-64756.145,-18021.893,540.446,-16915.812,17936.932,11655.233,-5482.422
1395942.184154167,-57822.797,-64751.67,-18019.979,542.806,-16918.986,17947.021,11657.1045,-5480.2246
1395942.1881541628,-57832.36,-64774.58,-18030.355,526.4079,-16925.578,17936.035,11657.349,-5488.7695
1395942.1921541586,-57844.2,-64797.242,-18037.191,513.83466,-16927.166,17921.307,11655.762,-5491.6587
1395942.1961541544,-57839.4,-64780.113,-18029.705,520.79266,-16923.38,17925.13,11657.593,-5485.6772
1395942.2001541501,-57823.0,-64768.72,-18018.31,538.53357,-16923.828,17940.227,11660.482,-5474.284
1395942.2041541461,-57822.43,-64774.09,-18016.643,543.00946,-16930.502,17948.445,11658.041,-5474.4873
1395942.208154142,-57836.633,-64792.93,-18028.117,526.65204,-16934.855,17935.791,11656.128,-5486.5317
1395942.2121541377,-57846.56,-64813.48,-18037.68,514.974,-16932.74,17921.834,11655.233,-5492.961
1395942.2161541334,-57842.164,-64800.457,-18033.53,525.26855,-16929.078,17925.537,11656.616,-5485.5146
1395942.2201541294,-57829.51,-64783.33,-18020.02,545.41016,-16928.387,17941.488,11662.761,-5470.256
1395942.2241541252,-57829.184,-64775.555,-18015.3,548.0957,-16928.264,17949.383,11668.01,-5462.8096
1395942.228154121,-57843.47,-64795.29,-18024.943,532.9997,-16930.584,17938.191,11665.609,-5474.284
1395942.2321541167,-57853.395,-64814.375,-18034.383,518.5547,-16933.229,17923.096,11660.93,-5485.962
1395942.2361541125,-57847.25,-64801.273,-18030.965,529.2969,-16929.158,17923.666,11660.197,-5483.114
1395942.2401541085,-57835.98,-64782.555,-18021.688,546.9157,-16930.055,17937.135,11660.808,-5472.2495
1395942.2441541043,-57832.93,-64781.82,-18017.213,549.1537,-16931.193,17943.156,11660.4,-5472.168
1395942.2481541,-57844.973,-64795.902,-18026.611,533.61005,-16932.049,17932.293,11659.018,-5482.8696
1395942.2521540958,-57857.465,-64807.902,-18036.012,521.28094,-16932.373,17918.66,11655.111,-5491.618
1395942.2561540918,-57855.023,-64798.504,-18032.43,530.8838,-16927.41,17920.94,11651.693,-5487.3047
1395942.2601540876,-57846.234,-64781.496,-18020.916,548.1364,-16928.914,17935.547,11655.111,-5474.7314
1395942.2641540833,-57842.004,-64785.688,-18016.602,550.6592,-16935.1,17943.074,11657.1045,-5475.2607
1395942.268154079,-57853.883,-64808.72,-18027.914,533.6914,-16938.314,17931.072,11655.64,-5485.2705
1395942.2721540749,-57863.812,-64817.547,-18034.953,523.4375,-16936.28,17918.092,11654.257,-5490.7637
1395942.2761540709,-57857.75,-64806.234,-18033.0,530.3955,-16932.414,17916.748,11651.53,-5489.746
1395942.2801540666,-57844.605,-64789.27,-18021.607,546.5088,-16931.6,17929.078,11653.809,-5481.527
1395942.2841540624,-57842.33,-64792.117,-18015.219,551.4323,-16937.135,17937.297,11657.023,-5478.3936
1395942.2881540582,-57855.594,-64816.246,-18025.635,535.4411,-16941.53,17926.596,11657.268,-5484.497
1395942.2921540542,-57864.504,-64821.82,-18034.303,524.21063,-16938.03,17913.045,11655.803,-5490.682
1395942.29615405,-57858.074,-64805.258,-18030.885,535.15625,-16935.873,17914.998,11654.663,-5485.067
1395942.3001540457,-57843.793,-64784.426,-18017.13,554.44336,-16936.238,17932.049,11656.21,-5477.092
1395942.3041540415,-57846.03,-64790.895,-18012.86,555.86755,-16938.436,17940.105,11657.634,-5474.3247
1395942.3081540375,-57861.207,-64812.91,-18022.705,539.71356,-16944.5,17926.799,11655.151,-5484.782
1395942.3121540332,-57866.008,-64815.96,-18031.17,533.3659,-16941.57,17913.371,11653.198,-5494.0186
1395942.316154029,-57856.082,-64809.164,-18026.326,541.2191,-16935.426,17915.162,11654.582,-5489.909
1395942.3201540248,-57844.81,-64796.227,-18011.719,557.57654,-16936.28,17930.867,11658.651,-5476.6035
1395942.3241540205,-57844.81,-64790.082,-18009.725,561.4421,-16941.814,17937.215,11658.447,-5476.644
1395942.3281540165,-57861.777,-64812.582,-18022.705,549.0316,-16944.947,17925.945,11655.314,-5490.072
1395942.3321540123,-57875.977,-64832.562,-18030.314,538.0453,-16943.562,17911.012,11651.978,-5498.4946
1395942.336154008,-57868.652,-64819.95,-18024.129,545.93915,-16939.78,17913.738,11653.32,-5491.008
1395942.3401540038,-57857.098,-64794.273,-18012.166,565.4297,-16935.67,17930.867,11659.058,-5475.0977
1395942.3441539998,-57854.86,-64790.773,-18008.016,569.01044,-16936.32,17937.785,11661.743,-5467.6924
1395942.3481539956,-57866.78,-64813.316,-18017.945,553.5482,-16940.918,17924.684,11658.122,-5479.37
1395942.3521539913,-57874.434,-64830.934,-18027.508,542.31775,-16939.453,17910.197,11653.402,-5491.333
1395942.356153987,-57872.766,-64818.81,-18022.096,549.60126,-16936.443,17912.395,11651.733,-5489.9497
1395942.3601539829,-57862.715,-64803.43,-18009.48,567.30145,-16938.844,17927.775,11654.297,-5477.3765
1395942.3641539789,-57859.375,-64806.113,-18002.4,571.81805,-16944.865,17936.361,11656.128,-5476.522
1395942.3681539746,-57873.902,-64827.11,-18012.777,555.86755,-16947.795,17926.473,11653.891,-5488.485
1395942.3721539704,-57880.37,-64838.625,-18024.902,544.8812,-16947.469,17911.988,11649.252,-5496.5415
1395942.3761539662,-57872.56,-64826.62,-18021.607,552.4089,-16942.18,17912.312,11647.543,-5495.6465
1395942.3801539622,-57859.742,-64803.1,-18009.318,569.5801,-16941.65,17926.96,11647.99,-5488.037
1395942.384153958,-57861.695,-64796.39,-18005.006,573.6898,-16943.727,17932.902,11649.455,-5487.956
1395942.3881539537,-57874.31,-64814.13,-18015.992,558.5531,-16947.307,17922.771,11646.647,-5499.5117
1395942.3921539495,-57879.19,-64823.652,-18025.39,547.48535,-16943.727,17907.105,11642.904,-5507.2837
1395942.3961539452,-57871.094,-64806.48,-18019.451,557.00684,-16937.135,17907.47,11643.433,-5499.878
1395942.4001539412,-57857.91,-64787.316,-18007.365,574.9105,-16937.012,17923.543,11646.281,-5486.206
1395942.404153937,-57852.215,-64780.805,-18001.75,580.48505,-16939.738,17931.152,11645.427,-5485.6367
1395942.4081539328,-57862.47,-64793.824,-18011.922,567.5049,-16941.814,17919.027,11641.562,-5499.105
1395942.4121539285,-57868.33,-64811.527,-18022.705,555.4199,-16941.61,17906.006,11641.5205,-5505.412
1395942.4161539245,-57859.215,-64799.97,-18019.328,562.1745,-16934.082,17907.959,11644.287,-5494.2627
1395942.4201539203,-57849.895,-64777.47,-18008.3,579.26434,-16931.682,17923.178,11650.269,-5476.6846
1395942.424153916,-57847.535,-64763.676,-18004.191,583.25195,-16934.45,17928.06,11651.978,-5473.552
1395942.4281539118,-57853.926,-64779.3,-18016.195,566.89453,-16937.623,17915.568,11650.757,-5481.12
1395942.4321539078,-57861.656,-64788.21,-18028.484,554.2399,-16938.762,17904.379,11650.798,-5484.497
1395942.4361539036,-57856.203,-64771.16,-18023.885,563.27313,-16935.588,17907.635,11650.92,-5477.661
1395942.4401538994,-57840.414,-64746.258,-18011.639,583.2113,-16932.781,17922.404,11655.518,-5463.786
1395942.4441538951,-57837.2,-64750.41,-18007.732,582.6416,-16935.67,17930.95,11658.488,-5458.8623
1395942.448153891,-57851.727,-64772.543,-18019.37,564.7787,-16938.436,17919.842,11657.227,-5468.1807
1395942.452153887,-57863.445,-64777.47,-18030.111,550.2523,-16939.088,17908.0,11655.844,-5477.173
1395942.4561538827,-57856.324,-64764.367,-18025.188,557.8207,-16932.496,17909.668,11656.332,-5471.802
1395942.4601538784,-57844.688,-64739.992,-18013.55,577.55536,-16926.148,17923.992,11660.563,-5457.113
1395942.4641538742,-57846.477,-64737.184,-18012.33,579.10156,-16932.902,17931.844,11664.145,-5454.753
1395942.4681538702,-57859.297,-64753.785,-18024.252,562.09314,-16938.152,17922.242,11663.94,-5465.454
1395942.472153866,-57873.414,-64761.312,-18036.541,549.0316,-16934.979,17908.488,11660.278,-5476.4404
1395942.4761538617,-57869.508,-64750.938,-18032.797,557.1696,-16928.996,17911.744,11661.621,-5468.1807
1395942.4801538575,-57858.645,-64726.645,-18021.688,574.4629,-16928.59,17927.654,11665.568,-5454.5493
1395942.4841538533,-57855.594,-64722.58,-18019.246,577.8402,-16933.758,17934.693,11668.62,-5452.3115
1395942.4881538493,-57871.42,-64751.793,-18029.176,560.34344,-16936.158,17922.975,11665.731,-5467.489
1395942.492153845,-57881.31,-64765.06,-18038.045,547.933,-16932.861,17910.156,11661.011,-5477.6206
1395942.4961538408,-57878.01,-64749.797,-18034.344,555.542,-16925.213,17912.557,11658.081,-5475.6675
1395942.5001538366,-57864.91,-64725.305,-18022.908,573.2422,-16923.422,17928.387,11658.8955,-5467.5703
1395942.5041538326,-57863.203,-64722.008,-18019.41,577.3519,-16928.387,17935.588,11657.064,-5470.337
1395942.5081538283,-57876.832,-64744.996,-18030.111,561.03516,-16931.805,17923.38,11654.785,-5479.6143
1395942.512153824,-57886.152,-64757.367,-18038.777,548.7875,-16927.734,17907.47,11653.198,-5485.9214
1395942.5161538199,-57882.57,-64741.824,-18037.15,556.3965,-16922.363,17908.773,11652.019,-5482.666
1395942.5201538156,-57872.316,-64722.13,-18026.896,572.71326,-16919.678,17924.56,11654.338,-5471.6797
1395942.5241538116,-57872.4,-64719.117,-18021.322,576.29395,-16921.469,17934.49,11658.081,-5467.8145
1395942.5281538074,-57885.95,-64742.8,-18032.268,560.2214,-16924.725,17923.543,11657.1455,-5478.6787
1395942.5321538032,-57900.35,-64759.402,-18043.092,548.5026,-16918.254,17911.092,11654.826,-5484.782
1395942.536153799,-57894.574,-64739.098,-18035.727,559.2448,-16911.785,17912.639,11655.437,-5478.5566
1395942.540153795,-57876.793,-64717.492,-18023.438,575.60223,-16911.58,17925.293,11656.657,-5469.2383
1395942.5441537907,-57878.867,-64723.676,-18020.672,576.82294,-16917.807,17933.594,11660.319,-5467.611
1395942.5481537865,-57891.44,-64744.1,-18029.867,562.0524,-16918.58,17924.398,11659.343,-5475.627
1395942.5521537822,-57897.79,-64754.6,-18038.574,550.08954,-16915.65,17909.22,11656.291,-5482.3
1395942.556153778,-57894.53,-64744.02,-18038.006,557.45447,-16916.545,17911.174,11657.675,-5474.7725
1395942.560153774,-57882.164,-64720.91,-18024.578,574.6664,-16912.639,17928.508,11662.761,-5459.6763
1395942.5641537698,-57883.953,-64720.258,-18022.137,574.9105,-16916.992,17936.035,11663.615,-5456.8687
1395942.5681537655,-57903.117,-64745.566,-18036.012,557.08826,-16922.893,17926.31,11661.784,-5467.204
1395942.5721537613,-57910.363,-64755.78,-18044.475,545.2881,-16920.94,17913.25,11660.278,-5475.708
1395942.5761537573,-57906.17,-64745.85,-18042.033,554.64685,-16911.744,17914.795,11661.581,-5472.86
1395942.580153753,-57897.383,-64734.742,-18030.232,573.85254,-16909.344,17930.787,11666.179,-5459.2285
1395942.5841537488,-57895.67,-64738.566,-18025.96,574.74774,-16916.586,17937.664,11665.894,-5458.008
1395942.5881537446,-57910.32,-64756.715,-18035.441,557.37305,-16922.607,17924.56,11659.384,-5471.5986
1395942.5921537406,-57919.598,-64767.5,-18044.312,545.2881,-16919.148,17908.488,11653.972,-5480.998
1395942.5961537363,-57911.867,-64750.816,-18038.9,556.19305,-16913.533,17909.791,11653.361,-5474.8535
1395942.600153732,-57900.434,-64731.527,-18025.105,571.77734,-16912.273,17923.951,11656.291,-5463.2163
1395942.6041537279,-57899.62,-64734.867,-18020.59,574.6257,-16918.092,17931.316,11657.919,-5461.3447
1395942.6081537236,-57913.086,-64760.824,-18031.697,559.2448,-16922.201,17919.516,11653.524,-5474.365
1395942.6121537196,-57921.67,-64764.812,-18040.73,547.7295,-16920.125,17905.193,11648.275,-5484.741
1395942.6161537154,-57930.83,-64749.88,-18037.557,554.5248,-16914.918,17904.908,11646.362,-5481.649
1395942.6201537112,-57935.1,-64730.227,-18026.693,573.40497,-16913.127,17921.916,11650.024,-5469.6455
1395942.624153707,-57935.06,-64727.95,-18022.746,577.6367,-16916.668,17929.037,11650.31,-5470.1743
1395942.628153703,-57955.285,-64751.59,-18038.086,559.52966,-16922.12,17915.527,11643.515,-5488.973
1395942.6321536987,-57966.88,-64762.21,-18046.021,549.8047,-16917.766,17902.426,11641.968,-5497.966
1395942.6361536945,-57958.54,-64747.6,-18037.639,561.4828,-16911.824,17903.523,11644.043,-5487.2236
1395942.6401536902,-57950.035,-64725.18,-18024.252,579.7526,-16910.28,17916.383,11648.479,-5470.622
1395942.644153686,-57950.89,-64721.113,-18020.467,582.60095,-16913.29,17924.154,11649.008,-5472.1274
1395942.648153682,-57967.41,-64747.152,-18033.814,565.59247,-16915.975,17914.998,11646.037,-5483.236
1395942.6521536778,-57978.56,-64760.824,-18044.19,554.5248,-16914.307,17903.646,11643.188,-5488.5254
1395942.6561536735,-57973.39,-64753.38,-18039.51,565.0228,-16909.832,17903.688,11642.822,-5483.236
1395942.6601536693,-57962.324,-64740.93,-18028.2,583.82166,-16908.447,17919.148,11645.224,-5469.9707
1395942.6641536653,-57957.727,-64733.074,-18024.09,588.5417,-16911.174,17928.182,11649.902,-5465.8613
1395942.668153661,-57969.85,-64746.586,-18036.053,572.5505,-16913.371,17916.3,11650.1875,-5475.1387
1395942.6721536568,-57979.74,-64755.7,-18041.992,561.8083,-16907.064,17902.385,11647.665,-5483.032
1395942.6761536526,-57971.56,-64741.496,-18036.012,570.516,-16904.338,17903.523,11646.892,-5476.4814
1395942.6801536484,-57961.266,-64718.547,-18023.926,588.0127,-16902.629,17919.475,11652.67,-5460.327
1395942.6841536444,-57957.805,-64715.13,-18019.572,590.6576,-16902.832,17928.63,11655.314,-5458.8623
1395942.6881536401,-57965.78,-64735.844,-18029.744,575.8464,-16906.78,17916.098,11653.361,-5470.256
1395942.692153636,-57976.117,-64751.832,-18039.633,563.47656,-16907.512,17902.67,11654.379,-5470.744
1395942.6961536317,-57967.043,-64734.867,-18034.588,573.73047,-16902.344,17906.129,11657.756,-5460.002
1395942.7001536277,-57957.52,-64712.363,-18022.502,590.4541,-16901.814,17921.225,11660.727,-5448.242
1395942.7041536234,-57954.754,-64707.727,-18019.816,596.15076,-16906.414,17928.63,11662.231,-5443.7666
1395942.7081536192,-57962.28,-64723.27,-18027.426,582.60095,-16909.059,17917.928,11659.953,-5457.601
1395942.712153615,-57977.95,-64731.0,-18037.924,566.60974,-16905.477,17905.111,11657.431,-5469.32
1395942.716153611,-57974.773,-64716.637,-18036.174,571.0449,-16903.32,17907.268,11654.216,-5465.78
1395942.7201536067,-57961.59,-64697.062,-18022.584,589.7217,-16900.105,17921.469,11655.6,-5454.4272
1395942.7241536025,-57959.758,-64701.99,-18018.19,595.8252,-16906.17,17930.543,11657.349,-5452.0674
1395942.7281535983,-57972.7,-64720.95,-18027.223,581.21747,-16911.297,17919.23,11654.257,-5465.454
1395942.732153594,-57978.56,-64731.0,-18037.395,568.68494,-16910.197,17903.564,11648.723,-5476.4
1395942.73615359,-57972.74,-64722.863,-18033.203,577.55536,-16904.42,17905.438,11649.333,-5467.8955
1395942.7401535858,-57961.348,-64699.547,-18021.322,594.93005,-16901.693,17920.533,11653.198,-5451.701
1395942.7441535816,-57959.637,-64700.24,-18017.537,599.3246,-16905.438,17929.322,11654.379,-5449.951
1395942.7481535773,-57971.4,-64724.164,-18029.5,582.8451,-16911.174,17916.627,11651.042,-5462.199
1395942.7521535733,-57980.105,-64738.04,-18036.541,572.4284,-16909.627,17901.652,11649.455,-5470.256
1395942.756153569,-57974.367,-64725.71,-18030.355,583.1299,-16904.908,17903.24,11651.733,-5462.362
1395942.7601535649,-57960.574,-64706.34,-18018.19,598.7956,-16904.623,17917.033,11656.413,-5447.103
1395942.7641535606,-57961.875,-64707.48,-18015.828,600.58594,-16910.156,17925.984,11656.25,-5448.161
1395942.7681535564,-57980.227,-64730.96,-18027.059,584.7168,-16916.871,17916.057,11653.361,-5458.9033
1395942.7721535524,-57986.086,-64738.977,-18034.424,573.6898,-16913.533,17902.547,11648.886,-5467.3667
1395942.7761535482,-57978.273,-64728.844,-18028.809,581.7871,-16907.023,17905.232,11648.315,-5461.833
1395942.780153544,-57966.027,-64713.383,-18017.457,599.4873,-16906.697,17919.637,11652.141,-5451.335
1395942.7841535397,-57965.984,-64706.75,-18015.545,604.0446,-16913.371,17925.863,11654.053,-5447.5913
1395942.7881535357,-57980.51,-64724.33,-18024.658,589.8031,-16917.807,17915.812,11653.769,-5458.0894
1395942.7921535315,-57991.375,-64736.613,-18031.617,576.29395,-16914.307,17902.344,11651.123,-5467.6514
1395942.7961535272,-57981.406,-64720.094,-18027.426,582.723,-16905.477,17903.564,11650.106,-5462.4434
1395942.800153523,-57968.14,-64694.418,-18017.863,599.3246,-16905.396,17917.48,11651.245,-5452.922
1395942.8041535188,-57963.95,-64691.938,-18012.736,604.126,-16909.424,17925.66,11652.629,-5449.26
1395942.8081535148,-57974.406,-64712.363,-18022.502,589.8031,-16912.518,17914.998,11647.909,-5462.972
1395942.8121535105,-57989.953,-64731.12,-18034.22,578.2471,-16910.768,17899.334,11644.613,-5473.9585
1395942.8161535063,-57982.75,-64724.203,-18027.873,585.85614,-16906.209,17900.555,11643.637,-5465.7393
1395942.820153502,-57968.06,-64701.38,-18014.445,604.28876,-16904.582,17915.08,11648.315,-5452.759
1395942.824153498,-57972.168,-64703.168,-18013.754,605.50946,-16909.506,17922.078,11649.943,-5450.5615
1395942.8281534938,-57987.227,-64724.49,-18024.293,590.4541,-16914.51,17912.598,11648.071,-5460.6934
1395942.8321534896,-57996.094,-64742.8,-18035.238,578.8574,-16914.021,17898.072,11645.468,-5471.639
1395942.8361534853,-57992.637,-64737.797,-18029.5,588.13477,-16910.809,17899.252,11645.142,-5468.506
1395942.840153481,-57982.87,-64718.875,-18018.719,606.89294,-16910.441,17915.73,11647.339,-5456.584
1395942.844153477,-57977.664,-64709.516,-18014.324,611.20605,-16911.256,17925.172,11649.536,-5452.0264
1395942.8481534729,-57992.027,-64739.34,-18025.96,594.1162,-16914.795,17913.656,11649.374,-5462.1177
1395942.8521534686,-57999.96,-64753.785,-18034.344,583.45544,-16912.11,17897.096,11646.2,-5471.761
1395942.8561534644,-57994.875,-64740.97,-18029.867,590.6576,-16907.838,17898.031,11642.212,-5468.506
1395942.8601534604,-57988.203,-64721.152,-18020.06,605.9164,-16908.855,17912.924,11643.84,-5454.875
1395942.8641534562,-57986.695,-64714.316,-18016.725,609.9447,-16911.459,17920.248,11645.224,-5453.369
1395942.868153452,-57996.867,-64731.406,-18025.555,594.72656,-16915.61,17908.367,11642.7,-5464.4775
1395942.8721534477,-58008.586,-64742.15,-18032.43,583.3334,-16912.557,17892.172,11639.486,-5474.0806
1395942.8761534437,-57999.758,-64729.7,-18027.1,592.65137,-16908.611,17893.107,11638.916,-5468.425
1395942.8801534395,-57984.05,-64708.66,-18015.463,609.1716,-16907.674,17908.244,11644.409,-5456.0957
1395942.8841534352,-57986.695,-64709.555,-18013.795,613.4033,-16914.836,17915.771,11647.583,-5455.0376
1395942.888153431,-57998.742,-64733.727,-18024.822,596.96454,-16919.719,17904.826,11644.206,-5466.716
1395942.8921534268,-58004.234,-64749.72,-18031.78,585.083,-16918.986,17892.09,11639.201,-5472.168
1395942.8961534228,-57996.38,-64745.28,-18024.578,595.0114,-16914.43,17893.758,11639.323,-5464.2744
1395942.9001534185,-57983.195,-64728.234,-18010.295,613.85095,-16911.174,17911.377,11645.061,-5450.277
1395942.9041534143,-57982.26,-64724.082,-18007.406,619.87305,-16913.209,17918.377,11648.112,-5446.6553
1395942.90815341,-57993.734,-64741.78,-18018.555,604.5736,-16917.969,17904.5,11642.741,-5463.094
1395942.912153406,-58002.727,-64759.074,-18027.182,592.8955,-16916.139,17888.998,11638.347,-5469.2793
1395942.9161534018,-57997.887,-64751.26,-18023.64,598.91766,-16909.139,17890.584,11637.573,-5463.135
1395942.9201533976,-57988.16,-64734.17,-18013.104,615.6006,-16909.791,17905.803,11641.4795,-5449.26
1395942.9241533934,-57989.22,-64732.87,-18007.854,620.3613,-16915.324,17913.777,11645.468,-5442.505
1395942.9281533891,-58003.094,-64749.72,-18020.508,603.6377,-16918.213,17902.344,11642.456,-5453.939
1395942.9321533851,-58013.67,-64767.094,-18030.07,591.63416,-16919.678,17888.428,11637.207,-5462.5244
1395942.936153381,-58002.24,-64749.797,-18024.21,601.80664,-16911.174,17891.033,11637.37,-5453.7354
1395942.9401533767,-57987.67,-64729.086,-18011.11,619.3034,-16909.18,17905.6,11640.422,-5440.918
1395942.9441533724,-57987.715,-64732.668,-18009.033,621.94824,-16914.918,17913.615,11643.148,-5441.2437
1395942.9481533684,-57998.414,-64750.082,-18017.822,609.4564,-16919.842,17902.467,11638.713,-5458.4556
1395942.9521533642,-58013.348,-64763.105,-18028.523,597.2494,-16920.613,17888.428,11634.033,-5471.5576
1395942.95615336,-58006.758,-64748.13,-18022.95,605.306,-16918.092,17890.26,11633.952,-5463.8267
1395942.9601533557,-57988.977,-64723.473,-18008.3,623.6166,-16911.744,17906.658,11637.207,-5448.3237
1395942.9641533515,-57987.1,-64732.26,-18006.512,627.0752,-16917.36,17913.127,11637.736,-5444.906
1395942.9681533475,-58001.465,-64758.305,-18017.66,608.5205,-16925.496,17900.514,11635.702,-5457.1943
1395942.9721533433,-58011.64,-64765.383,-18026.652,597.4121,-16925.13,17887.98,11631.348,-5469.93
1395942.976153339,-58008.508,-64752.523,-18024.537,603.92255,-16920.492,17889.283,11631.022,-5463.2163
1395942.9801533348,-57994.062,-64733.97,-18010.418,623.3317,-16917.48,17904.217,11633.83,-5450.399
1395942.9841533308,-57992.516,-64740.562,-18006.55,626.7497,-16922.242,17911.377,11633.83,-5450.2363
1395942.9881533266,-58003.625,-64769.41,-18018.025,610.47363,-16926.84,17897.299,11629.15,-5465.5356
1395942.9921533223,-58015.707,-64780.48,-18029.42,596.8832,-16925.701,17883.871,11626.669,-5471.761
1395942.996153318,-58011.64,-64766.93,-18026.814,604.6957,-16921.672,17884.686,11628.378,-5465.251
1395943.0001533139,-57996.46,-64753.094,-18014.201,622.0703,-16921.102,17900.717,11631.796,-5453.5728
1395943.0041533099,-57997.926,-64756.758,-18011.271,624.8373,-16923.26,17909.832,11633.342,-5453.044
1395943.0081533056,-58017.336,-64781.535,-18023.234,610.7178,-16926.555,17900.838,11631.511,-5463.8267
1395943.0121533014,-58027.71,-64792.24,-18030.803,599.1211,-16929.484,17887.492,11629.802,-5470.622
1395943.0161532972,-58019.9,-64777.71,-18024.984,608.3171,-16924.113,17889.08,11630.005,-5463.623
1395943.0201532932,-58006.594,-64758.14,-18012.29,626.9531,-16914.307,17903.076,11633.342,-5448.0796
1395943.024153289,-58001.67,-64756.31,-18005.615,631.958,-16918.498,17910.604,11635.092,-5444.2954
1395943.0281532847,-58014.367,-64778.812,-18015.992,616.333,-16927.043,17899.658,11631.552,-5457.0312
1395943.0321532805,-58029.258,-64794.76,-18025.676,602.4984,-16925.66,17884.686,11627.768,-5464.437
1395943.0361532765,-58024.414,-64785.117,-18022.217,611.084,-16920.613,17885.254,11630.778,-5456.6245
1395943.0401532722,-58006.348,-64762.086,-18009.848,629.39453,-16919.19,17901.002,11635.62,-5441.7725
1395943.044153268,-58006.348,-64761.56,-18004.72,632.487,-16920.533,17910.197,11637.817,-5436.5234
1395943.0481532637,-58017.66,-64780.48,-18017.049,617.79785,-16929.607,17900.146,11634.807,-5449.178
1395943.0521532595,-58024.742,-64790.53,-18025.96,607.8288,-16925.537,17886.842,11631.511,-5457.2754
1395943.0561532555,-58018.555,-64775.27,-18020.305,616.3737,-16918.621,17885.906,11629.802,-5452.5557
1395943.0601532513,-58009.93,-64754.355,-18010.336,630.65594,-16919.11,17900.105,11631.308,-5442.22
1395943.064153247,-58007.12,-64760.5,-18008.709,631.55115,-16925.945,17908.406,11632.162,-5442.22
1395943.0681532428,-58017.457,-64783.33,-18018.84,616.8213,-16932.129,17897.664,11629.965,-5454.3867
1395943.0721532388,-58031.617,-64790.082,-18030.152,605.5908,-16933.432,17882.812,11627.36,-5463.501
1395943.0761532346,-58028.242,-64776.652,-18027.508,612.95575,-16929.484,17885.824,11630.127,-5453.532
1395943.0801532303,-58019.33,-64760.094,-18014.73,629.3132,-16928.549,17901.45,11633.749,-5438.1104
1395943.084153226,-58018.883,-64761.64,-18010.621,633.62634,-16930.014,17908.447,11636.068,-5434.4077
1395943.0881532219,-58031.457,-64778.16,-18021.322,620.27997,-16931.805,17898.479,11633.952,-5447.225
1395943.0921532179,-58042.44,-64787.52,-18031.17,607.8288,-16930.664,17884.033,11630.371,-5456.0957
1395943.0961532136,-58036.176,-64779.95,-18026.49,615.153,-16925.537,17885.58,11628.866,-5451.7417
1395943.1001532094,-58023.645,-64762.047,-18014.852,632.0394,-16926.066,17898.193,11630.493,-5443.5225
1395943.1041532052,-58025.84,-64757.938,-18014.283,634.9284,-16933.553,17904.379,11631.43,-5442.1797
1395943.1081532012,-58037.438,-64777.875,-18026.082,620.40204,-16938.396,17892.62,11627.238,-5458.9033
1395943.112153197,-58044.883,-64796.105,-18035.564,607.21844,-16935.791,17880.9,11624.1455,-5464.559
1395943.1161531927,-58041.344,-64786.297,-18029.623,613.48474,-16932.781,17882.406,11625.57,-5453.9795
1395943.1201531885,-58029.95,-64766.117,-18017.62,631.6325,-16934.246,17898.316,11629.11,-5443.0747
1395943.1241531842,-58026.043,-64764.57,-18014.69,636.35254,-16936.85,17905.396,11628.052,-5446.2485
1395943.1281531802,-58037.598,-64789.066,-18024.049,623.57587,-16942.098,17893.107,11622.559,-5462.1177
1395943.132153176,-58045.37,-64802.168,-18034.1,611.4909,-16941.203,17878.133,11617.065,-5473.5923
1395943.1361531718,-58037.273,-64790.49,-18029.826,619.2627,-16934.855,17881.186,11616.943,-5466.4717
1395943.1401531675,-58025.39,-64772.3,-18018.799,635.90497,-16932.293,17896.484,11619.507,-5454.305
1395943.1441531635,-58021.484,-64774.09,-18013.307,642.49677,-16937.703,17904.176,11623.251,-5450.399
1395943.1481531593,-58037.883,-64799.6,-18024.129,624.5524,-16943.93,17894.451,11623.861,-5459.7983
1395943.152153155,-58049.277,-64813.926,-18034.303,613.44403,-16941.0,17879.598,11623.413,-5467.2446
1395943.1561531508,-58047.812,-64809.207,-18027.303,621.7448,-16935.182,17879.598,11623.576,-5461.833
1395943.1601531468,-58038.21,-64790.406,-18013.592,639.9333,-16930.299,17896.484,11627.157,-5446.1265
1395943.1641531426,-58038.293,-64784.71,-18008.627,642.7002,-16935.547,17904.664,11628.703,-5444.214
1395943.1681531384,-58051.637,-64808.96,-18018.719,626.83105,-16944.459,17892.375,11626.669,-5456.7466
1395943.1721531341,-58055.543,-64823.246,-18026.408,617.10614,-16942.262,17878.541,11622.559,-5465.5356
1395943.17615313,-58052.125,-64816.082,-18024.17,623.73865,-16938.314,17880.656,11619.629,-5462.5244
1395943.180153126,-58041.465,-64797.406,-18012.248,640.7064,-16937.623,17895.508,11622.681,-5448.4863
1395943.1841531217,-58038.086,-64792.117,-18005.738,646.60645,-16940.145,17903.809,11625.0,-5443.685
1395943.1881531174,-58054.895,-64811.89,-18016.48,631.4291,-16944.621,17893.514,11622.111,-5457.7637
1395943.1921531132,-58065.27,-64824.992,-18027.385,620.3207,-16941.365,17877.686,11620.321,-5467.5703
1395943.1961531092,-58060.547,-64822.27,-18024.7,628.1332,-16935.914,17877.605,11622.111,-5461.1006
1395943.200153105,-58046.633,-64804.324,-18011.354,643.02576,-16936.482,17890.87,11625.814,-5445.7603
1395943.2041531007,-58042.074,-64797.49,-18004.314,647.33887,-16941.732,17898.56,11628.784,-5440.511
1395943.2081530965,-58055.586,-64813.723,-18015.057,633.1787,-16941.895,17887.818,11628.256,-5450.399
1395943.2121530923,-58064.78,-64829.387,-18025.105,621.3786,-16941.854,17875.041,11624.675,-5460.1646
1395943.2161530883,-58061.035,-64824.06,-18020.387,628.7435,-16937.988,17875.408,11622.111,-5456.787
1395943.220153084,-58050.703,-64806.805,-18008.992,644.89746,-16937.135,17891.725,11623.373,-5446.33
1395943.2241530798,-58049.156,-64799.645,-18005.818,649.21063,-16942.912,17899.414,11624.675,-5447.103
1395943.2281530756,-58057.09,-64815.15,-18014.934,635.49805,-16948.61,17888.348,11622.152,-5458.537
1395943.2321530716,-58068.117,-64831.992,-18024.537,621.25653,-16947.225,17874.715,11619.914,-5468.1396
1395943.2361530673,-58060.59,-64817.465,-18019.979,629.5166,-16940.877,17876.873,11620.199,-5462.5654
1395943.240153063,-58045.617,-64796.88,-18009.521,647.86786,-16941.0,17891.033,11625.285,-5447.347
1395943.2441530589,-58042.89,-64791.832,-18005.453,654.13416,-16945.436,17899.7,11629.477,-5442.1797
1395943.2481530546,-58056.152,-64817.02,-18015.584,637.3698,-16948.486,17889.568,11628.54,-5451.7417
1395943.2521530506,-58064.09,-64826.703,-18025.188,624.5524,-16946.248,17874.309,11624.39,-5456.177
1395943.2561530464,-58055.586,-64805.79,-18021.078,634.7656,-16940.023,17874.47,11622.966,-5449.951
1395943.2601530422,-58036.746,-64780.97,-18009.521,654.13416,-16936.238,17891.195,11629.272,-5434.367
1395943.264153038,-58036.297,-64777.1,-18008.504,657.1859,-16942.83,17898.846,11633.423,-5431.722
1395943.268153034,-58048.34,-64800.297,-18021.2,639.0381,-16951.172,17887.004,11629.558,-5446.737
1395943.2721530297,-58055.258,-64816.938,-18030.762,625.28485,-16949.139,17871.46,11625.041,-5455.648
1395943.2761530255,-58049.805,-64798.137,-18026.938,636.02704,-16941.326,17871.95,11626.547,-5445.5977
1395943.2801530212,-58035.363,-64768.516,-18013.875,655.68036,-16937.176,17888.63,11631.918,-5433.431
1395943.284153017,-58033.816,-64761.64,-18013.021,658.97626,-16939.861,17897.664,11633.667,-5434.53
1395943.288153013,-58046.023,-64779.707,-18026.45,642.7409,-16946.818,17887.207,11629.802,-5446.0044
1395943.2921530087,-58056.766,-64797.367,-18037.354,629.47595,-16944.05,17870.85,11625.61,-5455.2
1395943.2961530045,-58049.277,-64776.98,-18034.303,636.8408,-16933.758,17873.088,11625.651,-5449.504
1395943.3001530003,-58032.227,-64751.14,-18021.037,654.62244,-16929.81,17890.178,11627.971,-5436.8896
1395943.3041529963,-58030.195,-64756.188,-18019.084,657.6335,-16935.467,17896.566,11628.296,-5434.9775
1395943.308152992,-58048.504,-64773.93,-18030.64,643.02576,-16936.523,17886.475,11625.814,-5448.3237
1395943.3121529878,-58060.71,-64789.676,-18041.26,628.9877,-16935.914,17872.07,11621.542,-5462.972
1395943.3161529836,-58054.566,-64782.594,-18037.883,635.13184,-16931.316,17872.6,11623.291,-5453.247
1395943.3201529796,-58040.527,-64754.723,-18026.164,654.05273,-16926.96,17889.73,11628.662,-5437.785
1395943.3241529753,-58039.797,-64748.54,-18024.17,656.90106,-16932.373,17897.746,11630.697,-5434.448
1395943.328152971,-58051.883,-64770.67,-18034.994,640.95056,-16937.623,17887.248,11628.662,-5446.045
1395943.3321529669,-58058.516,-64781.742,-18042.766,628.9877,-16936.076,17874.838,11627.563,-5451.538
1395943.3361529626,-58051.883,-64764.0,-18037.395,636.6781,-16926.514,17876.22,11629.232,-5439.4126
1395943.3401529586,-58036.95,-64749.105,-18025.96,652.5879,-16923.178,17890.26,11634.155,-5423.2993
1395943.3441529544,-58034.1,-64747.562,-18023.56,657.1859,-16927.816,17897.625,11635.58,-5420.044
1395943.3481529502,-58047.773,-64767.05,-18033.977,642.98505,-16931.316,17888.836,11635.62,-5425.9033
1395943.352152946,-58056.926,-64786.297,-18042.236,630.12695,-16928.875,17874.715,11634.277,-5434.001
1395943.356152942,-58052.613,-64773.723,-18040.527,634.725,-16925.008,17875.773,11633.871,-5431.844
1395943.3601529377,-58042.44,-64746.91,-18029.46,650.79755,-16921.672,17890.992,11637.858,-5421.3057
1395943.3641529335,-58042.36,-64736.777,-18024.781,656.2907,-16920.98,17899.658,11644.125,-5417.562
1395943.3681529292,-58056.684,-64753.867,-18034.465,642.49677,-16923.87,17890.178,11641.968,-5429.1587
1395943.372152925,-58067.1,-64766.195,-18045.37,629.39453,-16924.113,17874.715,11632.731,-5443.2783
1395943.376152921,-58057.17,-64751.996,-18039.754,637.0443,-16917.766,17874.879,11630.371,-5439.616
1395943.3801529168,-58040.203,-64730.43,-18025.31,654.2562,-16913.29,17889.975,11633.057,-5426.7173
1395943.3841529125,-58039.348,-64729.777,-18021.81,660.0749,-16915.936,17898.357,11636.516,-5424.4795
1395943.3881529083,-58059.613,-64746.055,-18034.791,644.8568,-16920.33,17885.783,11633.139,-5439.4126
1395943.3921529043,-58069.297,-64755.902,-18045.207,630.8594,-16919.19,17870.85,11629.3545,-5452.8403
1395943.3961529,-58060.63,-64742.066,-18042.766,638.5905,-16915.73,17874.715,11631.063,-5445.028
1395943.4001528958,-58050.418,-64721.723,-18033.162,655.8024,-16912.354,17890.79,11633.993,-5432.5767
1395943.4041528916,-58045.9,-64721.926,-18029.541,662.557,-16915.08,17897.38,11636.516,-5427.5312
1395943.4081528874,-58055.258,-64743.574,-18037.518,649.94305,-16918.01,17888.428,11636.353,-5435.71
1395943.4121528834,-58061.85,-64754.19,-18044.271,635.49805,-16914.633,17873.291,11632.528,-5442.993
1395943.4161528791,-58053.71,-64745.12,-18040.61,641.60156,-16909.139,17872.559,11629.599,-5439.4126
1395943.420152875,-58044.23,-64725.344,-18031.982,658.8542,-16907.756,17885.906,11631.226,-5425.9033
1395943.4241528707,-58046.51,-64719.523,-18030.07,661.499,-16909.912,17892.457,11631.633,-5422.7295
1395943.4281528667,-58059.734,-64740.113,-18040.65,647.2575,-16917.156,17882.121,11629.272,-5431.9663
1395943.4321528624,-58069.38,-64749.105,-18050.74,634.80634,-16916.342,17869.996,11629.395,-5438.5986
1395943.4361528582,-58063.316,-64732.426,-18046.184,644.57196,-16910.035,17870.281,11629.68,-5434.652
1395943.440152854,-58052.816,-64713.707,-18032.674,661.94666,-16909.018,17884.766,11630.29,-5423.5435
1395943.44415285,-58055.383,-64719.566,-18029.867,662.5163,-16912.762,17893.107,11631.796,-5423.2993
1395943.4481528457,-58072.51,-64745.73,-18042.033,645.75195,-16919.475,17884.156,11628.5,-5437.378
1395943.4521528415,-58083.254,-64757.406,-18051.84,632.6091,-16918.377,17868.816,11625.937,-5446.33
1395943.4561528373,-58075.117,-64741.863,-18046.387,640.01465,-16911.092,17869.305,11626.709,-5439.7383
1395943.460152833,-58061.32,-64724.203,-18032.105,659.1797,-16906.982,17885.54,11629.802,-5426.595
1395943.464152829,-58061.16,-64725.508,-18028.89,664.71356,-16912.395,17893.596,11631.389,-5427.3276
1395943.4681528248,-58074.504,-64744.754,-18039.186,650.30927,-16916.951,17882.04,11626.506,-5445.842
1395943.4721528206,-58085.98,-64762.21,-18049.643,637.28845,-16917.562,17869.67,11622.192,-5455.9736
1395943.4761528163,-58086.508,-64757.367,-18047.566,644.3685,-16913.656,17870.525,11620.6875,-5452.1484
1395943.4801528123,-58075.24,-64738.324,-18035.848,661.94666,-16914.877,17884.074,11622.844,-5439.453
1395943.484152808,-58071.574,-64741.05,-18030.762,669.515,-16921.916,17892.293,11626.343,-5434.6113
1395943.4881528039,-58081.016,-64761.395,-18039.633,655.07,-16925.62,17883.383,11625.204,-5441.4473
1395943.4921527996,-58090.293,-64769.74,-18047.363,640.625,-16922.69,17869.955,11622.355,-5448.69
1395943.4961527954,-58085.246,-64757.734,-18041.951,649.292,-16917.36,17870.402,11622.437,-5441.6504
1395943.5001527914,-58072.266,-64736.37,-18031.006,665.93427,-16917.44,17883.465,11623.82,-5432.8613
1395943.5041527872,-58069.01,-64731.73,-18025.229,669.5964,-16921.225,17893.434,11628.947,-5429.7285
1395943.508152783,-58084.15,-64755.535,-18037.232,653.0762,-16927.572,17883.627,11625.0,-5444.377
1395943.5121527787,-58097.13,-64773.156,-18047.322,641.1947,-16923.787,17868.611,11620.524,-5455.9736
1395943.5161527747,-58094.363,-64762.25,-18042.277,648.5596,-16916.668,17868.328,11619.141,-5449.504
1395943.5201527704,-58084.35,-64743.492,-18031.006,667.9281,-16916.016,17884.441,11625.0,-5433.9194
1395943.5241527662,-58084.15,-64737.918,-18028.32,673.05505,-16920.33,17893.066,11628.174,-5430.664
1395943.528152762,-58089.277,-64754.113,-18037.598,658.12177,-16927.287,17879.559,11622.355,-5442.993
