timestamp,Fp1,Fp2,F3,Fz,F4,Cz,Pz,Oz
1311175.8741246213,-81076.91,-73728.195,-29908.814,-2074.7478,-25115.723,11221.558,16485.516,68397.586
1311175.8781246403,-81071.82,-73721.07,-29909.22,-2072.0623,-25111.857,11218.303,16484.742,68393.15
1311175.8821246594,-81109.09,-73734.055,-29918.05,-2069.987,-25105.348,11216.96,16474.568,68372.44
1311175.8861246784,-81134.32,-73743.164,-29919.598,-2069.3767,-25107.871,11214.396,16467.773,68361.25
1311175.8901246975,-81114.99,-73734.13,-29909.709,-2069.4175,-25118.979,11217.367,16475.139,68382.164
1311175.8941247165,-81089.766,-73729.33,-29903.158,-2069.0918,-25112.875,11218.994,16480.184,68396.52
1311175.8981247356,-81081.055,-73720.5,-29897.787,-2069.0513,-25115.316,11218.588,16481.08,68397.46
1311175.9021247546,-81112.51,-73731.53,-29904.338,-2069.0918,-25115.234,11216.797,16477.174,68379.234
1311175.9061247737,-81134.89,-73739.71,-29909.629,-2067.871,-25114.584,11215.414,16477.865,68369.39
1311175.9101247927,-81117.64,-73730.43,-29906.576,-2067.4236,-25115.44,11218.669,16482.3,68385.945
1311175.9141248118,-81093.586,-73721.44,-29907.188,-2069.6616,-25113.77,11218.913,16481.73,68391.08
1311175.9181248308,-81088.586,-73718.06,-29909.912,-2069.3767,-25115.643,11217.448,16477.377,68381.836
1311175.9221248499,-81120.28,-73727.42,-29911.785,-2065.5112,-25115.44,11217.041,16473.145,68364.46
1311175.926124869,-81150.35,-73734.83,-29910.809,-2063.9648,-25113.404,11214.722,16471.314,68361.94
1311175.930124888,-81134.97,-73737.555,-29911.5,-2066.8945,-25117.066,11216.553,16477.418,68383.47
1311175.934124907,-81104.86,-73732.55,-29911.785,-2068.1152,-25120.037,11217.773,16479.615,68398.12
1311175.938124926,-81094.28,-73726.24,-29913.209,-2069.2546,-25122.111,11217.001,16478.436,68394.9
1311175.942124945,-81105.23,-73724.61,-29915.691,-2066.3657,-25111.125,11216.716,16474.488,68376.34
1311175.9461249642,-81120.77,-73719.65,-29916.627,-2063.7615,-25105.633,11214.233,16468.832,68364.26
1311175.9501249832,-81116.336,-73715.01,-29914.43,-2064.1685,-25105.55,11216.269,16473.43,68382.77
1311175.9541250023,-81102.055,-73715.414,-29909.994,-2064.738,-25106.934,11216.757,16474.732,68395.76
1311175.9581250213,-81098.23,-73724.86,-29907.188,-2064.4126,-25109.375,11216.105,16476.074,68396.08
1311175.9621250404,-81122.07,-73729.74,-29908.773,-2062.5815,-25106.771,11214.4375,16472.371,68384.65
1311175.9661250594,-81139.695,-73729.49,-29912.803,-2062.785,-25106.934,11214.966,16473.064,68378.79
1311175.9701250785,-81115.84,-73724.86,-29915.324,-2065.6738,-25110.475,11220.093,16482.3,68394.94
1311175.9741250975,-81076.78,-73705.28,-29908.408,-2062.2559,-25107.707,11223.43,16486.857,68408.164
1311175.9781251166,-81077.234,-73706.625,-29909.385,-2060.7505,-25102.295,11223.1045,16480.957,68398.766
1311175.9821251356,-81110.555,-73715.09,-29914.795,-2061.6455,-25105.389,11220.297,16474.568,68384.52
1311175.9861251547,-81132.53,-73725.625,-29918.865,-2063.1104,-25103.639,11217.001,16470.459,68375.04
1311175.9901251737,-81115.16,-73729.49,-29919.11,-2064.9414,-25103.68,11216.064,16474.041,68388.51
1311175.9941251928,-81087.164,-73714.766,-29914.307,-2064.9414,-25112.102,11218.547,16483.398,68404.3
1311175.9981252118,-81091.516,-73715.74,-29916.424,-2064.7788,-25112.957,11222.778,16487.469,68405.07
1311176.0021252309,-81122.52,-73727.3,-29918.336,-2063.9243,-25106.895,11224.081,16480.998,68389.164
1311176.00612525,-81143.76,-73736.94,-29919.475,-2063.029,-25106.568,11225.058,16483.318,68385.46
1311176.010125269,-81120.65,-73726.195,-29914.47,-2061.8083,-25106.975,11227.783,16492.92,68406.5
1311176.014125288,-81086.63,-73717.734,-29909.1,-2062.907,-25114.299,11227.783,16496.785,68420.45
1311176.018125307,-81066.66,-73709.19,-29907.064,-2060.9946,-25109.01,11224.895,16488.648,68412.11
1311176.022125326,-81089.97,-73718.75,-29911.785,-2062.4595,-25104.168,11222.331,16479.615,68391.484
1311176.0261253451,-81124.8,-73732.1,-29917.36,-2064.7788,-25107.627,11223.633,16479.33,68380.336
1311176.0301253642,-81122.52,-73730.555,-29917.725,-2066.6504,-25112.06,11225.912,16483.113,68392.414
1311176.0341253832,-81092.125,-73724.81,-29914.592,-2065.5518,-25113.16,11225.952,16480.633,68406.25
1311176.0381254023,-81075.766,-73719.98,-29910.28,-2063.8428,-25111.654,11224.895,16478.924,68408.04
1311176.0421254213,-81091.76,-73722.336,-29909.22,-2061.1572,-25109.213,11223.471,16474.121,68398.84
1311176.0461254404,-81100.586,-73713.42,-29903.525,-2056.9663,-25103.15,11220.988,16472.209,68391.484
1311176.0501254594,-81085.05,-73712.24,-29904.623,-2060.791,-25105.918,11222.412,16476.686,68406.74
1311176.0541254785,-81059.05,-73713.95,-29907.594,-2064.2905,-25115.031,11224.487,16479.86,68416.47
1311176.0581254975,-81063.64,-73723.63,-29911.947,-2066.6912,-25115.234,11223.959,16473.186,68401.94
1311176.0621255166,-81099.086,-73727.87,-29915.0,-2065.8774,-25119.264,11221.599,16467.205,68386.15
1311176.0661255356,-81129.48,-73737.43,-29920.004,-2065.3076,-25112.957,11219.36,16465.658,68377.28
1311176.0701255547,-81106.0,-73726.97,-29914.633,-2064.86,-25116.62,11218.669,16471.559,68398.48
1311176.0741255737,-81067.99,-73710.21,-29909.303,-2064.1685,-25117.107,11218.547,16474.854,68415.98
1311176.0781255928,-81059.05,-73712.12,-29909.75,-2066.2842,-25119.67,11220.175,16474.895,68414.63
1311176.0821256118,-81074.51,-73722.78,-29913.494,-2066.6099,-25118.734,11221.436,16471.883,68402.02
1311176.086125631,-81085.33,-73728.234,-29916.342,-2066.203,-25116.293,11219.116,16468.873,68399.5
1311176.09012565,-81062.09,-73719.08,-29914.062,-2064.9414,-25117.066,11220.053,16472.738,68416.22
1311176.094125669,-81046.15,-73718.18,-29914.512,-2065.4297,-25116.822,11221.029,16477.295,68428.71
1311176.098125688,-81044.6,-73714.64,-29913.168,-2066.325,-25120.443,11222.575,16484.01,68437.5
1311176.102125707,-81067.836,-73712.52,-29915.977,-2063.9648,-25111.777,11221.762,16483.277,68423.914
1311176.1061257261,-81092.29,-73715.25,-29915.854,-2060.8318,-25110.84,11223.063,16479.207,68409.875
1311176.1101257452,-81085.82,-73715.54,-29914.186,-2062.8662,-25117.514,11226.5625,16483.318,68417.805
1311176.1141257642,-81057.91,-73699.79,-29910.117,-2062.4595,-25116.943,11225.627,16484.05,68432.66
1311176.1181257833,-81056.16,-73696.58,-29908.244,-2061.0352,-25114.299,11225.83,16483.928,68429.65
1311176.1221258026,-81076.54,-73699.83,-29908.773,-2057.9429,-25113.16,11221.965,16475.383,68413.336
1311176.1261258216,-81096.68,-73702.27,-29913.78,-2057.129,-25112.428,11218.506,16468.953,68397.914
1311176.1301258407,-81074.79,-73685.38,-29908.855,-2056.9663,-25115.031,11220.419,16474.121,68416.47
1311176.1341258597,-81030.6,-73665.734,-29901.367,-2056.8442,-25111.98,11223.755,16481.445,68430.016
1311176.1381258788,-80988.85,-73637.53,-29896.607,-2054.3213,-25111.777,11220.663,16472.494,68419.234
1311176.1421258978,-80995.65,-73626.34,-29894.492,-2049.235,-25111.857,11217.8955,16458.62,68389.0
1311176.1461259169,-81016.85,-73617.68,-29892.01,-2045.3289,-25107.666,11217.082,16454.916,68372.93
1311176.150125936,-80986.01,-73590.86,-29883.465,-2039.6322,-25103.395,11216.594,16458.62,68389.94
1311176.154125955,-80938.44,-73563.16,-29877.076,-2036.9874,-25104.33,11213.827,16456.87,68402.266
1311176.158125974,-80927.66,-73555.14,-29874.432,-2037.5164,-25107.383,11213.298,16450.398,68389.57
1311176.162125993,-80931.89,-73543.984,-29864.38,-2030.8431,-25095.664,11209.921,16441.203,68372.64
1311176.166126012,-80919.805,-73522.914,-29853.72,-2025.8383,-25096.07,11208.903,16440.186,68368.086
1311176.1701260312,-80887.25,-73500.734,-29848.797,-2025.1873,-25100.871,11208.618,16440.715,68380.45
1311176.1741260502,-80837.73,-73476.73,-29843.67,-2024.9838,-25103.191,11205.688,16436.605,68389.04
1311176.1781260693,-80809.0,-73461.19,-29842.693,-2022.8273,-25099.65,11206.299,16434.45,68380.984
1311176.1821260883,-80829.43,-73456.625,-29844.402,-2019.8162,-25092.367,11205.648,16432.576,68358.12
1311176.1861261073,-80849.29,-73454.836,-29847.047,-2016.683,-25088.99,11206.218,16427.654,68347.66
1311176.1901261264,-80819.664,-73429.52,-29835.287,-2013.5499,-25090.21,11205.688,16430.42,68373.91
1311176.1941261454,-80799.195,-73426.19,-29834.229,-2016.7238,-25090.984,11206.787,16433.473,68377.2
1311176.1981261645,-80804.61,-73431.97,-29834.922,-2018.392,-25099.082,11205.2,16432.455,68370.89
1311176.2021261835,-80820.4,-73423.055,-29833.049,-2011.556,-25087.443,11203.044,16426.758,68350.625
1311176.2061262026,-80840.82,-73424.73,-29833.984,-2011.0271,-25090.576,11204.265,16425.74,68343.71
1311176.2101262216,-80829.836,-73419.07,-29829.387,-2013.6312,-25093.344,11205.282,16430.584,68360.27
1311176.2141262407,-80793.13,-73417.12,-29826.295,-2013.9568,-25092.53,11206.584,16435.467,68376.34
1311176.2181262597,-80788.54,-73432.58,-29827.557,-2017.4968,-25096.68,11208.456,16437.338,68369.63
1311176.2221262788,-80831.38,-73447.305,-29834.88,-2017.7816,-25095.338,11209.147,16436.32,68354.86
1311176.2261262978,-80872.84,-73461.875,-29843.588,-2019.0023,-25095.094,11206.625,16431.723,68351.69
1311176.230126317,-80862.59,-73467.57,-29846.273,-2021.7286,-25095.664,11209.677,16438.111,68366.05
1311176.234126336,-80849.9,-73472.91,-29848.268,-2023.6003,-25093.71,11208.822,16439.535,68387.21
1311176.238126355,-80864.42,-73495.57,-29853.068,-2026.4894,-25098.838,11206.706,16437.297,68379.97
1311176.242126374,-80888.96,-73503.74,-29856.73,-2025.3093,-25100.342,11209.27,16435.1,68370.37
1311176.246126393,-80927.695,-73520.836,-29863.16,-2027.181,-25094.035,11210.979,16435.303,68364.26
1311176.2501264121,-80918.46,-73523.56,-29861.328,-2029.7039,-25100.791,11212.362,16445.598,68384.6
1311176.2541264312,-80903.69,-73530.56,-29864.096,-2031.9011,-25099.041,11212.402,16447.713,68399.7
1311176.2581264502,-80904.13,-73536.42,-29867.92,-2032.9183,-25099.977,11210.856,16444.092,68396.37
1311176.2621264693,-80937.75,-73556.805,-29871.99,-2031.6163,-25099.936,11210.693,16441.244,68379.07
1311176.2661264883,-80975.75,-73568.85,-29875.977,-2031.8605,-25104.86,11211.792,16437.338,68368.086
1311176.2701265074,-80979.78,-73565.23,-29880.82,-2034.9122,-25102.824,11211.711,16434.652,68380.9
1311176.2741265264,-80968.71,-73570.97,-29881.43,-2035.6039,-25105.592,11213.176,16436.89,68396.12
1311176.2781265455,-80966.27,-73577.76,-29885.498,-2036.7025,-25103.883,11212.769,16437.297,68390.95
1311176.2821265645,-80990.766,-73591.23,-29893.637,-2037.2722,-25103.557,11212.118,16436.89,68376.914
1311176.2861265836,-81022.09,-73599.445,-29895.549,-2035.9701,-25102.988,11212.321,16439.82,68368.57
1311176.2901266026,-81002.36,-73585.164,-29889.445,-2034.2611,-25103.598,11211.386,16440.715,68382.98
1311176.2941266217,-80964.27,-73574.875,-29888.062,-2035.4005,-25100.871,11210.897,16438.72,68392.336
1311176.2981266407,-80963.09,-73583.54,-29889.365,-2036.6212,-25101.807,11210.449,16434.693,68385.26
1311176.3021266598,-80988.164,-73588.83,-29891.928,-2036.255,-25106.975,11208.008,16429.77,68368.77
1311176.3061266788,-81015.586,-73596.16,-29891.684,-2034.139,-25102.092,11208.415,16428.467,68358.97
1311176.3101266979,-81001.95,-73586.47,-29885.133,-2033.3253,-25098.309,11211.345,16434.123,68375.66
1311176.314126717,-80968.18,-73571.33,-29881.633,-2034.4646,-25099.041,11211.914,16432.049,68384.32
1311176.318126736,-80954.19,-73557.984,-29881.064,-2033.6101,-25102.662,11212.24,16425.334,68378.22
1311176.322126755,-80969.28,-73555.75,-29883.342,-2030.4769,-25095.541,11211.914,16424.113,68358.93
1311176.326126774,-80971.4,-73539.67,-29878.826,-2025.0245,-25091.96,11210.979,16424.195,68348.516
1311176.3301267931,-80936.0,-73511.92,-29869.67,-2022.7865,-25095.215,11211.874,16427.775,68361.33
1311176.3341268122,-80904.016,-73495.08,-29864.87,-2024.4548,-25097.982,11211.508,16428.752,68372.84
1311176.3381268312,-80880.375,-73475.22,-29860.312,-2021.3624,-25090.414,11211.304,16424.725,68363.32
1311176.3421268503,-80886.48,-73470.83,-29860.068,-2017.6595,-25082.643,11210.979,16421.102,68347.01
1311176.3461268693,-80903.85,-73478.766,-29861.492,-2016.683,-25086.955,11211.589,16422.04,68338.14
1311176.3501268884,-80856.445,-73441.53,-29846.152,-2010.3761,-25086.59,11209.677,16426.19,68358.56
1311176.3541269074,-80824.055,-73414.8,-29840.902,-2008.1381,-25082.643,11211.304,16430.34,68373.984
1311176.3581269265,-80820.6,-73411.42,-29836.67,-2007.1615,-25081.055,11212.932,16426.678,68370.28
1311176.3621269455,-80826.58,-73406.86,-29834.229,-2004.9236,-25077.393,11210.287,16418.621,68345.664
1311176.3661269646,-80844.2,-73407.11,-29837.688,-2003.4181,-25074.668,11209.88,16416.057,68338.87
1311176.3701269836,-80809.57,-73384.28,-29832.072,-2001.3835,-25075.725,11211.345,16424.928,68361.984
1311176.3741270027,-80756.266,-73354.984,-29823.568,-1998.4539,-25072.918,11209.758,16423.707,68374.35
1311176.3781270217,-80747.84,-73364.38,-29824.383,-1999.5525,-25074.627,11210.979,16421.428,68366.414
1311176.3821270408,-80777.59,-73367.88,-29821.656,-1997.7621,-25075.44,11208.618,16416.057,68346.516
1311176.3861270598,-80803.96,-73361.984,-29821.494,-1993.2455,-25069.215,11205.566,16409.75,68328.05
1311176.3901270789,-80785.24,-73354.53,-29819.377,-1993.2455,-25074.627,11207.724,16417.115,68347.086
1311176.394127098,-80757.125,-73354.125,-29817.832,-1995.4021,-25078.98,11208.618,16419.922,68365.44
1311176.398127117,-80742.02,-73344.04,-29817.709,-1997.3145,-25086.467,11205.852,16421.795,68365.12
1311176.402127136,-80752.52,-73331.87,-29815.39,-1992.4724,-25075.48,11204.387,16418.621,68345.42
1311176.406127155,-80786.18,-73344.28,-29819.336,-1990.6414,-25072.307,11205.282,16411.662,68326.625
1311176.410127174,-80780.6,-73352.54,-29823.812,-1996.1752,-25078.857,11207.602,16409.059,68331.625
1311176.4141271932,-80750.57,-73333.984,-29812.582,-1994.5883,-25085.898,11205.688,16403.729,68341.35
1311176.4181272122,-80752.28,-73341.88,-29813.72,-1995.6055,-25085.734,11201.132,16398.926,68333.945
1311176.4221272313,-80775.64,-73350.586,-29816.162,-1993.8965,-25078.818,11198.8125,16397.746,68322.59
1311176.4261272503,-80797.69,-73350.836,-29819.377,-1991.4144,-25072.754,11199.016,16397.828,68311.93
1311176.4301272694,-80782.555,-73342.33,-29815.959,-1992.9199,-25081.87,11203.329,16406.576,68330.33
1311176.4341272884,-80744.914,-73327.68,-29807.537,-1992.8386,-25084.88,11202.434,16409.668,68345.5
1311176.4381273075,-80738.484,-73323.125,-29804.443,-1990.3972,-25079.51,11201.742,16405.07,68337.85
1311176.4421273265,-80775.19,-73334.64,-29808.594,-1990.3158,-25084.637,11199.423,16397.096,68313.11
1311176.4461273456,-80827.88,-73360.96,-29817.588,-1991.2109,-25079.428,11198.405,16389.771,68287.36
1311176.4501273646,-80818.445,-73362.39,-29812.5,-1991.4551,-25076.336,11200.725,16399.658,68302.734
1311176.4541273837,-80772.055,-73336.95,-29802.084,-1988.2,-25078.451,11202.312,16408.326,68324.625
1311176.4581274027,-80752.81,-73322.72,-29801.107,-1988.4033,-25078.574,11200.847,16407.797,68322.266
1311176.4621274217,-80770.51,-73321.25,-29802.816,-1987.8744,-25075.277,11201.254,16406.902,68309.82
1311176.4661274408,-80798.34,-73330.12,-29805.543,-1986.5723,-25069.947,11202.719,16405.965,68299.805
1311176.4701274598,-80795.125,-73342.25,-29808.31,-1991.2109,-25073.812,11204.997,16408.611,68314.05
1311176.474127479,-80758.836,-73339.234,-29803.508,-1994.6289,-25080.445,11205.7705,16410.482,68327.555
1311176.478127498,-80734.336,-73332.56,-29800.66,-1992.8793,-25085.328,11201.05,16403.646,68326.984
1311176.482127517,-80757.125,-73336.266,-29804.525,-1991.1296,-25084.148,11199.789,16404.338,68317.14
1311176.486127536,-80774.62,-73333.82,-29807.293,-1988.3627,-25076.865,11198.771,16402.303,68304.81
1311176.490127555,-80748.375,-73321.17,-29801.637,-1989.9496,-25081.178,11200.603,16411.092,68327.92
1311176.4941275741,-80716.19,-73316.41,-29797.934,-1992.4724,-25085.002,11203.491,16413.9,68345.3
1311176.4981275932,-80716.11,-73322.19,-29797.445,-1991.3738,-25077.19,11204.59,16409.994,68338.99
1311176.5021276122,-80748.86,-73338.586,-29804.322,-1992.7572,-25075.928,11203.654,16403.361,68327.15
1311176.5061276313,-80781.01,-73347.13,-29808.799,-1993.1641,-25081.992,11201.782,16404.217,68325.234
1311176.5101276503,-80780.68,-73363.37,-29811.973,-1998.4945,-25086.71,11203.573,16408.488,68347.086
1311176.5141276694,-80729.375,-73347.91,-29805.014,-1999.9594,-25091.92,11203.695,16410.768,68367.02
1311176.5181276884,-80698.164,-73331.586,-29798.79,-1996.6228,-25090.21,11201.538,16403.523,68362.76
1311176.5221277075,-80728.766,-73351.12,-29803.549,-1997.8027,-25090.576,11200.847,16400.473,68346.11
1311176.5261277265,-80754.516,-73354.62,-29803.508,-1997.2332,-25090.576,11203.451,16406.738,68346.195
1311176.5301277456,-80742.234,-73353.234,-29803.834,-1997.9656,-25090.21,11205.485,16410.809,68372.97
1311176.5341277646,-80710.125,-73357.83,-29806.113,-2003.947,-25096.477,11207.805,16417.4,68395.39
1311176.5381277837,-80689.78,-73349.53,-29802.207,-2003.3367,-25101.197,11206.218,16415.242,68395.02
1311176.5421278027,-80717.0,-73349.65,-29795.736,-1996.3379,-25092.45,11201.294,16401.611,68363.69
1311176.5461278218,-80762.125,-73371.46,-29803.793,-1998.7793,-25089.152,11200.399,16395.793,68344.32
1311176.5501278408,-80738.164,-73363.484,-29802.287,-2001.0173,-25095.176,11202.23,16400.35,68364.46
1311176.5541278599,-80703.414,-73357.26,-29801.434,-2001.3429,-25096.965,11204.346,16403.035,68384.73
1311176.558127879,-80689.25,-73348.23,-29798.828,-2000.6105,-25092.002,11202.637,16400.105,68388.555
1311176.562127898,-80715.7,-73359.01,-29801.107,-1999.6746,-25092.45,11201.904,16395.102,68369.59
1311176.566127917,-80740.234,-73378.336,-29804.443,-2001.2615,-25091.309,11201.172,16391.316,68363.89
1311176.570127936,-80705.2,-73370.81,-29799.113,-2003.8656,-25102.988,11204.346,16401.693,68399.375
1311176.5741279551,-80657.92,-73355.19,-29795.207,-2005.2898,-25102.295,11206.259,16407.186,68417.89
1311176.5781279742,-80649.3,-73354.58,-29795.41,-2006.307,-25100.262,11204.875,16403.89,68412.44
1311176.5821279932,-80685.1,-73367.68,-29798.828,-2004.5574,-25102.783,11205.811,16405.6,68405.52
1311176.5861280123,-80707.56,-73362.59,-29796.916,-1999.5931,-25096.191,11204.265,16402.508,68399.91
1311176.5901280313,-80693.73,-73357.305,-29796.307,-2000.407,-25095.094,11203.857,16399.781,68416.14
1311176.5941280504,-80676.35,-73365.12,-29798.992,-2007.4056,-25106.65,11207.031,16401.123,68437.83
1311176.5981280694,-80652.914,-73356.24,-29795.207,-2008.6263,-25111.166,11207.153,16398.764,68441.86
1311176.6021280885,-80667.766,-73361.66,-29797.404,-2006.9988,-25102.906,11206.625,16394.816,68436.24
1311176.6061281075,-80684.77,-73371.26,-29801.963,-2008.2195,-25106.162,11204.387,16391.725,68436.2
1311176.6101281266,-80671.15,-73372.16,-29798.666,-2010.6202,-25110.027,11205.078,16394.898,68458.13
1311176.6141281456,-80664.43,-73377.85,-29797.852,-2012.2885,-25113.566,11204.794,16395.549,68459.76
1311176.6181281647,-80693.73,-73398.6,-29801.475,-2011.963,-25115.113,11203.369,16392.62,68441.61
1311176.6221281837,-80762.29,-73433.27,-29813.152,-2013.4279,-25116.293,11201.457,16386.354,68417.805
1311176.6261282028,-80786.664,-73426.88,-29809.814,-2009.5216,-25114.787,11197.144,16378.866,68399.664
1311176.6301282218,-80778.12,-73423.71,-29809.45,-2012.3292,-25116.049,11197.348,16379.029,68406.66
1311176.6341282409,-80772.38,-73432.17,-29814.291,-2016.2761,-25117.473,11197.551,16378.907,68412.805
1311176.63812826,-80770.23,-73430.99,-29814.535,-2015.6658,-25118.043,11196.533,16374.96,68401.53
1311176.642128279,-80790.164,-73432.82,-29814.129,-2012.6547,-25113.73,11194.214,16368.612,68379.72
1311176.646128298,-80826.3,-73444.91,-29819.012,-2012.4513,-25113.525,11195.476,16370.362,68372.11
1311176.650128317,-80818.56,-73444.26,-29816.082,-2014.6078,-25121.338,11197.0625,16378.256,68390.914
1311176.654128336,-80799.805,-73441.0,-29814.494,-2014.2823,-25122.764,11197.998,16381.145,68403.98
1311176.6581283552,-80791.83,-73441.125,-29815.838,-2012.2885,-25113.281,11195.109,16373.21,68392.58
1311176.6621283742,-80822.59,-73459.02,-29819.541,-2013.8347,-25120.77,11197.388,16371.745,68373.984
1311176.6661283933,-80837.69,-73453.53,-29817.588,-2012.8582,-25122.152,11196.94,16370.769,68363.69
1311176.6701284123,-80805.5,-73436.69,-29808.717,-2011.3933,-25120.281,11198.649,16379.029,68382.41
1311176.6741284314,-80790.37,-73449.914,-29808.514,-2014.2009,-25124.635,11200.073,16378.541,68393.234
1311176.6781284504,-80775.68,-73439.78,-29803.955,-2009.074,-25117.92,11198.039,16369.345,68382.53
1311176.6821284695,-80809.62,-73447.96,-29810.752,-2005.4525,-25113.81,11196.655,16361.654,68365.195
1311176.6861284885,-80857.99,-73477.625,-29823.283,-2008.2601,-25116.455,11197.51,16363.119,68358.484
1311176.6901285076,-80836.14,-73456.055,-29817.383,-2006.3478,-25109.54,11198.08,16369.67,68381.8
1311176.6941285266,-80801.88,-73448.0,-29815.756,-2008.0974,-25108.928,11199.789,16378.744,68399.5
1311176.6981285457,-80807.78,-73460.414,-29819.621,-2011.5154,-25118.45,11202.026,16380.372,68398.07
1311176.7021285647,-80831.55,-73462.41,-29821.818,-2008.2195,-25115.44,11198.771,16370.443,68374.39
1311176.7061285838,-80874.11,-73489.75,-29827.637,-2009.0333,-25117.637,11195.435,16364.665,68350.875
1311176.7101286028,-80874.88,-73500.57,-29828.533,-2009.3588,-25115.723,11197.388,16371.501,68364.75
1311176.7141286219,-80839.4,-73471.72,-29821.412,-2007.3243,-25114.828,11200.603,16377.931,68384.484
1311176.718128641,-80835.86,-73471.4,-29823.04,-2009.1146,-25114.258,11202.678,16383.586,68382.445
1311176.72212866,-80861.33,-73480.76,-29826.172,-2008.1381,-25110.107,11202.922,16381.593,68361.94
1311176.726128679,-80888.15,-73487.8,-29831.91,-2006.7953,-25102.133,11203.329,16381.022,68347.375
1311176.730128698,-80869.02,-73478.68,-29826.54,-2005.0457,-25108.154,11205.607,16384.807,68365.32
1311176.734128717,-80846.805,-73471.84,-29824.586,-2004.4353,-25105.795,11203.857,16380.738,68368.734
1311176.7381287361,-80853.234,-73480.1,-29828.248,-2006.1036,-25104.004,11202.556,16373.902,68356.695
1311176.7421287552,-80885.945,-73492.59,-29836.914,-2007.0802,-25103.027,11202.556,16367.839,68333.09
1311176.7461287742,-80911.13,-73498.78,-29843.1,-2006.6732,-25100.994,11202.8,16364.503,68319.055
1311176.7501287933,-80881.19,-73480.63,-29834.352,-2006.1036,-25103.436,11203.369,16369.955,68340.91
1311176.7541288123,-80843.02,-73465.58,-29824.871,-2007.4056,-25106.73,11203.451,16374.594,68354.86
1311176.7581288314,-80844.484,-73467.66,-29826.213,-2009.2367,-25112.021,11204.509,16378.093,68352.79
1311176.7621288504,-80865.16,-73469.73,-29827.148,-2005.2898,-25104.33,11201.132,16371.013,68344.41
1311176.7661288695,-80894.33,-73480.67,-29830.975,-2002.7263,-25103.477,11200.195,16368.9375,68339.6
1311176.7701288885,-80878.18,-73478.44,-29833.701,-2004.8422,-25107.748,11201.701,16375.855,68359.945
1311176.7741289076,-80844.484,-73472.49,-29833.172,-2006.7953,-25108.318,11204.59,16377.727,68369.34
1311176.7781289266,-80830.125,-73469.61,-29833.049,-2005.8187,-25103.068,11204.631,16371.745,68355.96
1311176.7821289457,-80859.01,-73486.66,-29841.229,-2007.6498,-25106.121,11201.294,16363.363,68330.85
1311176.7861289647,-80887.945,-73499.88,-29847.656,-2008.1381,-25107.057,11199.463,16358.684,68311.73
1311176.7901289838,-80872.03,-73490.69,-29843.955,-2007.365,-25113.12,11202.515,16371.949,68334.31
1311176.7941290028,-80857.34,-73493.25,-29842.041,-2009.1146,-25113.69,11207.072,16379.273,68353.31
1311176.798129022,-80855.59,-73494.14,-29840.332,-2008.016,-25108.195,11206.909,16383.342,68352.17
1311176.802129041,-80874.11,-73494.95,-29839.764,-2005.3712,-25110.148,11205.2,16389.324,68346.07
1311176.80612906,-80913.336,-73505.54,-29842.57,-2006.5105,-25111.166,11204.062,16386.557,68342.53
1311176.810129079,-80889.85,-73495.24,-29842.734,-2008.6263,-25114.502,11206.706,16391.846,68359.7
1311176.814129098,-80848.63,-73484.375,-29845.744,-2010.7423,-25112.957,11205.038,16383.139,68363.89
1311176.8181291171,-80838.79,-73504.195,-29851.441,-2014.3636,-25120.688,11202.841,16377.238,68352.664
1311176.8221291362,-80850.914,-73507.695,-29849.691,-2009.7657,-25117.596,11200.684,16372.233,68335.77
1311176.8261291552,-80878.79,-73500.04,-29846.885,-2005.1271,-25115.072,11200.439,16374.269,68334.8
1311176.8301291743,-80874.19,-73508.38,-29845.459,-2008.545,-25119.793,11204.346,16380.412,68358.12
1311176.8341291933,-80844.41,-73498.3,-29843.059,-2010.783,-25119.02,11205.241,16383.302,68378.336
1311176.8381292124,-80825.805,-73491.13,-29840.861,-2010.0099,-25118.49,11205.404,16382.162,68380.78
1311176.8421292314,-80868.49,-73516.08,-29847.291,-2010.254,-25119.914,11206.828,16381.267,68360.44
1311176.8461292505,-80893.19,-73525.92,-29852.459,-2009.8878,-25116.455,11204.997,16377.32,68344.2
1311176.8501292695,-80865.234,-73514.77,-29847.861,-2010.2133,-25122.52,11203.939,16379.069,68361.05
1311176.8541292886,-80833.26,-73505.62,-29846.273,-2012.8175,-25130.047,11202.189,16373.129,68370.0
1311176.8581293076,-80837.24,-73521.28,-29850.098,-2013.9161,-25127.564,11200.725,16366.293,68361.33
1311176.8621293267,-80879.72,-73542.766,-29854.818,-2013.5906,-25131.674,11201.01,16364.95,68341.19
1311176.8661293457,-80899.13,-73539.72,-29853.72,-2010.8644,-25129.6,11200.521,16363.933,68334.39
1311176.8701293648,-80877.73,-73533.9,-29850.506,-2011.963,-25131.756,11202.23,16372.804,68360.805
1311176.8741293838,-80858.6,-73540.695,-29850.059,-2015.2996,-25135.498,11207.927,16384.236,68378.945
1311176.8781294029,-80844.89,-73540.65,-29848.227,-2014.2009,-25138.389,11208.822,16382.609,68378.46
1311176.882129422,-80865.16,-73552.62,-29850.139,-2010.9457,-25128.662,11204.346,16372.152,68358.28
1311176.886129441,-80889.98,-73561.61,-29849.365,-2012.0851,-25138.998,11207.438,16376.425,68358.73
1311176.89012946,-80886.72,-73559.29,-29847.656,-2012.492,-25138.713,11209.839,16385.295,68386.4
1311176.894129479,-80870.85,-73562.016,-29847.006,-2013.9974,-25139.771,11210.693,16387.045,68402.55
1311176.8981294981,-80867.27,-73566.04,-29848.918,-2016.683,-25141.643,11210.083,16382.936,68392.375
1311176.9021295172,-80890.625,-73568.766,-29854.736,-2014.1195,-25130.371,11206.015,16367.839,68368.086
1311176.9061295362,-80909.586,-73576.21,-29856.527,-2012.614,-25124.188,11203.329,16362.672,68357.71
1311176.9101295555,-80876.63,-73554.0,-29846.64,-2010.7423,-25133.465,11205.974,16372.355,68388.8
1311176.9141295746,-80858.03,-73549.195,-29848.877,-2013.9161,-25133.3,11208.13,16372.804,68397.75
1311176.9181295936,-80861.9,-73552.734,-29848.877,-2015.9913,-25137.451,11207.072,16370.321,68393.19
1311176.9221296126,-80888.836,-73556.4,-29847.78,-2011.8002,-25131.512,11205.078,16366.374,68376.23
1311176.9261296317,-80914.31,-73560.55,-29851.156,-2010.905,-25127.076,11204.794,16364.096,68367.02
1311176.9301296507,-80902.55,-73563.6,-29851.36,-2014.5265,-25127.564,11204.428,16365.927,68386.76
1311176.9341296698,-80861.984,-73551.07,-29844.482,-2013.7533,-25139.648,11201.701,16367.351,68390.625
1311176.9381296888,-80855.72,-73553.39,-29843.832,-2010.3761,-25131.959,11202.148,16365.316,68382.65
1311176.942129708,-80891.69,-73568.69,-29852.133,-2011.6781,-25131.104,11204.224,16370.077,68372.48
1311176.946129727,-80923.14,-73575.85,-29856.854,-2011.7189,-25131.633,11204.387,16375.082,68366.62
1311176.950129746,-80911.625,-73572.67,-29853.598,-2014.8113,-25134.93,11206.991,16379.965,68383.016
1311176.954129765,-80881.35,-73567.75,-29850.75,-2015.6251,-25135.947,11208.008,16378.622,68391.52
1311176.958129784,-80867.48,-73559.29,-29849.732,-2012.492,-25128.947,11206.299,16374.635,68387.125
1311176.9621298031,-80883.71,-73559.98,-29850.383,-2008.0974,-25119.914,11203.654,16368.124,68372.27
1311176.9661298222,-80910.16,-73564.336,-29855.633,-2007.3243,-25123.658,11203.857,16367.147,68359.09
1311176.9701298412,-80899.54,-73558.8,-29852.58,-2009.8064,-25126.588,11207.886,16370.524,68366.62
1311176.9741298603,-80876.02,-73544.96,-29841.105,-2007.9347,-25128.623,11209.961,16367.229,68383.875
1311176.9781298793,-80879.195,-73556.68,-29845.256,-2009.1146,-25128.744,11210.327,16364.055,68379.44
1311176.9821298984,-80895.06,-73556.89,-29845.5,-2004.1505,-25120.525,11207.52,16358.766,68365.16
1311176.9861299174,-80920.25,-73566.445,-29847.453,-2003.0519,-25118.693,11207.072,16358.155,68356.65
1311176.9901299365,-80915.85,-73572.59,-29850.871,-2009.3181,-25128.379,11210.571,16368.449,68380.25
1311176.9941299555,-80866.984,-73547.0,-29844.117,-2006.5511,-25129.15,11213.135,16380.046,68413.58
1311176.9981299746,-80851.484,-73538.58,-29839.764,-2004.6388,-25126.832,11214.926,16384.93,68413.54
1311177.0021299936,-80889.77,-73555.055,-29844.932,-2004.5574,-25117.84,11216.879,16380.453,68391.6
1311177.0061300127,-80924.28,-73562.46,-29847.453,-2004.2318,-25121.543,11217.978,16378.297,68379.92
1311177.0101300317,-80916.83,-73566.734,-29845.297,-2006.0629,-25128.012,11218.506,16377.116,68389.0
1311177.0141300508,-80886.11,-73560.34,-29844.605,-2007.487,-25131.918,11217.285,16378.825,68403.61
1311177.0181300698,-80868.05,-73543.22,-29844.158,-2006.6326,-25126.385,11215.17,16377.931,68402.95
1311177.0221300889,-80890.75,-73537.48,-29845.42,-2003.6622,-25125.082,11214.966,16377.6045,68390.83
1311177.026130108,-80922.0,-73555.664,-29853.395,-2006.2664,-25122.52,11216.472,16380.86,68381.31
1311177.030130127,-80890.625,-73550.3,-29849.285,-2008.9519,-25126.426,11218.018,16387.166,68396.65
1311177.034130146,-80859.336,-73546.39,-29843.547,-2009.3995,-25128.826,11220.907,16388.592,68407.555
1311177.038130165,-80859.46,-73547.81,-29847.047,-2008.545,-25125.938,11219.116,16379.313,68395.34
1311177.0421301841,-80886.805,-73548.22,-29849.406,-2006.5511,-25121.502,11216.879,16372.519,68364.664
1311177.0461302032,-80905.64,-73547.08,-29852.5,-2003.8656,-25120.402,11215.332,16370.484,68368.164
1311177.0501302222,-80882.125,-73540.445,-29848.838,-2005.9001,-25118.816,11216.472,16375.163,68396.0
1311177.0541302413,-80850.305,-73519.37,-29841.553,-2003.947,-25124.473,11214.885,16376.669,68407.72
1311177.0581302603,-80847.984,-73517.055,-29838.787,-2002.0345,-25124.105,11214.233,16373.21,68403.65
1311177.0621302794,-80882.734,-73534.71,-29841.635,-1999.5931,-25120.688,11214.396,16368.083,68384.32
1311177.0661302984,-80914.35,-73546.836,-29844.523,-1996.7855,-25117.96,11215.048,16365.153,68374.15
1311177.0701303175,-80885.26,-73536.42,-29839.885,-1996.0938,-25116.375,11217.082,16366.171,68394.086
1311177.0741303365,-80851.65,-73532.76,-29838.135,-1997.2738,-25116.822,11215.17,16363.241,68407.48
1311177.0781303556,-80847.17,-73527.305,-29835.41,-1995.1986,-25117.188,11213.949,16363.404,68409.305
1311177.0821303746,-80871.14,-73541.305,-29846.07,-1998.0469,-25121.135,11218.018,16368.409,68401.25
1311177.0861303937,-80893.84,-73554.81,-29851.768,-1998.3724,-25119.467,11220.866,16372.274,68392.3
1311177.0901304127,-80883.95,-73552.01,-29848.43,-1999.5931,-25121.543,11224.081,16383.505,68410.16
1311177.0941304318,-80869.43,-73546.06,-29844.89,-2002.9298,-25123.008,11225.83,16391.357,68427.25
1311177.0981304508,-80864.18,-73543.74,-29841.105,-2000.407,-25118.693,11225.22,16389.73,68427.86
1311177.1021304699,-80895.836,-73546.305,-29840.943,-1996.3787,-25113.525,11224.081,16381.471,68409.38
1311177.106130489,-80930.42,-73554.77,-29847.088,-1998.6166,-25117.758,11223.308,16374.472,68389.2
1311177.110130508,-80910.81,-73547.33,-29845.256,-2000.6105,-25122.234,11224.813,16378.988,68410.766
1311177.114130527,-80860.68,-73533.81,-29839.234,-2001.18,-25128.379,11229.208,16387.371,68428.02
1311177.118130546,-80851.89,-73542.85,-29841.879,-2002.6042,-25125.652,11231.039,16386.354,68421.15
1311177.122130565,-80880.17,-73554.32,-29846.436,-2001.8312,-25122.355,11230.021,16381.267,68401.695
1311177.1261305842,-80900.84,-73560.55,-29847.861,-2000.9767,-25125.773,11227.702,16375.855,68394.01
1311177.1301306032,-80885.375,-73548.055,-29841.473,-2000.8953,-25128.947,11226.074,16379.518,68421.875
1311177.1341306223,-80855.59,-73537.64,-29838.217,-2002.3195,-25126.303,11223.308,16379.069,68442.75
1311177.1381306413,-80830.445,-73532.63,-29837.484,-2000.7732,-25124.879,11221.884,16376.018,68456.586
1311177.1421306604,-80851.4,-73542.28,-29842.693,-2001.5463,-25124.146,11223.552,16375.163,68456.38
1311177.1461306794,-80874.96,-73549.28,-29846.07,-2002.6449,-25124.635,11225.952,16376.059,68449.055
1311177.1501306985,-80860.44,-73546.51,-29845.297,-2002.767,-25124.717,11228.149,16380.534,68456.26
1311177.1541307175,-80857.79,-73548.46,-29840.576,-2002.238,-25124.553,11225.952,16378.907,68453.62
1311177.1581307366,-80876.38,-73551.39,-29839.111,-1998.6166,-25118.328,11221.762,16369.955,68428.02
1311177.1621307556,-80902.59,-73559.77,-29836.06,-1995.6869,-25116.21,11222.046,16368.083,68406.54
1311177.1661307747,-80923.26,-73563.516,-29839.355,-1993.5303,-25121.705,11224.976,16373.048,68398.36
1311177.1701307937,-80915.04,-73555.664,-29841.35,-1993.8558,-25113.81,11225.424,16376.588,68412.72
1311177.1741308128,-80910.81,-73555.22,-29843.588,-1996.5007,-25113.934,11224.081,16377.401,68422.04
1311177.1781308318,-80917.73,-73558.516,-29844.809,-1995.4021,-25113.078,11222.616,16372.804,68410.04
1311177.1821308509,-80954.555,-73574.586,-29847.78,-1995.3613,-25113.16,11222.372,16368.734,68389.04
1311177.18613087,-80977.79,-73580.57,-29846.232,-1994.0593,-25117.229,11221.313,16368.531,68381.06
1311177.190130889,-80958.82,-73574.51,-29842.693,-1996.9482,-25124.92,11223.755,16376.14,68395.51
1311177.194130908,-80931.64,-73564.01,-29840.658,-1998.8201,-25122.234,11224.528,16378.093,68405.56
1311177.198130927,-80923.664,-73565.72,-29841.879,-1997.518,-25119.873,11225.749,16379.721,68395.305
1311177.202130946,-80945.805,-73570.516,-29846.965,-1997.1517,-25120.078,11224.609,16379.762,68381.555
1311177.2061309651,-80969.41,-73571.25,-29848.594,-1997.1924,-25116.863,11222.575,16375.8955,68369.51
1311177.2101309842,-80943.28,-73554.94,-29841.838,-1994.4662,-25112.916,11222.29,16373.129,68381.266
1311177.2141310032,-80922.53,-73552.734,-29842.45,-1994.2627,-25106.934,11221.68,16372.03,68387.05
1311177.2181310223,-80917.4,-73552.01,-29836.914,-1992.1875,-25113.363,11221.11,16369.589,68385.78
1311177.2221310413,-80925.664,-73554.32,-29833.578,-1988.5662,-25109.824,11217.245,16366.334,68372.68
1311177.2261310604,-80940.43,-73554.85,-29833.62,-1987.9965,-25110.963,11215.414,16360.597,68355.47
1311177.2301310794,-80921.59,-73546.1,-29832.643,-1991.4958,-25112.021,11216.35,16361.857,68373.25
1311177.2341310985,-80895.23,-73532.76,-29835.898,-1993.0013,-25111.37,11215.007,16361.125,68381.19
1311177.2381311175,-80881.11,-73520.8,-29832.072,-1991.3738,-25109.742,11212.28,16355.266,68367.8
1311177.2421311366,-80891.89,-73512.125,-29824.586,-1983.6426,-25096.152,11209.88,16348.349,68344.36
1311177.2461311556,-80923.016,-73516.52,-29826.05,-1981.8523,-25102.621,11211.711,16348.674,68333.05
1311177.2501311747,-80908.2,-73512.82,-29827.88,-1982.9102,-25103.924,11212.6875,16354.127,68350.266
1311177.2541311937,-80876.23,-73505.21,-29823.242,-1983.3171,-25106.04,11212.484,16357.829,68366.54
1311177.2581312128,-80873.17,-73506.31,-29821.453,-1983.1543,-25105.104,11210.043,16354.086,68361.164
1311177.2621312318,-80888.23,-73503.54,-29821.86,-1980.3875,-25100.586,11206.259,16348.227,68338.99
1311177.266131251,-80906.01,-73510.58,-29826.945,-1980.7537,-25102.012,11203.369,16345.053,68320.31
1311177.27013127,-80888.96,-73504.97,-29820.8,-1980.5908,-25107.545,11206.747,16358.684,68340.09
1311177.274131289,-80853.234,-73496.13,-29810.791,-1978.8005,-25108.398,11207.275,16364.543,68358.69
1311177.278131308,-80849.29,-73497.68,-29811.85,-1978.8412,-25104.615,11207.52,16359.498,68354.21
1311177.282131327,-80876.95,-73507.57,-29820.842,-1980.3875,-25108.154,11208.618,16358.195,68334.48
1311177.2861313461,-80907.15,-73517.336,-29828.33,-1982.0557,-25110.516,11208.252,16358.562,68322.72
1311177.2901313652,-80879.48,-73510.87,-29827.76,-1983.6019,-25104.86,11207.316,16355.917,68328.9
1311177.2941313842,-80822.15,-73478.03,-29816.53,-1980.1433,-25106.04,11206.055,16353.476,68340.375
1311177.2981314033,-80818.12,-73474.98,-29816.65,-1979.9805,-25108.887,11204.997,16344.768,68330.28
1311177.3021314223,-80859.5,-73502.08,-29822.715,-1980.2246,-25106.65,11203.939,16334.2295,68308.43
1311177.3061314414,-80874.31,-73501.75,-29819.988,-1978.1902,-25100.506,11201.335,16326.01,68290.81
1311177.3101314604,-80845.09,-73494.34,-29813.803,-1979.0853,-25101.807,11204.794,16331.462,68311.04
1311177.3141314795,-80799.12,-73464.93,-29806.682,-1976.8881,-25107.627,11205.2,16334.352,68337.98
1311177.3181314985,-80778.85,-73454.47,-29809.652,-1977.4984,-25111.736,11203.369,16329.997,68337.93
1311177.3221315176,-80802.086,-73466.68,-29817.383,-1978.7191,-25110.719,11201.335,16324.26,68320.56
1311177.3261315366,-80836.14,-73483.03,-29823.895,-1981.1605,-25111.98,11199.504,16322.389,68313.195
1311177.3301315557,-80795.695,-73460.53,-29811.035,-1976.9695,-25108.195,11202.963,16334.555,68343.06
1311177.3341315747,-80758.1,-73438.11,-29798.707,-1974.3652,-25098.227,11202.922,16340.007,68373.66
1311177.3381315938,-80762.05,-73442.266,-29801.88,-1976.3184,-25094.482,11204.55,16345.134,68380.17
1311177.3421316128,-80781.86,-73444.3,-29802.695,-1976.115,-25106.324,11204.875,16351.4,68383.914
1311177.3461316319,-80810.1,-73464.52,-29802.41,-1974.9349,-25102.5,11206.381,16357.667,68392.26
1311177.350131651,-80785.16,-73460.05,-29797.812,-1976.6439,-25109.701,11209.351,16367.88,68413.74
1311177.35413167,-80758.34,-73455.69,-29800.66,-1981.6488,-25116.66,11212.158,16370.973,68423.71
1311177.358131689,-80759.56,-73460.33,-29806.805,-1983.3984,-25114.178,11210.449,16362.468,68410.65
1311177.362131708,-80782.68,-73465.45,-29809.775,-1981.8523,-25110.19,11207.968,16355.754,68391.234
1311177.3661317271,-80810.71,-73472.05,-29809.164,-1980.4688,-25103.8,11209.88,16357.911,68379.68
1311177.3701317462,-80798.586,-73471.234,-29803.875,-1981.1605,-25108.604,11215.373,16367.229,68401.2
1311177.3741317652,-80765.305,-73460.86,-29800.172,-1981.7302,-25113.81,11218.669,16369.548,68418.5
1311177.3781317843,-80758.22,-73457.28,-29799.357,-1981.3232,-25107.951,11218.222,16366.334,68414.266
1311177.3821318033,-80808.39,-73490.27,-29808.31,-1984.904,-25108.969,11215.698,16356.283,68383.266
1311177.3861318224,-80836.1,-73497.4,-29812.5,-1983.9275,-25109.457,11210.979,16347.006,68359.336
1311177.3901318414,-80821.49,-73494.06,-29816.082,-1985.7585,-25114.137,11212.28,16346.721,68371.625
1311177.3941318605,-80787.68,-73477.336,-29809.938,-1983.5613,-25111.857,11211.874,16344.972,68380.695
1311177.3981318795,-80776.66,-73469.41,-29807.293,-1982.0557,-25109.213,11208.049,16331.422,68366.74
1311177.4021318986,-80803.266,-73485.68,-29807.617,-1981.2012,-25108.277,11206.055,16322.592,68344.28
1311177.4061319176,-80839.27,-73503.336,-29811.85,-1982.5033,-25112.06,11207.194,16322.022,68339.6
1311177.4101319367,-80822.19,-73495.12,-29809.611,-1985.555,-25119.508,11208.944,16327.638,68365.03
1311177.4141319557,-80789.23,-73488.2,-29806.56,-1984.375,-25116.008,11208.659,16331.3,68385.945
1311177.4181319748,-80783.25,-73487.14,-29805.217,-1982.2592,-25118.49,11206.625,16333.659,68391.28
1311177.4221319938,-80806.32,-73480.555,-29806.723,-1978.4343,-25110.148,11206.218,16337.037,68388.67
1311177.4261320129,-80838.79,-73492.88,-29811.158,-1978.6785,-25102.092,11209.636,16346.3955,68397.99
1311177.430132032,-80809.734,-73485.15,-29804.852,-1978.8005,-25107.3,11213.542,16361.288,68433.48
1311177.434132051,-80776.0,-73477.26,-29803.223,-1981.1605,-25109.498,11212.729,16368.815,68451.42
1311177.43813207,-80777.43,-73481.33,-29807.822,-1982.6254,-25112.143,11212.606,16367.799,68443.52
1311177.442132089,-80828.05,-73503.91,-29819.5,-1985.1482,-25112.754,11212.077,16365.846,68423.305
1311177.446132108,-80860.44,-73506.63,-29823.283,-1981.6488,-25111.37,11209.88,16358.236,68406.414
1311177.4501321272,-80840.945,-73503.54,-29821.777,-1983.2764,-25117.92,11210.083,16358.439,68419.76
1311177.4541321462,-80830.77,-73514.41,-29821.453,-1987.915,-25120.402,11213.013,16360.026,68430.38
1311177.4581321653,-80830.77,-73506.23,-29816.488,-1985.7585,-25112.754,11215.251,16358.847,68423.305
1311177.4621321843,-80856.0,-73515.22,-29817.668,-1985.8806,-25107.91,11215.292,16354.371,68401.0
1311177.4661322033,-80896.85,-73542.52,-29829.875,-1991.0076,-25118.45,11216.797,16351.075,68385.375
1311177.4701322224,-80879.44,-73537.72,-29826.457,-1990.8041,-25118.938,11215.17,16350.749,68404.18
1311177.4741322414,-80851.69,-73526.086,-29825.604,-1991.2517,-25121.217,11211.874,16344.972,68408.04
1311177.4781322605,-80855.266,-73533.57,-29832.195,-1993.8965,-25121.135,11210.856,16338.095,68390.1
1311177.4821322795,-80876.75,-73535.52,-29833.66,-1992.5537,-25117.352,11210.165,16330.445,68366.58
1311177.4861322986,-80904.18,-73542.12,-29834.148,-1991.9027,-25114.258,11208.374,16328.492,68350.55
1311177.4901323176,-80895.39,-73546.1,-29831.666,-1992.6351,-25122.438,11210.775,16339.601,68373.086
1311177.4941323367,-80869.39,-73539.19,-29829.55,-1993.571,-25127.85,11209.555,16340.536,68387.984
1311177.4981323557,-80863.85,-73529.22,-29831.463,-1992.7166,-25122.64,11205.566,16326.173,68377.41
1311177.5021323748,-80894.82,-73537.27,-29837.77,-1991.1296,-25123.047,11202.8,16317.546,68355.23
1311177.5061323938,-80930.55,-73549.64,-29846.355,-1991.8213,-25118.693,11203.654,16320.842,68349.94
1311177.510132413,-80902.47,-73539.72,-29847.453,-1993.6931,-25116.66,11206.787,16336.345,68382.086
1311177.514132432,-80867.35,-73532.88,-29848.105,-1996.9076,-25120.605,11210.246,16351.97,68410.73
1311177.518132451,-80866.984,-73534.51,-29849.691,-1998.6572,-25119.629,11211.996,16360.148,68414.19
1311177.52213247,-80889.33,-73542.32,-29846.762,-1994.5068,-25117.676,11213.745,16365.805,68410.69
1311177.526132489,-80921.92,-73558.72,-29846.355,-1994.6697,-25118.287,11213.013,16362.468,68403.89
1311177.5301325081,-80908.98,-73559.45,-29845.826,-1997.7621,-25125.693,11214.722,16364.259,68417.805
1311177.5341325272,-80887.49,-73563.68,-29842.938,-2001.1394,-25130.697,11215.129,16363.648,68427.77
1311177.5381325462,-80885.336,-73562.22,-29842.979,-2000.7325,-25128.418,11214.315,16362.062,68425.54
1311177.5421325653,-80908.695,-73567.99,-29846.559,-1996.9482,-25119.996,11212.118,16356.935,68410.81
1311177.5461325843,-80937.664,-73578.414,-29852.459,-1998.3318,-25122.193,11214.641,16361.817,68408.086
1311177.5501326034,-80913.13,-73564.7,-29848.594,-1998.8201,-25120.322,11217.082,16368.734,68423.38
1311177.5541326224,-80874.31,-73555.46,-29846.07,-2001.2208,-25122.275,11216.919,16367.758,68432.74
1311177.5581326415,-80872.36,-73563.31,-29846.6,-2002.116,-25130.535,11216.105,16361.207,68419.76
1311177.5621326605,-80899.01,-73562.336,-29847.047,-1996.7855,-25121.379,11213.745,16346.762,68393.555
1311177.5661326796,-80930.34,-73573.24,-29849.732,-1996.1345,-25122.438,11213.42,16338.136,68379.27
1311177.5701326986,-80923.305,-73571.01,-29850.912,-1998.3724,-25127.32,11214.111,16343.1,68391.56
1311177.5741327177,-80896.08,-73565.35,-29847.861,-2000.4476,-25128.459,11214.396,16346.477,68398.97
1311177.5781327367,-80887.695,-73563.07,-29846.762,-2000.6105,-25128.826,11214.722,16345.988,68393.72
1311177.5821327558,-80920.125,-73579.47,-29852.783,-1999.9594,-25121.705,11216.797,16347.494,68383.38
1311177.5861327748,-80935.75,-73580.61,-29849.65,-1996.4193,-25125.814,11213.989,16348.674,68383.34
1311177.5901327939,-80910.69,-73571.82,-29844.035,-1997.4365,-25129.924,11213.339,16358.521,68412.07
1311177.594132813,-80885.17,-73565.31,-29844.768,-1998.3318,-25127.035,11211.508,16356.527,68422.41
1311177.598132832,-80883.1,-73566.2,-29842.814,-1998.3318,-25132.977,11213.461,16356.608,68416.914
1311177.602132851,-80929.52,-73577.805,-29847.82,-1997.9656,-25132.691,11216.675,16356.283,68404.09
1311177.60613287,-80969.0,-73595.18,-29854.736,-1999.9187,-25127.523,11218.832,16361.451,68405.195
1311177.6101328891,-80946.086,-73585.164,-29852.377,-2001.2615,-25126.426,11220.663,16368.531,68426.64
1311177.6141329082,-80915.81,-73578.94,-29851.074,-2003.825,-25130.371,11220.012,16372.844,68444.54
1311177.6181329272,-80908.41,-73583.54,-29849.53,-2004.0691,-25129.314,11216.716,16371.623,68444.664
1311177.6221329463,-80929.81,-73588.22,-29846.559,-1999.4711,-25129.477,11213.908,16368.165,68434.0
1311177.6261329653,-80950.766,-73588.016,-29845.012,-1995.7683,-25125.57,11212.81,16369.467,68430.914
1311177.6301329844,-80931.84,-73588.14,-29848.797,-2001.2208,-25131.309,11215.658,16374.553,68449.1
1311177.6341330034,-80895.266,-73578.78,-29849.162,-2002.5636,-25137.615,11217.082,16375.57,68451.664
1311177.6381330225,-80887.695,-73585.29,-29852.256,-2002.116,-25134.441,11219.279,16368.9375,68434.164
1311177.6421330415,-80922.61,-73600.836,-29858.074,-2002.4008,-25128.541,11217.692,16358.073,68406.82
1311177.6461330606,-80953.21,-73606.81,-29858.643,-2000.529,-25125.0,11214.641,16349.0,68382.24
1311177.6501330796,-80937.83,-73598.06,-29854.412,-2001.2208,-25131.227,11214.722,16353.109,68399.5
1311177.6541330987,-80916.42,-73590.74,-29850.139,-1999.0642,-25130.412,11212.118,16350.871,68415.37
1311177.6581331177,-80913.984,-73596.07,-29851.115,-2000.0,-25132.812,11214.152,16354.371,68418.58
1311177.6621331368,-80941.0,-73605.96,-29857.666,-2000.9767,-25130.982,11215.332,16354.086,68405.805
1311177.6661331558,-80977.26,-73621.09,-29864.99,-2003.8656,-25137.615,11215.983,16354.493,68393.88
1311177.6701331749,-80956.83,-73620.73,-29864.055,-2008.1788,-25141.887,11217.001,16358.399,68410.89
1311177.674133194,-80924.28,-73621.09,-29862.998,-2010.3353,-25141.48,11218.1,16358.847,68416.875
1311177.678133213,-80908.77,-73609.17,-29854.127,-2006.9988,-25143.719,11214.315,16356.242,68414.35
1311177.682133232,-80923.305,-73610.68,-29853.842,-2002.1974,-25135.662,11209.066,16348.308,68395.23
1311177.686133251,-80934.77,-73617.555,-29859.58,-2000.7325,-25133.057,11210.083,16345.785,68391.16
1311177.69013327,-80919.35,-73612.836,-29859.01,-2004.7201,-25141.887,11212.565,16349.732,68410.484
1311177.6941332892,-80901.25,-73614.79,-29859.172,-2008.9113,-25148.316,11214.152,16353.72,68419.805
1311177.6981333082,-80893.76,-73606.445,-29856.445,-2005.8595,-25139.08,11213.257,16356.12,68420.17
1311177.7021333275,-80927.78,-73615.484,-29860.23,-2003.8656,-25131.918,11210.368,16352.946,68411.83
1311177.7061333465,-80955.53,-73621.38,-29861.328,-2003.8656,-25140.219,11209.147,16353.679,68407.35
1311177.7101333656,-80939.58,-73612.06,-29856.568,-2004.6388,-25144.857,11208.984,16358.48,68431.16
1311177.7141333846,-80912.27,-73600.836,-29851.727,-2006.5105,-25141.887,11207.846,16356.242,68447.35
1311177.7181334037,-80906.05,-73600.14,-29853.232,-2003.5808,-25138.916,11206.828,16349.772,68435.914
1311177.7221334227,-80943.24,-73618.66,-29860.271,-2002.7263,-25137.086,11205.811,16344.768,68415.24
1311177.7261334418,-80980.59,-73633.79,-29865.234,-2004.1912,-25140.342,11206.828,16343.507,68402.1
1311177.7301334608,-80959.35,-73631.76,-29863.322,-2007.6906,-25145.102,11210.083,16349.528,68419.92
1311177.73413348,-80924.89,-73626.836,-29858.562,-2008.0974,-25145.916,11210.246,16351.197,68429.08
1311177.738133499,-80910.2,-73614.42,-29858.48,-2006.4698,-25148.193,11209.106,16348.1455,68418.7
1311177.742133518,-80932.375,-73624.63,-29865.357,-2007.5277,-25142.295,11209.351,16345.094,68397.055
1311177.746133537,-80963.586,-73632.85,-29866.416,-2005.656,-25140.504,11209.88,16345.582,68389.85
1311177.750133556,-80942.305,-73626.95,-29862.346,-2006.836,-25145.59,11214.478,16359.66,68417.56
1311177.7541335751,-80905.07,-73616.13,-29857.383,-2007.2836,-25145.346,11215.983,16369.996,68442.79
1311177.7581335942,-80898.93,-73614.71,-29859.457,-2008.2195,-25140.79,11214.152,16367.147,68441.29
1311177.7621336132,-80929.734,-73613.81,-29862.713,-2008.7892,-25144.898,11213.42,16364.462,68429.94
1311177.7661336323,-80970.42,-73619.14,-29868.125,-2009.6437,-25143.76,11213.095,16364.787,68422.33
1311177.7701336513,-80962.61,-73619.23,-29870.158,-2012.3292,-25147.99,11213.867,16368.246,68433.88
1311177.7741336704,-80940.19,-73615.93,-29864.178,-2010.9865,-25145.793,11213.135,16367.717,68449.42
1311177.7781336894,-80930.055,-73611.58,-29858.604,-2009.2367,-25149.13,11213.542,16361.9795,68442.836
1311177.7821337085,-80959.35,-73622.68,-29863.607,-2009.0333,-25148.846,11213.867,16355.021,68420.53
1311177.7861337275,-80982.305,-73626.06,-29866.7,-2006.836,-25142.457,11212.81,16351.278,68406.54
1311177.7901337466,-80957.805,-73625.695,-29864.87,-2009.074,-25142.822,11213.949,16356.202,68424.08
1311177.7941337656,-80924.766,-73618.05,-29864.746,-2010.6609,-25146.12,11214.926,16358.439,68432.7
1311177.7981337847,-80915.77,-73603.72,-29864.014,-2009.847,-25151.734,11211.874,16354.33,68425.09
1311177.8021338037,-80958.82,-73613.37,-29870.525,-2009.3995,-25142.904,11207.642,16342.855,68404.055
1311177.8061338228,-80997.12,-73635.625,-29876.262,-2010.3761,-25145.02,11208.212,16342.042,68393.07
1311177.8101338418,-80985.68,-73637.86,-29874.432,-2012.2072,-25144.207,11208.862,16344.523,68410.97
1311177.8141338609,-80954.1,-73631.06,-29869.873,-2012.8175,-25149.902,11209.636,16346.803,68430.34
1311177.81813388,-80944.055,-73628.5,-29871.826,-2012.8988,-25151.652,11207.561,16343.629,68423.18
1311177.822133899,-80970.625,-73631.06,-29876.344,-2008.016,-25140.057,11204.875,16336.183,68409.875
1311177.826133918,-80988.0,-73634.73,-29876.67,-2007.0802,-25136.68,11204.0205,16339.356,68400.96
1311177.830133937,-80967.695,-73618.53,-29868.613,-2008.9926,-25151.855,11205.404,16347.697,68424.195
1311177.834133956,-80943.52,-73618.125,-29868.938,-2012.8175,-25152.752,11207.235,16350.831,68443.12
1311177.8381339752,-80941.33,-73618.414,-29871.46,-2012.2072,-25149.781,11207.194,16349.122,68443.65
1311177.8421339942,-80978.84,-73633.71,-29878.094,-2012.8175,-25148.723,11205.607,16345.541,68425.46
1311177.8461340133,-81008.22,-73642.984,-29881.877,-2011.5154,-25145.143,11206.503,16350.627,68422.08
1311177.8501340323,-80979.25,-73629.4,-29876.547,-2012.3699,-25147.666,11209.758,16360.026,68448.08
1311177.8541340514,-80944.3,-73607.26,-29870.525,-2012.0443,-25146.69,11208.618,16355.795,68460.33
1311177.8581340704,-80938.36,-73603.6,-29870.078,-2011.9222,-25142.904,11206.787,16347.209,68447.1
1311177.8621340895,-80956.26,-73622.805,-29875.45,-2010.8236,-25140.666,11207.275,16340.089,68420.45
1311177.8661341085,-80983.93,-73629.92,-29878.988,-2009.725,-25139.61,11207.642,16337.321,68406.91
1311177.8701341276,-80969.484,-73619.1,-29875.773,-2013.9161,-25149.62,11210.368,16345.907,68431.56
1311177.8741341466,-80937.55,-73605.72,-29869.793,-2012.6954,-25147.055,11209.636,16346.273,68440.59
1311177.8781341657,-80938.766,-73609.945,-29873.78,-2014.5265,-25143.31,11209.839,16345.419,68426.48
1311177.8821341847,-80971.84,-73625.66,-29877.89,-2013.4279,-25136.475,11210.246,16343.547,68410.89
1311177.8861342038,-81005.62,-73634.08,-29876.14,-2012.1664,-25149.822,11212.077,16348.227,68405.73
1311177.8901342228,-80988.37,-73625.45,-29874.594,-2011.5154,-25137.777,11212.077,16350.383,68423.055
1311177.8941342419,-80951.78,-73617.8,-29869.752,-2014.0382,-25147.34,11211.996,16352.662,68444.46
1311177.898134261,-80949.83,-73618.9,-29869.14,-2015.6658,-25148.887,11210.612,16349.04,68444.7
1311177.90213428,-80981.08,-73631.43,-29871.338,-2013.9161,-25143.88,11210.856,16347.413,68428.39
1311177.906134299,-81006.8,-73628.99,-29872.07,-2010.3761,-25140.38,11214.315,16356.12,68430.09
1311177.910134318,-80977.54,-73614.26,-29867.92,-2011.1898,-25140.178,11214.4375,16363.282,68453.984
1311177.914134337,-80948.04,-73603.27,-29863.322,-2012.5326,-25145.06,11212.6875,16365.927,68467.695
1311177.9181343562,-80946.375,-73606.24,-29865.031,-2012.0037,-25137.574,11211.792,16361.654,68459.76
1311177.9221343752,-80979.984,-73614.38,-29866.578,-2009.8878,-25139.242,11211.142,16356.69,68445.11
1311177.9261343942,-81019.37,-73632.41,-29871.623,-2011.3119,-25140.625,11212.6875,16359.172,68439.7
1311177.9301344133,-81000.695,-73631.76,-29871.176,-2015.6658,-25153.89,11214.763,16367.595,68463.46
1311177.9341344323,-80961.47,-73616.984,-29869.06,-2016.0726,-25154.379,11214.641,16365.724,68474.57
1311177.9381344514,-80945.516,-73610.88,-29864.38,-2012.614,-25145.713,11214.926,16361.451,68466.516
1311177.9421344704,-80968.06,-73616.945,-29864.99,-2009.3181,-25142.05,11211.874,16355.348,68445.805
1311177.9461344895,-80986.01,-73621.18,-29870.85,-2006.9988,-25135.295,11210.043,16349.813,68430.95
1311177.9501345085,-80965.09,-73609.375,-29865.684,-2008.016,-25142.66,11209.066,16350.668,68446.414
1311177.9541345276,-80952.35,-73608.44,-29865.967,-2010.132,-25141.48,11207.764,16345.663,68454.23
1311177.9581345466,-80962.08,-73618.33,-29868.125,-2012.7767,-25147.746,11209.961,16344.523,68442.14
1311177.9621345657,-80989.664,-73625.45,-29864.951,-2011.4747,-25147.705,11210.165,16342.408,68421.35
1311177.9661345847,-81016.08,-73633.016,-29865.398,-2011.3933,-25153.89,11207.927,16336.345,68405.48
1311177.9701346038,-80999.516,-73630.25,-29866.049,-2012.8988,-25150.473,11206.543,16335.49,68417.12
1311177.9741346228,-80967.66,-73625.86,-29866.984,-2015.2181,-25149.414,11208.008,16335.287,68428.51
1311177.978134642,-80966.88,-73625.77,-29869.102,-2015.8285,-25151.084,11206.34,16328.248,68424.44
1311177.982134661,-81001.266,-73643.27,-29874.432,-2016.6423,-25149.658,11207.031,16325.807,68409.79
1311177.98613468,-81025.44,-73647.83,-29875.082,-2015.4216,-25152.426,11209.514,16334.636,68411.7
1311177.990134699,-81000.94,-73636.35,-29869.14,-2016.154,-25154.541,11211.304,16344.972,68434.29
1311177.994134718,-80970.625,-73626.99,-29866.496,-2017.7003,-25157.309,11211.711,16343.913,68444.09
1311177.9981347371,-80968.305,-73627.81,-29868.572,-2017.1306,-25160.076,11210.043,16343.222,68444.79
1311178.0021347562,-81013.43,-73647.95,-29877.158,-2018.6769,-25162.191,11206.462,16340.78,68429.37
1311178.0061347752,-81043.58,-73658.41,-29883.545,-2019.3685,-25158.244,11208.659,16344.687,68424.03
1311178.0101347943,-81027.47,-73656.13,-29880.25,-2023.1935,-25161.826,11211.874,16350.546,68446.78
1311178.0141348133,-80997.97,-73648.32,-29872.764,-2023.7631,-25166.79,11208.578,16348.308,68460.21
1311178.0181348324,-80994.55,-73650.35,-29872.723,-2021.1183,-25164.795,11207.153,16347.616,68459.27
1311178.0221348514,-81021.69,-73650.59,-29872.844,-2016.8458,-25162.965,11207.438,16347.087,68448.445
1311178.0261348705,-81042.445,-73659.22,-29876.14,-2017.863,-25159.344,11208.618,16345.866,68431.766
1311178.0301348895,-81015.99,-73660.12,-29874.512,-2020.9554,-25162.762,11211.264,16349.61,68446.82
1311178.0341349086,-80980.63,-73646.52,-29871.014,-2020.8334,-25165.162,11211.548,16351.441,68463.664
1311178.0381349276,-80978.11,-73643.07,-29868.652,-2018.392,-25154.908,11209.595,16345.744,68453.33
1311178.0421349467,-81018.555,-73658.9,-29873.902,-2017.2527,-25154.094,11209.677,16343.059,68437.016
1311178.0461349657,-81049.69,-73669.07,-29879.762,-2017.0492,-25155.479,11210.205,16340.983,68428.19
1311178.0501349848,-81017.664,-73653.04,-29875.45,-2017.5782,-25163.086,11210.897,16341.432,68440.02
1311178.0541350038,-80986.49,-73655.195,-29876.14,-2022.1761,-25167.562,11214.193,16342.286,68443.56
1311178.0581350229,-80971.11,-73638.96,-29870.361,-2019.8568,-25161.133,11211.101,16338.258,68438.56
1311178.062135042,-81003.54,-73643.15,-29873.535,-2017.7003,-25149.17,11207.113,16328.166,68411.79
1311178.066135061,-81029.34,-73645.76,-29873.984,-2015.9506,-25147.137,11208.13,16332.032,68407.555
1311178.07013508,-81001.79,-73633.06,-29866.7,-2013.5906,-25143.352,11206.747,16335.084,68424.73
1311178.074135099,-80977.664,-73634.484,-29864.38,-2014.5265,-25148.887,11209.473,16334.677,68440.266
1311178.0781351181,-80978.07,-73637.86,-29865.805,-2015.8285,-25155.314,11211.304,16334.107,68445.27
1311178.0821351372,-81007.164,-73644.37,-29871.99,-2016.2355,-25150.025,11209.636,16333.456,68440.11
1311178.0861351562,-81023.64,-73641.36,-29869.71,-2011.841,-25142.334,11207.397,16335.775,68443.04
1311178.0901351753,-80999.23,-73635.5,-29868.408,-2011.8002,-25139.934,11207.397,16345.826,68472.86
1311178.0941351943,-80965.01,-73633.67,-29864.746,-2014.6078,-25151.652,11207.642,16350.099,68494.02
1311178.0981352134,-80964.195,-73632.04,-29867.148,-2014.2823,-25145.752,11204.753,16348.837,68487.43
1311178.1021352324,-80999.19,-73644.78,-29869.02,-2014.0789,-25143.922,11205.688,16347.413,68471.4
1311178.1061352515,-81026.25,-73648.44,-29866.496,-2012.3292,-25149.578,11208.374,16351.278,68470.016
1311178.1101352705,-81001.47,-73636.234,-29865.154,-2013.0616,-25148.602,11210.734,16358.928,68492.59
1311178.1141352896,-80971.36,-73632.164,-29861.613,-2014.0382,-25151.816,11214.844,16360.353,68507.49
1311178.1181353086,-80967.695,-73635.945,-29859.904,-2014.0789,-25150.188,11215.861,16359.335,68501.1
1311178.1221353277,-80998.62,-73642.055,-29864.828,-2012.7767,-25142.457,11214.56,16353.395,68476.4
1311178.1261353467,-81035.12,-73653.08,-29870.646,-2012.8988,-25149.781,11211.833,16347.697,68461.63
1311178.1301353658,-81017.336,-73650.88,-29870.117,-2013.265,-25151.043,11208.781,16345.582,68476.16
1311178.1341353848,-80984.42,-73647.87,-29869.873,-2015.7064,-25155.762,11209.066,16349.8545,68491.09
1311178.1381354039,-80976.56,-73642.13,-29865.479,-2016.4388,-25159.262,11209.392,16344.035,68485.76
1311178.142135423,-81005.21,-73650.59,-29870.646,-2016.3575,-25153.402,11206.096,16329.55,68460.86
1311178.146135442,-81032.68,-73660.445,-29874.188,-2015.8693,-25155.396,11205.322,16325.644,68443.93
1311178.150135461,-81011.195,-73655.73,-29872.764,-2016.3982,-25156.332,11206.299,16328.004,68458.78
1311178.15413548,-80979.66,-73650.8,-29871.338,-2018.5955,-25159.344,11210.449,16335.49,68473.63
1311178.158135499,-80972.62,-73644.086,-29868.693,-2017.7003,-25160.361,11209.025,16338.136,68466.555
1311178.1621355182,-81005.54,-73653.61,-29873.455,-2016.154,-25155.03,11205.893,16331.137,68448.85
1311178.1661355372,-81039.8,-73665.2,-29879.924,-2016.154,-25153.89,11203.044,16325.766,68437.46
1311178.1701355563,-81024.62,-73662.6,-29876.182,-2017.9851,-25160.482,11205.322,16331.828,68460.33
1311178.1741355753,-80990.44,-73648.97,-29870.688,-2016.9271,-25155.03,11203.695,16330.607,68476.28
1311178.1781355944,-80986.01,-73652.23,-29872.111,-2018.2699,-25153.85,11205.648,16331.422,68475.586
1311178.1821356134,-81012.29,-73661.46,-29873.129,-2018.392,-25162.924,11205.974,16333.253,68468.586
1311178.1861356325,-81037.4,-73664.836,-29872.52,-2014.6486,-25154.502,11201.172,16331.056,68462.57
1311178.1901356515,-81008.47,-73648.12,-29864.137,-2012.3699,-25154.664,11201.62,16340.658,68493.695
1311178.1941356706,-80989.55,-73645.19,-29862.549,-2013.5092,-25153.2,11203.573,16346.192,68513.19
1311178.1981356896,-81006.15,-73655.64,-29864.014,-2015.8693,-25159.465,11201.701,16346.477,68504.27
1311178.2021357086,-81039.92,-73665.445,-29867.432,-2016.3575,-25154.258,11199.382,16343.425,68489.914
1311178.2061357277,-81059.62,-73674.08,-29870.117,-2016.1947,-25159.465,11198.853,16340.699,68484.336
1311178.2101357467,-81030.97,-73661.46,-29866.537,-2018.4734,-25167.93,11200.644,16342.53,68499.15
1311178.2141357658,-80996.79,-73655.97,-29866.21,-2021.2404,-25165.244,11200.114,16339.804,68504.07
1311178.2181357848,-80990.12,-73657.92,-29864.38,-2023.1527,-25174.725,11200.847,16330.201,68482.914
1311178.222135804,-81016.4,-73670.695,-29866.822,-2021.4437,-25173.26,11201.091,16320.558,68455.445
1311178.226135823,-81036.016,-73670.414,-29869.14,-2017.5782,-25164.715,11198.975,16315.634,68444.13
1311178.230135842,-81003.13,-73656.414,-29864.828,-2015.1368,-25164.55,11197.348,16321.534,68464.16
1311178.234135861,-80979.945,-73644.9,-29862.549,-2014.8519,-25164.227,11197.714,16324.382,68469.56
1311178.23813588,-80982.14,-73649.78,-29865.805,-2017.4968,-25164.715,11199.992,16327.271,68463.055
1311178.2421358991,-81026.414,-73667.69,-29874.146,-2020.5486,-25161.662,11204.428,16330.485,68451.91
1311178.2461359182,-81062.016,-73679.69,-29878.174,-2020.223,-25161.012,11206.096,16331.706,68443.89
1311178.2501359372,-81037.48,-73669.27,-29874.879,-2019.8162,-25159.344,11207.52,16331.747,68464.84
1311178.2541359563,-81001.1,-73655.11,-29871.299,-2020.9554,-25169.639,11210.327,16336.183,68483.4
1311178.2581359753,-80993.414,-73651.82,-29870.281,-2018.4327,-25162.191,11209.636,16335.653,68483.93
1311178.2621359944,-81013.06,-73661.42,-29872.6,-2016.4796,-25160.482,11209.88,16341.1875,68475.305
1311178.2661360134,-81032.35,-73665.61,-29869.467,-2015.2589,-25161.5,11208.984,16346.273,68475.016
1311178.2701360325,-81020.555,-73667.28,-29868.896,-2019.4093,-25168.742,11212.646,16352.906,68495.24
1311178.2741360515,-80995.484,-73662.07,-29867.025,-2022.2169,-25172.201,11213.501,16351.075,68507.85
1311178.2781360706,-81003.99,-73672.734,-29867.229,-2023.5597,-25170.94,11211.101,16347.697,68505.984
1311178.2821360896,-81036.26,-73682.09,-29870.402,-2022.1355,-25166.627,11208.049,16341.594,68489.42
1311178.2861361087,-81055.18,-73683.27,-29873.332,-2018.799,-25157.105,11206.177,16339.274,68486.82
1311178.2901361277,-81024.05,-73669.03,-29868.328,-2016.3982,-25157.512,11208.008,16349.325,68514.734
1311178.2941361468,-80984.54,-73655.56,-29866.984,-2018.1886,-25159.14,11207.4795,16353.3125,68528.65
1311178.2981361658,-80973.63,-73643.96,-29865.764,-2017.4968,-25165.771,11209.839,16357.382,68530.36
1311178.3021361849,-81007.9,-73659.38,-29870.85,-2017.1713,-25162.232,11209.229,16346.3955,68504.56
1311178.306136204,-81042.65,-73680.83,-29872.314,-2019.3279,-25165.527,11212.851,16343.1,68483.52
1311178.310136223,-81030.44,-73681.68,-29867.92,-2021.0369,-25173.992,11213.745,16344.361,68492.88
1311178.314136242,-81004.48,-73678.266,-29867.676,-2021.2404,-25168.783,11210.612,16340.617,68500.53
1311178.318136261,-80998.45,-73677.62,-29870.729,-2021.0775,-25168.742,11205.2,16326.579,68484.26
1311178.3221362801,-81029.55,-73685.51,-29877.768,-2021.1589,-25166.098,11202.108,16319.825,68460.82
1311178.3261362992,-81040.04,-73679.484,-29877.523,-2017.9037,-25170.166,11201.701,16326.051,68462.484
1311178.3301363182,-81015.67,-73678.47,-29876.22,-2022.5831,-25174.56,11207.113,16340.089,68482.26
1311178.3341363373,-80994.914,-73676.19,-29874.064,-2025.2279,-25174.684,11209.555,16341.92,68486.164
1311178.3381363563,-80989.75,-73673.34,-29871.664,-2024.17,-25174.154,11207.764,16341.065,68485.76
1311178.3421363754,-81024.7,-73689.336,-29875.205,-2021.932,-25164.674,11208.252,16338.095,68473.8
1311178.3461363944,-81053.19,-73689.01,-29875.488,-2020.4265,-25166.504,11206.747,16336.711,68471.11
1311178.3501364135,-81021.484,-73672.734,-29869.914,-2019.6127,-25165.691,11204.794,16339.641,68491.87
1311178.3541364325,-80997.44,-73672.28,-29873.576,-2021.932,-25170.004,11203.817,16345.175,68510.99
1311178.3581364516,-81009.89,-73684.29,-29879.965,-2023.0714,-25166.992,11205.038,16345.338,68505.54
1311178.3621364706,-81044.97,-73695.234,-29880.86,-2021.0775,-25171.143,11205.282,16340.78,68490.44
1311178.3661364897,-81073.695,-73703.53,-29879.395,-2021.7693,-25175.375,11207.846,16341.92,68486.58
1311178.3701365087,-81051.31,-73697.76,-29875.652,-2025.6349,-25176.393,11208.822,16346.965,68505.984
1311178.3741365278,-81017.414,-73689.375,-29871.867,-2027.8322,-25182.455,11206.625,16341.716,68516.36
1311178.3781365468,-81010.625,-73685.95,-29876.629,-2026.7335,-25181.316,11203.9795,16332.194,68507.0
1311178.3821365659,-81034.18,-73691.94,-29881.104,-2022.9493,-25169.23,11203.044,16329.794,68491.21
1311178.386136585,-81052.53,-73696.33,-29879.191,-2022.461,-25172.568,11203.9795,16337.729,68489.26
1311178.390136604,-81031.45,-73682.62,-29874.105,-2022.7458,-25170.166,11204.956,16345.5,68512.49
1311178.394136623,-81004.97,-73674.805,-29870.729,-2022.7052,-25177.654,11205.119,16345.582,68521.69
1311178.398136642,-81013.63,-73687.3,-29873.74,-2022.8679,-25175.375,11203.898,16336.305,68502.24
1311178.402136661,-81044.48,-73698.734,-29878.662,-2024.5769,-25184.287,11203.776,16326.335,68470.87
1311178.4061366802,-81066.086,-73703.164,-29880.576,-2024.4955,-25183.35,11201.538,16314.128,68450.08
1311178.4101366992,-81048.875,-73698.41,-29879.883,-2027.2625,-25180.908,11200.684,16314.21,68461.43
1311178.4141367183,-81011.195,-73681.12,-29875.082,-2026.4894,-25176.23,11204.0205,16322.0625,68479.58
1311178.4181367373,-80998.62,-73671.51,-29871.787,-2024.8617,-25181.316,11206.787,16329.794,68480.47
1311178.4221367564,-81031.01,-73683.68,-29875.408,-2022.0541,-25172.527,11208.496,16335.816,68472.17
1311178.4261367754,-81055.5,-73690.19,-29878.256,-2020.9554,-25170.33,11208.862,16335.612,68469.52
1311178.4301367945,-81049.484,-73697.39,-29879.07,-2024.0072,-25171.795,11209.636,16334.596,68481.2
1311178.4341368135,-81023.4,-73690.96,-29870.85,-2024.5363,-25177.451,11207.397,16335.694,68498.086
1311178.4381368326,-81016.32,-73688.03,-29867.676,-2021.3624,-25169.639,11204.184,16332.072,68498.05
1311178.4421368516,-81040.086,-73686.28,-29865.072,-2017.7816,-25182.334,11205.16,16335.816,68498.54
1311178.4461368707,-81055.586,-73693.28,-29871.014,-2017.5375,-25175.945,11205.363,16341.635,68499.27
1311178.4501368897,-81027.67,-73691.61,-29870.973,-2022.1761,-25184.45,11206.665,16349.447,68525.19
1311178.4541369088,-80992.02,-73683.96,-29870.484,-2022.3796,-25179.12,11207.113,16351.156,68540.0
1311178.4581369278,-80984.3,-73679.445,-29869.467,-2021.2404,-25180.99,11207.235,16350.505,68536.5
1311178.4621369469,-81004.93,-73682.58,-29871.055,-2018.4734,-25178.793,11208.212,16345.582,68517.3
1311178.466136966,-81030.64,-73692.14,-29875.244,-2016.8865,-25165.771,11205.444,16335.002,68498.17
1311178.470136985,-81017.09,-73682.62,-29871.826,-2019.3279,-25175.09,11206.015,16336.305,68515.625
1311178.474137004,-81001.34,-73674.805,-29865.643,-2022.2169,-25182.984,11205.16,16336.833,68527.55
1311178.478137023,-81017.055,-73677.62,-29865.072,-2021.4031,-25170.207,11202.026,16328.126,68509.36
1311178.482137042,-81046.23,-73683.02,-29862.305,-2018.392,-25185.629,11203.857,16330.119,68495.445
1311178.4861370611,-81065.72,-73695.64,-29865.764,-2018.1886,-25174.44,11205.485,16328.98,68487.14
1311178.4901370804,-81039.63,-73688.31,-29863.607,-2020.3044,-25182.252,11208.618,16334.311,68505.375
1311178.4941370995,-81023.44,-73684.86,-29869.549,-2021.9728,-25182.617,11209.961,16331.544,68505.336
1311178.4981371185,-81022.95,-73684.05,-29871.664,-2022.2169,-25186.768,11206.218,16323.243,68491.25
1311178.5021371376,-81058.11,-73695.35,-29877.402,-2023.7224,-25186.32,11205.16,16323.202,68470.83
1311178.5061371566,-81084.15,-73706.34,-29883.912,-2023.9259,-25184.002,11207.031,16325.155,68461.63
1311178.5101371757,-81054.52,-73699.83,-29878.174,-2025.0245,-25190.879,11207.235,16326.376,68472.62
1311178.5141371947,-81022.18,-73697.96,-29876.22,-2028.1576,-25194.662,11208.456,16329.184,68486.58
1311178.5181372138,-81016.52,-73696.984,-29875.205,-2027.3439,-25188.314,11206.137,16326.051,68482.875
1311178.5221372328,-81044.6,-73697.15,-29873.902,-2023.2748,-25185.426,11203.9795,16321.859,68476.36
1311178.5261372519,-81075.93,-73708.74,-29880.412,-2023.3156,-25185.426,11202.922,16320.272,68472.086
1311178.530137271,-81061.77,-73709.27,-29878.418,-2025.1058,-25194.174,11206.503,16331.503,68498.375
1311178.53413729,-81032.68,-73699.38,-29872.64,-2023.6818,-25189.82,11206.096,16336.833,68525.64
1311178.538137309,-81021.89,-73694.22,-29869.914,-2021.1589,-25184.164,11204.59,16336.915,68520.23
1311178.542137328,-81058.8,-73706.09,-29873.291,-2021.6879,-25183.146,11204.631,16336.061,68504.07
1311178.5461373471,-81075.97,-73705.33,-29871.746,-2022.7458,-25188.803,11206.787,16339.885,68506.63
1311178.5501373662,-81055.87,-73700.52,-29870.566,-2024.0886,-25190.959,11208.74,16344.564,68524.13
1311178.5541373852,-81033.81,-73691.695,-29869.508,-2024.0886,-25190.553,11205.2,16334.799,68526.94
1311178.5581374043,-81039.96,-73694.22,-29872.559,-2022.6644,-25183.635,11201.376,16324.382,68509.24
1311178.5621374233,-81073.695,-73703.984,-29872.52,-2016.5609,-25181.234,11200.644,16323.894,68498.45
1311178.5661374424,-81095.22,-73706.22,-29872.926,-2012.6547,-25177.043,11199.179,16324.504,68493.2
1311178.5701374614,-81073.37,-73702.68,-29872.193,-2017.4968,-25178.63,11199.87,16327.067,68509.69
1311178.5741374805,-81047.98,-73702.07,-29874.879,-2023.112,-25189.047,11203.369,16330.934,68519.66
1311178.5781374995,-81047.0,-73702.35,-29880.006,-2025.7162,-25198.73,11202.922,16326.539,68509.766
1311178.5821375186,-81071.945,-73707.16,-29884.604,-2022.7052,-25184.611,11200.684,16314.86,68476.93
1311178.5861375376,-81106.734,-73721.805,-29890.3,-2022.5424,-25180.543,11200.317,16310.873,68457.64
1311178.5901375567,-81073.695,-73715.21,-29884.033,-2023.0714,-25194.785,11203.735,16319.052,68477.3
1311178.5941375757,-81037.6,-73705.33,-29877.768,-2021.1589,-25186.158,11203.451,16323.731,68493.98
1311178.5981375948,-81041.67,-73701.83,-29875.773,-2019.0431,-25181.64,11203.125,16323.283,68489.016
1311178.6021376138,-81075.195,-73706.305,-29876.873,-2018.514,-25183.96,11203.776,16321.452,68470.99
1311178.6061376329,-81105.72,-73721.4,-29883.139,-2019.9382,-25177.775,11203.776,16322.267,68463.7
1311178.610137652,-81084.35,-73715.58,-29883.22,-2020.8741,-25176.555,11202.841,16319.418,68477.625
1311178.614137671,-81054.57,-73702.805,-29879.762,-2023.0714,-25191.123,11203.451,16321.859,68495.89
1311178.61813769,-81052.94,-73707.56,-29885.092,-2023.2341,-25184.205,11201.945,16323.527,68497.11
1311178.622137709,-81073.24,-73717.98,-29889.08,-2019.572,-25184.57,11203.776,16322.226,68486.82
1311178.626137728,-81096.4,-73723.96,-29885.906,-2020.3044,-25189.209,11207.846,16327.271,68490.766
1311178.6301377472,-81081.305,-73725.55,-29882.324,-2024.0886,-25191.123,11214.274,16339.763,68523.27
1311178.6341377662,-81055.55,-73711.51,-29873.658,-2023.5189,-25192.506,11212.524,16342.123,68546.8
1311178.6381377853,-81046.63,-73708.87,-29868.613,-2021.281,-25189.697,11207.805,16334.555,68539.43
1311178.6421378043,-81073.04,-73724.65,-29875.773,-2022.0541,-25189.82,11208.659,16332.4795,68522.38
1311178.6461378234,-81106.0,-73735.92,-29887.574,-2022.9493,-25182.129,11209.066,16327.719,68500.81
1311178.6501378424,-81083.17,-73724.0,-29889.201,-2025.879,-25190.674,11211.589,16332.927,68514.85
1311178.6541378614,-81052.05,-73712.81,-29886.963,-2026.0011,-25187.217,11209.595,16327.963,68521.445
1311178.6581378805,-81049.28,-73708.01,-29885.01,-2023.8038,-25181.357,11208.13,16320.313,68506.59
1311178.6621378995,-81082.84,-73715.7,-29887.98,-2022.339,-25180.299,11208.13,16314.454,68485.48
1311178.6661379186,-81108.195,-73715.78,-29886.354,-2020.5486,-25190.023,11206.991,16316.8545,68481.53
1311178.6701379376,-81086.19,-73719.56,-29884.686,-2021.5658,-25193.28,11206.503,16320.436,68501.71
1311178.6741379567,-81058.11,-73722.13,-29884.521,-2023.2341,-25190.105,11207.846,16315.023,68500.37
1311178.6781379757,-81061.89,-73728.195,-29890.545,-2024.821,-25183.92,11208.862,16310.67,68479.17
1311178.6821379948,-81086.14,-73730.51,-29892.334,-2024.2107,-25188.965,11207.927,16309.652,68469.16
1311178.6861380138,-81106.24,-73723.72,-29890.951,-2022.5831,-25195.436,11207.846,16313.355,68468.55
1311178.690138033,-81094.81,-73720.54,-29888.062,-2024.9838,-25191.936,11207.927,16316.8545,68480.39
1311178.694138052,-81066.53,-73719.89,-29883.3,-2026.9369,-25190.064,11207.031,16314.779,68490.16
1311178.698138071,-81058.64,-73718.1,-29878.215,-2024.821,-25194.053,11206.259,16313.233,68487.71
1311178.70213809,-81085.49,-73728.92,-29883.912,-2022.7458,-25188.762,11206.096,16309.652,68469.16
1311178.706138109,-81103.6,-73735.03,-29889.16,-2023.1935,-25184.287,11206.95,16312.419,68466.43
1311178.7101381281,-81090.25,-73727.055,-29885.01,-2024.3328,-25187.623,11207.886,16321.534,68494.875
1311178.7141381472,-81061.24,-73712.93,-29878.785,-2022.7458,-25190.023,11206.869,16326.783,68520.06
1311178.7181381662,-81071.49,-73719.56,-29880.127,-2022.6238,-25193.604,11205.933,16325.399,68519.45
1311178.7221381853,-81106.2,-73736.05,-29885.621,-2022.1355,-25185.508,11203.613,16319.337,68508.75
1311178.7261382043,-81132.94,-73752.97,-29892.742,-2025.6349,-25184.938,11205.607,16320.476,68505.414
1311178.7301382234,-81095.46,-73732.38,-29884.604,-2025.3907,-25190.309,11206.015,16325.196,68529.46
1311178.7341382424,-81057.58,-73718.305,-29877.97,-2025.9603,-25193.441,11204.997,16328.573,68539.23
1311178.7381382615,-81051.96,-73721.36,-29879.639,-2024.7396,-25190.023,11203.9795,16324.626,68530.6
1311178.7421382805,-81072.76,-73728.44,-29883.383,-2023.2341,-25184.611,11203.654,16318.482,68503.26
1311178.7461382996,-81095.75,-73728.92,-29881.756,-2022.7458,-25193.93,11202.841,16317.465,68489.664
1311178.7501383186,-81084.68,-73726.24,-29877.727,-2021.932,-25187.867,11204.834,16322.999,68506.11
1311178.7541383377,-81056.195,-73717.81,-29873.129,-2021.4031,-25184.45,11206.543,16326.376,68519.01
1311178.7581383567,-81055.95,-73722.29,-29878.662,-2023.4783,-25185.752,11207.724,16324.382,68512.29
1311178.7621383758,-81086.14,-73730.63,-29885.459,-2025.0652,-25190.064,11206.909,16319.215,68489.3
1311178.7661383948,-81109.78,-73738.2,-29888.428,-2023.8851,-25196.209,11204.428,16313.3955,68475.22
1311178.7701384139,-81089.84,-73735.84,-29887.533,-2025.1466,-25191.855,11204.59,16310.588,68481.445
1311178.774138433,-81061.484,-73733.56,-29887.371,-2028.8494,-25195.03,11203.776,16308.065,68485.03
1311178.778138452,-81052.695,-73731.33,-29882.854,-2025.9603,-25196.574,11201.294,16301.881,68475.22
1311178.782138471,-81079.19,-73734.055,-29882.895,-2023.8851,-25196.086,11200.358,16298.422,68465.62
1311178.78613849,-81115.766,-73744.47,-29889.527,-2025.1873,-25192.18,11201.538,16301.026,68452.555
1311178.7901385091,-81094.98,-73733.766,-29885.742,-2027.059,-25192.547,11203.329,16305.461,68474.98
1311178.7941385282,-81063.56,-73725.266,-29882.977,-2027.1404,-25185.426,11201.742,16306.234,68493.82
1311178.7981385472,-81060.63,-73734.7,-29883.586,-2028.0355,-25191.488,11204.509,16314.128,68486.086
1311178.8021385663,-81088.586,-73739.586,-29885.742,-2026.53,-25194.5,11203.939,16316.8545,68476.195
1311178.8061385853,-81110.96,-73735.68,-29886.924,-2024.699,-25195.068,11203.776,16318.4,68481.57
1311178.8101386044,-81089.03,-73737.875,-29891.113,-2027.3439,-25191.691,11204.387,16325.644,68507.85
1311178.8141386234,-81056.16,-73731.04,-29888.184,-2030.1107,-25198.61,11203.939,16327.76,68528.98
1311178.8181386425,-81054.164,-73730.51,-29884.033,-2028.5646,-25199.219,11203.41,16323.405,68523.6
1311178.8221386615,-81086.914,-73740.03,-29883.098,-2025.3093,-25188.762,11199.911,16319.987,68511.195
1311178.8261386806,-81104.82,-73739.79,-29884.033,-2021.932,-25187.256,11199.626,16325.033,68515.42
1311178.8301386996,-81081.664,-73730.836,-29882.041,-2023.5597,-25186.809,11200.888,16331.625,68534.266
1311178.8341387187,-81071.62,-73741.74,-29888.998,-2029.9886,-25190.797,11202.108,16331.95,68536.016
1311178.8381387377,-81092.2,-73748.66,-29892.863,-2030.9246,-25195.068,11202.026,16321.737,68521.04
1311178.8421387568,-81117.64,-73748.086,-29896.16,-2028.9308,-25197.186,11200.684,16313.762,68498.25
1311178.8461387758,-81128.79,-73750.66,-29897.828,-2027.5472,-25195.762,11197.144,16306.804,68480.19
1311178.8501387949,-81094.93,-73739.09,-29890.463,-2026.3265,-25200.562,11195.842,16308.432,68496.46
1311178.854138814,-81066.695,-73738.0,-29890.016,-2028.5646,-25199.951,11196.005,16308.31,68503.38
1311178.858138833,-81066.45,-73735.27,-29891.113,-2028.89,-25195.924,11196.696,16305.583,68493.086
1311178.862138852,-81095.18,-73741.82,-29893.23,-2026.2452,-25196.574,11195.923,16300.741,68469.16
1311178.866138871,-81133.586,-73762.33,-29897.502,-2027.181,-25194.377,11194.662,16293.539,68452.11
1311178.87013889,-81116.91,-73763.06,-29893.963,-2029.4597,-25202.11,11195.028,16293.702,68462.24
1311178.8741389092,-81077.68,-73750.37,-29889.201,-2029.3376,-25212.77,11194.58,16296.306,68476.484
1311178.8781389282,-81075.805,-73746.99,-29890.951,-2030.3549,-25213.584,11193.278,16293.173,68466.63
1311178.8821389473,-81103.195,-73758.305,-29898.846,-2029.4597,-25203.613,11192.261,16289.186,68448.0
1311178.8861389663,-81127.766,-73765.95,-29903.32,-2028.8087,-25199.463,11193.278,16291.22,68447.1
1311178.8901389854,-81094.93,-73744.43,-29895.996,-2026.0011,-25195.883,11193.4,16298.341,68471.4
1311178.8941390044,-81071.74,-73740.32,-29894.043,-2025.5128,-25185.67,11193.889,16297.648,68477.83
1311178.8981390235,-81073.695,-73745.37,-29891.236,-2027.2625,-25209.799,11194.702,16299.806,68478.234
1311178.9021390425,-81098.516,-73754.64,-29890.625,-2024.9838,-25202.598,11191.732,16293.295,68460.82
1311178.9061390616,-81113.484,-73757.65,-29887.371,-2022.99,-25202.475,11190.186,16290.772,68458.74
1311178.9101390806,-81085.33,-73752.16,-29886.719,-2023.3562,-25203.207,11191.528,16296.51,68485.15
1311178.9141390997,-81058.43,-73743.05,-29889.283,-2026.7335,-25204.672,11191.04,16301.881,68501.95
1311178.9181391187,-81054.69,-73736.734,-29889.283,-2023.6818,-25193.36,11190.918,16305.949,68506.72
1311178.9221391378,-81096.56,-73752.12,-29896.078,-2023.9259,-25192.912,11193.686,16312.704,68504.4
1311178.9261391568,-81134.73,-73765.914,-29898.56,-2024.2107,-25191.406,11197.266,16320.069,68501.43
1311178.9301391758,-81109.7,-73759.04,-29889.445,-2025.9603,-25201.336,11200.195,16326.457,68520.43
1311178.934139195,-81068.04,-73751.836,-29885.295,-2029.0529,-25206.828,11201.823,16326.051,68533.86
1311178.938139214,-81045.375,-73740.69,-29879.355,-2025.1058,-25201.172,11195.476,16313.844,68525.02
1311178.942139233,-81066.86,-73746.09,-29882.365,-2022.6644,-25194.744,11192.261,16302.206,68501.14
1311178.946139252,-81082.234,-73738.37,-29877.89,-2018.9617,-25194.053,11190.308,16302.572,68495.445
1311178.950139271,-81061.85,-73726.28,-29871.42,-2016.9679,-25192.424,11192.831,16307.658,68509.56
1311178.9541392901,-81041.1,-73723.31,-29873.129,-2018.2699,-25191.123,11196.696,16310.914,68516.6
1311178.9581393092,-81039.516,-73731.77,-29873.496,-2019.2058,-25193.97,11198.08,16309.327,68508.38
1311178.9621393282,-81059.53,-73740.89,-29874.432,-2016.5609,-25191.57,11196.086,16300.985,68483.03
1311178.9661393473,-81088.87,-73744.914,-29879.883,-2019.2872,-25195.273,11196.899,16298.666,68472.29
1311178.9701393663,-81061.32,-73733.766,-29878.215,-2020.9962,-25191.936,11196.411,16300.619,68485.68
1311178.9741393854,-81030.64,-73730.43,-29874.309,-2023.5597,-25199.424,11196.045,16299.887,68496.055
1311178.9781394044,-81038.58,-73733.12,-29871.908,-2023.641,-25203.207,11196.655,16301.026,68496.055
1311178.9821394235,-81070.03,-73735.72,-29871.176,-2018.7175,-25194.5,11196.615,16301.596,68483.52
1311178.9861394425,-81101.36,-73746.09,-29877.32,-2018.8802,-25192.344,11197.266,16301.799,68481.33
1311178.9901394616,-81082.12,-73740.07,-29881.389,-2021.0369,-25195.598,11198.568,16304.078,68496.7
1311178.9941394806,-81056.56,-73734.09,-29887.127,-2024.5769,-25199.26,11196.777,16298.544,68500.086
1311178.9981394997,-81060.06,-73741.74,-29895.63,-2027.6287,-25196.656,11194.58,16292.033,68487.51
1311179.0021395187,-81087.61,-73749.68,-29896.81,-2026.6115,-25199.424,11195.068,16290.772,68472.66
1311179.0061395378,-81108.805,-73759.195,-29895.713,-2025.7976,-25203.613,11193.93,16292.726,68474.695
1311179.0101395568,-81086.39,-73748.66,-29888.469,-2026.6521,-25209.596,11193.278,16300.131,68501.75
1311179.014139576,-81067.43,-73744.75,-29882.488,-2029.0529,-25212.443,11195.679,16309.896,68526.125
1311179.018139595,-81064.336,-73739.055,-29876.953,-2026.7335,-25211.752,11194.987,16312.582,68533.734
1311179.022139614,-81088.3,-73742.59,-29884.074,-2023.641,-25190.186,11192.587,16308.473,68518.516
1311179.026139633,-81114.51,-73755.86,-29893.066,-2023.9666,-25196.168,11192.749,16307.252,68508.34
1311179.030139652,-81100.71,-73758.914,-29896.484,-2029.6632,-25204.957,11196.045,16309.53,68518.19
1311179.0341396711,-81067.38,-73737.43,-29891.074,-2029.7853,-25204.754,11193.319,16303.183,68524.05
1311179.0381396902,-81069.13,-73736.05,-29890.992,-2030.3142,-25207.275,11194.58,16302.491,68515.26
1311179.0421397092,-81096.6,-73744.67,-29891.236,-2026.8148,-25195.598,11191.977,16292.277,68497.27
1311179.0461397283,-81129.84,-73760.83,-29897.705,-2026.4486,-25190.635,11192.79,16287.272,68485.516
1311179.0501397473,-81102.09,-73755.86,-29891.643,-2026.2045,-25188.355,11192.017,16290.935,68496.09
1311179.0541397664,-81052.9,-73736.05,-29880.941,-2025.1058,-25198.691,11192.18,16296.754,68520.39
1311179.0581397854,-81043.78,-73731.04,-29885.01,-2025.4314,-25200.725,11190.634,16292.888,68511.88
1311179.0621398045,-81078.94,-73746.09,-29894.613,-2025.9603,-25199.016,11189.616,16288.9,68491.5
1311179.0661398235,-81112.35,-73755.414,-29899.943,-2026.8148,-25200.277,11190.308,16288.697,68474.9
1311179.0701398426,-81095.22,-73749.8,-29897.828,-2028.2797,-25202.516,11190.756,16290.202,68485.48
1311179.0741398616,-81072.266,-73745.24,-29894.654,-2031.2094,-25205.242,11191.162,16291.057,68493.37
1311179.0781398807,-81073.24,-73753.3,-29899.455,-2033.7728,-25203.207,11191.325,16292.481,68489.664
1311179.0821398997,-81097.49,-73757.9,-29901.164,-2029.9886,-25197.633,11190.756,16290.65,68476.52
1311179.0861399188,-81113.61,-73757.37,-29901.002,-2028.4017,-25198.121,11191.081,16295.411,68476.81
1311179.0901399378,-81075.65,-73738.65,-29892.66,-2025.7162,-25196.168,11189.819,16298.747,68499.23
1311179.0941399569,-81051.35,-73733.805,-29889.527,-2029.3376,-25205.648,11192.261,16301.759,68512.66
1311179.098139976,-81054.61,-73738.65,-29890.342,-2030.0701,-25203.94,11193.278,16299.4795,68510.055
1311179.102139995,-81091.63,-73755.05,-29895.305,-2028.89,-25201.133,11194.011,16298.097,68494.06
1311179.106140014,-81125.81,-73768.48,-29900.96,-2028.239,-25200.115,11195.395,16297.7705,68494.02
1311179.110140033,-81102.26,-73763.15,-29901.367,-2031.006,-25208.416,11197.551,16307.943,68523.64
1311179.114140052,-81071.945,-73756.19,-29896.77,-2032.1453,-25208.09,11196.289,16311.564,68540.125
1311179.1181400712,-81066.94,-73757.0,-29894.775,-2031.2094,-25202.76,11192.871,16307.658,68530.4
1311179.1221400902,-81085.82,-73756.555,-29892.254,-2028.768,-25200.48,11192.912,16307.699,68514.53
1311179.1261401093,-81117.234,-73764.41,-29893.352,-2027.588,-25196.777,11193.808,16309.042,68508.305
1311179.1301401283,-81090.3,-73762.086,-29891.521,-2030.3549,-25208.904,11195.231,16312.907,68521.04
1311179.1341401474,-81063.805,-73756.06,-29890.178,-2031.2908,-25210.531,11192.912,16304.484,68526.0
1311179.1381401664,-81071.984,-73760.336,-29891.928,-2030.1515,-25211.223,11194.133,16295.573,68513.555
1311179.1421401855,-81109.01,-73769.01,-29896.322,-2028.0763,-25209.637,11194.824,16292.766,68493.164
1311179.1461402045,-81121.18,-73767.58,-29895.102,-2024.9838,-25202.719,11192.668,16288.168,68488.04
1311179.1501402236,-81082.32,-73754.84,-29890.707,-2024.821,-25206.26,11190.552,16290.568,68503.016
1311179.1541402426,-81061.0,-73747.93,-29890.422,-2027.3031,-25209.434,11190.227,16289.836,68507.53
1311179.1581402617,-81066.04,-73748.25,-29887.33,-2027.0183,-25205.445,11190.063,16288.29,68499.19
1311179.1621402807,-81094.28,-73759.32,-29890.098,-2023.1935,-25194.58,11187.907,16285.035,68481.9
1311179.1661402998,-81111.49,-73769.164,-29891.113,-2021.6066,-25201.783,11188.07,16287.599,68479.984
1311179.1701403188,-81076.58,-73757.0,-29889.527,-2022.9086,-25211.346,11191.162,16295.289,68502.65
1311179.1741403379,-81050.5,-73748.945,-29890.83,-2024.9431,-25212.24,11192.18,16292.888,68512.82
1311179.178140357,-81050.3,-73750.57,-29893.555,-2024.5769,-25212.89,11188.64,16285.686,68508.22
1311179.182140376,-81081.71,-73761.76,-29899.414,-2023.5597,-25206.422,11185.222,16278.605,68492.39
1311179.186140395,-81106.445,-73764.484,-29901.45,-2020.7521,-25201.254,11184.53,16278.239,68488.164
1311179.190140414,-81090.13,-73763.305,-29897.828,-2023.6003,-25206.666,11187.053,16284.14,68507.445
1311179.194140433,-81061.484,-73759.73,-29894.166,-2024.9838,-25208.781,11188.884,16289.877,68516.03
1311179.1981404522,-81059.0,-73760.625,-29894.695,-2023.5597,-25210.328,11187.5,16289.714,68509.16
1311179.2021404712,-81082.64,-73757.445,-29893.148,-2019.8976,-25204.225,11184.286,16286.906,68495.41
1311179.2061404902,-81099.086,-73759.73,-29898.438,-2019.6127,-25199.707,11185.751,16285.075,68490.12
1311179.2101405093,-81088.7,-73762.66,-29900.473,-2023.9666,-25203.125,11189.128,16287.313,68504.68
1311179.2141405283,-81057.01,-73753.3,-29897.096,-2025.1873,-25210.654,11186.198,16284.14,68514.445
1311179.2181405474,-81063.97,-73757.81,-29899.008,-2023.8038,-25206.178,11181.885,16276.002,68504.07
1311179.2221405664,-81100.79,-73772.016,-29903.402,-2023.8038,-25202.393,11182.617,16275.31,68487.305
1311179.2261405855,-81111.695,-73768.27,-29901.164,-2022.1761,-25205.078,11186.687,16285.36,68485.555
1311179.2301406045,-81083.54,-73756.59,-29894.287,-2023.8851,-25207.275,11189.657,16293.092,68503.99
1311179.2341406236,-81053.8,-73754.92,-29891.562,-2025.1058,-25201.824,11190.715,16294.679,68516.195
1311179.2381406426,-81047.65,-73750.57,-29894.166,-2023.6003,-25204.59,11190.959,16290.08,68508.1
1311179.2421406617,-81084.234,-73763.06,-29898.234,-2023.6818,-25207.275,11191.8545,16286.296,68494.39
1311179.2461406807,-81131.96,-73770.305,-29902.996,-2022.7865,-25211.508,11189.209,16281.251,68484.26
1311179.2501406998,-81121.26,-73771.484,-29903.729,-2024.4955,-25213.176,11190.349,16281.169,68500.29
1311179.2541407188,-81085.45,-73765.586,-29897.502,-2024.9838,-25214.316,11192.749,16290.8125,68522.3
1311179.258140738,-81081.99,-73767.375,-29899.902,-2024.7804,-25204.266,11191.569,16292.726,68522.55
1311179.262140757,-81094.85,-73762.62,-29895.916,-2020.5486,-25199.383,11187.704,16292.359,68517.5
1311179.266140776,-81100.14,-73759.56,-29896.404,-2019.7347,-25199.992,11186.035,16294.149,68512.66
1311179.270140795,-81072.266,-73751.63,-29897.502,-2021.7693,-25203.574,11188.07,16298.869,68529.13
1311179.274140814,-81055.26,-73750.37,-29896.648,-2025.8383,-25208.62,11190.674,16298.381,68536.99
1311179.2781408334,-81070.15,-73764.164,-29900.39,-2026.1232,-25210.043,11192.383,16295.736,68527.1
1311179.2821408524,-81101.32,-73781.25,-29906.414,-2024.2921,-25204.916,11192.058,16288.046,68506.92
1311179.2861408715,-81107.875,-73775.15,-29904.664,-2021.1589,-25205.16,11189.616,16283.61,68495.52
1311179.2901408905,-81091.39,-73766.36,-29902.955,-2021.1183,-25197.51,11187.094,16280.274,68505.414
1311179.2941409096,-81057.7,-73753.91,-29897.543,-2021.1589,-25202.19,11186.687,16280.559,68518.11
1311179.2981409286,-81049.97,-73758.18,-29899.578,-2021.9728,-25208.578,11185.71,16279.135,68512.33
1311179.3021409477,-81091.31,-73773.97,-29907.227,-2022.3796,-25208.781,11185.263,16272.909,68484.58
1311179.3061409667,-81136.516,-73786.38,-29913.006,-2025.6349,-25208.701,11189.006,16272.421,68473.88
1311179.3101409858,-81118.66,-73785.766,-29911.826,-2027.2218,-25208.213,11190.837,16276.449,68488.69
1311179.3141410048,-81084.8,-73772.055,-29905.479,-2025.6349,-25207.805,11189.169,16278.932,68500.734
1311179.3181410239,-81080.69,-73769.21,-29903.89,-2025.3907,-25213.176,11187.785,16282.228,68503.74
1311179.322141043,-81101.36,-73772.26,-29901.084,-2022.5017,-25206.666,11187.053,16280.478,68490.93
1311179.326141062,-81130.82,-73778.52,-29902.385,-2022.339,-25207.357,11187.012,16284.669,68493.9
1311179.330141081,-81113.61,-73772.95,-29906.82,-2024.5769,-25214.438,11189.372,16292.115,68521.164
1311179.3341411,-81085.57,-73764.77,-29907.797,-2025.5941,-25209.84,11189.291,16292.929,68528.69
1311179.338141119,-81090.78,-73772.3,-29906.78,-2022.2982,-25204.346,11191.244,16291.179,68513.51
1311179.3421411382,-81119.875,-73777.47,-29906.7,-2018.921,-25201.254,11192.505,16291.667,68501.38
1311179.3461411572,-81138.19,-73780.68,-29906.21,-2019.9382,-25206.137,11193.889,16292.277,68497.84
1311179.3501411763,-81118.0,-73789.43,-29904.46,-2023.9666,-25208.252,11194.946,16291.871,68506.266
1311179.3541411953,-81088.016,-73780.07,-29901.49,-2025.8383,-25215.21,11194.702,16291.017,68516.28
1311179.3581412144,-81076.09,-73768.35,-29901.367,-2022.6238,-25209.678,11191.284,16286.988,68513.15
1311179.3621412334,-81109.54,-73774.25,-29906.291,-2020.5079,-25204.957,11189.372,16283.814,68493.49
1311179.3661412525,-81137.05,-73773.69,-29909.912,-2019.8976,-25195.842,11191.732,16287.313,68490.12
1311179.3701412715,-81118.86,-73764.9,-29908.123,-2022.6644,-25200.033,11194.499,16292.155,68506.59
1311179.3741412906,-81098.06,-73764.69,-29906.902,-2025.4314,-25207.316,11197.021,16293.051,68515.38
1311179.3781413096,-81098.555,-73767.87,-29905.07,-2024.5769,-25205.201,11196.899,16289.714,68509.52
1311179.3821413286,-81115.89,-73770.23,-29904.217,-2019.6127,-25191.326,11193.4,16279.094,68484.46
1311179.3861413477,-81137.05,-73782.06,-29908.447,-2021.5251,-25211.102,11191.8545,16279.216,68473.88
1311179.3901413667,-81111.49,-73769.414,-29906.82,-2021.281,-25213.299,11192.383,16284.465,68495.0
1311179.3941413858,-81076.91,-73762.21,-29905.518,-2021.6066,-25212.852,11191.732,16284.303,68504.805
1311179.3981414048,-81070.6,-73759.93,-29902.629,-2019.8568,-25211.875,11188.518,16277.792,68493.695
1311179.402141424,-81100.1,-73775.19,-29905.273,-2020.8334,-25211.63,11189.535,16277.223,68475.47
1311179.406141443,-81123.45,-73783.0,-29907.227,-2021.0369,-25209.148,11191.447,16279.257,68473.96
1311179.410141462,-81095.13,-73777.836,-29905.479,-2023.3562,-25213.096,11193.686,16282.756,68493.2
1311179.414141481,-81066.77,-73769.734,-29903.076,-2024.7804,-25220.459,11195.272,16284.994,68507.695
1311179.4181415,-81070.56,-73774.984,-29903.605,-2024.6176,-25220.908,11194.174,16285.6455,68507.164
1311179.4221415191,-81099.61,-73781.54,-29904.541,-2019.7755,-25209.393,11192.546,16284.506,68498.05
1311179.4261415382,-81122.805,-73790.24,-29908.326,-2018.4734,-25202.598,11193.278,16287.069,68494.06
1311179.4301415572,-81105.06,-73788.086,-29904.297,-2020.8741,-25213.502,11197.958,16297.038,68517.78
1311179.4341415763,-81075.24,-73780.56,-29901.287,-2023.0714,-25215.049,11196.045,16294.963,68529.83
1311179.4381415953,-81075.52,-73784.34,-29902.629,-2023.1527,-25212.078,11194.54,16286.459,68513.51
1311179.4421416144,-81103.97,-73790.24,-29905.234,-2021.3624,-25213.623,11193.278,16281.373,68493.49
1311179.4461416334,-81125.57,-73794.31,-29908.896,-2019.8976,-25204.307,11193.156,16280.803,68492.19
1311179.4501416525,-81108.28,-73790.94,-29909.344,-2022.99,-25205.566,11196.005,16288.615,68509.89
1311179.4541416715,-81076.22,-73775.19,-29899.537,-2023.1527,-25226.727,11198.364,16293.092,68522.09
1311179.4581416906,-81080.61,-73776.82,-29899.455,-2021.4845,-25220.826,11195.395,16284.994,68510.5
1311179.4621417096,-81120.77,-73791.34,-29905.396,-2019.9789,-25217.734,11192.546,16273.683,68483.32
1311179.4661417287,-81140.79,-73798.055,-29905.762,-2017.2933,-25213.46,11190.959,16271.281,68479.414
1311179.4701417477,-81110.48,-73787.36,-29902.793,-2019.3685,-25210.205,11189.494,16274.781,68490.97
1311179.4741417668,-81086.59,-73781.29,-29900.229,-2020.3044,-25214.723,11191.895,16277.914,68502.36
1311179.4781417858,-81083.3,-73775.07,-29899.09,-2016.4388,-25208.578,11191.366,16275.27,68498.05
1311179.4821418049,-81114.586,-73782.8,-29901.896,-2015.0148,-25204.916,11192.587,16279.338,68485.39
1311179.486141824,-81137.86,-73789.555,-29905.234,-2016.4796,-25211.71,11194.336,16280.844,68481.445
1311179.490141843,-81110.07,-73784.22,-29901.572,-2016.683,-25213.584,11194.011,16283.041,68495.12
1311179.494141862,-81096.805,-73786.7,-29899.902,-2017.9851,-25210.125,11195.231,16287.395,68504.4
1311179.498141881,-81095.664,-73783.61,-29899.62,-2017.4968,-25211.264,11194.824,16287.965,68503.09
1311179.5021419001,-81121.5,-73786.38,-29902.996,-2014.7299,-25208.62,11192.058,16287.272,68489.664
1311179.5061419192,-81137.62,-73788.01,-29903.402,-2011.0677,-25197.592,11188.681,16282.919,68483.195
1311179.5101419382,-81098.59,-73777.63,-29896.77,-2011.5968,-25205.771,11192.79,16287.639,68502.85
1311179.5141419573,-81064.54,-73768.19,-29897.746,-2013.9974,-25202.842,11196.289,16291.301,68512.82
1311179.5181419763,-81066.81,-73776.125,-29899.578,-2016.2761,-25204.63,11199.138,16295.98,68514.65
1311179.5221419954,-81084.72,-73775.07,-29894.613,-2010.9457,-25193.686,11197.144,16293.905,68504.36
1311179.5261420144,-81099.57,-73783.57,-29896.934,-2010.8644,-25197.104,11193.808,16286.052,68490.234
1311179.5301420335,-81079.305,-73781.82,-29898.926,-2013.7533,-25206.543,11196.086,16291.708,68508.67
1311179.5341420525,-81063.6,-73772.42,-29898.031,-2014.4044,-25203.695,11194.174,16289.226,68520.47
1311179.5381420716,-81077.76,-73775.39,-29900.879,-2014.4451,-25196.574,11193.563,16290.487,68516.64
1311179.5421420906,-81118.49,-73787.72,-29903.85,-2013.2244,-25190.879,11195.517,16294.719,68506.23
1311179.5461421097,-81139.81,-73791.75,-29905.559,-2013.2244,-25201.58,11200.644,16298.991,68507.0
1311179.5501421287,-81117.27,-73794.44,-29905.6,-2018.3513,-25206.748,11204.672,16304.037,68520.914
1311179.5541421478,-81082.52,-73780.11,-29899.984,-2016.8458,-25204.346,11201.742,16297.526,68524.7
1311179.5581421668,-81073.77,-73772.14,-29896.322,-2012.1257,-25199.627,11198.324,16289.063,68510.78
1311179.5621421859,-81103.15,-73779.664,-29902.793,-2009.9285,-25191.488,11195.109,16283.204,68488.734
1311179.566142205,-81123.945,-73785.04,-29905.723,-2012.8175,-25199.586,11196.371,16286.947,68483.03
1311179.570142224,-81094.61,-73773.195,-29901.205,-2011.2712,-25195.395,11195.476,16288.9,68498.25
1311179.574142243,-81071.945,-73764.33,-29894.572,-2010.783,-25202.475,11196.045,16293.051,68514.57
1311179.578142262,-81091.39,-73776.57,-29896.69,-2013.3464,-25200.562,11197.185,16288.453,68506.47
1311179.582142281,-81122.48,-73784.875,-29902.549,-2012.7361,-25202.516,11198.161,16283.407,68488.04
1311179.5861423002,-81137.66,-73785.73,-29903.77,-2010.4574,-25193.115,11197.307,16281.657,68484.83
1311179.5901423192,-81116.3,-73783.41,-29901.043,-2012.614,-25199.139,11196.574,16286.337,68499.59
1311179.5941423383,-81085.45,-73779.18,-29897.299,-2013.4279,-25205.566,11194.336,16288.778,68509.24
1311179.5981423573,-81081.22,-73780.805,-29899.13,-2013.265,-25210.37,11192.993,16286.134,68502.04
1311179.6021423764,-81106.695,-73788.29,-29899.863,-2012.8582,-25204.428,11191.569,16283.61,68485.44
1311179.6061423954,-81133.836,-73798.14,-29903.443,-2013.5092,-25201.05,11190.918,16281.495,68484.01
1311179.6101424145,-81126.836,-73799.4,-29907.309,-2016.1947,-25204.55,11192.139,16284.831,68498.414
1311179.6141424335,-81102.99,-73793.91,-29905.03,-2016.3575,-25210.246,11194.702,16287.802,68508.67
1311179.6181424526,-81091.96,-73782.59,-29898.234,-2011.8816,-25205.852,11194.865,16289.022,68511.64
1311179.6221424716,-81113.57,-73790.94,-29898.438,-2009.1146,-25199.83,11193.767,16290.895,68498.086
1311179.6261424907,-81129.6,-73798.95,-29900.758,-2009.2367,-25200.969,11193.97,16296.55,68500.81
1311179.6301425097,-81099.0,-73787.27,-29897.502,-2011.434,-25203.695,11194.54,16299.439,68521.12
1311179.6341425288,-81076.83,-73783.37,-29897.746,-2014.0382,-25207.887,11194.499,16300.375,68534.79
1311179.6381425478,-81076.336,-73780.4,-29897.746,-2011.7595,-25201.986,11193.075,16292.399,68520.34
1311179.6421425669,-81111.414,-73791.14,-29904.826,-2011.2306,-25195.03,11192.058,16282.716,68494.06
1311179.646142586,-81128.54,-73796.67,-29906.332,-2008.423,-25186.443,11191.569,16279.623,68482.1
1311179.650142605,-81105.02,-73789.59,-29900.596,-2010.1726,-25197.959,11195.109,16286.988,68501.95
1311179.654142624,-81076.336,-73776.66,-29895.63,-2011.556,-25207.48,11198.202,16297.689,68523.73
1311179.658142643,-81079.23,-73782.88,-29900.107,-2012.0443,-25204.143,11199.341,16301.84,68520.914
1311179.662142662,-81119.266,-73806.27,-29907.512,-2012.1664,-25194.58,11197.226,16295.085,68498.78
1311179.6661426811,-81140.305,-73808.07,-29905.03,-2010.0505,-25207.602,11192.668,16282.309,68491.46
1311179.6701427002,-81117.02,-73809.49,-29904.297,-2012.0851,-25210.287,11192.221,16278.81,68496.664
1311179.6741427192,-81092.41,-73810.43,-29904.867,-2015.2589,-25210.816,11193.441,16277.345,68505.984
1311179.6781427383,-81091.15,-73810.1,-29900.879,-2013.1837,-25200.44,11190.918,16273.316,68500.086
1311179.6821427573,-81107.99,-73805.5,-29898.846,-2008.1381,-25196.29,11192.18,16278.972,68490.16
1311179.6861427764,-81120.28,-73800.5,-29898.846,-2006.1849,-25189.576,11195.109,16288.046,68490.64
1311179.6901427954,-81092.49,-73792.93,-29894.98,-2009.4402,-25200.36,11201.132,16302.125,68516.195
1311179.6941428145,-81061.77,-73781.17,-29890.219,-2011.0677,-25203.736,11201.416,16303.224,68530.93
1311179.6981428335,-81067.34,-73786.79,-29891.725,-2010.783,-25203.492,11199.707,16299.276,68521.24
1311179.7021428526,-81117.19,-73805.016,-29898.072,-2009.3181,-25197.918,11197.266,16287.599,68493.49
1311179.7061428716,-81146.94,-73818.36,-29904.338,-2009.3181,-25191.65,11195.517,16281.454,68483.73
1311179.7101428907,-81115.03,-73804.08,-29901.855,-2011.2712,-25205.566,11197.348,16291.749,68510.375
1311179.7141429097,-81081.51,-73789.59,-29901.49,-2010.6609,-25197.186,11198.649,16298.3,68533.086
1311179.7181429288,-81072.67,-73783.086,-29899.74,-2009.6437,-25192.506,11197.185,16295.492,68536.17
1311179.7221429478,-81099.94,-73787.805,-29898.316,-2006.9174,-25190.35,11193.441,16285.808,68522.46
1311179.726142967,-81125.45,-73800.46,-29901.287,-2009.9285,-25197.062,11195.639,16288.087,68517.91
1311179.730142986,-81105.875,-73797.69,-29898.52,-2013.1837,-25204.143,11200.073,16296.998,68539.875
1311179.734143005,-81073.65,-73789.63,-29896.037,-2014.9333,-25210.37,11196.005,16294.719,68544.84
1311179.738143024,-81078.33,-73797.53,-29900.352,-2015.3402,-25209.473,11192.424,16280.763,68521.04
1311179.742143043,-81113.41,-73812.75,-29906.006,-2012.492,-25204.307,11191.122,16269.694,68490.766
1311179.7461430621,-81147.09,-73821.49,-29909.018,-2008.9113,-25197.389,11190.512,16266.969,68477.87
1311179.7501430812,-81121.87,-73810.06,-29904.053,-2009.3181,-25201.986,11193.156,16274.049,68497.84
1311179.7541431002,-81097.54,-73801.44,-29903.729,-2012.2885,-25202.678,11196.045,16278.199,68510.46
1311179.7581431193,-81097.05,-73798.99,-29902.629,-2011.7595,-25198.406,11193.848,16272.746,68498.66
1311179.7621431383,-81126.95,-73809.086,-29906.943,-2012.2885,-25198.406,11192.953,16264.934,68469.73
1311179.7661431574,-81144.695,-73809.25,-29908.773,-2012.8988,-25205.16,11190.593,16258.342,68460.21
1311179.7701431764,-81119.47,-73801.35,-29905.07,-2013.9974,-25212.89,11190.796,16257.609,68472.21
1311179.7741431955,-81086.96,-73790.49,-29897.746,-2011.963,-25210.002,11189.169,16257.203,68481.81
1311179.7781432145,-81085.37,-73787.68,-29893.84,-2008.1381,-25208.62,11188.965,16260.295,68484.83
1311179.7821432336,-81126.55,-73801.03,-29898.967,-2006.4698,-25203.29,11188.803,16259.767,68473.43
1311179.7861432526,-81146.2,-73805.5,-29901.123,-2004.6388,-25199.627,11189.535,16262.98,68470.79
1311179.7901432717,-81123.62,-73802.05,-29903.932,-2007.4056,-25202.637,11192.099,16270.387,68490.32
1311179.7941432907,-81092.2,-73792.6,-29903.037,-2008.545,-25207.357,11191.325,16268.962,68506.875
1311179.7981433098,-81085.49,-73788.21,-29903.809,-2007.6091,-25202.76,11189.738,16263.957,68500.41
1311179.8021433288,-81106.08,-73787.07,-29903.525,-2004.8015,-25197.754,11189.047,16263.795,68491.01
1311179.8061433479,-81126.38,-73792.52,-29903.605,-2003.8656,-25197.266,11188.762,16266.928,68490.03
1311179.810143367,-81102.625,-73784.1,-29900.146,-2005.1677,-25196.086,11187.053,16265.788,68503.42
1311179.814143386,-81080.77,-73779.664,-29893.027,-2005.7781,-25207.113,11188.599,16266.439,68516.6
1311179.818143405,-81074.016,-73768.59,-29887.492,-2001.9939,-25208.822,11186.401,16264.649,68512.414
1311179.822143424,-81101.12,-73776.125,-29893.84,-2000.2849,-25195.11,11185.385,16259.889,68488.12
1311179.8261434431,-81118.53,-73776.49,-29896.281,-1999.5525,-25191.895,11188.273,16261.3125,68484.58
1311179.8301434622,-81093.836,-73763.555,-29895.184,-2002.0345,-25200.115,11190.756,16268.434,68503.91
1311179.8341434812,-81060.18,-73754.11,-29892.13,-2002.1974,-25198.04,11192.668,16273.316,68515.22
1311179.8381435003,-81057.01,-73754.766,-29889.242,-2000.7325,-25201.701,11191.61,16271.078,68505.78
1311179.8421435193,-81090.66,-73767.58,-29894.736,-1999.6746,-25206.299,11188.11,16258.098,68475.305
1311179.8461435384,-81115.766,-73772.87,-29898.154,-2000.0,-25200.645,11186.442,16247.315,68455.164
1311179.8501435574,-81091.84,-73767.26,-29895.428,-2001.9939,-25204.55,11190.227,16251.222,68464.4
1311179.8541435765,-81067.18,-73766.195,-29891.236,-2001.6683,-25201.498,11191.772,16253.093,68477.5
1311179.8581435955,-81068.16,-73765.22,-29889.324,-1998.0469,-25197.266,11191.447,16251.303,68475.42
1311179.8621436146,-81093.75,-73768.07,-29890.098,-1995.5648,-25192.506,11191.0,16249.309,68462.73
1311179.8661436336,-81104.62,-73771.12,-29893.434,-1996.0938,-25195.557,11192.465,16256.227,68463.42
1311179.8701436527,-81075.08,-73766.89,-29895.508,-1999.1863,-25196.494,11192.587,16266.725,68492.59
1311179.8741436717,-81045.29,-73755.984,-29891.398,-1999.349,-25195.8,11193.197,16268.352,68508.42
1311179.8781436908,-81051.516,-73760.78,-29892.01,-2001.18,-25199.504,11195.068,16266.847,68505.414
1311179.8821437098,-81080.2,-73763.96,-29894.004,-1998.8607,-25194.744,11196.208,16266.969,68494.305
1311179.8861437289,-81098.59,-73763.02,-29894.654,-1996.5414,-25191.732,11194.987,16267.213,68491.91
1311179.890143748,-81076.055,-73752.36,-29892.863,-1997.518,-25196.33,11195.801,16273.479,68506.96
1311179.894143767,-81051.48,-73751.586,-29890.992,-1999.349,-25199.463,11195.679,16276.979,68518.39
1311179.898143786,-81054.98,-73759.65,-29891.684,-1999.8373,-25202.312,11194.377,16274.13,68512.29
1311179.902143805,-81088.016,-73777.63,-29902.629,-2000.529,-25201.498,11194.052,16271.159,68494.914
1311179.906143824,-81113.33,-73779.18,-29905.64,-1999.3896,-25199.26,11195.964,16274.577,68491.664
1311179.9101438432,-81085.57,-73770.305,-29900.432,-1999.7966,-25199.057,11196.33,16277.629,68510.87
1311179.9141438622,-81057.91,-73761.11,-29895.916,-2001.7904,-25202.148,11197.144,16277.711,68519.86
1311179.9181438813,-81057.09,-73755.54,-29894.37,-1999.3896,-25196.209,11195.435,16271.525,68510.22
1311179.9221439003,-81076.5,-73761.64,-29893.271,-1998.0469,-25202.637,11195.72,16266.603,68492.96
1311179.9261439194,-81095.42,-73767.5,-29895.63,-1999.8779,-25204.225,11194.296,16264.283,68480.8
1311179.9301439384,-81076.54,-73762.375,-29896.12,-2003.6215,-25210.246,11194.824,16264.161,68493.0
1311179.9341439574,-81056.766,-73763.1,-29897.299,-2005.0863,-25212.77,11195.068,16260.824,68495.85
1311179.9381439765,-81065.516,-73768.27,-29898.357,-2002.4415,-25208.496,11194.255,16255.168,68483.195
1311179.9421439955,-81091.48,-73774.25,-29897.46,-1998.5759,-25198.203,11191.813,16243.205,68462.08
1311179.9461440146,-81111.984,-73780.68,-29899.658,-1997.3552,-25198.73,11193.767,16244.467,68455.2
1311179.9501440336,-81085.37,-73772.914,-29898.234,-2000.8546,-25203.898,11192.302,16246.867,68472.336
1311179.9541440527,-81053.76,-73757.734,-29898.113,-2001.9125,-25206.178,11193.237,16253.581,68489.51
1311179.9581440717,-81062.7,-73761.88,-29898.398,-2002.238,-25207.602,11193.97,16256.918,68492.59
1311179.9621440908,-81091.516,-73771.12,-29900.39,-2000.3663,-25202.312,11190.674,16249.513,68477.375
1311179.9661441098,-81122.805,-73786.586,-29903.85,-1999.349,-25204.63,11190.268,16249.635,68473.72
1311179.970144129,-81097.49,-73777.914,-29897.787,-1997.8435,-25201.865,11193.604,16258.383,68502.73
1311179.974144148,-81070.44,-73767.58,-29897.705,-1998.8607,-25199.057,11194.946,16262.94,68518.39
1311179.978144167,-81065.836,-73761.15,-29894.816,-1997.64,-25200.645,11195.761,16265.544,68518.11
1311179.982144186,-81086.14,-73765.055,-29895.834,-1996.0938,-25197.795,11198.202,16267.945,68509.16
1311179.986144205,-81097.17,-73766.234,-29897.299,-1994.8324,-25193.93,11199.382,16270.549,68511.35
1311179.9901442241,-81066.24,-73758.18,-29894.898,-1997.2332,-25196.412,11200.277,16278.036,68533.45
1311179.9941442432,-81042.93,-73753.625,-29893.19,-1998.3318,-25194.744,11200.399,16278.932,68547.04
1311179.9981442622,-81046.59,-73756.875,-29894.572,-1997.1517,-25201.05,11201.538,16277.995,68542.08
1311180.0021442813,-81093.75,-73768.03,-29900.146,-1996.2972,-25197.47,11202.067,16272.665,68519.37
1311180.0061443003,-81110.48,-73768.44,-29902.996,-1996.0531,-25197.592,11200.358,16268.474,68509.12
1311180.0101443194,-81081.55,-73760.5,-29896.281,-1996.3379,-25194.174,11202.026,16270.305,68523.73
1311180.0141443384,-81064.05,-73752.61,-29889.771,-1995.3207,-25195.518,11204.712,16274.943,68535.73
1311180.0181443575,-81064.58,-73751.1,-29885.498,-1993.0013,-25198.242,11206.177,16274.537,68531.86
1311180.0221443765,-81090.82,-73765.055,-29890.79,-1992.4724,-25193.156,11205.404,16270.997,68512.945
1311180.0261443956,-81115.89,-73777.75,-29898.764,-1993.571,-25195.68,11204.794,16264.567,68498.91
1311180.0301444146,-81090.45,-73766.52,-29896.525,-1993.7744,-25197.754,11204.184,16263.998,68510.26
1311180.0341444337,-81058.35,-73757.29,-29893.88,-1993.571,-25199.18,11204.184,16262.045,68519.01
1311180.0381444527,-81055.95,-73761.44,-29894.94,-1994.7917,-25203.695,11201.01,16254.924,68504.36
1311180.0421444718,-81086.19,-73772.55,-29901.123,-1994.5883,-25201.092,11199.097,16245.484,68482.83
1311180.0461444908,-81093.8,-73773.56,-29903.646,-1994.9545,-25201.621,11199.341,16244.752,68479.29
1311180.0501445099,-81063.195,-73760.17,-29899.455,-1995.4021,-25201.986,11200.725,16248.82,68497.52
1311180.054144529,-81050.09,-73754.27,-29895.834,-1995.9717,-25207.195,11199.057,16251.262,68510.26
1311180.058144548,-81066.81,-73767.58,-29898.967,-1997.5994,-25206.34,11198.568,16250.285,68507.29
1311180.062144567,-81099.0,-73777.55,-29904.826,-1997.8435,-25205.648,11199.301,16252.971,68504.234
1311180.066144586,-81117.64,-73781.66,-29909.018,-1996.0938,-25205.201,11200.521,16257.406,68508.875
1311180.0701446054,-81089.36,-73773.64,-29905.682,-1998.2504,-25208.945,11202.556,16263.429,68532.68
1311180.0741446244,-81062.055,-73776.0,-29909.629,-2003.2146,-25219.688,11204.387,16270.509,68549.56
1311180.0781446435,-81059.82,-73771.32,-29908.123,-2002.5228,-25218.629,11202.067,16270.671,68543.74
1311180.0821446625,-81089.93,-73776.086,-29912.11,-1999.7559,-25207.031,11200.521,16267.416,68526.45
1311180.0861446816,-81120.69,-73788.336,-29917.562,-1999.8373,-25206.016,11202.026,16266.358,68519.53
1311180.0901447006,-81102.42,-73781.7,-29912.354,-1999.349,-25203.94,11201.416,16266.398,68534.51
1311180.0941447197,-81071.74,-73765.586,-29902.752,-1998.1283,-25209.434,11199.667,16268.2295,68550.21
1311180.0981447387,-81074.99,-73768.84,-29903.037,-1998.4131,-25209.434,11200.562,16262.818,68539.35
1311180.1021447578,-81108.69,-73781.25,-29909.14,-1996.4193,-25201.824,11198.283,16252.727,68512.25
1311180.1061447768,-81129.56,-73779.13,-29910.156,-1995.6869,-25205.527,11197.754,16253.012,68502.41
1311180.1101447958,-81114.34,-73772.016,-29911.826,-1998.4539,-25208.781,11196.899,16253.581,68507.81
1311180.114144815,-81086.63,-73766.766,-29910.93,-2000.6511,-25213.99,11196.574,16251.466,68512.62
1311180.118144834,-81082.64,-73770.836,-29912.11,-2000.3663,-25216.146,11194.824,16244.06,68504.27
1311180.122144853,-81110.88,-73776.9,-29911.338,-1998.291,-25213.258,11193.4,16236.817,68481.41
1311180.126144872,-81117.31,-73776.9,-29909.424,-1996.0531,-25212.037,11194.418,16237.306,68476.69
1311180.130144891,-81097.86,-73772.016,-29903.973,-1994.0186,-25207.357,11195.842,16237.509,68490.12
1311180.1341449101,-81074.055,-73770.51,-29902.1,-1995.3613,-25213.055,11198.364,16241.903,68499.88
1311180.1381449292,-81077.76,-73777.34,-29904.746,-1995.158,-25210.938,11197.388,16235.393,68486.45
1311180.1421449482,-81107.67,-73784.79,-29914.023,-1996.5414,-25210.166,11196.737,16231.405,68469.0
1311180.1461449673,-81124.43,-73790.445,-29915.812,-1996.9076,-25211.467,11198.446,16235.597,68464.68
1311180.1501449863,-81094.04,-73779.87,-29906.658,-1997.3552,-25215.617,11198.202,16238.974,68482.79
1311180.1541450054,-81060.06,-73764.41,-29901.367,-1997.0297,-25223.512,11199.789,16246.664,68504.72
1311180.1581450244,-81061.28,-73761.234,-29898.967,-1993.2861,-25215.617,11196.452,16245.077,68506.31
1311180.1621450435,-81080.69,-73767.91,-29899.781,-1989.1765,-25210.613,11195.801,16245.402,68497.11
1311180.1661450625,-81101.32,-73773.52,-29904.664,-1990.6006,-25211.71,11196.899,16251.384,68504.766
1311180.1701450816,-81092.05,-73773.03,-29906.7,-1995.1986,-25211.549,11199.26,16258.383,68531.17
1311180.1741451006,-81066.86,-73767.984,-29905.723,-1996.7449,-25208.781,11199.789,16261.842,68550.54
1311180.1781451197,-81055.75,-73762.695,-29903.729,-1993.6931,-25205.607,11202.108,16264.812,68547.61
1311180.1821451387,-81074.55,-73763.1,-29904.379,-1991.333,-25209.393,11199.667,16260.295,68529.83
1311180.1861451578,-81084.96,-73769.86,-29907.756,-1993.1641,-25209.31,11199.382,16258.708,68522.46
1311180.1901451768,-81058.92,-73769.695,-29903.688,-1994.9951,-25210.734,11198.039,16260.987,68535.93
1311180.194145196,-81040.086,-73763.836,-29902.1,-1995.6055,-25215.658,11197.754,16265.951,68548.75
1311180.198145215,-81057.5,-73771.98,-29904.217,-1994.1,-25212.363,11198.608,16264.445,68537.36
1311180.202145234,-81096.805,-73786.3,-29911.744,-1993.2455,-25203.857,11197.673,16253.459,68514.9
1311180.206145253,-81111.695,-73790.0,-29913.9,-1994.7103,-25212.973,11198.324,16249.269,68509.766
1311180.210145272,-81083.13,-73779.75,-29908.408,-1995.8904,-25220.908,11198.446,16246.339,68515.305
1311180.2141452911,-81058.07,-73773.44,-29908.123,-1997.3552,-25217.164,11198.161,16244.223,68519.57
1311180.2181453102,-81056.48,-73771.734,-29906.78,-1995.8496,-25218.14,11196.533,16244.101,68514.0
1311180.2221453292,-81090.13,-73780.48,-29910.523,-1994.0186,-25211.834,11195.761,16241.09,68493.414
1311180.2261453483,-81112.35,-73788.01,-29914.023,-1993.9373,-25210.979,11194.865,16239.706,68488.89
1311180.2301453673,-81087.37,-73784.016,-29910.32,-1994.9138,-25217.734,11194.174,16238.933,68501.55
1311180.2341453864,-81063.07,-73774.5,-29906.373,-1995.0765,-25218.426,11195.476,16236.695,68502.41
1311180.2381454054,-81066.04,-73775.39,-29908.773,-1997.0703,-25220.703,11196.696,16234.172,68495.24
1311180.2421454245,-81099.086,-73791.016,-29915.121,-1998.5352,-25213.584,11197.47,16231.69,68482.1
1311180.2461454435,-81106.81,-73789.63,-29914.715,-1997.3552,-25217.164,11198.405,16235.922,68485.31
1311180.2501454626,-81094.65,-73790.77,-29916.016,-1997.518,-25213.176,11199.911,16244.426,68507.445
1311180.2541454816,-81081.87,-73793.945,-29915.812,-1998.4539,-25215.496,11201.213,16255.209,68525.15
1311180.2581455007,-81086.47,-73791.38,-29914.47,-1995.3207,-25213.34,11200.684,16259.97,68529.055
1311180.2621455197,-81118.98,-73804.0,-29916.748,-1994.1,-25214.275,11202.922,16263.795,68519.37
1311180.2661455388,-81135.09,-73804.08,-29912.803,-1993.7744,-25217.408,11202.148,16262.167,68519.86
1311180.2701455578,-81106.04,-73796.02,-29910.32,-1997.1924,-25223.959,11203.491,16267.863,68539.8
1311180.2741455769,-81060.266,-73775.39,-29906.291,-1996.3787,-25218.873,11199.707,16268.556,68551.8
1311180.278145596,-81052.53,-73769.49,-29908.041,-1993.7744,-25210.287,11197.917,16264.161,68544.03
1311180.282145615,-81100.42,-73783.086,-29918.498,-1994.0593,-25212.078,11198.771,16260.336,68523.32
1311180.286145634,-81140.914,-73798.79,-29923.748,-1994.7917,-25214.6,11198.202,16253.907,68508.875
1311180.290145653,-81123.66,-73799.16,-29920.492,-1996.989,-25218.385,11196.818,16252.157,68518.64
1311180.2941456721,-81093.23,-73788.86,-29910.238,-1997.0297,-25220.256,11195.3125,16254.273,68531.414
1311180.2981456912,-81092.49,-73790.33,-29909.994,-1995.6869,-25224.082,11196.127,16253.297,68525.64
1311180.3021457102,-81107.51,-73793.625,-29912.395,-1993.4082,-25223.145,11197.104,16247.682,68510.26
1311180.3061457293,-81112.836,-73799.32,-29921.225,-1993.571,-25216.676,11200.195,16247.478,68500.25
1311180.3101457483,-81079.06,-73787.4,-29921.266,-1994.9138,-25217.734,11202.2705,16250.326,68502.2
1311180.3141457674,-81045.78,-73786.87,-29920.29,-1996.2158,-25216.514,11200.155,16250.855,68507.0
1311180.3181457864,-81053.1,-73788.74,-29919.19,-1995.809,-25218.955,11199.667,16254.518,68510.17
1311180.3221458055,-81087.484,-73795.375,-29918.336,-1992.6758,-25212.158,11197.144,16251.344,68496.83
1311180.3261458245,-81101.08,-73801.44,-29914.307,-1991.0482,-25214.926,11196.696,16247.885,68493.414
1311180.3301458436,-81073.61,-73788.945,-29907.064,-1991.9841,-25219.768,11196.411,16246.461,68505.49
1311180.3341458626,-81058.15,-73786.13,-29907.879,-1993.0828,-25219.688,11197.551,16244.142,68507.85
1311180.3381458817,-81054.77,-73778.484,-29909.547,-1992.1062,-25217.367,11196.127,16238.648,68498.375
1311180.3421459007,-81083.62,-73785.81,-29918.457,-1992.4724,-25212.402,11194.784,16234.091,68481.85
1311180.3461459198,-81119.59,-73793.3,-29926.025,-1994.1406,-25206.543,11196.452,16239.503,68485.516
1311180.3501459388,-81100.1,-73778.77,-29920.533,-1994.751,-25209.637,11197.0625,16249.838,68514.65
1311180.3541459579,-81073.77,-73772.95,-29914.307,-1995.5242,-25215.617,11199.26,16257.569,68529.75
1311180.358145977,-81074.51,-73773.48,-29910.97,-1992.5537,-25208.375,11198.283,16257.121,68524.21
1311180.362145996,-81108.766,-73785.97,-29918.54,-1995.1986,-25211.467,11198.894,16251.954,68506.8
1311180.366146015,-81123.7,-73788.336,-29917.725,-1994.6289,-25215.414,11200.114,16251.954,68511.84
1311180.370146034,-81090.336,-73779.95,-29915.854,-1993.7744,-25215.7,11202.026,16257.976,68534.1
1311180.374146053,-81070.6,-73779.13,-29914.715,-1996.4193,-25219.443,11204.631,16264.201,68547.41
1311180.3781460722,-81077.76,-73787.766,-29916.139,-1998.3724,-25217.652,11203.613,16259.481,68535.89
1311180.3821460912,-81110.516,-73800.945,-29922.527,-2000.0408,-25221.111,11202.434,16253.175,68515.18
1311180.3861461102,-81122.6,-73803.266,-29923.016,-1998.6166,-25224.936,11200.928,16248.17,68503.46
1311180.3901461293,-81101.445,-73796.02,-29919.598,-1999.6338,-25227.418,11201.416,16250.937,68516.36
1311180.3941461483,-81081.99,-73789.02,-29917.969,-2000.407,-25220.908,11201.742,16252.89,68524.664
1311180.3981461674,-81087.61,-73780.234,-29916.26,-1998.0469,-25219.32,11202.312,16253.093,68520.23
1311180.4021461864,-81124.35,-73787.92,-29920.248,-1996.8262,-25218.832,11201.213,16250.529,68500.61
1311180.4061462055,-81145.59,-73803.47,-29924.033,-1996.46,-25216.758,11201.457,16248.902,68492.31
1311180.4101462245,-81116.01,-73794.44,-29919.8,-1997.64,-25221.273,11199.585,16253.988,68512.734
1311180.4141462436,-81083.3,-73787.195,-29920.127,-1997.64,-25225.709,11198.039,16256.471,68527.67
1311180.4181462626,-81083.26,-73784.22,-29921.957,-1997.6807,-25222.453,11197.673,16253.825,68523.195
1311180.4221462817,-81117.64,-73794.03,-29932.008,-2000.7732,-25218.344,11197.104,16246.298,68498.984
1311180.4261463007,-81143.68,-73806.234,-29939.861,-2003.6215,-25222.617,11196.777,16246.664,68486.25
1311180.4301463198,-81109.42,-73793.055,-29929.688,-1999.349,-25223.797,11195.598,16247.315,68497.56
1311180.4341463388,-81079.555,-73783.57,-29922.242,-1998.698,-25231.445,11197.998,16246.786,68506.06
1311180.438146358,-81077.4,-73790.37,-29920.736,-1999.3896,-25232.91,11196.493,16238.078,68491.7
1311180.442146377,-81117.59,-73806.89,-29926.637,-1998.2504,-25230.55,11194.662,16231.12,68474.2
1311180.446146396,-81132.24,-73807.5,-29926.799,-1996.0531,-25230.389,11193.237,16239.787,68488.0
1311180.450146415,-81101.85,-73798.305,-29924.969,-1997.4365,-25227.418,11192.465,16251.466,68525.15
1311180.454146434,-81066.33,-73786.79,-29922.242,-1998.4539,-25221.803,11193.686,16256.999,68544.555
1311180.4581464531,-81061.41,-73784.63,-29924.969,-1998.2504,-25226.28,11194.743,16255.656,68533.9
1311180.4621464722,-81100.67,-73799.52,-29932.861,-1998.3724,-25224.488,11192.017,16250.245,68514.94
1311180.4661464912,-81126.75,-73810.47,-29934.938,-1999.7559,-25223.838,11189.616,16246.135,68504.11
1311180.4701465103,-81099.9,-73799.93,-29927.41,-1999.6338,-25228.557,11193.726,16252.36,68521.04
1311180.4741465293,-81074.55,-73800.58,-29922.852,-2001.7091,-25227.783,11196.208,16254.436,68533.125
1311180.4781465484,-81079.19,-73801.516,-29925.172,-2003.7843,-25235.107,11197.185,16253.988,68528.85
1311180.4821465674,-81103.766,-73803.43,-29928.508,-2000.4476,-25232.098,11195.72,16255.738,68517.54
1311180.4861465865,-81125.49,-73802.66,-29930.664,-1998.2504,-25218.547,11196.33,16258.586,68518.72
1311180.4901466055,-81109.26,-73798.1,-29928.71,-1999.3896,-25221.396,11195.517,16256.308,68530.93
1311180.4941466246,-81090.336,-73798.625,-29926.758,-2001.8718,-25225.098,11193.197,16250.082,68533.37
1311180.4981466436,-81094.24,-73798.26,-29926.963,-2001.6277,-25224.773,11192.099,16245.646,68527.55
1311180.5021466627,-81120.77,-73804.52,-29926.88,-1999.7966,-25224.773,11193.441,16243.856,68511.68
1311180.5061466817,-81123.62,-73803.266,-29922.852,-1998.6166,-25225.627,11194.499,16243.449,68508.75
1311180.5101467008,-81098.266,-73796.15,-29918.377,-2000.2849,-25229.248,11195.028,16243.449,68514.98
1311180.5141467198,-81074.1,-73789.02,-29917.441,-2002.9298,-25234.457,11196.533,16244.508,68520.76
1311180.5181467389,-81082.484,-73794.48,-29920.86,-2001.3835,-25226.074,11195.598,16238.933,68507.086
1311180.522146758,-81122.44,-73808.23,-29930.258,-1998.698,-25224.365,11194.499,16231.8125,68483.234
1311180.526146777,-81153.484,-73827.68,-29941.082,-2001.5056,-25222.617,11191.8545,16224.895,68472.414
1311180.530146796,-81124.23,-73823.24,-29937.826,-2003.5402,-25227.865,11190.512,16224.366,68489.75
1311180.534146815,-81100.71,-73814.58,-29932.334,-2004.0691,-25229.045,11191.122,16228.923,68507.0
1311180.5381468341,-81100.51,-73814.45,-29932.496,-2001.3021,-25220.988,11191.936,16231.12,68503.83
1311180.5421468532,-81117.02,-73815.68,-29930.705,-1999.349,-25221.191,11193.808,16235.922,68502.445
1311180.5461468722,-81129.93,-73811.484,-29927.125,-1997.1924,-25219.28,11193.237,16241.822,68511.07
1311180.5501468913,-81112.51,-73803.67,-29925.822,-1997.7621,-25219.076,11196.859,16253.012,68535.08
1311180.5541469103,-81105.92,-73812.38,-29928.955,-2000.6511,-25224.977,11199.789,16259.196,68547.164
1311180.5581469294,-81115.73,-73831.95,-29934.408,-2005.4119,-25238.893,11196.167,16249.96,68534.1
1311180.5621469484,-81147.3,-73847.91,-29940.35,-2005.2898,-25234.742,11191.936,16238.526,68512.45
1311180.5661469675,-81151.98,-73841.59,-29936.117,-2001.4242,-25231.854,11190.959,16239.991,68515.14
1311180.5701469865,-81112.51,-73824.71,-29926.799,-2000.407,-25232.219,11194.011,16249.635,68538.58
1311180.5741470056,-81082.6,-73813.93,-29925.09,-2001.587,-25229.98,11196.452,16255.616,68551.64
1311180.5781470246,-81087.2,-73815.68,-29928.834,-2000.0814,-25226.889,11195.109,16252.687,68542.195
1311180.5821470437,-81126.55,-73826.375,-29935.467,-2000.4884,-25222.576,11191.203,16245.036,68520.875
1311180.5861470627,-81144.164,-73834.07,-29937.664,-2002.116,-25228.271,11191.528,16242.799,68515.79
1311180.5901470818,-81117.234,-73830.41,-29934.246,-2005.2491,-25237.305,11194.214,16242.311,68526.66
1311180.5941471008,-81084.92,-73814.25,-29928.63,-2004.3539,-25239.625,11193.4,16239.381,68526.94
1311180.5981471199,-81088.83,-73816.0,-29927.41,-2002.6449,-25234.863,11194.621,16237.956,68517.58
1311180.602147139,-81113.33,-73817.51,-29927.94,-1998.7386,-25231.61,11196.655,16241.659,68505.17
1311180.606147158,-81138.76,-73823.94,-29934.734,-2000.1222,-25223.918,11196.045,16239.259,68495.04
1311180.610147177,-81137.33,-73830.28,-29939.047,-2004.7609,-25238.242,11196.005,16239.218,68500.734
1311180.614147196,-81113.24,-73822.67,-29936.076,-2004.2318,-25237.998,11193.319,16234.782,68504.766
1311180.618147215,-81111.984,-73824.55,-29936.076,-2004.3947,-25239.34,11192.912,16230.388,68493.9
1311180.6221472342,-81134.445,-73826.78,-29936.28,-2003.2146,-25235.88,11192.343,16227.865,68481.28
1311180.6261472532,-81146.28,-73833.17,-29936.85,-2005.8595,-25236.29,11194.418,16231.12,68482.625
1311180.6301472723,-81113.28,-73822.72,-29932.781,-2005.5339,-25239.219,11197.958,16239.34,68505.49
1311180.6341472913,-81088.625,-73809.53,-29929.078,-2004.8422,-25237.672,11197.754,16240.724,68516.69
1311180.6381473104,-81103.07,-73813.84,-29935.303,-2005.2084,-25235.312,11195.639,16237.224,68510.09
1311180.6421473294,-81146.37,-73832.44,-29942.668,-2004.3539,-25231.65,11193.889,16232.992,68492.11
1311180.6461473485,-81166.625,-73844.04,-29941.814,-2004.2318,-25237.184,11194.784,16235.026,68499.11
