timestamp,Fp1,Fp2,F3,Fz,F4,Cz,Pz,Oz
1311497.5396565825,-91393.516,-81702.44,-34101.81,4970.459,-33538.82,13975.383,8273.315,73203.164
1311497.5436566016,-91390.47,-81707.64,-34103.477,4962.606,-33560.426,13977.499,8274.862,73229.414
1311497.5476566206,-91359.984,-81700.73,-34112.223,4955.4854,-33571.004,13978.964,8276.855,73272.586
1311497.5516566397,-91343.43,-81693.93,-34109.05,4953.0845,-33574.26,13979.411,8279.094,73290.57
1311497.5556566587,-91362.555,-81700.08,-34105.105,4960.0425,-33559.41,13977.743,8273.642,73249.35
1311497.5596566778,-91383.305,-81707.4,-34103.92,4968.1807,-33549.074,13973.511,8265.463,73206.42
1311497.5636566968,-91380.78,-81712.73,-34103.56,4965.6577,-33558.51,13975.342,8267.66,73228.516
1311497.5676567159,-91357.51,-81698.695,-34110.68,4959.758,-33565.227,13976.156,8275.473,73270.19
1311497.571656735,-91339.766,-81694.945,-34110.637,4956.909,-33572.67,13977.011,8280.6,73282.516
1311497.575656754,-91357.914,-81702.64,-34104.9,4962.1177,-33562.46,13973.511,8272.665,73237.23
1311497.579656773,-91386.35,-81708.09,-34101.035,4968.3027,-33556.97,13971.273,8266.887,73199.34
1311497.583656792,-91388.1,-81716.31,-34109.254,4962.6875,-33569.094,13971.3545,8270.102,73225.305
1311497.587656811,-91376.51,-81722.01,-34112.918,4956.462,-33576.215,13976.196,8278.972,73264.33
1311497.5916568302,-91363.2,-81719.85,-34112.71,4955.8105,-33575.93,13976.115,8279.216,73286.91
1311497.5956568492,-91374.555,-81717.05,-34110.15,4960.775,-33563.355,13968.872,8263.469,73245.57
1311497.5996568683,-91394.695,-81715.17,-34098.676,4966.675,-33557.66,13968.547,8265.503,73201.87
1311497.6036568873,-91388.35,-81709.31,-34107.547,4962.3213,-33558.066,13970.622,8272.014,73225.625
1311497.6076569064,-91365.44,-81703.375,-34111.86,4955.8516,-33576.133,13973.1045,8274.984,73262.695
1311497.6116569254,-91355.02,-81707.234,-34112.996,4956.8687,-33575.766,13975.586,8274.78,73274.54
1311497.6156569445,-91368.82,-81704.06,-34114.176,4964.0303,-33558.84,13970.175,8267.66,73239.87
1311497.6196569635,-91395.63,-81703.17,-34108.562,4969.93,-33545.41,13967.978,8267.741,73200.08
1311497.6236569826,-91403.164,-81727.91,-34113.406,4961.263,-33561.89,13973.308,8278.931,73230.305
1311497.6276570016,-91408.94,-81754.11,-34123.17,4949.87,-33587.445,13975.749,8283.407,73273.32
1311497.6316570207,-91369.55,-81711.47,-34114.87,4951.294,-33581.79,13971.3955,8275.717,73279.95
1311497.6356570397,-91359.336,-81681.44,-34108.36,4962.6875,-33559.082,13967.041,8268.393,73229.21
1311497.6396570588,-91391.08,-81693.69,-34109.66,4970.581,-33543.785,13967.041,8262.451,73185.51
1311497.6436570778,-91399.375,-81707.16,-34119.67,4963.3384,-33554.812,13970.866,8269.857,73213.055
1311497.6476570969,-91384.97,-81695.64,-34127.36,4955.5664,-33565.633,13974.406,8274.78,73254.44
1311497.651657116,-91368.25,-81682.58,-34126.465,4955.648,-33561.566,13973.633,8277.222,73285.81
1311497.655657135,-91376.95,-81680.95,-34121.91,4963.0127,-33548.055,13969.076,8275.391,73252.69
1311497.659657154,-91407.31,-81687.46,-34123.293,4967.8145,-33541.383,13968.222,8274.618,73208.01
1311497.663657173,-91411.3,-81695.88,-34136.92,4961.1006,-33545.98,13971.273,8277.304,73233.08
1311497.667657192,-91396.734,-81699.47,-34144.168,4954.2646,-33550.7,13976.767,8280.07,73264.0
1311497.6716572111,-91379.16,-81694.3,-34149.375,4950.6836,-33555.176,13974.569,8270.59,73271.445
1311497.6756572302,-91390.47,-81691.94,-34145.184,4956.7466,-33543.215,13969.442,8262.492,73227.016
1311497.6796572492,-91414.836,-81700.73,-34140.18,4965.332,-33531.82,13969.442,8260.254,73186.08
1311497.6836572683,-91412.84,-81704.67,-34144.613,4962.484,-33536.133,13974.895,8271.729,73217.0
1311497.6876572873,-91393.68,-81702.72,-34148.234,4957.7637,-33544.273,13975.505,8277.385,73263.15
1311497.6916573064,-91378.18,-81701.375,-34147.176,4954.509,-33545.33,13973.511,8272.421,73276.86
1311497.6956573254,-91397.87,-81703.125,-34142.62,4959.188,-33537.926,13973.1045,8266.154,73234.414
1311497.6996573445,-91413.45,-81702.48,-34141.48,4966.838,-33526.938,13971.884,8261.027,73190.555
1311497.7036573635,-91403.484,-81703.375,-34142.62,4963.908,-33536.38,13977.905,8269.9795,73218.63
1311497.7076573826,-91383.75,-81700.805,-34138.43,4957.479,-33552.41,13985.026,8281.332,73269.164
1311497.7116574016,-91364.914,-81699.055,-34138.875,4956.7466,-33548.83,13986.369,8284.302,73297.0
1311497.7156574207,-91376.95,-81691.29,-34135.418,4965.8613,-33530.03,13982.992,8276.245,73256.875
1311497.7196574397,-91405.03,-81689.82,-34124.594,4974.6094,-33519.86,13984.497,8277.426,73215.3
1311497.7236574588,-91392.664,-81685.55,-34126.75,4976.4404,-33515.26,13987.265,8282.431,73248.82
1311497.7276574778,-91361.49,-81671.96,-34128.703,4973.226,-33532.39,13990.438,8289.389,73295.33
1311497.731657497,-91353.516,-81672.57,-34128.5,4972.046,-33529.91,13989.99,8286.499,73306.52
1311497.735657516,-91368.57,-81672.41,-34121.46,4980.1025,-33521.61,13988.7295,8276.164,73253.91
1311497.739657535,-91400.92,-81677.734,-34119.305,4986.206,-33510.906,13990.561,8272.014,73219.41
1311497.743657554,-91401.086,-81680.42,-34121.055,4983.48,-33520.47,13995.199,8277.141,73248.62
1311497.747657573,-91372.44,-81675.26,-34124.27,4981.079,-33526.246,13996.42,8276.367,73289.1
1311497.7516575921,-91348.555,-81671.39,-34120.242,4979.248,-33528.727,13996.257,8275.106,73309.734
1311497.7556576112,-91367.234,-81674.73,-34119.832,4985.555,-33511.965,13996.582,8273.926,73262.66
1311497.7596576302,-91389.445,-81668.74,-34115.887,4993.449,-33506.51,13997.152,8276.733,73226.56
1311497.7636576493,-91385.375,-81667.32,-34117.105,4991.496,-33515.668,14002.197,8282.756,73254.64
1311497.7676576683,-91377.61,-81677.33,-34125.855,4984.7007,-33521.402,14006.47,8284.953,73288.414
1311497.7716576874,-91372.36,-81684.0,-34122.926,4982.666,-33522.38,14010.702,8288.127,73312.336
1311497.7756577064,-91376.1,-81672.81,-34112.996,4992.4316,-33511.395,14005.371,8279.989,73274.17
1311497.7796577255,-91403.04,-81676.35,-34109.5,4998.698,-33504.598,14002.523,8279.053,73229.33
1311497.7836577445,-91402.14,-81681.234,-34114.543,4996.46,-33508.547,14007.121,8287.924,73256.67
1311497.7876577636,-91366.26,-81672.484,-34113.527,4993.9375,-33514.527,14007.406,8289.633,73308.35
1311497.7916577826,-91349.33,-81665.695,-34110.19,4990.804,-33517.78,14007.324,8285.686,73324.95
1311497.7956578017,-91359.74,-81665.57,-34114.258,4997.1924,-33505.656,14007.08,8283.122,73290.04
1311497.7996578207,-91390.67,-81675.984,-34113.812,5002.075,-33499.797,14008.545,8283.732,73242.07
1311497.8036578398,-91392.91,-81675.46,-34113.324,5000.7324,-33503.46,14010.661,8283.732,73262.29
1311497.8076578588,-91369.19,-81667.24,-34113.324,4996.0938,-33512.574,14010.864,8283.651,73297.77
1311497.8116578779,-91357.99,-81664.67,-34111.453,4993.8154,-33518.637,14007.528,8284.831,73321.05
1311497.815657897,-91361.734,-81660.65,-34105.594,5003.215,-33502.44,14004.232,8278.117,73280.27
1311497.819657916,-91370.73,-81660.32,-34101.36,5012.329,-33488.77,14001.181,8274.78,73238.24
1311497.823657935,-91376.95,-81667.93,-34110.15,5004.0283,-33501.223,14003.215,8280.314,73262.53
1311497.827657954,-91362.76,-81664.96,-34115.723,4999.4307,-33501.87,14003.378,8282.593,73309.05
1311497.8316579731,-91344.28,-81660.16,-34112.387,4996.257,-33515.668,14003.418,8282.1045,73332.234
1311497.8356579922,-91363.98,-81661.87,-34111.734,5000.366,-33505.13,14001.343,8277.141,73280.88
1311497.8396580112,-91392.46,-81665.77,-34112.875,5007.4873,-33492.72,13998.942,8272.055,73234.01
1311497.8436580303,-91382.49,-81665.85,-34113.934,5006.0225,-33498.496,13999.39,8272.949,73261.03
1311497.8476580493,-91365.44,-81666.875,-34118.207,4998.698,-33509.89,14001.587,8275.595,73295.53
1311497.8516580684,-91364.22,-81674.73,-34116.984,4993.856,-33511.07,14000.326,8272.177,73308.19
1311497.8556580874,-91377.41,-81667.69,-34115.195,5002.6855,-33498.82,13996.745,8271.566,73272.016
1311497.8596581065,-91396.734,-81663.05,-34113.65,5011.882,-33483.24,13994.914,8270.346,73229.82
1311497.8636581255,-91398.4,-81673.34,-34119.547,5005.127,-33489.625,13999.35,8275.513,73249.19
1311497.8676581446,-91382.164,-81678.914,-34121.99,4998.291,-33502.08,13999.472,8275.391,73282.8
1311497.8716581636,-91356.04,-81664.06,-34120.242,4995.4023,-33516.48,13999.797,8277.141,73300.01
1311497.8756581827,-91365.84,-81662.84,-34112.305,5000.285,-33503.703,13996.135,8271.933,73261.72
1311497.8796582017,-91389.33,-81667.484,-34108.36,5007.121,-33493.613,13993.896,8266.928,73225.67
1311497.8836582208,-91395.305,-81681.27,-34115.562,5002.3604,-33502.36,13995.524,8265.341,73253.13
1311497.8876582398,-91376.266,-81679.69,-34119.996,4996.6636,-33516.887,13999.431,8269.247,73298.71
1311497.8916582589,-91345.09,-81659.914,-34117.758,4996.826,-33515.707,13998.861,8274.048,73314.05
1311497.895658278,-91353.72,-81654.38,-34115.64,5005.005,-33503.055,13997.233,8275.676,73275.8
1311497.899658297,-91378.42,-81658.41,-34112.062,5012.126,-33489.176,13999.919,8277.507,73237.34
1311497.903658316,-91372.16,-81668.3,-34116.742,5006.755,-33500.69,14005.656,8284.546,73264.2
1311497.907658335,-91348.43,-81662.03,-34117.72,5002.767,-33505.008,14005.005,8283.081,73307.21
1311497.911658354,-91334.35,-81662.6,-34114.707,5002.9707,-33510.17,14006.267,8283.285,73325.445
1311497.9156583732,-91357.18,-81670.375,-34111.086,5007.6904,-33494.344,14004.069,8276.083,73283.57
1311497.9196583922,-91382.41,-81675.055,-34106.16,5014.079,-33484.945,14004.517,8273.112,73241.664
1311497.9236584113,-91366.13,-81666.71,-34107.953,5010.7017,-33493.45,14008.139,8279.379,73273.12
1311497.9276584303,-91343.875,-81660.81,-34112.348,5005.005,-33503.176,14011.597,8288.534,73313.97
1311497.9316584493,-91326.58,-81654.3,-34109.742,5005.7373,-33504.926,14011.557,8290.365,73336.71
1311497.9356584684,-91342.53,-81660.2,-34107.42,5012.573,-33491.21,14007.284,8280.518,73292.28
1311497.9396584874,-91368.29,-81667.56,-34099.895,5017.2935,-33488.812,14004.639,8280.681,73254.97
1311497.9436585065,-91363.61,-81666.55,-34102.215,5013.8755,-33493.207,14004.477,8286.459,73288.05
1311497.9476585255,-91350.18,-81666.016,-34108.523,5008.0566,-33498.535,14006.47,8291.586,73333.58
1311497.9516585446,-91337.734,-81670.05,-34116.824,5004.11,-33501.383,14006.877,8292.399,73352.09
1311497.9556585636,-91338.3,-81666.625,-34107.992,5008.911,-33505.82,14003.622,8285.156,73307.74
1311497.9596585827,-91356.0,-81665.94,-34107.79,5016.2764,-33492.105,13998.779,8275.106,73258.95
1311497.9636586017,-91364.305,-81678.96,-34113.85,5010.742,-33498.58,13999.675,8275.92,73273.27
1311497.9676586208,-91339.32,-81670.17,-34112.875,5006.755,-33513.1,13999.105,8273.4375,73314.29
1311497.9716586398,-91335.21,-81673.42,-34118.004,5004.1504,-33514.08,13998.169,8273.479,73331.42
1311497.975658659,-91348.63,-81673.75,-34113.895,5013.3467,-33496.46,13996.094,8273.397,73296.35
1311497.979658678,-91367.96,-81673.26,-34108.93,5018.636,-33491.254,13995.891,8271.688,73256.875
1311497.983658697,-91367.234,-81682.414,-34114.3,5013.4688,-33499.31,13999.187,8275.717,73271.94
1311497.987658716,-91346.97,-81683.72,-34119.06,5004.2725,-33511.434,14001.181,8277.141,73306.27
1311497.991658735,-91326.83,-81672.61,-34116.09,5004.6797,-33518.23,13999.268,8274.17,73321.45
1311497.9956587541,-91341.8,-81673.625,-34112.062,5011.1084,-33503.336,13995.81,8267.578,73276.25
1311497.9996587732,-91367.44,-81673.1,-34112.71,5017.5376,-33486.492,13994.101,8266.602,73231.484
1311498.0036587922,-91373.17,-81675.055,-34114.176,5013.957,-33500.855,13997.519,8272.095,73261.11
1311498.0076588113,-91343.75,-81660.89,-34108.523,5012.207,-33506.39,13996.094,8270.671,73312.87
1311498.0116588303,-91325.93,-81663.45,-34108.44,5008.464,-33516.113,13996.013,8274.13,73338.75
1311498.0156588494,-91342.57,-81665.125,-34110.758,5014.282,-33501.87,13993.612,8266.643,73293.945
1311498.0196588684,-91367.35,-81664.92,-34104.25,5019.9385,-33498.008,13991.577,8259.726,73243.86
1311498.0236588875,-91371.5,-81673.22,-34112.996,5014.5264,-33505.332,13990.927,8258.911,73265.71
1311498.0276589065,-91358.65,-81679.85,-34119.305,5009.5625,-33503.46,13991.821,8260.458,73298.83
1311498.0316589256,-91349.37,-81683.92,-34118.652,5008.2603,-33505.82,13994.304,8256.226,73305.42
1311498.0356589446,-91357.14,-81676.72,-34114.664,5016.439,-33505.21,13992.27,8249.838,73273.805
1311498.0396589637,-91370.98,-81672.53,-34108.156,5023.031,-33489.79,13989.299,8243.979,73230.67
1311498.0436589827,-91360.35,-81675.83,-34110.555,5019.2466,-33497.56,13992.1875,8252.279,73260.54
1311498.0476590018,-91342.45,-81677.57,-34113.363,5009.8066,-33508.465,13995.6875,8256.552,73298.305
1311498.0516590208,-91333.01,-81671.23,-34116.617,5006.2666,-33511.637,13998.169,8252.157,73318.69
1311498.0556590399,-91349.45,-81667.93,-34113.61,5015.503,-33500.125,13996.298,8241.089,73278.445
1311498.059659059,-91371.5,-81668.625,-34107.586,5021.932,-33499.27,13992.717,8237.631,73232.79
1311498.063659078,-91366.984,-81669.76,-34112.71,5018.8804,-33504.273,13993.246,8241.089,73251.875
1311498.067659097,-91356.08,-81675.7,-34118.207,5012.9805,-33505.94,13995.036,8241.333,73296.555
1311498.071659116,-91357.42,-81675.87,-34118.613,5006.3887,-33526.492,13997.355,8241.74,73315.96
1311498.0756591351,-91365.93,-81674.56,-34117.637,5012.329,-33509.89,13991.618,8227.377,73270.39
1311498.0796591542,-91384.65,-81676.96,-34112.836,5018.5547,-33498.7,13986.125,8220.5,73223.8
1311498.0836591732,-91370.28,-81678.02,-34115.234,5015.991,-33514.527,13989.421,8224.569,73246.91
1311498.0876591923,-91355.19,-81682.984,-34121.99,5009.725,-33518.8,13992.025,8228.801,73293.74
1311498.0916592113,-91356.9,-81689.5,-34119.547,5006.1445,-33520.957,13991.943,8222.9,73307.5
1311498.0956592304,-91369.47,-81687.87,-34122.6,5013.387,-33502.89,13986.735,8212.321,73270.43
1311498.0996592494,-91394.21,-81689.82,-34112.508,5019.9385,-33501.87,13984.579,8207.113,73228.88
1311498.1036592685,-91395.8,-81695.195,-34118.207,5013.835,-33515.87,13990.316,8213.583,73252.08
1311498.1076592875,-91370.484,-81686.484,-34120.523,5011.2715,-33517.457,13995.605,8220.337,73294.15
1311498.1116593066,-91350.95,-81681.93,-34118.777,5009.725,-33513.184,13996.623,8220.703,73315.555
1311498.1156593256,-91355.92,-81672.94,-34112.184,5018.0664,-33498.902,13993.856,8215.17,73282.48
1311498.1196593447,-91385.664,-81671.63,-34106.12,5024.089,-33486.9,13993.693,8212.891,73241.17
1311498.1236593637,-91394.29,-81678.23,-34110.27,5020.345,-33493.29,13997.437,8217.692,73263.06
1311498.1276593828,-91377.41,-81674.64,-34110.27,5016.1543,-33504.52,14001.547,8220.947,73299.6
1311498.1316594018,-91364.26,-81677.37,-34108.035,5012.1665,-33517.703,14004.802,8223.471,73321.62
1311498.1356594209,-91368.9,-81676.516,-34106.082,5019.8164,-33504.844,14003.744,8225.668,73289.96
1311498.13965944,-91386.97,-81671.71,-34102.62,5028.8496,-33486.086,14000.204,8222.616,73248.984
1311498.143659459,-91384.93,-81670.45,-34100.832,5026.571,-33482.625,14000.692,8220.337,73267.58
1311498.147659478,-91353.234,-81663.74,-34101.402,5020.508,-33499.637,14003.825,8225.627,73317.06
1311498.151659497,-91334.72,-81657.19,-34098.55,5020.0195,-33503.176,14008.057,8230.673,73347.25
1311498.155659516,-91355.92,-81650.96,-34096.64,5028.402,-33488.566,14007.65,8228.801,73294.72
1311498.1596595352,-91379.48,-81657.39,-34089.6,5036.377,-33478.68,14006.389,8225.668,73248.66
1311498.1636595542,-91377.445,-81660.12,-34094.484,5032.43,-33485.19,14007.976,8229.208,73281.82
1311498.1676595733,-91357.18,-81661.336,-34101.2,5027.181,-33495.117,14008.749,8226.522,73314.91
1311498.1716595923,-91345.586,-81656.945,-34104.047,5024.7397,-33492.84,14009.155,8225.912,73329.555
1311498.1756596114,-91359.54,-81658.66,-34095.703,5030.111,-33480.145,14007.08,8220.378,73294.195
1311498.1796596304,-91371.625,-81648.805,-34089.926,5039.1035,-33475.63,14006.877,8223.999,73264.85
1311498.1836596495,-91355.875,-81639.65,-34095.133,5036.784,-33479.777,14009.766,8227.865,73304.164
1311498.1876596685,-91335.86,-81642.01,-34098.473,5028.646,-33490.48,14013.713,8232.178,73342.25
1311498.1916596876,-91320.805,-81636.4,-34095.906,5028.646,-33493.695,14015.951,8232.341,73354.45
1311498.1956597068,-91334.31,-81641.73,-34091.35,5033.4067,-33478.92,14012.492,8224.325,73314.78
1311498.199659726,-91361.45,-81653.37,-34095.055,5039.6323,-33467.977,14011.149,8224.609,73272.09
1311498.203659745,-91357.95,-81652.34,-34088.707,5038.33,-33483.848,14013.184,8227.58,73287.31
1311498.207659764,-91347.086,-81655.84,-34098.633,5032.7964,-33487.508,14014.526,8231.649,73317.99
1311498.211659783,-91325.36,-81647.42,-34097.13,5032.308,-33491.293,14014.282,8232.138,73350.67
1311498.215659802,-91342.86,-81650.92,-34092.043,5038.4116,-33478.965,14013.713,8226.929,73311.69
1311498.2196598211,-91367.68,-81656.82,-34090.008,5043.6606,-33472.74,14012.248,8228.068,73271.85
1311498.2236598402,-91357.14,-81654.016,-34090.332,5039.795,-33482.06,14012.98,8234.416,73302.94
1311498.2276598592,-91345.46,-81661.945,-34095.094,5032.1045,-33490.316,14015.503,8238.078,73340.3
1311498.2316598783,-91334.88,-81660.52,-34101.48,5031.413,-33486.492,14014.404,8232.748,73351.04
1311498.2356598973,-91341.68,-81652.23,-34095.543,5040.08,-33482.83,14008.342,8220.378,73309.41
1311498.2396599164,-91367.15,-81654.26,-34087.688,5048.381,-33470.62,14009.318,8221.273,73270.305
1311498.2436599354,-91368.82,-81660.61,-34092.41,5042.4805,-33482.87,14013.021,8227.458,73289.63
1311498.2476599545,-91348.836,-81659.305,-34100.914,5035.8076,-33491.945,14013.388,8229.818,73327.76
1311498.2516599735,-91336.02,-81658.086,-34096.316,5032.878,-33496.38,14013.469,8231.039,73343.14
1311498.2556599926,-91343.23,-81655.84,-34095.258,5038.7373,-33481.203,14009.237,8224.976,73304.98
1311498.2596600116,-91377.28,-81667.32,-34095.785,5042.1553,-33474.12,14007.202,8222.982,73257.61
1311498.2636600307,-91381.555,-81672.08,-34100.06,5036.9873,-33485.19,14010.742,8230.266,73281.5
1311498.2676600497,-91346.31,-81654.38,-34100.914,5034.9937,-33489.42,14009.033,8227.621,73330.04
1311498.2716600688,-91339.52,-81655.97,-34103.56,5032.9185,-33490.48,14007.69,8223.308,73330.04
1311498.2756600878,-91358.69,-81660.52,-34102.457,5039.9985,-33484.254,14008.301,8220.012,73288.62
1311498.2796601069,-91385.945,-81664.76,-34100.79,5044.7593,-33471.19,14007.609,8221.924,73255.78
1311498.283660126,-91380.25,-81668.83,-34102.742,5038.086,-33484.133,14010.62,8230.551,73292.52
1311498.287660145,-91355.76,-81662.11,-34103.76,5033.203,-33493.695,14014.486,8233.928,73332.44
1311498.291660164,-91335.37,-81647.38,-34103.76,5032.6743,-33493.41,14012.573,8232.585,73350.266
1311498.295660183,-91350.38,-81640.26,-34096.438,5039.4697,-33484.99,14005.534,8222.656,73307.01
1311498.299660202,-91385.26,-81655.16,-34094.08,5042.684,-33476.44,14005.778,8220.053,73262.375
1311498.3036602212,-91375.41,-81664.23,-34095.5,5037.8013,-33484.05,14010.986,8228.109,73285.04
1311498.3076602402,-91340.3,-81653.484,-34103.273,5030.477,-33503.176,14014.853,8237.793,73332.36
1311498.3116602593,-91333.375,-81651.57,-34109.293,5025.757,-33506.51,14019.45,8242.676,73353.234
1311498.3156602783,-91345.55,-81647.75,-34100.547,5036.255,-33488.85,14015.869,8231.445,73309.37
1311498.3196602974,-91364.26,-81646.0,-34093.1,5046.102,-33471.965,14012.614,8228.964,73267.62
1311498.3236603164,-91368.77,-81659.47,-34094.2,5040.324,-33483.074,14014.364,8235.312,73288.66
1311498.3276603355,-91354.375,-81658.086,-34098.023,5034.2207,-33495.77,14015.341,8236.206,73332.32
1311498.3316603545,-91342.125,-81653.77,-34105.266,5031.3315,-33499.715,14015.219,8234.863,73347.375
1311498.3356603736,-91355.555,-81656.45,-34101.24,5037.883,-33488.08,14011.557,8225.058,73301.31
1311498.3396603926,-91382.086,-81659.38,-34097.047,5043.2944,-33472.656,14009.644,8221.477,73258.83
1311498.3436604117,-91372.93,-81659.18,-34101.81,5038.2896,-33479.453,14013.184,8230.795,73294.64
1311498.3476604307,-91344.04,-81655.56,-34103.19,5031.7383,-33495.65,14018.515,8239.096,73333.87
1311498.3516604498,-91330.53,-81654.75,-34101.848,5028.646,-33504.152,14019.653,8238.322,73346.72
1311498.3556604688,-91345.664,-81652.59,-34101.24,5035.36,-33493.29,14011.3125,8227.987,73299.56
1311498.3596604879,-91376.63,-81661.586,-34098.797,5045.085,-33481.61,14009.277,8223.837,73254.4
1311498.363660507,-91378.83,-81667.04,-34099.0,5042.562,-33487.266,14010.864,8226.237,73284.79
1311498.367660526,-91347.62,-81655.4,-34102.254,5038.9814,-33489.664,14010.417,8230.795,73333.17
1311498.371660545,-91322.67,-81652.875,-34101.766,5036.133,-33499.758,14009.685,8233.603,73356.445
1311498.375660564,-91327.805,-81649.13,-34094.32,5044.393,-33484.17,14006.836,8222.209,73309.98
1311498.379660583,-91359.22,-81653.445,-34090.457,5051.5137,-33472.496,14008.098,8213.867,73260.17
1311498.3836606022,-91359.87,-81656.13,-34096.07,5046.1426,-33482.953,14011.557,8217.692,73278.69
1311498.3876606212,-91356.0,-81666.14,-34105.594,5037.0283,-33496.137,14014.201,8221.965,73307.945
1311498.3916606402,-91350.79,-81666.47,-34109.254,5032.5522,-33504.477,14013.754,8218.466,73328.78
1311498.3956606593,-91356.57,-81658.37,-34106.445,5038.7373,-33482.992,14012.085,8210.693,73294.92
1311498.3996606783,-91381.266,-81665.65,-34096.844,5043.701,-33489.707,14015.3,8214.682,73258.79
1311498.4036606974,-91374.68,-81671.8,-34109.05,5037.313,-33489.137,14016.317,8222.616,73287.92
1311498.4076607164,-91343.38,-81657.15,-34106.203,5034.7495,-33496.582,14013.021,8220.866,73328.414
1311498.4116607355,-91331.14,-81653.98,-34107.18,5033.081,-33501.508,14014.486,8227.621,73345.91
1311498.4156607545,-91350.1,-81655.44,-34105.957,5039.795,-33487.957,14011.679,8221.558,73307.25
1311498.4196607736,-91383.63,-81660.12,-34098.758,5049.398,-33476.81,14007.406,8211.304,73258.016
1311498.4236607926,-91382.86,-81661.13,-34100.668,5045.7764,-33487.918,14011.475,8220.419,73283.24
1311498.4276608117,-91364.18,-81660.85,-34104.86,5038.656,-33494.344,14011.149,8219.931,73322.76
1311498.4316608307,-91343.75,-81658.41,-34106.934,5037.4756,-33496.867,14014.893,8219.6455,73348.11
1311498.4356608498,-91348.11,-81650.8,-34101.44,5041.5854,-33490.64,14015.747,8216.187,73311.36
1311498.4396608688,-91372.73,-81655.32,-34096.03,5047.9736,-33481.527,14012.289,8206.869,73256.555
1311498.443660888,-91363.41,-81651.86,-34097.293,5046.5903,-33484.742,14014.486,8208.456,73277.71
1311498.447660907,-91340.3,-81647.625,-34098.715,5044.4746,-33490.848,14020.264,8218.75,73333.984
1311498.451660926,-91333.21,-81650.11,-34098.348,5041.87,-33498.17,14022.624,8223.267,73355.23
1311498.455660945,-91352.016,-81654.7,-34101.32,5044.7188,-33483.36,14016.5205,8209.677,73302.984
1311498.459660964,-91377.61,-81660.445,-34101.848,5048.747,-33477.254,14011.801,8202.434,73252.04
1311498.4636609831,-91371.26,-81659.23,-34104.74,5044.922,-33490.113,14012.492,8209.677,73277.51
1311498.4676610022,-91341.43,-81650.35,-34104.13,5040.4053,-33498.78,14014.201,8218.506,73337.85
1311498.4716610212,-91324.34,-81650.02,-34102.906,5038.2896,-33501.63,14018.474,8225.139,73357.51
1311498.4756610403,-91333.46,-81650.555,-34097.25,5044.4336,-33490.562,14017.578,8219.32,73313.84
1311498.4796610593,-91357.586,-81648.805,-34094.81,5052.043,-33476.81,14016.5205,8211.996,73267.78
1311498.4836610784,-91365.44,-81655.36,-34102.457,5047.4854,-33482.3,14020.427,8215.902,73296.76
1311498.4876610974,-91364.18,-81666.625,-34106.242,5037.679,-33495.363,14023.153,8217.204,73328.9
1311498.4916611165,-91352.38,-81668.625,-34110.23,5034.139,-33494.426,14021.525,8211.386,73345.5
1311498.4956611355,-91362.1,-81665.086,-34106.242,5041.423,-33481.61,14018.2705,8207.316,73306.4
1311498.4996611546,-91359.74,-81651.734,-34096.11,5051.3105,-33470.34,14014.282,8206.828,73278.73
1311498.5036611736,-91351.56,-81652.67,-34102.867,5045.0034,-33482.06,14016.968,8215.088,73304.98
1311498.5076611927,-91343.836,-81659.95,-34104.574,5035.9297,-33492.473,14020.956,8224.609,73341.11
1311498.5116612117,-91331.664,-81656.414,-34108.562,5034.5054,-33496.297,14020.508,8222.941,73357.016
1311498.5156612308,-91353.48,-81659.34,-34102.05,5042.9688,-33480.227,14015.951,8208.171,73318.445
1311498.5196612498,-91381.59,-81676.44,-34097.656,5047.689,-33479.98,14014.73,8200.114,73272.625
1311498.5236612689,-91372.234,-81674.766,-34103.8,5043.091,-33488.527,14015.3,8203.9795,73288.945
1311498.527661288,-91348.31,-81663.49,-34111.574,5036.174,-33498.535,14017.904,8210.979,73334.11
1311498.531661307,-91333.58,-81662.36,-34109.824,5031.4536,-33507.977,14020.915,8214.885,73363.41
1311498.535661326,-91343.67,-81660.41,-34105.31,5038.9814,-33494.914,14018.148,8208.374,73318.04
1311498.539661345,-91370.81,-81658.9,-34104.332,5046.224,-33484.05,14013.266,8202.353,73268.555
1311498.5436613641,-91368.86,-81662.36,-34105.797,5042.562,-33493.367,14009.929,8202.189,73286.664
1311498.5476613832,-91353.4,-81669.555,-34109.703,5036.662,-33500.33,14007.487,8198.486,73320.97
1311498.5516614022,-91345.75,-81673.55,-34114.42,5035.6445,-33500.816,14007.935,8195.761,73340.86
1311498.5556614213,-91384.32,-81697.59,-34116.945,5036.255,-33500.406,14010.783,8193.848,73295.86
1311498.5596614403,-91406.3,-81696.25,-34113.973,5043.254,-33478.8,14011.027,8194.621,73244.75
1311498.5636614594,-91373.25,-81669.234,-34104.086,5045.451,-33487.47,14014.201,8200.073,73270.19
1311498.5676614784,-91352.17,-81663.17,-34111.695,5040.6494,-33501.14,14014.445,8201.213,73321.945
1311498.5716614975,-91341.88,-81661.99,-34106.082,5040.202,-33500.45,14013.957,8205.404,73347.66
1311498.5756615165,-91354.05,-81662.195,-34103.273,5047.811,-33485.312,14009.115,8202.963,73317.305
1311498.5796615356,-91378.055,-81667.484,-34104.25,5053.3447,-33478.68,14002.401,8199.748,73280.27
1311498.5836615546,-91371.75,-81669.15,-34106.0,5046.9565,-33494.14,14006.552,8208.456,73306.93
1311498.5876615737,-91351.04,-81664.8,-34112.59,5038.4116,-33503.418,14012.98,8214.111,73345.5
1311498.5916615927,-91338.55,-81662.64,-34115.152,5036.133,-33502.973,14016.806,8213.135,73358.32
1311498.5956616118,-91370.2,-81679.28,-34108.684,5040.853,-33495.117,14017.172,8201.823,73308.555
1311498.5996616308,-91396.85,-81686.89,-34102.215,5048.6655,-33484.418,14014.12,8194.499,73259.65
1311498.6036616499,-91386.92,-81681.97,-34106.16,5048.34,-33480.51,14013.754,8200.399,73284.95
1311498.607661669,-91356.65,-81672.94,-34106.0,5045.6953,-33492.188,14010.905,8203.613,73326.13
1311498.611661688,-91315.516,-81646.69,-34101.44,5048.991,-33493.492,14005.819,8207.194,73358.36
1311498.615661707,-91333.26,-81652.63,-34097.453,5052.694,-33483.074,14004.721,8205.526,73324.34
1311498.619661726,-91361.94,-81659.305,-34099.0,5057.3325,-33476.89,14004.965,8200.358,73278.61
1311498.623661745,-91365.44,-81666.95,-34105.47,5051.758,-33491.17,14008.22,8205.526,73289.8
1311498.6276617642,-91354.984,-81672.33,-34111.98,5042.8467,-33501.71,14012.695,8207.072,73335.086
1311498.6316617832,-91344.484,-81672.0,-34114.098,5040.7715,-33499.51,14015.259,8204.184,73353.44
1311498.6356618023,-91353.15,-81668.46,-34107.22,5049.4385,-33485.27,14012.939,8200.644,73312.3
1311498.6396618213,-91372.64,-81668.74,-34097.82,5058.5938,-33478.23,14009.5625,8202.719,73276.49
1311498.6436618404,-91357.055,-81665.81,-34100.18,5054.0366,-33488.812,14009.644,8204.102,73302.53
1311498.6476618594,-91339.6,-81667.12,-34106.12,5046.1836,-33497.76,14011.353,8209.066,73341.92
1311498.6516618785,-91334.39,-81668.016,-34107.75,5043.132,-33495.65,14009.318,8205.404,73358.805
1311498.6556618975,-91355.43,-81673.26,-34113.08,5047.689,-33487.02,14006.999,8194.052,73319.586
1311498.6596619166,-91380.25,-81683.59,-34105.797,5055.9897,-33480.105,14005.493,8184.4077,73265.22
1311498.6636619356,-91372.89,-81679.164,-34105.51,5056.6816,-33484.293,14006.022,8181.926,73285.445
1311498.6676619546,-91353.4,-81673.22,-34108.44,5048.0957,-33499.27,14009.521,8187.012,73324.79
1311498.6716619737,-91335.94,-81665.0,-34112.387,5044.3115,-33499.758,14009.5625,8191.529,73351.08
1311498.6756619927,-91346.4,-81665.695,-34113.65,5049.3164,-33485.758,14005.087,8186.971,73311.08
1311498.6796620118,-91378.22,-81678.1,-34116.58,5052.49,-33482.707,14004.069,8187.4595,73270.63
1311498.6836620308,-91376.71,-81676.72,-34116.742,5050.6187,-33488.363,14008.098,8198.08,73308.02
1311498.68766205,-91358.97,-81672.08,-34111.695,5048.7876,-33492.105,14008.464,8198.975,73359.375
1311498.691662069,-91343.47,-81667.766,-34111.37,5047.3228,-33496.5,14006.958,8197.551,73377.41
1311498.695662088,-91361.66,-81672.2,-34104.695,5053.2227,-33486.777,14003.744,8184.937,73312.016
1311498.699662107,-91379.68,-81668.83,-34105.715,5057.943,-33474.203,14002.279,8178.6704,73265.42
1311498.703662126,-91377.24,-81670.58,-34110.555,5052.368,-33482.06,14006.796,8182.984,73291.586
1311498.7076621451,-91357.47,-81665.2,-34118.45,5044.922,-33493.29,14010.458,8189.4536,73329.76
1311498.7116621642,-91339.16,-81666.18,-34122.113,5042.6025,-33493.938,14012.573,8191.976,73347.945
1311498.7156621832,-91354.86,-81671.19,-34116.7,5048.381,-33485.758,14009.155,8187.7446,73308.43
1311498.7196622023,-91379.68,-81676.27,-34107.26,5057.4546,-33475.426,14004.802,8177.6533,73259.445
1311498.7236622213,-91381.555,-81685.06,-34110.15,5052.8564,-33489.016,14005.168,8182.6987,73281.5
1311498.7276622404,-91352.336,-81679.98,-34112.918,5047.4043,-33499.676,14005.331,8184.6113,73331.55
1311498.7316622594,-91329.63,-81671.76,-34113.895,5047.282,-33498.293,14006.877,8184.53,73352.09
1311498.7356622785,-91342.125,-81664.72,-34108.93,5052.8975,-33492.105,14006.267,8180.054,73313.93
1311498.7396622975,-91367.15,-81667.73,-34101.89,5058.0244,-33486.574,14006.063,8180.054,73271.734
1311498.7436623166,-91361.94,-81672.81,-34105.184,5054.9727,-33491.863,14009.685,8189.2095,73295.62
1311498.7476623356,-91346.11,-81677.9,-34106.85,5048.503,-33498.453,14012.289,8192.79,73343.266
1311498.7516623547,-91336.43,-81677.9,-34111.41,5044.3525,-33504.19,14015.097,8192.465,73363.53
1311498.7556623737,-91347.01,-81667.56,-34111.125,5053.0195,-33487.1,14013.144,8181.1934,73308.11
1311498.7596623928,-91377.93,-81674.03,-34105.184,5059.245,-33479.13,14010.539,8174.0728,73262.78
1311498.7636624118,-91387.33,-81684.66,-34106.73,5057.251,-33488.445,14014.038,8180.7866,73288.086
1311498.7676624309,-91360.64,-81674.56,-34110.027,5052.7344,-33495.363,14015.747,8182.862,73322.63
1311498.77166245,-91313.64,-81647.42,-34104.453,5052.572,-33491.13,14015.829,8179.281,73348.11
1311498.775662469,-91323.53,-81652.71,-34097.656,5057.617,-33480.266,14017.131,8181.8037,73317.51
1311498.779662488,-91351.61,-81655.03,-34091.434,5066.732,-33469.89,14018.799,8187.0527,73277.75
1311498.783662507,-91340.58,-81645.76,-34089.52,5066.6504,-33474.652,14018.107,8190.9995,73304.164
1311498.7876625261,-91325.28,-81645.39,-34091.555,5063.436,-33479.9,14017.741,8190.959,73338.87
1311498.7916625452,-91312.42,-81642.3,-34096.438,5060.9946,-33480.957,14017.456,8190.43,73352.7
1311498.7956625642,-91335.94,-81644.33,-34092.69,5066.9355,-33470.867,14015.503,8183.35,73315.06
1311498.7996625833,-91357.586,-81645.59,-34089.113,5074.7886,-33462.77,14013.632,8181.397,73274.82
1311498.8036626023,-91341.43,-81647.46,-34094.2,5070.516,-33468.793,14013.021,8188.3955,73306.48
1311498.8076626214,-91326.58,-81650.555,-34098.348,5062.2153,-33482.098,14016.073,8193.563,73345.3
1311498.8116626404,-91314.74,-81645.43,-34094.605,5060.71,-33487.793,14017.131,8193.075,73368.05
1311498.8156626595,-91333.26,-81656.945,-34090.21,5065.4707,-33478.76,14013.591,8186.605,73325.766
1311498.8196626785,-91356.04,-81659.99,-34093.793,5071.859,-33466.066,14011.068,8177.6533,73275.72
1311498.8236626976,-91363.04,-81659.38,-34098.473,5068.8887,-33476.48,14015.463,8184.7334,73297.164
1311498.8276627166,-91345.18,-81655.36,-34102.457,5061.7676,-33489.707,14016.846,8187.419,73335.0
1311498.8316627357,-91338.75,-81655.84,-34106.285,5058.5127,-33491.05,14013.835,8179.0776,73343.38
1311498.8356627547,-91356.85,-81657.19,-34100.06,5065.2266,-33481.73,14010.132,8170.329,73303.67
1311498.8396627738,-91384.52,-81657.06,-34094.973,5071.981,-33470.34,14005.087,8167.196,73266.97
1311498.8436627928,-91376.875,-81661.13,-34096.723,5067.912,-33484.457,14007.121,8172.1196,73293.375
1311498.8476628119,-91353.36,-81657.76,-34105.105,5061.8086,-33492.188,14008.423,8174.195,73321.17
1311498.851662831,-91341.555,-81655.64,-34107.91,5057.3325,-33496.34,14010.742,8173.4624,73327.805
1311498.85566285,-91357.586,-81660.93,-34104.574,5061.076,-33489.176,14009.196,8165.731,73287.195
1311498.859662869,-91380.58,-81659.266,-34100.79,5068.563,-33474.45,14010.58,8166.5044,73248.01
1311498.863662888,-91391.766,-81669.4,-34108.4,5062.8257,-33480.47,14015.463,8175.334,73273.69
1311498.867662907,-91369.51,-81667.766,-34111.453,5056.1934,-33490.152,14017.294,8184.7334,73324.83
1311498.8716629262,-91350.1,-81658.81,-34108.97,5054.8506,-33494.508,14013.713,8181.763,73346.93
1311498.8756629452,-91354.45,-81651.98,-34107.098,5063.7207,-33482.707,14008.423,8176.4326,73313.805
1311498.8796629643,-91382.125,-81655.88,-34102.457,5070.0684,-33474.773,14004.843,8167.44,73270.59
1311498.8836629833,-91369.305,-81652.59,-34106.69,5066.4062,-33485.434,14009.521,8175.1304,73288.086
1311498.8876630024,-91349.734,-81657.96,-34115.113,5057.9834,-33494.06,14013.957,8183.635,73327.234
1311498.8916630214,-91348.92,-81661.42,-34112.43,5056.234,-33495.523,14017.05,8181.0713,73338.3
1311498.8956630405,-91366.62,-81656.13,-34101.36,5064.25,-33485.35,14014.526,8177.043,73306.195
1311498.8996630595,-91375.086,-81650.11,-34102.54,5071.0044,-33472.574,14009.521,8175.904,73275.8
1311498.9036630786,-91367.555,-81651.62,-34103.355,5067.8306,-33480.875,14010.946,8177.4907,73316.695
1311498.9076630976,-91354.62,-81655.36,-34103.56,5064.453,-33490.152,14012.939,8179.24,73344.766
1311498.9116631167,-91343.06,-81649.62,-34107.098,5062.0933,-33492.84,14016.398,8184.245,73357.79
1311498.9156631357,-91353.64,-81651.05,-34107.91,5067.993,-33479.86,14013.916,8178.5894,73317.016
1311498.9196631548,-91381.15,-81656.86,-34104.29,5073.4053,-33472.574,14012.289,8178.5894,73278.57
1311498.9236631738,-91379.07,-81659.586,-34107.383,5068.1562,-33483.562,14015.3,8186.076,73299.52
1311498.9276631929,-91356.41,-81660.445,-34107.22,5060.791,-33493.29,14017.782,8185.6694,73335.62
1311498.931663212,-91348.96,-81658.734,-34111.004,5058.4717,-33496.746,14018.026,8181.478,73360.84
1311498.935663231,-91367.84,-81659.79,-34109.133,5064.9414,-33483.316,14011.679,8169.19,73309.086
1311498.93966325,-91402.06,-81669.4,-34107.18,5070.964,-33470.258,14005.615,8162.6387,73260.375
1311498.943663269,-91399.78,-81673.71,-34109.742,5064.9824,-33487.43,14007.446,8168.498,73287.27
1311498.947663288,-91368.53,-81664.15,-34108.4,5062.297,-33494.71,14008.261,8170.1255,73330.41
1311498.9516633071,-91349.94,-81662.36,-34116.78,5059.2856,-33494.508,14011.557,8175.4966,73336.71
1311498.9556633262,-91362.8,-81660.36,-34111.734,5064.779,-33484.215,14008.139,8168.0503,73282.23
1311498.9596633452,-91389.77,-81667.24,-34106.16,5069.0107,-33476.2,14005.819,8162.9644,73246.26
1311498.9636633643,-91389.734,-81668.055,-34112.55,5066.976,-33482.625,14007.162,8160.9297,73279.13
1311498.9676633833,-91376.586,-81669.27,-34117.88,5061.076,-33489.258,14007.69,8160.3193,73316.49
1311498.9716634024,-91364.51,-81672.37,-34126.426,5055.786,-33486.656,14009.115,8163.371,73338.09
1311498.9756634214,-91378.055,-81668.78,-34123.74,5060.3438,-33488.2,14009.5625,8161.052,73303.55
1311498.9796634405,-91398.44,-81674.28,-34114.46,5067.993,-33485.477,14008.789,8162.2725,73268.555
1311498.9836634595,-91394.45,-81683.8,-34117.027,5062.7036,-33491.902,14008.749,8167.318,73292.03
1311498.9876634788,-91371.016,-81680.95,-34119.426,5055.8677,-33497.926,14010.051,8167.562,73328.25
1311498.9916634979,-91357.914,-81682.09,-34119.63,5053.2637,-33505.7,14012.248,8167.033,73331.016
1311498.995663517,-91379.16,-81679.65,-34112.508,5061.7676,-33492.35,14007.324,8153.646,73281.45
1311498.999663536,-91420.49,-81683.35,-34120.605,5069.702,-33475.79,14005.859,8147.7866,73243.66
1311499.003663555,-91415.49,-81682.78,-34119.59,5066.4473,-33483.156,14009.929,8154.989,73282.8
1311499.007663574,-91386.805,-81681.766,-34117.23,5061.2793,-33489.746,14009.97,8159.7495,73324.51
1311499.0116635931,-91375.77,-81682.3,-34124.715,5056.2744,-33500.734,14008.749,8159.3833,73339.84
1311499.0156636122,-91384.93,-81675.26,-34113.812,5064.209,-33491.863,14004.272,8148.3564,73305.38
1311499.0196636312,-91413.414,-81679.0,-34103.355,5072.551,-33482.75,14002.441,8144.2876,73253.54
1311499.0236636503,-91405.03,-81678.76,-34109.418,5070.5566,-33488.527,14007.446,8153.4834,73274.74
1311499.0276636693,-91382.086,-81673.016,-34117.473,5063.558,-33491.58,14009.44,8158.692,73332.03
1311499.0316636884,-91368.734,-81674.484,-34117.027,5060.0996,-33490.64,14011.271,8160.3193,73346.93
1311499.0356637074,-91379.03,-81671.67,-34113.12,5070.0684,-33474.12,14009.766,8158.57,73308.11
1311499.0396637265,-91400.234,-81671.15,-34108.24,5078.044,-33466.84,14009.115,8155.8433,73269.695
1311499.0436637455,-91404.016,-81684.77,-34109.254,5071.33,-33480.715,14010.01,8155.152,73286.46
1311499.0476637646,-91386.72,-81690.96,-34113.73,5061.361,-33496.582,14009.97,8159.7495,73324.14
1311499.0516637836,-91375.49,-81698.164,-34113.85,5059.9775,-33497.234,14009.807,8161.418,73344.12
1311499.0556638027,-91378.22,-81686.52,-34107.707,5070.964,-33481.73,14006.511,8156.047,73310.55
1311499.0596638217,-91400.76,-81680.99,-34104.574,5078.3286,-33469.2,14005.615,8154.6226,73270.305
1311499.0636638408,-91395.914,-81679.37,-34110.066,5072.3877,-33475.668,14009.848,8158.2847,73291.875
1311499.0676638598,-91371.625,-81668.7,-34112.71,5067.1797,-33490.562,14016.235,8167.806,73331.586
1311499.0716638789,-91359.13,-81666.71,-34109.66,5065.4297,-33490.97,14019.206,8167.1553,73358.32
1311499.075663898,-91372.68,-81674.484,-34099.45,5071.33,-33482.91,14015.991,8159.953,73316.94
1311499.079663917,-91402.06,-81678.71,-34099.61,5078.2065,-33476.035,14012.899,8157.308,73268.88
1311499.083663936,-91403.69,-81686.69,-34105.67,5072.795,-33484.457,14013.957,8162.9644,73291.75
1311499.087663955,-91377.56,-81675.21,-34110.965,5067.4644,-33492.066,14016.398,8169.8813,73330.04
1311499.091663974,-91360.31,-81663.86,-34110.68,5067.2607,-33483.805,14015.707,8165.2427,73345.625
1311499.0956639932,-91368.53,-81661.945,-34110.477,5072.1436,-33475.87,14012.817,8160.238,73307.74
1311499.0996640122,-91389.81,-81672.445,-34103.355,5077.1895,-33473.145,14010.173,8157.7964,73271.24
1311499.1036640313,-91389.2,-81675.336,-34109.457,5072.754,-33482.26,14010.742,8161.418,73298.586
1311499.1076640503,-91373.945,-81673.95,-34118.492,5066.3657,-33491.336,14009.115,8160.482,73325.805
1311499.1116640694,-91369.39,-81682.09,-34120.117,5062.9883,-33499.594,14010.376,8153.687,73333.78
1311499.1156640884,-91387.21,-81687.7,-34116.05,5067.4644,-33492.555,14006.511,8144.898,73279.42
1311499.1196641074,-91411.18,-81688.36,-34113.406,5074.7886,-33478.844,14005.046,8144.857,73222.21
1311499.1236641265,-91403.12,-81685.23,-34116.863,5072.673,-33485.555,14008.342,8156.6978,73240.36
1311499.1276641455,-91376.1,-81673.26,-34124.188,5064.2905,-33490.97,14010.702,8162.435,73280.31
1311499.1316641646,-91357.266,-81666.83,-34120.65,5063.7617,-33493.41,14010.051,8156.5757,73297.24
1311499.1356641836,-91372.36,-81671.92,-34114.746,5070.801,-33485.84,14005.778,8145.5083,73226.36
1311499.1396642027,-91400.19,-81680.75,-34112.754,5077.881,-33477.336,14001.425,8140.1777,73180.26
1311499.1436642217,-91401.086,-81690.19,-34115.074,5074.056,-33486.613,14004.3545,8145.915,73204.71
1311499.1476642408,-91385.09,-81687.87,-34119.754,5067.1797,-33498.66,14009.766,8150.9604,73238.98
1311499.1516642598,-91370.484,-81680.79,-34119.67,5064.575,-33498.09,14011.475,8148.56,73252.52
1311499.155664279,-91383.586,-81673.83,-34119.1,5070.5566,-33483.562,14010.864,8147.2983,73220.46
1311499.159664298,-91409.06,-81679.164,-34115.074,5075.887,-33485.758,14008.667,8148.519,73179.98
1311499.163664317,-91399.82,-81680.18,-34109.418,5075.0327,-33489.83,14010.254,8149.333,73199.586
1311499.167664336,-91374.35,-81672.33,-34108.195,5070.923,-33494.71,14011.679,8150.8794,73241.46
1311499.171664355,-91368.29,-81672.734,-34114.586,5065.2266,-33504.312,14014.567,8155.152,73260.3
1311499.1756643741,-91379.6,-81665.445,-34114.707,5073.7305,-33487.43,14012.817,8149.333,73208.17
1311499.1796643932,-91399.7,-81661.7,-34118.125,5081.014,-33471.316,14012.045,8146.688,73160.484
1311499.1836644122,-91402.59,-81669.555,-34117.72,5075.8467,-33481.527,14016.887,8151.612,73188.234
1311499.1876644313,-91383.914,-81670.375,-34116.7,5071.411,-33491.375,14019.491,8154.826,73228.68
1311499.1916644503,-91363.08,-81668.13,-34111.207,5071.1265,-33494.426,14021.281,8154.8667,73247.16
1311499.1956644694,-91389.28,-81688.64,-34108.562,5073.69,-33488.08,14019.369,8149.984,73203.45
1311499.1996644884,-91416.1,-81692.55,-34104.656,5079.509,-33478.152,14013.062,8146.1187,73162.36
1311499.2036645075,-91382.29,-81658.41,-34102.176,5081.706,-33474.324,14011.76,8148.56,73184.695
1311499.2076645265,-91357.83,-81653.484,-34114.3,5075.887,-33478.76,14016.968,8160.6855,73221.195
1311499.2116645456,-91350.79,-81658.9,-34118.207,5070.7197,-33483.36,14018.107,8162.191,73236.21
1311499.2156645646,-91378.42,-81660.73,-34114.504,5077.6777,-33472.656,14018.718,8154.948,73194.3
1311499.2196645837,-91403.04,-81667.65,-34109.375,5082.4385,-33468.793,14017.09,8153.2393,73149.82
1311499.2236646027,-91401.414,-81672.484,-34110.637,5075.643,-33482.504,14019.531,8160.279,73177.05
1311499.2276646218,-91382.2,-81675.78,-34114.383,5067.7085,-33493.004,14020.671,8160.5635,73213.42
1311499.2316646408,-91364.38,-81669.15,-34118.652,5067.993,-33491.21,14017.253,8150.391,73229.05
1311499.2356646599,-91377.73,-81661.74,-34121.34,5075.8467,-33474.0,14012.004,8148.194,73184.86
1311499.239664679,-91396.445,-81659.586,-34118.207,5084.1064,-33461.793,14009.44,8143.84,73138.305
1311499.243664698,-91389.734,-81664.72,-34116.66,5079.3867,-33477.54,14011.801,8147.4204,73166.38
1311499.247664717,-91379.766,-81672.53,-34123.008,5067.993,-33490.36,14013.835,8154.826,73200.65
1311499.251664736,-91366.414,-81670.45,-34126.426,5063.8022,-33492.434,14013.021,8152.9546,73219.0
1311499.2556647551,-91377.65,-81671.96,-34116.902,5071.167,-33487.266,14011.679,8148.316,73178.39
1311499.2596647742,-91406.78,-81681.69,-34111.94,5076.213,-33487.1,14012.899,8148.9263,73136.4
1311499.2636647932,-91403.69,-81682.09,-34119.426,5071.533,-33491.902,14014.812,8150.472,73160.81
1311499.2676648123,-91390.67,-81687.625,-34128.258,5066.854,-33502.2,14018.474,8154.989,73190.266
1311499.2716648313,-91378.75,-81687.055,-34131.754,5063.2734,-33504.598,14021.566,8155.233,73210.77
1311499.2756648504,-91387.62,-81685.305,-34131.88,5068.6035,-33491.496,14017.863,8149.9434,73172.85
1311499.2796648694,-91409.95,-81690.02,-34128.5,5074.992,-33477.906,14015.015,8147.3394,73125.77
1311499.2836648885,-91410.73,-81691.53,-34126.63,5072.754,-33488.85,14015.951,8148.316,73151.77
1311499.2876649075,-91391.69,-81684.0,-34125.0,5071.1265,-33494.06,14013.184,8145.7114,73193.89
1311499.2916649266,-91376.38,-81677.62,-34125.285,5068.8887,-33498.496,14016.357,8148.438,73210.29
1311499.2956649456,-91392.17,-81677.82,-34121.95,5073.0796,-33491.66,14017.05,8143.718,73162.88
1311499.2996649647,-91418.42,-81684.125,-34120.117,5077.0674,-33488.28,14014.364,8142.1714,73122.07
1311499.3036649837,-91414.06,-81686.445,-34123.496,5073.446,-33493.734,14017.05,8147.1763,73142.26
1311499.3076650028,-91386.84,-81685.63,-34130.008,5067.2607,-33500.203,14019.531,8150.147,73183.11
1311499.3116650218,-91370.89,-81679.12,-34126.465,5065.4297,-33504.52,14021.973,8154.0938,73200.36
1311499.3156650409,-91388.23,-81676.88,-34118.043,5074.4224,-33488.363,14018.596,8145.915,73156.25
1311499.31966506,-91408.164,-81679.37,-34111.37,5083.5776,-33469.688,14015.259,8144.45,73118.77
1311499.323665079,-91400.72,-81678.96,-34114.016,5081.177,-33481.203,14018.148,8153.321,73153.81
1311499.327665098,-91380.29,-81679.24,-34115.562,5074.341,-33494.305,14019.003,8156.7793,73191.57
1311499.331665117,-91368.37,-81673.46,-34115.074,5069.0513,-33500.285,14018.921,8158.9766,73204.67
1311499.335665136,-91377.81,-81667.16,-34113.73,5077.4336,-33486.613,14017.863,8152.6694,73162.27
1311499.3396651552,-91402.39,-81673.18,-34110.883,5084.554,-33474.938,14015.625,8141.6426,73117.27
1311499.3436651742,-91405.07,-81680.42,-34114.543,5078.491,-33494.426,14022.624,8153.2393,73146.89
1311499.3476651933,-91392.78,-81677.29,-34120.28,5071.533,-33501.18,14023.479,8154.0938,73187.586
1311499.3516652123,-91374.23,-81670.49,-34116.09,5073.934,-33493.33,14020.346,8153.402,73206.625
1311499.3556652314,-91380.45,-81661.54,-34113.77,5082.2754,-33478.395,14018.311,8153.2393,73169.44
1311499.3596652504,-91399.91,-81657.516,-34105.875,5088.786,-33467.367,14015.463,8148.316,73123.3
1311499.3636652695,-91380.984,-81652.18,-34109.254,5084.3506,-33475.26,14018.799,8155.03,73157.92
1311499.3676652885,-91352.336,-81644.164,-34111.695,5079.9155,-33486.41,14021.362,8158.3257,73188.31
1311499.3716653076,-91332.36,-81636.555,-34106.69,5077.5557,-33491.78,14021.606,8157.186,73194.13
1311499.3756653266,-91321.62,-81610.88,-34094.24,5090.6577,-33477.742,14019.247,8147.3394,73152.8
1311499.3796653457,-91330.98,-81595.055,-34081.504,5100.5454,-33469.523,14015.259,8142.619,73104.78
1311499.3836653647,-91306.97,-81574.71,-34080.973,5101.888,-33473.594,14015.137,8141.195,73124.96
1311499.3876653838,-91270.8,-81558.39,-34079.062,5096.924,-33482.83,14013.51,8133.7896,73158.734
1311499.3916654028,-91245.85,-81544.805,-34083.008,5095.134,-33480.67,14014.7705,8137.5737,73172.41
1311499.3956654218,-91228.68,-81509.16,-34069.582,5108.9277,-33460.33,14011.557,8131.633,73129.27
1311499.399665441,-91216.35,-81467.94,-34055.22,5122.8027,-33442.344,14006.552,8126.2617,73079.43
1311499.40366546,-91194.625,-81452.6,-34052.41,5122.03,-33446.86,14005.9,8128.5405,73096.84
1311499.407665479,-91151.9,-81431.6,-34056.684,5116.252,-33457.684,14006.186,8131.307,73139.164
1311499.411665498,-91121.586,-81414.266,-34046.633,5116.455,-33460.652,14004.436,8125.0005,73151.86
1311499.415665517,-91124.92,-81404.3,-34037.273,5125.8955,-33449.953,14000.773,8112.3457,73104.49
1311499.4196655361,-91142.336,-81402.914,-34033.0,5132.1616,-33437.5,13998.454,8106.934,73056.805
1311499.4236655552,-91153.81,-81422.98,-34038.7,5125.041,-33446.74,14003.906,8115.723,73079.19
1311499.4276655742,-91136.516,-81420.58,-34040.977,5118.5713,-33457.6,14007.731,8120.321,73122.36
1311499.4316655933,-91118.94,-81418.016,-34046.67,5115.6006,-33466.188,14007.65,8120.1177,73143.84
1311499.4356656123,-91148.44,-81445.11,-34042.277,5119.548,-33461.062,14006.714,8116.903,73101.93
1311499.4396656314,-91185.14,-81456.38,-34039.55,5124.9595,-33452.555,14006.592,8114.8687,73060.34
1311499.4436656504,-91191.2,-81474.98,-34046.67,5118.5713,-33466.066,14010.214,8122.518,73085.086
1311499.4476656695,-91187.016,-81493.164,-34054.04,5110.881,-33481.61,14014.608,8127.401,73126.875
1311499.4516656885,-91185.39,-81494.1,-34058.88,5108.6836,-33478.027,14016.765,8129.273,73152.836
1311499.4556657076,-91211.71,-81510.87,-34056.723,5111.4097,-33472.086,14014.934,8128.6626,73113.53
1311499.4596657266,-91250.45,-81530.97,-34052.043,5114.665,-33469.08,14013.51,8125.692,73066.0
1311499.4636657457,-91259.24,-81545.78,-34060.1,5108.114,-33479.777,14013.51,8121.7046,73085.53
1311499.4676657647,-91238.77,-81549.234,-34071.25,5100.952,-33490.36,14015.341,8126.4653,73130.01
1311499.4716657838,-91227.13,-81548.26,-34074.06,5098.5923,-33489.664,14015.625,8128.6216,73148.93
1311499.4756658028,-91252.2,-81554.12,-34071.086,5104.7363,-33476.727,14013.876,8125.733,73112.67
1311499.479665822,-91284.23,-81565.48,-34073.324,5111.8574,-33456.586,14012.492,8126.5874,73076.46
1311499.483665841,-91286.79,-81577.516,-34079.145,5106.0386,-33470.95,14017.294,8139.5674,73101.69
1311499.48766586,-91262.945,-81578.17,-34080.08,5099.6504,-33486.004,14019.409,8142.131,73143.88
1311499.491665879,-91263.06,-81590.25,-34083.58,5093.75,-33493.41,14021.281,8138.6724,73152.38
1311499.495665898,-91284.51,-81593.305,-34078.86,5101.7256,-33482.668,14016.724,8120.6465,73102.87
1311499.4996659171,-91314.414,-81599.57,-34082.195,5108.1543,-33475.79,14013.021,8113.526,73061.28
1311499.5036659362,-91325.73,-81610.19,-34088.176,5103.3125,-33483.36,14018.637,8125.2446,73091.11
1311499.5076659552,-91312.38,-81616.09,-34089.438,5096.924,-33489.79,14019.816,8130.86,73136.555
1311499.5116659743,-91295.984,-81613.164,-34090.535,5096.151,-33488.77,14020.468,8135.9053,73162.72
1311499.5156659933,-91313.11,-81618.695,-34088.176,5100.952,-33479.574,14019.084,8132.8535,73127.41
1311499.5196660124,-91342.66,-81627.16,-34087.402,5105.306,-33474.855,14019.857,8133.464,73090.984
1311499.5236660314,-91336.02,-81629.516,-34095.46,5099.569,-33484.99,14021.444,8141.0728,73122.48
1311499.5276660505,-91324.1,-81634.12,-34098.39,5090.9424,-33497.76,14022.095,8143.4736,73155.16
1311499.5316660695,-91315.48,-81634.56,-34099.406,5088.42,-33497.965,14023.682,8144.613,73166.42
1311499.5356660886,-91333.17,-81639.24,-34094.44,5094.6455,-33484.703,14023.234,8140.8286,73125.94
1311499.5396661076,-91369.67,-81648.73,-34090.66,5102.661,-33474.855,14023.397,8139.486,73081.664
1311499.5436661267,-91366.09,-81649.54,-34090.457,5100.0977,-33488.812,14025.798,8148.9263,73120.0
1311499.5476661457,-91343.914,-81652.1,-34097.453,5093.9536,-33498.7,14028.728,8159.831,73163.01
1311499.5516661648,-91333.62,-81653.04,-34100.586,5091.797,-33497.76,14027.629,8159.017,73181.36
1311499.5556661838,-91351.445,-81664.875,-34099.69,5095.1743,-33483.035,14024.048,8150.391,73134.28
1311499.5596662029,-91362.76,-81663.17,-34093.914,5102.3765,-33479.86,14020.549,8147.6646,73096.84
1311499.563666222,-91359.87,-81663.29,-34094.24,5099.569,-33491.17,14024.211,8152.9136,73124.516
1311499.567666241,-91348.8,-81668.375,-34102.457,5093.0176,-33501.02,14028.564,8156.047,73165.65
1311499.57166626,-91342.2,-81669.84,-34102.99,5091.3496,-33500.367,14028.564,8155.152,73182.82
1311499.575666279,-91357.18,-81667.32,-34099.61,5099.691,-33484.336,14026.001,8150.147,73150.27
1311499.579666298,-91382.57,-81677.086,-34096.316,5105.306,-33476.688,14025.065,8148.153,73106.65
1311499.5836663172,-91385.3,-81683.555,-34105.062,5098.0225,-33489.504,14026.733,8152.344,73130.336
1311499.5876663362,-91366.21,-81683.07,-34104.41,5091.919,-33503.99,14028.076,8145.671,73173.79
1311499.5916663553,-91343.266,-81670.58,-34112.43,5091.675,-33497.477,14027.222,8144.3687,73191.695
1311499.5956663743,-91357.1,-81669.44,-34102.215,5098.4297,-33489.746,14024.821,8134.8066,73135.5
1311499.5996663934,-91384.16,-81677.94,-34095.34,5103.6787,-33481.934,14023.682,8132.4873,73083.82
1311499.6036664124,-91378.42,-81681.03,-34100.832,5100.749,-33486.086,14025.024,8139.323,73116.414
1311499.6076664315,-91361.984,-81682.17,-34105.67,5094.93,-33495.523,14027.06,8143.5957,73155.27
1311499.6116664505,-91352.016,-81686.69,-34105.55,5092.285,-33498.496,14025.554,8139.8115,73167.4
1311499.6156664696,-91374.8,-81690.31,-34100.26,5099.447,-33487.184,14021.322,8131.226,73121.75
1311499.6196664886,-91406.21,-81696.125,-34100.465,5104.6143,-33481.57,14020.346,8130.941,73075.484
1311499.6236665077,-91414.59,-81708.21,-34106.04,5098.348,-33495.445,14020.834,8131.6733,73093.18
1311499.6276665267,-91399.21,-81715.74,-34115.438,5092.6514,-33501.465,14022.095,8130.0054,73133.79
1311499.6316665458,-91387.086,-81715.414,-34113.973,5087.9316,-33504.11,14021.322,8131.877,73154.13
1311499.6356665648,-91405.36,-81713.83,-34113.934,5092.489,-33490.074,14018.718,8127.686,73115.69
1311499.6396665839,-91428.34,-81713.83,-34108.523,5100.871,-33486.492,14017.904,8126.994,73078.414
1311499.643666603,-91422.77,-81711.63,-34109.17,5097.453,-33495.117,14021.851,8132.813,73103.555
1311499.647666622,-91398.234,-81706.1,-34110.312,5092.0005,-33503.5,14023.642,8137.126,73139.69
1311499.651666641,-91375.695,-81700.445,-34111.004,5088.908,-33502.688,14021.484,8134.074,73161.83
1311499.65566666,-91390.47,-81701.83,-34107.707,5095.6626,-33493.98,14019.409,8126.2617,73121.5
1311499.659666679,-91422.734,-81712.164,-34104.492,5104.045,-33483.562,14017.741,8118.9375,73076.625
1311499.6636666982,-91417.97,-81712.2,-34104.086,5101.4404,-33491.09,14020.63,8123.698,73098.67
1311499.6676667172,-91392.7,-81705.04,-34112.754,5093.9536,-33502.156,14022.055,8131.226,73143.64
1311499.6716667362,-91379.84,-81701.01,-34110.35,5089.966,-33507.242,14025.798,8134.1963,73164.19
1311499.6756667553,-91380.82,-81696.45,-34105.023,5097.6157,-33493.777,14023.397,8125.3257,73126.06
1311499.6796667743,-91409.14,-81701.22,-34103.027,5104.2075,-33483.035,14023.886,8128.825,73078.58
1311499.6836667934,-91407.72,-81698.61,-34104.492,5101.6846,-33489.87,14026.327,8131.104,73110.07
1311499.6876668124,-91390.51,-81699.266,-34108.113,5096.802,-33495.28,14026.611,8128.988,73147.3
1311499.6916668315,-91378.625,-81689.414,-34110.395,5094.564,-33499.473,14027.751,8133.9927,73172.484
1311499.6956668505,-91395.14,-81689.336,-34103.19,5099.8535,-33491.09,14026.815,8136.6377,73139.125
1311499.6996668696,-91416.42,-81686.32,-34095.418,5109.294,-33478.72,14028.28,8140.3813,73103.195
1311499.7036668886,-91406.86,-81683.516,-34098.715,5104.289,-33485.68,14028.972,8140.2183,73116.62
1311499.7076669077,-91384.04,-81686.0,-34099.855,5098.552,-33495.85,14027.182,8132.447,73153.04
1311499.7116669267,-91368.49,-81680.75,-34105.47,5097.412,-33497.273,14027.954,8132.772,73178.19
1311499.7156669458,-91381.96,-81684.41,-34100.63,5104.004,-33484.457,14026.408,8128.703,73137.53
1311499.7196669648,-91403.65,-81687.3,-34094.605,5109.416,-33475.832,14024.089,8124.4307,73097.91
1311499.723666984,-91395.67,-81690.88,-34089.56,5108.6836,-33481.69,14026.449,8129.4355,73133.55
1311499.727667003,-91381.266,-81690.555,-34098.55,5101.5625,-33487.47,14028.728,8133.057,73167.65
1311499.731667022,-91358.69,-81679.85,-34103.23,5100.627,-33489.42,14026.286,8130.4526,73171.43
1311499.735667041,-91377.445,-81683.68,-34095.703,5108.1953,-33479.37,14025.229,8122.7217,73131.59
1311499.73966706,-91410.36,-81701.5,-34097.94,5112.142,-33477.336,14026.611,8123.332,73079.76
1311499.7436670791,-91407.63,-81699.99,-34098.594,5105.632,-33486.207,14033.936,8133.3013,73108.03
1311499.7476670982,-91371.42,-81681.195,-34100.223,5102.173,-33488.85,14036.825,8136.0273,73151.77
1311499.7516671172,-91354.17,-81675.46,-34096.723,5099.8535,-33491.902,14036.174,8130.046,73171.96
1311499.7556671363,-91377.24,-81683.92,-34095.906,5103.801,-33482.18,14033.529,8125.041,73131.15
1311499.7596671553,-91393.84,-81679.94,-34091.84,5114.502,-33466.51,14031.169,8123.0063,73089.766
1311499.7636671744,-91381.11,-81672.445,-34092.0,5110.6367,-33477.742,14032.431,8126.5874,73108.56
1311499.7676671934,-91363.57,-81665.33,-34091.105,5106.0386,-33486.004,14033.773,8126.75,73157.15
1311499.7716672125,-91355.555,-81666.625,-34095.5,5105.1436,-33486.41,14034.14,8128.4995,73171.63
1311499.7756672318,-91371.22,-81674.32,-34091.434,5111.5723,-33475.914,14030.803,8124.3086,73123.3
1311499.7796672508,-91396.85,-81678.51,-34090.09,5116.5366,-33468.59,14033.529,8131.348,73091.39
1311499.7836672699,-91388.266,-81675.46,-34090.414,5111.898,-33479.29,14038.412,8136.678,73122.16
1311499.787667289,-91367.35,-81674.64,-34094.77,5104.004,-33491.17,14038.737,8138.6724,73158.24
1311499.791667308,-91345.46,-81671.96,-34092.125,5104.4517,-33493.734,14036.174,8132.4873,73179.484
1311499.795667327,-91357.875,-81670.49,-34084.92,5111.6133,-33479.332,14032.959,8128.0522,73145.1
1311499.799667346,-91381.19,-81678.1,-34084.11,5115.8447,-33472.293,14032.431,8130.9004,73104.49
1311499.803667365,-91377.77,-81678.59,-34091.758,5112.468,-33476.277,14032.1045,8132.4873,73118.57
1311499.8076673842,-91369.55,-81678.23,-34093.1,5105.306,-33495.973,14036.133,8140.3403,73154.016
1311499.8116674032,-91356.98,-81676.64,-34094.035,5106.4453,-33490.074,14039.714,8144.654,73180.7
1311499.8156674223,-91376.8,-81679.32,-34090.496,5112.1826,-33478.19,14037.924,8140.3,73134.65
1311499.8196674413,-91393.03,-81682.82,-34081.137,5118.164,-33478.477,14033.325,8127.686,73088.625
1311499.8236674604,-91385.91,-81688.11,-34091.27,5113.2812,-33488.406,14035.4,8131.755,73117.23
1311499.8276674794,-91372.44,-81687.83,-34094.727,5106.9746,-33497.152,14036.703,8135.946,73146.61
1311499.8316674985,-91369.266,-81684.05,-34096.52,5105.632,-33499.023,14038.208,8137.777,73157.11
1311499.8356675175,-91382.125,-81683.19,-34091.758,5113.037,-33482.22,14033.732,8125.855,73126.586
1311499.8396675366,-91399.414,-81682.375,-34087.08,5121.7856,-33468.668,14033.244,8127.32,73087.93
1311499.8436675556,-91391.234,-81684.695,-34088.707,5116.618,-33480.31,14034.546,8126.5464,73105.39
1311499.8476675746,-91370.2,-81683.02,-34094.81,5109.05,-33490.562,14036.337,8132.1616,73150.07
1311499.8516675937,-91353.766,-81685.55,-34093.914,5108.2764,-33493.41,14039.185,8135.295,73161.22
1311499.8556676127,-91365.44,-81685.06,-34092.855,5113.4443,-33485.27,14035.563,8126.4653,73127.08
1311499.8596676318,-91394.086,-81687.75,-34089.4,5121.501,-33475.426,14033.163,8117.188,73064.82
1311499.8636676508,-91397.38,-81692.47,-34094.117,5115.9263,-33484.254,14034.058,8122.274,73091.27
1311499.86766767,-91375.86,-81691.49,-34099.203,5106.8115,-33497.684,14034.384,8123.8203,73137.086
1311499.871667689,-91362.875,-81691.37,-34101.562,5105.754,-33496.38,14035.849,8124.0645,73157.06
1311499.875667708,-91366.945,-81682.375,-34100.3,5114.258,-33482.22,14031.86,8117.188,73121.18
1311499.879667727,-91396.65,-81689.414,-34094.89,5119.1,-33472.94,14030.437,8111.6133,73073.695
1311499.883667746,-91389.445,-81684.0,-34096.926,5114.7056,-33484.54,14031.332,8112.9155,73091.35
1311499.8876677651,-91374.48,-81679.52,-34102.457,5108.358,-33494.875,14033.651,8120.0767,73130.414
1311499.8916677842,-91362.47,-81679.89,-34104.25,5105.9165,-33490.766,14034.18,8122.315,73169.27
1311499.8956678032,-91380.29,-81684.57,-34095.746,5112.3457,-33481.406,14033.041,8120.85,73131.02
1311499.8996678223,-91398.52,-81684.41,-34092.285,5121.4194,-33470.785,14030.355,8116.3335,73085.82
1311499.9036678413,-91384.4,-81683.92,-34095.746,5118.734,-33480.51,14032.431,8120.85,73113.89
1311499.9076678604,-91364.18,-81685.75,-34098.96,5111.9795,-33494.63,14034.668,8125.57,73154.3
1311499.9116678794,-91359.54,-81688.11,-34099.652,5106.9746,-33496.95,14033.977,8121.501,73159.914
1311499.9156678985,-91375.05,-81690.35,-34093.996,5113.078,-33485.92,14031.698,8115.357,73118.25
1311499.9196679175,-91393.15,-81691.24,-34095.094,5119.67,-33473.758,14030.111,8113.77,73080.65
1311499.9236679366,-91380.74,-81685.47,-34096.03,5117.3096,-33483.645,14033.122,8120.931,73108.766
1311499.9276679556,-91346.93,-81679.32,-34101.402,5111.8164,-33489.707,14036.418,8127.808,73150.19
1311499.9316679747,-91333.78,-81676.07,-34099.61,5110.9214,-33490.97,14037.639,8129.11,73169.64
1311499.9356679937,-91348.15,-81673.71,-34093.875,5120.4834,-33474.285,14032.959,8120.6465,73131.47
1311499.9396680128,-91383.75,-81683.84,-34092.734,5126.343,-33462.85,14032.512,8117.839,73088.99
1311499.9436680318,-91376.1,-81682.25,-34093.344,5122.5586,-33479.29,14035.156,8122.559,73116.414
1311499.9476680509,-91355.02,-81676.59,-34095.62,5116.455,-33488.04,14039.145,8126.18,73157.39
1311499.95166807,-91340.13,-81667.56,-34099.246,5115.4785,-33485.68,14041.83,8128.581,73175.01
1311499.955668089,-91348.96,-81661.83,-34097.21,5122.518,-33474.69,14039.755,8128.5405,73142.01
1311499.959668108,-91377.04,-81670.695,-34090.535,5127.767,-33470.664,14037.964,8126.18,73104.53
1311499.963668127,-91377.28,-81678.06,-34088.22,5122.8027,-33481.04,14038.981,8129.598,73130.25
1311499.9676681461,-91358.69,-81676.64,-34098.188,5117.147,-33485.965,14041.748,8134.603,73170.125
1311499.9716681652,-91351.28,-81686.484,-34099.57,5113.729,-33490.195,14042.807,8135.3354,73178.02
1311499.9756681842,-91357.266,-81678.19,-34100.383,5120.4023,-33477.54,14037.964,8125.3257,73128.5
1311499.9796682033,-91390.75,-81683.555,-34096.76,5127.4414,-33467.734,14035.522,8117.147,73081.016
1311499.9836682223,-91384.52,-81683.516,-34099.773,5122.8438,-33476.44,14040.609,8127.0347,73114.625
1311499.9876682414,-91356.695,-81678.96,-34101.523,5115.8857,-33489.055,14044.597,8130.941,73152.67
1311499.9916682604,-91338.95,-81680.22,-34099.406,5112.793,-33495.523,14044.353,8129.4355,73167.93
1311499.9956682795,-91363.65,-81685.67,-34098.758,5115.804,-33489.016,14040.365,8121.9893,73116.87
1311499.9996682985,-91390.75,-81693.93,-34099.57,5123.413,-33478.355,14033.8545,8111.6133,73076.945
1311500.0036683176,-91387.66,-81700.08,-34097.7,5121.0938,-33486.41,14035.278,8120.1177,73103.35
1311500.0076683366,-91362.59,-81687.87,-34098.062,5117.92,-33496.176,14035.278,8123.0474,73139.04
1311500.0116683557,-91348.43,-81678.914,-34095.582,5116.0483,-33496.99,14033.732,8117.147,73156.375
1311500.0156683747,-91362.47,-81679.98,-34098.594,5121.501,-33489.22,14032.1045,8112.712,73117.02
1311500.0196683938,-91388.15,-81684.05,-34095.34,5127.075,-33479.047,14031.779,8112.3457,73080.164
1311500.0236684128,-91381.47,-81690.02,-34098.633,5122.396,-33486.207,14034.953,8115.601,73107.1
1311500.0276684319,-91364.71,-81697.47,-34109.703,5113.8916,-33499.51,14036.337,8117.025,73144.695
1311500.031668451,-91356.37,-81695.88,-34113.73,5109.294,-33504.152,14033.325,8110.6772,73153.04
1311500.03566847,-91368.37,-81691.77,-34107.098,5114.2173,-33498.82,14029.785,8100.9116,73103.35
1311500.039668489,-91399.7,-81699.71,-34100.992,5121.257,-33486.94,14028.687,8098.9585,73060.23
1311500.043668508,-91392.375,-81697.875,-34106.363,5118.856,-33494.71,14031.86,8106.7305,73101.04
1311500.047668527,-91368.82,-81698.29,-34107.3,5110.4736,-33506.96,14033.773,8117.31,73152.59
1311500.0516685462,-91355.23,-81702.35,-34107.22,5107.137,-33508.465,14034.587,8119.1,73170.375
1311500.0556685652,-91371.055,-81705.89,-34104.777,5113.607,-33498.375,14033.366,8114.9497,73129.31
1311500.0596685843,-91388.72,-81702.96,-34100.504,5120.6465,-33486.004,14033.325,8114.3804,73086.67
1311500.0636686033,-91384.16,-81706.99,-34098.023,5118.286,-33499.105,14036.337,8118.856,73110.234
1311500.0676686224,-91365.4,-81709.555,-34106.082,5112.956,-33502.89,14035.522,8117.7983,73145.875
1311500.0716686414,-91351.24,-81704.15,-34101.727,5114.787,-33499.51,14033.407,8116.0894,73168.83
1311500.0756686605,-91369.75,-81701.7,-34097.453,5121.6636,-33488.28,14027.466,8113.1597,73135.99
1311500.0796686795,-91390.67,-81699.79,-34092.285,5127.523,-33481.082,14024.984,8111.7354,73094.89
1311500.0836686986,-91385.055,-81697.06,-34096.52,5122.396,-33491.008,14030.762,8120.362,73122.6
1311500.0876687176,-91370.89,-81696.66,-34104.98,5113.4443,-33507.652,14034.668,8123.698,73166.67
1311500.0916687367,-91368.37,-81703.62,-34107.707,5109.782,-33509.93,14033.041,8118.1235,73171.875
1311500.0956687557,-91392.58,-81709.234,-34100.79,5115.7227,-33496.625,14029.379,8104.5737,73117.19
1311500.0996687748,-91411.625,-81707.73,-34101.277,5123.657,-33480.594,14026.286,8101.156,73081.75
1311500.1036687938,-91397.55,-81700.97,-34104.574,5121.135,-33493.613,14028.769,8110.8403,73119.95
1311500.1076688129,-91382.49,-81703.94,-34103.273,5114.177,-33502.973,14033.163,8122.7217,73168.09
1311500.111668832,-91367.35,-81703.9,-34107.547,5112.386,-33500.855,14032.837,8121.1753,73183.31
1311500.115668851,-91374.07,-81703.375,-34098.55,5121.745,-33493.164,14030.559,8116.781,73146.41
1311500.11966887,-91399.82,-81707.44,-34087.934,5128.54,-33485.72,14033.203,8120.565,73105.06
1311500.123668889,-91396.85,-81706.625,-34098.348,5124.3896,-33487.387,14034.75,8119.4663,73129.16
1311500.127668908,-91366.87,-81696.125,-34098.473,5121.9077,-33490.6,14033.936,8121.1753,73179.65
1311500.1316689271,-91350.95,-81693.16,-34093.75,5120.2803,-33493.816,14036.581,8121.5825,73202.03
1311500.1356689462,-91371.09,-81687.26,-34089.152,5125.4883,-33482.953,14034.465,8119.8735,73157.48
1311500.1396689652,-91400.07,-81699.586,-34084.84,5129.354,-33475.426,14035.971,8121.379,73113.85
1311500.1436689843,-91393.31,-81702.68,-34088.46,5126.0986,-33484.863,14041.545,8127.767,73140.55
1311500.1476690033,-91376.63,-81704.35,-34091.105,5119.9546,-33501.63,14045.248,8128.825,73174.73
1311500.1516690224,-91364.99,-81709.234,-34088.055,5118.7744,-33501.668,14045.736,8122.8438,73179.77
1311500.1556690414,-91369.55,-81701.83,-34087.605,5130.046,-33482.42,14043.701,8118.0015,73146.734
1311500.1596690605,-91389.53,-81701.54,-34079.875,5136.841,-33474.773,14042.5625,8116.496,73106.28
1311500.1636690795,-91381.88,-81702.84,-34086.67,5131.4697,-33484.5,14045.98,8126.5464,73135.13
1311500.1676690986,-91354.125,-81701.83,-34091.35,5125.163,-33494.957,14047.485,8131.8364,73176.516
1311500.1716691176,-91341.23,-81699.47,-34090.457,5122.8438,-33495.85,14048.788,8132.8535,73196.695
1311500.1756691367,-91362.875,-81708.91,-34087.363,5126.709,-33489.95,14045.858,8125.0815,73150.72
1311500.1796691557,-91395.59,-81714.73,-34086.02,5133.1787,-33482.504,14042.196,8117.9204,73105.23
1311500.1836691748,-91400.64,-81714.12,-34095.703,5129.232,-33485.477,14046.184,8123.902,73138.67
1311500.1876691938,-91381.59,-81709.03,-34100.426,5123.21,-33492.676,14046.631,8130.7783,73175.5
1311500.191669213,-91359.3,-81699.51,-34095.176,5123.413,-33495.65,14044.8,8128.093,73191.57
1311500.195669232,-91371.914,-81697.836,-34088.504,5130.8594,-33487.508,14044.189,8122.64,73156.62
1311500.199669251,-91397.38,-81705.28,-34083.21,5137.655,-33478.07,14042.888,8117.5947,73105.43
1311500.20366927,-91387.984,-81709.516,-34088.543,5133.789,-33483.727,14044.963,8120.8906,73127.69
1311500.207669289,-91360.44,-81706.586,-34092.773,5129.0283,-33488.08,14044.353,8115.113,73166.14
1311500.2116693081,-91352.7,-81706.87,-34100.016,5124.797,-33498.414,14047.974,8117.1064,73186.89
1311500.2156693272,-91375.2,-81708.46,-34097.13,5130.4526,-33488.77,14046.672,8112.5493,73152.95
1311500.2196693462,-91391.85,-81707.4,-34089.64,5138.143,-33479.086,14044.76,8114.5835,73112.836
1311500.2236693653,-91392.09,-81712.89,-34093.305,5131.592,-33488.812,14044.394,8119.1,73138.76
1311500.2276693843,-91374.27,-81716.76,-34099.49,5122.966,-33495.242,14043.091,8118.449,73172.164
1311500.2316694034,-91353.15,-81708.945,-34100.383,5121.582,-33497.195,14042.766,8118.449,73190.96
1311500.2356694224,-91360.92,-81699.875,-34095.582,5130.0864,-33485.84,14038.168,8106.934,73148.73
1311500.2396694415,-91397.26,-81708.87,-34095.703,5136.76,-33481.61,14039.551,8107.9917,73102.664
1311500.2436694605,-91394.01,-81714.234,-34102.01,5130.9814,-33493.695,14041.708,8110.7993,73119.55
1311500.2476694796,-91370.41,-81712.12,-34104.086,5127.401,-33506.105,14042.888,8109.9043,73158.0
1311500.2516694986,-91359.09,-81713.18,-34100.465,5124.9595,-33512.453,14045.98,8112.4272,73175.984
1311500.2556695177,-91364.625,-81702.555,-34100.223,5130.127,-33495.242,14041.789,8104.6147,73143.76
1311500.2596695367,-91389.04,-81707.56,-34098.27,5135.783,-33482.098,14037.476,8101.766,73097.91
1311500.2636695558,-91391.89,-81719.69,-34097.13,5131.592,-33491.902,14039.47,8108.6836,73120.04
1311500.2676695748,-91373.13,-81718.95,-34095.582,5127.0347,-33506.43,14044.922,8120.8906,73173.95
1311500.2716695939,-91354.984,-81716.39,-34097.535,5123.088,-33508.87,14043.213,8116.13,73192.79
1311500.275669613,-91363.81,-81714.68,-34091.35,5129.72,-33495.81,14038.615,8106.0796,73147.95
1311500.279669632,-91396.77,-81721.93,-34089.926,5136.3936,-33485.15,14039.267,8107.2593,73099.695
1311500.283669651,-91402.75,-81726.97,-34091.35,5133.708,-33491.742,14040.365,8113.9326,73126.266
1311500.28766967,-91375.98,-81728.48,-34097.656,5127.4414,-33500.125,14041.301,8117.066,73172.445
1311500.2916696891,-91361.375,-81720.22,-34096.926,5124.3086,-33504.312,14043.742,8120.687,73192.79
1311500.2956697082,-91378.75,-81716.68,-34090.984,5129.7607,-33496.543,14043.01,8116.374,73147.55
1311500.2996697272,-91393.6,-81715.87,-34088.83,5137.4106,-33482.016,14040.202,8108.643,73098.31
1311500.3036697463,-91383.34,-81714.97,-34088.22,5136.9224,-33486.98,14043.376,8113.2407,73121.79
1311500.3076697653,-91361.82,-81709.84,-34097.008,5129.924,-33497.844,14043.742,8114.543,73160.85
1311500.3116697844,-91349.2,-81704.67,-34095.094,5127.6855,-33510.336,14043.091,8115.804,73181.12
1311500.3156698034,-91364.55,-81698.98,-34095.582,5134.1553,-33496.664,14038.9,8107.137,73143.48
1311500.3196698225,-91400.15,-81710.33,-34093.914,5137.085,-33487.348,14034.18,8099.1216,73097.82
1311500.3236698415,-91397.14,-81718.02,-34093.996,5131.836,-33496.95,14036.296,8103.6787,73123.984
1311500.3276698606,-91374.59,-81718.47,-34101.2,5126.953,-33502.28,14040.365,8111.2065,73165.33
1311500.3316698796,-91373.17,-81719.32,-34096.965,5126.465,-33502.848,14043.539,8115.601,73181.44
1311500.3356698987,-91395.266,-81720.83,-34096.76,5131.836,-33489.83,14041.992,8111.125,73142.83
1311500.3396699177,-91419.44,-81723.516,-34090.617,5136.7188,-33486.29,14039.755,8110.474,73104.984
1311500.3436699368,-91415.29,-81720.99,-34094.035,5132.6094,-33499.918,14040.08,8111.491,73128.87
1311500.3476699558,-91392.984,-81720.95,-34097.617,5125.4883,-33508.465,14041.789,8106.3237,73166.875
1311500.3516699749,-91376.23,-81719.12,-34098.676,5123.21,-33507.977,14043.823,8109.4976,73191.164
1311500.355669994,-91380.29,-81708.62,-34098.27,5131.2256,-33499.43,14043.579,8111.369,73160.16
1311500.359670013,-91406.78,-81715.66,-34092.33,5136.963,-33493.695,14039.0625,8106.12,73103.766
1311500.363670032,-91410.56,-81726.08,-34099.203,5132.243,-33500.938,14040.161,8106.7305,73119.55
1311500.367670051,-91391.4,-81722.54,-34104.695,5128.1333,-33503.094,14039.755,8106.3237,73159.14
1311500.37167007,-91371.42,-81714.73,-34099.855,5126.872,-33510.254,14039.592,8104.7773,73181.48
1311500.3756700892,-91380.66,-81713.7,-34094.727,5131.755,-33502.402,14039.226,8101.441,73145.63
1311500.3796701082,-91402.95,-81720.22,-34087.28,5139.079,-33492.84,14038.493,8099.935,73104.25
1311500.3836701273,-91401.45,-81727.586,-34088.46,5135.539,-33500.895,14041.911,8107.951,73131.35
1311500.3876701463,-91377.93,-81728.68,-34093.305,5127.8076,-33511.516,14044.23,8112.8745,73167.93
1311500.3916701654,-91356.98,-81719.04,-34095.215,5126.7905,-33507.652,14045.126,8114.8687,73186.0
1311500.3956701844,-91370.73,-81716.555,-34090.457,5132.1616,-33493.082,14040.649,8107.056,73147.75
1311500.3996702034,-91394.86,-81718.305,-34094.605,5140.422,-33482.3,14036.621,8099.1216,73103.805
1311500.4036702225,-91395.06,-81721.44,-34098.39,5136.068,-33498.047,14036.377,8102.2954,73124.35
1311500.4076702415,-91394.086,-81740.234,-34100.016,5127.3604,-33517.008,14042.196,8111.0435,73166.83
1311500.4116702606,-91387.125,-81740.805,-34100.14,5122.5586,-33519.043,14045.329,8109.7007,73177.53
1311500.4156702796,-91372.64,-81715.984,-34093.875,5134.1553,-33495.242,14040.8125,8099.3657,73135.7
1311500.4196702987,-91390.26,-81716.27,-34092.855,5140.8286,-33488.242,14039.389,8095.622,73094.32
1311500.4236703177,-91389.81,-81718.23,-34096.07,5134.4404,-33498.13,14039.877,8095.134,73127.36
1311500.4276703368,-91375.734,-81720.54,-34100.016,5129.8423,-33505.902,14037.72,8098.47,73172.69
1311500.4316703558,-91354.74,-81709.35,-34102.254,5129.924,-33508.06,14035.767,8104.4927,73185.06
1311500.435670375,-91356.37,-81701.09,-34094.85,5137.5327,-33496.137,14033.691,8100.9116,73130.86
1311500.439670394,-91374.15,-81707.805,-34085.53,5141.968,-33490.887,14034.75,8102.1733,73075.766
1311500.443670413,-91368.414,-81708.414,-34095.094,5138.55,-33499.31,14038.94,8106.7305,73124.96
1311500.447670432,-91357.914,-81715.87,-34097.13,5133.1787,-33509.81,14043.051,8107.6255,73165.0
1311500.451670451,-91362.555,-81719.89,-34103.477,5128.9473,-33507.812,14043.173,8105.7944,73179.81
1311500.4556704701,-91381.47,-81719.52,-34098.797,5136.882,-33496.137,14040.568,8103.231,73137.66
1311500.4596704892,-91410.56,-81721.36,-34091.227,5143.4736,-33496.34,14037.598,8095.9883,73091.8
1311500.4636705082,-91396.734,-81722.05,-34097.984,5141.1543,-33499.594,14039.47,8103.516,73126.75
1311500.4676705273,-91369.96,-81717.86,-34094.117,5136.4746,-33507.57,14043.539,8113.77,73173.95
1311500.4716705463,-91346.36,-81710.25,-34091.105,5136.1494,-33507.164,14044.353,8118.0015,73191.81
1311500.4756705654,-91357.625,-81705.08,-34088.016,5143.718,-33492.312,14041.87,8112.6714,73154.55
1311500.4796705844,-91378.26,-81711.266,-34089.64,5148.763,-33480.47,14039.185,8106.3237,73116.01
1311500.4836706035,-91378.42,-81716.555,-34097.984,5143.27,-33489.42,14042.888,8108.399,73138.35
1311500.4876706225,-91370.41,-81722.336,-34100.75,5137.573,-33503.824,14045.736,8107.951,73165.37
1311500.4916706416,-91356.24,-81720.26,-34097.535,5135.539,-33509.645,14045.939,8104.737,73181.44
1311500.4956706606,-91371.99,-81723.836,-34092.57,5141.8867,-33495.32,14043.295,8101.4814,73140.26
1311500.4996706797,-91393.48,-81729.05,-34090.09,5147.339,-33488.77,14040.243,8101.888,73100.71
1311500.5036706987,-91388.23,-81731.65,-34095.38,5141.8867,-33495.85,14043.091,8110.067,73127.2
1311500.5076707178,-91359.3,-81718.836,-34101.44,5137.655,-33501.465,14041.586,8103.719,73174.73
1311500.5116707368,-91352.42,-81720.75,-34104.13,5133.586,-33507.812,14043.213,8103.109,73187.79
1311500.5156707559,-91363.61,-81717.82,-34099.69,5140.8286,-33494.223,14039.673,8099.8945,73130.29
1311500.519670775,-91395.19,-81729.695,-34092.855,5147.0137,-33487.184,14040.731,8097.3716,73091.19
1311500.523670794,-91400.234,-81742.84,-34100.016,5142.1714,-33498.58,14043.213,8100.1387,73123.82
1311500.527670813,-91385.13,-81743.53,-34103.273,5133.911,-33512.047,14041.26,8106.405,73167.93
1311500.531670832,-91372.48,-81732.99,-34104.617,5133.667,-33511.15,14041.545,8105.632,73190.63
1311500.5356708511,-91373.58,-81715.54,-34103.152,5142.375,-33492.27,14038.615,8095.744,73158.86
1311500.5396708702,-91390.67,-81714.03,-34097.453,5149.862,-33481.934,14038.33,8096.192,73129.72
1311500.5436708892,-91384.81,-81720.42,-34099.895,5146.24,-33494.1,14042.358,8104.1265,73159.836
1311500.5476709083,-91370.57,-81723.68,-34103.965,5137.2886,-33509.44,14044.23,8107.0967,73186.77
1311500.5516709273,-91360.234,-81731.0,-34105.797,5133.5044,-33515.79,14043.091,8101.319,73190.88
1311500.5556709464,-91379.97,-81736.125,-34097.656,5141.2354,-33504.477,14038.452,8088.3384,73137.78
1311500.5596709654,-91399.78,-81727.016,-34090.863,5151.5303,-33487.836,14035.116,8084.88,73092.0
1311500.5636709847,-91392.945,-81725.42,-34098.918,5147.868,-33488.688,14037.313,8096.558,73142.664
1311500.5676710038,-91370.89,-81722.49,-34101.523,5141.317,-33505.656,14040.69,8103.15,73182.01
1311500.5716710228,-91353.84,-81713.95,-34102.867,5140.3403,-33505.37,14041.87,8096.843,73192.305
1311500.5756710419,-91374.48,-81721.16,-34090.535,5143.636,-33502.645,14040.649,8090.0474,73143.64
1311500.579671061,-91403.65,-81722.58,-34088.34,5149.089,-33495.77,14039.0625,8089.885,73098.43
1311500.58367108,-91394.62,-81720.79,-34096.438,5145.223,-33500.125,14035.197,8088.5015,73126.95
1311500.587671099,-91377.445,-81726.65,-34101.32,5140.0557,-33507.12,14037.761,8091.4717,73160.24
1311500.591671118,-91351.766,-81712.81,-34100.992,5143.1885,-33497.684,14038.981,8099.2437,73174.73
1311500.595671137,-91366.945,-81707.6,-34097.86,5150.5127,-33483.4,14038.086,8100.9526,73136.64
1311500.5996711561,-91401.45,-81715.336,-34093.508,5156.942,-33474.69,14036.011,8094.157,73099.81
1311500.6036711752,-91402.34,-81728.84,-34099.61,5150.635,-33487.71,14040.08,8095.134,73125.94
1311500.6076711942,-91382.125,-81727.586,-34099.324,5143.392,-33504.926,14043.62,8100.179,73160.93
1311500.6116712133,-91366.336,-81721.68,-34098.473,5142.375,-33506.836,14041.87,8101.115,73185.34
1311500.6156712323,-91372.4,-81716.96,-34090.74,5152.751,-33489.383,14038.615,8099.7725,73152.71
1311500.6196712514,-91386.31,-81710.695,-34085.652,5159.343,-33479.86,14038.168,8104.8994,73116.58
1311500.6236712704,-91371.75,-81706.51,-34090.78,5156.6978,-33483.562,14041.992,8107.6665,73155.68
1311500.6276712895,-91356.77,-81707.36,-34098.55,5149.536,-33493.816,14043.62,8112.956,73207.84
1311500.6316713085,-91355.43,-81716.27,-34096.438,5146.118,-33498.09,14040.324,8103.597,73207.766
1311500.6356713276,-91376.95,-81725.42,-34090.332,5151.2046,-33491.902,14035.808,8085.1646,73147.22
1311500.6396713466,-91400.68,-81724.0,-34092.53,5157.308,-33486.695,14032.837,8082.276,73099.86
1311500.6436713657,-91393.44,-81719.81,-34096.273,5155.7617,-33491.54,14032.553,8086.9146,73127.16
1311500.6476713847,-91368.77,-81716.92,-34099.246,5149.699,-33497.477,14034.262,8094.808,73177.164
1311500.6516714038,-91357.55,-81708.945,-34103.434,5146.118,-33499.51,14037.802,8102.6616,73205.61
1311500.6556714228,-91379.56,-81709.07,-34096.52,5152.466,-33494.914,14036.621,8096.761,73155.68
1311500.659671442,-91410.28,-81718.914,-34084.758,5158.9355,-33489.46,14037.842,8095.5405,73119.51
1311500.663671461,-91399.46,-81716.43,-34094.117,5154.012,-33495.445,14037.028,8100.1387,73141.805
1311500.66767148,-91380.58,-81715.25,-34098.96,5145.671,-33503.297,14035.889,8095.2153,73173.055
1311500.671671499,-91366.664,-81712.98,-34102.785,5143.3516,-33504.8,14034.424,8094.239,73184.66
1311500.675671518,-91370.85,-81708.055,-34098.39,5152.832,-33491.54,14033.8545,8097.4937,73158.0
1311500.6796715371,-91390.79,-81701.26,-34092.043,5162.191,-33477.664,14035.767,8102.7427,73124.76
1311500.6836715562,-91388.39,-81709.44,-34096.926,5156.006,-33490.277,14041.382,8111.2065,73148.84
1311500.6876715752,-91386.805,-81734.54,-34100.504,5146.037,-33505.008,14044.963,8112.386,73183.63
1311500.6916715943,-91375.25,-81732.26,-34099.69,5143.392,-33507.49,14042.888,8104.6147,73199.016
1311500.6956716133,-91388.35,-81723.15,-34097.984,5150.3096,-33499.31,14036.784,8092.1636,73149.25
1311500.6996716324,-91399.01,-81716.43,-34092.246,5160.97,-33487.1,14032.634,8085.4087,73107.83
1311500.7036716514,-91386.97,-81712.28,-34092.49,5156.657,-33491.945,14035.645,8093.3843,73142.21
1311500.7076716705,-91356.77,-81702.92,-34092.773,5150.1875,-33498.332,14039.022,8103.353,73189.74
1311500.7116716895,-91348.72,-81702.07,-34090.863,5148.3564,-33501.87,14040.568,8109.4976,73215.74
1311500.7156717086,-91377.52,-81716.02,-34090.457,5152.059,-33494.344,14036.825,8099.569,73176.03
1311500.7196717276,-91414.47,-81729.49,-34086.14,5159.587,-33484.906,14033.041,8089.356,73121.38
1311500.7236717467,-91418.09,-81739.586,-34089.723,5156.2095,-33489.91,14033.163,8085.9785,73129.516
1311500.7276717657,-91390.26,-81728.68,-34099.324,5149.455,-33501.02,14032.309,8081.706,73162.07
1311500.7316717848,-91368.086,-81716.88,-34097.414,5150.1465,-33501.547,14031.657,8087.1587,73185.875
1311500.7356718038,-91370.445,-81709.234,-34087.89,5159.668,-33491.824,14030.273,8092.8145,73162.766
1311500.7396718229,-91387.414,-81706.14,-34083.7,5164.714,-33479.453,14029.338,8091.8784,73124.23
1311500.743671842,-91395.02,-81714.93,-34090.13,5157.959,-33491.09,14033.244,8098.1855,73137.945
1311500.747671861,-91378.7,-81716.39,-34101.562,5152.303,-33495.035,14030.722,8082.52,73166.875
1311500.75167188,-91375.2,-81717.82,-34105.184,5148.641,-33504.312,14033.61,8082.154,73182.17
1311500.755671899,-91391.484,-81718.23,-34101.117,5154.175,-33495.28,14031.21,8075.765,73137.984
1311500.7596719181,-91409.38,-81719.98,-34095.543,5160.8887,-33487.71,14028.32,8074.9106,73094.2
1311500.7636719372,-91407.35,-81725.22,-34095.95,5157.43,-33496.99,14030.884,8084.066,73124.516
1311500.7676719562,-91371.75,-81713.75,-34093.465,5156.413,-33498.82,14033.325,8087.9316,73172.484
1311500.7716719753,-91353.03,-81709.07,-34090.58,5154.582,-33503.867,14034.18,8091.39,73191.33
1311500.7756719943,-91376.38,-81716.27,-34095.38,5157.2266,-33495.242,14032.959,8088.8677,73148.44
1311500.7796720134,-91406.62,-81725.016,-34094.727,5160.7666,-33487.59,14028.85,8079.875,73097.49
1311500.7836720324,-91396.61,-81724.2,-34099.69,5156.616,-33494.63,14029.053,8081.4214,73123.21
1311500.7876720515,-91381.35,-81731.37,-34101.277,5150.0654,-33509.562,14033.285,8086.304,73159.22
1311500.7916720705,-91366.945,-81723.47,-34108.4,5147.054,-33508.79,14035.238,8091.39,73180.914
1311500.7956720896,-91379.4,-81719.32,-34101.48,5155.0703,-33500.246,14031.169,8084.6763,73143.516
1311500.7996721086,-91399.21,-81715.25,-34093.344,5165.202,-33487.223,14027.548,8082.357,73106.164
1311500.8036721277,-91395.836,-81721.766,-34093.305,5163.33,-33493.98,14029.704,8086.9146,73129.195
1311500.8076721467,-91380.086,-81732.71,-34098.797,5155.6396,-33506.145,14030.151,8083.7407,73161.46
1311500.8116721658,-91373.91,-81737.23,-34102.133,5150.879,-33509.81,14028.483,8078.736,73173.586
1311500.8156721848,-91387.45,-81727.54,-34101.93,5157.878,-33500.082,14027.019,8073.487,73132.53
1311500.8196722039,-91408.734,-81724.37,-34095.746,5166.382,-33492.27,14028.972,8075.0737,73092.57
1311500.823672223,-91403.37,-81727.375,-34095.95,5160.7666,-33503.543,14035.971,8085.124,73124.31
1311500.827672242,-91382.695,-81726.12,-34102.664,5152.588,-33514.445,14038.818,8093.3433,73170.086
1311500.831672261,-91371.55,-81729.086,-34098.96,5151.6523,-33516.113,14035.808,8092.1226,73183.48
1311500.83567228,-91389.37,-81736.164,-34097.453,5159.465,-33502.688,14029.948,8082.113,73144.66
1311500.839672299,-91425.83,-81750.81,-34099.652,5163.127,-33496.38,14028.564,8078.532,73102.54
1311500.8436723182,-91414.15,-81742.64,-34105.918,5159.668,-33505.86,14030.478,8084.6357,73129.6
1311500.8476723372,-91388.875,-81732.26,-34111.37,5154.1343,-33517.863,14032.023,8089.234,73169.555
1311500.8516723562,-91363.65,-81725.34,-34111.37,5152.466,-33516.97,14033.691,8089.722,73189.945
1311500.8556723753,-91380.86,-81730.8,-34105.51,5159.668,-33501.14,14028.891,8078.5728,73130.49
1311500.8596723943,-91408.94,-81740.12,-34099.773,5166.789,-33492.35,14027.222,8073.283,73088.625
1311500.8636724134,-91409.06,-81747.52,-34098.31,5163.249,-33510.418,14029.989,8080.7295,73111.414
1311500.8676724324,-91395.1,-81759.6,-34100.668,5155.5586,-33524.332,14030.762,8082.601,73155.64
1311500.8716724515,-91357.22,-81731.41,-34098.39,5161.2144,-33514.04,14030.314,8083.0083,73179.98
1311500.8756724705,-91355.23,-81705.125,-34085.53,5172.6484,-33492.676,14025.757,8073.039,73143.44
1311500.8796724896,-91393.805,-81714.32,-34087.77,5178.508,-33480.55,14026.9375,8080.0786,73116.336
1311500.8836725086,-91384.85,-81708.17,-34085.53,5176.7173,-33486.816,14032.309,8094.849,73141.32
1311500.8876725277,-91359.5,-81705.81,-34085.98,5169.2305,-33495.523,14035.889,8098.5923,73181.93
1311500.8916725467,-91342.66,-81704.67,-34090.82,5165.4463,-33495.445,14035.971,8093.9946,73200.28
1311500.8956725658,-91360.11,-81708.54,-34086.508,5170.8174,-33487.266,14034.587,8085.6123,73148.56
1311500.8996725848,-91389.2,-81714.766,-34081.95,5177.368,-33480.227,14032.634,8081.7876,73106.125
1311500.903672604,-91385.87,-81717.695,-34084.758,5174.6826,-33486.816,14038.534,8089.559,73138.875
1311500.907672623,-91373.54,-81718.18,-34086.875,5167.562,-33500.125,14043.62,8102.702,73178.63
1311500.911672642,-91354.58,-81712.32,-34082.887,5166.4634,-33501.02,14042.5625,8106.0386,73204.914
1311500.915672661,-91367.59,-81706.71,-34082.48,5173.381,-33488.77,14039.226,8100.871,73164.8
1311500.91967268,-91399.414,-81716.19,-34075.277,5180.0537,-33483.277,14037.72,8089.234,73116.01
1311500.9236726991,-91416.79,-81724.164,-34082.684,5175.9033,-33491.414,14038.737,8088.3384,73141.32
1311500.9276727182,-91393.07,-81720.336,-34084.11,5171.8345,-33497.56,14038.656,8087.199,73178.96
1311500.9316727372,-91371.5,-81716.15,-34087.605,5169.5967,-33497.03,14037.436,8084.473,73189.945
1311500.9356727563,-91382.41,-81712.41,-34080.484,5177.043,-33482.016,14039.592,8086.467,73150.15
1311500.9396727753,-91394.53,-81708.414,-34074.504,5184.367,-33472.168,14041.301,8092.4077,73126.79
1311500.9436727944,-91377.61,-81701.945,-34077.76,5182.943,-33474.812,14041.911,8101.7256,73158.2
1311500.9476728134,-91362.06,-81700.805,-34080.16,5176.595,-33485.395,14040.202,8101.3594,73190.19
1311500.9516728325,-91357.34,-81702.96,-34081.707,5172.4854,-33489.95,14038.696,8094.442,73200.65
1311500.9556728515,-91376.55,-81713.5,-34076.906,5178.1006,-33488.08,14035.889,8082.154,73146.69
1311500.9596728706,-91393.07,-81710.21,-34073.527,5185.466,-33479.656,14034.465,8080.404,73106.81
1311500.9636728896,-91394.414,-81720.87,-34078.574,5178.3857,-33496.95,14039.511,8088.094,73133.875
1311500.9676729087,-91372.6,-81718.305,-34085.41,5172.567,-33502.44,14042.44,8091.39,73174.64
1311500.9716729277,-91356.24,-81708.01,-34085.734,5172.16,-33498.375,14044.394,8094.808,73199.42
1311500.9756729468,-91369.39,-81707.4,-34080.08,5177.124,-33487.02,14043.417,8092.1636,73160.24
1311500.9796729658,-91391.28,-81707.93,-34079.266,5183.6753,-33477.094,14040.854,8087.891,73119.47
1311500.9836729849,-91391.16,-81709.8,-34084.434,5179.891,-33491.414,14039.185,8087.484,73142.01
1311500.987673004,-91372.16,-81710.86,-34087.605,5173.34,-33501.14,14041.992,8090.0884,73182.414
1311500.991673023,-91358.484,-81706.46,-34084.434,5174.398,-33496.867,14043.091,8084.432,73201.055
1311500.995673042,-91375.66,-81708.87,-34080.04,5181.926,-33482.016,14041.22,8081.7876,73159.22
1311500.999673061,-91403.98,-81718.02,-34076.336,5188.5176,-33474.406,14041.87,8082.235,73116.7
1311501.0036730801,-91391.56,-81716.8,-34078.656,5186.8896,-33482.137,14044.638,8090.4546,73150.68
1311501.0076730992,-91378.87,-81717.82,-34086.426,5176.5547,-33493.777,14046.387,8097.3716,73186.81
1311501.0116731182,-91359.01,-81710.734,-34087.973,5173.0957,-33500.895,14047.485,8100.9526,73202.84
1311501.0156731373,-91362.555,-81700.89,-34079.715,5181.6816,-33489.137,14043.295,8095.0522,73165.41
1311501.0196731563,-91393.805,-81706.83,-34077.312,5186.5234,-33479.25,14041.992,8092.652,73123.13
1311501.0236731754,-91385.586,-81699.305,-34076.906,5185.3843,-33483.156,14048.096,8101.7256,73159.38
1311501.0276731944,-91357.18,-81691.086,-34077.598,5181.356,-33485.477,14049.927,8105.754,73205.69
1311501.0316732135,-91345.83,-81688.48,-34082.277,5179.281,-33485.965,14050.903,8108.155,73226.89
1311501.0356732325,-91373.45,-81697.67,-34081.992,5184.53,-33477.457,14048.91,8103.9634,73181.27
1311501.0396732516,-91408.45,-81708.26,-34080.08,5188.314,-33472.82,14044.922,8091.8784,73128.5
1311501.0436732706,-91411.46,-81713.26,-34085.004,5186.4014,-33481.16,14044.638,8088.5015,73144.29
1311501.0476732897,-91385.91,-81711.19,-34086.71,5181.112,-33494.832,14045.329,8091.512,73182.7
1311501.0516733087,-91362.96,-81703.17,-34082.277,5177.938,-33496.543,14047.363,8094.93,73206.83
1311501.0556733278,-91367.11,-81693.73,-34082.4,5185.669,-33479.004,14047.16,8093.7095,73178.1
1311501.0596733468,-91383.016,-81696.695,-34075.074,5192.098,-33473.39,14045.451,8095.0933,73141.16
1311501.0636733659,-91376.586,-81701.09,-34078.41,5188.192,-33477.5,14044.638,8101.319,73163.695
1311501.067673385,-91366.01,-81710.734,-34083.09,5182.2104,-33486.777,14044.963,8104.8994,73199.14
1311501.071673404,-91363.734,-81713.3,-34088.016,5177.9785,-33496.785,14044.719,8099.569,73206.38
1311501.075673423,-91380.91,-81711.305,-34085.125,5185.791,-33485.72,14040.446,8083.4556,73149.7
1311501.079673442,-91402.51,-81711.266,-34081.586,5194.621,-33476.848,14040.976,8080.526,73108.69
1311501.083673461,-91385.46,-81707.4,-34081.3,5194.58,-33480.633,14041.057,8083.171,73138.47
1311501.0876734802,-91357.055,-81705.94,-34086.1,5186.4014,-33488.61,14040.161,8087.8096,73181.07
1311501.0916734992,-91346.16,-81706.79,-34091.105,5181.112,-33488.61,14042.5625,8095.9478,73207.64
1311501.0956735183,-91375.695,-81720.586,-34086.71,5187.541,-33479.574,14043.295,8095.0117,73175.055
1311501.0996735373,-91394.734,-81710.414,-34076.17,5196.7773,-33468.18,14043.173,8094.8896,73128.99
1311501.1036735564,-91377.52,-81696.66,-34078.9,5193.5225,-33469.81,14045.126,8094.6455,73145.63
1311501.1076735754,-91358.08,-81697.63,-34086.305,5186.4014,-33487.348,14047.567,8097.982,73185.266
1311501.1116735945,-91336.305,-81692.18,-34082.766,5185.832,-33494.508,14044.922,8088.176,73201.17
1311501.1156736135,-91355.1,-81694.586,-34084.35,5191.081,-33482.83,14043.376,8084.066,73152.71
1311501.1196736326,-91384.16,-81702.96,-34080.895,5196.4927,-33474.49,14043.701,8084.432,73107.42
1311501.1236736516,-91375.734,-81698.9,-34083.902,5192.4644,-33479.207,14044.353,8085.816,73138.15
1311501.1276736706,-91350.67,-81692.55,-34092.203,5187.663,-33484.05,14044.678,8085.6123,73178.43
1311501.1316736897,-91336.23,-81692.67,-34090.332,5185.9946,-33486.168,14045.492,8088.42,73191.164
1311501.1356737087,-91348.555,-81686.81,-34081.504,5193.319,-33475.992,14043.376,8085.694,73147.83
1311501.1396737278,-91368.25,-81685.47,-34074.22,5201.986,-33466.227,14040.405,8081.4214,73105.51
1311501.1436737468,-91365.64,-81691.86,-34078.29,5196.7773,-33479.37,14043.335,8088.786,73138.02
1311501.147673766,-91349.41,-81695.516,-34081.137,5189.494,-33491.54,14045.776,8096.9243,73185.71
1311501.151673785,-91333.17,-81693.41,-34075.156,5189.331,-33492.8,14048.137,8101.197,73209.72
1311501.155673804,-91346.16,-81691.125,-34078.25,5194.743,-33480.105,14045.532,8096.395,73172.61
1311501.159673823,-91379.97,-81697.72,-34077.477,5199.748,-33470.133,14042.807,8088.094,73130.984
1311501.163673842,-91378.016,-81698.77,-34080.973,5196.4927,-33476.605,14046.957,8096.07,73164.43
1311501.1676738611,-91354.945,-81694.945,-34084.676,5191.6914,-33487.55,14049.398,8099.1216,73202.19
1311501.1716738802,-91345.055,-81703.734,-34088.42,5189.6973,-33489.46,14049.357,8099.1216,73217.49
1311501.1756738992,-91354.45,-81701.7,-34088.094,5195.4346,-33480.184,14044.638,8090.2104,73178.51
1311501.1796739183,-91365.69,-81700.32,-34077.11,5202.352,-33473.145,14040.243,8086.3447,73134.65
1311501.1836739373,-91353.84,-81695.97,-34077.027,5199.26,-33479.37,14044.597,8098.0635,73161.7
1311501.1876739564,-91335.57,-81689.945,-34077.516,5193.6445,-33483.97,14046.997,8099.4062,73204.1
1311501.1916739754,-91329.19,-81692.914,-34076.375,5191.7725,-33487.184,14045.776,8096.436,73219.04
1311501.1956739945,-91342.695,-81696.9,-34070.68,5200.4395,-33473.51,14040.161,8085.8564,73175.414
1311501.1996740135,-91367.96,-81695.15,-34063.395,5208.822,-33466.84,14040.243,8081.2993,73135.54
1311501.2036740326,-91364.305,-81689.45,-34069.785,5204.631,-33474.0,14045.817,8089.6406,73161.3
1311501.2076740516,-91334.76,-81684.98,-34075.156,5198.0796,-33481.242,14049.887,8098.7144,73195.07
1311501.2116740707,-91317.23,-81684.45,-34075.24,5195.6787,-33484.215,14048.869,8096.761,73213.46
1311501.2156740897,-91349.53,-81699.14,-34077.23,5198.7305,-33474.61,14046.957,8094.93,73180.87
1311501.2196741088,-91359.09,-81685.95,-34065.836,5209.717,-33466.35,14043.905,8091.8784,73140.71
1311501.2236741278,-91354.125,-81673.46,-34061.605,5211.3037,-33471.152,14045.736,8091.512,73162.195
1311501.2276741469,-91351.81,-81690.266,-34062.46,5200.155,-33487.996,14050.415,8098.267,73206.71
1311501.231674166,-91342.0,-81691.0,-34062.137,5198.446,-33489.22,14053.101,8100.4644,73224.24
1311501.235674185,-91344.73,-81680.34,-34063.805,5208.4556,-33469.44,14049.846,8092.8145,73187.5
1311501.239674204,-91355.875,-81679.98,-34060.547,5216.4717,-33458.54,14049.032,8100.22,73150.48
1311501.243674223,-91337.12,-81674.44,-34062.785,5213.501,-33461.67,14050.334,8103.231,73167.445
1311501.2476742421,-91327.48,-81680.5,-34062.99,5205.4443,-33474.895,14050.497,8099.61,73207.03
1311501.2516742612,-91323.734,-81685.95,-34070.027,5202.3926,-33478.56,14049.4795,8099.3657,73221.27
1311501.2556742802,-91336.76,-81681.69,-34069.664,5207.7637,-33468.26,14044.475,8088.664,73183.23
1311501.2596742993,-91362.15,-81685.67,-34061.65,5215.088,-33460.33,14044.23,8084.6763,73133.95
1311501.2636743183,-91355.63,-81694.74,-34065.31,5210.49,-33471.52,14045.98,8090.5767,73161.38
1311501.2676743374,-91331.55,-81690.15,-34069.5,5202.759,-33482.953,14049.5205,8101.2373,73207.36
1311501.2716743564,-91314.17,-81681.56,-34067.508,5203.695,-33478.273,14049.927,8103.475,73233.32
1311501.2756743755,-91330.484,-81676.555,-34067.586,5210.8154,-33462.527,14046.631,8094.727,73195.31
1311501.2796743945,-91371.38,-81698.445,-34064.25,5215.8203,-33458.09,14045.858,8088.908,73146.2
1311501.2836744136,-91365.195,-81700.805,-34070.11,5212.728,-33464.805,14045.98,8089.885,73166.42
1311501.2876744326,-91328.414,-81687.09,-34070.598,5210.775,-33470.664,14043.945,8087.281,73208.58
1311501.2916744517,-91317.38,-81688.27,-34066.246,5209.3916,-33475.016,14046.265,8089.559,73227.17
1311501.2956744707,-91326.26,-81679.28,-34066.69,5216.1055,-33464.03,14044.108,8087.484,73192.95
1311501.2996744898,-91353.234,-81681.36,-34065.797,5220.4185,-33457.48,14042.318,8084.473,73162.195
1311501.3036745088,-91348.836,-81672.41,-34064.293,5217.041,-33463.22,14045.288,8098.267,73196.86
1311501.3076745279,-91333.375,-81669.35,-34074.016,5209.717,-33473.715,14047.567,8108.5615,73232.67
1311501.311674547,-91323.0,-81673.586,-34072.754,5207.6416,-33476.81,14049.805,8103.8823,73249.555
1311501.315674566,-91343.914,-81674.69,-34067.586,5214.1523,-33469.484,14049.398,8096.3545,73203.25
1311501.319674585,-91369.75,-81679.52,-34065.51,5219.564,-33460.734,14047.201,8093.5874,73158.45
1311501.323674604,-91359.13,-81679.445,-34066.734,5216.797,-33464.438,14046.591,8094.808,73179.57
1311501.327674623,-91340.21,-81684.37,-34074.465,5209.31,-33472.656,14046.753,8093.262,73210.86
1311501.3316746422,-91328.53,-81684.0,-34079.348,5207.1533,-33482.016,14044.76,8089.5186,73219.93
1311501.3356746612,-91336.34,-81680.664,-34067.75,5214.885,-33471.395,14041.057,8085.3276,73176.35
1311501.3396746803,-91355.67,-81678.51,-34059.938,5225.383,-33460.004,14042.725,8090.373,73137.29
1311501.3436746993,-91359.22,-81685.914,-34063.56,5219.4014,-33471.52,14050.619,8099.284,73160.85
1311501.3476747184,-91336.51,-81678.67,-34072.105,5213.9893,-33477.01,14051.188,8101.0337,73201.17
1311501.3516747374,-91326.945,-81679.69,-34068.766,5210.7344,-33479.25,14051.433,8098.796,73222.29
1311501.3556747567,-91344.04,-81684.98,-34065.023,5218.7095,-33469.523,14046.875,8088.094,73182.7
1311501.3596747757,-91359.09,-81688.11,-34065.836,5224.7314,-33461.1,14045.288,8084.1475,73141.234
1311501.3636747948,-91357.47,-81698.77,-34067.383,5218.994,-33468.996,14048.178,8090.0474,73165.85
1311501.3676748138,-91334.11,-81694.42,-34069.95,5213.745,-33475.992,14048.137,8097.453,73213.42
1311501.371674833,-91315.8,-81683.84,-34067.344,5211.5073,-33480.875,14048.625,8096.273,73249.836
1311501.375674852,-91335.33,-81684.2,-34064.496,5218.3433,-33471.64,14045.858,8090.373,73212.61
1311501.379674871,-91359.3,-81689.25,-34055.707,5224.8535,-33461.63,14045.248,8087.8096,73154.3
1311501.38367489,-91358.89,-81693.69,-34060.344,5220.0522,-33472.7,14051.066,8092.1636,73176.35
1311501.387674909,-91340.87,-81694.79,-34072.145,5213.623,-33481.895,14050.903,8092.204,73215.78
1311501.3916749281,-91330.0,-81692.22,-34074.547,5211.3853,-33485.395,14051.474,8093.6284,73237.67
1311501.3956749472,-91345.18,-81693.69,-34072.145,5219.035,-33474.527,14047.201,8086.263,73195.766
1311501.3996749662,-91366.26,-81693.16,-34060.914,5227.051,-33461.63,14041.504,8075.318,73144.9
1311501.4036749853,-91356.734,-81684.86,-34063.477,5224.3247,-33469.363,14045.98,8086.06,73177.53
1311501.4076750043,-91335.62,-81680.75,-34070.312,5218.1807,-33476.688,14050.253,8097.087,73223.39
1311501.4116750234,-91316.2,-81682.09,-34069.38,5217.1226,-33478.965,14054.199,8101.685,73242.02
1311501.4156750424,-91333.17,-81685.23,-34064.984,5220.622,-33469.93,14053.02,8095.0522,73193.445
1311501.4196750615,-91361.78,-81687.7,-34062.137,5225.871,-33459.96,14049.357,8087.728,73138.92
1311501.4236750805,-91355.43,-81691.77,-34063.723,5222.331,-33469.93,14053.305,8092.204,73161.17
1311501.4276750996,-91349.125,-81702.84,-34069.46,5214.559,-33483.97,14057.292,8098.1855,73208.91
1311501.4316751186,-91338.46,-81702.03,-34074.016,5212.85,-33484.824,14056.03,8099.2437,73232.99
1311501.4356751377,-91351.61,-81704.96,-34070.926,5219.3604,-33472.535,14049.887,8088.1353,73191.164
1311501.4396751567,-91374.19,-81711.19,-34070.312,5223.0225,-33466.434,14048.096,8084.1475,73146.24
1311501.4436751758,-91366.414,-81713.7,-34075.562,5215.9834,-33479.047,14049.643,8092.9365,73175.01
1311501.4476751948,-91342.695,-81706.71,-34078.25,5210.0425,-33485.23,14051.352,8099.1216,73232.46
1311501.4516752139,-91327.44,-81700.89,-34072.957,5209.2285,-33490.074,14049.805,8092.774,73242.11
1311501.455675233,-91343.51,-81699.75,-34068.727,5217.285,-33478.64,14046.306,8083.7812,73178.266
1311501.459675252,-91372.44,-81705.484,-34067.18,5225.749,-33466.594,14045.37,8077.8403,73129.516
1311501.463675271,-91373.91,-81712.81,-34071.94,5219.808,-33476.766,14047.7705,8084.351,73160.08
1311501.46767529,-91345.79,-81704.914,-34073.69,5215.902,-33488.242,14046.184,8084.229,73203.164
1311501.4716753091,-91320.31,-81692.99,-34075.32,5214.803,-33487.47,14046.753,8085.653,73223.92
1311501.4756753282,-91329.59,-81695.15,-34067.75,5219.2793,-33476.035,14045.207,8082.4385,73185.14
1311501.4796753472,-91348.02,-81688.4,-34058.92,5230.2246,-33461.387,14045.654,8081.014,73144.9
1311501.4836753663,-91339.69,-81682.78,-34055.46,5231.0386,-33465.457,14051.88,8093.1807,73165.81
1311501.4876753853,-91324.83,-81683.43,-34060.996,5223.0225,-33476.97,14054.606,8093.669,73206.71
1311501.4916754044,-91311.41,-81683.31,-34063.883,5220.9067,-33479.98,14051.2295,8089.9663,73228.234
1311501.4956754234,-91316.41,-81683.92,-34059.0,5229.045,-33465.7,14047.323,8087.9316,73190.266
1311501.4996754425,-91328.29,-81678.63,-34050.17,5240.2344,-33450.848,14045.614,8083.3335,73154.79
1311501.5036754615,-91323.77,-81678.875,-34047.49,5238.2,-33459.92,14051.555,8093.9946,73186.85
1311501.5076754806,-91306.73,-81680.87,-34053.996,5232.0557,-33468.59,14055.746,8101.115,73222.91
1311501.5116754996,-91293.99,-81670.17,-34054.65,5230.876,-33464.684,14058.31,8099.691,73240.44
1311501.5156755187,-91312.75,-81669.72,-34054.324,5235.962,-33451.66,14058.146,8096.395,73196.414
1311501.5196755377,-91335.984,-81678.63,-34053.875,5242.3506,-33446.98,14054.525,8093.221,73154.55
1311501.5236755568,-91324.914,-81678.14,-34054.242,5238.159,-33456.137,14054.321,8095.744,73186.16
1311501.5276755758,-91311.93,-81677.01,-34059.695,5230.591,-33464.56,14058.676,8094.849,73212.81
1311501.5316755949,-91302.01,-81679.734,-34062.258,5226.522,-33465.945,14062.134,8094.849,73224.9
1311501.535675614,-91308.88,-81674.89,-34054.04,5234.619,-33457.48,14058.024,8085.368,73189.984
1311501.539675633,-91341.516,-81677.62,-34053.793,5242.92,-33445.312,14056.356,8082.9673,73147.914
1311501.543675652,-91335.21,-81678.63,-34057.78,5240.194,-33454.957,14059.326,8093.14,73178.43
1311501.547675671,-91314.13,-81678.836,-34063.844,5233.073,-33464.844,14060.995,8094.808,73213.75
1311501.55167569,-91298.83,-81674.28,-34066.285,5230.062,-33466.797,14062.46,8093.4653,73232.18
1311501.5556757092,-91312.016,-81678.34,-34062.34,5234.009,-33461.14,14058.35,8088.3384,73189.336
1311501.5596757282,-91330.28,-81680.016,-34055.95,5239.99,-33450.113,14053.996,8083.6997,73138.43
1311501.5636757473,-91330.69,-81684.05,-34068.81,5235.2295,-33453.53,14051.474,8081.055,73173.016
1311501.5676757663,-91316.57,-81692.55,-34072.51,5229.2075,-33464.723,14048.381,8076.7417,73206.38
1311501.5716757854,-91304.69,-81687.83,-34071.25,5228.3936,-33469.605,14047.893,8073.446,73220.3
1311501.5756758044,-91321.25,-81687.016,-34065.594,5234.294,-33462.89,14044.922,8072.022,73182.74
1311501.5796758235,-91344.36,-81688.27,-34063.68,5239.909,-33451.824,14044.23,8070.9233,73142.414
1311501.5836758425,-91339.52,-81686.89,-34068.36,5236.1655,-33457.6,14047.812,8076.0093,73170.45
1311501.5876758615,-91312.83,-81677.29,-34072.227,5230.876,-33465.047,14049.724,8081.014,73217.125
1311501.5916758806,-91299.28,-81677.49,-34069.5,5227.214,-33467.0,14052.734,8083.171,73239.87
1311501.5956758996,-91311.65,-81683.76,-34062.95,5234.7007,-33458.496,14050.253,8076.9453,73195.88
1311501.5996759187,-91332.234,-81684.41,-34055.746,5244.792,-33448.04,14049.235,8071.9404,73151.98
1311501.6036759377,-91329.43,-81687.625,-34053.266,5242.3506,-33453.86,14053.589,8076.4976,73171.914
1311501.6076759568,-91306.195,-81678.76,-34057.78,5237.0605,-33462.2,14054.6875,8083.2114,73216.836
1311501.6116759758,-91290.33,-81668.74,-34057.293,5236.247,-33466.023,14057.373,8087.9316,73247.195
1311501.615675995,-91304.61,-81664.31,-34052.492,5242.5537,-33453.29,14056.845,8087.3213,73210.66
1311501.619676014,-91329.51,-81670.05,-34049.277,5246.0938,-33441.043,14053.549,8084.88,73160.73
1311501.623676033,-91322.19,-81671.47,-34050.984,5244.1816,-33451.58,14056.926,8091.4717,73187.664
1311501.627676052,-91304.484,-81670.62,-34051.96,5238.5254,-33458.7,14060.303,8093.221,73229.414
1311501.631676071,-91300.7,-81673.75,-34053.223,5236.9385,-33456.746,14062.622,8089.6406,73243.77
1311501.6356760901,-91314.25,-81676.72,-34048.016,5244.7104,-33448.812,14061.442,8085.897,73204.71
1311501.6396761092,-91335.695,-81683.72,-34043.742,5252.3193,-33443.484,14060.507,8084.9614,73164.39
1311501.6436761282,-91331.055,-81682.01,-34049.93,5247.3555,-33453.125,14067.139,8093.6284,73195.92
1311501.6476761473,-91303.8,-81670.21,-34056.03,5241.496,-33460.734,14070.679,8099.813,73238.445
1311501.6516761663,-91287.11,-81671.71,-34053.875,5238.607,-33463.38,14069.702,8099.5283,73253.3
1311501.6556761854,-91307.7,-81675.78,-34051.35,5245.687,-33455.28,14067.546,8093.669,73211.914
1311501.6596762044,-91329.76,-81674.52,-34045.37,5253.784,-33443.605,14064.86,8089.0303,73163.82
1311501.6636762235,-91329.39,-81679.12,-34047.445,5248.0063,-33451.09,14068.522,8093.791,73182.09
1311501.6676762425,-91311.37,-81678.51,-34056.07,5241.4146,-33460.938,14070.272,8097.1685,73219.89
1311501.6716762616,-91304.164,-81681.84,-34063.273,5236.5723,-33467.53,14071.167,8095.866,73240.97
1311501.6756762806,-91318.24,-81682.91,-34062.418,5241.699,-33456.46,14068.115,8090.007,73203.58
1311501.6796762997,-91338.22,-81680.22,-34052.86,5251.0986,-33448.367,14067.79,8091.2275,73164.1
1311501.6836763187,-91333.336,-81688.11,-34056.234,5244.507,-33458.7,14069.174,8094.442,73189.17
1311501.6876763378,-91308.35,-81684.98,-34063.395,5237.264,-33469.645,14069.418,8094.0757,73229.945
1311501.6916763568,-91296.836,-81682.7,-34064.78,5234.131,-33471.11,14067.831,8092.1636,73247.64
1311501.6956763759,-91312.016,-81684.05,-34054.934,5243.286,-33457.887,14065.959,8088.013,73211.305
1311501.699676395,-91346.93,-81684.57,-34051.555,5251.0986,-33447.51,14066.325,8083.944,73169.07
1311501.703676414,-91344.77,-81687.46,-34053.062,5243.734,-33461.184,14069.824,8092.5703,73190.59
1311501.707676433,-91321.01,-81684.086,-34059.613,5236.328,-33472.656,14072.632,8096.965,73233.56
1311501.711676452,-91304.89,-81681.89,-34061.973,5233.8867,-33475.06,14070.598,8093.14,73245.61
1311501.7156764711,-91315.76,-81686.12,-34059.9,5239.2173,-33464.926,14066.569,8086.7925,73204.71
1311501.7196764902,-91341.11,-81692.22,-34056.03,5245.321,-33454.43,14064.169,8085.49,73164.19
1311501.7236765092,-91334.72,-81687.3,-34057.254,5243.083,-33461.1,14065.471,8090.5356,73190.8
1311501.7276765283,-91319.26,-81690.76,-34061.16,5234.7007,-33476.402,14067.546,8096.436,73229.9
1311501.7316765473,-91306.195,-81688.4,-34064.535,5231.9746,-33478.883,14068.319,8099.732,73253.79
1311501.7356765664,-91320.44,-81689.82,-34061.89,5238.485,-33465.78,14068.97,8097.087,73217.45
1311501.7396765854,-91344.57,-81691.81,-34055.258,5246.582,-33452.312,14066.488,8092.896,73181.89
1311501.7436766045,-91343.34,-81696.21,-34056.03,5241.618,-33464.52,14069.296,8098.674,73204.875
1311501.7476766235,-91321.78,-81693.195,-34061.402,5236.247,-33475.71,14071.696,8100.1387,73236.37
1311501.7516766426,-91318.61,-81694.336,-34064.617,5232.3813,-33475.914,14070.72,8099.1216,73251.71
1311501.7556766616,-91330.164,-81699.42,-34059.125,5238.2,-33468.508,14064.779,8087.525,73218.23
1311501.7596766807,-91349.33,-81698.41,-34056.48,5245.8906,-33458.414,14060.71,8085.2866,73181.07
1311501.7636766997,-91345.18,-81697.67,-34056.48,5242.4316,-33464.887,14063.64,8092.652,73206.586
1311501.7676767188,-91327.195,-81695.64,-34064.168,5232.666,-33475.75,14067.302,8102.1323,73249.23
1311501.7716767378,-91306.52,-81690.43,-34066.406,5228.8413,-33477.38,14068.93,8101.644,73265.34
1311501.7756767569,-91317.51,-81687.87,-34059.125,5235.555,-33465.21,14062.541,8089.356,73224.49
1311501.779676776,-91346.52,-81694.09,-34058.676,5241.333,-33459.11,14060.1,8085.368,73178.914
1311501.783676795,-91342.734,-81696.945,-34060.344,5240.804,-33468.06,14061.728,8087.85,73208.336
1311501.787676814,-91318.08,-81695.516,-34066.45,5236.1655,-33477.133,14063.192,8092.082,73250.37
1311501.791676833,-91302.78,-81695.92,-34071.535,5233.1953,-33479.98,14061.361,8091.6753,73269.37
1311501.795676852,-91320.16,-81696.25,-34067.223,5238.607,-33472.332,14058.35,8087.6875,73226.16
1311501.7996768712,-91344.04,-81702.31,-34061.363,5243.5713,-33463.83,14054.565,8078.736,73175.74
1311501.8036768902,-91344.69,-81701.78,-34067.344,5239.787,-33469.484,14057.333,8079.875,73201.54
1311501.8076769093,-91320.27,-81690.23,-34072.47,5232.91,-33479.9,14055.38,8072.5103,73238.734
1311501.8116769283,-91306.234,-81690.35,-34075.562,5229.37,-33483.97,14056.03,8073.487,73252.81
1311501.8156769474,-91324.586,-81693.97,-34069.297,5234.497,-33473.88,14052.287,8067.546,73213.83
1311501.8196769664,-91349.33,-81693.36,-34068.156,5242.3506,-33461.14,14051.392,8066.2437,73179.04
1311501.8236769855,-91346.805,-81698.08,-34075.6,5237.386,-33467.45,14056.234,8076.0503,73209.68
1311501.8276770045,-91324.75,-81699.55,-34078.9,5229.6143,-33481.934,14061.035,8084.0254,73257.98
1311501.8316770236,-91301.92,-81689.7,-34077.516,5230.1025,-33483.24,14059.53,8081.3804,73284.14
1311501.8356770426,-91309.57,-81681.03,-34068.766,5239.177,-33464.887,14056.641,8072.4287,73239.38
1311501.8396770617,-91337.734,-81685.266,-34063.152,5246.379,-33456.137,14056.682,8068.7666,73191.33
1311501.8436770807,-91331.016,-81687.5,-34070.07,5242.839,-33460.98,14058.879,8073.934,73220.46
1311501.8476770998,-91305.99,-81689.54,-34071.37,5236.328,-33476.523,14062.622,8081.5024,73267.13
1311501.8516771188,-91290.734,-81687.87,-34071.574,5235.189,-33477.824,14064.128,8080.7295,73282.39
1311501.8556771378,-91306.03,-81680.46,-34063.395,5240.9263,-33463.83,14059.652,8070.516,73236.66
1311501.859677157,-91336.55,-81679.445,-34059.41,5247.8438,-33456.098,14055.746,8064.9824,73191.125
1311501.863677176,-91333.945,-81679.98,-34066.406,5244.507,-33461.344,14058.92,8070.842,73216.27
1311501.867677195,-91320.03,-81680.09,-34075.887,5238.363,-33469.688,14062.46,8071.6147,73257.81
1311501.871677214,-91294.72,-81676.27,-34071.086,5238.973,-33472.78,14063.803,8074.992,73285.97
1311501.875677233,-91310.67,-81679.734,-34065.227,5245.4834,-33464.844,14061.523,8072.8765,73246.09
1311501.8796772521,-91338.46,-81685.18,-34064.25,5250.0,-33457.48,14058.676,8068.807,73200.445
1311501.8836772712,-91330.98,-81690.15,-34067.75,5245.321,-33466.023,14058.228,8070.394,73218.14
1311501.8876772902,-91300.46,-81678.19,-34072.836,5241.13,-33474.164,14058.513,8074.7075,73263.8
1311501.8916773093,-91292.52,-81678.43,-34075.93,5237.7524,-33477.05,14059.57,8076.6196,73283.24
1311501.8956773283,-91312.055,-81684.164,-34072.754,5244.385,-33465.09,14055.298,8064.25,73234.78
1311501.8996773474,-91346.68,-81691.94,-34066.734,5248.3726,-33456.79,14054.6875,8060.6694,73196.21
1311501.9036773664,-91349.04,-81700.73,-34071.207,5241.781,-33469.93,14058.269,8070.7603,73227.7
1311501.9076773855,-91326.375,-81693.81,-34076.703,5237.142,-33477.742,14059.164,8074.26,73272.87
1311501.9116774045,-91314.984,-81693.28,-34078.453,5232.0557,-33485.598,14056.396,8075.8467,73286.26
1311501.9156774236,-91321.78,-81687.5,-34074.953,5239.502,-33470.906,14050.415,8072.7544,73250.9
1311501.9196774426,-91338.79,-81686.57,-34068.156,5247.152,-33458.133,14051.433,8073.039,73209.88
1311501.9236774617,-91331.95,-81688.766,-34070.23,5243.2456,-33471.64,14053.183,8073.1206,73226.69
1311501.9276774807,-91318.69,-81695.27,-34079.387,5234.538,-33487.918,14055.258,8073.487,73257.98
1311501.9316774998,-91308.15,-81701.01,-34082.48,5232.6255,-33490.48,14055.908,8072.6323,73274.58
1311501.9356775188,-91324.83,-81706.26,-34074.75,5240.1123,-33477.62,14050.619,8059.4077,73219.12
1311501.939677538,-91347.74,-81707.195,-34071.86,5248.576,-33460.246,14045.614,8052.857,73178.23
1311501.943677557,-91337.734,-81701.336,-34071.695,5247.1924,-33463.625,14046.997,8058.635,73207.64
1311501.947677576,-91312.5,-81691.86,-34075.195,5241.903,-33474.895,14050.985,8066.9355,73253.016
1311501.951677595,-91300.46,-81693.97,-34074.26,5237.02,-33480.227,14053.467,8067.9526,73271.94
1311501.955677614,-91314.86,-81695.516,-34068.523,5243.6934,-33472.13,14054.484,8064.6567,73234.625
1311501.9596776331,-91337.04,-81702.72,-34068.484,5247.8843,-33464.887,14051.799,8066.0405,73193.65
1311501.9636776522,-91334.72,-81708.01,-34074.586,5242.1064,-33474.69,14052.043,8073.0796,73218.79
1311501.9676776712,-91315.96,-81702.31,-34080.484,5234.131,-33482.91,14054.24,8074.87,73253.09
1311501.9716776903,-91299.56,-81691.41,-34078.37,5235.067,-33480.31,14054.647,8073.446,73271.04
1311501.9756777093,-91307.82,-81684.734,-34071.74,5246.704,-33460.45,14052.002,8068.5225,73233.28
1311501.9796777284,-91326.17,-81682.21,-34061.727,5256.2666,-33451.58,14053.061,8073.161,73197.35
1311501.9836777474,-91325.28,-81693.93,-34063.6,5251.058,-33461.184,14056.234,8074.87,73223.31
1311501.9876777665,-91310.8,-81701.87,-34065.105,5243.7744,-33474.57,14057.861,8076.2944,73256.72
1311501.9916777855,-91289.23,-81694.83,-34066.734,5243.6934,-33478.434,14060.385,8078.817,73274.7
1311501.9956778046,-91309.37,-81695.56,-34069.46,5247.4775,-33469.566,14060.141,8070.8013,73230.23
1311501.9996778236,-91336.63,-81697.02,-34065.88,5251.7905,-33462.605,14057.536,8065.2266,73185.586
1311502.0036778427,-91336.02,-81702.15,-34070.11,5247.8438,-33468.75,14061.564,8073.446,73213.79
1311502.0076778617,-91301.15,-81690.88,-34067.71,5244.995,-33477.945,14060.507,8079.305,73260.83
1311502.0116778808,-91279.625,-81684.734,-34071.086,5241.0483,-33482.83,14061.605,8085.0425,73277.95
1311502.0156778998,-91290.57,-81679.94,-34065.797,5247.5586,-33472.453,14061.728,8083.537,73251.43
1311502.0196779189,-91322.555,-81687.586,-34062.094,5253.6216,-33464.48,14061.035,8076.2534,73202.07
1311502.023677938,-91332.89,-81698.04,-34069.582,5250.0815,-33471.11,14064.169,8073.6494,73219.28
1311502.027677957,-91317.1,-81702.96,-34074.26,5245.0767,-33481.69,14062.785,8072.225,73260.664
1311502.031677976,-91299.36,-81690.23,-34072.67,5242.3506,-33486.086,14060.385,8071.859,73283.86
1311502.035677995,-91310.875,-81681.4,-34066.855,5250.122,-33470.867,14055.705,8067.5054,73243.086
1311502.039678014,-91336.14,-81687.3,-34064.168,5257.324,-33461.59,14055.054,8065.308,73193.69
1311502.0436780332,-91329.59,-81687.99,-34067.914,5253.988,-33468.508,14057.577,8065.267,73215.78
1311502.0476780522,-91309.05,-81688.27,-34077.92,5244.995,-33479.82,14060.1,8068.929,73257.61
1311502.0516780713,-91297.85,-81690.92,-34080.08,5241.8623,-33481.895,14061.728,8066.773,73279.586
1311502.0556780903,-91319.83,-81694.17,-34079.508,5247.8438,-33476.81,14058.554,8053.7114,73229.695
1311502.0596781094,-91353.11,-81701.01,-34073.73,5255.046,-33468.59,14056.763,8044.556,73186.69
1311502.0636781284,-91344.93,-81696.05,-34077.23,5252.7266,-33470.83,14058.065,8056.397,73216.8
1311502.0676781475,-91320.03,-81693.16,-34081.46,5245.5244,-33482.75,14060.791,8067.5864,73261.44
1311502.0716781665,-91298.016,-81691.98,-34084.312,5243.083,-33485.066,14060.954,8063.599,73279.83
1311502.0756781856,-91297.53,-81689.05,-34082.6,5246.948,-33476.32,14057.455,8055.4204,73239.99
1311502.0796782046,-91324.34,-81693.97,-34080.484,5251.2617,-33468.75,14053.223,8048.503,73212.41
1311502.0836782237,-91327.64,-81697.836,-34082.074,5246.826,-33481.324,14053.061,8051.595,73247.36
1311502.0876782427,-91305.71,-81694.625,-34088.625,5240.804,-33487.957,14054.606,8056.275,73272.75
1311502.0916782618,-91288.91,-81689.29,-34089.195,5239.502,-33488.242,14054.159,8053.101,73263.305
1311502.0956782808,-91309.414,-81691.37,-34083.133,5246.582,-33477.01,14050.822,8046.7124,73222.91
1311502.0996782999,-91334.07,-81693.484,-34080.65,5252.523,-33470.95,14048.137,8042.1553,73185.1
1311502.103678319,-91343.63,-81703.62,-34084.676,5248.9424,-33480.387,14050.659,8042.969,73199.55
1311502.107678338,-91336.76,-81714.36,-34095.83,5239.8276,-33494.305,14052.043,8048.0146,73235.39
1311502.111678357,-91318.61,-81705.98,-34094.89,5238.159,-33497.76,14048.747,8048.0146,73254.88
1311502.115678376,-91327.07,-81696.54,-34089.07,5246.704,-33482.42,14045.329,8039.266,73214.36
1311502.119678395,-91350.47,-81699.47,-34083.375,5252.5635,-33474.49,14045.37,8039.6733,73176.555
1311502.1236784142,-91348.555,-81703.25,-34087.73,5247.1924,-33483.887,14048.625,8048.8286,73207.73
1311502.1276784332,-91319.09,-81696.336,-34088.625,5243.0015,-33486.492,14051.188,8054.769,73252.89
1311502.1316784522,-91309.66,-81694.79,-34089.234,5240.316,-33493.816,14052.49,8057.4956,73280.16
1311502.1356784713,-91324.79,-81701.5,-34091.88,5246.216,-33484.05,14048.91,8046.224,73241.91
1311502.1396784903,-91353.03,-81711.914,-34085.45,5253.1333,-33477.336,14043.823,8035.523,73187.625
1311502.1436785096,-91355.23,-81714.84,-34086.71,5249.227,-33490.36,14045.614,8036.3364,73201.01
1311502.1476785287,-91334.31,-81711.43,-34090.984,5242.1064,-33498.332,14051.474,8048.5435,73242.64
1311502.1516785477,-91316.2,-81702.88,-34092.9,5239.99,-33499.188,14053.467,8052.613,73267.58
1311502.1556785668,-91331.83,-81701.13,-34086.793,5246.501,-33485.35,14048.056,8044.7188,73226.28
1311502.1596785858,-91351.61,-81701.01,-34082.684,5256.2666,-33469.93,14047.852,8042.0737,73188.31
1311502.1636786049,-91342.41,-81706.71,-34086.344,5252.9707,-33476.117,14051.27,8048.8286,73225.42
1311502.167678624,-91320.27,-81713.625,-34085.33,5245.4834,-33490.438,14053.589,8055.7456,73270.02
1311502.171678643,-91309.33,-81704.875,-34082.645,5247.8438,-33489.42,14052.694,8049.4795,73273.766
1311502.175678662,-91320.88,-81698.81,-34079.145,5255.9814,-33474.203,14049.032,8038.9,73222.86
1311502.179678681,-91339.195,-81693.32,-34077.516,5262.9805,-33463.46,14050.537,8044.2305,73187.7
1311502.1836787001,-91334.07,-81693.81,-34079.836,5260.783,-33469.32,14056.723,8056.926,73219.52
1311502.1876787192,-91311.73,-81697.23,-34080.77,5253.703,-33484.945,14060.791,8062.785,73260.945
1311502.1916787382,-91291.34,-81689.25,-34081.504,5251.3022,-33488.445,14061.117,8060.2217,73272.22
1311502.1956787573,-91308.27,-81684.62,-34080.934,5260.173,-33475.504,14055.705,8051.5547,73220.38
1311502.1996787763,-91345.26,-81691.695,-34073.895,5267.2935,-33470.133,14051.596,8044.5967,73184.57
1311502.2036787954,-91337.77,-81685.51,-34078.656,5264.486,-33475.992,14055.217,8050.2935,73220.83
1311502.2076788144,-91312.09,-81678.305,-34078.41,5259.6846,-33483.035,14059.286,8054.647,73253.3
1311502.2116788335,-91294.03,-81672.53,-34077.15,5258.9927,-33484.05,14062.46,8058.7163,73254.516
1311502.2156788525,-91301.76,-81668.87,-34075.074,5267.1714,-33474.04,14060.832,8054.281,73214.56
1311502.2196788716,-91332.484,-81673.1,-34070.56,5272.054,-33465.21,14061.809,8055.6646,73189.21
1311502.2236788906,-91336.47,-81685.914,-34077.72,5265.3403,-33476.727,14066.813,8063.5176,73220.18
1311502.2276789097,-91324.625,-81689.414,-34082.4,5259.3184,-33487.67,14067.302,8062.3784,73254.6
1311502.2316789287,-91309.164,-81687.3,-34083.496,5258.301,-33487.43,14063.437,8055.705,73271.52
1311502.2356789478,-91319.26,-81686.0,-34077.84,5266.561,-33475.383,14062.175,8048.4214,73231.445
1311502.2396789668,-91339.195,-81683.02,-34075.156,5274.6177,-33463.992,14064.535,8048.9507,73190.88
1311502.2436789859,-91333.87,-81681.64,-34075.645,5272.0137,-33469.08,14066.406,8057.9023,73218.55
1311502.247679005,-91311.52,-81677.62,-34075.93,5265.91,-33482.504,14066.977,8061.9307,73265.055
1311502.251679024,-91307.21,-81680.99,-34077.68,5261.0273,-33489.383,14067.465,8060.262,73270.19
1311502.255679043,-91329.63,-81685.06,-34082.887,5266.1543,-33481.61,14067.302,8051.3105,73227.99
1311502.259679062,-91347.13,-81685.14,-34074.586,5277.2217,-33469.81,14064.087,8041.545,73190.23
1311502.263679081,-91333.58,-81678.02,-34073.04,5277.1406,-33475.14,14061.6455,8042.1553,73215.17
1311502.2676791002,-91314.945,-81680.87,-34072.266,5271.7285,-33482.465,14063.151,8045.6953,73253.38
1311502.2716791192,-91297.9,-81680.26,-34068.277,5269.084,-33487.59,14064.657,8051.107,73273.234
1311502.2756791383,-91314.78,-81676.03,-34071.902,5274.0073,-33479.41,14061.931,8046.672,73224.04
1311502.2796791573,-91357.016,-81688.68,-34069.254,5278.8496,-33474.285,14058.798,8040.487,73180.79
1311502.2836791764,-91356.24,-81696.78,-34075.6,5274.17,-33484.09,14063.884,8048.381,73216.02
1311502.2876791954,-91336.76,-81698.61,-34079.145,5268.718,-33491.293,14065.1455,8047.7705,73249.39
1311502.2916792145,-91317.016,-81689.375,-34075.81,5267.619,-33491.17,14061.85,8048.869,73271.69
1311502.2956792335,-91322.8,-81675.375,-34070.844,5275.8384,-33474.812,14058.1875,8038.0864,73227.46
1311502.2996792526,-91346.31,-81677.94,-34065.918,5285.36,-33460.574,14055.38,8028.687,73185.95
1311502.3036792716,-91336.305,-81680.55,-34064.453,5280.884,-33472.453,14058.432,8039.714,73218.55
1311502.3076792907,-91313.03,-81682.91,-34070.8,5275.0244,-33479.086,14060.913,8049.886,73261.72
1311502.3116793097,-91299.08,-81683.35,-34072.633,5271.118,-33480.266,14063.681,8054.9727,73292.6
1311502.3156793287,-91310.75,-81677.57,-34064.656,5277.385,-33468.875,14065.674,8057.5767,73249.836
1311502.3196793478,-91329.8,-81670.086,-34054.605,5288.7373,-33458.133,14064.494,8052.979,73206.22
1311502.3236793668,-91322.11,-81672.69,-34052.33,5286.662,-33467.49,14063.843,8051.026,73231.734
1311502.327679386,-91302.01,-81672.81,-34056.438,5280.884,-33474.734,14066.936,8056.763,73275.59
1311502.331679405,-91287.07,-81658.53,-34054.527,5282.3486,-33471.438,14071.696,8060.2217,73302.66
1311502.335679424,-91303.19,-81653.08,-34047.16,5291.0566,-33456.3,14070.964,8057.3325,73268.07
1311502.339679443,-91340.414,-81662.88,-34040.895,5295.736,-33449.832,14068.808,8054.118,73223.39
1311502.343679462,-91339.4,-81666.47,-34046.715,5290.6904,-33459.555,14071.737,8062.3374,73251.14
1311502.3476794811,-91315.19,-81662.234,-34047.977,5285.7666,-33468.18,14073.73,8064.006,73293.3
1311502.3516795002,-91299.195,-81660.52,-34048.137,5284.465,-33470.01,14072.226,8061.239,73306.12
1311502.3556795192,-91310.914,-81661.83,-34040.0,5290.283,-33465.17,14068.767,8057.2515,73260.22
1311502.3596795383,-91330.53,-81665.29,-34035.117,5296.102,-33456.79,14068.97,8054.281,73221.234
1311502.3636795573,-91316.37,-81661.42,-34039.957,5294.7188,-33458.54,14073.935,8064.25,73258.51
1311502.3676795764,-91296.266,-81661.46,-34045.535,5285.8076,-33471.07,14077.637,8071.5337,73297.98
1311502.3716795954,-91283.33,-81653.98,-34054.812,5284.953,-33470.83,14077.841,8068.0747,73311.12
1311502.3756796145,-91310.71,-81660.89,-34056.277,5290.6904,-33461.305,14072.144,8055.8677,73256.516
1311502.3796796335,-91341.19,-81668.7,-34049.684,5299.1943,-33452.516,14069.458,8048.503,73216.48
1311502.3836796526,-91330.24,-81667.04,-34048.91,5295.9395,-33458.457,14070.354,8053.752,73247.64
1311502.3876796716,-91306.64,-81665.164,-34048.953,5289.8765,-33468.06,14069.987,8057.414,73289.63
1311502.3916796907,-91292.36,-81658.086,-34051.8,5286.621,-33469.117,14071.086,8061.0356,73317.266
1311502.3956797097,-91307.05,-81651.164,-34046.918,5292.7656,-33461.754,14069.58,8057.7397,73277.34
1311502.3996797288,-91329.39,-81648.195,-34041.79,5301.0664,-33448.12,14068.115,8054.769,73232.875
1311502.4036797478,-91331.914,-81655.97,-34049.887,5294.963,-33453.9,14071.696,8058.635,73250.98
1311502.4076797669,-91328.49,-81666.22,-34058.23,5285.7666,-33469.566,14074.667,8063.8022,73283.37
1311502.411679786,-91318.69,-81672.41,-34060.344,5283.0405,-33467.57,14073.894,8061.239,73307.05
1311502.415679805,-91322.92,-81663.45,-34053.184,5291.789,-33455.65,14068.115,8051.3105,73265.42
1311502.419679824,-91342.33,-81661.055,-34049.03,5300.0083,-33448.203,14067.221,8051.514,73225.625
1311502.423679843,-91330.734,-81658.734,-34052.98,5295.736,-33451.58,14070.272,8060.059,73252.04
1311502.4276798621,-91303.67,-81657.02,-34054.527,5288.7373,-33465.74,14071.493,8062.7036,73290.53
1311502.4316798812,-91300.336,-81664.8,-34059.246,5283.529,-33471.76,14073.8125,8062.4595,73301.8
