timestamp,Fp1,Fp2,F3,Fz,F4,Cz,Pz,Oz
1311244.2304501745,-86559.62,-77919.6,-31483.969,-1807.4138,-26176.596,11046.265,12754.68,70364.26
1311244.2344501936,-86518.03,-77904.22,-31470.012,-1809.6517,-26182.455,11050.049,12765.056,70405.93
1311244.2384502126,-86507.57,-77899.78,-31475.465,-1810.0994,-26189.414,11051.88,12768.311,70412.27
1311244.2424502317,-86538.945,-77909.43,-31477.133,-1809.5297,-26195.68,11055.664,12778.646,70391.97
1311244.2464502507,-86563.56,-77918.74,-31473.309,-1806.0303,-26180.299,11048.91,12758.261,70368.86
1311244.2504502698,-86570.92,-77926.39,-31476.482,-1808.1462,-26173.057,11050.944,12758.749,70375.41
1311244.2544502888,-86521.2,-77908.49,-31471.03,-1809.7738,-26185.467,11052.979,12769.409,70425.375
1311244.2584503079,-86505.25,-77903.28,-31477.54,-1813.029,-26190.879,11053.386,12771.973,70427.57
1311244.262450327,-86536.83,-77916.22,-31468.955,-1811.4421,-26195.312,11051.27,12763.103,70393.59
1311244.266450346,-86562.95,-77912.72,-31476.604,-1808.5125,-26189.047,11052.084,12766.643,70382.24
1311244.270450365,-86571.01,-77917.85,-31486.898,-1808.9193,-26167.074,11051.514,12765.747,70391.28
1311244.274450384,-86528.85,-77902.51,-31472.861,-1811.8896,-26194.541,11055.258,12772.746,70433.72
1311244.2784504031,-86528.0,-77912.36,-31470.42,-1815.8367,-26202.312,11055.868,12774.455,70427.57
1311244.2824504222,-86545.17,-77921.1,-31478.232,-1809.8959,-26171.428,11045.695,12753.784,70390.83
1311244.2864504412,-86563.52,-77922.61,-31480.592,-1810.0586,-26185.467,11043.417,12749.1455,70375.2
1311244.2904504603,-86552.414,-77910.81,-31481.365,-1809.9773,-26186.768,11043.864,12751.221,70394.25
1311244.2944504793,-86512.86,-77906.91,-31483.725,-1816.0808,-26197.998,11056.519,12776.896,70441.98
1311244.2984504984,-86489.42,-77892.414,-31470.582,-1812.3779,-26202.678,11054.443,12767.863,70445.6
1311244.3024505174,-86528.08,-77910.85,-31480.43,-1813.029,-26191.367,11050.131,12755.087,70412.44
1311244.3064505365,-86572.31,-77931.36,-31485.557,-1811.8083,-26182.7,11048.706,12746.542,70389.77
1311244.3104505555,-86573.734,-77931.56,-31479.492,-1811.4828,-26194.012,11051.188,12751.831,70402.55
1311244.3144505746,-86529.055,-77916.42,-31481.568,-1813.9648,-26200.521,11052.612,12760.336,70440.23
1311244.3184505936,-86517.336,-77915.734,-31482.016,-1814.8193,-26192.994,11049.846,12755.331,70430.055
1311244.3224506127,-86529.14,-77915.37,-31473.838,-1810.018,-26191.082,11046.875,12741.577,70401.49
1311244.3264506317,-86551.96,-77919.44,-31478.068,-1808.1462,-26189.088,11048.218,12745.199,70383.42
1311244.3304506508,-86542.6,-77912.68,-31484.62,-1807.2103,-26185.914,11051.88,12751.181,70400.92
1311244.3344506698,-86524.91,-77915.33,-31474.203,-1812.5814,-26182.7,11056.4375,12763.632,70440.59
1311244.3384506889,-86519.94,-77907.96,-31465.129,-1811.6049,-26181.682,11051.718,12753.703,70435.71
1311244.342450708,-86536.09,-77904.5,-31464.316,-1806.9662,-26194.012,11048.95,12746.826,70408.9
1311244.346450727,-86563.44,-77908.81,-31475.383,-1806.8848,-26204.916,11048.991,12754.761,70392.09
1311244.350450746,-86553.1,-77901.9,-31468.182,-1801.8799,-26189.209,11048.137,12746.826,70406.58
1311244.354450765,-86520.555,-77891.805,-31459.596,-1804.8096,-26187.541,11053.427,12759.929,70452.805
1311244.358450784,-86525.516,-77900.92,-31466.96,-1809.6111,-26190.268,11058.554,12765.463,70452.88
1311244.3624508032,-86554.445,-77913.58,-31469.035,-1807.9021,-26189.535,11058.798,12760.986,70421.96
1311244.3664508222,-86593.67,-77926.84,-31467.49,-1804.891,-26176.434,11052.531,12747.722,70390.38
1311244.3704508413,-86573.04,-77907.15,-31468.344,-1802.7751,-26186.605,11051.352,12755.412,70418.055
1311244.3744508603,-86528.08,-77898.36,-31461.549,-1806.071,-26200.033,11054.77,12771.322,70460.45
1311244.3784508794,-86503.54,-77893.76,-31466.025,-1808.5125,-26195.068,11055.542,12765.056,70457.64
1311244.3824508984,-86541.71,-77909.18,-31473.797,-1809.0007,-26187.908,11054.606,12755.493,70418.17
1311244.3864509175,-86587.28,-77916.14,-31470.5,-1805.3386,-26184.979,11051.758,12747.6,70393.35
1311244.3904509365,-86588.625,-77910.81,-31468.994,-1804.24,-26181.682,11052.002,12758.22,70418.54
1311244.3944509556,-86554.81,-77904.38,-31472.738,-1808.5938,-26194.053,11057.983,12767.212,70464.234
1311244.3984509746,-86531.45,-77899.21,-31472.332,-1809.3262,-26196.127,11054.362,12756.592,70458.336
1311244.4024509937,-86558.48,-77909.016,-31477.744,-1809.4076,-26193.768,11051.962,12747.111,70417.766
1311244.4064510127,-86579.96,-77909.016,-31482.83,-1808.0242,-26189.332,11047.934,12738.037,70394.57
1311244.4104510318,-86570.16,-77903.73,-31481.895,-1809.2855,-26191.162,11053.305,12746.704,70405.6
1311244.4144510508,-86518.35,-77887.125,-31471.965,-1809.1635,-26194.58,11057.17,12752.319,70450.93
1311244.4184510699,-86516.69,-77895.266,-31472.941,-1812.6628,-26197.877,11055.624,12744.589,70442.75
1311244.422451089,-86541.18,-77902.875,-31478.11,-1808.6345,-26189.697,11055.624,12737.143,70411.5
1311244.426451108,-86574.266,-77919.805,-31475.303,-1804.5654,-26187.217,11054.362,12734.782,70392.336
1311244.430451127,-86566.94,-77906.86,-31475.098,-1802.2054,-26184.164,11055.746,12741.821,70425.336
1311244.434451146,-86523.93,-77891.03,-31470.42,-1804.3213,-26191.285,11058.228,12751.953,70460.77
1311244.438451165,-86504.56,-77890.51,-31472.617,-1806.3152,-26191.691,11056.845,12751.181,70451.3
1311244.4424511841,-86531.17,-77904.09,-31476.604,-1808.309,-26190.959,11058.391,12753.256,70426.8
1311244.4464512032,-86564.7,-77909.63,-31477.377,-1807.1289,-26185.752,11057.577,12750.407,70402.266
1311244.4504512222,-86556.766,-77898.234,-31473.268,-1804.362,-26180.787,11056.274,12753.215,70425.17
1311244.4544512413,-86513.96,-77887.49,-31468.506,-1804.891,-26190.146,11061.239,12765.625,70470.91
1311244.4584512603,-86502.24,-77888.15,-31465.17,-1804.6875,-26193.848,11060.1,12758.505,70455.89
1311244.4624512794,-86527.51,-77893.44,-31463.34,-1801.473,-26190.227,11057.902,12746.623,70422.08
1311244.4664512984,-86559.86,-77901.37,-31461.508,-1798.706,-26181.723,11057.902,12741.089,70401.53
1311244.4704513175,-86568.445,-77908.29,-31466.92,-1800.7406,-26183.025,11062.338,12752.482,70420.29
1311244.4744513365,-86533.66,-77899.09,-31470.908,-1805.0131,-26189.617,11067.749,12762.98,70463.055
1311244.4784513556,-86519.53,-77891.805,-31466.39,-1805.8676,-26193.482,11066.813,12760.092,70464.64
1311244.4824513746,-86547.445,-77906.7,-31466.635,-1803.833,-26189.535,11060.751,12749.96,70426.555
1311244.4864513937,-86584.31,-77921.836,-31466.39,-1801.6357,-26188.559,11056.682,12741.049,70408.53
1311244.4904514127,-86576.09,-77914.59,-31470.664,-1803.182,-26188.518,11060.181,12752.89,70431.44
1311244.4944514318,-86527.51,-77897.18,-31457.643,-1801.7986,-26194.865,11064.494,12758.952,70471.31
1311244.4984514508,-86527.55,-77909.1,-31465.373,-1805.2572,-26192.303,11066.122,12756.999,70456.664
1311244.50245147,-86546.06,-77915.125,-31472.861,-1805.0945,-26198.73,11063.965,12752.36,70430.26
1311244.506451489,-86570.07,-77917.56,-31466.96,-1799.9675,-26196.818,11060.832,12742.961,70408.57
1311244.510451508,-86567.55,-77909.63,-31465.902,-1798.7468,-26193.238,11061.32,12747.519,70433.19
1311244.514451527,-86540.695,-77903.89,-31467.082,-1803.4668,-26192.465,11066.61,12755.087,70467.695
1311244.518451546,-86534.1,-77912.88,-31470.785,-1808.0242,-26204.998,11068.563,12754.965,70465.05
1311244.5224515651,-86554.0,-77917.04,-31472.291,-1805.2572,-26195.15,11062.785,12743.9375,70438.766
1311244.5264515842,-86574.55,-77913.414,-31470.5,-1800.822,-26186.035,11062.988,12744.385,70425.984
1311244.5304516032,-86576.91,-77913.375,-31467.326,-1802.7344,-26190.838,11063.64,12748.617,70441.04
1311244.5344516223,-86538.375,-77912.07,-31465.74,-1804.1586,-26194.824,11067.139,12754.436,70477.46
1311244.5384516413,-86519.62,-77910.93,-31472.82,-1803.7109,-26190.023,11067.017,12750.488,70472.25
1311244.5424516604,-86545.21,-77913.086,-31477.906,-1802.8972,-26188.232,11059.123,12738.485,70439.58
1311244.5464516794,-86585.414,-77933.39,-31480.55,-1804.891,-26196.33,11061.117,12743.286,70417.93
1311244.5504516985,-86573.125,-77922.9,-31468.344,-1799.5199,-26187.176,11058.1875,12726.359,70420.734
1311244.5544517175,-86546.266,-77921.305,-31468.547,-1804.362,-26192.709,11064.941,12747.314,70467.25
1311244.5584517366,-86535.41,-77918.016,-31469.564,-1803.4668,-26186.809,11067.099,12750.529,70470.09
1311244.5624517556,-86552.164,-77915.41,-31466.717,-1799.6013,-26191.326,11062.744,12741.252,70440.76
1311244.5664517747,-86583.74,-77925.83,-31471.885,-1798.1771,-26187.988,11060.507,12734.294,70414.836
1311244.5704517937,-86564.414,-77910.61,-31471.803,-1795.7764,-26183.555,11060.059,12733.114,70433.19
1311244.5744518128,-86521.28,-77903.61,-31468.588,-1801.5137,-26196.941,11064.779,12745.565,70475.67
1311244.5784518318,-86508.42,-77897.55,-31466.229,-1801.0662,-26192.953,11064.779,12747.925,70473.96
1311244.5824518509,-86534.305,-77906.25,-31467.53,-1798.7875,-26189.494,11062.622,12737.468,70443.61
1311244.58645187,-86565.31,-77911.79,-31462.566,-1796.7529,-26187.826,11062.744,12737.631,70425.58
1311244.590451889,-86569.3,-77911.055,-31463.379,-1796.3054,-26182.822,11065.1455,12744.711,70441.66
1311244.594451908,-86541.016,-77906.17,-31467.49,-1800.7,-26191.406,11068.075,12748.739,70477.74
1311244.598451927,-86526.82,-77911.38,-31467.123,-1804.891,-26196.738,11067.627,12748.373,70467.98
1311244.6024519461,-86547.57,-77919.48,-31472.617,-1803.1414,-26191.082,11064.779,12738.119,70435.55
1311244.6064519652,-86577.4,-77925.09,-31467.082,-1800.293,-26190.35,11062.012,12726.97,70413.336
1311244.6104519842,-86571.49,-77920.375,-31465.74,-1799.3572,-26184.287,11063.11,12736.247,70437.54
1311244.6144520033,-86535.61,-77915.125,-31468.1,-1802.531,-26190.553,11067.668,12752.075,70486.21
1311244.6184520223,-86543.664,-77940.35,-31477.744,-1810.3842,-26207.113,11069.621,12757.8125,70490.56
1311244.6224520414,-86565.72,-77940.92,-31478.477,-1807.1289,-26195.842,11065.715,12746.623,70452.31
1311244.6264520604,-86581.914,-77919.27,-31472.25,-1798.584,-26176.434,11058.594,12726.522,70420.9
1311244.6304520795,-86582.69,-77918.17,-31468.182,-1798.6654,-26181.396,11060.832,12732.707,70442.51
1311244.6344520985,-86556.69,-77925.83,-31470.908,-1805.8269,-26193.727,11066.65,12749.187,70490.56
1311244.6384521176,-86541.586,-77924.89,-31465.537,-1807.251,-26195.72,11067.465,12750.814,70490.766
1311244.6424521366,-86570.64,-77942.586,-31467.45,-1806.7627,-26188.72,11065.1045,12742.432,70450.97
1311244.6464521557,-86607.266,-77952.11,-31470.947,-1805.949,-26188.273,11064.901,12743.368,70442.016
1311244.6504521747,-86604.86,-77942.18,-31474.365,-1805.4607,-26187.988,11067.18,12749.756,70467.9
1311244.6544521938,-86572.59,-77940.836,-31466.838,-1808.309,-26194.824,11068.278,12752.849,70501.55
1311244.6584522128,-86571.695,-77946.58,-31470.5,-1809.5703,-26197.186,11066.244,12755.29,70495.77
1311244.6624522319,-86588.055,-77947.47,-31470.215,-1802.6123,-26186.443,11059.204,12739.38,70459.516
1311244.666452251,-86618.94,-77956.42,-31471.07,-1802.3275,-26187.135,11062.216,12735.556,70433.72
1311244.67045227,-86611.375,-77950.16,-31466.838,-1802.9785,-26191.488,11064.941,12738.892,70454.14
1311244.674452289,-86561.73,-77937.09,-31467.285,-1804.5654,-26192.018,11067.912,12755.371,70509.97
1311244.678452308,-86546.305,-77938.73,-31462.852,-1804.6875,-26188.64,11065.837,12749.39,70499.72
1311244.682452327,-86576.17,-77949.47,-31468.994,-1805.2572,-26187.908,11062.866,12741.252,70462.98
1311244.6864523462,-86613.37,-77961.59,-31472.006,-1804.2806,-26188.762,11062.378,12739.096,70440.76
1311244.6904523652,-86608.445,-77959.27,-31479.248,-1805.0537,-26186.361,11064.169,12746.42,70464.4
1311244.6944523843,-86564.375,-77948.77,-31473.186,-1808.2683,-26195.477,11068.889,12759.44,70506.516
1311244.6984524033,-86553.71,-77952.03,-31477.174,-1809.489,-26198.203,11067.993,12757.976,70499.48
1311244.7024524224,-86580.69,-77954.06,-31476.889,-1806.3558,-26194.012,11061.198,12745.483,70470.87
1311244.7064524414,-86618.62,-77966.555,-31476.727,-1804.9724,-26193.686,11058.798,12742.88,70450.73
1311244.7104524605,-86621.664,-77963.26,-31476.97,-1803.5889,-26192.506,11058.676,12743.083,70457.07
1311244.7144524795,-86596.195,-77957.73,-31477.5,-1809.7332,-26199.383,11060.954,12750.366,70495.93
1311244.7184524985,-86579.06,-77955.81,-31480.998,-1813.029,-26200.44,11063.3545,12751.425,70501.43
1311244.7224525176,-86599.24,-77963.22,-31483.807,-1810.5876,-26195.8,11061.035,12740.275,70461.95
1311244.7264525366,-86626.95,-77969.24,-31484.172,-1808.6752,-26194.336,11059.937,12738.078,70445.27
1311244.7304525557,-86620.65,-77965.25,-31480.674,-1808.1462,-26191.162,11060.466,12735.434,70451.055
1311244.7344525747,-86576.055,-77946.62,-31474.691,-1810.8724,-26201.01,11065.674,12740.479,70490.03
1311244.7384525938,-86564.01,-77943.81,-31474.121,-1810.791,-26201.133,11064.697,12732.748,70484.46
1311244.7424526128,-86592.45,-77951.83,-31475.506,-1809.082,-26194.947,11060.303,12722.9,70453.01
1311244.746452632,-86634.36,-77961.59,-31482.383,-1807.251,-26193.36,11061.117,12721.68,70432.3
1311244.750452651,-86637.695,-77964.12,-31481.568,-1808.8787,-26195.436,11065.918,12731.323,70456.18
1311244.75445267,-86595.3,-77950.12,-31478.8,-1810.14,-26191.855,11068.97,12742.473,70493.49
1311244.758452689,-86582.805,-77948.85,-31481.08,-1811.4014,-26195.354,11066.406,12734.538,70489.625
1311244.762452708,-86595.7,-77954.59,-31477.133,-1807.6986,-26192.75,11060.1,12711.914,70452.88
1311244.7664527271,-86626.305,-77963.87,-31478.436,-1806.7627,-26193.197,11058.716,12712.24,70425.54
1311244.7704527462,-86626.305,-77966.11,-31480.754,-1809.4482,-26196.818,11060.1,12720.175,70447.39
1311244.7744527652,-86593.95,-77957.4,-31478.639,-1812.4187,-26198.61,11065.39,12736.166,70490.766
1311244.7784527843,-86584.234,-77953.9,-31473.553,-1809.0414,-26197.795,11063.762,12733.236,70480.8
1311244.7824528033,-86610.68,-77964.27,-31478.11,-1805.542,-26187.217,11058.31,12721.232,70444.5
1311244.7864528224,-86638.555,-77970.5,-31482.951,-1804.24,-26194.256,11057.292,12720.297,70429.77
1311244.7904528414,-86647.79,-77976.04,-31484.863,-1806.3152,-26195.232,11060.669,12725.79,70448.61
1311244.7944528605,-86601.52,-77965.01,-31477.012,-1809.489,-26203.777,11066.162,12736.654,70485.516
1311244.7984528798,-86579.63,-77952.195,-31470.703,-1808.309,-26203.777,11065.512,12734.131,70487.19
1311244.8024528988,-86608.85,-77957.32,-31480.348,-1805.0945,-26196.494,11059.611,12718.059,70447.35
1311244.8064529179,-86651.57,-77970.91,-31485.027,-1804.0365,-26196.33,11059.001,12712.24,70420.01
1311244.810452937,-86652.51,-77969.24,-31483.318,-1804.0771,-26195.965,11058.594,12716.309,70437.016
1311244.814452956,-86614.42,-77959.234,-31478.639,-1805.4199,-26198.65,11063.07,12731.934,70479.82
1311244.818452975,-86590.82,-77957.12,-31473.186,-1804.9724,-26202.23,11059.448,12722.087,70470.18
1311244.822452994,-86626.55,-77969.24,-31475.791,-1803.1414,-26196.818,11056.926,12715.292,70439.45
1311244.826453013,-86665.77,-77977.09,-31480.674,-1801.5951,-26187.012,11055.258,12710.124,70416.38
1311244.8304530322,-86648.93,-77961.06,-31478.11,-1798.991,-26193.727,11059.408,12723.227,70447.23
1311244.8344530512,-86613.484,-77954.63,-31473.877,-1803.6296,-26207.725,11063.11,12733.276,70484.055
1311244.8384530703,-86609.625,-77960.01,-31477.783,-1807.7393,-26208.172,11059.53,12722.941,70475.06
1311244.8424530893,-86630.91,-77968.71,-31480.795,-1805.7455,-26199.83,11055.949,12709.595,70436.89
1311244.8464531084,-86658.2,-77978.195,-31480.186,-1803.0599,-26199.463,11053.508,12705.933,70414.875
1311244.8504531274,-86640.51,-77965.336,-31473.674,-1800.7406,-26196.941,11050.781,12707.846,70434.41
1311244.8544531465,-86593.06,-77948.734,-31468.873,-1802.0427,-26203.37,11055.542,12721.477,70476.65
1311244.8584531655,-86577.44,-77946.49,-31471.07,-1803.6703,-26199.3,11057.739,12722.534,70478.97
1311244.8624531846,-86619.67,-77960.734,-31474.895,-1802.2054,-26197.186,11056.723,12705.566,70441.94
1311244.8664532036,-86652.34,-77967.61,-31475.709,-1800.4965,-26194.662,11056.56,12704.102,70426.48
1311244.8704532227,-86648.73,-77971.6,-31474.895,-1800.9847,-26198.61,11060.222,12715.21,70447.15
1311244.8744532417,-86604.62,-77960.49,-31469.2,-1804.0365,-26201.66,11062.541,12723.1045,70481.08
1311244.8784532608,-86585.984,-77955.125,-31473.877,-1803.833,-26196.656,11059.652,12716.391,70473.76
1311244.8824532798,-86607.875,-77952.72,-31474.121,-1799.6826,-26198.486,11055.014,12712.077,70445.48
1311244.8864532989,-86639.695,-77959.84,-31476.604,-1799.1537,-26194.947,11055.99,12713.583,70432.58
1311244.890453318,-86650.31,-77961.39,-31476.889,-1800.7812,-26193.768,11061.035,12721.191,70446.86
1311244.894453337,-86612.43,-77948.77,-31471.803,-1803.833,-26202.557,11067.912,12733.887,70491.05
1311244.898453356,-86588.71,-77947.43,-31467.123,-1803.7517,-26202.434,11067.912,12727.987,70488.77
1311244.902453375,-86609.055,-77954.8,-31471.314,-1802.2461,-26193.076,11061.523,12715.373,70455.08
1311244.906453394,-86641.69,-77960.53,-31473.35,-1798.3398,-26190.918,11060.141,12712.606,70436.28
1311244.9104534131,-86636.31,-77958.54,-31470.379,-1797.3633,-26190.064,11061.809,12719.931,70453.414
1311244.9144534322,-86589.52,-77945.195,-31461.508,-1798.055,-26193.564,11064.494,12729.33,70496.34
1311244.9184534512,-86570.766,-77945.31,-31467.45,-1802.124,-26198.568,11066.203,12732.992,70500.125
1311244.9224534703,-86591.84,-77953.33,-31468.426,-1801.2289,-26195.191,11063.11,12708.781,70450.85
1311244.9264534893,-86625.82,-77967.61,-31467.164,-1800.4965,-26199.383,11063.151,12706.137,70426.68
1311244.9304535084,-86635.3,-77979.945,-31478.436,-1803.3041,-26203.41,11069.58,12720.5,70446.984
1311244.9344535274,-86591.59,-77956.87,-31470.785,-1802.0427,-26204.672,11073.73,12731.12,70497.68
1311244.9384535465,-86544.15,-77915.734,-31458.334,-1795.044,-26193.32,11067.749,12727.255,70505.45
1311244.9424535655,-86572.76,-77923.586,-31462.24,-1792.3992,-26189.82,11065.227,12724.365,70477.055
1311244.9464535846,-86602.46,-77931.89,-31466.146,-1791.2598,-26185.059,11062.5,12715.983,70441.94
1311244.9504536036,-86602.13,-77925.78,-31461.426,-1790.8123,-26186.2,11063.3545,12714.56,70455.484
1311244.9544536227,-86559.66,-77915.2,-31457.684,-1793.6605,-26193.727,11068.808,12724.895,70500.45
1311244.9584536417,-86535.52,-77903.89,-31454.55,-1791.1377,-26191.691,11067.302,12720.337,70500.734
1311244.9624536608,-86557.945,-77902.836,-31455.12,-1786.3363,-26178.549,11060.425,12710.287,70460.29
1311244.9664536798,-86587.89,-77899.54,-31453.94,-1783.488,-26185.223,11060.913,12712.118,70443.65
1311244.970453699,-86579.555,-77892.7,-31450.848,-1781.8604,-26184.205,11065.186,12722.9,70470.016
1311244.974453718,-86532.96,-77882.086,-31447.307,-1783.8135,-26189.861,11071.086,12738.241,70502.65
1311244.978453737,-86525.02,-77876.875,-31446.697,-1782.8777,-26188.111,11070.19,12726.196,70499.8
1311244.982453756,-86561.85,-77891.73,-31450.48,-1780.0293,-26182.373,11069.458,12719.482,70474.81
1311244.986453775,-86597.05,-77911.09,-31452.76,-1778.6052,-26180.38,11069.987,12722.412,70460.53
1311244.9904537941,-86594.52,-77913.984,-31448.73,-1777.9135,-26183.473,11073.08,12732.463,70487.51
1311244.9944538132,-86549.03,-77901.414,-31441.041,-1779.8666,-26189.494,11074.911,12735.067,70524.945
1311244.9984538322,-86538.54,-77904.22,-31453.125,-1785.726,-26192.059,11074.951,12733.5205,70517.54
1311245.0024538513,-86569.7,-77910.2,-31457.275,-1784.2611,-26186.973,11069.458,12721.069,70477.87
1311245.0064538703,-86601.04,-77911.42,-31453.695,-1780.6804,-26180.705,11069.011,12719.442,70456.46
1311245.0104538894,-86591.39,-77905.234,-31451.742,-1778.4424,-26176.637,11073.364,12730.957,70491.336
1311245.0144539084,-86548.18,-77893.07,-31446.697,-1780.6804,-26178.143,11076.945,12744.385,70532.15
1311245.0184539275,-86534.51,-77893.03,-31444.824,-1780.5583,-26176.066,11077.922,12745.077,70528.2
1311245.0224539465,-86560.914,-77900.59,-31450.725,-1776.4893,-26169.395,11075.073,12738.363,70497.07
1311245.0264539656,-86588.55,-77907.68,-31448.365,-1775.3906,-26173.545,11072.958,12734.131,70476.24
1311245.0304539846,-86578.66,-77910.04,-31444.377,-1776.7742,-26174.48,11073.364,12741.049,70492.31
1311245.0344540037,-86532.516,-77893.234,-31443.156,-1776.53,-26173.3,11076.335,12754.517,70536.7
1311245.0384540227,-86524.62,-77889.37,-31442.75,-1776.6927,-26172.363,11074.748,12748.332,70534.79
1311245.0424540418,-86552.37,-77895.59,-31444.297,-1775.7976,-26175.498,11073.649,12740.927,70498.7
1311245.0464540608,-86585.66,-77904.625,-31447.145,-1774.5769,-26174.969,11074.138,12739.096,70482.79
1311245.0504540799,-86583.74,-77904.3,-31446.371,-1774.9838,-26174.846,11076.01,12743.408,70503.91
1311245.054454099,-86543.26,-77893.76,-31444.621,-1778.6459,-26182.049,11079.794,12753.134,70549.16
1311245.058454118,-86515.1,-77889.9,-31443.809,-1779.419,-26177.857,11079.062,12750.814,70543.91
1311245.062454137,-86554.734,-77901.29,-31447.186,-1778.0762,-26178.59,11078.532,12749.96,70502.56
1311245.066454156,-86603.03,-77917.24,-31448.812,-1776.001,-26176.514,11073.975,12736.532,70476.04
1311245.0704541751,-86600.99,-77904.586,-31448.936,-1774.8617,-26174.766,11071.737,12731.567,70498.086
1311245.0744541942,-86554.57,-77888.63,-31450.195,-1776.6927,-26176.922,11078.003,12745.524,70546.67
1311245.0784542132,-86540.2,-77889.85,-31451.457,-1778.4424,-26178.428,11078.654,12745.565,70546.1
1311245.0824542323,-86562.87,-77902.18,-31454.63,-1777.8728,-26177.654,11077.8,12738.607,70504.88
1311245.0864542513,-86589.6,-77910.32,-31454.916,-1776.5707,-26169.516,11076.376,12731.527,70479.74
1311245.0904542704,-86583.74,-77905.27,-31447.959,-1772.99,-26167.521,11079.59,12737.793,70499.8
1311245.0944542894,-86546.39,-77889.484,-31443.32,-1773.7224,-26174.521,11083.09,12748.901,70539.72
1311245.0984543085,-86535.52,-77885.17,-31443.768,-1771.4437,-26177.451,11081.055,12745.036,70537.84
1311245.1024543275,-86564.375,-77900.8,-31448.771,-1770.9554,-26175.742,11076.01,12729.574,70503.336
1311245.1064543466,-86595.7,-77913.45,-31453.41,-1771.3217,-26171.225,11074.219,12721.069,70480.266
1311245.1104543656,-86593.95,-77907.59,-31454.957,-1772.6238,-26175.701,11080.078,12729.452,70501.23
1311245.1144543847,-86549.44,-77894.734,-31451.172,-1775.9603,-26183.676,11083.008,12745.769,70547.2
1311245.1184544037,-86535.12,-77892.625,-31448.486,-1777.2217,-26184.367,11080.119,12739.787,70540.08
1311245.1224544228,-86568.08,-77902.39,-31450.766,-1774.6582,-26181.113,11079.956,12728.72,70502.36
1311245.1264544418,-86601.97,-77915.33,-31449.383,-1771.6064,-26181.275,11077.841,12724.609,70474.49
1311245.1304544609,-86604.695,-77914.39,-31455.566,-1771.8914,-26179.566,11079.143,12731.894,70494.75
1311245.13445448,-86570.92,-77905.93,-31448.324,-1774.3328,-26184.326,11083.903,12742.27,70539.96
1311245.138454499,-86559.53,-77908.49,-31450.969,-1777.9135,-26186.484,11081.584,12731.853,70532.19
1311245.142454518,-86587.28,-77916.305,-31457.154,-1777.9135,-26186.28,11079.916,12725.058,70498.7
1311245.146454537,-86614.87,-77922.125,-31459.84,-1777.3845,-26185.14,11077.556,12719.971,70475.38
1311245.150454556,-86603.07,-77924.69,-31461.549,-1779.0121,-26185.873,11080.078,12732.666,70493.086
1311245.1544545752,-86556.93,-77911.945,-31455.566,-1780.0293,-26189.535,11085.653,12748.047,70545.01
1311245.1584545942,-86539.02,-77907.11,-31450.277,-1777.832,-26188.518,11084.351,12741.008,70541.42
1311245.1624546133,-86573.37,-77923.55,-31454.754,-1777.2217,-26189.414,11082.927,12732.422,70508.67
1311245.1664546323,-86601.12,-77929.12,-31453.41,-1775.1465,-26188.355,11079.753,12722.331,70478.07
1311245.1704546514,-86595.75,-77920.25,-31448.121,-1773.5596,-26186.605,11081.381,12729.004,70500.41
1311245.1744546704,-86552.66,-77908.0,-31441.611,-1775.7568,-26196.574,11086.345,12740.805,70542.03
1311245.1784546894,-86544.88,-77913.375,-31445.965,-1779.2969,-26199.79,11083.537,12731.486,70532.39
1311245.1824547085,-86581.914,-77926.234,-31453.818,-1776.2451,-26194.744,11080.566,12719.564,70495.08
1311245.1864547275,-86627.484,-77940.72,-31460.246,-1775.0652,-26189.576,11082.927,12718.588,70475.016
1311245.1904547466,-86621.46,-77935.836,-31458.496,-1772.9492,-26183.676,11086.386,12725.342,70496.3
1311245.1944547656,-86565.48,-77908.695,-31451.986,-1773.3562,-26187.379,11090.129,12740.601,70545.53
1311245.1984547847,-86550.54,-77902.51,-31444.947,-1771.2402,-26190.553,11087.565,12738.811,70545.29
1311245.2024548037,-86572.06,-77911.74,-31443.686,-1768.6768,-26183.229,11081.869,12726.4,70509.32
1311245.2064548228,-86599.57,-77919.805,-31442.22,-1765.3402,-26182.537,11080.852,12725.668,70488.81
1311245.2104548418,-86595.91,-77916.51,-31443.848,-1767.741,-26186.89,11084.595,12736.654,70513.836
1311245.214454861,-86553.23,-77904.95,-31441.814,-1772.1355,-26188.314,11087.28,12742.025,70548.625
1311245.21845488,-86542.52,-77901.086,-31442.953,-1770.5892,-26186.809,11086.264,12735.881,70543.375
1311245.222454899,-86576.26,-77912.4,-31445.354,-1768.3105,-26182.658,11086.548,12731.364,70513.875
1311245.226454918,-86599.9,-77911.87,-31442.547,-1764.7299,-26180.055,11087.973,12734.619,70498.82
1311245.230454937,-86585.01,-77903.08,-31438.559,-1761.434,-26177.043,11089.396,12741.781,70521.445
1311245.2344549561,-86543.54,-77894.25,-31435.182,-1764.0789,-26180.908,11093.954,12756.186,70570.195
1311245.2384549752,-86531.58,-77890.46,-31434.775,-1764.7299,-26178.223,11091.187,12749.1455,70558.516
1311245.2424549942,-86557.54,-77897.586,-31433.39,-1760.7015,-26171.875,11087.484,12738.892,70530.11
1311245.2464550133,-86594.12,-77904.09,-31435.1,-1758.2601,-26168.254,11087.28,12736.003,70511.68
1311245.2504550323,-86597.54,-77903.16,-31434.367,-1757.365,-26171.713,11089.56,12739.99,70521.2
1311245.2544550514,-86558.19,-77886.72,-31426.393,-1758.8705,-26177.898,11091.594,12744.995,70567.47
1311245.2584550704,-86540.98,-77881.67,-31430.502,-1757.2429,-26174.602,11092.978,12745.6875,70567.266
1311245.2624550895,-86552.94,-77886.4,-31427.572,-1753.9877,-26165.65,11088.664,12733.765,70533.98
1311245.2664551085,-86578.945,-77890.67,-31431.193,-1753.0111,-26163.615,11087.524,12726.604,70503.18
1311245.2704551276,-86580.125,-77886.64,-31435.873,-1754.3945,-26164.836,11091.146,12733.276,70516.12
1311245.2744551466,-86547.61,-77882.33,-31432.658,-1758.667,-26172.73,11095.622,12743.693,70553.43
1311245.2784551657,-86535.81,-77876.266,-31429.688,-1758.5857,-26175.416,11094.198,12744.182,70551.11
1311245.2824551847,-86561.57,-77883.99,-31430.42,-1756.4291,-26170.127,11090.942,12735.962,70522.586
1311245.2864552038,-86596.64,-77896.61,-31435.71,-1755.656,-26169.475,11089.722,12729.655,70497.805
1311245.2904552228,-86596.03,-77892.54,-31438.111,-1756.307,-26169.068,11096.436,12740.683,70517.7
1311245.2944552419,-86555.87,-77885.91,-31434.693,-1760.0912,-26177.125,11102.011,12759.074,70565.516
1311245.298455261,-86535.89,-77879.97,-31435.873,-1758.7891,-26171.875,11100.993,12760.905,70573.65
1311245.30245528,-86570.88,-77885.99,-31438.559,-1755.0457,-26163.291,11095.947,12747.03,70539.39
1311245.306455299,-86605.516,-77888.02,-31435.629,-1751.3835,-26160.564,11091.879,12741.211,70522.22
1311245.310455318,-86594.57,-77886.6,-31430.828,-1751.6683,-26168.783,11091.675,12745.646,70540.94
1311245.3144553371,-86548.34,-77875.66,-31424.277,-1753.0111,-26173.748,11093.75,12748.332,70570.11
1311245.3184553562,-86538.82,-77876.875,-31422.404,-1755.127,-26177.002,11095.825,12746.013,70564.086
1311245.3224553752,-86562.75,-77883.79,-31431.152,-1755.0049,-26173.057,11095.053,12740.031,70532.06
1311245.3264553943,-86591.02,-77890.26,-31436.484,-1754.6387,-26168.906,11095.703,12738.485,70513.23
1311245.3304554133,-86587.52,-77885.99,-31434.693,-1755.0049,-26165.324,11099.04,12748.779,70536.79
1311245.3344554324,-86544.88,-77872.36,-31429.16,-1757.7312,-26173.137,11103.109,12762.492,70582.03
1311245.3384554514,-86538.695,-77875.81,-31428.428,-1757.3242,-26176.23,11101.522,12759.644,70576.625
1311245.3424554705,-86569.586,-77886.72,-31429.24,-1756.0222,-26173.016,11095.663,12751.994,70543.83
1311245.3464554895,-86604.9,-77900.02,-31435.752,-1753.825,-26165.61,11093.059,12747.641,70527.34
1311245.3504555086,-86619.71,-77915.086,-31444.133,-1758.667,-26177.246,11095.581,12753.825,70548.625
1311245.3544555276,-86580.0,-77905.4,-31438.152,-1760.7422,-26183.432,11101.4,12763.266,70587.445
1311245.3584555467,-86529.625,-77864.016,-31424.928,-1753.7842,-26172.363,11098.1045,12754.15,70575.97
1311245.3624555657,-86558.39,-77868.29,-31428.916,-1751.7498,-26168.701,11096.313,12748.698,70542.16
1311245.3664555848,-86614.95,-77902.1,-31440.918,-1754.8015,-26171.713,11100.261,12748.657,70525.84
1311245.3704556038,-86624.27,-77905.805,-31441.977,-1757.2021,-26171.957,11102.621,12755.371,70546.19
1311245.3744556229,-86584.76,-77901.45,-31437.826,-1760.5795,-26177.125,11105.632,12768.759,70592.53
1311245.378455642,-86560.8,-77901.695,-31435.629,-1758.7078,-26173.666,11102.987,12762.858,70587.37
1311245.382455661,-86582.4,-77904.83,-31432.537,-1752.9705,-26170.615,11096.11,12749.838,70554.28
1311245.38645568,-86609.5,-77917.766,-31437.053,-1751.7498,-26171.062,11094.116,12749.675,70537.4
1311245.390455699,-86601.56,-77914.72,-31440.635,-1753.9877,-26171.63,11099.528,12761.679,70563.07
1311245.394455718,-86569.38,-77906.21,-31435.588,-1757.2429,-26177.613,11107.91,12776.001,70603.92
1311245.3984557372,-86560.71,-77905.44,-31435.385,-1757.9346,-26181.193,11108.562,12774.943,70600.016
1311245.4024557562,-86585.86,-77910.89,-31437.744,-1752.6855,-26167.969,11102.417,12760.458,70566.695
1311245.4064557753,-86620.77,-77916.266,-31439.78,-1749.7559,-26166.748,11101.359,12755.859,70545.086
1311245.4104557943,-86612.39,-77907.8,-31438.477,-1747.518,-26164.795,11101.929,12760.01,70568.89
1311245.4144558134,-86570.805,-77895.34,-31433.555,-1748.291,-26167.277,11103.557,12769.613,70608.97
1311245.4184558324,-86564.78,-77895.914,-31432.943,-1749.9187,-26169.598,11099.406,12760.986,70602.91
1311245.4224558515,-86601.69,-77909.23,-31435.588,-1749.1049,-26167.686,11097.738,12748.617,70565.96
1311245.4264558705,-86635.22,-77920.58,-31440.227,-1747.8027,-26167.766,11100.22,12750.122,70548.75
1311245.4304558896,-86625.45,-77916.95,-31441.041,-1750.3256,-26168.945,11104.086,12762.736,70572.516
1311245.4344559086,-86581.14,-77900.48,-31438.559,-1752.889,-26172.404,11108.765,12775.798,70616.21
1311245.4384559277,-86566.0,-77895.34,-31432.984,-1752.4414,-26173.79,11108.317,12779.826,70624.39
1311245.4424559467,-86582.89,-77895.96,-31430.705,-1748.8201,-26165.936,11103.109,12770.712,70590.414
1311245.4464559657,-86610.88,-77907.23,-31436.28,-1747.6807,-26161.947,11099.772,12759.604,70561.56
1311245.4504559848,-86614.016,-77907.02,-31438.438,-1750.2441,-26165.324,11100.586,12762.736,70577.48
1311245.4544560038,-86576.016,-77896.77,-31439.78,-1753.3773,-26171.307,11105.876,12773.967,70619.63
1311245.458456023,-86570.27,-77902.18,-31444.5,-1757.6904,-26179.24,11109.131,12775.961,70620.69
1311245.462456042,-86599.695,-77908.81,-31449.627,-1754.6387,-26173.666,11108.5205,12770.142,70590.17
1311245.466456061,-86630.17,-77916.625,-31451.416,-1752.4822,-26166.504,11105.266,12763.428,70565.72
1311245.47045608,-86623.375,-77917.97,-31448.324,-1752.4822,-26173.057,11107.829,12769.409,70585.57
1311245.474456099,-86577.555,-77906.05,-31441.855,-1754.8015,-26181.275,11109.823,12778.198,70620.89
1311245.4784561181,-86564.3,-77905.36,-31442.344,-1754.3132,-26176.066,11104.086,12766.968,70611.29
1311245.4824561372,-86605.39,-77924.56,-31450.969,-1755.127,-26173.3,11097.453,12749.675,70565.836
1311245.4864561562,-86650.27,-77939.62,-31455.363,-1755.4119,-26176.84,11097.168,12747.641,70544.96
1311245.4904561753,-86647.79,-77943.56,-31455.934,-1756.1443,-26177.775,11104.858,12758.993,70566.98
1311245.4944561943,-86600.99,-77928.39,-31447.389,-1758.2601,-26185.059,11109.863,12767.416,70609.46
1311245.4984562134,-86585.37,-77928.02,-31445.477,-1758.4229,-26185.467,11105.876,12755.046,70603.766
1311245.5024562324,-86615.16,-77934.66,-31448.447,-1757.4463,-26180.055,11100.383,12742.961,70570.03
1311245.5064562515,-86645.19,-77938.4,-31450.928,-1755.8594,-26179.078,11097.86,12739.99,70545.21
1311245.5104562705,-86641.89,-77943.56,-31452.557,-1757.5684,-26178.996,11099.528,12750.0,70566.125
1311245.5144562896,-86610.27,-77940.11,-31452.354,-1763.6719,-26189.82,11103.557,12760.783,70609.3
1311245.5184563086,-86601.16,-77937.87,-31450.848,-1763.3464,-26194.744,11102.783,12756.063,70596.97
1311245.5224563277,-86629.516,-77943.16,-31456.787,-1761.1084,-26188.193,11098.186,12743.49,70560.43
1311245.5264563467,-86664.96,-77950.484,-31457.072,-1759.074,-26181.64,11098.349,12741.577,70542.12
1311245.5304563658,-86664.555,-77949.1,-31457.154,-1759.3588,-26184.775,11100.302,12750.244,70558.15
1311245.5344563848,-86625.0,-77937.26,-31454.225,-1760.498,-26190.105,11103.354,12759.521,70601.32
1311245.5384564039,-86621.79,-77941.61,-31457.44,-1762.2478,-26194.703,11103.557,12758.342,70595.625
1311245.542456423,-86652.43,-77958.09,-31458.984,-1760.8236,-26193.156,11100.83,12750.326,70564.01
1311245.546456442,-86682.74,-77966.8,-31461.305,-1758.7484,-26190.064,11096.313,12741.699,70539.836
1311245.550456461,-86673.95,-77959.96,-31457.56,-1758.7891,-26189.941,11100.017,12747.885,70559.45
1311245.55445648,-86626.63,-77946.9,-31449.26,-1760.8643,-26192.547,11106.242,12759.929,70601.93
1311245.5584564991,-86616.5,-77942.06,-31449.627,-1760.7015,-26191.611,11106.364,12757.772,70601.484
1311245.5624565182,-86639.24,-77946.21,-31455.12,-1758.7078,-26187.012,11102.336,12749.39,70569.83
1311245.5664565372,-86657.02,-77944.99,-31459.717,-1757.0801,-26186.688,11099.487,12747.437,70551.8
1311245.5704565563,-86643.92,-77944.91,-31459.678,-1758.667,-26187.623,11098.511,12747.152,70569.74
1311245.5744565753,-86606.734,-77935.23,-31454.55,-1760.3353,-26195.762,11100.586,12752.116,70601.97
1311245.5784565944,-86610.6,-77938.97,-31458.049,-1760.498,-26198.08,11099.854,12744.345,70594.0
1311245.5824566134,-86646.12,-77942.266,-31459.88,-1758.0566,-26190.674,11097.819,12734.375,70551.68
1311245.5864566325,-86682.01,-77947.63,-31458.781,-1756.6732,-26183.92,11099.203,12738.566,70534.95
1311245.5904566518,-86673.875,-77938.97,-31458.62,-1755.4119,-26181.072,11104.004,12750.041,70562.3
1311245.5944566708,-86623.984,-77926.11,-31453.533,-1758.2195,-26188.518,11107.3,12757.935,70608.44
1311245.5984566899,-86612.305,-77927.21,-31450.928,-1758.9111,-26189.17,11106.812,12751.75,70602.83
1311245.602456709,-86633.266,-77927.94,-31452.19,-1754.5166,-26183.025,11101.645,12742.432,70569.375
1311245.606456728,-86657.27,-77934.53,-31455.852,-1752.8076,-26180.502,11097.494,12735.922,70547.125
1311245.610456747,-86663.05,-77942.586,-31454.834,-1752.1566,-26181.723,11098.267,12740.316,70568.52
1311245.614456766,-86630.01,-77930.87,-31454.63,-1756.1443,-26190.064,11103.354,12754.313,70611.86
1311245.618456785,-86614.87,-77928.875,-31458.172,-1757.4463,-26186.973,11100.424,12743.327,70601.766
1311245.6224568042,-86638.02,-77936.24,-31459.148,-1755.249,-26183.838,11098.593,12731.853,70570.766
1311245.6264568232,-86657.35,-77939.54,-31460.043,-1752.9705,-26179.852,11098.796,12728.801,70546.23
1311245.6304568422,-86652.914,-77940.35,-31460.043,-1754.2725,-26177.451,11104.818,12740.723,70572.02
1311245.6344568613,-86618.086,-77931.69,-31453.695,-1758.1381,-26193.115,11108.643,12755.127,70620.41
1311245.6384568803,-86600.1,-77923.95,-31451.865,-1755.7373,-26188.193,11104.655,12747.478,70609.984
1311245.6424568994,-86614.83,-77914.06,-31451.377,-1748.8201,-26174.48,11095.866,12732.626,70576.21
1311245.6464569184,-86645.8,-77923.42,-31452.598,-1747.8435,-26169.922,11092.367,12724.203,70554.2
1311245.6504569375,-86665.29,-77932.25,-31456.91,-1750.5697,-26175.537,11096.029,12730.103,70574.79
1311245.6544569565,-86638.39,-77932.58,-31456.87,-1756.2664,-26184.938,11100.708,12736.369,70611.49
1311245.6584569756,-86635.7,-77937.336,-31455.445,-1757.1615,-26189.576,11101.726,12732.585,70597.29
1311245.6624569946,-86654.625,-77938.07,-31456.504,-1751.709,-26177.979,11098.674,12723.552,70571.66
1311245.6664570137,-86680.664,-77950.08,-31457.154,-1750.2441,-26174.684,11096.802,12722.006,70550.91
1311245.6704570327,-86674.234,-77945.234,-31458.822,-1749.8779,-26176.555,11098.145,12731.405,70577.11
1311245.6744570518,-86630.414,-77933.43,-31450.848,-1751.5869,-26182.21,11101.237,12741.455,70626.06
1311245.6784570708,-86616.5,-77933.23,-31450.156,-1753.825,-26180.705,11104.045,12744.873,70620.69
1311245.68245709,-86645.875,-77935.836,-31453.125,-1751.3428,-26177.451,11100.668,12731.73,70579.96
1311245.686457109,-86689.21,-77948.57,-31456.299,-1749.8779,-26179.24,11097.331,12724.731,70562.91
1311245.690457128,-86685.75,-77941.164,-31452.434,-1747.6807,-26179.729,11096.64,12727.377,70573.77
1311245.694457147,-86642.09,-77927.53,-31449.3,-1749.1863,-26188.926,11101.645,12736.41,70615.805
1311245.698457166,-86631.23,-77932.375,-31451.01,-1751.5869,-26188.438,11099.203,12732.138,70614.99
1311245.7024571851,-86665.086,-77947.76,-31456.992,-1751.0986,-26181.805,11094.687,12722.494,70577.516
1311245.7064572042,-86697.31,-77957.89,-31459.393,-1750.529,-26182.617,11094.198,12720.541,70548.625
1311245.7104572232,-86676.72,-77948.9,-31453.29,-1747.7214,-26182.373,11097.697,12732.585,70584.15
1311245.7144572423,-86615.484,-77931.73,-31448.447,-1749.4711,-26187.176,11103.476,12745.524,70637.086
1311245.7184572613,-86599.086,-77933.92,-31450.848,-1751.7904,-26189.25,11101.929,12740.886,70641.234
1311245.7224572804,-86644.58,-77954.914,-31458.537,-1752.3193,-26182.373,11098.267,12728.3125,70589.84
1311245.7264572994,-86678.305,-77958.13,-31457.969,-1747.7214,-26182.17,11098.063,12729.614,70564.945
1311245.7304573185,-86680.75,-77957.16,-31453.125,-1746.9076,-26182.008,11101.848,12741.252,70597.91
1311245.7344573375,-86638.266,-77945.805,-31450.44,-1750.9359,-26187.826,11106.894,12753.581,70642.5
1311245.7384573566,-86628.586,-77945.84,-31453.004,-1752.6855,-26191.936,11105.103,12748.21,70635.055
1311245.7424573756,-86650.68,-77945.195,-31450.766,-1748.9828,-26186.28,11100.871,12740.031,70599.94
1311245.7464573947,-86677.734,-77954.305,-31454.55,-1747.7621,-26184.408,11102.824,12739.299,70583.5
1311245.7504574137,-86674.85,-77957.234,-31456.543,-1748.169,-26184.043,11106.975,12743.164,70613.98
1311245.7544574328,-86636.516,-77951.46,-31455.04,-1752.1973,-26192.871,11112.834,12751.831,70660.484
1311245.7584574518,-86625.53,-77949.14,-31451.498,-1750.1221,-26189.941,11111.288,12747.844,70653.12
1311245.7624574709,-86656.7,-77961.39,-31453.613,-1748.4131,-26190.918,11104.37,12738.811,70608.195
1311245.76645749,-86689.66,-77967.2,-31456.178,-1745.4427,-26184.287,11100.912,12733.114,70575.52
1311245.770457509,-86682.74,-77956.14,-31456.787,-1743.8965,-26176.23,11102.539,12734.172,70605.23
1311245.774457528,-86647.83,-77952.6,-31454.225,-1747.4773,-26184.367,11108.847,12743.164,70640.51
1311245.778457547,-86642.055,-77956.016,-31452.8,-1749.4711,-26190.756,11107.626,12740.031,70630.66
1311245.7824575661,-86668.055,-77961.914,-31456.584,-1749.0234,-26189.047,11104.248,12727.011,70589.73
1311245.7864575852,-86694.42,-77966.39,-31454.916,-1746.7449,-26183.27,11104.818,12723.999,70569.91
1311245.7904576042,-86685.95,-77958.13,-31452.598,-1744.9545,-26181.072,11108.236,12735.067,70597.21
1311245.7944576233,-86637.58,-77943.52,-31447.959,-1746.46,-26187.582,11110.962,12750.082,70643.35
1311245.7984576423,-86614.664,-77929.445,-31443.36,-1742.3096,-26182.617,11108.114,12746.094,70643.555
1311245.8024576614,-86648.93,-77942.51,-31444.744,-1740.8041,-26178.59,11105.307,12732.707,70602.79
1311245.8064576804,-86683.31,-77953.05,-31452.23,-1738.8916,-26171.713,11102.621,12723.755,70580.445
1311245.8104576995,-86688.73,-77955.41,-31453.613,-1739.2578,-26178.264,11105.673,12729.533,70602.26
1311245.8144577185,-86648.73,-77944.46,-31446.9,-1739.7461,-26175.742,11110.759,12753.784,70650.516
1311245.8184577376,-86630.945,-77936.52,-31443.115,-1738.5254,-26176.88,11109.457,12759.848,70644.29
1311245.8224577566,-86658.66,-77937.99,-31449.383,-1737.915,-26174.766,11103.231,12746.013,70602.625
1311245.8264577757,-86695.16,-77944.7,-31454.428,-1737.6302,-26171.51,11101.604,12743.002,70576.5
1311245.8304577947,-86681.69,-77941.04,-31450.725,-1736.4095,-26170.045,11104.086,12753.459,70601.32
1311245.8344578138,-86616.58,-77926.07,-31444.785,-1737.7117,-26175.986,11106.486,12766.439,70650.07
1311245.8384578328,-86600.55,-77920.21,-31442.912,-1736.8164,-26175.986,11103.027,12764.201,70641.12
1311245.8424578519,-86644.414,-77937.09,-31449.016,-1735.3923,-26170.045,11100.668,12749.96,70595.26
1311245.846457871,-86688.48,-77945.4,-31449.463,-1734.3344,-26170.29,11101.278,12741.943,70576.945
1311245.85045789,-86686.16,-77942.06,-31448.486,-1732.666,-26167.604,11103.76,12748.576,70605.06
1311245.854457909,-86638.06,-77930.26,-31446.615,-1734.2123,-26176.514,11106.894,12757.528,70641.89
1311245.858457928,-86625.57,-77926.805,-31445.395,-1734.8633,-26172.04,11105.144,12749.1455,70628.055
1311245.862457947,-86654.055,-77928.96,-31442.791,-1730.6722,-26167.074,11099.609,12735.434,70592.2
1311245.8664579662,-86684.82,-77929.41,-31441.488,-1724.4873,-26160.727,11093.1,12727.214,70569.055
1311245.8704579852,-86675.7,-77920.33,-31440.186,-1723.7957,-26162.803,11095.297,12737.59,70595.95
1311245.8744580043,-86640.1,-77910.2,-31438.07,-1729.2074,-26170.654,11100.79,12751.709,70646.164
1311245.8784580233,-86636.64,-77917.89,-31443.809,-1733.8867,-26174.033,11100.912,12744.06,70635.3
1311245.8824580424,-86680.46,-77944.22,-31453.695,-1735.3923,-26174.766,11097.331,12729.94,70604.58
1311245.8864580614,-86711.34,-77956.305,-31457.113,-1733.9681,-26173.91,11096.436,12728.476,70567.18
1311245.8904580805,-86668.74,-77914.39,-31443.36,-1727.3357,-26167.236,11097.656,12734.497,70585.82
1311245.8944580995,-86601.41,-77879.195,-31433.066,-1724.7314,-26165.0,11100.383,12741.333,70626.55
1311245.8984581186,-86584.76,-77869.19,-31430.584,-1723.1445,-26166.22,11095.785,12734.904,70618.62
1311245.9024581376,-86584.72,-77847.13,-31427.979,-1716.8783,-26157.92,11091.024,12723.999,70583.17
1311245.9064581566,-86602.26,-77832.93,-31428.06,-1712.6058,-26153.076,11088.786,12718.994,70556.93
1311245.9104581757,-86557.664,-77793.09,-31415.854,-1705.9734,-26149.414,11090.861,12722.128,70578.01
1311245.9144581947,-86480.96,-77743.21,-31397.258,-1703.4912,-26148.846,11092.978,12727.58,70613.445
1311245.9184582138,-86454.23,-77709.11,-31384.604,-1698.5271,-26146.078,11089.071,12714.193,70594.61
1311245.9224582328,-86476.61,-77696.086,-31384.604,-1692.7898,-26139.568,11084.311,12700.847,70553.914
1311245.926458252,-86495.41,-77684.41,-31383.3,-1684.6517,-26129.314,11082.397,12697.795,70535.195
1311245.930458271,-86458.46,-77645.43,-31374.023,-1678.8738,-26126.791,11084.758,12702.881,70551.39
1311245.93445829,-86392.46,-77610.15,-31365.113,-1678.833,-26131.959,11090.576,12714.193,70594.52
1311245.938458309,-86362.02,-77589.16,-31360.434,-1678.0193,-26131.715,11089.56,12710.49,70588.42
1311245.942458328,-86375.77,-77587.32,-31360.148,-1675.1709,-26125.285,11083.049,12699.707,70554.94
1311245.9464583471,-86400.68,-77595.38,-31361.572,-1671.7937,-26119.834,11078.9795,12692.099,70526.57
1311245.9504583662,-86395.51,-77583.7,-31358.643,-1669.5964,-26118.328,11081.015,12696.249,70547.04
1311245.9544583852,-86352.5,-77561.04,-31352.459,-1671.0205,-26127.564,11086.345,12703.898,70588.75
1311245.9584584043,-86354.945,-77573.33,-31356.242,-1671.5902,-26127.482,11087.484,12696.899,70573.41
1311245.9624584233,-86392.3,-77593.06,-31364.91,-1671.3461,-26125.0,11085.531,12691.04,70539.8
1311245.9664584424,-86422.04,-77608.69,-31366.008,-1669.4744,-26124.105,11087.28,12692.099,70526.695
1311245.9704584614,-86419.88,-77616.664,-31365.643,-1672.1191,-26127.402,11093.262,12707.846,70559.2
1311245.9744584805,-86392.3,-77633.875,-31368.043,-1680.1758,-26136.516,11095.378,12722.616,70600.625
1311245.9784584995,-86388.39,-77644.086,-31369.793,-1684.2041,-26143.434,11087.484,12713.176,70587.0
1311245.9824585186,-86436.0,-77666.06,-31378.053,-1680.0945,-26138.998,11083.293,12698.73,70547.85
1311245.9864585376,-86497.84,-77703.086,-31390.666,-1683.5125,-26146.69,11083.13,12695.842,70520.96
1311245.9904585567,-86508.016,-77716.72,-31393.637,-1687.7849,-26153.484,11088.705,12706.421,70552.734
1311245.9944585757,-86468.95,-77710.62,-31390.38,-1691.4062,-26159.424,11096.232,12720.093,70602.3
1311245.9984585948,-86462.04,-77722.62,-31392.945,-1694.6615,-26158.082,11095.134,12718.1,70597.25
1311246.0024586138,-86514.24,-77755.695,-31404.258,-1696.8994,-26157.064,11091.35,12706.869,70562.7
1311246.0064586329,-86571.414,-77782.15,-31411.662,-1696.9808,-26154.258,11089.926,12698.69,70539.8
1311246.010458652,-86583.09,-77799.12,-31412.803,-1700.3988,-26163.818,11091.879,12698.73,70554.08
1311246.014458671,-86556.766,-77809.125,-31413.535,-1705.6072,-26174.48,11095.093,12710.409,70601.4
1311246.01845869,-86553.76,-77821.414,-31413.941,-1707.9672,-26175.781,11094.116,12712.321,70597.86
1311246.022458709,-86590.74,-77842.82,-31416.383,-1708.0486,-26172.08,11092.855,12709.106,70568.56
1311246.0264587281,-86626.23,-77858.195,-31419.598,-1707.8857,-26174.154,11094.931,12708.903,70549.89
1311246.0304587472,-86626.02,-77864.09,-31423.625,-1710.49,-26176.31,11099.284,12714.193,70573.28
1311246.0344587662,-86586.305,-77854.9,-31424.846,-1715.1287,-26182.334,11103.027,12726.318,70620.0
1311246.0384587853,-86578.62,-77860.11,-31425.13,-1714.3148,-26182.414,11104.086,12725.668,70613.37
1311246.0424588043,-86617.15,-77877.89,-31428.06,-1711.4666,-26179.852,11100.18,12712.443,70578.086
1311246.0464588234,-86654.79,-77893.72,-31429.607,-1710.7748,-26175.742,11097.372,12707.072,70558.84
1311246.0504588424,-86657.59,-77897.586,-31428.834,-1711.792,-26175.986,11101.604,12714.804,70584.07
1311246.0544588615,-86624.02,-77890.95,-31425.537,-1714.5183,-26183.39,11106.608,12731.445,70629.516
1311246.0584588805,-86621.914,-77899.09,-31430.34,-1717.2445,-26183.96,11106.405,12733.928,70619.266
1311246.0624588996,-86660.93,-77914.02,-31436.564,-1716.5935,-26177.816,11104.858,12725.83,70580.69
1311246.0664589186,-86694.7,-77921.67,-31442.791,-1715.7797,-26171.104,11103.027,12724.04,70566.66
1311246.0704589377,-86676.516,-77909.71,-31439.047,-1715.2507,-26175.416,11104.452,12735.759,70599.695
1311246.0744589567,-86630.54,-77896.81,-31430.908,-1719.0349,-26185.467,11110.678,12750.082,70649.74
1311246.0784589758,-86619.914,-77900.72,-31431.031,-1720.4183,-26187.541,11111.9795,12752.075,70644.9
1311246.0824589948,-86665.81,-77920.414,-31440.47,-1720.988,-26182.09,11109.294,12739.909,70604.984
1311246.0864590139,-86708.664,-77931.4,-31444.744,-1718.3838,-26175.66,11106.649,12728.882,70577.4
1311246.090459033,-86696.62,-77928.914,-31441.244,-1719.1162,-26178.223,11107.626,12737.265,70608.97
1311246.094459052,-86647.305,-77914.72,-31433.555,-1720.9473,-26186.402,11110.678,12747.641,70653.04
1311246.098459071,-86620.94,-77902.1,-31425.62,-1716.7562,-26178.59,11107.097,12743.734,70654.91
1311246.10245909,-86649.74,-77907.15,-31426.84,-1712.7279,-26170.94,11105.0625,12737.875,70623.945
1311246.106459109,-86689.13,-77915.77,-31432.617,-1713.1755,-26168.377,11104.777,12735.637,70605.1
1311246.1104591282,-86684.25,-77918.5,-31436.729,-1716.2273,-26175.293,11111.816,12745.321,70631.11
1311246.1144591472,-86642.13,-77908.125,-31434.57,-1719.1162,-26181.56,11114.787,12755.981,70671.02
1311246.1184591663,-86630.54,-77906.82,-31435.182,-1718.7094,-26179.852,11110.881,12749.268,70665.41
1311246.1224591853,-86663.336,-77916.586,-31437.867,-1716.1052,-26172.445,11105.0625,12737.59,70621.055
1311246.1264592044,-86699.625,-77924.12,-31439.738,-1714.681,-26172.04,11103.72,12728.435,70592.0
1311246.1304592234,-86703.86,-77925.17,-31439.453,-1716.3494,-26175.62,11107.707,12732.748,70613.77
1311246.1344592425,-86669.03,-77919.48,-31438.232,-1719.1976,-26179.525,11111.328,12738.403,70642.055
1311246.1384592615,-86655.56,-77919.555,-31437.338,-1718.9941,-26184.326,11108.765,12728.476,70627.12
1311246.1424592806,-86681.36,-77926.27,-31441.611,-1717.3666,-26176.23,11105.347,12714.355,70581.42
1311246.1464592996,-86712.52,-77934.53,-31444.541,-1718.6687,-26176.393,11103.76,12711.426,70560.75
1311246.1504593187,-86703.9,-77935.38,-31443.564,-1720.5404,-26185.1,11107.422,12724.243,70584.07
1311246.1544593377,-86651.45,-77919.88,-31434.814,-1723.2666,-26189.25,11113.119,12739.624,70634.195
1311246.1584593568,-86632.33,-77909.99,-31431.764,-1722.7377,-26187.908,11112.387,12738.119,70635.13
1311246.1624593758,-86662.07,-77920.086,-31436.729,-1720.1742,-26183.27,11107.26,12731.161,70602.375
1311246.1664593949,-86708.5,-77932.414,-31445.598,-1718.2211,-26178.834,11102.661,12723.959,70582.4
1311246.170459414,-86711.51,-77927.695,-31445.72,-1720.3369,-26181.031,11104.899,12732.666,70608.484
1311246.174459433,-86666.1,-77915.61,-31442.424,-1722.9004,-26185.182,11111.776,12739.543,70648.12
1311246.178459452,-86653.77,-77921.305,-31443.604,-1722.9004,-26183.025,11110.474,12730.835,70634.69
1311246.182459471,-86671.1,-77927.29,-31440.309,-1720.0115,-26184.043,11106.934,12720.093,70599.0
1311246.18645949,-86697.43,-77932.74,-31439.494,-1716.7562,-26181.275,11107.422,12715.251,70573.37
1311246.1904595091,-86692.586,-77930.664,-31441.203,-1717.1631,-26180.502,11111.328,12722.006,70592.94
1311246.1944595282,-86650.76,-77910.61,-31438.6,-1718.4652,-26182.21,11116.089,12730.795,70635.13
1311246.1984595472,-86654.55,-77912.36,-31442.506,-1720.8252,-26182.658,11113.322,12725.749,70626.14
1311246.2024595663,-86694.13,-77926.59,-31444.053,-1718.099,-26177.572,11105.469,12715.21,70593.18
1311246.2064595853,-86727.99,-77932.945,-31442.912,-1715.332,-26178.346,11103.882,12711.304,70575.97
1311246.2104596044,-86719.85,-77929.98,-31443.523,-1714.9658,-26179.525,11107.3,12723.186,70603.31
1311246.2144596234,-86667.56,-77912.36,-31440.512,-1716.268,-26184.855,11110.759,12739.706,70651.41
1311246.2184596425,-86648.6,-77904.016,-31438.803,-1716.3086,-26185.344,11110.474,12740.234,70652.51
1311246.2224596615,-86679.04,-77912.68,-31441.285,-1714.5183,-26176.19,11107.138,12732.666,70615.69
1311246.2264596806,-86718.18,-77924.64,-31444.785,-1713.7859,-26172.812,11105.103,12727.58,70589.195
1311246.2304596996,-86713.95,-77926.15,-31447.021,-1715.8611,-26177.695,11106.649,12731.608,70609.91
1311246.2344597187,-86662.64,-77910.36,-31436.523,-1715.9832,-26184.979,11108.847,12737.875,70644.66
1311246.2384597377,-86646.53,-77903.41,-31432.252,-1715.9017,-26187.42,11108.154,12730.0625,70641.12
1311246.2424597568,-86676.39,-77910.04,-31435.059,-1711.7107,-26177.451,11107.056,12723.022,70603.88
1311246.2464597758,-86712.89,-77915.77,-31438.438,-1709.1879,-26171.875,11106.283,12724.04,70584.96
1311246.250459795,-86710.984,-77913.29,-31437.5,-1709.5541,-26168.377,11109.863,12735.148,70615.766
1311246.254459814,-86662.27,-77898.93,-31430.502,-1711.6699,-26170.41,11114.746,12747.885,70661.016
1311246.258459833,-86648.93,-77901.414,-31430.014,-1712.5244,-26171.225,11112.427,12742.392,70655.97
1311246.262459852,-86677.86,-77913.375,-31436.28,-1710.7748,-26168.824,11106.894,12730.347,70616.3
1311246.266459871,-86700.08,-77914.31,-31437.664,-1707.8044,-26168.662,11105.388,12725.993,70595.83
1311246.2704598901,-86694.38,-77904.83,-31435.1,-1706.5837,-26166.668,11108.032,12733.398,70617.76
1311246.2744599092,-86657.96,-77895.67,-31432.21,-1710.2865,-26170.33,11115.642,12746.623,70660.766
1311246.2784599282,-86654.625,-77897.87,-31431.967,-1711.1816,-26176.799,11115.967,12743.368,70654.75
1311246.2824599473,-86692.914,-77909.305,-31434.287,-1708.3334,-26171.428,11112.509,12738.974,70624.31
1311246.2864599663,-86721.56,-77919.6,-31434.611,-1704.834,-26166.83,11106.527,12730.347,70599.125
1311246.2904599854,-86712.08,-77913.086,-31431.52,-1706.014,-26170.004,11106.771,12734.294,70618.414
1311246.2944600044,-86673.71,-77912.56,-31429.688,-1713.0535,-26177.002,11110.596,12743.815,70656.66
1311246.2984600235,-86650.96,-77906.91,-31429.404,-1714.03,-26181.479,11109.131,12736.857,70651.25
1311246.3024600425,-86677.86,-77915.0,-31433.799,-1709.3099,-26173.545,11107.382,12724.976,70611.82
1311246.3064600616,-86714.89,-77930.79,-31435.588,-1707.1941,-26167.766,11106.527,12720.459,70584.8
1311246.3104600806,-86710.695,-77928.55,-31434.734,-1707.8451,-26176.555,11110.026,12731.486,70614.83
1311246.3144600997,-86669.27,-77922.33,-31431.316,-1710.3271,-26182.129,11115.764,12744.385,70663.086
1311246.3184601187,-86663.05,-77923.016,-31433.025,-1712.2803,-26182.21,11113.363,12741.049,70654.22
1311246.3224601378,-86700.805,-77933.68,-31440.715,-1711.7513,-26176.475,11107.3,12724.976,70612.836
1311246.3264601568,-86729.74,-77939.29,-31445.598,-1710.2458,-26172.527,11103.476,12717.611,70592.125
1311246.3304601759,-86722.13,-77933.11,-31443.076,-1710.0424,-26175.578,11105.307,12724.04,70610.39
1311246.334460195,-86679.98,-77925.09,-31440.39,-1712.7279,-26180.787,11108.765,12734.131,70646.32
1311246.338460214,-86666.836,-77917.85,-31437.867,-1712.9314,-26184.49,11107.3,12731.771,70638.02
1311246.342460233,-86711.39,-77930.95,-31440.715,-1711.2631,-26179.688,11105.388,12720.744,70603.07
1311246.346460252,-86748.09,-77943.16,-31446.086,-1710.5713,-26178.428,11104.858,12716.105,70588.95
1311246.3504602711,-86736.94,-77940.88,-31443.564,-1712.0769,-26181.479,11106.039,12723.349,70614.34
1311246.3544602902,-86686.89,-77926.96,-31441.732,-1714.6404,-26184.043,11108.073,12732.26,70646.734
1311246.3584603092,-86673.42,-77922.9,-31444.418,-1713.3789,-26177.94,11106.771,12725.912,70634.36
1311246.3624603283,-86702.195,-77927.66,-31442.709,-1707.5603,-26169.516,11103.842,12717.978,70601.16
1311246.3664603473,-86743.37,-77934.086,-31442.832,-1703.7761,-26165.0,11103.027,12717.978,70592.086
1311246.3704603664,-86742.64,-77941.695,-31443.115,-1708.0892,-26172.04,11104.818,12727.824,70619.34
1311246.3744603854,-86696.01,-77936.484,-31439.047,-1712.4431,-26179.078,11110.352,12739.38,70655.88
1311246.3784604047,-86678.1,-77927.33,-31437.988,-1710.6934,-26181.52,11106.608,12731.771,70647.09
1311246.3824604237,-86708.13,-77939.29,-31442.547,-1708.8623,-26176.758,11103.19,12717.204,70603.72
1311246.3864604428,-86735.88,-77942.14,-31447.592,-1708.4554,-26174.928,11102.539,12711.955,70579.875
1311246.3904604618,-86723.76,-77932.01,-31446.412,-1710.5306,-26177.857,11106.323,12720.866,70605.43
1311246.394460481,-86681.16,-77919.48,-31439.658,-1713.9486,-26184.652,11111.491,12731.894,70644.78
1311246.3984605,-86678.02,-77916.75,-31434.408,-1711.3037,-26180.828,11109.619,12730.347,70645.63
1311246.402460519,-86708.87,-77925.055,-31436.646,-1707.3975,-26176.922,11104.045,12724.528,70613.28
1311246.406460538,-86736.49,-77929.61,-31437.744,-1704.305,-26175.742,11100.017,12720.459,70588.26
1311246.410460557,-86724.45,-77927.45,-31437.705,-1704.9968,-26176.637,11103.354,12725.668,70609.58
1311246.4144605761,-86680.055,-77920.695,-31436.523,-1708.5369,-26181.52,11108.276,12731.445,70643.92
1311246.4184605952,-86670.45,-77921.836,-31436.24,-1709.1064,-26173.3,11104.574,12722.9,70637.086
1311246.4224606142,-86707.32,-77929.24,-31438.438,-1706.4209,-26169.068,11102.865,12715.414,70604.9
1311246.4264606333,-86743.45,-77936.16,-31436.484,-1704.834,-26174.928,11102.621,12715.373,70588.91
1311246.4304606523,-86734.22,-77932.7,-31432.74,-1704.8748,-26177.287,11101.97,12725.546,70620.89
1311246.4344606714,-86683.88,-77916.99,-31427.898,-1704.9968,-26180.908,11104.655,12736.45,70656.984
1311246.4384606904,-86665.734,-77912.97,-31428.467,-1705.241,-26179.484,11104.289,12729.818,70643.96
1311246.4424607095,-86699.67,-77929.24,-31433.799,-1704.3865,-26174.805,11102.783,12718.222,70607.42
1311246.4464607285,-86728.92,-77936.445,-31436.443,-1702.7181,-26175.334,11104.37,12715.576,70587.04
1311246.4504607476,-86709.15,-77925.26,-31433.635,-1703.2064,-26175.254,11107.788,12725.708,70617.15
1311246.4544607666,-86664.516,-77909.99,-31424.805,-1703.7761,-26181.396,11110.434,12736.776,70659.75
1311246.4584607857,-86650.19,-77906.66,-31424.887,-1701.0906,-26177.002,11106.853,12728.923,70648.64
1311246.4624608047,-86671.8,-77913.9,-31428.184,-1698.5677,-26168.865,11100.708,12717.489,70613.65
1311246.4664608238,-86705.484,-77920.33,-31432.129,-1696.2484,-26161.826,11100.017,12716.797,70597.91
1311246.4704608428,-86705.445,-77912.64,-31431.764,-1697.5912,-26168.621,11104.655,12729.045,70630.54
1311246.4744608619,-86659.836,-77904.42,-31430.746,-1702.0264,-26176.19,11111.369,12740.072,70668.91
1311246.478460881,-86645.67,-77907.555,-31430.99,-1702.8402,-26175.822,11111.613,12731.771,70651.82
1311246.4824609,-86699.71,-77923.305,-31436.932,-1701.9043,-26169.434,11110.189,12720.459,70621.26
1311246.486460919,-86734.375,-77929.445,-31437.338,-1699.7478,-26170.127,11110.393,12719.157,70604.945
1311246.490460938,-86716.59,-77920.78,-31433.188,-1699.0154,-26171.836,11113.852,12731.364,70634.766
1311246.4944609571,-86676.19,-77915.164,-31433.594,-1703.6133,-26174.072,11115.967,12740.316,70675.055
1311246.4984609762,-86661.79,-77908.125,-31432.414,-1703.0029,-26175.945,11113.811,12736.369,70669.805
1311246.5024609952,-86694.83,-77920.82,-31436.605,-1701.294,-26174.195,11108.806,12724.936,70629.48
1311246.5064610143,-86730.836,-77933.19,-31441.0,-1700.9277,-26172.283,11108.073,12716.635,70596.97
1311246.5104610333,-86721.56,-77928.305,-31438.355,-1703.3285,-26176.637,11114.055,12726.807,70622.4
1311246.5144610524,-86680.18,-77917.65,-31434.611,-1703.9388,-26176.107,11118.815,12738.811,70662.766
1311246.5184610714,-86663.54,-77915.53,-31431.275,-1703.7354,-26175.822,11116.455,12732.666,70648.84
1311246.5224610905,-86702.35,-77926.88,-31435.508,-1701.294,-26173.463,11112.468,12720.093,70612.555
1311246.5264611095,-86741.74,-77942.99,-31439.373,-1699.3002,-26171.713,11109.416,12713.583,70588.95
1311246.5304611286,-86734.7,-77944.74,-31439.453,-1700.3582,-26172.324,11112.427,12725.871,70618.57
1311246.5344611476,-86688.805,-77924.97,-31432.496,-1700.8871,-26178.143,11116.618,12737.631,70659.71
1311246.5384611667,-86690.23,-77920.49,-31427.816,-1699.585,-26178.102,11113.7295,12731.73,70652.51
1311246.5424611857,-86715.91,-77920.984,-31428.387,-1696.6146,-26173.137,11110.107,12721.924,70616.375
1311246.5464612048,-86736.82,-77925.7,-31430.828,-1694.987,-26169.11,11108.725,12717.529,70593.55
1311246.5504612238,-86729.82,-77923.26,-31431.764,-1696.0449,-26169.922,11111.206,12729.248,70624.11
1311246.5544612429,-86696.25,-77920.01,-31435.71,-1700.114,-26167.074,11113.2,12739.502,70666.34
1311246.558461262,-86688.805,-77918.055,-31432.902,-1698.5677,-26172.324,11113.363,12734.416,70656.58
1311246.562461281,-86719.32,-77926.234,-31431.438,-1695.6381,-26168.58,11111.532,12724.121,70623.05
1311246.5664613,-86750.45,-77936.65,-31430.705,-1695.7195,-26169.598,11110.067,12720.703,70601.56
1311246.570461319,-86734.09,-77930.34,-31429.973,-1695.7195,-26177.49,11111.491,12725.993,70626.875
1311246.574461338,-86687.055,-77920.58,-31428.875,-1697.4691,-26178.02,11115.438,12735.678,70668.74
1311246.5784613572,-86667.56,-77912.16,-31428.955,-1697.347,-26175.172,11114.462,12734.904,70664.23
1311246.5824613762,-86699.305,-77921.02,-31430.014,-1695.2312,-26172.568,11111.735,12728.923,70622.88
1311246.5864613953,-86731.2,-77928.305,-31427.287,-1691.4062,-26165.812,11110.148,12723.633,70600.875
1311246.5904614143,-86714.03,-77920.086,-31423.87,-1690.0228,-26165.08,11113.241,12733.195,70629.88
1311246.5944614334,-86669.64,-77906.13,-31417.441,-1691.0808,-26171.348,11119.345,12747.641,70675.46
1311246.5984614524,-86665.77,-77899.82,-31418.945,-1689.9008,-26165.08,11115.967,12738.566,70662.516
1311246.6024614715,-86708.7,-77920.33,-31427.41,-1689.1277,-26162.803,11109.375,12723.796,70620.24
1311246.6064614905,-86736.58,-77925.62,-31426.27,-1687.0931,-26166.342,11103.231,12714.193,70600.914
1311246.6104615096,-86722.17,-77920.375,-31426.148,-1689.1277,-26165.324,11104.98,12721.721,70627.61
1311246.6144615286,-86681.36,-77911.7,-31423.219,-1692.6677,-26172.363,11109.782,12733.928,70676.64
1311246.6184615477,-86670.74,-77912.64,-31423.137,-1693.4814,-26171.998,11110.84,12729.94,70670.984
1311246.6224615667,-86695.805,-77917.73,-31422.486,-1690.7146,-26167.48,11108.439,12717.733,70628.055
1311246.6264615858,-86737.15,-77924.36,-31430.46,-1689.9822,-26162.68,11105.917,12711.264,70600.836
1311246.6304616048,-86733.97,-77927.94,-31433.594,-1692.1794,-26166.18,11107.219,12715.007,70619.875
1311246.6344616238,-86683.35,-77915.29,-31425.904,-1693.4814,-26178.672,11111.166,12724.772,70661.42
1311246.638461643,-86676.19,-77913.17,-31423.666,-1692.7084,-26173.057,11107.951,12721.3955,70663.54
1311246.642461662,-86707.4,-77923.305,-31429.484,-1691.5283,-26168.701,11104.777,12718.628,70627.97
1311246.646461681,-86748.74,-77939.414,-31436.932,-1692.2607,-26169.963,11105.469,12714.763,70605.875
1311246.6504617,-86740.4,-77939.984,-31433.799,-1694.9056,-26170.94,11108.806,12720.988,70628.945
1311246.654461719,-86703.29,-77931.07,-31432.373,-1696.574,-26174.357,11113.933,12730.632,70668.91
1311246.6584617381,-86690.555,-77923.95,-31431.764,-1695.6787,-26173.38,11113.119,12723.959,70660.28
1311246.6624617572,-86720.7,-77928.59,-31434.164,-1693.4814,-26166.83,11108.562,12711.955,70624.836
1311246.6664617762,-86754.805,-77934.94,-31432.902,-1692.1387,-26172.04,11108.398,12712.118,70609.17
1311246.6704617953,-86741.82,-77932.09,-31431.072,-1691.6912,-26175.416,11113.322,12724.569,70636.97
1311246.6744618143,-86692.55,-77922.28,-31428.305,-1694.4988,-26176.27,11119.507,12741.862,70682.25
1311246.6784618334,-86689.45,-77926.39,-31432.17,-1695.5974,-26175.01,11120.443,12744.101,70678.59
1311246.6824618524,-86719.89,-77925.984,-31434.043,-1689.738,-26162.436,11115.479,12732.87,70645.266
1311246.6864618715,-86745.85,-77926.27,-31433.105,-1686.2386,-26159.629,11112.997,12726.318,70621.95
1311246.6904618905,-86737.875,-77923.055,-31430.746,-1687.2966,-26163.535,11115.234,12729.086,70642.26
1311246.6944619096,-86686.89,-77910.85,-31426.434,-1690.9587,-26172.324,11116.903,12733.073,70682.66
1311246.6984619286,-86681.07,-77911.09,-31427.125,-1692.9119,-26172.283,11116.049,12728.516,70673.26
1311246.7024619477,-86719.73,-77921.8,-31428.672,-1688.9648,-26164.145,11112.915,12721.721,70635.625
1311246.7064619667,-86741.54,-77928.96,-31431.438,-1685.8318,-26161.947,11112.346,12722.941,70620.98
1311246.7104619858,-86736.01,-77927.01,-31429.281,-1686.7676,-26167.318,11116.333,12736.084,70652.18
1311246.7144620048,-86693.04,-77915.53,-31425.904,-1688.4766,-26169.883,11121.054,12750.61,70697.8
1311246.718462024,-86676.27,-77914.72,-31426.963,-1689.4939,-26169.719,11118.53,12744.223,70687.79
1311246.722462043,-86714.27,-77928.19,-31429.607,-1687.5408,-26165.61,11115.561,12734.497,70653.89
1311246.726462062,-86745.0,-77935.836,-31426.514,-1685.4248,-26165.04,11113.444,12731.486,70634.93
1311246.730462081,-86730.63,-77928.1,-31427.775,-1686.849,-26167.766,11118.49,12741.049,70664.35
1311246.7344621,-86679.98,-77912.64,-31423.584,-1689.4531,-26173.584,11125.448,12754.477,70703.25
1311246.7384621191,-86665.29,-77906.66,-31425.742,-1690.5518,-26166.912,11123.983,12753.418,70702.6
1311246.7424621382,-86693.69,-77909.06,-31427.084,-1687.0117,-26160.85,11118.205,12739.502,70669.35
1311246.7464621572,-86724.125,-77918.22,-31430.42,-1684.2041,-26159.791,11114.868,12732.992,70649.01
1311246.7504621763,-86729.05,-77931.89,-31431.357,-1687.3779,-26165.936,11115.153,12738.241,70669.48
1311246.7544621953,-86715.91,-77952.6,-31436.035,-1694.8242,-26179.037,11121.257,12749.268,70705.37
1311246.7584622144,-86686.37,-77927.9,-31427.979,-1691.6912,-26175.293,11121.176,12744.019,70696.54
1311246.7624622334,-86693.85,-77905.93,-31426.19,-1684.6111,-26162.354,11117.229,12731.934,70661.22
1311246.7664622525,-86722.05,-77911.87,-31428.02,-1682.2917,-26153.932,11116.903,12728.598,70643.44
1311246.7704622715,-86713.625,-77912.27,-31425.049,-1683.7158,-26160.93,11121.379,12741.008,70670.29
1311246.7744622906,-86676.72,-77906.375,-31424.725,-1685.14,-26162.842,11123.779,12751.425,70709.555
1311246.7784623096,-86664.266,-77906.25,-31427.002,-1685.7097,-26163.209,11118.979,12745.932,70698.2
1311246.7824623287,-86707.234,-77923.38,-31432.17,-1684.9365,-26163.168,11112.956,12733.073,70655.234
1311246.7864623477,-86742.72,-77933.76,-31435.223,-1682.4951,-26162.924,11112.427,12728.109,70635.91
1311246.7904623668,-86734.17,-77936.57,-31434.531,-1683.1462,-26164.389,11112.305,12731.567,70657.836
1311246.7944623858,-86691.94,-77926.76,-31429.77,-1687.0117,-26170.736,11116.293,12743.286,70698.49
1311246.7984624049,-86679.32,-77921.59,-31430.137,-1687.9883,-26168.621,11116.496,12742.758,70698.695
1311246.802462424,-86707.93,-77930.55,-31432.537,-1685.669,-26160.645,11113.322,12733.928,70665.37
1311246.806462443,-86739.305,-77942.34,-31434.979,-1684.5297,-26158.773,11110.393,12731.934,70643.76
1311246.810462462,-86725.305,-77932.5,-31430.38,-1682.658,-26161.826,11113.2,12742.839,70678.67
1311246.814462481,-86685.51,-77923.34,-31422.893,-1683.3904,-26168.174,11117.514,12754.191,70713.42
1311246.8184625,-86678.8,-77928.19,-31424.113,-1686.2386,-26167.521,11113.811,12746.013,70704.67
1311246.8224625192,-86713.3,-77942.14,-31430.096,-1684.7738,-26166.545,11111.694,12731.567,70664.76
1311246.8264625382,-86748.414,-77947.96,-31434.043,-1683.5938,-26161.418,11111.003,12729.492,70646.89
1311246.8304625573,-86736.984,-77937.22,-31430.746,-1684.5297,-26167.36,11115.438,12745.239,70685.1
1311246.8344625763,-86690.31,-77921.92,-31423.096,-1685.4248,-26166.139,11118.083,12755.778,70718.55
1311246.8384625954,-86680.75,-77923.22,-31426.88,-1686.6863,-26166.83,11117.392,12752.6045,70706.42
1311246.8424626144,-86724.86,-77933.11,-31433.066,-1684.0007,-26164.836,11112.997,12736.9795,70673.38
1311246.8464626335,-86757.734,-77945.27,-31435.1,-1679.9724,-26159.506,11112.427,12734.05,70656.58
1311246.8504626525,-86742.234,-77942.55,-31434.164,-1680.9082,-26162.883,11116.049,12747.274,70685.266
1311246.8544626716,-86704.06,-77938.68,-31432.537,-1686.1572,-26170.41,11117.961,12757.731,70727.17
1311246.8584626906,-86689.86,-77936.41,-31432.414,-1688.1511,-26169.395,11114.136,12751.953,70718.23
1311246.8624627097,-86725.63,-77951.83,-31432.658,-1686.7676,-26166.871,11111.369,12736.45,70678.914
1311246.8664627287,-86762.54,-77963.42,-31435.385,-1685.5062,-26165.527,11110.312,12730.673,70654.42
1311246.8704627478,-86746.99,-77956.14,-31434.45,-1686.9304,-26172.242,11113.444,12742.025,70684.734
1311246.8744627668,-86695.11,-77936.32,-31429.607,-1687.2559,-26173.26,11117.798,12753.662,70727.79
1311246.8784627859,-86685.875,-77934.2,-31431.113,-1689.0056,-26172.04,11116.455,12748.373,70717.81
1311246.882462805,-86724.37,-77952.84,-31439.902,-1690.267,-26169.678,11112.59,12735.637,70675.09
1311246.886462824,-86770.836,-77965.5,-31445.883,-1689.2904,-26169.271,11113.2,12729.574,70649.664
1311246.890462843,-86761.766,-77958.945,-31444.053,-1688.3138,-26167.807,11113.7295,12735.922,70674.6
1311246.894462862,-86717.77,-77948.29,-31439.414,-1690.6332,-26172.324,11115.438,12740.601,70705.53
1311246.898462881,-86704.266,-77946.54,-31438.762,-1690.918,-26172.201,11112.509,12735.637,70699.914
1311246.9024629002,-86723.72,-77949.51,-31436.973,-1686.4828,-26166.465,11108.236,12727.499,70674.44
1311246.9064629192,-86757.29,-77958.13,-31439.494,-1686.2386,-26163.78,11109.335,12723.145,70656.25
1311246.9104629382,-86744.836,-77952.31,-31439.617,-1688.2732,-26168.05,11111.003,12728.679,70677.77
1311246.9144629573,-86707.16,-77943.32,-31438.885,-1692.9932,-26174.357,11112.509,12738.037,70714.36
1311246.9184629763,-86703.414,-77948.08,-31442.303,-1692.2201,-26175.781,11112.549,12734.091,70705.08
1311246.9224629954,-86729.695,-77954.8,-31442.709,-1688.2732,-26168.662,11108.725,12724.731,70674.97
1311246.9264630144,-86760.46,-77963.586,-31441.53,-1685.669,-26164.307,11105.957,12718.018,70657.92
1311246.9304630335,-86750.125,-77955.484,-31434.693,-1685.791,-26170.29,11107.91,12727.58,70680.55
1311246.9344630525,-86698.85,-77940.06,-31430.99,-1686.7676,-26170.207,11110.962,12736.938,70721.36
1311246.9384630716,-86688.16,-77940.836,-31430.096,-1686.3607,-26167.48,11109.253,12730.307,70709.35
1311246.9424630906,-86718.1,-77947.15,-31431.072,-1683.1869,-26165.244,11105.51,12719.6045,70670.984
1311246.9464631097,-86752.36,-77956.38,-31435.14,-1681.3965,-26159.303,11105.917,12716.064,70649.13
1311246.9504631287,-86749.43,-77957.32,-31435.791,-1685.4656,-26165.406,11108.236,12725.058,70671.266
1311246.9544631478,-86713.71,-77949.75,-31434.082,-1688.2732,-26170.695,11112.0205,12734.863,70712.24
1311246.9584631668,-86706.22,-77953.53,-31434.408,-1688.9648,-26172.812,11112.0205,12733.48,70704.266
1311246.962463186,-86735.4,-77962.73,-31437.256,-1686.1166,-26166.504,11109.497,12724.487,70672.81
1311246.966463205,-86772.914,-77974.445,-31442.912,-1682.9427,-26155.803,11108.317,12719.6455,70651.2
1311246.970463224,-86769.414,-77973.02,-31440.959,-1685.7504,-26159.1,11113.525,12732.504,70684.29
1311246.974463243,-86741.58,-77970.625,-31438.03,-1691.1621,-26171.55,11117.432,12745.891,70731.445
1311246.978463262,-86720.055,-77957.64,-31432.293,-1689.9414,-26170.898,11113.444,12740.52,70720.87
1311246.9824632811,-86730.39,-77953.05,-31432.455,-1685.14,-26166.668,11108.276,12730.835,70680.83
1311246.9864633002,-86759.36,-77952.44,-31433.555,-1682.4951,-26161.662,11106.853,12722.941,70653.81
1311246.9904633192,-86765.1,-77964.234,-31435.223,-1687.0931,-26171.916,11110.515,12727.702,70675.17
1311246.9944633383,-86741.58,-77967.45,-31431.723,-1691.04,-26177.734,11113.933,12737.0205,70714.16
1311246.9984633573,-86736.53,-77975.266,-31434.367,-1692.7084,-26174.398,11112.915,12737.183,70713.99
1311247.0024633764,-86765.625,-77983.28,-31441.0,-1690.8367,-26166.871,11109.579,12728.516,70679.2
1311247.0064633954,-86783.164,-77987.1,-31443.645,-1688.1511,-26162.965,11107.544,12726.359,70665.08
1311247.0104634145,-86765.51,-77978.97,-31442.303,-1690.918,-26171.836,11110.2295,12733.806,70687.95
1311247.0144634335,-86724.734,-77971.11,-31437.012,-1696.167,-26184.326,11114.014,12740.072,70719.16
1311247.0184634526,-86718.63,-77971.4,-31436.2,-1694.7021,-26184.246,11111.857,12732.585,70705.164
1311247.0224634716,-86763.516,-77986.25,-31442.994,-1693.3187,-26178.346,11108.032,12718.913,70668.055
1311247.0264634907,-86794.07,-77989.664,-31446.006,-1689.2498,-26173.137,11102.661,12714.478,70656.45
1311247.0304635097,-86776.62,-77983.445,-31445.965,-1690.5518,-26175.01,11105.103,12724.365,70685.14
1311247.0344635288,-86738.04,-77977.26,-31443.4,-1694.4988,-26183.96,11114.096,12737.834,70727.42
1311247.0384635478,-86728.31,-77978.68,-31445.518,-1697.8353,-26186.32,11114.38,12734.497,70712.61
1311247.0424635669,-86759.69,-77981.125,-31448.568,-1696.6553,-26181.193,11110.8,12726.115,70679.65
1311247.046463586,-86785.89,-77985.35,-31450.074,-1693.807,-26175.701,11109.782,12725.017,70659.34
1311247.050463605,-86778.61,-77980.516,-31449.627,-1693.5222,-26175.172,11110.759,12732.422,70691.77
1311247.054463624,-86731.94,-77962.52,-31441.611,-1692.3015,-26177.37,11113.322,12745.28,70737.43
1311247.058463643,-86723.02,-77964.68,-31442.912,-1691.2435,-26174.277,11113.322,12745.036,70731.98
1311247.0624636621,-86751.38,-77971.27,-31447.592,-1688.7207,-26168.213,11111.898,12739.828,70699.83
1311247.0664636812,-86789.02,-77978.516,-31452.963,-1689.1277,-26167.236,11112.509,12740.194,70679.37
1311247.0704637002,-86786.22,-77979.414,-31447.389,-1691.2842,-26172.12,11117.473,12748.861,70702.48
1311247.0744637193,-86746.46,-77974.086,-31440.268,-1692.9525,-26180.258,11121.867,12754.802,70734.78
1311247.0784637383,-86733.65,-77972.336,-31439.697,-1691.7725,-26179.037,11118.002,12742.432,70724.65
1311247.0824637574,-86767.055,-77980.92,-31449.26,-1689.1277,-26166.668,11108.603,12719.32,70676.59
1311247.0864637764,-86792.56,-77984.46,-31453.29,-1686.8083,-26173.707,11106.853,12712.646,70648.73
1311247.0904637955,-86774.74,-77975.34,-31449.992,-1686.8083,-26176.514,11113.811,12725.18,70683.11
1311247.0944638145,-86726.56,-77961.71,-31446.697,-1691.1215,-26182.414,11119.833,12741.781,70728.92
1311247.0984638336,-86718.06,-77961.266,-31449.424,-1692.1794,-26181.723,11118.164,12733.276,70715.74
1311247.1024638526,-86755.62,-77977.13,-31454.143,-1689.2904,-26178.305,11112.509,12720.053,70672.85
1311247.1064638717,-86791.06,-77984.984,-31452.516,-1684.4482,-26172.527,11108.969,12714.193,70651.41
1311247.1104638907,-86779.14,-77983.32,-31447.186,-1683.5125,-26173.951,11111.776,12721.273,70677.9
1311247.1144639098,-86734.46,-77972.45,-31446.777,-1687.8256,-26179.525,11116.171,12733.603,70719.65
1311247.1184639288,-86727.7,-77966.15,-31449.83,-1690.1042,-26178.223,11114.828,12732.016,70716.02
1311247.1224639479,-86756.15,-77971.36,-31451.457,-1688.0697,-26167.156,11113.811,12726.5625,70685.95
1311247.126463967,-86784.75,-77980.555,-31452.271,-1685.9131,-26167.115,11115.805,12729.858,70668.7
1311247.130463986,-86775.96,-77979.984,-31449.098,-1686.7269,-26172.445,11116.496,12738.241,70691.94
1311247.134464005,-86740.69,-77976.04,-31446.412,-1690.2263,-26181.764,11116.008,12740.561,70720.87
1311247.138464024,-86741.87,-77979.375,-31445.232,-1689.5752,-26180.664,11112.915,12729.37,70704.39
1311247.142464043,-86772.42,-77979.01,-31444.418,-1685.1807,-26179.2,11109.823,12719.157,70676.84
1311247.1464640622,-86799.56,-77978.97,-31445.477,-1681.8441,-26171.754,11109.05,12718.791,70662.68
1311247.1504640812,-86782.07,-77971.11,-31442.871,-1682.2103,-26173.463,11114.95,12730.632,70690.43
1311247.1544641003,-86733.28,-77961.71,-31438.926,-1684.4076,-26178.428,11121.013,12745.199,70733.4
1311247.1584641193,-86720.3,-77962.94,-31439.006,-1685.5062,-26175.049,11118.734,12742.351,70727.016
1311247.1624641384,-86754.234,-77968.914,-31441.367,-1684.4076,-26176.678,11112.224,12731.161,70689.29
1311247.1664641576,-86785.69,-77974.734,-31442.262,-1679.9316,-26170.166,11105.0625,12717.529,70662.48
1311247.1704641767,-86765.1,-77968.586,-31437.705,-1678.1006,-26167.766,11107.422,12724.487,70689.17
1311247.1744641957,-86731.41,-77962.08,-31437.42,-1682.8207,-26173.79,11114.543,12742.961,70732.95
1311247.1784642148,-86728.92,-77969.12,-31438.885,-1684.5703,-26177.451,11121.379,12751.587,70737.47
1311247.1824642338,-86736.05,-77960.05,-31433.594,-1679.7689,-26166.871,11121.46,12745.321,70705.98
1311247.1864642529,-86758.79,-77960.984,-31436.809,-1677.0834,-26158.326,11119.589,12738.119,70679.85
1311247.190464272,-86761.07,-77973.47,-31436.973,-1678.5076,-26167.48,11120.972,12744.304,70702.07
1311247.194464291,-86729.086,-77966.76,-31431.64,-1680.1351,-26178.264,11120.443,12751.465,70739.71
1311247.19846431,-86722.945,-77964.12,-31435.588,-1680.9896,-26173.057,11115.112,12743.246,70728.64
1311247.202464329,-86748.09,-77965.336,-31436.24,-1675.9847,-26165.977,11112.305,12733.847,70694.336
1311247.2064643481,-86778.24,-77976.36,-31442.303,-1673.4213,-26160.768,11113.525,12724.447,70671.305
1311247.2104643672,-86762.66,-77972.29,-31443.156,-1676.9613,-26171.836,11119.223,12730.957,70698.41
1311247.2144643862,-86718.51,-77959.88,-31438.477,-1682.1697,-26180.787,11122.925,12743.286,70741.3
1311247.2184644053,-86713.26,-77958.945,-31436.484,-1682.3324,-26180.787,11121.623,12741.537,70736.94
1311247.2224644243,-86740.97,-77969.85,-31440.146,-1678.3447,-26176.19,11115.072,12723.063,70692.55
1311247.2264644434,-86783.61,-77987.96,-31447.51,-1677.3275,-26176.148,11108.643,12707.194,70657.11
1311247.2304644624,-86776.37,-77984.625,-31444.053,-1675.8627,-26177.207,11110.8,12715.983,70681.195
1311247.2344644815,-86728.88,-77966.35,-31436.158,-1676.6357,-26178.996,11115.316,12726.726,70721.97
1311247.2384645005,-86721.4,-77964.84,-31437.094,-1675.6592,-26173.666,11117.27,12728.476,70723.23
1311247.2424645196,-86750.77,-77968.71,-31437.867,-1673.991,-26170.086,11116.293,12726.278,70701.664
1311247.2464645386,-86781.7,-77982.38,-31442.18,-1674.642,-26166.748,11115.683,12723.511,70684.41
1311247.2504645577,-86769.9,-77989.055,-31446.045,-1676.7986,-26171.836,11117.514,12731.649,70715.01
1311247.2544645767,-86726.73,-77978.68,-31441.203,-1679.7283,-26185.02,11122.681,12742.147,70748.21
1311247.2584645958,-86731.125,-77984.42,-31442.832,-1680.0537,-26182.09,11120.6875,12732.382,70731.65
1311247.2624646148,-86753.91,-77987.1,-31441.936,-1675.4558,-26172.648,11116.049,12720.337,70694.26
1311247.2664646339,-86776.77,-77989.46,-31442.262,-1670.4916,-26169.068,11115.153,12721.802,70677.45
1311247.270464653,-86765.38,-77983.65,-31442.709,-1671.7937,-26173.34,11118.612,12731.201,70706.016
1311247.274464672,-86723.72,-77974.94,-31438.885,-1676.5137,-26178.834,11124.228,12741.252,70741.21
1311247.278464691,-86726.93,-77979.29,-31443.115,-1678.1006,-26177.94,11122.355,12735.922,70725.42
1311247.28246471,-86761.88,-77989.55,-31451.416,-1676.7172,-26172.486,11117.758,12726.767,70686.65
1311247.286464729,-86790.9,-77992.02,-31454.957,-1676.0662,-26173.422,11114.95,12723.633,70670.734
1311247.2904647482,-86773.89,-77980.39,-31449.748,-1674.9675,-26173.584,11117.473,12729.655,70694.3
1311247.2944647672,-86723.59,-77965.7,-31440.47,-1675.1709,-26178.428,11118.979,12736.9795,70743.98
1311247.2984647863,-86714.32,-77965.66,-31439.535,-1675.8627,-26178.71,11115.845,12729.696,70732.016
1311247.3024648053,-86751.305,-77981.0,-31442.953,-1676.3103,-26178.63,11113.037,12717.529,70680.38
1311247.3064648244,-86790.57,-77992.72,-31444.988,-1675.4558,-26174.602,11111.206,12710.775,70653.93
1311247.3104648434,-86792.36,-77996.46,-31446.697,-1676.9207,-26177.451,11116.699,12720.541,70681.89
1311247.3144648625,-86755.336,-77988.98,-31446.453,-1678.7517,-26181.193,11121.948,12730.957,70724.2
1311247.3184648815,-86740.195,-77981.695,-31444.092,-1676.9207,-26178.916,11119.548,12723.633,70714.03
1311247.3224649006,-86767.42,-77990.56,-31443.32,-1673.055,-26177.531,11118.693,12718.628,70684.05
1311247.3264649196,-86799.89,-77997.44,-31443.36,-1670.6543,-26176.678,11120.321,12721.3545,70664.63
1311247.3304649387,-86779.22,-77986.66,-31437.623,-1669.7998,-26175.254,11123.495,12730.266,70696.05
1311247.3344649577,-86728.195,-77977.54,-31433.432,-1674.2351,-26180.258,11125.529,12738.811,70734.3
1311247.3384649768,-86711.1,-77978.44,-31432.861,-1675.5779,-26179.16,11121.135,12732.219,70721.766
1311247.3424649958,-86738.65,-77992.44,-31440.186,-1675.0896,-26178.996,11118.693,12725.058,70675.09
1311247.3464650149,-86784.14,-78004.64,-31445.354,-1673.5027,-26176.31,11121.257,12729.452,70668.58
1311247.350465034,-86801.03,-78019.53,-31450.277,-1676.0662,-26182.537,11126.018,12737.753,70703.734
1311247.354465053,-86764.734,-78010.016,-31447.754,-1678.7517,-26186.2,11129.802,12743.856,70737.76
1311247.358465072,-86717.29,-77974.66,-31439.088,-1671.5088,-26177.531,11123.373,12730.632,70724.86
1311247.362465091,-86732.42,-77970.664,-31438.152,-1667.7654,-26172.404,11118.774,12717.57,70685.71
1311247.36646511,-86754.11,-77964.97,-31434.287,-1662.6384,-26170.127,11117.554,12717.001,70670.01
1311247.3704651291,-86717.45,-77938.73,-31429.12,-1661.9873,-26170.004,11118.002,12723.145,70693.81
1311247.3744651482,-86672.77,-77925.46,-31431.396,-1664.266,-26175.416,11122.03,12731.079,70729.29
1311247.3784651672,-86657.88,-77915.0,-31430.137,-1662.3943,-26167.236,11120.321,12721.191,70722.82
1311247.3824651863,-86687.26,-77913.695,-31430.34,-1659.2205,-26162.395,11117.065,12709.921,70677.82
1311247.3864652053,-86725.75,-77920.29,-31434.775,-1659.2205,-26164.877,11115.642,12710.612,70662.6
1311247.3904652244,-86710.695,-77908.94,-31432.334,-1660.848,-26167.318,11117.392,12719.6455,70689.01
1311247.3944652434,-86667.36,-77903.41,-31429.852,-1665.3646,-26175.457,11119.141,12728.72,70727.91
1311247.3984652625,-86651.414,-77900.02,-31427.207,-1663.8184,-26176.922,11114.665,12721.802,70712.85
1311247.4024652815,-86679.24,-77904.46,-31430.787,-1660.3191,-26171.307,11111.613,12710.531,70678.02
1311247.4064653006,-86716.8,-77916.67,-31434.043,-1659.9935,-26164.918,11112.793,12707.642,70655.44
1311247.4104653196,-86702.84,-77906.58,-31430.543,-1659.3425,-26161.459,11119.589,12722.128,70690.555
1311247.4144653387,-86664.43,-77901.695,-31429.893,-1663.6556,-26172.852,11126.059,12735.474,70740.234
1311247.4184653577,-86658.05,-77910.12,-31430.34,-1666.6667,-26177.043,11125.163,12730.469,70731.08
1311247.4224653768,-86700.6,-77929.734,-31433.229,-1666.2191,-26172.363,11121.664,12715.78,70695.6
1311247.4264653958,-86734.46,-77942.836,-31436.117,-1663.5742,-26171.836,11118.124,12706.95,70661.336
1311247.430465415,-86728.234,-77945.766,-31436.932,-1663.3708,-26175.498,11120.117,12715.495,70679.08
1311247.434465434,-86681.97,-77934.98,-31432.537,-1664.3474,-26177.695,11124.838,12727.255,70725.1
1311247.438465453,-86675.26,-77936.04,-31433.146,-1664.5101,-26178.428,11125.651,12724.447,70715.13
1311247.442465472,-86706.42,-77944.336,-31437.826,-1663.4929,-26172.73,11123.373,12718.344,70679.73
1311247.446465491,-86732.016,-77950.805,-31439.902,-1663.5742,-26171.916,11122.478,12715.861,70659.016
1311247.4504655101,-86724.33,-77951.26,-31436.117,-1666.0156,-26180.176,11126.953,12724.569,70686.16
1311247.4544655292,-86678.266,-77942.586,-31432.334,-1667.033,-26183.188,11129.924,12733.276,70720.18
1311247.4584655482,-86678.96,-77942.67,-31432.455,-1665.1205,-26177.613,11126.75,12731.039,70708.984
1311247.4624655673,-86716.8,-77953.62,-31437.623,-1660.848,-26171.592,11123.169,12725.464,70679.484
1311247.4664655863,-86743.45,-77957.234,-31439.697,-1657.7556,-26169.922,11122.192,12725.464,70665.41
1311247.4704656054,-86727.586,-77947.02,-31435.02,-1658.8135,-26174.154,11126.75,12738.2,70699.55
1311247.4744656244,-86683.15,-77937.336,-31431.357,-1662.3943,-26185.14,11131.348,12748.535,70739.42
1311247.4784656435,-86673.875,-77939.25,-31433.39,-1662.9232,-26185.264,11130.615,12742.147,70721.93
1311247.4824656625,-86703.78,-77946.336,-31431.602,-1659.6273,-26178.02,11126.425,12729.411,70686.36
1311247.4864656816,-86741.54,-77950.195,-31430.299,-1657.2673,-26172.04,11124.675,12727.092,70667.6
1311247.4904657006,-86734.54,-77945.68,-31429.973,-1657.1859,-26168.742,11127.523,12737.427,70691.77
1311247.4944657197,-86692.55,-77934.94,-31429.363,-1658.2031,-26170.898,11128.093,12744.182,70731.125
1311247.4984657387,-86680.55,-77935.18,-31430.99,-1658.9763,-26175.701,11126.547,12741.211,70724.53
1311247.5024657578,-86706.22,-77938.27,-31431.846,-1655.8431,-26171.104,11124.268,12729.248,70682.21
1311247.5064657768,-86730.92,-77939.74,-31436.402,-1655.0293,-26166.26,11123.942,12722.25,70658.49
1311247.5104657959,-86714.16,-77940.72,-31433.594,-1657.6335,-26171.754,11130.127,12733.236,70686.98
1311247.514465815,-86663.695,-77922.65,-31426.637,-1657.1859,-26176.84,11134.318,12745.28,70730.836
1311247.518465834,-86661.95,-77923.22,-31424.195,-1656.4535,-26170.615,11131.226,12739.055,70719.445
1311247.522465853,-86705.08,-77936.36,-31428.102,-1653.0762,-26167.033,11126.465,12722.697,70679.04
1311247.526465872,-86731.2,-77938.97,-31429.443,-1649.9838,-26161.947,11124.797,12718.384,70661.46
1311247.5304658911,-86702.64,-77930.87,-31426.922,-1650.2686,-26166.016,11127.89,12727.173,70691.53
1311247.5344659102,-86665.734,-77924.36,-31425.049,-1655.0701,-26173.91,11132.568,12739.096,70725.71
1311247.5384659292,-86670.414,-77924.195,-31424.643,-1654.3376,-26170.004,11131.145,12732.138,70712.0
1311247.5424659483,-86707.4,-77931.48,-31426.393,-1649.6582,-26161.988,11128.378,12718.75,70668.22
1311247.5464659673,-86738.53,-77934.9,-31427.084,-1646.6064,-26159.1,11127.768,12715.983,70654.95
1311247.5504659864,-86718.8,-77928.34,-31424.113,-1646.7285,-26160.686,11129.883,12730.551,70694.42
1311247.5544660054,-86677.05,-77921.51,-31421.428,-1651.2859,-26166.26,11131.552,12741.252,70735.44
1311247.5584660245,-86668.83,-77925.414,-31426.678,-1654.7852,-26170.29,11127.89,12732.097,70720.016
1311247.5624660435,-86699.266,-77932.414,-31429.037,-1652.71,-26164.918,11124.675,12718.222,70678.06
1311247.5664660626,-86727.055,-77935.75,-31431.479,-1648.6003,-26155.07,11125.326,12713.989,70658.53
1311247.5704660816,-86714.32,-77926.92,-31428.428,-1649.3328,-26163.371,11132.365,12729.248,70697.02
1311247.5744661007,-86682.54,-77919.84,-31423.584,-1653.3203,-26172.242,11138.103,12746.094,70747.64
1311247.5784661197,-86675.945,-77922.65,-31421.998,-1654.0527,-26167.848,11133.464,12741.171,70739.586
1311247.5824661388,-86707.56,-77935.1,-31428.143,-1652.1404,-26162.477,11126.506,12723.1045,70690.02
1311247.5864661578,-86734.055,-77937.91,-31428.467,-1648.5189,-26159.506,11122.722,12713.135,70659.305
1311247.5904661769,-86717.25,-77929.24,-31426.025,-1648.7631,-26161.744,11125.285,12721.599,70685.71
1311247.594466196,-86679.81,-77921.59,-31421.957,-1651.2859,-26169.11,11130.29,12732.992,70729.984
1311247.598466215,-86669.48,-77917.24,-31420.86,-1650.1058,-26169.11,11130.859,12731.73,70724.24
1311247.602466234,-86709.59,-77929.57,-31429.404,-1648.112,-26164.633,11128.662,12723.674,70693.16
1311247.606466253,-86745.85,-77944.91,-31430.543,-1646.932,-26163.574,11127.563,12719.198,70675.7
1311247.610466272,-86728.516,-77942.71,-31425.822,-1648.2341,-26167.236,11128.296,12724.976,70704.39
1311247.6144662912,-86684.0,-77931.89,-31422.852,-1652.6693,-26172.283,11129.68,12728.3125,70731.57
1311247.6184663102,-86671.19,-77929.734,-31425.62,-1654.8259,-26171.916,11129.232,12721.721,70718.34
1311247.6224663293,-86698.29,-77932.82,-31433.146,-1652.5472,-26162.395,11125.407,12712.851,70685.23
1311247.6264663483,-86727.13,-77940.92,-31437.744,-1651.6927,-26163.168,11125.407,12711.914,70661.38
1311247.6304663674,-86731.81,-77957.03,-31441.53,-1657.1859,-26173.79,11130.575,12723.877,70687.18
1311247.6344663864,-86708.09,-77959.07,-31441.203,-1660.3597,-26184.938,11134.115,12733.5205,70725.55
1311247.6384664054,-86692.55,-77937.336,-31437.256,-1656.25,-26177.043,11131.633,12723.389,70716.07
1311247.6424664245,-86698.85,-77925.46,-31436.564,-1652.059,-26164.307,11126.506,12710.043,70678.914
1311247.6464664435,-86719.445,-77920.414,-31440.186,-1648.8445,-26160.035,11123.251,12700.847,70649.336
1311247.6504664626,-86709.07,-77914.06,-31440.797,-1651.6113,-26166.504,11126.181,12710.9375,70678.875
1311247.6544664816,-86676.11,-77909.305,-31439.902,-1656.5349,-26172.08,11130.859,12724.04,70721.195
1311247.6584665007,-86650.35,-77883.99,-31433.146,-1651.9775,-26159.344,11129.232,12718.222,70710.49
1311247.6624665197,-86684.33,-77885.22,-31438.111,-1648.0713,-26153.24,11124.064,12707.031,70680.09
1311247.6664665388,-86723.8,-77899.54,-31446.29,-1646.1589,-26148.926,11120.85,12700.725,70654.87
1311247.6704665578,-86712.94,-77896.81,-31445.068,-1648.6816,-26154.746,11123.739,12707.072,70676.516
1311247.674466577,-86670.086,-77884.04,-31444.053,-1650.2686,-26156.78,11127.482,12712.118,70710.734
1311247.678466596,-86664.19,-77889.77,-31445.72,-1650.35,-26152.955,11127.319,12707.52,70696.62
1311247.682466615,-86692.95,-77896.12,-31444.662,-1649.1293,-26154.135,11127.035,12708.537,70674.195
1311247.686466634,-86709.84,-77886.4,-31440.756,-1645.6707,-26147.34,11124.838,12711.996,70664.23
1311247.690466653,-86697.39,-77886.11,-31438.193,-1647.5424,-26146.201,11126.099,12722.575,70697.59
1311247.6944666721,-86667.766,-77884.69,-31437.094,-1654.3376,-26154.053,11127.971,12727.011,70727.74
1311247.6984666912,-86672.61,-77895.63,-31443.36,-1655.9246,-26158.123,11127.075,12717.733,70708.21
1311247.7024667102,-86714.4,-77910.52,-31449.342,-1651.6113,-26152.914,11125.244,12707.031,70671.35
1311247.7064667293,-86742.31,-77916.18,-31449.057,-1649.2513,-26151.611,11125.651,12704.631,70655.84
1311247.7104667483,-86728.11,-77911.26,-31446.209,-1651.6927,-26155.844,11128.906,12716.187,70688.11
1311247.7144667674,-86686.89,-77894.984,-31441.611,-1653.3203,-26157.105,11131.633,12728.557,70728.11
1311247.7184667864,-86675.3,-77892.74,-31438.559,-1652.3031,-26155.762,11128.459,12724.528,70724.57
1311247.7224668055,-86710.33,-77904.26,-31443.035,-1649.6176,-26152.629,11123.373,12712.81,70691.164
1311247.7264668245,-86744.14,-77912.88,-31450.969,-1649.5769,-26149.984,11120.85,12706.706,70664.43
1311247.7304668436,-86730.92,-77904.75,-31449.219,-1650.0652,-26152.182,11123.617,12713.745,70688.6
1311247.7344668626,-86679.94,-77885.5,-31440.227,-1648.641,-26155.6,11129.11,12724.243,70729.01
1311247.7384668817,-86671.72,-77882.9,-31436.523,-1648.2341,-26154.705,11128.378,12720.785,70722.29
1311247.7424669007,-86721.68,-77902.06,-31443.809,-1647.8679,-26152.385,11127.849,12712.6875,70684.77
1311247.7464669198,-86760.83,-77916.95,-31449.057,-1648.4783,-26155.234,11126.953,12711.914,70665.695
1311247.7504669388,-86741.91,-77911.26,-31444.865,-1649.0479,-26157.676,11127.563,12722.778,70698.164
1311247.7544669579,-86698.9,-77900.96,-31442.709,-1650.6755,-26160.523,11128.134,12730.185,70731.37
1311247.758466977,-86691.125,-77900.11,-31449.424,-1649.5769,-26158.611,11126.059,12722.778,70716.88
1311247.762466996,-86721.234,-77905.73,-31452.598,-1647.6238,-26153.24,11124.512,12711.548,70673.51
1311247.766467015,-86749.23,-77915.29,-31453.613,-1646.281,-26151.816,11122.966,12706.177,70645.96
1311247.770467034,-86730.96,-77905.56,-31448.65,-1646.8506,-26159.709,11125.163,12719.076,70680.99
1311247.7744670531,-86687.625,-77892.09,-31444.662,-1648.9258,-26163.78,11129.802,12727.377,70727.74
1311247.7784670722,-86695.4,-77908.25,-31451.701,-1652.5066,-26165.977,11129.965,12724.772,70717.33
1311247.7824670912,-86761.35,-77953.78,-31463.623,-1654.7445,-26167.686,11128.906,12720.256,70687.26
1311247.7864671103,-86780.234,-77949.266,-31456.543,-1649.2513,-26159.791,11125.0,12711.589,70667.484
1311247.7904671293,-86731.445,-77905.56,-31440.146,-1643.7175,-26152.629,11124.838,12716.797,70695.97
1311247.7944671484,-86682.82,-77890.38,-31432.658,-1645.9148,-26162.273,11128.378,12727.865,70737.47
1311247.7984671674,-86684.45,-77904.7,-31437.338,-1649.7396,-26173.504,11126.547,12725.098,70727.79
1311247.8024671865,-86721.16,-77923.016,-31440.105,-1648.3562,-26171.754,11121.298,12710.815,70687.46
1311247.8064672055,-86759.73,-77938.11,-31446.086,-1646.6064,-26168.906,11121.379,12707.031,70663.086
1311247.8104672246,-86738.24,-77933.23,-31443.32,-1649.7396,-26173.91,11125.814,12717.611,70694.99
1311247.8144672436,-86689.5,-77923.664,-31437.664,-1651.7334,-26181.072,11131.022,12728.72,70737.51
1311247.8184672627,-86689.01,-77929.37,-31437.664,-1653.0355,-26186.646,11129.68,12725.302,70725.625
1311247.8224672817,-86728.11,-77943.89,-31440.512,-1651.2859,-26184.082,11124.797,12712.973,70687.46
1311247.8264673008,-86764.53,-77958.21,-31444.377,-1648.641,-26178.305,11120.85,12706.462,70664.59
1311247.8304673198,-86750.164,-77958.74,-31442.303,-1651.1638,-26182.334,11124.35,12720.175,70701.83
1311247.8344673389,-86706.42,-77949.47,-31437.217,-1652.4658,-26182.414,11126.587,12730.388,70739.914
1311247.838467358,-86692.51,-77948.445,-31435.426,-1652.71,-26184.043,11125.204,12724.528,70730.1
1311247.842467377,-86720.46,-77954.8,-31436.2,-1650.3093,-26182.781,11123.373,12716.716,70698.28
1311247.846467396,-86750.164,-77964.68,-31439.982,-1649.4141,-26179.932,11120.524,12711.304,70677.82
1311247.850467415,-86742.31,-77967.41,-31442.465,-1654.6224,-26189.941,11123.495,12722.046,70706.95
1311247.854467434,-86703.01,-77953.86,-31438.682,-1655.9246,-26195.15,11126.628,12733.969,70741.17
1311247.8584674532,-86701.74,-77957.44,-31438.6,-1654.1748,-26190.879,11127.238,12730.795,70736.01
1311247.8624674722,-86735.07,-77968.836,-31443.523,-1651.001,-26182.17,11122.844,12720.459,70704.19
1311247.8664674913,-86763.47,-77974.49,-31442.506,-1648.2341,-26179.24,11118.815,12713.949,70676.39
1311247.8704675103,-86745.57,-77967.29,-31440.838,-1649.4548,-26181.357,11121.542,12723.511,70706.99
1311247.8744675294,-86698.695,-77953.78,-31436.932,-1651.8148,-26192.668,11124.797,12731.364,70746.625
1311247.8784675484,-86689.7,-77953.375,-31439.982,-1653.9307,-26195.232,11122.763,12724.528,70732.26
1311247.8824675675,-86722.414,-77966.31,-31445.965,-1655.0293,-26192.832,11120.972,12714.763,70693.08
1311247.8864675865,-86760.945,-77978.766,-31447.998,-1652.8728,-26189.25,11120.728,12710.49,70665.37
1311247.8904676056,-86746.09,-77969.89,-31445.477,-1653.6052,-26191.936,11126.953,12721.558,70696.62
1311247.8944676246,-86701.91,-77957.52,-31443.32,-1657.43,-26203.086,11131.836,12731.445,70740.195
1311247.8984676437,-86694.5,-77954.39,-31441.406,-1654.7445,-26197.348,11126.262,12721.151,70729.62
1311247.9024676627,-86730.8,-77963.99,-31441.082,-1649.8617,-26187.826,11120.891,12712.036,70697.15
1311247.9064676818,-86763.47,-77972.86,-31442.139,-1648.4375,-26185.02,11122.641,12714.478,70679.24
1311247.9104677008,-86758.55,-77972.25,-31440.879,-1650.7568,-26190.268,11127.971,12726.074,70707.36
1311247.9144677198,-86722.5,-77965.87,-31440.918,-1654.9072,-26196.656,11131.226,12732.87,70743.57
1311247.918467739,-86715.58,-77968.06,-31447.633,-1655.4363,-26191.285,11129.883,12723.1045,70726.24
1311247.922467758,-86741.664,-77966.76,-31450.36,-1653.0355,-26191.082,11128.581,12713.542,70687.09
1311247.926467777,-86759.4,-77959.96,-31449.871,-1648.8037,-26188.03,11125.529,12711.101,70675.664
1311247.930467796,-86742.07,-77953.53,-31446.209,-1649.7396,-26186.809,11126.181,12719.687,70706.83
1311247.934467815,-86702.35,-77945.805,-31441.936,-1652.71,-26190.105,11129.272,12729.614,70741.74
1311247.9384678341,-86704.67,-77951.54,-31445.762,-1653.4832,-26187.5,11129.924,12723.633,70728.4
1311247.9424678532,-86747.68,-77962.484,-31451.865,-1652.832,-26183.758,11128.378,12716.96,70691.24
1311247.9464678722,-86776.49,-77979.414,-31455.648,-1653.2797,-26182.496,11127.482,12711.914,70666.55
1311247.9504678913,-86752.41,-77982.625,-31454.225,-1657.6742,-26191.895,11128.459,12716.797,70688.03
1311247.9544679103,-86697.72,-77971.27,-31449.545,-1659.8715,-26202.963,11134.074,12725.586,70723.59
1311247.9584679296,-86682.5,-77959.27,-31443.36,-1657.7148,-26202.963,11132.976,12720.175,70720.336
1311247.9624679487,-86722.5,-77970.016,-31447.998,-1656.3721,-26195.883,11127.6455,12709.799,70684.33
1311247.9664679677,-86763.8,-77976.69,-31452.068,-1653.4832,-26191.773,11125.651,12707.357,70666.55
1311247.9704679868,-86752.52,-77969.69,-31451.621,-1651.3265,-26191.65,11129.517,12721.599,70700.4
1311247.9744680058,-86715.17,-77959.11,-31450.766,-1655.1514,-26193.482,11132.162,12733.236,70742.23
1311247.9784680249,-86701.83,-77955.08,-31446.168,-1653.89,-26190.756,11130.453,12730.713,70735.84
1311247.982468044,-86727.016,-77962.2,-31451.133,-1651.2451,-26186.28,11128.459,12721.599,70696.78
1311247.986468063,-86759.52,-77972.05,-31454.428,-1651.0824,-26183.635,11127.197,12718.913,70673.99
1311247.990468082,-86748.375,-77971.68,-31448.61,-1651.6521,-26188.72,11130.859,12726.889,70698.81
1311247.994468101,-86701.3,-77962.12,-31441.691,-1653.7273,-26194.297,11133.464,12732.666,70736.33
1311247.9984681201,-86688.97,-77958.58,-31441.326,-1652.3031,-26190.146,11131.755,12728.842,70731.61
1311248.0024681392,-86727.26,-77961.914,-31444.988,-1650.8789,-26183.92,11127.116,12716.472,70690.555
1311248.0064681582,-86765.99,-77965.58,-31447.877,-1648.4783,-26180.746,11129.069,12715.861,70670.375
1311248.0104681773,-86743.21,-77954.15,-31444.906,-1649.7396,-26191.611,11133.993,12730.185,70707.69
1311248.0144681963,-86696.336,-77944.3,-31440.39,-1651.0824,-26197.307,11138.225,12740.112,70744.75
1311248.0184682154,-86704.8,-77952.15,-31444.58,-1653.3611,-26195.232,11137.329,12735.84,70738.484
1311248.0224682344,-86750.05,-77971.805,-31448.242,-1651.4486,-26193.32,11136.3125,12729.33,70710.82
1311248.0264682535,-86773.16,-77970.5,-31446.127,-1647.0541,-26184.775,11134.033,12726.848,70693.36
1311248.0304682725,-86749.31,-77961.836,-31441.732,-1648.4375,-26191.488,11138.184,12742.025,70728.48
1311248.0344682916,-86703.25,-77952.6,-31437.826,-1651.0824,-26197.877,11140.259,12748.129,70760.055
1311248.0384683106,-86692.99,-77947.23,-31437.46,-1648.7224,-26191.65,11138.388,12739.584,70747.52
1311248.0424683297,-86720.46,-77954.875,-31440.553,-1647.1761,-26185.264,11138.876,12730.876,70713.22
1311248.0464683487,-86745.89,-77955.98,-31440.674,-1644.5312,-26179.281,11136.76,12724.447,70687.91
1311248.0504683678,-86720.83,-77948.04,-31434.164,-1644.9382,-26183.432,11138.225,12735.922,70715.86
1311248.0544683868,-86681.805,-77944.83,-31430.502,-1648.1934,-26191.203,11140.503,12744.182,70747.36
1311248.0584684059,-86684.2,-77948.49,-31429.484,-1647.4203,-26195.639,11140.585,12739.096,70739.055
1311248.062468425,-86719.65,-77951.91,-31433.188,-1643.8396,-26185.67,11136.597,12726.604,70705.08
1311248.066468444,-86754.6,-77959.96,-31434.246,-1642.2933,-26182.822,11132.406,12719.035,70681.52
1311248.070468463,-86736.53,-77961.1,-31432.129,-1645.752,-26191.0,11136.841,12734.009,70712.85
1311248.074468482,-86686.52,-77948.65,-31431.56,-1649.0479,-26197.592,11139.282,12744.06,70748.66
1311248.078468501,-86675.46,-77946.945,-31434.326,-1650.6348,-26201.621,11136.353,12736.247,70734.58
1311248.0824685202,-86719.61,-77961.875,-31440.227,-1651.4486,-26195.639,11131.592,12724.203,70695.195
1311248.0864685392,-86745.85,-77967.86,-31442.832,-1647.1355,-26188.762,11129.313,12717.123,70676.92
1311248.0904685582,-86728.766,-77961.8,-31440.47,-1644.9789,-26190.959,11133.667,12722.168,70702.19
1311248.0944685773,-86689.25,-77956.83,-31439.291,-1649.0479,-26194.988,11138.754,12729.818,70740.484
1311248.0984685963,-86686.52,-77955.0,-31439.291,-1649.699,-26194.744,11137.736,12725.708,70727.17
1311248.1024686154,-86718.305,-77958.09,-31440.715,-1647.4203,-26191.691,11134.685,12715.942,70687.016
1311248.1064686344,-86750.734,-77967.695,-31446.494,-1646.9727,-26191.367,11131.918,12713.908,70674.03
1311248.1104686535,-86740.93,-77964.89,-31442.75,-1647.3796,-26197.145,11134.237,12721.884,70703.984
1311248.1144686725,-86691.695,-77954.47,-31441.611,-1647.1355,-26195.639,11137.045,12728.231,70740.805
1311248.1184686916,-86682.74,-77952.27,-31442.871,-1646.8099,-26198.568,11136.435,12729.045,70732.586
1311248.1224687106,-86722.984,-77962.28,-31445.639,-1644.7754,-26191.895,11135.214,12720.134,70688.07
1311248.1264687297,-86754.73,-77970.42,-31446.982,-1644.1244,-26188.193,11134.685,12717.855,70671.51
1311248.1304687487,-86732.914,-77956.71,-31441.406,-1644.165,-26193.115,11138.754,12727.824,70698.164
1311248.1344687678,-86694.91,-77947.63,-31440.594,-1646.4437,-26197.227,11138.754,12730.429,70734.3
1311248.1384687868,-86705.77,-77962.28,-31447.998,-1649.5361,-26199.912,11136.638,12720.378,70715.13
1311248.142468806,-86738.445,-77972.984,-31451.05,-1647.0134,-26194.459,11131.47,12707.397,70680.3
1311248.146468825,-86763.76,-77975.79,-31451.701,-1643.3513,-26190.064,11129.883,12704.143,70661.09
1311248.150468844,-86746.38,-77968.67,-31451.254,-1644.3279,-26193.604,11135.336,12719.849,70696.01
1311248.154468863,-86708.87,-77960.695,-31451.986,-1650.35,-26200.44,11140.097,12733.603,70737.43
1311248.158468882,-86696.25,-77960.25,-31452.557,-1650.8383,-26198.406,11139.567,12729.533,70725.914
1311248.1624689011,-86726.12,-77966.516,-31451.457,-1647.5017,-26201.66,11135.742,12719.279,70692.38
1311248.1664689202,-86759.93,-77975.22,-31452.963,-1645.0195,-26202.148,11133.464,12710.327,70670.734
1311248.1704689392,-86754.516,-77976.85,-31455.04,-1647.2168,-26204.062,11136.23,12714.152,70696.66
1311248.1744689583,-86720.13,-77972.086,-31452.068,-1648.7224,-26206.504,11138.144,12722.453,70726.16
1311248.1784689773,-86710.05,-77970.7,-31452.88,-1648.5189,-26203.207,11135.702,12718.954,70723.59
1311248.1824689964,-86734.055,-77970.13,-31452.475,-1646.3623,-26200.236,11133.179,12715.292,70696.29
1311248.1864690154,-86767.336,-77979.25,-31454.51,-1643.4326,-26192.588,11133.261,12714.4375,70679.89
1311248.1904690345,-86746.18,-77967.94,-31453.086,-1645.4672,-26196.168,11138.754,12727.458,70716.15
1311248.1944690535,-86696.17,-77951.54,-31450.969,-1648.2341,-26198.895,11140.585,12734.701,70744.836
1311248.1984690726,-86700.12,-77958.62,-31451.783,-1649.6176,-26201.172,11139.648,12724.65,70730.51
1311248.2024690916,-86737.555,-77963.3,-31452.354,-1645.8334,-26193.93,11133.993,12707.927,70686.93
1311248.2064691107,-86771.2,-77970.664,-31452.557,-1642.7002,-26191.0,11131.511,12702.067,70662.64
1311248.2104691297,-86756.836,-77972.82,-31451.865,-1645.3857,-26198.283,11135.498,12714.355,70693.56
1311248.2144691488,-86716.31,-77968.06,-31452.271,-1650.5535,-26204.062,11140.503,12726.767,70728.88
1311248.2184691678,-86705.61,-77967.086,-31453.125,-1651.408,-26209.473,11142.253,12727.824,70723.06
1311248.2224691869,-86729.29,-77973.39,-31456.666,-1648.5189,-26200.766,11139.079,12722.697,70695.15
1311248.226469206,-86762.945,-77982.016,-31461.426,-1645.5892,-26191.855,11134.726,12714.111,70671.305
1311248.230469225,-86747.195,-77980.67,-31461.752,-1648.6003,-26196.656,11136.475,12721.924,70694.22
1311248.234469244,-86704.47,-77965.7,-31458.375,-1651.001,-26201.865,11143.2295,12732.341,70734.7
1311248.238469263,-86695.07,-77960.45,-31455.566,-1650.1465,-26199.83,11142.741,12733.154,70726.16
1311248.2424692821,-86740.97,-77982.75,-31464.193,-1649.7396,-26197.145,11142.009,12730.021,70690.88
1311248.2464693012,-86778.93,-77999.31,-31465.455,-1648.8851,-26196.982,11140.056,12726.807,70685.38
1311248.2504693202,-86741.984,-77974.29,-31450.645,-1646.0775,-26201.295,11141.5205,12736.044,70712.98
1311248.2544693393,-86698.29,-77958.336,-31444.377,-1645.3857,-26197.227,11143.759,12741.943,70743.45
1311248.2584693583,-86700.766,-77960.29,-31442.627,-1644.2465,-26202.271,11140.666,12733.48,70738.85
1311248.2624693774,-86730.516,-77968.38,-31444.865,-1641.3574,-26196.818,11136.23,12721.11,70701.46
1311248.2664693964,-86761.31,-77978.56,-31447.266,-1640.0554,-26195.395,11135.132,12718.466,70679.24
1311248.2704694155,-86741.984,-77970.016,-31443.809,-1641.8865,-26197.836,11141.439,12731.689,70707.28
1311248.2744694345,-86694.79,-77955.61,-31440.959,-1645.5892,-26200.604,11144.735,12742.392,70747.93
1311248.2784694536,-86677.164,-77951.13,-31437.826,-1644.5312,-26205.934,11142.822,12735.718,70736.53
1311248.2824694726,-86719.85,-77964.03,-31441.53,-1640.5844,-26201.092,11137.939,12719.687,70693.24
1311248.2864694917,-86776.62,-77977.17,-31449.139,-1638.265,-26193.809,11135.376,12711.711,70668.7
1311248.2904695107,-86769.78,-77973.8,-31449.26,-1639.4043,-26195.68,11138.428,12719.687,70695.97
1311248.2944695298,-86717.57,-77966.68,-31444.662,-1642.4154,-26206.992,11144.409,12734.823,70736.086
1311248.2984695488,-86701.22,-77965.54,-31441.814,-1641.9271,-26207.236,11144.938,12734.416,70728.805
1311248.3024695679,-86733.69,-77980.06,-31444.459,-1641.0726,-26203.166,11139.893,12725.993,70694.22
1311248.306469587,-86758.586,-77984.58,-31445.924,-1638.8754,-26197.918,11137.736,12723.227,70678.75
1311248.310469606,-86750.33,-77977.22,-31444.58,-1640.2996,-26201.498,11142.253,12737.0205,70718.51
1311248.314469625,-86714.56,-77963.99,-31438.193,-1641.0726,-26207.031,11143.962,12744.995,70756.875
1311248.318469644,-86713.664,-77962.94,-31440.756,-1639.974,-26206.016,11142.822,12737.265,70747.16
1311248.322469663,-86741.336,-77974.086,-31445.842,-1637.4512,-26199.057,11136.801,12721.762,70698.164
1311248.3264696822,-86773.07,-77980.516,-31450.969,-1634.196,-26189.658,11133.464,12708.984,70664.31
1311248.3304697012,-86752.61,-77968.75,-31443.93,-1635.1726,-26194.947,11138.469,12719.035,70700.6
1311248.3344697203,-86709.11,-77956.26,-31438.477,-1637.9395,-26199.627,11144.084,12729.289,70742.84
1311248.3384697393,-86697.02,-77954.305,-31437.908,-1637.2478,-26201.742,11142.334,12723.471,70730.43
1311248.3424697584,-86728.195,-77960.37,-31442.424,-1635.9457,-26196.656,11137.533,12715.78,70699.55
1311248.3464697774,-86759.89,-77969.484,-31447.918,-1635.783,-26193.32,11134.318,12714.478,70681.48
1311248.3504697965,-86743.01,-77967.98,-31448.936,-1636.8816,-26198.527,11140.259,12726.767,70711.1
1311248.3544698155,-86690.31,-77953.49,-31446.209,-1638.2244,-26200.684,11144.328,12734.091,70744.95
1311248.3584698346,-86691.37,-77957.08,-31448.73,-1640.0554,-26199.871,11141.928,12727.336,70734.945
1311248.3624698536,-86731.77,-77963.22,-31448.527,-1636.8408,-26196.941,11138.021,12718.872,70696.984
1311248.3664698726,-86757.695,-77969.77,-31449.219,-1635.2133,-26198.203,11136.027,12717.937,70680.75
1311248.3704698917,-86732.47,-77964.93,-31447.592,-1634.4402,-26196.33,11136.394,12724.365,70714.64
1311248.3744699107,-86696.82,-77957.56,-31447.51,-1637.7361,-26202.19,11140.625,12731.975,70749.27
1311248.3784699298,-86691.25,-77950.08,-31447.633,-1638.6312,-26196.738,11142.172,12730.795,70744.75
1311248.3824699488,-86725.1,-77957.93,-31452.393,-1637.9395,-26192.547,11140.259,12722.29,70711.875
1311248.386469968,-86764.08,-77972.82,-31459.352,-1639.1602,-26194.012,11138.998,12715.495,70685.34
1311248.390469987,-86737.836,-77961.47,-31455.852,-1638.8754,-26196.574,11142.212,12725.546,70716.516
1311248.394470006,-86691.25,-77948.695,-31451.865,-1640.5029,-26196.615,11143.718,12730.144,70750.25
1311248.398470025,-86687.38,-77949.71,-31451.01,-1641.9678,-26198.975,11139.893,12723.063,70738.94
1311248.402470044,-86721.93,-77967.98,-31455.607,-1641.8865,-26199.383,11135.173,12713.461,70703.78
1311248.4064700631,-86761.805,-77982.914,-31454.713,-1639.5264,-26199.79,11135.132,12712.6875,70678.23
1311248.4104700822,-86748.09,-77975.55,-31448.283,-1639.0789,-26204.754,11138.347,12726.726,70717.61
1311248.4144701012,-86702.03,-77962.0,-31445.11,-1641.4795,-26202.068,11141.684,12737.265,70754.805
1311248.4184701203,-86693.766,-77957.805,-31448.691,-1641.683,-26205.16,11140.666,12728.598,70737.23
1311248.4224701393,-86727.83,-77964.766,-31452.842,-1639.7705,-26200.36,11136.353,12716.472,70705.04
1311248.4264701584,-86757.57,-77969.445,-31454.387,-1636.434,-26187.379,11133.667,12710.043,70683.84
1311248.4304701774,-86738.0,-77963.26,-31449.627,-1637.3699,-26197.592,11137.899,12720.907,70712.04
1311248.4344701965,-86701.016,-77957.73,-31447.715,-1638.3057,-26198.08,11140.219,12728.598,70749.02
1311248.4384702155,-86696.695,-77955.77,-31444.377,-1635.8236,-26198.975,11139.648,12726.359,70743.49
1311248.4424702346,-86724.81,-77965.5,-31442.912,-1632.4463,-26193.523,11138.388,12722.494,70714.27
1311248.4464702536,-86753.95,-77965.7,-31446.494,-1630.127,-26189.25,11138.713,12724.976,70696.695
1311248.4504702727,-86742.234,-77957.484,-31447.266,-1634.3588,-26191.244,11141.684,12734.497,70726.24
1311248.4544702917,-86699.1,-77951.984,-31445.273,-1639.0381,-26203.857,11145.834,12738.281,70757.85
1311248.4584703108,-86695.805,-77955.98,-31447.021,-1639.8113,-26203.33,11141.5205,12723.552,70735.44
1311248.4624703298,-86738.04,-77973.39,-31453.613,-1638.5906,-26194.092,11135.498,12704.0205,70688.64
1311248.4664703489,-86777.23,-77980.305,-31452.516,-1632.8939,-26190.838,11133.423,12699.341,70672.164
1311248.470470368,-86754.516,-77967.57,-31444.5,-1629.3945,-26189.414,11134.359,12713.542,70713.664
1311248.474470387,-86704.39,-77955.484,-31436.28,-1632.1615,-26200.44,11137.736,12732.585,70760.83
1311248.478470406,-86688.6,-77951.46,-31434.531,-1631.0629,-26193.604,11136.801,12727.621,70750.33
1311248.482470425,-86720.664,-77959.68,-31440.47,-1629.8422,-26190.268,11133.545,12714.56,70707.89
1311248.4864704441,-86755.945,-77965.54,-31444.58,-1628.4587,-26189.129,11131.958,12707.072,70687.26
1311248.4904704632,-86751.38,-77965.375,-31443.768,-1629.476,-26188.6,11134.888,12714.4375,70718.71
1311248.4944704822,-86715.91,-77957.73,-31442.424,-1632.6091,-26191.123,11137.533,12720.744,70749.15
1311248.4984705013,-86703.17,-77949.266,-31440.43,-1631.307,-26191.57,11135.458,12717.326,70738.37
1311248.5024705203,-86724.53,-77944.5,-31435.059,-1625.8953,-26191.65,11137.207,12715.495,70713.586
1311248.5064705394,-86749.555,-77955.04,-31436.85,-1624.9187,-26190.553,11136.76,12711.63,70695.6
1311248.5104705584,-86727.46,-77949.51,-31433.96,-1626.0173,-26190.023,11136.597,12719.198,70729.74
1311248.5144705775,-86689.54,-77934.734,-31431.846,-1628.3773,-26192.344,11138.632,12732.097,70769.82
1311248.5184705965,-86686.24,-77928.76,-31433.066,-1625.9766,-26184.326,11137.533,12727.255,70756.72
1311248.5224706156,-86719.04,-77931.69,-31437.256,-1623.8201,-26180.42,11134.237,12717.326,70715.58
1311248.5264706346,-86754.516,-77941.86,-31442.953,-1623.2097,-26181.52,11134.359,12710.856,70693.73
1311248.5304706537,-86734.91,-77945.27,-31440.105,-1624.5525,-26185.303,11137.614,12716.553,70720.99
1311248.5344706727,-86679.77,-77929.65,-31429.688,-1624.2676,-26188.193,11139.934,12725.342,70757.49
1311248.5384706918,-86666.914,-77930.83,-31423.219,-1622.9656,-26187.705,11138.754,12722.372,70748.66
1311248.5424707108,-86705.81,-77947.72,-31428.59,-1622.5586,-26190.838,11136.23,12716.553,70715.01
1311248.5464707299,-86746.87,-77951.3,-31435.588,-1621.7855,-26185.344,11135.946,12714.152,70699.016
1311248.550470749,-86732.38,-77941.86,-31435.508,-1621.1345,-26182.414,11139.893,12726.318,70734.3
1311248.554470768,-86682.25,-77925.664,-31430.502,-1622.3959,-26187.95,11143.881,12738.974,70769.414
1311248.558470787,-86678.914,-77930.99,-31430.543,-1623.0876,-26183.96,11142.497,12732.178,70758.51
1311248.562470806,-86708.055,-77940.48,-31431.64,-1620.0765,-26177.857,11135.946,12723.755,70729.82
1311248.566470825,-86731.9,-77941.53,-31430.299,-1617.7979,-26179.648,11133.911,12721.069,70711.305
1311248.5704708442,-86711.02,-77935.95,-31425.293,-1617.7166,-26185.873,11138.144,12727.092,70737.47
1311248.5744708632,-86670.25,-77924.44,-31419.395,-1619.2627,-26187.988,11141.113,12735.107,70769.62
1311248.5784708823,-86676.11,-77931.69,-31421.428,-1619.1406,-26186.361,11139.486,12727.58,70752.81
1311248.5824709013,-86719.81,-77950.12,-31430.705,-1618.4896,-26183.39,11135.824,12715.17,70713.26
1311248.5864709204,-86746.055,-77952.6,-31434.287,-1617.9199,-26185.547,11134.399,12712.402,70696.74
1311248.5904709394,-86717.05,-77934.25,-31430.664,-1617.391,-26185.791,11137.451,12724.772,70738.41
1311248.5944709585,-86677.984,-77926.516,-31429.2,-1621.1752,-26191.244,11137.289,12728.271,70769.05
1311248.5984709775,-86669.516,-77925.5,-31426.963,-1620.8904,-26190.023,11137.695,12721.558,70753.945
1311248.6024709966,-86699.34,-77930.95,-31426.27,-1617.2689,-26190.594,11136.557,12713.379,70724.2
1311248.6064710156,-86736.86,-77937.46,-31429.525,-1616.1703,-26186.117,11136.597,12709.27,70705.484
1311248.6104710347,-86725.586,-77930.83,-31425.334,-1616.862,-26186.361,11141.317,12718.954,70735.92
1311248.6144710537,-86683.19,-77916.51,-31423.951,-1618.7338,-26190.023,11143.148,12728.109,70775.84
1311248.6184710728,-86673.016,-77912.234,-31422.607,-1616.2924,-26183.514,11140.544,12723.959,70764.734
1311248.6224710918,-86708.055,-77922.0,-31421.875,-1612.3861,-26176.434,11135.62,12714.193,70725.79
1311248.6264711109,-86735.195,-77926.96,-31424.766,-1609.7006,-26174.805,11133.179,12710.612,70703.375
1311248.63047113,-86713.14,-77924.234,-31425.904,-1612.9965,-26184.123,11138.266,12724.081,70740.69
1311248.634471149,-86676.03,-77919.15,-31426.27,-1619.5068,-26195.518,11140.015,12729.452,70771.98
1311248.638471168,-86667.766,-77912.44,-31427.328,-1618.6523,-26186.89,11137.899,12719.32,70751.23
1311248.642471187,-86704.555,-77924.766,-31430.42,-1615.682,-26182.21,11137.736,12709.677,70717.086
1311248.646471206,-86739.18,-77940.31,-31428.02,-1612.5082,-26180.584,11139.648,12708.496,70703.375
1311248.6504712251,-86724.125,-77935.8,-31423.707,-1611.8978,-26183.514,11143.759,12721.802,70732.38
1311248.6544712442,-86681.4,-77920.58,-31419.963,-1613.322,-26187.012,11144.938,12729.655,70765.016
1311248.6584712632,-86680.46,-77920.82,-31425.334,-1614.1765,-26190.186,11142.131,12720.256,70750.57
1311248.6624712823,-86713.586,-77927.86,-31430.096,-1613.7289,-26186.85,11137.939,12706.909,70711.71
1311248.6664713013,-86738.81,-77931.195,-31429.16,-1612.3455,-26186.443,11138.835,12704.55,70693.89
1311248.6704713204,-86716.8,-77920.945,-31423.992,-1611.084,-26189.047,11146.24,12718.832,70734.21
1311248.6744713394,-86675.17,-77912.03,-31419.963,-1611.9792,-26188.844,11152.141,12733.725,70773.84
1311248.6784713585,-86680.625,-77924.56,-31421.387,-1612.264,-26183.514,11152.426,12730.0625,70758.1
1311248.6824713775,-86717.37,-77933.35,-31422.69,-1609.1716,-26181.396,11148.764,12719.727,70724.53
1311248.6864713966,-86740.484,-77938.93,-31423.951,-1607.3406,-26184.287,11144.735,12716.879,70705.12
1311248.6904714156,-86722.17,-77937.3,-31421.672,-1608.6426,-26191.244,11147.299,12726.278,70737.14
1311248.6944714347,-86673.51,-77922.0,-31414.674,-1609.782,-26195.598,11151.571,12732.666,70774.5
1311248.6984714537,-86666.42,-77925.3,-31416.18,-1611.2468,-26193.93,11154.826,12728.149,70757.61
1311248.7024714728,-86700.24,-77940.92,-31420.41,-1609.375,-26186.605,11151.083,12717.937,70718.55
1311248.7064714918,-86728.31,-77940.31,-31422.404,-1606.6895,-26182.455,11148.682,12717.57,70706.55
1311248.710471511,-86711.8,-77926.48,-31417.686,-1605.6722,-26178.428,11155.437,12732.951,70739.586
1311248.71447153,-86669.88,-77912.4,-31411.621,-1605.9978,-26184.57,11159.099,12742.514,70778.32
1311248.718471549,-86662.766,-77916.875,-31412.11,-1605.6722,-26185.873,11157.064,12735.026,70773.73
1311248.722471568,-86702.97,-77930.79,-31419.639,-1603.8412,-26178.305,11152.873,12720.988,70727.055
1311248.726471587,-86737.47,-77933.23,-31423.3,-1602.3357,-26177.37,11153.605,12717.651,70698.2
1311248.7304716061,-86725.63,-77927.9,-31422.607,-1602.3763,-26180.258,11158.0,12725.668,70737.76
1311248.7344716252,-86685.59,-77924.03,-31418.783,-1604.126,-26180.99,11160.645,12730.632,70773.89
1311248.7384716442,-86680.46,-77921.92,-31418.54,-1603.1494,-26174.48,11159.018,12725.871,70758.55
1311248.7424716633,-86712.12,-77926.88,-31422.69,-1601.4404,-26171.754,11156.576,12721.965,70728.68
1311248.7464716826,-86739.99,-77934.86,-31422.568,-1598.8363,-26170.004,11154.013,12719.768,70707.84
1311248.7504717016,-86712.04,-77919.4,-31415.568,-1600.0164,-26177.734,11158.691,12734.538,70742.23
1311248.7544717207,-86669.48,-77908.0,-31410.482,-1603.5156,-26184.205,11164.592,12746.826,70780.36
1311248.7584717397,-86677.58,-77913.45,-31411.338,-1603.3936,-26179.078,11161.825,12737.387,70764.53
1311248.7624717588,-86725.14,-77927.414,-31420.248,-1598.1039,-26172.771,11156.82,12721.3955,70723.96
1311248.7664717778,-86766.195,-77938.36,-31426.025,-1595.4998,-26165.527,11153.28,12711.63,70696.086
1311248.7704717969,-86747.89,-77924.36,-31418.824,-1597.2494,-26176.025,11155.151,12722.209,70731.2
1311248.774471816,-86698.445,-77913.336,-31412.518,-1600.3826,-26180.787,11159.018,12734.009,70771.445
1311248.778471835,-86682.17,-77910.69,-31410.768,-1599.406,-26183.39,11161.54,12735.2705,70767.17
1311248.782471854,-86715.62,-77922.125,-31414.186,-1595.2963,-26178.346,11161.947,12731.079,70735.516
1311248.786471873,-86748.3,-77936.445,-31422.16,-1596.0287,-26174.684,11161.459,12727.702,70716.31
1311248.790471892,-86729.01,-77935.14,-31425.172,-1600.3826,-26182.414,11164.795,12737.061,70747.32
1311248.7944719112,-86680.18,-77925.055,-31418.377,-1601.9695,-26184.408,11164.47,12739.909,70775.02
1311248.7984719302,-86669.555,-77925.414,-31417.074,-1599.5281,-26180.014,11160.93,12731.405,70766.32
1311248.8024719493,-86710.86,-77934.05,-31419.516,-1595.0928,-26176.514,11156.454,12721.884,70731.98
1311248.8064719683,-86752.0,-77945.97,-31427.125,-1595.7439,-26175.213,11155.844,12717.123,70707.766
1311248.8104719874,-86732.34,-77940.39,-31428.793,-1597.8191,-26177.287,11160.36,12726.5625,70734.625
1311248.8144720064,-86687.586,-77924.89,-31426.19,-1601.3591,-26188.03,11164.47,12732.26,70771.0
1311248.8184720255,-86680.18,-77924.56,-31423.422,-1600.057,-26190.594,11164.47,12724.609,70757.77
1311248.8224720445,-86704.555,-77926.68,-31424.316,-1596.8832,-26182.822,11156.942,12706.299,70717.33
1311248.8264720635,-86734.664,-77936.85,-31425.537,-1595.1335,-26179.037,11152.06,12697.307,70690.516
1311248.8304720826,-86724.695,-77937.55,-31422.283,-1595.8252,-26180.99,11155.966,12704.387,70719.766
1311248.8344721016,-86676.555,-77917.97,-31414.633,-1593.6687,-26185.752,11162.924,12720.012,70760.54
1311248.8384721207,-86666.51,-77915.29,-31417.604,-1594.157,-26179.16,11162.436,12719.768,70751.836
1311248.8424721397,-86698.57,-77921.555,-31423.87,-1594.279,-26179.322,11161.133,12719.849,70717.05
1311248.8464721588,-86739.1,-77931.89,-31425.457,-1590.21,-26169.922,11160.727,12720.703,70703.82
1311248.8504721778,-86726.85,-77929.61,-31420.248,-1590.6982,-26174.113,11163.452,12732.829,70738.24
1311248.854472197,-86684.53,-77916.79,-31415.771,-1591.9597,-26180.055,11164.795,12739.421,70775.516
1311248.858472216,-86679.12,-77923.625,-31415.732,-1594.4011,-26183.555,11160.727,12726.889,70755.13
1311248.862472235,-86702.11,-77923.14,-31414.55,-1591.919,-26182.496,11157.187,12715.698,70724.734
1311248.866472254,-86715.91,-77926.11,-31415.977,-1586.9955,-26174.887,11157.593,12713.379,70709.555
1311248.870472273,-86690.31,-77919.92,-31415.61,-1587.6058,-26174.154,11163.981,12723.308,70743.164
1311248.8744722921,-86656.13,-77911.54,-31413.574,-1590.5355,-26179.281,11166.87,12730.225,70771.81
1311248.8784723112,-86663.21,-77914.8,-31412.598,-1588.7045,-26172.12,11166.545,12729.533,70765.18
1311248.8824723302,-86706.51,-77925.09,-31413.78,-1586.7107,-26170.451,11163.29,12721.313,70725.75
1311248.8864723493,-86737.43,-77940.555,-31420.736,-1587.6058,-26167.318,11159.912,12710.612,70701.74
1311248.8904723683,-86709.555,-77930.26,-31415.732,-1587.3617,-26179.078,11162.109,12714.844,70730.92
1311248.8944723874,-86654.625,-77910.445,-31409.832,-1588.0127,-26184.123,11164.511,12718.832,70764.734
1311248.8984724064,-86644.33,-77911.945,-31416.016,-1589.681,-26177.002,11163.086,12710.734,70750.86
1311248.9024724255,-86675.414,-77917.08,-31421.795,-1586.3037,-26167.766,11158.61,12698.324,70718.43
1311248.9064724445,-86707.6,-77920.05,-31419.842,-1583.4554,-26171.428,11158.163,12698.202,70705.445
1311248.9104724636,-86697.8,-77917.16,-31417.115,-1584.9609,-26175.578,11161.743,12710.531,70739.09
1311248.9144724826,-86674.36,-77917.24,-31415.895,-1588.3789,-26179.525,11165.771,12720.053,70768.44
1311248.9184725017,-86659.836,-77912.64,-31410.32,-1586.2224,-26184.002,11164.022,12716.391,70757.164
1311248.9224725207,-86678.47,-77912.97,-31412.11,-1582.3975,-26179.443,11158.407,12705.7295,70718.55
1311248.9264725398,-86701.46,-77911.46,-31412.924,-1580.8105,-26178.428,11156.088,12700.562,70699.305
1311248.9304725588,-86663.945,-77889.164,-31406.332,-1579.3457,-26176.393,11161.011,12712.932,70734.74
1311248.9344725779,-86611.01,-77870.98,-31401.043,-1580.2002,-26172.648,11163.452,12722.9,70779.79
1311248.938472597,-86589.84,-77849.77,-31395.957,-1576.3754,-26165.812,11159.18,12718.588,70768.07
1311248.942472616,-86597.7,-77829.59,-31389.404,-1568.2373,-26163.209,11153.931,12704.672,70717.57
1311248.946472635,-86614.99,-77817.22,-31387.656,-1563.68,-26155.07,11151.53,12694.58,70678.02
1311248.950472654,-86574.75,-77781.91,-31376.385,-1560.7097,-26160.645,11152.06,12697.144,70711.02
1311248.9544726731,-86514.125,-77741.7,-31364.99,-1557.4138,-26155.967,11152.629,12699.911,70748.66
1311248.9584726922,-86462.28,-77695.6,-31351.28,-1548.8281,-26155.682,11149.821,12695.395,70740.52
1311248.9624727112,-86481.2,-77684.0,-31349.53,-1542.7246,-26149.781,11147.299,12686.198,70710.37
1311248.9664727303,-86501.67,-77673.664,-31349.65,-1538.8998,-26146.201,11145.671,12681.356,70688.84
1311248.9704727493,-86452.4,-77639.65,-31339.805,-1535.4004,-26140.3,11145.996,12684.489,70711.59
1311248.9744727684,-86396.445,-77609.13,-31332.887,-1535.4004,-26134.727,11146.892,12686.117,70735.64
1311248.9784727874,-86365.93,-77577.555,-31324.992,-1530.5583,-26135.498,11146.892,12689.779,70735.6
1311248.9824728065,-86390.14,-77576.664,-31327.557,-1526.0417,-26127.605,11144.043,12684.937,70704.914
1311248.9864728255,-86412.93,-77578.984,-31327.598,-1524.6176,-26126.1,11142.985,12679.647,70680.914
1311248.9904728446,-86391.805,-77569.13,-31324.463,-1526.0417,-26131.145,11147.055,12692.587,70715.62
1311248.9944728636,-86355.72,-77554.52,-31321.574,-1529.7445,-26134.686,11152.629,12701.172,70746.3
1311248.9984728827,-86359.42,-77555.71,-31323.61,-1530.8431,-26135.254,11152.385,12697.51,70731.2
1311249.0024729017,-86402.71,-77574.22,-31328.818,-1528.117,-26128.582,11146.2,12682.943,70692.99
