timestamp,Fp1,Fp2,F3,Fz,F4,Cz,Pz,Oz
1311889.329522517,-95411.7,-87447.39,-40142.58,-4022.99,-43922.566,8194.58,-1532.308,64734.99
1311889.333522536,-95394.25,-87443.65,-40137.086,-4026.0012,-43934.043,8197.021,-1533.5287,64750.207
1311889.3375225551,-95400.02,-87448.57,-40135.17,-4024.821,-43915.895,8194.824,-1543.1316,64682.414
1311889.3415225742,-95411.664,-87445.36,-40129.395,-4021.159,-43915.977,8191.6914,-1540.324,64625.082
1311889.3455225932,-95407.39,-87434.53,-40128.785,-4015.5032,-43909.465,8192.139,-1536.5398,64650.96
1311889.3495226123,-95402.59,-87440.19,-40139.934,-4019.6128,-43912.723,8200.195,-1529.7852,64729.94
1311889.3535226313,-95397.664,-87447.59,-40145.426,-4025.1467,-43912.11,8203.044,-1541.2191,64736.777
1311889.3575226504,-95398.32,-87441.57,-40137.74,-4022.868,-43912.723,8197.551,-1555.6234,64663.13
1311889.3615226694,-95416.47,-87453.086,-40136.355,-4021.281,-43902.184,8192.302,-1560.6283,64593.14
1311889.3655226885,-95419.766,-87459.59,-40135.01,-4021.2405,-43911.99,8194.743,-1555.3793,64621.258
1311889.3695227075,-95413.695,-87463.914,-40141.97,-4022.1355,-43920.613,8201.294,-1542.9688,64721.03
1311889.3735227266,-95403.98,-87463.42,-40149.945,-4028.2798,-43922.812,8203.9795,-1547.282,64737.67
1311889.3775227456,-95409.914,-87458.78,-40150.88,-4028.3206,-43913.21,8197.673,-1563.8835,64654.91
1311889.3815227647,-95420.17,-87451.54,-40143.92,-4023.3157,-43901.816,8191.61,-1566.5283,64581.547
1311889.3855227837,-95420.66,-87449.38,-40141.24,-4019.7756,-43912.76,8191.976,-1551.473,64627.28
1311889.3895228028,-95405.93,-87443.32,-40146.28,-4019.6128,-43911.215,8196.777,-1540.6494,64719.89
1311889.3935228218,-95391.445,-87441.66,-40145.145,-4023.519,-43911.785,8198.975,-1543.6199,64735.395
1311889.3975228409,-95400.88,-87447.555,-40139.363,-4023.4377,-43906.293,8191.895,-1559.2855,64670.535
1311889.40152286,-95418.664,-87456.26,-40137.695,-4020.508,-43904.91,8185.954,-1559.5297,64608.074
1311889.405522879,-95417.69,-87459.92,-40137.94,-4019.694,-43913.29,8189.4536,-1550.3337,64640.75
1311889.409522898,-95407.555,-87468.34,-40148.074,-4022.095,-43923.625,8198.527,-1540.0798,64725.71
1311889.413522917,-95414.96,-87489.914,-40160.484,-4029.3376,-43930.543,8203.776,-1542.6025,64741.54
1311889.4175229361,-95442.14,-87503.5,-40160.074,-4031.942,-43926.758,8199.423,-1553.0193,64670.332
1311889.4215229552,-95428.875,-87464.97,-40146.85,-4024.0073,-43918.62,8191.854,-1557.9834,64614.18
1311889.4255229742,-95400.8,-87426.31,-40135.867,-4016.4797,-43910.402,8192.709,-1556.8848,64644.29
1311889.4295229933,-95394.86,-87429.65,-40139.12,-4018.799,-43910.44,8203.125,-1543.6605,64735.07
1311889.4335230123,-95406.86,-87440.59,-40148.113,-4023.0715,-43913.21,8208.415,-1536.2142,64759.848
1311889.4375230314,-95413.49,-87440.88,-40151.734,-4025.513,-43905.113,8202.067,-1547.6482,64689.7
1311889.4415230504,-95421.305,-87437.26,-40153.16,-4023.4783,-43895.633,8193.197,-1553.3855,64635.46
1311889.4455230695,-95423.26,-87434.25,-40159.14,-4019.5315,-43895.957,8193.115,-1545.8578,64663.168
1311889.4495230885,-95412.88,-87428.96,-40163.74,-4020.2231,-43901.33,8201.05,-1533.0404,64744.875
1311889.4535231076,-95416.47,-87441.29,-40172.934,-4028.6052,-43904.137,8201.091,-1540.8936,64757.33
1311889.4575231266,-95429.164,-87453.375,-40174.848,-4030.3142,-43893.516,8187.989,-1566.4062,64676.11
1311889.4615231457,-95441.37,-87459.68,-40169.84,-4026.937,-43888.43,8179.6064,-1576.1312,64611.207
1311889.4655231647,-95438.6,-87451.625,-40163.453,-4026.6929,-43909.953,8183.0244,-1562.907,64654.094
1311889.4695231838,-95433.92,-87455.98,-40172.324,-4029.7854,-43907.473,8191.976,-1555.0537,64735.027
1311889.4735232028,-95428.71,-87455.81,-40179.527,-4037.8013,-43909.63,8197.592,-1558.7158,64749.92
1311889.4775232219,-95430.79,-87453.9,-40176.676,-4039.7544,-43908.043,8194.702,-1563.6394,64682.496
1311889.481523241,-95444.22,-87450.195,-40174.97,-4036.0923,-43894.53,8190.715,-1565.5518,64631.31
1311889.48552326,-95456.83,-87451.42,-40177.004,-4035.2786,-43895.836,8193.075,-1560.018,64664.594
1311889.489523279,-95446.01,-87453.49,-40179.484,-4035.319,-43908.816,8203.166,-1543.7012,64751.547
1311889.493523298,-95436.0,-87458.3,-40181.723,-4038.0454,-43909.953,8204.834,-1548.4213,64755.453
1311889.497523317,-95448.695,-87461.39,-40181.48,-4038.5745,-43897.34,8192.261,-1566.9353,64677.043
1311889.5015233362,-95455.98,-87463.3,-40174.113,-4036.6619,-43902.875,8182.3325,-1570.2312,64625.082
1311889.5055233552,-95455.9,-87463.016,-40174.805,-4036.4993,-43907.43,8186.1577,-1564.2904,64653.16
1311889.5095233743,-95441.77,-87457.69,-40180.094,-4038.8591,-43928.875,8199.545,-1551.1882,64741.742
1311889.5135233933,-95433.72,-87457.32,-40182.332,-4041.6667,-43920.047,8201.294,-1556.9662,64740.113
1311889.5175234124,-95447.516,-87468.02,-40181.316,-4043.0095,-43911.01,8193.4,-1571.9402,64652.875
1311889.5215234314,-95455.0,-87461.47,-40177.207,-4039.0627,-43909.26,8184.53,-1571.3705,64616.58
1311889.5255234505,-95448.2,-87452.516,-40174.4,-4034.017,-43904.91,8189.25,-1553.3855,64662.07
1311889.5295234695,-95435.63,-87445.07,-40174.195,-4038.1267,-43916.75,8200.317,-1534.5867,64757.043
1311889.5335234886,-95424.36,-87442.914,-40175.418,-4041.6262,-43915.977,8204.265,-1531.2094,64774.78
1311889.5375235076,-95419.84,-87437.22,-40169.637,-4039.307,-43907.51,8196.167,-1541.7074,64712.61
1311889.5415235267,-95429.53,-87436.0,-40167.93,-4036.4993,-43900.312,8190.186,-1549.6013,64651.207
1311889.5455235457,-95441.2,-87443.85,-40176.473,-4039.2253,-43902.914,8192.709,-1549.3978,64667.074
1311889.5495235648,-95424.97,-87443.85,-40179.484,-4038.7778,-43917.24,8199.016,-1544.9626,64746.746
1311889.5535235838,-95417.6,-87439.78,-40178.754,-4044.7593,-43923.22,8200.236,-1553.0193,64741.984
1311889.5575236029,-95427.9,-87436.41,-40169.35,-4040.202,-43911.38,8192.709,-1559.1228,64677.9
1311889.561523622,-95440.11,-87435.95,-40167.277,-4036.9468,-43907.227,8189.006,-1558.8379,64630.09
1311889.565523641,-95449.14,-87445.516,-40172.242,-4041.6667,-43915.855,8188.192,-1552.6937,64677.086
1311889.56952366,-95448.41,-87446.45,-40179.445,-4047.6077,-43920.535,8195.801,-1541.3412,64753.137
1311889.573523679,-95449.1,-87456.016,-40188.273,-4052.3276,-43920.695,8198.894,-1551.351,64736.74
1311889.577523698,-95460.086,-87462.69,-40189.25,-4052.0022,-43914.55,8185.9946,-1566.2435,64675.254
1311889.5815237171,-95469.12,-87452.195,-40182.78,-4047.0786,-43908.734,8178.06,-1574.707,64623.945
1311889.5855237362,-95467.45,-87447.266,-40179.324,-4046.102,-43915.242,8180.013,-1571.4111,64651.652
1311889.5895237552,-95453.21,-87445.64,-40180.91,-4048.0144,-43924.6,8189.372,-1558.4717,64738.406
1311889.5935237743,-95451.83,-87452.48,-40187.99,-4054.0774,-43924.93,8191.4473,-1562.5814,64753.42
1311889.5975237933,-95465.13,-87462.24,-40189.86,-4053.9958,-43913.86,8182.7397,-1577.7181,64673.504
1311889.6015238124,-95477.26,-87460.82,-40182.414,-4049.4387,-43908.164,8174.154,-1584.6761,64589.6
1311889.6055238314,-95481.94,-87456.22,-40183.594,-4046.9973,-43918.5,8174.439,-1575.6023,64620.812
1311889.6095238505,-95481.49,-87463.664,-40196.29,-4054.0366,-43924.113,8182.2515,-1568.5222,64706.137
1311889.6135238695,-95462.77,-87446.9,-40193.688,-4053.5076,-43925.133,8188.9653,-1566.9353,64729.535
1311889.6175238886,-95457.93,-87436.28,-40185.14,-4048.0144,-43913.74,8182.9023,-1573.5677,64655.684
1311889.6215239076,-95457.97,-87434.33,-40178.793,-4044.1897,-43906.21,8176.595,-1565.4297,64613.445
1311889.6255239267,-95452.11,-87429.85,-40176.434,-4044.393,-43913.496,8180.583,-1551.9613,64661.543
1311889.6295239457,-95447.11,-87434.57,-40183.758,-4049.642,-43919.312,8186.727,-1544.5557,64747.562
1311889.6335239648,-95441.77,-87431.16,-40184.53,-4053.467,-43922.895,8187.2153,-1554.7283,64753.055
1311889.6375239838,-95460.62,-87435.63,-40184.082,-4052.816,-43906.17,8179.0366,-1576.3754,64671.797
1311889.641524003,-95470.016,-87433.39,-40178.348,-4047.6077,-43902.184,8175.212,-1577.3113,64623.05
1311889.645524022,-95464.16,-87430.42,-40176.434,-4048.3806,-43910.484,8181.6816,-1562.7849,64654.707
1311889.649524041,-95453.05,-87442.266,-40182.984,-4055.949,-43923.22,8189.128,-1552.4089,64717.53
1311889.65352406,-95432.984,-87434.98,-40182.008,-4058.309,-43923.91,8189.8604,-1554.24,64741.375
1311889.657524079,-95429.69,-87423.99,-40178.02,-4058.6753,-43912.395,8182.7397,-1561.9304,64682.58
1311889.6615240981,-95445.27,-87427.94,-40174.848,-4055.9084,-43900.434,8175.985,-1572.7539,64622.844
1311889.6655241172,-95463.14,-87447.67,-40180.3,-4056.1526,-43898.766,8177.572,-1565.5925,64639.242
1311889.6695241362,-95474.49,-87471.68,-40193.035,-4062.6223,-43928.914,8189.25,-1544.9219,64723.27
1311889.6735241553,-95443.41,-87433.44,-40186.035,-4062.3374,-43920.37,8189.3315,-1549.3978,64738.445
1311889.6775241743,-95421.76,-87401.62,-40171.793,-4053.3042,-43901.45,8181.1934,-1562.3779,64671.31
1311889.6815241934,-95438.84,-87412.16,-40173.465,-4050.7815,-43887.617,8175.212,-1565.8367,64625.816
1311889.6855242124,-95466.19,-87433.96,-40184.613,-4054.118,-43891.887,8178.9556,-1557.658,64665.164
1311889.6895242315,-95448.24,-87422.08,-40189.617,-4056.4373,-43904.34,8185.9136,-1550.4558,64744.633
1311889.6935242505,-95438.73,-87418.055,-40190.39,-4059.2043,-43909.75,8186.4424,-1555.4607,64755.008
1311889.6975242696,-95459.35,-87428.836,-40190.105,-4061.9712,-43901.367,8179.769,-1563.3953,64671.266
1311889.7015242886,-95473.19,-87424.4,-40181.97,-4057.78,-43890.137,8173.3403,-1565.9994,64618.98
1311889.7055243077,-95482.55,-87425.17,-40180.95,-4053.9146,-43895.02,8175.7817,-1553.5889,64659.875
1311889.7095243267,-95466.15,-87422.28,-40184.855,-4053.1821,-43901.125,8183.8384,-1543.335,64745.242
1311889.7135243458,-95454.8,-87424.08,-40190.105,-4060.9539,-43903.08,8184.4893,-1553.3041,64744.793
1311889.7175243648,-95470.87,-87431.93,-40190.31,-4061.2388,-43895.957,8177.979,-1570.5974,64668.05
1311889.7215243839,-95491.7,-87434.125,-40186.65,-4056.1526,-43887.98,8170.3696,-1576.416,64604.047
1311889.725524403,-95494.55,-87435.39,-40188.234,-4055.3386,-43888.387,8169.4746,-1567.1387,64631.51
1311889.729524422,-95485.48,-87441.61,-40195.477,-4059.2856,-43893.395,8179.281,-1550.9847,64733.24
1311889.733524441,-95472.29,-87434.2,-40197.023,-4064.3313,-43904.625,8182.3325,-1548.7468,64752.566
1311889.7375244603,-95474.29,-87429.28,-40191.53,-4063.2732,-43899.414,8177.4907,-1559.6111,64676.273
1311889.7415244794,-95482.22,-87424.805,-40185.75,-4058.8787,-43894.492,8169.19,-1568.0339,64613.527
1311889.7455244984,-95494.14,-87433.48,-40192.14,-4060.3843,-43894.816,8169.8813,-1563.3545,64636.965
1311889.7495245175,-95488.98,-87438.4,-40199.75,-4065.552,-43902.426,8180.2573,-1547.1599,64721.316
1311889.7535245365,-95479.125,-87439.7,-40198.855,-4067.0981,-43900.473,8185.7505,-1544.4336,64729.86
1311889.7575245555,-95489.14,-87441.94,-40192.426,-4065.6333,-43895.957,8179.24,-1556.4779,64664.96
1311889.7615245746,-95502.61,-87446.21,-40187.95,-4065.7961,-43891.562,8171.021,-1561.6455,64621.867
1311889.7655245936,-95502.41,-87441.695,-40186.727,-4065.023,-43898.438,8173.5435,-1550.822,64660.16
1311889.7695246127,-95489.26,-87440.27,-40192.223,-4065.9587,-43901.41,8183.0244,-1538.8998,64744.145
1311889.7735246317,-95482.55,-87436.81,-40195.76,-4071.0044,-43912.723,8184.245,-1547.8516,64740.03
1311889.7775246508,-95490.36,-87434.45,-40192.3,-4067.6272,-43901.53,8175.7,-1560.3842,64659.75
1311889.7815246698,-95508.266,-87438.805,-40192.508,-4065.3484,-43884.605,8168.8643,-1563.1104,64606.04
1311889.785524689,-95514.41,-87434.45,-40192.87,-4065.552,-43884.156,8169.5967,-1556.9662,64634.645
1311889.789524708,-95495.37,-87429.164,-40195.965,-4066.732,-43906.293,8178.874,-1545.0847,64723.35
1311889.793524727,-95473.02,-87425.17,-40197.43,-4070.2312,-43911.418,8184.0415,-1547.4854,64746.176
1311889.797524746,-95480.836,-87430.14,-40192.223,-4067.261,-43897.22,8179.9727,-1555.9082,64666.3
1311889.801524765,-95491.13,-87426.35,-40186.973,-4063.8835,-43897.34,8176.1885,-1552.8972,64611.74
1311889.8055247841,-95492.92,-87426.19,-40190.39,-4064.6975,-43896.65,8178.4263,-1542.155,64653.484
1311889.8095248032,-95480.31,-87425.055,-40195.965,-4067.3015,-43906.21,8188.3955,-1526.7334,64747.887
1311889.8135248222,-95467.37,-87419.516,-40196.656,-4070.1091,-43904.83,8189.5757,-1531.4535,64764.12
1311889.8175248413,-95481.445,-87427.62,-40192.914,-4070.8823,-43893.598,8184.8555,-1541.2191,64691.45
1311889.8215248603,-95502.0,-87437.26,-40189.86,-4070.923,-43887.29,8178.7925,-1546.5088,64629.68
1311889.8255248794,-95495.445,-87424.16,-40185.793,-4066.0403,-43889.203,8177.816,-1545.3289,64657.51
1311889.8295248984,-95480.43,-87421.555,-40188.76,-4067.6677,-43908.773,8184.123,-1529.9072,64745.73
1311889.8335249175,-95477.46,-87425.58,-40193.156,-4072.8762,-43905.234,8188.68,-1537.7605,64753.46
1311889.8375249365,-95488.98,-87426.234,-40190.43,-4073.4458,-43894.004,8183.35,-1553.182,64683.15
1311889.8415249556,-95501.51,-87426.44,-40183.39,-4068.8884,-43887.656,8175.3745,-1553.9144,64643.273
1311889.8455249746,-95504.16,-87427.45,-40182.78,-4067.261,-43888.43,8175.1304,-1545.044,64670.37
1311889.8495249937,-95493.37,-87429.65,-40185.426,-4066.447,-43903.65,8181.763,-1534.9529,64751.305
1311889.8535250127,-95487.71,-87430.79,-40189.13,-4071.0452,-43909.14,8180.054,-1541.8701,64757.53
1311889.8575250318,-95484.375,-87423.51,-40186.24,-4068.3596,-43891.48,8172.852,-1553.7109,64687.543
1311889.8615250508,-95498.414,-87430.016,-40183.797,-4064.2905,-43875.082,8167.847,-1563.8021,64623.54
1311889.8655250699,-95491.984,-87422.37,-40180.42,-4062.8257,-43892.09,8171.265,-1555.0945,64657.637
1311889.869525089,-95486.695,-87421.96,-40185.14,-4065.6333,-43902.223,8180.7866,-1539.1033,64744.836
1311889.873525108,-95480.1,-87418.83,-40189.25,-4066.5286,-43891.766,8181.6816,-1538.9404,64762.21
1311889.877525127,-95474.29,-87403.2,-40182.58,-4063.5989,-43889.203,8175.334,-1548.991,64699.63
1311889.881525146,-95480.836,-87399.58,-40174.316,-4059.9773,-43878.83,8170.655,-1543.5385,64640.707
1311889.8855251651,-95479.78,-87403.164,-40176.676,-4058.8787,-43882.652,8172.852,-1534.5052,64685.832
1311889.8895251842,-95471.64,-87403.445,-40183.39,-4063.3953,-43897.707,8180.3794,-1526.3672,64766.277
1311889.8935252032,-95465.17,-87403.0,-40184.41,-4066.976,-43890.06,8182.6177,-1536.2957,64769.207
1311889.8975252223,-95478.36,-87410.56,-40183.066,-4068.1968,-43883.63,8176.026,-1551.1068,64689.66
1311889.9015252413,-95492.31,-87403.81,-40178.508,-4066.0808,-43886.312,8171.346,-1558.96,64623.13
1311889.9055252604,-95496.7,-87399.945,-40182.496,-4064.494,-43874.227,8175.0083,-1551.9207,64651.246
1311889.9095252794,-95484.46,-87397.95,-40192.344,-4067.4236,-43888.023,8184.367,-1535.9701,64740.52
1311889.9135252985,-95469.85,-87402.39,-40195.23,-4072.103,-43891.156,8184.367,-1542.2363,64771.0
1311889.9175253175,-95468.1,-87398.16,-40190.066,-4069.9465,-43890.26,8174.7236,-1554.8503,64706.34
1311889.9215253366,-95477.5,-87393.92,-40186.2,-4066.1216,-43882.203,8167.969,-1554.0365,64636.395
1311889.9255253556,-95498.13,-87405.52,-40192.06,-4071.2893,-43888.227,8170.6953,-1547.4854,64664.227
1311889.9295253747,-95506.06,-87426.64,-40200.97,-4075.8464,-43909.71,8183.106,-1531.657,64752.688
1311889.9335253937,-95470.09,-87399.91,-40189.78,-4074.219,-43904.91,8184.6113,-1540.3646,64761.477
1311889.9375254128,-95457.44,-87376.06,-40178.875,-4072.2659,-43891.44,8175.09,-1558.6752,64682.293
1311889.9415254318,-95481.2,-87395.43,-40179.527,-4073.0388,-43895.55,8169.271,-1563.558,64626.387
1311889.9455254509,-95485.6,-87403.77,-40180.83,-4070.679,-43893.598,8171.9565,-1555.542,64658.855
1311889.94952547,-95473.39,-87410.98,-40182.13,-4072.8354,-43904.094,8181.4375,-1540.6902,64748.17
1311889.953525489,-95470.625,-87421.59,-40182.58,-4077.352,-43916.016,8182.5767,-1542.033,64751.02
1311889.957525508,-95484.74,-87433.88,-40180.504,-4075.8872,-43909.953,8174.3574,-1549.8861,64663.984
1311889.961525527,-95487.305,-87431.27,-40170.453,-4068.7664,-43896.04,8168.498,-1546.6716,64637.004
1311889.965525546,-95496.34,-87441.9,-40173.42,-4072.632,-43897.746,8174.561,-1537.557,64698.977
1311889.9695255652,-95493.734,-87446.62,-40183.39,-4080.0784,-43919.19,8185.7505,-1522.6238,64776.734
1311889.9735255842,-95472.78,-87435.63,-40180.3,-4080.8513,-43927.246,8189.006,-1529.7852,64774.293
1311889.9775256033,-95479.336,-87432.01,-40174.156,-4077.515,-43912.355,8178.3857,-1547.6888,64691.9
1311889.9815256223,-95494.51,-87433.84,-40170.98,-4073.405,-43903.242,8172.1196,-1551.3103,64632.0
1311889.9855256414,-95504.4,-87435.8,-40170.74,-4070.516,-43895.55,8175.6187,-1542.3177,64667.402
1311889.9895256604,-95490.56,-87438.93,-40173.137,-4073.7712,-43919.56,8183.065,-1526.6927,64756.188
1311889.9935256795,-95469.2,-87433.59,-40175.62,-4075.1956,-43922.08,8180.6235,-1534.1797,64761.723
1311889.9975256985,-95481.41,-87435.23,-40173.83,-4073.4458,-43912.355,8171.4683,-1548.991,64673.992
1311890.0015257176,-95502.24,-87443.2,-40174.93,-4073.527,-43904.582,8165.202,-1554.4841,64571.008
1311890.0055257366,-95503.3,-87448.85,-40175.54,-4073.161,-43909.508,8169.1084,-1543.864,64607.465
1311890.0095257557,-95490.89,-87443.97,-40178.793,-4076.701,-43920.9,8177.7754,-1530.0701,64726.89
1311890.0135257747,-95475.586,-87433.35,-40178.062,-4078.4507,-43915.812,8179.3623,-1534.79,64746.664
1311890.0175257938,-95487.96,-87439.62,-40178.062,-4078.939,-43907.715,8170.777,-1549.113,64665.734
1311890.0215258128,-95510.625,-87446.9,-40175.496,-4075.8872,-43899.824,8163.778,-1553.4261,64597.535
1311890.0255258319,-95517.336,-87446.17,-40175.254,-4073.0796,-43909.668,8166.423,-1538.9404,64634.645
1311890.029525851,-95501.75,-87441.98,-40179.2,-4074.4631,-43914.754,8173.1367,-1523.5189,64732.832
1311890.03352587,-95490.08,-87444.945,-40184.164,-4081.828,-43918.094,8174.398,-1530.8025,64745.85
1311890.037525889,-95495.57,-87444.7,-40178.957,-4082.9265,-43921.266,8170.2476,-1544.1488,64668.664
1311890.041525908,-95505.945,-87439.375,-40176.066,-4077.4333,-43910.645,8163.778,-1550.5371,64616.984
1311890.045525927,-95504.64,-87441.164,-40176.35,-4075.5618,-43918.254,8166.219,-1539.5508,64637.004
1311890.0495259461,-95493.734,-87437.55,-40178.67,-4076.3347,-43923.465,8170.6953,-1535.4412,64708.418
1311890.0535259652,-95489.75,-87444.74,-40182.535,-4082.764,-43925.008,8171.9565,-1545.8171,64709.516
1311890.0575259842,-95494.43,-87438.4,-40174.723,-4079.5493,-43925.008,8166.545,-1555.4199,64634.93
1311890.0615260033,-95507.66,-87434.45,-40169.516,-4075.8872,-43910.24,8162.679,-1558.8787,64576.38
1311890.0655260223,-95502.85,-87434.05,-40169.8,-4076.8638,-43910.973,8164.388,-1551.8799,64608.645
1311890.0695260414,-95493.05,-87439.66,-40177.29,-4080.119,-43920.25,8173.6655,-1542.5212,64700.688
1311890.0735260604,-95490.6,-87441.57,-40179.117,-4084.1472,-43922.812,8174.4795,-1553.7109,64691.246
1311890.0775260795,-95501.63,-87446.05,-40179.566,-4084.8796,-43922.324,8164.307,-1563.9648,64622.195
1311890.0815260985,-95516.445,-87450.4,-40177.98,-4080.648,-43913.617,8157.2676,-1565.7959,64570.477
1311890.0855261176,-95519.25,-87444.664,-40176.96,-4079.0203,-43909.71,8160.9297,-1551.7172,64604.82
1311890.0895261366,-95508.875,-87445.31,-40182.17,-4083.4963,-43920.656,8166.8296,-1540.5273,64680.83
1311890.0935261557,-95496.18,-87441.94,-40183.473,-4090.4543,-43930.38,8169.312,-1545.8984,64689.414
1311890.0975261747,-95497.89,-87441.29,-40178.1,-4090.4543,-43921.47,8163.615,-1559.1228,64621.95
1311890.1015261938,-95507.37,-87439.54,-40173.79,-4085.5308,-43911.99,8157.43,-1561.6863,64569.83
1311890.1055262128,-95519.25,-87445.195,-40175.418,-4083.781,-43919.56,8160.36,-1555.1758,64607.426
1311890.109526232,-95536.79,-87476.61,-40189.168,-4089.5183,-43929.89,8169.4746,-1546.6716,64691.33
1311890.113526251,-95535.766,-87470.055,-40196.86,-4097.7783,-43932.945,8168.0913,-1554.24,64691.938
1311890.11752627,-95502.24,-87417.445,-40182.945,-4088.3384,-43919.844,8153.931,-1573.7305,64615.24
1311890.121526289,-95493.984,-87405.48,-40178.875,-4081.1362,-43907.555,8142.619,-1578.4099,64557.863
1311890.125526308,-95482.34,-87396.53,-40176.11,-4077.8403,-43912.07,8145.7114,-1567.9525,64592.125
1311890.1295263271,-95459.96,-87386.6,-40175.7,-4078.654,-43914.836,8157.9185,-1558.5125,64686.28
1311890.1335263462,-95450.6,-87380.13,-40178.914,-4080.9329,-43903.28,8162.6387,-1563.7615,64686.81
1311890.1375263652,-95457.234,-87364.87,-40177.125,-4078.41,-43895.43,8156.6978,-1572.1843,64599.125
1311890.1415263843,-95459.03,-87355.63,-40171.875,-4073.934,-43886.883,8147.502,-1576.4974,64554.28
1311890.1455264033,-95460.78,-87352.42,-40172.812,-4072.225,-43896.85,8149.7397,-1568.3594,64586.145
1311890.1495264224,-95447.76,-87355.516,-40182.047,-4075.7651,-43903.89,8159.058,-1558.5938,64673.3
1311890.1535264414,-95418.09,-87338.22,-40178.508,-4076.3347,-43905.965,8158.529,-1565.9994,64682.457
1311890.1575264605,-95411.54,-87336.8,-40176.35,-4073.2424,-43896.324,8150.0654,-1578.5726,64606.652
1311890.1615264795,-95427.086,-87336.875,-40171.957,-4071.0857,-43889.895,8145.671,-1572.4691,64553.305
1311890.1655264986,-95430.14,-87335.66,-40173.055,-4071.6147,-43891.36,8150.676,-1556.1931,64584.8
1311890.1695265176,-95425.91,-87342.37,-40181.64,-4074.9514,-43900.758,8160.97,-1542.3584,64677.53
1311890.1735265367,-95425.91,-87350.914,-40184.734,-4078.8577,-43905.887,8164.022,-1550.7406,64686.77
1311890.1775265557,-95432.58,-87354.62,-40180.3,-4077.108,-43900.84,8154.8667,-1563.029,64606.773
1311890.1815265748,-95446.01,-87359.055,-40178.508,-4074.9106,-43895.957,8147.1357,-1567.627,64542.36
1311890.1855265938,-95455.164,-87366.375,-40182.09,-4074.1782,-43898.887,8150.594,-1554.8096,64573.203
1311890.1895266129,-95449.67,-87377.08,-40187.746,-4079.0203,-43906.74,8163.0864,-1537.9232,64671.67
1311890.193526632,-95449.38,-87392.375,-40191.773,-4083.903,-43909.75,8165.853,-1541.9922,64678.996
1311890.197526651,-95455.69,-87389.81,-40185.508,-4080.2817,-43905.195,8158.9766,-1549.8047,64608.24
1311890.20152667,-95464.234,-87385.13,-40179.605,-4076.4163,-43897.664,8152.1,-1551.2695,64556.848
1311890.205526689,-95464.44,-87378.79,-40181.438,-4073.5679,-43890.34,8154.5415,-1541.2191,64592.777
1311890.2095267081,-95442.75,-87368.86,-40183.88,-4073.6086,-43904.258,8164.185,-1524.6582,64694.543
1311890.2135267272,-95445.4,-87375.695,-40190.594,-4079.6714,-43905.355,8164.714,-1529.5818,64696.496
1311890.2175267462,-95449.99,-87376.95,-40183.15,-4079.9155,-43902.547,8158.814,-1542.033,64620.2
1311890.2215267653,-95465.87,-87381.72,-40177.938,-4079.2644,-43894.125,8153.0767,-1547.5261,64553.836
1311890.2255267843,-95472.86,-87384.89,-40179.73,-4076.4976,-43898.6,8156.4536,-1536.5398,64599.49
1311890.2295268034,-95459.88,-87390.26,-40188.68,-4079.7122,-43910.81,8165.2427,-1519.8568,64707.684
1311890.2335268224,-95441.25,-87384.73,-40187.906,-4083.0894,-43912.8,8165.975,-1527.0183,64721.6
1311890.2375268415,-95444.46,-87377.24,-40181.766,-4079.6714,-43904.46,8157.878,-1541.7074,64644.94
1311890.2415268605,-95461.67,-87380.45,-40175.62,-4076.2942,-43904.22,8149.781,-1545.4509,64586.47
1311890.2455268796,-95472.29,-87385.79,-40175.008,-4075.6023,-43908.203,8151.6523,-1539.0625,64614.055
1311890.2495268986,-95457.12,-87386.97,-40183.637,-4080.241,-43910.973,8160.0347,-1531.0466,64698.652
1311890.2535269177,-95449.67,-87389.65,-40187.543,-4085.4495,-43910.08,8164.022,-1537.9639,64698.977
1311890.2575269367,-95463.87,-87394.29,-40183.594,-4085.3274,-43914.266,8160.4414,-1552.2054,64612.062
1311890.2615269558,-95477.945,-87390.75,-40181.805,-4078.7761,-43898.074,8151.4487,-1557.9834,64561.04
1311890.2655269748,-95469.36,-87380.05,-40182.617,-4075.521,-43889.65,8148.2344,-1553.3041,64595.01
1311890.2695269939,-95451.54,-87372.89,-40183.88,-4080.8513,-43909.18,8156.5757,-1540.1611,64697.348
1311890.273527013,-95442.586,-87379.234,-40187.418,-4086.0598,-43913.82,8159.0986,-1550.3744,64705.85
1311890.277527032,-95459.27,-87384.28,-40184.773,-4085.2053,-43902.957,8150.8384,-1566.2029,64622.926
1311890.281527051,-95472.91,-87385.99,-40181.56,-4083.5369,-43899.13,8143.6772,-1570.4753,64577.273
1311890.28552707,-95472.05,-87382.29,-40182.332,-4084.717,-43904.707,8145.386,-1565.2263,64595.664
1311890.289527089,-95461.14,-87380.86,-40187.95,-4086.4666,-43915.082,8153.1577,-1560.3435,64672.406
1311890.2935271082,-95442.99,-87381.88,-40188.273,-4089.315,-43919.965,8152.5884,-1566.5691,64684.367
1311890.2975271272,-95446.05,-87376.67,-40180.016,-4084.839,-43900.35,8144.6943,-1577.9623,64606.082
1311890.3015271463,-95453.05,-87370.65,-40176.883,-4081.299,-43901.043,8140.3,-1578.654,64550.01
1311890.3055271653,-95451.945,-87367.92,-40181.03,-4081.0955,-43903.605,8143.148,-1572.5505,64586.55
1311890.3095271843,-95446.13,-87376.67,-40190.27,-4087.199,-43916.18,8150.5537,-1564.3718,64672.285
1311890.3135272034,-95446.62,-87390.14,-40196.168,-4095.5405,-43916.26,8153.443,-1573.3643,64658.45
1311890.3175272224,-95460.734,-87395.39,-40195.152,-4094.0757,-43910.77,8148.682,-1577.8809,64585.33
1311890.3215272415,-95472.13,-87392.01,-40192.426,-4088.135,-43899.984,8142.5786,-1575.1547,64540.406
1311890.3255272605,-95474.53,-87397.51,-40191.938,-4084.188,-43896.484,8146.363,-1564.616,64575.402
1311890.3295272796,-95453.05,-87385.22,-40195.56,-4085.0425,-43902.996,8153.9717,-1554.1586,64671.88
1311890.3335272986,-95427.414,-87370.65,-40195.312,-4086.548,-43910.117,8153.524,-1561.4014,64680.016
1311890.3375273177,-95437.55,-87375.37,-40194.703,-4089.03,-43909.06,8144.4907,-1576.3754,64595.83
1311890.3415273367,-95454.35,-87381.555,-40191.977,-4086.7922,-43905.6,8138.713,-1584.0658,64535.28
1311890.3455273558,-95464.4,-87394.58,-40194.05,-4089.3962,-43911.297,8140.2183,-1584.432,64554.406
1311890.3495273748,-95457.52,-87397.305,-40195.07,-4090.9426,-43921.55,8150.228,-1569.1326,64652.875
1311890.353527394,-95443.41,-87386.234,-40194.824,-4094.9302,-43917.277,8152.5474,-1566.6504,64674.93
1311890.357527413,-95445.48,-87378.83,-40191.812,-4090.0474,-43904.055,8144.4907,-1579.7119,64599.33
1311890.361527432,-95456.914,-87378.38,-40188.883,-4085.775,-43901.45,8138.184,-1578.2471,64551.8
1311890.365527451,-95460.49,-87376.875,-40192.426,-4086.5886,-43902.547,8140.9917,-1565.9994,64589.562
1311890.36952747,-95443.08,-87371.75,-40194.176,-4089.844,-43913.25,8148.1123,-1548.0144,64684.33
1311890.3735274891,-95435.06,-87371.22,-40194.54,-4095.0115,-43923.543,8150.147,-1551.8392,64689.66
1311890.3775275082,-95445.31,-87375.66,-40188.926,-4092.448,-43915.61,8147.2983,-1565.4705,64596.805
1311890.3815275272,-95464.73,-87387.9,-40188.19,-4089.559,-43903.973,8142.4155,-1572.225,64544.273
1311890.3855275463,-95467.33,-87384.93,-40189.293,-4087.5652,-43907.96,8143.311,-1564.0056,64566.49
1311890.3895275653,-95447.23,-87375.0,-40195.516,-4086.6294,-43914.88,8150.9604,-1552.8564,64653.16
1311890.3935275844,-95435.836,-87374.39,-40200.44,-4091.9597,-43920.82,8148.8447,-1562.5814,64683.676
1311890.3975276034,-95442.99,-87380.66,-40198.527,-4091.146,-43909.26,8139.649,-1577.3926,64596.56
1311890.4015276225,-95459.92,-87383.42,-40193.89,-4088.0942,-43903.16,8135.051,-1577.8402,64532.15
1311890.4055276415,-95457.56,-87376.1,-40190.88,-4087.1584,-43913.047,8138.9976,-1568.0339,64566.41
1311890.4095276606,-95445.516,-87384.69,-40199.3,-4089.8032,-43916.465,8147.8276,-1560.3842,64658.285
1311890.4135276796,-95442.47,-87394.45,-40208.62,-4097.9414,-43919.598,8146.688,-1568.6035,64660.08
1311890.4175276987,-95442.18,-87383.266,-40196.37,-4094.0757,-43917.89,8140.666,-1581.4209,64587.934
1311890.4215277177,-95450.93,-87376.67,-40185.793,-4085.612,-43903.688,8134.603,-1588.4197,64537.844
1311890.4255277368,-95463.34,-87388.19,-40191.895,-4086.1003,-43906.94,8135.7017,-1581.9092,64565.555
1311890.4295277558,-95458.62,-87388.47,-40201.66,-4090.4949,-43914.676,8140.0557,-1571.4519,64653.363
1311890.4335277749,-95449.06,-87387.125,-40204.348,-4094.564,-43912.438,8142.253,-1569.865,64675.54
1311890.437527794,-95450.766,-87384.85,-40196.492,-4093.6687,-43916.586,8140.544,-1571.2891,64616.742
1311890.441527813,-95469.32,-87384.766,-40192.223,-4090.4949,-43912.68,8134.074,-1577.3926,64560.062
1311890.445527832,-95475.34,-87387.66,-40195.76,-4091.9597,-43915.69,8137.8584,-1572.1436,64588.46
1311890.449527851,-95462.81,-87391.234,-40204.996,-4096.4355,-43928.305,8147.5425,-1559.6924,64670.414
1311890.4535278701,-95448.77,-87380.21,-40200.035,-4094.8894,-43925.742,8150.798,-1563.4766,64672.773
1311890.4575278892,-95456.71,-87387.125,-40196.332,-4094.7673,-43919.598,8144.2876,-1576.6602,64591.96
1311890.4615279082,-95474.98,-87384.69,-40193.688,-4089.437,-43908.285,8134.4404,-1585.083,64520.59
1311890.4655279273,-95477.336,-87382.98,-40195.438,-4089.1116,-43911.094,8137.7363,-1571.9808,64574.504
1311890.4695279463,-95462.484,-87386.44,-40200.93,-4093.1804,-43923.83,8147.502,-1554.4434,64679.85
1311890.4735279654,-95445.234,-87378.87,-40197.062,-4094.3606,-43928.062,8148.194,-1556.9662,64653.04
1311890.4775279844,-95441.61,-87380.05,-40192.14,-4091.9597,-43919.883,8140.666,-1565.389,64583.293
1311890.4815280035,-95455.37,-87378.586,-40187.83,-4090.2507,-43912.8,8134.766,-1572.4691,64536.176
1311890.4855280225,-95457.85,-87382.66,-40187.34,-4088.8267,-43908.53,8136.434,-1569.987,64561.973
1311890.4895280416,-95449.38,-87393.64,-40193.156,-4091.6343,-43918.945,8146.2812,-1561.4421,64657.96
1311890.4935280606,-95447.23,-87388.92,-40196.414,-4097.046,-43918.297,8147.7056,-1567.5457,64665.812
1311890.4975280797,-95456.83,-87382.98,-40193.035,-4097.6562,-43916.707,8139.486,-1577.4333,64591.92
1311890.5015280987,-95471.56,-87391.12,-40191.406,-4093.8315,-43908.734,8132.4873,-1578.0029,64529.137
1311890.5055281178,-95469.85,-87392.46,-40192.465,-4091.675,-43909.14,8133.5044,-1568.156,64578.82
1311890.5095281368,-95458.17,-87393.64,-40196.98,-4092.855,-43918.945,8143.962,-1551.3916,64676.11
1311890.5135281559,-95449.016,-87384.85,-40192.508,-4094.442,-43931.97,8145.3047,-1555.3793,64689.09
1311890.517528175,-95455.33,-87380.45,-40188.152,-4095.0115,-43921.43,8136.556,-1570.4346,64608.727
1311890.521528194,-95467.94,-87383.99,-40183.797,-4090.2102,-43908.246,8131.6733,-1573.3236,64551.477
1311890.525528213,-95474.086,-87393.03,-40188.723,-4094.3198,-43919.72,8132.894,-1567.2607,64576.945
1311890.5295282323,-95456.914,-87387.54,-40194.785,-4096.395,-43923.22,8140.788,-1556.4779,64667.484
1311890.5335282513,-95438.97,-87376.63,-40193.035,-4097.982,-43918.094,8142.9854,-1555.7048,64672.57
1311890.5375282704,-95449.75,-87380.984,-40186.117,-4096.5986,-43909.832,8133.464,-1567.2607,64594.566
1311890.5415282894,-95465.375,-87382.164,-40184.285,-4093.4653,-43898.684,8123.332,-1576.0906,64532.51
1311890.5455283085,-95468.43,-87379.84,-40186.32,-4092.2854,-43902.832,8125.5293,-1566.6097,64565.27
1311890.5495283275,-95442.266,-87369.875,-40188.355,-4093.9944,-43922.406,8134.969,-1547.2412,64671.184
1311890.5535283466,-95424.195,-87360.72,-40188.152,-4093.9128,-43915.12,8138.143,-1547.1599,64678.957
1311890.5575283656,-95426.48,-87347.86,-40181.03,-4089.2336,-43899.58,8127.767,-1564.3718,64583.254
1311890.5615283847,-95427.125,-87332.93,-40174.03,-4082.601,-43890.383,8122.274,-1571.2078,64539.227
1311890.5655284037,-95401.25,-87304.41,-40166.465,-4075.6023,-43897.098,8122.9253,-1563.9242,64573.0
1311890.5695284228,-95362.43,-87277.14,-40164.754,-4072.1843,-43902.426,8131.063,-1550.6592,64661.703
1311890.5735284418,-95330.69,-87259.61,-40159.223,-4074.5037,-43903.445,8130.86,-1559.7332,64667.074
1311890.5775284609,-95321.21,-87239.14,-40145.145,-4068.4817,-43887.41,8122.518,-1574.6664,64585.37
1311890.58152848,-95312.22,-87206.18,-40130.94,-4058.472,-43868.492,8116.5366,-1580.6885,64510.867
1311890.585528499,-95278.85,-87157.76,-40120.2,-4051.3103,-43868.9,8115.5195,-1573.934,64540.203
1311890.589528518,-95243.82,-87137.29,-40124.715,-4051.7986,-43878.34,8123.576,-1560.5876,64662.477
1311890.593528537,-95213.95,-87122.36,-40120.89,-4049.6829,-43883.504,8123.6577,-1572.1029,64678.387
1311890.5975285561,-95197.02,-87097.086,-40108.48,-4043.0095,-43877.035,8115.8857,-1586.141,64584.92
1311890.6015285752,-95198.086,-87082.16,-40100.586,-4037.191,-43862.67,8109.782,-1583.4148,64517.906
1311890.6055285942,-95189.984,-87071.984,-40100.547,-4034.4646,-43854.332,8107.9917,-1577.3519,64548.668
1311890.6095286133,-95159.34,-87062.87,-40097.293,-4035.5227,-43869.914,8116.4146,-1569.4988,64640.42
1311890.6135286323,-95149.21,-87062.38,-40094.484,-4038.4524,-43875.53,8119.019,-1579.5898,64635.38
1311890.6175286514,-95175.625,-87078.414,-40097.008,-4039.9578,-43866.945,8113.973,-1599.4467,64553.227
1311890.6215286704,-95199.95,-87088.14,-40097.086,-4039.022,-43859.62,8106.0386,-1602.6611,64508.547
1311890.6255286895,-95215.78,-87096.36,-40098.27,-4038.5337,-43863.08,8107.6665,-1591.2273,64534.387
1311890.6295287085,-95217.25,-87115.12,-40106.773,-4042.033,-43868.53,8117.9204,-1573.7305,64639.242
1311890.6335287276,-95214.12,-87128.54,-40114.22,-4046.7124,-43863.04,8120.7686,-1573.4457,64647.504
1311890.6375287466,-95235.76,-87146.0,-40112.387,-4050.1711,-43874.676,8117.6763,-1580.8513,64573.49
1311890.6415287657,-95271.484,-87172.445,-40117.066,-4049.5608,-43864.91,8111.0435,-1588.2162,64512.13
1311890.6455287847,-95284.43,-87193.97,-40121.746,-4051.1882,-43870.89,8112.5083,-1583.0486,64539.227
1311890.6495288038,-95294.68,-87209.96,-40133.344,-4055.949,-43886.76,8123.698,-1570.1498,64632.773
1311890.6535288228,-95296.23,-87218.06,-40140.26,-4060.5063,-43882.49,8124.5527,-1575.6023,64637.086
1311890.6575288419,-95315.19,-87234.375,-40142.78,-4059.8552,-43873.984,8115.2754,-1587.7686,64558.8
1311890.661528861,-95347.05,-87252.445,-40143.516,-4059.4485,-43877.035,8110.067,-1583.8217,64506.27
1311890.66552888,-95365.64,-87266.69,-40146.16,-4062.907,-43881.062,8119.0596,-1569.6615,64534.953
1311890.669528899,-95375.94,-87290.2,-40157.227,-4070.4753,-43895.184,8131.0225,-1556.1931,64636.598
1311890.673528918,-95377.81,-87300.78,-40163.535,-4077.2708,-43895.67,8129.395,-1566.6504,64642.215
1311890.677528937,-95385.87,-87306.195,-40161.5,-4072.0217,-43887.29,8123.4136,-1576.4568,64570.477
1311890.6815289562,-95397.79,-87309.62,-40156.047,-4067.4236,-43885.785,8117.4727,-1575.3174,64517.99
1311890.6855289752,-95402.55,-87318.97,-40156.617,-4068.97,-43887.656,8119.914,-1561.9304,64566.246
1311890.6895289943,-95391.16,-87322.76,-40160.973,-4072.3472,-43896.77,8130.3306,-1540.9343,64666.996
1311890.6935290133,-95388.35,-87328.49,-40166.79,-4076.05,-43890.75,8131.7954,-1546.1833,64667.766
1311890.6975290324,-95407.48,-87338.83,-40169.72,-4076.7825,-43890.016,8122.8843,-1563.0697,64584.15
1311890.7015290514,-95439.74,-87358.36,-40171.43,-4076.4163,-43888.633,8116.8623,-1572.1436,64523.48
1311890.7055290705,-95449.71,-87361.66,-40170.574,-4071.4114,-43884.035,8117.5947,-1568.6443,64571.293
1311890.7095290895,-95434.86,-87364.55,-40178.062,-4073.8528,-43894.695,8128.011,-1553.0193,64648.887
1311890.7135291086,-95434.66,-87373.74,-40185.14,-4080.1597,-43896.688,8132.243,-1550.9441,64632.69
1311890.7175291276,-95441.81,-87371.99,-40180.504,-4080.2004,-43888.797,8129.3135,-1556.2338,64582.44
1311890.7215291467,-95457.36,-87370.77,-40176.8,-4076.8638,-43886.8,8126.384,-1553.9551,64542.277
1311890.7255291657,-95464.766,-87371.34,-40181.03,-4080.241,-43897.055,8129.029,-1540.1611,64581.83
1311890.7295291848,-95451.09,-87372.52,-40186.65,-4083.6997,-43908.45,8135.6206,-1532.5521,64672.49
1311890.7335292038,-95443.24,-87373.09,-40183.88,-4086.7515,-43905.844,8137.655,-1540.4867,64674.562
1311890.7375292229,-95459.59,-87382.86,-40179.566,-4086.2224,-43899.617,8133.342,-1549.3164,64607.098
1311890.741529242,-95479.82,-87390.625,-40177.734,-4082.2756,-43892.01,8128.2964,-1547.1191,64560.996
1311890.745529261,-95485.6,-87396.89,-40185.02,-4084.7576,-43903.08,8131.063,-1531.25,64581.06
1311890.74952928,-95472.78,-87396.81,-40192.383,-4088.3792,-43912.438,8140.2183,-1518.7582,64678.184
1311890.753529299,-95469.24,-87404.42,-40194.01,-4092.4888,-43913.617,8139.974,-1527.6693,64698.12
1311890.757529318,-95478.72,-87414.31,-40188.68,-4091.268,-43909.793,8129.232,-1544.393,64614.137
1311890.7615293371,-95491.5,-87414.23,-40185.387,-4087.728,-43903.73,8121.0127,-1552.3275,64555.258
1311890.7655293562,-95491.945,-87411.055,-40183.188,-4087.077,-43908.855,8121.7856,-1545.3289,64593.63
1311890.7695293752,-95476.36,-87406.91,-40190.594,-4091.9192,-43917.684,8130.4526,-1533.2845,64694.215
1311890.7735293943,-95465.05,-87401.695,-40191.49,-4093.8723,-43909.668,8134.8066,-1534.668,64706.3
1311890.7775294133,-95472.86,-87404.46,-40186.484,-4089.437,-43893.84,8130.3306,-1542.684,64634.035
1311890.7815294324,-95498.09,-87412.766,-40180.79,-4089.8845,-43887.047,8124.0645,-1549.764,64571.13
1311890.7855294514,-95500.164,-87409.23,-40178.184,-4086.6294,-43895.02,8123.6167,-1538.6556,64623.332
1311890.7895294705,-95482.55,-87412.68,-40189.047,-4091.8784,-43906.535,8129.4355,-1531.2094,64714.6
1311890.7935294895,-95465.05,-87401.25,-40189.008,-4094.4827,-43916.383,8132.2837,-1537.3535,64712.812
1311890.7975295086,-95465.25,-87395.19,-40184.164,-4090.3728,-43905.07,8126.5464,-1547.933,64643.516
1311890.8015295276,-95483.89,-87399.46,-40183.066,-4087.3618,-43898.848,8119.6294,-1547.6482,64584.598
1311890.8055295467,-95486.01,-87404.625,-40184.125,-4087.7688,-43903.688,8122.193,-1533.8542,64605.55
1311890.8095295657,-95474.33,-87405.56,-40191.812,-4091.4714,-43909.668,8133.9116,-1520.0603,64702.23
1311890.8135295848,-95466.92,-87403.0,-40191.0,-4093.506,-43913.535,8134.8066,-1528.3611,64706.34
1311890.8175296038,-95477.74,-87411.26,-40187.746,-4089.03,-43892.375,8126.3433,-1545.7764,64619.914
1311890.821529623,-95491.62,-87414.11,-40185.832,-4086.7922,-43893.883,8119.67,-1555.7861,64551.066
1311890.825529642,-95491.3,-87410.12,-40184.57,-4085.2866,-43900.88,8121.867,-1547.6888,64587.934
1311890.829529661,-95478.97,-87417.12,-40192.02,-4088.9487,-43912.11,8133.9116,-1529.4597,64701.457
1311890.83352968,-95467.164,-87408.61,-40191.285,-4091.9597,-43914.188,8136.556,-1532.0638,64719.28
1311890.837529699,-95475.14,-87404.79,-40187.258,-4090.9426,-43906.332,8127.2383,-1546.2646,64642.906
1311890.8415297181,-95492.68,-87408.2,-40189.21,-4088.5417,-43901.367,8119.222,-1554.362,64569.664
1311890.8455297372,-95491.82,-87415.04,-40188.273,-4086.141,-43905.6,8121.9487,-1547.1599,64592.816
1311890.8495297562,-95480.47,-87415.33,-40192.832,-4088.0942,-43915.895,8131.3887,-1533.9763,64686.16
1311890.8535297753,-95475.016,-87409.23,-40191.12,-4088.2976,-43908.57,8132.569,-1541.9109,64675.05
1311890.8575297943,-95482.47,-87406.62,-40189.168,-4086.182,-43893.72,8122.315,-1556.9662,64607.504
1311890.8615298134,-95501.18,-87414.8,-40188.438,-4087.2805,-43890.547,8119.1816,-1554.6062,64567.59
1311890.8655298324,-95501.14,-87411.625,-40189.047,-4087.606,-43902.508,8127.2383,-1538.2488,64602.258
1311890.8695298515,-95484.42,-87405.88,-40193.848,-4089.5183,-43916.992,8135.7017,-1522.7051,64696.086
1311890.8735298705,-95472.086,-87404.87,-40194.785,-4092.2854,-43918.05,8133.342,-1532.6742,64692.06
1311890.8775298896,-95480.63,-87415.33,-40193.81,-4091.4714,-43905.76,8122.762,-1554.2806,64605.836
1311890.8815299086,-95496.75,-87416.06,-40189.74,-4086.8735,-43894.37,8115.2754,-1562.2559,64551.68
1311890.8855299277,-95492.84,-87411.625,-40189.78,-4086.548,-43896.812,8120.5244,-1552.2054,64588.016
1311890.8895299467,-95468.38,-87404.87,-40191.285,-4087.85,-43904.785,8131.5923,-1529.7039,64700.156
1311890.8935299658,-95458.945,-87407.35,-40195.477,-4089.5999,-43903.65,8138.957,-1526.0417,64713.95
1311890.8975299848,-95464.805,-87404.18,-40187.746,-4089.2336,-43898.36,8132.772,-1537.7605,64629.477
1311890.9015300039,-95487.836,-87410.04,-40184.977,-4087.3618,-43891.645,8124.227,-1548.3806,64559.246
1311890.905530023,-95497.4,-87410.16,-40187.176,-4087.4026,-43898.887,8123.902,-1542.5212,64598.35
1311890.909530042,-95469.73,-87404.09,-40188.926,-4089.3557,-43904.297,8130.29,-1531.0059,64701.457
1311890.913530061,-95443.52,-87393.31,-40185.223,-4087.5652,-43895.836,8131.999,-1531.7383,64708.418
1311890.91753008,-95447.266,-87389.08,-40179.89,-4082.5198,-43884.81,8125.5293,-1542.8467,64626.996
1311890.9215300991,-95464.4,-87392.664,-40174.723,-4076.2942,-43875.082,8120.321,-1539.7543,64562.707
1311890.9255301182,-95462.734,-87385.54,-40172.242,-4073.7712,-43883.75,8125.855,-1529.3783,64597.535
1311890.9295301372,-95453.45,-87395.02,-40182.742,-4079.346,-43900.066,8133.2197,-1524.5361,64691.203
1311890.9335301563,-95451.22,-87405.97,-40189.008,-4088.6233,-43900.72,8133.7896,-1541.097,64677.41
1311890.9375301753,-95455.41,-87402.63,-40183.473,-4086.5073,-43897.543,8125.1226,-1554.891,64601.28
1311890.9415301944,-95474.41,-87409.43,-40181.152,-4082.2756,-43891.195,8120.85,-1554.8096,64546.67
1311890.9455302134,-95491.055,-87425.5,-40187.055,-4083.2927,-43889.324,8126.384,-1541.748,64582.727
1311890.9495302325,-95480.31,-87439.086,-40193.156,-4086.5886,-43902.06,8139.364,-1525.1465,64688.152
1311890.9535302515,-95438.36,-87409.305,-40181.4,-4084.7576,-43901.125,8139.2827,-1528.8086,64698.164
1311890.9575302706,-95437.3,-87397.305,-40170.33,-4080.0376,-43891.523,8129.924,-1538.737,64622.113
1311890.9615302896,-95459.44,-87422.98,-40168.01,-4078.0032,-43895.145,8123.2505,-1543.1722,64569.418
1311890.9655303087,-95459.84,-87435.39,-40169.72,-4080.0376,-43893.35,8128.5405,-1533.2845,64614.586
1311890.9695303277,-95453.78,-87451.99,-40176.23,-4085.6936,-43906.13,8140.4624,-1521.1589,64713.83
1311890.9735303468,-95448.77,-87457.766,-40179.566,-4090.1287,-43908.49,8140.096,-1532.43,64709.84
1311890.9775303658,-95462.2,-87469.52,-40178.59,-4090.1287,-43902.996,8130.29,-1544.1082,64635.95
1311890.9815303849,-95474.29,-87473.92,-40172.16,-4085.5715,-43892.906,8122.5996,-1544.393,64580.16
1311890.985530404,-95468.836,-87471.88,-40172.04,-4082.4382,-43897.176,8125.8955,-1529.6224,64614.953
1311890.989530423,-95460.9,-87486.66,-40181.56,-4089.2742,-43913.496,8139.2417,-1516.683,64715.254
1311890.993530442,-95457.56,-87501.836,-40186.402,-4097.087,-43917.277,8142.0903,-1521.9727,64717.9
1311890.997530461,-95467.29,-87510.26,-40181.52,-4097.3716,-43913.21,8136.76,-1532.7148,64644.613
1311891.00153048,-95485.31,-87515.875,-40177.574,-4093.7095,-43901.207,8131.0225,-1535.3597,64594.81
1311891.0055304992,-95485.805,-87513.555,-40174.723,-4092.8958,-43913.25,8136.19,-1519.2058,64638.594
1311891.0095305182,-95468.02,-87512.86,-40180.38,-4092.7737,-43923.098,8144.857,-1509.1553,64732.87
1311891.0135305373,-95452.805,-87507.41,-40180.094,-4092.977,-43915.285,8142.3345,-1519.2058,64731.57
1311891.0175305563,-95463.71,-87512.945,-40175.78,-4091.2273,-43903.89,8135.051,-1536.1328,64659.832
1311891.0215305754,-95483.52,-87531.21,-40170.86,-4088.6233,-43901.367,8127.767,-1541.5039,64596.477
1311891.0255305944,-95489.34,-87527.95,-40169.56,-4086.3445,-43903.32,8130.3716,-1527.059,64622.234
1311891.0295306135,-95478.03,-87535.28,-40176.758,-4092.4075,-43916.87,8141.3984,-1507.6091,64725.668
1311891.0335306325,-95467.29,-87530.88,-40177.652,-4097.453,-43918.945,8144.2876,-1507.2836,64730.55
1311891.0375306515,-95468.875,-87536.46,-40175.906,-4096.6797,-43911.38,8138.6724,-1514.2416,64655.64
1311891.0415306706,-95475.63,-87544.27,-40170.207,-4091.797,-43901.816,8133.708,-1513.1023,64606.73
1311891.0455306896,-95476.28,-87540.0,-40168.133,-4091.146,-43901.125,8134.1147,-1505.2898,64641.523
1311891.0495307087,-95475.914,-87562.55,-40174.93,-4097.453,-43921.266,8142.375,-1489.8275,64739.26
1311891.0535307277,-95477.87,-87602.87,-40180.22,-4105.062,-43925.254,8145.345,-1494.9138,64749.594
1311891.0575307468,-95485.92,-87617.27,-40177.652,-4102.824,-43911.094,8139.2417,-1504.8422,64669.152
1311891.0615307658,-95491.74,-87607.22,-40170.94,-4096.151,-43906.58,8133.2603,-1506.9174,64619.914
1311891.065530785,-95485.64,-87638.43,-40169.56,-4093.384,-43908.164,8133.5044,-1501.3428,64652.793
1311891.069530804,-95470.55,-87692.95,-40178.67,-4096.3135,-43919.76,8145.3047,-1492.391,64745.688
1311891.073530823,-95454.305,-87736.25,-40185.426,-4099.6504,-43915.367,8145.8335,-1506.0222,64729.535
1311891.077530842,-95459.27,-87769.21,-40183.594,-4100.7896,-43911.258,8132.447,-1525.6348,64638.633
1311891.081530861,-95484.17,-87823.29,-40179.812,-4100.5454,-43909.75,8124.512,-1534.8715,64582.195
1311891.0855308801,-95484.26,-87879.07,-40178.793,-4098.47,-43910.2,8125.936,-1531.7383,64614.668
1311891.0895308992,-95465.87,-87956.38,-40184.816,-4102.661,-43920.695,8136.475,-1518.7175,64713.543
1311891.0935309182,-95452.6,-88042.4,-40190.43,-4105.3877,-43913.008,8140.0557,-1525.7162,64709.758
1311891.0975309373,-95448.24,-88123.82,-40183.473,-4102.661,-43914.43,8134.359,-1534.5052,64636.883
1311891.1015309563,-95458.62,-88221.234,-40178.875,-4100.627,-43910.973,8130.86,-1533.4066,64577.883
1311891.1055309754,-95460.21,-88343.266,-40180.95,-4096.843,-43905.4,8134.644,-1519.8568,64624.96
1311891.1095309944,-95447.8,-88500.45,-40186.89,-4101.6035,-43925.254,8144.9385,-1507.6091,64726.2
1311891.1135310135,-95434.2,-88642.664,-40191.082,-4103.2715,-43926.066,8141.3984,-1522.0541,64718.547
1311891.1175310325,-95440.96,-88772.95,-40189.047,-4101.278,-43915.57,8129.3135,-1539.1846,64637.37
1311891.1215310516,-95444.016,-88895.51,-40187.418,-4099.6094,-43902.266,8122.7217,-1542.3992,64585.656
1311891.1255310706,-95439.5,-89022.586,-40191.203,-4101.8066,-43909.465,8129.517,-1525.7162,64629.76
1311891.1295310897,-95427.82,-89146.0,-40200.645,-4106.8115,-43923.91,8142.009,-1508.0974,64734.336
1311891.1335311087,-95424.234,-89258.51,-40205.973,-4112.468,-43916.383,8145.9966,-1513.8754,64736.695
1311891.1375311278,-95446.05,-89365.56,-40203.9,-4110.962,-43906.293,8141.805,-1530.2328,64667.93
1311891.1415311468,-95464.03,-89474.53,-40201.17,-4106.4863,-43911.46,8134.603,-1533.3252,64613.203
1311891.1455311659,-95460.21,-89566.94,-40200.24,-4103.801,-43909.832,8135.295,-1523.112,64659.996
1311891.149531185,-95434.62,-89644.33,-40203.53,-4106.2827,-43918.133,8143.555,-1504.3945,64763.023
1311891.153531204,-95419.35,-89709.555,-40202.76,-4112.02,-43920.695,8144.735,-1506.1035,64746.504
1311891.157531223,-95419.07,-89778.32,-40199.344,-4109.009,-43909.426,8138.387,-1520.0195,64671.633
1311891.161531242,-95434.414,-89858.195,-40200.156,-4107.0967,-43907.35,8133.6265,-1525.7568,64611.656
1311891.1655312611,-95448.57,-89925.5,-40207.645,-4109.4565,-43908.652,8136.068,-1518.4734,64648.848
1311891.1695312802,-95443.97,-89980.875,-40217.734,-4114.4614,-43922.04,8146.1997,-1503.5808,64744.47
1311891.1735312992,-95439.66,-90023.97,-40218.875,-4118.0015,-43925.66,8146.1997,-1511.556,64742.84
1311891.1775313183,-95445.11,-90056.6,-40210.9,-4113.4443,-43920.656,8139.974,-1523.2748,64659.59
1311891.1815313373,-95456.1,-90098.76,-40213.055,-4112.2236,-43910.28,8129.4355,-1533.366,64609.945
1311891.1855313564,-95453.414,-90125.164,-40218.996,-4110.6367,-43904.83,8127.7266,-1527.4658,64650.395
1311891.1895313754,-95433.68,-90143.88,-40225.3,-4114.3394,-43927.246,8137.9805,-1513.6719,64741.742
1311891.1935313945,-95428.836,-90176.555,-40230.957,-4121.9077,-43932.332,8140.0557,-1518.6768,64736.37
1311891.1975314135,-95447.555,-90206.586,-40226.277,-4118.6934,-43926.68,8135.661,-1528.0762,64661.094
1311891.2015314326,-95464.44,-90224.695,-40225.383,-4113.6885,-43912.64,8128.2964,-1538.1267,64602.38
1311891.2055314516,-95470.055,-90240.44,-40224.203,-4114.421,-43912.152,8130.534,-1534.4646,64616.863
1311891.2095314707,-95458.09,-90256.02,-40228.434,-4114.665,-43925.62,8139.079,-1515.8691,64717.53
1311891.2135314897,-95429.32,-90269.25,-40229.086,-4116.5366,-43927.86,8138.835,-1520.4672,64733.523
1311891.2175315088,-95438.88,-90290.49,-40225.832,-4115.0312,-43917.156,8132.691,-1528.2797,64658.855
1311891.2215315278,-95459.44,-90311.16,-40223.062,-4115.1533,-43920.74,8128.4995,-1529.1748,64584.8
1311891.2255315469,-95462.81,-90317.63,-40224.367,-4113.9326,-43926.758,8132.243,-1520.8334,64637.617
1311891.229531566,-95445.195,-90332.08,-40229.004,-4116.252,-43940.84,8141.805,-1509.725,64750.773
1311891.233531585,-95435.95,-90353.92,-40232.22,-4119.914,-43932.78,8141.2764,-1517.7816,64747.926
1311891.237531604,-95440.76,-90371.95,-40226.48,-4117.8794,-43922.08,8129.5576,-1531.5349,64666.586
1311891.241531623,-95453.86,-90384.36,-40222.86,-4113.1187,-43913.74,8123.1284,-1536.6211,64611.086
1311891.245531642,-95452.92,-90396.57,-40226.36,-4109.9043,-43919.76,8129.273,-1525.8789,64644.25
1311891.2495316612,-95437.5,-90413.54,-40237.71,-4114.5835,-43932.457,8143.3516,-1511.8002,64741.984
1311891.2535316802,-95427.33,-90430.87,-40237.996,-4116.8623,-43936.24,8145.915,-1523.7224,64734.254
1311891.2575316993,-95442.51,-90446.25,-40236.574,-4117.0654,-43928.062,8138.1025,-1540.2832,64634.848
1311891.2615317183,-95456.83,-90454.23,-40229.37,-4109.4565,-43914.227,8128.988,-1544.9626,64584.883
1311891.2655317374,-95460.984,-90456.1,-40229.74,-4105.754,-43908.816,8131.8364,-1534.139,64644.047
1311891.2695317564,-95435.51,-90459.234,-40235.637,-4111.125,-43933.027,8143.2295,-1519.6533,64736.453
1311891.2735317755,-95423.67,-90467.695,-40239.707,-4116.333,-43935.426,8141.805,-1523.0306,64729.37
1311891.2775317945,-95434.125,-90478.27,-40238.242,-4114.1357,-43926.434,8133.3823,-1527.7914,64655.6
1311891.2815318136,-95447.06,-90475.55,-40236.37,-4110.718,-43915.45,8128.2964,-1527.7507,64610.434
1311891.2855318326,-95449.875,-90484.58,-40239.22,-4110.84,-43917.97,8129.802,-1526.1638,64635.05
1311891.2895318517,-95443.69,-90501.55,-40247.07,-4115.9263,-43927.777,8139.527,-1522.8271,64724.043
1311891.2935318707,-95431.4,-90499.72,-40244.184,-4117.717,-43937.258,8142.904,-1527.1404,64717.777
1311891.2975318898,-95439.21,-90509.28,-40241.945,-4115.8857,-43930.625,8136.6377,-1528.6865,64630.984
1311891.3015319088,-95452.68,-90512.45,-40235.027,-4113.5664,-43923.586,8130.046,-1528.8494,64577.56
1311891.3055319279,-95452.68,-90519.62,-40239.79,-4114.8276,-43928.875,8130.6157,-1517.9037,64641.766
1311891.309531947,-95435.47,-90526.33,-40244.06,-4117.5947,-43941.164,8142.2935,-1505.8187,64747.48
1311891.313531966,-95424.85,-90534.67,-40246.38,-4120.5244,-43935.832,8140.2183,-1515.2588,64750.207
1311891.3175319852,-95439.13,-90542.195,-40243.734,-4120.2803,-43927.207,8133.138,-1528.768,64663.008
1311891.3215320043,-95455.0,-90547.53,-40239.098,-4115.4785,-43915.406,8129.1914,-1531.4128,64599.125
1311891.3255320233,-95446.375,-90548.914,-40240.316,-4113.4443,-43923.18,8134.156,-1514.1195,64657.434
1311891.3295320424,-95429.12,-90549.4,-40245.035,-4117.1875,-43936.24,8142.8228,-1497.518,64760.336
1311891.3335320614,-95417.24,-90549.69,-40242.758,-4117.7573,-43934.773,8145.101,-1500.8953,64764.855
1311891.3375320805,-95422.125,-90562.38,-40235.434,-4114.1357,-43921.836,8140.2183,-1512.614,64689.293
1311891.3415320995,-95449.38,-90586.76,-40232.42,-4111.206,-43907.023,8134.1147,-1516.5203,64623.82
1311891.3455321186,-95450.484,-90583.5,-40232.42,-4108.3984,-43914.43,8134.9287,-1503.54,64640.22
1311891.3495321376,-95433.88,-90583.336,-40240.152,-4109.497,-43926.758,8142.8633,-1496.0938,64730.754
1311891.3535321567,-95426.84,-90587.65,-40241.902,-4113.2,-43930.586,8141.9272,-1507.0801,64727.62
1311891.3575321757,-95423.46,-90589.44,-40233.48,-4109.7007,-43920.004,8133.6675,-1521.1182,64643.68
1311891.3615321948,-95434.25,-90597.82,-40229.574,-4106.323,-43915.04,8129.0693,-1520.874,64589.52
1311891.3655322138,-95452.03,-90623.05,-40234.62,-4108.2764,-43925.008,8136.8413,-1504.0283,64631.918
1311891.3695322329,-95457.64,-90646.98,-40243.246,-4114.4614,-43934.816,8149.4146,-1486.8164,64730.918
1311891.373532252,-95430.75,-90626.8,-40236.777,-4108.846,-43919.883,8145.386,-1501.3021,64718.957
1311891.377532271,-95422.57,-90615.08,-40226.645,-4102.2544,-43911.582,8131.7144,-1516.7236,64646.934
1311891.38153229,-95432.62,-90613.24,-40222.25,-4097.9004,-43905.52,8124.0645,-1524.4141,64584.11
1311891.385532309,-95411.5,-90602.99,-40226.402,-4097.738,-43894.695,8125.1226,-1519.2465,64608.36
1311891.3895323281,-95375.734,-90590.3,-40231.49,-4097.168,-43915.855,8135.7017,-1505.2898,64711.55
1311891.3935323472,-95360.96,-90580.69,-40227.01,-4096.517,-43915.082,8134.9287,-1513.4685,64713.79
1311891.3975323662,-95368.53,-90567.34,-40216.96,-4092.977,-43895.59,8129.395,-1525.9197,64630.58
1311891.4015323853,-95359.336,-90566.9,-40211.1,-4087.077,-43891.887,8120.443,-1535.075,64573.855
1311891.4055324043,-95371.42,-90578.86,-40217.53,-4087.484,-43900.434,8124.7153,-1526.6521,64612.47
1311891.4095324234,-95361.9,-90572.63,-40225.3,-4091.675,-43904.91,8130.738,-1516.1133,64738.812
1311891.4135324424,-95342.164,-90562.7,-40226.523,-4091.3494,-43895.508,8130.0054,-1519.1244,64760.215
1311891.4175324615,-95353.56,-90573.33,-40224.0,-4090.4949,-43896.77,8123.698,-1525.8383,64668.867
1311891.4215324805,-95373.78,-90585.164,-40221.438,-4086.4666,-43888.633,8120.6465,-1525.0244,64621.055
1311891.4255324996,-95363.0,-90583.375,-40219.035,-4084.2693,-43890.137,8125.3257,-1514.4451,64662.07
1311891.4295325186,-95348.63,-90589.44,-40225.87,-4089.3962,-43904.176,8136.109,-1503.4587,64761.312
1311891.4335325377,-95349.37,-90603.766,-40230.875,-4097.8193,-43904.664,8137.5737,-1513.916,64751.508
1311891.4375325567,-95368.05,-90627.77,-40230.67,-4100.0166,-43898.926,8130.412,-1528.6865,64662.926
1311891.4415325758,-95384.93,-90638.875,-40230.797,-4095.6218,-43896.895,8124.4307,-1530.6804,64612.957
1311891.4455325948,-95383.18,-90638.516,-40232.586,-4091.9192,-43899.78,8127.6045,-1522.0134,64639.855
1311891.4495326139,-95375.98,-90640.34,-40239.707,-4095.9067,-43901.98,8135.9053,-1508.7484,64743.86
1311891.453532633,-95353.56,-90637.086,-40236.29,-4098.755,-43905.477,8133.6675,-1511.9222,64749.473
1311891.457532652,-95359.78,-90644.984,-40232.06,-4097.2495,-43897.746,8127.401,-1523.6816,64666.63
1311891.461532671,-95389.04,-90665.77,-40228.152,-4095.5813,-43896.527,8120.036,-1526.0417,64611.125
1311891.46553269,-95394.05,-90681.84,-40231.527,-4093.1804,-43902.14,8122.681,-1519.7754,64646.363
1311891.469532709,-95372.805,-90682.01,-40244.305,-4096.7207,-43910.688,8131.999,-1506.1035,64744.914
1311891.4735327282,-95361.734,-90679.12,-40244.71,-4101.1963,-43911.664,8132.447,-1510.905,64744.508
1311891.4775327472,-95371.75,-90680.14,-40239.055,-4100.993,-43899.254,8124.7153,-1524.0886,64659.59
1311891.4815327663,-95389.65,-90684.37,-40237.184,-4098.0635,-43892.58,8121.2163,-1524.5361,64605.227
1311891.4855327853,-95385.3,-90682.87,-40235.84,-4097.9414,-43903.973,8126.2617,-1506.9988,64649.008
1311891.4895328043,-95369.34,-90688.805,-40240.36,-4103.231,-43918.254,8134.481,-1495.5242,64748.902
1311891.4935328234,-95369.75,-90698.98,-40249.555,-4106.3643,-43906.453,8135.8647,-1499.349,64724.69
1311891.4975328424,-95380.25,-90698.77,-40246.625,-4100.505,-43898.277,8127.401,-1513.8347,64633.305
1311891.5015328615,-95399.26,-90706.75,-40242.676,-4095.6218,-43902.1,8120.2803,-1517.4968,64603.395
1311891.5055328805,-95396.69,-90703.21,-40238.934,-4092.1226,-43899.902,8123.4946,-1503.7435,64654.582
1311891.5095328996,-95375.25,-90705.98,-40244.59,-4097.2495,-43904.297,8134.6846,-1492.1875,64749.72
1311891.5135329186,-95364.664,-90703.086,-40244.47,-4102.051,-43907.84,8136.109,-1501.7498,64741.742
1311891.5175329377,-95367.39,-90706.055,-40236.656,-4100.993,-43904.867,8128.2964,-1513.4277,64659.02
1311891.5215329567,-95375.9,-90706.625,-40232.668,-4099.2026,-43901.45,8122.518,-1520.6299,64600.59
1311891.5255329758,-95380.49,-90709.11,-40238.08,-4098.7144,-43904.01,8125.163,-1517.1713,64647.746
1311891.5295329948,-95362.43,-90713.55,-40243.41,-4097.0054,-43914.754,8132.894,-1508.3416,64739.465
1311891.533533014,-95350.22,-90717.94,-40242.84,-4098.9585,-43904.297,8131.063,-1518.9617,64704.184
1311891.537533033,-95370.81,-90746.79,-40241.945,-4101.115,-43896.363,8123.3726,-1528.9714,64629.68
1311891.541533052,-95385.055,-90757.49,-40236.37,-4096.965,-43893.965,8119.019,-1528.0762,64588.87
1311891.545533071,-95381.76,-90753.664,-40233.035,-4094.279,-43899.09,8125.3257,-1513.8347,64619.062
1311891.54953309,-95352.3,-90734.5,-40237.223,-4096.843,-43913.047,8134.766,-1502.3601,64720.176
1311891.5535331091,-95342.0,-90724.04,-40236.9,-4098.3076,-43914.39,8134.847,-1508.7078,64723.066
1311891.5575331282,-95357.79,-90724.695,-40234.742,-4096.639,-43898.723,8127.116,-1526.3265,64635.746
1311891.5615331472,-95371.664,-90735.44,-40231.812,-4094.4827,-43898.234,8119.263,-1529.5818,64583.78
1311891.5655331663,-95370.32,-90739.586,-40236.574,-4095.215,-43900.84,8120.7686,-1524.6176,64626.59
1311891.5695331853,-95354.74,-90745.52,-40237.387,-4094.6047,-43907.555,8130.0054,-1513.8754,64731.285
1311891.5735332044,-95347.336,-90750.53,-40237.59,-4096.3545,-43912.844,8129.8423,-1515.9912,64743.695
1311891.5775332234,-95354.984,-90745.08,-40231.285,-4094.6047,-43905.723,8122.152,-1525.9197,64640.75
1311891.5815332425,-95362.71,-90751.75,-40228.64,-4090.9426,-43891.48,8116.3335,-1529.3783,64577.355
1311891.5855332615,-95369.55,-90760.375,-40233.195,-4092.855,-43893.637,8121.094,-1515.7878,64627.32
1311891.5895332806,-95359.54,-90755.414,-40240.97,-4100.2197,-43915.895,8131.9585,-1500.6918,64735.56
1311891.5935332996,-95349.695,-90748.05,-40242.39,-4104.3296,-43918.094,8132.0806,-1507.9753,64734.418
1311891.5975333187,-95357.1,-90746.7,-40240.684,-4102.214,-43902.344,8121.4604,-1520.3857,64649.293
1311891.6015333377,-95370.81,-90753.83,-40236.37,-4097.3716,-43890.79,8116.13,-1523.7631,64593.223
1311891.6055333568,-95367.8,-90759.73,-40234.457,-4094.6453,-43891.44,8119.019,-1519.2058,64631.88
1311891.6095333758,-95362.02,-90762.58,-40235.434,-4098.2666,-43902.832,8128.988,-1509.2367,64714.316
1311891.6135333949,-95353.15,-90754.4,-40233.074,-4097.2495,-43910.688,8131.9585,-1511.6781,64713.3
1311891.617533414,-95362.39,-90760.79,-40228.598,-4093.1804,-43899.617,8125.285,-1527.6693,64635.418
1311891.621533433,-95376.34,-90774.62,-40229.37,-4093.384,-43895.59,8115.9673,-1538.6963,64581.06
1311891.625533452,-95381.43,-90776.45,-40232.79,-4092.0818,-43897.707,8115.479,-1531.25,64631.51
1311891.629533471,-95362.02,-90772.79,-40234.742,-4094.7268,-43914.55,8127.1567,-1511.6375,64732.992
1311891.6335334901,-95342.49,-90775.15,-40233.074,-4096.151,-43902.426,8130.168,-1511.7595,64733.848
1311891.6375335092,-95348.63,-90767.5,-40226.81,-4093.7908,-43884.93,8124.7153,-1519.45,64654.38
1311891.6415335282,-95367.64,-90770.76,-40222.453,-4089.5183,-43879.19,8118.775,-1519.6941,64590.617
1311891.6455335473,-95380.29,-90770.555,-40226.32,-4088.013,-43889.69,8123.698,-1511.6375,64631.105
1311891.6495335663,-95379.31,-90771.57,-40238.973,-4094.2385,-43909.383,8134.074,-1505.0457,64729.656
1311891.6535335854,-95362.23,-90766.97,-40238.73,-4095.6626,-43905.844,8134.888,-1515.4623,64724.938
1311891.6575336044,-95363.08,-90774.3,-40233.24,-4095.4998,-43891.24,8127.1978,-1525.3906,64650.516
1311891.6615336235,-95368.94,-90779.664,-40225.465,-4091.8376,-43882.652,8122.071,-1522.4609,64597.332
1311891.6655336425,-95366.82,-90767.625,-40221.598,-4091.146,-43885.785,8123.4136,-1513.6312,64639.61
1311891.6695336616,-95361.695,-90758.51,-40233.44,-4096.517,-43890.953,8134.278,-1501.5056,64736.9
1311891.6735336806,-95357.14,-90760.945,-40234.336,-4102.051,-43902.06,8139.364,-1508.3416,64717.043
1311891.6775336997,-95368.62,-90774.17,-40231.73,-4098.104,-43886.273,8133.83,-1521.7693,64633.996
1311891.6815337187,-95385.13,-90782.31,-40230.387,-4095.093,-43879.883,8125.2446,-1527.5472,64586.1
1311891.6855337378,-95389.61,-90775.48,-40234.05,-4093.9128,-43883.79,8127.0347,-1521.6472,64624.15
1311891.6895337568,-95359.26,-90759.97,-40235.15,-4096.029,-43899.375,8137.4517,-1505.8187,64734.05
1311891.6935337759,-95346.48,-90757.94,-40233.93,-4098.674,-43900.105,8137.5327,-1506.8359,64739.87
1311891.697533795,-95352.016,-90758.75,-40225.465,-4095.8254,-43887.656,8127.9707,-1516.7644,64657.434
1311891.701533814,-95362.8,-90749.8,-40221.723,-4093.1804,-43882.652,8121.0127,-1514.8519,64607.426
1311891.705533833,-95370.98,-90756.39,-40227.62,-4094.0757,-43884.562,8127.808,-1501.5056,64647.22
1311891.709533852,-95353.03,-90752.36,-40233.195,-4096.924,-43892.99,8141.195,-1490.2344,64752.28
1311891.713533871,-95345.7,-90752.41,-40233.848,-4099.4062,-43897.625,8141.561,-1498.3724,64742.516
1311891.7175338902,-95361.66,-90761.6,-40230.797,-4096.965,-43887.695,8133.708,-1514.6484,64651.33
1311891.7215339092,-95370.0,-90766.56,-40227.54,-4093.2212,-43883.87,8126.221,-1523.2748,64597.008
1311891.7255339283,-95368.9,-90772.55,-40229.453,-4091.6343,-43885.945,8127.3604,-1515.9912,64630.453
1311891.7295339473,-95354.82,-90770.14,-40235.027,-4093.099,-43899.78,8135.8237,-1504.1504,64723.96
1311891.7335339664,-95344.61,-90761.92,-40233.727,-4094.279,-43898.4,8135.6206,-1513.9568,64718.508
1311891.7375339854,-95358.69,-90766.28,-40228.76,-4090.8206,-43884.156,8131.5513,-1517.4154,64649.7
1311891.7415340045,-95371.18,-90769.29,-40226.117,-4089.437,-43873.78,8126.5464,-1516.9271,64603.355
1311891.7455340235,-95365.84,-90774.13,-40232.22,-4089.315,-43878.664,8131.348,-1504.1504,64647.707
1311891.7495340426,-95338.83,-90753.016,-40239.383,-4093.3025,-43893.92,8140.096,-1490.031,64747.277
1311891.7535340616,-95329.76,-90749.76,-40241.05,-4098.104,-43889.812,8138.5503,-1498.9014,64750.164
1311891.7575340807,-95334.96,-90759.195,-40236.37,-4095.1743,-43879.805,8127.1978,-1512.7361,64664.918
1311891.7615340997,-95338.5,-90762.9,-40228.72,-4091.024,-43874.715,8122.274,-1512.6547,64600.223
1311891.7655341187,-95343.43,-90756.11,-40227.703,-4090.0066,-43873.332,8129.5576,-1497.9656,64654.258
1311891.7695341378,-95324.1,-90758.875,-40230.348,-4089.966,-43888.633,8143.026,-1480.2246,64770.062
1311891.7735341568,-95316.49,-90767.375,-40233.805,-4096.965,-43888.387,8141.9272,-1491.74,64759.523
1311891.777534176,-95323.695,-90764.0,-40233.766,-4096.4355,-43874.473,8132.365,-1511.434,64675.336
1311891.781534195,-95343.914,-90763.67,-40234.01,-4096.029,-43877.77,8126.4243,-1515.7064,64616.824
1311891.785534214,-95350.266,-90765.83,-40242.15,-4098.755,-43882.12,8127.686,-1512.1257,64651.695
1311891.789534233,-95329.23,-90759.65,-40242.15,-4099.7314,-43901.207,8140.7476,-1498.3724,64754.07
1311891.793534252,-95328.9,-90765.055,-40246.01,-4103.801,-43895.223,8141.0728,-1506.9988,64738.49
1311891.7975342711,-95331.625,-90767.91,-40243.855,-4100.83,-43885.785,8131.226,-1521.2402,64662.316
1311891.8015342902,-95352.22,-90781.984,-40240.03,-4095.1335,-43881.227,8125.3667,-1522.3796,64611.86
1311891.8055343092,-95356.9,-90780.97,-40241.742,-4097.534,-43885.215,8124.5933,-1513.6719,64655.316
1311891.8095343283,-95326.99,-90782.92,-40249.918,-4104.37,-43905.805,8135.6206,-1501.6277,64745.445
1311891.8135343473,-95318.36,-90783.77,-40250.895,-4106.9336,-43898.152,8137.37,-1509.2367,64741.375
1311891.8175343664,-95329.06,-90787.31,-40250.285,-4106.3643,-43882.0,8128.7437,-1523.112,64674.074
1311891.8215343854,-95334.96,-90773.6,-40240.36,-4099.6094,-43883.71,8125.5293,-1519.572,64623.54
1311891.8255344045,-95332.89,-90760.7,-40237.71,-4095.9067,-43888.633,8130.534,-1506.0629,64666.06
1311891.8295344235,-95316.086,-90761.15,-40246.055,-4099.813,-43887.656,8140.8696,-1496.4193,64764.773
1311891.8335344426,-95303.8,-90762.62,-40244.1,-4100.0166,-43889.812,8142.5786,-1504.7201,64761.312
1311891.8375344616,-95313.4,-90771.734,-40242.473,-4098.796,-43888.836,8131.6733,-1525.4314,64675.945
1311891.8415344807,-95327.64,-90783.86,-40241.17,-4097.2495,-43880.21,8124.8784,-1530.3955,64616.215
1311891.8455344997,-95335.25,-90785.56,-40239.87,-4094.4827,-43881.227,8129.802,-1517.9851,64660.16
1311891.8495345188,-95316.81,-90778.164,-40244.508,-4097.4937,-43891.24,8140.137,-1501.831,64760.38
1311891.8535345378,-95311.32,-90779.99,-40246.664,-4101.6035,-43890.91,8140.3813,-1506.4291,64762.37
1311891.8575345569,-95316.86,-90790.81,-40242.555,-4102.336,-43895.266,8134.4,-1513.8347,64685.754
1311891.861534576,-95328.9,-90787.195,-40243.207,-4098.1855,-43884.93,8128.4185,-1519.4092,64627.28
1311891.865534595,-95325.32,-90778.98,-40245.85,-4096.924,-43886.516,8132.0396,-1509.1553,64670.777
1311891.869534614,-95320.44,-90790.49,-40253.703,-4101.6846,-43907.066,8142.7007,-1495.4834,64770.43
1311891.873534633,-95325.484,-90802.29,-40262.086,-4107.666,-43911.297,8138.6724,-1504.8422,64762.13
1311891.8775346521,-95333.74,-90799.234,-40256.594,-4106.079,-43893.27,8127.564,-1519.8568,64673.87
1311891.8815346712,-95350.586,-90796.555,-40256.88,-4104.6143,-43880.047,8122.193,-1523.3154,64617.35
1311891.8855346902,-95344.61,-90794.516,-40255.332,-4103.0684,-43890.18,8129.517,-1507.6091,64663.496
1311891.8895347093,-95321.375,-90800.414,-40258.63,-4105.876,-43910.77,8141.114,-1499.3083,64766.645
1311891.8935347283,-95307.945,-90803.47,-40260.906,-4107.8696,-43905.887,8137.6143,-1511.0677,64755.78
1311891.8975347474,-95318.24,-90802.53,-40256.51,-4105.306,-43894.98,8127.645,-1522.0134,64675.254
1311891.9015347664,-95334.64,-90811.77,-40255.86,-4100.5454,-43885.176,8120.2397,-1526.7742,64617.8
1311891.9055347855,-95336.06,-90810.63,-40259.562,-4099.284,-43889.0,8122.396,-1518.514,64662.6
1311891.9095348045,-95321.13,-90801.234,-40264.445,-4102.58,-43908.043,8131.999,-1505.5746,64762.82
1311891.9135348236,-95308.39,-90803.63,-40264.324,-4105.6724,-43904.707,8133.7896,-1515.2181,64748.05
1311891.9175348426,-95314.82,-90800.336,-40257.57,-4104.045,-43895.02,8124.349,-1531.3721,64656.66
1311891.9215348617,-95338.5,-90810.51,-40256.188,-4102.1323,-43885.133,8118.4087,-1534.9529,64600.953
1311891.9255348807,-95336.47,-90820.4,-40258.707,-4098.755,-43885.664,8123.4946,-1523.5189,64641.44
1311891.9295348998,-95316.66,-90809.98,-40263.797,-4100.505,-43891.97,8132.365,-1511.556,64746.055
1311891.9335349188,-95306.36,-90809.2,-40263.957,-4101.888,-43895.145,8134.725,-1516.6423,64741.05
1311891.9375349379,-95324.06,-90814.05,-40261.312,-4101.156,-43892.336,8127.0757,-1528.8494,64657.555
1311891.941534957,-95334.39,-90809.734,-40259.156,-4097.86,-43887.777,8118.8154,-1530.5176,64605.96
1311891.945534976,-95327.64,-90806.93,-40260.38,-4099.2026,-43899.58,8122.8438,-1515.1367,64651.574
1311891.949534995,-95315.836,-90811.81,-40267.496,-4102.173,-43905.355,8135.173,-1500.9766,64751.875
1311891.953535014,-95306.766,-90807.336,-40265.79,-4102.9463,-43899.008,8136.719,-1504.1912,64740.113
1311891.957535033,-95307.05,-90804.164,-40257.0,-4097.575,-43884.605,8129.802,-1514.7705,64652.63
1311891.9615350522,-95341.19,-90812.95,-40257.12,-4097.86,-43879.68,8122.8438,-1523.1527,64589.277
1311891.9655350712,-95363.41,-90823.61,-40262.25,-4101.3594,-43888.715,8124.146,-1516.9678,64628.625
1311891.9695350903,-95337.65,-90828.984,-40266.97,-4102.458,-43901.9,8135.6206,-1504.0283,64729.332
1311891.9735351093,-95314.414,-90816.29,-40264.69,-4098.104,-43893.598,8139.201,-1510.8643,64742.68
1311891.9775351284,-95314.45,-90820.03,-40257.977,-4092.6108,-43884.523,8134.603,-1515.5844,64655.113
1311891.9815351474,-95317.99,-90814.78,-40250.53,-4085.6528,-43871.785,8130.4937,-1512.4512,64612.59
1311891.9855351665,-95319.664,-90815.39,-40251.547,-4082.8044,-43872.723,8134.3184,-1501.3021,64660.28
1311891.9895351855,-95297.41,-90804.24,-40255.29,-4082.8044,-43879.56,8146.037,-1487.3861,64764.0
1311891.9935352046,-95290.57,-90802.45,-40259.81,-4088.257,-43877.605,8148.8447,-1492.5945,64758.02
1311891.9975352236,-95308.76,-90812.83,-40257.0,-4086.0598,-43869.71,8141.114,-1506.7139,64671.51
1311892.0015352427,-95325.69,-90824.18,-40251.953,-4082.072,-43866.62,8138.4688,-1506.5918,64635.703
1311892.0055352617,-95319.99,-90821.62,-40252.484,-4081.177,-43873.78,8140.015,-1492.8386,64710.33
1311892.0095352808,-95302.49,-90809.086,-40257.406,-4085.3274,-43882.285,8148.031,-1479.126,64790.49
1311892.0135352998,-95290.33,-90803.875,-40254.273,-4084.9612,-43880.13,8149.1704,-1485.2295,64762.492
1311892.0175353189,-95299.56,-90807.945,-40248.09,-4082.7231,-43871.42,8142.8633,-1499.5117,64670.98
1311892.021535338,-95324.305,-90819.26,-40244.59,-4080.9329,-43866.66,8136.231,-1506.7139,64600.793
1311892.025535357,-95325.97,-90815.39,-40245.523,-4080.6887,-43876.59,8138.1025,-1496.7041,64641.195
1311892.029535376,-95307.7,-90812.87,-40249.797,-4082.479,-43886.19,8146.2812,-1483.8054,64748.254
1311892.033535395,-95302.45,-90818.81,-40248.74,-4086.1003,-43884.605,8144.857,-1497.1924,64746.3
1311892.037535414,-95314.7,-90824.42,-40249.473,-4086.5886,-43876.426,8135.946,-1514.8519,64658.45
1311892.0415354331,-95316.086,-90822.59,-40245.523,-4081.5024,-43863.895,8130.819,-1514.7705,64602.824
1311892.0455354522,-95311.65,-90814.91,-40242.473,-4080.4446,-43867.676,8135.4985,-1496.867,64654.95
1311892.0495354712,-95293.42,-90802.25,-40246.582,-4085.368,-43878.258,8144.1655,-1484.1716,64759.688
1311892.0535354903,-95293.016,-90816.49,-40251.06,-4091.431,-43878.906,8145.7524,-1493.8965,64747.277
1311892.0575355093,-95324.266,-90842.98,-40254.883,-4091.431,-43868.855,8139.405,-1503.7842,64663.008
1311892.0615355284,-95357.67,-90863.734,-40257.164,-4089.0708,-43871.95,8133.9927,-1505.9408,64602.543
1311892.0655355474,-95331.26,-90836.34,-40249.715,-4083.781,-43876.305,8136.1494,-1495.28,64650.434
1311892.0695355665,-95297.81,-90814.375,-40248.863,-4084.717,-43876.426,8149.984,-1479.3295,64765.42
1311892.0735355855,-95291.836,-90817.914,-40247.56,-4087.606,-43882.652,8154.8667,-1477.5391,64773.195
1311892.0775356046,-95317.914,-90828.945,-40241.09,-4085.8562,-43872.844,8147.9497,-1487.9965,64690.88
1311892.0815356236,-95345.18,-90846.64,-40236.695,-4082.2349,-43869.59,8139.4453,-1494.222,64639.934
1311892.0855356427,-95345.87,-90852.016,-40237.957,-4081.177,-43871.664,8141.5205,-1482.8695,64689.496
1311892.0895356617,-95340.21,-90866.17,-40246.01,-4089.1929,-43892.62,8154.6636,-1470.866,64794.027
1311892.0935356808,-95351.12,-90865.36,-40249.637,-4094.6047,-43895.633,8154.9077,-1472.2494,64794.312
1311892.0975356998,-95355.266,-90861.82,-40245.16,-4091.8376,-43884.44,8148.3564,-1478.6785,64717.816
1311892.101535719,-95372.27,-90874.72,-40242.84,-4089.722,-43880.902,8144.654,-1477.7426,64656.414
1311892.1055357382,-95382.37,-90886.766,-40245.81,-4089.2742,-43883.14,8149.0483,-1464.7217,64693.523
1311892.1095357572,-95378.055,-90892.13,-40255.168,-4092.3667,-43894.207,8160.645,-1454.183,64800.66
1311892.1135357763,-95370.65,-90898.484,-40256.227,-4097.331,-43897.746,8158.8545,-1469.8486,64798.992
1311892.1175357953,-95382.86,-90907.96,-40251.26,-4094.7268,-43885.176,8149.4956,-1482.2185,64707.93
1311892.1215358144,-95403.73,-90905.195,-40244.914,-4087.484,-43883.504,8144.2466,-1479.9805,64660.77
1311892.1255358334,-95402.06,-90904.3,-40246.95,-4086.304,-43888.31,8147.624,-1465.6982,64713.664
1311892.1295358525,-95386.766,-90909.67,-40255.86,-4092.733,-43900.312,8155.6807,-1453.9795,64811.973
1311892.1335358715,-95389.49,-90911.74,-40256.43,-4096.2324,-43898.64,8155.8433,-1460.0017,64796.47
1311892.1375358906,-95405.44,-90913.05,-40252.08,-4093.5466,-43884.402,8147.99,-1468.9941,64712.812
1311892.1415359096,-95427.45,-90924.6,-40247.926,-4094.1165,-43887.98,8143.067,-1469.279,64653.08
1311892.1455359287,-95417.93,-90918.5,-40247.273,-4089.9253,-43897.586,8145.386,-1453.8168,64703.98
1311892.1495359477,-95397.14,-90913.695,-40253.176,-4089.1116,-43895.59,8158.122,-1444.7836,64805.016
1311892.1535359668,-95379.6,-90906.82,-40252.566,-4090.4543,-43896.445,8158.2036,-1450.4802,64791.63
1311892.1575359858,-95397.016,-90913.17,-40249.27,-4092.5295,-43889.527,8150.676,-1462.321,64712.688
1311892.1615360049,-95421.59,-90924.56,-40248.94,-4090.1287,-43880.656,8144.5317,-1468.5466,64670.82
1311892.165536024,-95418.26,-90924.97,-40248.496,-4089.03,-43888.55,8150.269,-1457.5603,64721.195
1311892.169536043,-95403.164,-90923.34,-40253.215,-4090.617,-43902.14,8162.7607,-1441.9353,64817.465
1311892.173536062,-95391.195,-90930.83,-40253.95,-4094.9302,-43897.137,8164.022,-1447.4691,64799.727
1311892.177536081,-95399.82,-90930.18,-40248.008,-4091.8376,-43884.81,8155.396,-1459.7982,64713.586
1311892.1815361,-95413.945,-90924.03,-40243.53,-4087.2805,-43885.664,8147.095,-1463.3789,64659.63
1311892.1855361192,-95416.22,-90928.76,-40244.832,-4085.0425,-43891.074,8150.025,-1457.8044,64692.668
1311892.1895361382,-95404.34,-90924.195,-40248.453,-4087.8093,-43903.16,8160.9297,-1449.5443,64791.426
1311892.1935361573,-95404.87,-90922.65,-40253.582,-4093.099,-43899.17,8159.953,-1462.9314,64779.34
1311892.1975361763,-95421.96,-90927.29,-40248.25,-4092.326,-43894.453,8150.8794,-1476.5219,64691.082
1311892.2015361954,-95445.16,-90921.51,-40241.414,-4084.8796,-43887.37,8144.5723,-1478.0681,64626.71
1311892.2055362144,-95445.44,-90918.09,-40245.688,-4085.368,-43889.324,8149.089,-1463.2568,64689.17
1311892.2095362335,-95421.305,-90908.61,-40250.125,-4088.1755,-43899.414,8160.1567,-1453.654,64800.05
1311892.2135362525,-95423.95,-90906.62,-40253.824,-4089.1929,-43889.934,8158.651,-1466.0645,64777.996
1311892.2175362715,-95438.766,-90908.2,-40248.7,-4087.2397,-43883.3,8149.5366,-1476.9287,64696.7
1311892.2215362906,-95450.93,-90894.86,-40242.027,-4086.182,-43886.19,8143.067,-1478.7191,64641.44
1311892.2255363096,-95452.31,-90890.67,-40244.914,-4085.5308,-43884.727,8144.654,-1473.0225,64683.8
1311892.2295363287,-95445.31,-90885.09,-40252.36,-4090.739,-43891.24,8151.612,-1464.9252,64783.082
1311892.2335363477,-95449.305,-90884.484,-40251.793,-4092.2854,-43889.61,8153.7275,-1474.5687,64781.13
1311892.2375363668,-95462.08,-90883.55,-40245.523,-4091.553,-43886.883,8146.729,-1479.3295,64707.48
1311892.2415363858,-95479.82,-90882.29,-40240.562,-4088.013,-43883.63,8141.3984,-1480.3875,64645.793
1311892.245536405,-95483.69,-90879.68,-40240.152,-4085.8562,-43890.668,8143.8804,-1471.3135,64691.203
1311892.249536424,-95468.914,-90872.73,-40249.105,-4088.7046,-43901.816,8152.995,-1461.0189,64784.387
1311892.253536443,-95463.5,-90862.67,-40250.043,-4089.5183,-43900.84,8152.222,-1469.3197,64767.5
1311892.257536462,-95479.086,-90870.98,-40243.164,-4088.3792,-43889.527,8143.189,-1485.2295,64669.152
1311892.261536481,-95500.33,-90874.07,-40236.734,-4081.5024,-43880.293,8136.556,-1493.7338,64609.17
1311892.2655365001,-95507.61,-90877.65,-40241.945,-4082.601,-43882.367,8142.7007,-1482.7068,64651.53
1311892.2695365192,-95489.99,-90871.5,-40250.49,-4084.1472,-43890.79,8152.7104,-1468.8721,64753.867
1311892.2735365382,-95484.945,-90867.11,-40250.082,-4086.548,-43887.535,8150.7163,-1474.6094,64754.926
1311892.2775365573,-95505.13,-90863.08,-40244.508,-4086.3853,-43881.594,8143.2295,-1486.5723,64656.742
1311892.2815365763,-95515.38,-90856.2,-40241.414,-4081.828,-43875.164,8134.481,-1489.624,64599.45
1311892.2855365954,-95513.06,-90845.3,-40238.973,-4079.5085,-43878.62,8139.4453,-1475.9115,64657.35
1311892.2895366144,-95487.67,-90839.69,-40238.242,-4082.7231,-43888.594,8151.408,-1460.7748,64762.7
1311892.2935366335,-95473.59,-90840.17,-40241.13,-4088.0942,-43887.82,8151.2046,-1470.7845,64756.188
1311892.2975366525,-95487.76,-90838.055,-40232.83,-4084.8796,-43881.88,8144.1655,-1481.1199,64669.355
1311892.3015366716,-95504.805,-90840.414,-40230.875,-4080.0376,-43861.41,8136.5156,-1484.782,64604.332
1311892.3055366906,-95505.66,-90836.47,-40233.97,-4080.0784,-43865.6,8137.9805,-1474.4873,64652.754
1311892.3095367097,-95478.27,-90821.9,-40240.766,-4086.7515,-43890.83,8147.1357,-1466.2273,64751.832
1311892.3135367287,-95471.44,-90812.22,-40244.832,-4088.1755,-43884.48,8149.0483,-1481.364,64734.742
1311892.3175367478,-95492.07,-90816.2,-40241.902,-4087.606,-43874.15,8144.9385,-1494.1,64640.42
1311892.3215367668,-95502.2,-90817.55,-40235.8,-4082.886,-43872.887,8142.009,-1489.8275,64594.242
1311892.3255367859,-95499.23,-90811.12,-40232.668,-4079.3865,-43875.816,8146.037,-1472.1273,64645.875
1311892.329536805,-95485.44,-90808.48,-40239.707,-4083.659,-43883.344,8154.4194,-1462.4431,64762.74
1311892.333536824,-95475.305,-90798.83,-40242.35,-4085.368,-43883.223,8156.047,-1470.988,64742.8
1311892.337536843,-95480.92,-90792.484,-40236.695,-4082.886,-43873.78,8144.4907,-1488.4847,64638.105
1311892.341536862,-95488.734,-90799.32,-40232.18,-4079.8748,-43864.22,8137.248,-1490.7227,64583.703
1311892.3455368811,-95497.73,-90797.28,-40236.492,-4080.892,-43869.387,8140.7065,-1481.2012,64629.926
1311892.3495369002,-95480.02,-90779.7,-40241.21,-4085.0425,-43885.215,8152.181,-1466.0238,64737.633
1311892.3535369192,-95477.99,-90786.09,-40239.95,-4089.6404,-43887.535,8154.6226,-1476.766,64726.36
1311892.3575369383,-95480.875,-90786.22,-40231.977,-4084.6355,-43872.113,8148.967,-1484.4158,64645.918
1311892.3615369573,-95483.24,-90778.81,-40227.176,-4078.2065,-43866.21,8143.514,-1480.0619,64598.023
1311892.3655369764,-95479.695,-90775.8,-40228.883,-4081.177,-43863.77,8144.857,-1471.3135,64633.426
1311892.3695369954,-95462.94,-90772.46,-40237.508,-4084.6763,-43878.83,8154.2563,-1462.4431,64757.977
1311892.3735370145,-95446.695,-90762.74,-40237.43,-4087.4026,-43879.316,8156.169,-1467.2852,64745.2
1311892.3775370335,-95463.14,-90774.5,-40234.58,-4086.7922,-43866.09,8147.5425,-1481.4861,64651.492
1311892.3815370526,-95490.6,-90797.08,-40232.26,-4087.85,-43873.375,8143.1074,-1486.7758,64592.043
1311892.3855370716,-95504.84,-90815.59,-40238.363,-4090.617,-43881.594,8145.9966,-1479.3701,64630.656
1311892.3895370907,-95469.85,-90787.03,-40240.03,-4089.844,-43886.395,8154.7446,-1468.75,64736.41
1311892.3935371097,-95436.0,-90758.99,-40234.254,-4087.2805,-43872.97,8154.5415,-1476.1556,64726.28
1311892.3975371288,-95445.03,-90766.234,-40231.203,-4084.8796,-43862.47,8147.3394,-1485.2295,64626.184
1311892.4015371478,-95450.195,-90757.086,-40225.79,-4077.5962,-43852.46,8140.096,-1490.3972,64576.457
1311892.4055371669,-95442.836,-90740.28,-40228.11,-4076.0093,-43857.504,8142.009,-1482.0557,64624.555
1311892.409537186,-95409.55,-90718.34,-40229.98,-4080.0784,-43871.137,8152.059,-1470.988,64724.57
1311892.413537205,-95397.79,-90716.72,-40231.69,-4084.3508,-43865.848,8153.931,-1478.1494,64716.027
1311892.417537224,-95397.016,-90706.79,-40224.04,-4078.2878,-43848.555,8144.5723,-1492.5945,64636.234
1311892.421537243,-95404.55,-90704.51,-40219.645,-4077.7996,-43845.297,8135.2544,-1496.3379,64576.785
1311892.425537262,-95405.16,-90698.61,-40221.11,-4077.3113,-43846.68,8139.771,-1487.9558,64616.742
1311892.4295372812,-95378.664,-90684.29,-40226.93,-4076.2942,-43858.81,8150.594,-1479.9805,64717.29
1311892.4335373002,-95374.92,-90690.59,-40228.64,-4077.4333,-43847.78,8150.228,-1493.8152,64701.906
1311892.4375373193,-95393.15,-90700.16,-40224.69,-4074.8293,-43838.137,8142.5376,-1506.3884,64621.95
1311892.4415373383,-95416.016,-90715.945,-40225.3,-4077.8403,-43846.03,8134.603,-1506.3477,64561.73
1311892.4455373574,-95404.625,-90712.94,-40226.605,-4077.23,-43851.562,8137.696,-1492.3503,64609.824
1311892.4495373764,-95391.16,-90713.09,-40230.594,-4077.5962,-43858.44,8148.1123,-1480.1025,64746.83
1311892.4535373955,-95395.59,-90708.87,-40229.168,-4078.7356,-43853.152,8147.9497,-1484.2123,64729.86
1311892.4575374145,-95411.016,-90715.62,-40227.945,-4077.515,-43841.23,8139.1196,-1496.7041,64623.332
1311892.4615374336,-95420.25,-90720.26,-40225.504,-4074.1375,-43838.543,8135.5796,-1498.0876,64564.25
1311892.4655374526,-95428.71,-90723.06,-40227.54,-4072.1843,-43839.438,8142.253,-1485.1888,64604.86
1311892.4695374717,-95410.41,-90719.69,-40235.19,-4075.521,-43849.53,8151.856,-1474.3652,64711.266
1311892.4735374907,-95397.914,-90717.57,-40236.41,-4079.0203,-43850.71,8149.1704,-1483.3171,64711.754
1311892.4775375098,-95407.23,-90727.83,-40231.16,-4078.8577,-43851.973,8140.8696,-1494.222,64624.758
1311892.4815375288,-95420.82,-90730.63,-40228.965,-4075.521,-43843.305,8134.1963,-1497.2738,64561.2
1311892.4855375479,-95413.49,-90726.56,-40230.797,-4074.5444,-43850.914,8135.7427,-1483.6833,64602.785
1311892.489537567,-95389.0,-90717.98,-40239.83,-4078.0032,-43857.18,8146.607,-1473.5922,64706.34
1311892.493537586,-95377.484,-90710.57,-40240.316,-4080.9329,-43856.57,8148.4785,-1482.015,64697.55
1311892.497537605,-95393.92,-90717.41,-40234.215,-4076.3755,-43843.508,8142.497,-1492.8793,64615.113
1311892.501537624,-95408.05,-90717.77,-40225.383,-4072.632,-43841.84,8134.6846,-1495.809,64565.188
1311892.505537643,-95410.04,-90721.6,-40226.93,-4072.9983,-43846.273,8135.8647,-1486.2875,64616.215
1311892.5095376621,-95390.71,-90717.82,-40232.504,-4075.1548,-43863.16,8148.1123,-1469.93,64718.508
1311892.5135376812,-95374.31,-90705.2,-40226.035,-4073.934,-43854.004,8150.92,-1472.7783,64710.734
1311892.5175377002,-95386.11,-90710.01,-40222.656,-4073.934,-43840.375,8143.067,-1482.7474,64625.45
1311892.5215377193,-95399.82,-90711.63,-40223.633,-4072.7542,-43839.805,8136.9224,-1487.9965,64568.85
1311892.5255377383,-95393.48,-90699.305,-40225.87,-4070.3127,-43845.785,8140.2183,-1474.6908,64622.887
1311892.5295377574,-95376.95,-90700.24,-40231.082,-4073.4458,-43857.016,8149.699,-1466.3494,64722.453
1311892.5335377764,-95364.99,-90693.73,-40225.26,-4074.6665,-43859.906,8148.3564,-1476.8881,64714.887
1311892.5375377955,-95369.55,-90687.42,-40215.902,-4073.1204,-43858.277,8143.3516,-1488.7289,64631.88
1311892.5415378145,-95386.805,-90697.875,-40212.73,-4072.0217,-43850.63,8134.1147,-1491.862,64573.082
1311892.5455378336,-95397.42,-90704.59,-40215.332,-4073.1204,-43851.973,8136.2715,-1484.2123,64620.688
1311892.5495378526,-95379.6,-90701.42,-40222.414,-4078.817,-43863.16,8150.472,-1473.6736,64719.16
1311892.5535378717,-95372.234,-90693.2,-40225.3,-4080.485,-43858.48,8149.984,-1485.3516,64701.05
1311892.5575378907,-95386.195,-90694.664,-40222.902,-4077.352,-43853.19,8142.945,-1492.391,64613.69
1311892.5615379098,-95399.62,-90693.93,-40220.01,-4073.0388,-43844.65,8136.353,-1497.3959,64560.875
1311892.5655379288,-95397.22,-90693.61,-40222.168,-4071.981,-43839.64,8139.364,-1488.7289,64608.766
1311892.569537948,-95379.88,-90694.99,-40227.5,-4079.183,-43866.984,8151.408,-1472.3715,64691.285
1311892.573537967,-95364.55,-90694.664,-40222.37,-4080.5667,-43865.562,8151.693,-1480.957,64697.105
1311892.577537986,-95370.32,-90691.695,-40219.645,-4078.654,-43856.406,8142.2124,-1496.5007,64606.938
1311892.581538005,-95381.92,-90681.44,-40217.57,-4073.7712,-43850.344,8135.946,-1496.9482,64567.793
1311892.585538024,-95377.08,-90671.63,-40216.797,-4068.4817,-43849.938,8142.5376,-1477.0101,64630.453
1311892.5895380431,-95350.586,-90669.27,-40216.35,-4070.394,-43855.836,8154.1343,-1462.4838,64731.938
1311892.5935380622,-95345.95,-90670.29,-40216.434,-4074.3816,-43849.246,8156.0874,-1469.8894,64702.477
1311892.5975380812,-95349.33,-90661.91,-40207.684,-4069.865,-43843.02,8146.973,-1484.1309,64621.42
1311892.6015381003,-95362.06,-90666.22,-40206.746,-4065.8367,-43834.637,8141.8867,-1489.7461,64570.883
1311892.6055381193,-95361.82,-90663.54,-40211.957,-4066.569,-43839.152,8143.555,-1480.3875,64625.773
1311892.6095381384,-95338.38,-90644.695,-40214.844,-4065.023,-43851.973,8152.303,-1473.3074,64724.043
1311892.6135381574,-95335.66,-90636.805,-40216.637,-4066.203,-43847.332,8151.815,-1485.3923,64702.844
1311892.6175381765,-95341.88,-90633.18,-40209.23,-4066.6099,-43837.117,8143.067,-1496.7449,64613.812
1311892.6215381955,-95363.24,-90633.1,-40205.77,-4062.7444,-43824.586,8138.6313,-1503.418,64559.855
1311892.6255382146,-95363.69,-90629.516,-40204.754,-4059.4485,-43836.305,8143.148,-1491.6179,64612.55
1311892.6295382336,-95330.24,-90614.79,-40209.066,-4061.89,-43847.74,8148.56,-1481.2012,64713.46
1311892.6335382527,-95306.484,-90605.8,-40206.543,-4064.1277,-43843.914,8148.519,-1488.7289,64705.285
1311892.6375382717,-95294.4,-90593.43,-40193.117,-4057.78,-43829.51,8138.6724,-1498.4131,64640.22
1311892.6415382908,-95293.91,-90580.98,-40186.85,-4050.4153,-43820.68,8133.5044,-1496.0938,64590.902
1311892.6455383098,-95278.2,-90553.555,-40184.41,-4046.7937,-43822.188,8138.184,-1485.3109,64637.453
1311892.6495383289,-95235.64,-90526.0,-40183.105,-4045.4917,-43833.54,8150.106,-1474.2432,64738.49
1311892.653538348,-95204.35,-90499.63,-40176.066,-4044.271,-43826.297,8145.3047,-1486.9792,64718.14
1311892.657538367,-95207.12,-90485.64,-40171.184,-4040.853,-43813.234,8132.447,-1505.9408,64620.688
1311892.661538386,-95203.82,-90472.86,-40161.297,-4035.604,-43809.98,8125.5293,-1511.6781,64561.28
1311892.665538405,-95195.97,-90460.984,-40166.26,-4035.319,-43812.137,8129.11,-1504.0691,64599.164
1311892.6695384241,-95149.78,-90419.64,-40163.25,-4032.2673,-43822.594,8140.3,-1499.9187,64688.03
1311892.6735384432,-95132.66,-90396.0,-40159.26,-4033.0813,-43810.06,8138.2246,-1515.6658,64657.51
1311892.6775384622,-95143.35,-90396.33,-40154.664,-4028.4426,-43797.85,8129.3135,-1523.3969,64582.277
1311892.6815384813,-95146.65,-90393.35,-40148.766,-4026.3267,-43795.332,8121.257,-1530.3142,64534.508
1311892.6855385003,-95134.28,-90386.97,-40145.754,-4022.7866,-43792.645,8124.5933,-1520.2637,64592.41
1311892.6895385194,-95106.85,-90376.67,-40151.082,-4025.513,-43802.41,8135.7017,-1503.9877,64694.258
1311892.6935385384,-95090.62,-90360.35,-40156.13,-4027.2625,-43803.266,8133.6265,-1512.085,64678.59
1311892.6975385575,-95113.164,-90364.914,-40147.625,-4025.228,-43794.637,8127.1567,-1524.0072,64588.42
1311892.7015385765,-95136.84,-90369.305,-40137.82,-4020.6707,-43788.902,8125.6514,-1524.821,64534.02
1311892.7055385956,-95141.234,-90372.89,-40137.74,-4018.6362,-43797.69,8132.365,-1510.2133,64579.875
1311892.7095386146,-95132.086,-90386.64,-40147.95,-4026.1233,-43811.24,8140.3813,-1500.8953,64680.79
1311892.7135386337,-95133.1,-90398.195,-40153.08,-4030.8025,-43810.63,8136.068,-1510.0912,64674.523
1311892.7175386527,-95165.81,-90419.766,-40155.76,-4031.2095,-43796.43,8126.2617,-1521.8914,64590.375
1311892.7215386718,-95185.75,-90433.92,-40153.65,-4028.768,-43799.6,8122.03,-1518.4326,64535.16
1311892.7255386908,-95199.22,-90447.35,-40161.418,-4033.4475,-43806.438,8125.3667,-1508.8298,64586.1
1311892.7295387099,-95197.02,-90457.69,-40171.793,-4039.3474,-43821.453,8137.248,-1500.9766,64683.758
1311892.733538729,-95201.336,-90458.26,-40171.59,-4043.3352,-43822.918,8138.9976,-1509.0332,64676.434
1311892.737538748,-95225.586,-90471.48,-40167.523,-4042.5212,-43812.01,8131.2666,-1522.1761,64581.547
1311892.741538767,-95257.66,-90487.71,-40168.133,-4038.1267,-43808.797,8128.0522,-1522.3389,64540.812
1311892.745538786,-95271.65,-90504.516,-40174.195,-4040.8123,-43822.51,8135.7427,-1499.3896,64615.645
1311892.749538805,-95266.36,-90515.22,-40185.63,-4048.4214,-43838.664,8146.729,-1485.9213,64710.613
1311892.7535388242,-95269.125,-90512.125,-40189.293,-4052.6938,-43834.027,8146.851,-1494.5883,64694.543
1311892.7575388432,-95288.78,-90515.586,-40182.82,-4048.5842,-43820.883,8136.9634,-1508.6263,64611.86
1311892.7615388623,-95312.586,-90523.93,-40179.2,-4045.2883,-43822.836,8131.104,-1512.8174,64556.684
1311892.7655388813,-95315.63,-90519.29,-40180.42,-4044.8813,-43832.316,8137.492,-1499.5931,64608.727
1311892.7695389003,-95307.17,-90514.57,-40185.305,-4052.0022,-43843.71,8148.2344,-1486.8978,64702.68
1311892.7735389194,-95299.4,-90509.4,-40183.88,-4054.0366,-43839.4,8148.56,-1501.7498,64684.367
1311892.7775389384,-95322.31,-90504.234,-40182.7,-4050.6594,-43829.918,8143.189,-1517.0085,64598.31
1311892.7815389575,-95353.68,-90497.68,-40176.84,-4045.4917,-43823.652,8138.957,-1514.2416,64542.81
1311892.7855389765,-95360.03,-90500.57,-40182.58,-4044.271,-43820.844,8142.009,-1498.9421,64591.92
1311892.7895389956,-95356.2,-90502.16,-40193.2,-4051.351,-43835.98,8152.629,-1488.1185,64694.5
1311892.7935390146,-95353.31,-90492.555,-40193.156,-4055.3386,-43841.797,8154.4194,-1491.2924,64693.117
1311892.7975390337,-95362.39,-90488.33,-40189.453,-4055.0132,-43835.613,8148.072,-1497.5994,64618.246
1311892.8015390527,-95374.72,-90482.71,-40185.832,-4049.927,-43834.598,8144.979,-1486.5723,64576.254
1311892.8055390718,-95365.484,-90461.8,-40187.055,-4048.6248,-43841.92,8151.0015,-1463.3789,64635.746
1311892.8095390908,-95341.84,-90448.53,-40193.766,-4051.9614,-43844.484,8163.0454,-1448.1609,64751.305
1311892.81353911,-95335.25,-90439.82,-40193.277,-4056.6814,-43843.465,8162.8013,-1455.6478,64740.805
1311892.817539129,-95348.39,-90434.414,-40186.85,-4056.3967,-43835.29,8153.809,-1473.5515,64648.48
1311892.821539148,-95367.03,-90433.48,-40185.305,-4051.758,-43819.5,8146.322,-1485.2703,64579.387
1311892.825539167,-95380.49,-90422.484,-40188.805,-4053.223,-43826.254,8150.228,-1475.9521,64629.4
1311892.829539186,-95358.32,-90393.11,-40189.453,-4054.362,-43842.246,8162.191,-1459.0658,64768.8
1311892.8335392051,-95352.26,-90380.984,-40189.58,-4057.658,-43835.613,8163.1675,-1463.8265,64749.676
1311892.8375392242,-95361.984,-90379.73,-40184.49,-4054.4028,-43826.17,8155.64,-1472.2087,64655.4
1311892.8415392432,-95360.4,-90373.984,-40181.195,-4051.0662,-43827.598,8147.1357,-1475.2605,64617.72
1311892.8455392623,-95359.17,-90357.305,-40183.473,-4051.9207,-43831.87,8147.095,-1471.4355,64658.977
1311892.8495392813,-95353.44,-90352.625,-40192.14,-4057.2917,-43843.06,8157.105,-1465.617,64744.184
1311892.8535393004,-95354.17,-90335.164,-40191.12,-4057.7395,-43838.582,8159.953,-1471.639,64730.473
1311892.8575393194,-95372.12,-90327.516,-40184.45,-4055.6643,-43828.125,8153.524,-1487.8337,64641.81
1311892.8615393385,-95393.31,-90321.29,-40180.707,-4051.8801,-43826.863,8146.851,-1492.7979,64600.668
1311892.8655393575,-95399.26,-90318.69,-40183.066,-4053.1008,-43835.004,8150.9604,-1479.8584,64660.77
1311892.8695393766,-95379.73,-90313.84,-40185.63,-4058.1462,-43851.074,8160.075,-1467.6514,64745.242
1311892.8735393956,-95366.62,-90291.34,-40185.793,-4057.3733,-43853.355,8159.4243,-1469.8894,64740.6
1311892.8775394147,-95371.79,-90274.87,-40181.887,-4052.4497,-43834.312,8147.7056,-1482.2998,64651.613
1311892.8815394337,-95384.12,-90271.41,-40177.246,-4049.113,-43820.76,8141.3984,-1481.6895,64598.066
1311892.8855394528,-95382.66,-90247.36,-40176.027,-4047.5261,-43833.05,8149.1704,-1462.6058,64660.28
1311892.8895394718,-95374.43,-90228.97,-40181.316,-4052.0835,-43844.85,8161.3774,-1451.4974,64762.94
1311892.8935394909,-95375.086,-90232.75,-40180.094,-4055.7864,-43843.914,8160.0347,-1463.6638,64748.617
1311892.8975395102,-95389.08,-90224.734,-40170.777,-4050.3745,-43838.992,8150.472,-1478.7191,64663.82
1311892.9015395292,-95397.055,-90210.695,-40168.297,-4045.8987,-43830.203,8144.857,-1482.9509,64607.06
1311892.9055395483,-95400.88,-90210.66,-40173.258,-4047.3635,-43838.746,8148.275,-1478.0273,64656.535
1311892.9095395673,-95384.56,-90202.07,-40180.707,-4051.1882,-43854.37,8158.122,-1468.9128,64756.88
1311892.9135395864,-95382.164,-90192.51,-40181.152,-4053.6296,-43852.664,8158.2847,-1480.0619,64749.23
1311892.9175396054,-95393.64,-90191.25,-40173.91,-4049.276,-43839.766,8151.693,-1488.4847,64660.688
1311892.9215396245,-95413.086,-90185.266,-40170.9,-4046.8345,-43836.875,8146.688,-1486.084,64613.16
1311892.9255396435,-95407.15,-90170.86,-40169.84,-4043.1724,-43834.676,8151.164,-1470.9066,64671.88
1311892.9295396626,-95391.69,-90155.6,-40172.566,-4045.858,-43841.92,8159.953,-1462.6465,64772.91
1311892.9335396816,-95391.445,-90136.195,-40168.945,-4050.0083,-43848.51,8158.814,-1474.1619,64755.58
1311892.9375397007,-95402.02,-90118.53,-40162.723,-4047.3228,-43835.004,8152.507,-1485.3923,64666.586
1311892.9415397197,-95412.234,-90113.0,-40157.227,-4042.684,-43825.074,8149.7397,-1483.6019,64606.69
1311892.9455397388,-95421.1,-90104.125,-40161.176,-4043.1724,-43835.734,8153.768,-1466.5527,64657.23
1311892.9495397578,-95404.016,-90088.38,-40167.24,-4050.0083,-43852.582,8163.615,-1457.8857,64759.074
1311892.9535397768,-95402.51,-90078.58,-40170.25,-4053.3855,-43846.395,8163.778,-1471.4763,64740.24
1311892.957539796,-95421.63,-90072.23,-40168.215,-4052.4905,-43831.42,8154.6226,-1491.3738,64659.465
1311892.961539815,-95439.82,-90058.96,-40165.527,-4049.1538,-43828.125,8146.7695,-1494.222,64608.523
1311892.965539834,-95435.51,-90032.59,-40160.156,-4045.2883,-43828.816,8151.5303,-1479.533,64661.83
1311892.969539853,-95414.67,-90016.52,-40165.242,-4049.4792,-43845.99,8161.1333,-1467.7328,64759.89
1311892.973539872,-95417.81,-90007.57,-40164.633,-4051.4731,-43848.145,8161.1333,-1475.3011,64745.566
1311892.9775398911,-95437.79,-90003.09,-40159.793,-4048.4214,-43835.125,8152.181,-1487.3861,64690.594
1311892.9815399102,-95460.984,-90000.94,-40154.055,-4044.678,-43828.94,8146.4033,-1490.0717,64630.453
1311892.9855399292,-95478.27,-89990.44,-40157.473,-4045.3696,-43830.12,8154.5415,-1474.3652,64669.312
1311892.9895399483,-95479.58,-89977.09,-40166.547,-4051.7986,-43836.754,8164.5103,-1467.2445,64766.156
1311892.9935399673,-95468.43,-89959.19,-40164.676,-4053.1821,-43834.395,8166.9927,-1472.4935,64764.934
1311892.9975399864,-95477.79,-89947.39,-40153.77,-4049.113,-43826.945,8159.6274,-1477.8646,64675.457
1311893.0015400054,-95488.89,-89935.1,-40147.22,-4039.7952,-43817.14,8151.7744,-1483.4392,64626.184
1311893.0055400245,-95493.94,-89930.09,-40147.016,-4041.4634,-43830.16,8153.687,-1475.0977,64682.824
1311893.0095400435,-95484.17,-89919.805,-40154.42,-4048.0144,-43843.223,8163.493,-1469.3604,64771.65
1311893.0135400626,-95484.3,-89916.67,-40155.316,-4051.4731,-43841.434,8162.7607,-1479.4515,64751.832
1311893.0175400816,-95491.46,-89912.6,-40144.086,-4046.3462,-43830.85,8154.46,-1486.2468,64673.18
1311893.0215401007,-95508.67,-89901.62,-40137.82,-4042.155,-43824.14,8148.438,-1487.793,64623.09
1311893.0255401197,-95513.875,-89893.44,-40142.906,-4043.091,-43817.75,8154.1343,-1479.3295,64679.406
1311893.0295401388,-95503.18,-89894.375,-40149.008,-4047.404,-43832.97,8165.731,-1466.0238,64775.92
1311893.0335401578,-95508.47,-89898.52,-40151.938,-4053.6704,-43833.742,8164.958,-1469.157,64760.906
1311893.0375401769,-95537.516,-89891.32,-40143.395,-4051.2698,-43827.516,8153.8496,-1485.9619,64676.15
1311893.041540196,-95570.56,-89894.05,-40140.18,-4047.7703,-43819.418,8149.984,-1488.4033,64625.613
1311893.045540215,-95571.05,-89893.64,-40145.633,-4044.4744,-43821.37,8156.657,-1472.4935,64694.38
1311893.049540234,-95549.16,-89879.6,-40147.176,-4047.8923,-43834.188,8166.423,-1457.1533,64797.61
1311893.053540253,-95548.99,-89863.57,-40142.66,-4050.5374,-43838.867,8167.359,-1461.7513,64785.523
1311893.0575402721,-95587.08,-89864.586,-40137.207,-4050.2524,-43830.61,8159.953,-1474.2839,64696.21
1311893.0615402912,-95640.55,-89867.84,-40136.598,-4047.1194,-43815.188,8156.861,-1478.3529,64625.855
1311893.0655403102,-95649.5,-89858.97,-40137.29,-4045.0442,-43817.305,8163.249,-1462.0361,64667.973
1311893.0695403293,-95644.33,-89851.65,-40147.137,-4050.7407,-43830.77,8168.9863,-1453.5726,64772.91
1311893.0735403483,-95667.12,-89848.266,-40148.766,-4053.1821,-43831.746,8166.545,-1465.617,64775.555
1311893.0775403674,-95697.92,-89849.81,-40143.066,-4050.822,-43823.773,8157.3896,-1480.957,64697.473
1311893.0815403864,-95720.79,-89850.55,-40137.207,-4045.7766,-43814.94,8155.0703,-1482.015,64639.855
1311893.0855404055,-95734.7,-89857.055,-40139.242,-4046.3054,-43823.57,8160.1567,-1468.1396,64694.46
1311893.0895404245,-95750.82,-89848.06,-40146.16,-4053.9958,-43840.58,8170.2476,-1459.2285,64787.76
1311893.0935404436,-95782.48,-89849.53,-40148.6,-4058.1057,-43831.055,8171.8345,-1472.4121,64767.254
1311893.0975404626,-95820.27,-89853.195,-40148.074,-4053.6296,-43821.13,8161.54,-1490.1531,64691.53
1311893.1015404817,-95861.984,-89860.11,-40143.92,-4048.7063,-43821.168,8155.762,-1493.449,64618.734
1311893.1055405007,-95890.586,-89854.695,-40144.207,-4047.9739,-43826.54,8157.1455,-1485.2295,64675.375
1311893.1095405198,-95902.75,-89839.16,-40145.633,-4051.7986,-43842.41,8167.1553,-1468.9941,64783.695
1311893.1135405388,-95946.945,-89830.69,-40146.566,-4053.5076,-43831.992,8166.8706,-1472.4121,64771.16
1311893.1175405579,-95986.21,-89826.5,-40139.934,-4048.6248,-43821.047,8160.97,-1479.248,64688.234
1311893.121540577,-96033.37,-89826.13,-40136.395,-4047.567,-43818.24,8157.5117,-1483.3984,64632.246
1311893.125540596,-96062.664,-89828.05,-40140.22,-4050.3337,-43824.504,8161.784,-1477.4984,64679.28
1311893.129540615,-96071.21,-89830.61,-40149.863,-4053.7112,-43829.59,8171.9976,-1469.1976,64775.27
1311893.133540634,-96078.21,-89816.29,-40146.73,-4055.1353,-43825.93,8169.271,-1477.0916,64763.633
1311893.137540653,-96094.65,-89808.27,-40135.17,-4048.0144,-43816.33,8162.069,-1481.9744,64691.53
1311893.1415406722,-96119.47,-89808.23,-40130.574,-4044.2302,-43807.496,8159.587,-1477.2136,64640.63
1311893.1455406912,-96141.445,-89810.914,-40131.105,-4044.2302,-43804.402,8168.6606,-1463.0535,64694.133
1311893.1495407103,-96126.47,-89802.37,-40132.203,-4045.0847,-43823.367,8180.1353,-1450.765,64795.98
1311893.1535407293,-96127.41,-89795.62,-40133.3,-4046.387,-43826.62,8178.345,-1462.85,64777.348
1311893.1575407484,-96150.35,-89792.89,-40128.055,-4044.4338,-43813.355,8166.3823,-1484.904,64684.777
1311893.1615407674,-96172.81,-89782.48,-40121.094,-4041.3005,-43808.473,8161.7026,-1487.6709,64645.55
1311893.1655407865,-96173.38,-89780.32,-40127.402,-4040.8938,-43810.875,8168.0913,-1472.3308,64705.363
1311893.1695408055,-96145.39,-89768.07,-40128.01,-4042.2366,-43821.98,8182.0073,-1451.7822,64807.78
1311893.1735408246,-96133.06,-89759.52,-40124.637,-4045.4917,-43821.656,8182.17,-1456.3396,64798.016
1311893.1775408436,-96150.44,-89758.266,-40120.605,-4044.0676,-43810.547,8175.985,-1467.1224,64711.47
1311893.1815408627,-96179.89,-89763.266,-40117.105,-4040.3647,-43803.145,8169.068,-1476.9695,64645.51
1311893.1855408817,-96183.555,-89759.195,-40121.707,-4036.3364,-43804.566,8170.0444,-1464.3148,64701.664
1311893.1895409008,-96173.18,-89755.336,-40128.418,-4039.673,-43814.74,8179.8506,-1452.0264,64777.67
1311893.1935409198,-96184.25,-89751.14,-40130.25,-4042.5212,-43812.46,8180.461,-1463.9486,64764.12
1311893.1975409389,-96221.07,-89750.33,-40126.668,-4042.1958,-43802.98,8173.7876,-1475.8301,64688.355
1311893.201540958,-96244.71,-89739.664,-40117.105,-4037.964,-43799.562,8169.068,-1471.1508,64650.23
1311893.205540977,-96253.22,-89731.29,-40117.35,-4038.2896,-43808.23,8173.991,-1457.8451,64714.316
1311893.209540996,-96243.66,-89732.016,-40125.082,-4044.0269,-43828.695,8184.1636,-1450.765,64805.543
1311893.213541015,-96252.04,-89734.984,-40129.965,-4046.0613,-43820.027,8183.472,-1464.5996,64773.074
1311893.217541034,-96273.766,-89734.58,-40122.355,-4043.0503,-43803.145,8173.1772,-1482.2592,64685.508
1311893.2215410531,-96291.914,-89734.984,-40120.85,-4039.266,-43792.32,8167.1553,-1479.5736,64642.582
1311893.2255410722,-96277.96,-89732.914,-40125.164,-4039.673,-43809.043,8172.5264,-1465.332,64697.797
1311893.2295410912,-96245.89,-89714.16,-40131.594,-4043.091,-43822.145,8180.0947,-1459.2285,64811.566
1311893.2335411103,-96225.63,-89694.26,-40125.938,-4044.0269,-43821.37,8177.735,-1463.908,64800.457
1311893.2375411293,-96243.45,-89695.6,-40118.164,-4042.7249,-43806.844,8167.684,-1477.7019,64703.82
1311893.2415411484,-96262.21,-89704.23,-40111.695,-4038.0454,-43805.992,8163.371,-1484.0088,64638.754
1311893.2455411674,-96263.266,-89709.11,-40113.242,-4038.8186,-43821.777,8168.0913,-1473.3887,64692.508
1311893.2495411865,-96242.31,-89710.86,-40124.066,-4042.44,-43827.965,8179.0366,-1461.9141,64789.227
1311893.2535412055,-96244.875,-89721.766,-40130.984,-4050.049,-43824.547,8179.9727,-1467.6514,64775.72
1311893.2575412246,-96259.12,-89714.16,-40122.234,-4045.4917,-43816.734,8171.7534,-1479.4922,64687.625
1311893.2615412436,-96271.98,-89688.27,-40112.957,-4038.1675,-43810.02,8163.4116,-1488.9324,64623.457
1311893.2655412627,-96274.58,-89692.75,-40118.53,-4038.3708,-43816.734,8170.207,-1476.9695,64674.727
1311893.2695412817,-96240.32,-89682.78,-40120.32,-4038.0454,-43830.28,8179.118,-1467.6107,64781.742
1311893.2735413008,-96224.734,-89675.625,-40116.945,-4037.1096,-43822.188,8179.1587,-1476.6033,64763.633
1311893.2775413198,-96228.03,-89664.555,-40111.574,-4035.075,-43816.0,8169.8813,-1487.1013,64677.37
1311893.281541339,-96241.01,-89655.195,-40109.703,-4032.8372,-43805.42,8160.0347,-1493.571,64624.555
1311893.285541358,-96228.805,-89647.625,-40110.066,-4031.1282,-43806.766,8163.697,-1484.2123,64676.395
1311893.289541377,-96205.28,-89637.74,-40112.836,-4034.953,-43820.234,8174.886,-1474.9756,64767.582
1311893.293541396,-96203.375,-89641.6,-40115.562,-4039.551,-43812.137,8175.5376,-1485.7585,64750.246
1311893.297541415,-96204.266,-89637.05,-40106.812,-4034.9937,-43799.727,8168.5796,-1497.3552,64672.73
1311893.3015414341,-96225.34,-89640.47,-40104.41,-4032.186,-43796.348,8163.371,-1496.6635,64623.863
1311893.3055414532,-96229.01,-89639.08,-40109.5,-4033.1626,-43811.2,8169.19,-1479.8992,64691.203
1311893.3095414722,-96208.74,-89637.49,-40115.195,-4038.6965,-43819.785,8177.2056,-1477.3357,64782.23
1311893.3135414913,-96196.945,-89628.79,-40113.812,-4039.9985,-43819.297,8175.3745,-1484.0902,64765.586
1311893.3175415103,-96201.375,-89626.23,-40104.332,-4035.889,-43803.71,8169.149,-1492.0248,64688.438
1311893.3215415294,-96215.58,-89608.93,-40096.926,-4029.7039,-43794.844,8164.266,-1493.2455,64636.56
1311893.3255415484,-96221.03,-89616.62,-40097.94,-4029.5005,-43798.87,8168.5796,-1486.6537,64684.492
1311893.3295415675,-96202.88,-89606.2,-40103.312,-4031.4128,-43812.5,8181.6816,-1474.9349,64774.133
1311893.3335415865,-96201.42,-89603.56,-40105.875,-4037.435,-43812.34,8183.309,-1482.9102,64749.516
1311893.3375416056,-96217.29,-89611.53,-40101.035,-4036.7026,-43807.54,8178.508,-1490.3158,64668.785
1311893.3415416246,-96239.34,-89616.375,-40098.348,-4033.2034,-43799.074,8173.4624,-1491.2517,64617.516
1311893.3455416437,-96252.57,-89611.9,-40103.64,-4033.3254,-43804.973,8178.752,-1471.8018,64685.957
1311893.3495416627,-96245.164,-89601.65,-40110.27,-4035.9294,-43816.773,8186.605,-1459.2285,64797.324
1311893.3535416818,-96232.55,-89595.99,-40105.836,-4036.1736,-43810.184,8186.076,-1469.9707,64785.973
1311893.3575417008,-96244.23,-89597.91,-40099.938,-4033.7322,-43794.883,8178.6704,-1479.5736,64697.51
1311893.3615417199,-96271.94,-89588.5,-40096.883,-4032.3894,-43789.348,8171.143,-1480.1433,64649.254
1311893.365541739,-96289.88,-89593.836,-40104.13,-4032.186,-43795.535,8177.6533,-1465.6982,64704.51
1311893.369541758,-96266.32,-89573.85,-40103.19,-4033.244,-43810.875,8188.7617,-1454.7933,64805.137
1311893.373541777,-96264.734,-89565.06,-40100.465,-4034.7495,-43807.05,8186.361,-1466.9597,64784.996
1311893.377541796,-96302.78,-89562.75,-40095.543,-4033.4475,-43792.81,8180.2573,-1481.7709,64686.402
1311893.3815418151,-96346.4,-89578.9,-40094.484,-4028.6868,-43783.0,8174.968,-1491.5365,64615.805
1311893.3855418342,-96361.82,-89588.664,-40102.38,-4031.8606,-43793.01,8176.595,-1476.9287,64690.15
1311893.3895418532,-96345.586,-89578.17,-40105.55,-4031.657,-43803.996,8188.111,-1459.3914,64806.316
1311893.3935418723,-96337.445,-89559.77,-40102.01,-4032.5522,-43798.504,8189.372,-1462.1582,64799.44
1311893.3975418913,-96359.54,-89554.08,-40095.582,-4031.4944,-43786.215,8179.891,-1475.1384,64712.445
1311893.4015419104,-96379.97,-89554.81,-40090.82,-4027.9543,-43781.863,8174.6016,-1475.9521,64669.438
1311893.4055419294,-96379.03,-89557.13,-40094.89,-4028.361,-43789.676,8180.0947,-1461.3037,64732.87
1311893.4095419485,-96375.62,-89558.84,-40104.332,-4034.424,-43793.906,8190.389,-1452.6775,64826.824
1311893.4135419675,-96376.47,-89554.61,-40102.418,-4036.6213,-43799.805,8190.7554,-1465.4541,64805.95
1311893.4175419866,-96397.79,-89555.34,-40092.734,-4030.3142,-43787.64,8181.6,-1484.6599,64700.81
1311893.4215420056,-96423.586,-89557.17,-40088.46,-4024.048,-43778.605,8176.27,-1486.2468,64654.992
1311893.4255420247,-96429.65,-89554.2,-40092.043,-4027.7507,-43782.31,8184.123,-1469.3604,64719.89
1311893.4295420437,-96416.47,-89553.67,-40099.04,-4029.5005,-43794.8,8193.4,-1460.0017,64819.867
1311893.4335420628,-96411.055,-89544.68,-40095.582,-4028.4019,-43794.434,8190.2266,-1465.8611,64815.594
1311893.4375420818,-96433.39,-89538.91,-40093.426,-4028.6052,-43782.594,8178.345,-1479.3701,64723.918
1311893.4415421009,-96452.516,-89545.9,-40090.82,-4027.5881,-43775.84,8171.5093,-1483.9275,64661.83
1311893.44554212,-96449.95,-89550.13,-40092.203,-4026.7742,-43789.55,8180.1763,-1471.8425,64717.043
1311893.449542139,-96437.055,-89555.95,-40097.617,-4032.8777,-43802.125,8191.1626,-1463.4603,64796.47
1311893.453542158,-96431.766,-89549.4,-40094.24,-4033.1626,-43798.3,8187.989,-1474.3246,64787.64
1311893.457542177,-96444.38,-89537.27,-40087.65,-4027.2625,-43779.582,8179.688,-1482.7068,64706.79
1311893.461542196,-96456.914,-89533.66,-40087.2,-4022.095,-43768.477,8174.154,-1481.7709,64650.35
1311893.4655422152,-96445.56,-89527.836,-40086.957,-4022.6646,-43782.473,8180.5015,-1460.4086,64719.2
1311893.4695422342,-96418.016,-89518.6,-40089.316,-4025.0247,-43795.94,8190.023,-1450.6023,64821.414
1311893.4735422533,-96405.6,-89518.6,-40088.22,-4026.8962,-43794.8,8189.4126,-1466.7156,64799.074
1311893.4775422723,-96422.9,-89522.42,-40085.53,-4026.1233,-43778.32,8180.3794,-1479.1667,64699.832
1311893.4815422914,-96436.37,-89523.69,-40078.98,-4022.095,-43778.934,8175.3745,-1485.0668,64640.42
1311893.4855423104,-96425.83,-89520.555,-40081.098,-4020.264,-43781.902,8182.6987,-1474.9349,64706.992
1311893.4895423295,-96404.42,-89517.54,-40092.203,-4023.8853,-43791.547,8190.7554,-1463.8672,64807.336
1311893.4935423485,-96401.45,-89519.414,-40092.164,-4027.222,-43791.832,8190.837,-1467.1224,64795.29
1311893.4975423675,-96408.77,-89511.97,-40079.836,-4024.699,-43783.043,8183.0244,-1478.2308,64702.355
1311893.5015423866,-96429.484,-89513.305,-40073.934,-4020.0198,-43777.223,8179.403,-1479.0447,64644.086
1311893.5055424056,-96423.586,-89514.37,-40079.633,-4021.566,-43785.156,8185.5474,-1462.0361,64724.367
1311893.5095424247,-96403.164,-89504.64,-40087.04,-4025.3093,-43798.543,8196.33,-1450.8871,64823.57
1311893.5135424437,-96384.56,-89497.64,-40086.1,-4024.7805,-43793.38,8197.388,-1457.6824,64811.934
1311893.5175424628,-96392.54,-89501.23,-40084.188,-4024.4548,-43780.805,8192.099,-1468.3025,64719.89
1311893.5215424818,-96402.47,-89501.914,-40077.395,-4022.4204,-43783.53,8187.4595,-1469.7673,64667.727
1311893.525542501,-96395.43,-89496.586,-40078.125,-4019.3687,-43783.33,8189.616,-1460.2865,64727.95
1311893.52954252,-96387.695,-89495.73,-40082.684,-4023.6003,-43790.773,8198.527,-1450.643,64827.434
1311893.533542539,-96375.62,-89490.73,-40081.383,-4025.106,-43790.855,8201.66,-1451.9857,64815.434
1311893.537542558,-96380.74,-89491.945,-40079.184,-4022.5017,-43776.33,8195.231,-1457.8857,64731.938
1311893.541542577,-96394.62,-89496.75,-40079.02,-4020.9963,-43777.508,8189.1685,-1462.2803,64685.875
1311893.5455425961,-96369.875,-89488.57,-40084.434,-4019.979,-43780.805,8191.4473,-1454.5085,64754.355
1311893.5495426152,-96326.91,-89483.93,-40090.58,-4024.0073,-43791.18,8202.067,-1449.3408,64850.832
1311893.5535426342,-96313.44,-89484.91,-40091.188,-4026.5708,-43793.703,8201.66,-1458.5775,64824.547
1311893.5575426533,-96323.41,-89490.93,-40085.207,-4024.9026,-43784.59,8192.383,-1473.5107,64719.85
1311893.5615426723,-96350.1,-89495.0,-40082.52,-4021.973,-43773.438,8183.5127,-1478.9226,64667.2
1311893.5655426914,-96343.55,-89489.71,-40085.164,-4015.7878,-43769.125,8188.884,-1465.332,64727.867
1311893.5695427104,-96315.59,-89481.9,-40090.496,-4020.7114,-43786.055,8200.969,-1453.8574,64829.145
1311893.5735427295,-96312.75,-89480.02,-40093.875,-4025.228,-43787.56,8200.521,-1465.2507,64802.37
1311893.5775427485,-96324.14,-89487.67,-40091.31,-4024.821,-43777.914,8189.2095,-1475.4232,64715.902
1311893.5815427676,-96321.49,-89474.61,-40082.316,-4018.7583,-43766.645,8180.827,-1479.6143,64663.617
1311893.5855427866,-96312.3,-89471.48,-40080.69,-4016.6423,-43777.71,8187.012,-1469.6453,64728.926
1311893.5895428057,-96290.53,-89471.84,-40090.008,-4021.8914,-43786.99,8194.621,-1462.4023,64822.55
1311893.5935428247,-96276.82,-89469.36,-40089.273,-4024.821,-43784.26,8191.895,-1470.866,64808.11
1311893.5975428438,-96283.05,-89470.586,-40082.277,-4022.0134,-43780.723,8181.8037,-1481.9336,64725.914
1311893.6015428628,-96291.18,-89470.664,-40076.99,-4015.6658,-43776.53,8176.473,-1485.2295,64679.566
1311893.6055428819,-96289.266,-89476.32,-40083.09,-4016.3982,-43780.273,8182.658,-1473.348,64732.79
1311893.609542901,-96265.79,-89480.96,-40089.887,-4021.6472,-43793.254,8193.848,-1464.681,64816.855
1311893.61354292,-96249.02,-89476.56,-40086.344,-4022.6238,-43788.74,8193.848,-1475.1384,64798.137
1311893.617542939,-96266.56,-89486.66,-40079.59,-4018.8804,-43773.766,8187.3784,-1489.6648,64714.6
1311893.621542958,-96274.91,-89487.19,-40074.953,-4012.9397,-43768.434,8180.013,-1490.0717,64671.67
1311893.6255429771,-96271.65,-89481.49,-40077.35,-4011.3933,-43774.902,8184.571,-1476.6439,64744.67
1311893.6295429962,-96252.41,-89474.41,-40079.715,-4014.2825,-43788.617,8193.4,-1456.0547,64847.453
1311893.6335430152,-96223.19,-89475.14,-40071.656,-4015.4216,-43786.46,8193.522,-1459.432,64845.707
1311893.6375430343,-96173.55,-89463.664,-40060.832,-4010.905,-43771.08,8183.7163,-1478.597,64747.48
1311893.6415430533,-96115.56,-89469.85,-40060.63,-4007.4058,-43769.613,8182.3735,-1482.0964,64681.766
1311893.6455430724,-96086.47,-89474.086,-40065.43,-4006.592,-43779.543,8189.7383,-1469.6045,64741.945
1311893.6495430914,-96057.87,-89465.336,-40069.742,-4008.2603,-43785.89,8200.399,-1461.9548,64832.316
1311893.6535431105,-96051.27,-89462.32,-40070.11,-4008.057,-43784.02,8197.795,-1470.2556,64828.41
1311893.6575431295,-96062.38,-89465.375,-40063.07,-4005.941,-43779.137,8190.5522,-1480.2246,64749.555
1311893.6615431486,-96073.98,-89469.81,-40058.758,-4000.3257,-43770.348,8187.663,-1478.0273,64677.86
1311893.6655431676,-96055.664,-89466.31,-40061.484,-4000.285,-43777.508,8194.296,-1462.5652,64735.72
1311893.6695431867,-96021.85,-89455.08,-40065.676,-4005.2898,-43784.14,8205.363,-1452.3113,64845.176
1311893.6735432057,-96008.38,-89455.24,-40062.094,-4006.6326,-43777.914,8207.683,-1459.7982,64839.926
1311893.6775432248,-96015.79,-89449.875,-40050.906,-4004.069,-43769.656,8199.748,-1467.5701,64760.38
1311893.6815432438,-96033.98,-89452.84,-40046.957,-4001.7498,-43761.72,8193.848,-1469.0756,64705.445
1311893.685543263,-96026.984,-89446.62,-40053.55,-4000.8547,-43774.05,8198.161,-1454.2236,64784.06
1311893.6895432821,-96007.164,-89441.29,-40064.168,-4003.7437,-43780.76,8206.096,-1442.5863,64874.473
1311893.6935433012,-95999.19,-89437.34,-40063.68,-4006.6326,-43779.34,8205.444,-1453.6133,64858.848
1311893.6975433202,-96008.43,-89433.8,-40057.496,-4002.0754,-43767.906,8194.54,-1472.5342,64770.59
1311893.7015433393,-96020.23,-89433.48,-40052.207,-3997.3552,-43765.75,8188.599,-1475.2605,64707.6
1311893.7055433583,-96007.53,-89431.12,-40057.332,-3998.8608,-43775.473,8193.278,-1462.1582,64772.258
1311893.7095433774,-95986.17,-89434.37,-40065.348,-4006.5105,-43784.59,8203.776,-1455.6072,64863.324
1311893.7135433964,-95980.76,-89432.984,-40065.676,-4008.6265,-43783.773,8200.684,-1471.7205,64842.98
1311893.7175434155,-95995.28,-89426.234,-40058.758,-4004.1506,-43775.312,8192.302,-1482.5033,64756.88
1311893.7215434345,-96015.47,-89432.09,-40056.766,-4002.0347,-43766.727,8183.9604,-1488.5254,64693.523
1311893.7255434536,-96015.1,-89445.48,-40061.117,-4004.3948,-43775.473,8187.7036,-1479.655,64751.547
1311893.7295434726,-95993.695,-89438.11,-40069.01,-4005.1677,-43793.5,8199.423,-1467.8549,64850.71
1311893.7335434917,-95990.484,-89428.8,-40068.402,-4007.7312,-43788.332,8199.463,-1474.9756,64837.16
1311893.7375435107,-96004.44,-89432.54,-40060.344,-4005.9001,-43771.973,8188.721,-1486.7351,64743.613
1311893.7415435298,-96023.195,-89438.766,-40059.9,-4001.0173,-43763.105,8181.356,-1491.2517,64687.016
1311893.7455435488,-96018.88,-89436.12,-40063.355,-4000.2036,-43775.473,8185.8726,-1477.417,64754.152
1311893.749543568,-96003.336,-89445.03,-40069.336,-4006.3071,-43790.895,8193.075,-1474.6501,64836.387
1311893.753543587,-95996.7,-89444.83,-40066.734,-4006.6326,-43784.75,8192.221,-1486.491,64818.035
1311893.757543606,-95991.984,-89431.44,-40060.71,-4003.6624,-43773.887,8180.8677,-1500.8953,64734.99
1311893.761543625,-96002.89,-89425.58,-40056.4,-3998.9014,-43769.37,8177.0835,-1500.2441,64686.402
1311893.765543644,-95992.92,-89422.9,-40055.91,-3998.0876,-43778.363,8183.431,-1482.0964,64756.31
1311893.7695436631,-95965.45,-89422.484,-40061.89,-4003.5808,-43788.496,8191.9355,-1473.6736,64838.83
1311893.7735436822,-95960.66,-89428.02,-40061.16,-4002.9705,-43777.547,8189.8604,-1489.3392,64807.05
1311893.7775437012,-95979.695,-89440.96,-40058.066,-4001.994,-43770.348,8180.5015,-1506.4291,64730.797
1311893.7815437203,-96002.77,-89447.67,-40054.605,-3997.7214,-43764.773,8172.3228,-1515.1367,64677.613
1311893.7855437393,-96000.0,-89447.266,-40057.09,-3997.274,-43783.69,8176.148,-1503.1738,64739.87
1311893.7895437584,-95975.14,-89439.05,-40060.06,-4002.93,-43794.8,8187.8667,-1489.1357,64840.21
1311893.7935437774,-95957.73,-89435.51,-40061.688,-4005.0864,-43788.94,8188.477,-1492.1062,64809.53
1311893.7975437965,-95965.945,-89431.07,-40054.566,-4004.3948,-43783.125,8182.17,-1496.2158,64725.793
1311893.8015438155,-95984.78,-89435.51,-40053.14,-4000.6106,-43770.508,8175.4155,-1499.8779,64673.383
1311893.8055438346,-95977.83,-89438.44,-40057.375,-3999.3896,-43770.387,8182.0884,-1485.433,64742.473
1311893.8095438536,-95952.4,-89435.266,-40062.01,-4002.401,-43786.215,8191.6914,-1478.2308,64838.383
1311893.8135438727,-95942.34,-89434.25,-40061.484,-4004.3132,-43782.797,8190.2266,-1487.4675,64821.414
1311893.8175438917,-95957.6,-89436.52,-40055.867,-4003.6216,-43767.99,8183.472,-1500.7324,64732.098
1311893.8215439108,-95970.016,-89443.16,-40050.7,-4001.7498,-43769.168,8179.1997,-1501.5463,64688.844
1311893.8255439298,-95964.234,-89441.41,-40056.03,-4000.692,-43781.7,8185.3843,-1487.4268,64751.996
1311893.8295439489,-95939.21,-89435.8,-40064.21,-4005.2493,-43787.19,8196.574,-1474.2432,64851.32
1311893.833543968,-95933.88,-89432.984,-40064.13,-4007.2024,-43776.57,8195.557,-1481.364,64834.15
1311893.837543987,-95941.0,-89430.99,-40054.324,-4003.5808,-43767.742,8186.198,-1491.9841,64752.24
1311893.841544006,-95951.78,-89433.35,-40049.887,-4002.1567,-43766.24,8179.647,-1494.3035,64698.938
1311893.845544025,-95946.82,-89435.14,-40055.137,-4003.3774,-43773.562,8185.14,-1482.9916,64758.996
1311893.8495440441,-95924.69,-89430.46,-40060.305,-4003.5403,-43784.26,8195.272,-1473.877,64842.164
1311893.8535440632,-95920.05,-89428.96,-40057.945,-4003.5403,-43775.027,8197.348,-1481.8115,64817.71
1311893.8575440822,-95932.375,-89432.74,-40053.14,-4000.8953,-43767.58,8191.651,-1491.6992,64738.73
1311893.8615441013,-95951.5,-89441.37,-40051.23,-3998.9014,-43766.36,8186.849,-1496.1345,64678.02
1311893.8655441203,-95946.29,-89449.625,-40056.438,-3998.698,-43770.305,8191.1626,-1483.1136,64743.695
1311893.8695441394,-95920.086,-89440.15,-40060.223,-4002.238,-43775.35,8197.388,-1474.406,64846.723
1311893.8735441584,-95905.12,-89426.11,-40058.676,-4007.1208,-43775.27,8195.109,-1482.7881,64822.758
1311893.8775441775,-95918.42,-89430.09,-40054.688,-4003.3367,-43761.152,8188.07,-1491.9434,64728.64
1311893.8815441965,-95928.34,-89440.516,-40046.266,-3998.3726,-43752.32,8183.9604,-1494.5068,64675.254
1311893.8855442156,-95917.24,-89432.414,-40042.156,-3998.3726,-43762.9,8190.959,-1473.0225,64751.223
1311893.8895442346,-95895.96,-89423.95,-40047.12,-3999.7559,-43767.78,8204.468,-1457.1941,64865.848
1311893.8935442537,-95886.48,-89421.63,-40048.383,-4001.7092,-43769.816,8200.684,-1465.8611,64857.547
1311893.8975442727,-95901.57,-89424.52,-40041.18,-3998.169,-43759.523,8189.0464,-1480.3467,64752.08
1311893.9015442918,-95910.52,-89431.484,-40041.953,-3995.1987,-43753.582,8181.397,-1486.5723,64692.508
1311893.9055443108,-95908.086,-89431.89,-40044.76,-3995.4429,-43762.74,8188.314,-1475.4232,64750.207
1311893.9095443299,-95881.96,-89428.19,-40047.16,-4001.3022,-43773.64,8200.317,-1465.2914,64841.594
1311893.913544349,-95872.44,-89426.48,-40048.18,-4004.8423,-43770.305,8200.725,-1471.6797,64831.383
1311893.917544368,-95890.71,-89425.625,-40044.72,-4002.5637,-43760.254,8193.93,-1477.7426,64756.715
1311893.921544387,-95913.91,-89427.78,-40043.99,-4001.5056,-43753.46,8191.488,-1479.3701,64709.598
1311893.925544406,-95910.0,-89428.266,-40051.473,-4002.0347,-43762.168,8195.476,-1464.4369,64783.57
1311893.929544425,-95888.39,-89424.28,-40056.277,-4006.2258,-43767.66,8203.573,-1455.8513,64868.86
1311893.9335444442,-95873.58,-89422.65,-40053.957,-4008.6672,-43769.816,8203.695,-1470.4998,64850.59
1311893.9375444632,-95884.08,-89422.57,-40046.023,-4004.5574,-43767.336,8194.702,-1478.7598,64755.535
1311893.9415444823,-95898.484,-89420.78,-40040.285,-4000.407,-43760.457,8186.8086,-1477.824,64712.65
1311893.9455445013,-95897.664,-89423.42,-40044.598,-3999.5933,-43772.137,8189.7383,-1468.9128,64764.977
1311893.9495445204,-95873.01,-89418.54,-40048.504,-4001.221,-43776.367,8198.568,-1461.7513,64864.87
1311893.9535445394,-95860.805,-89403.04,-40043.945,-4000.6106,-43769.94,8199.097,-1473.6736,64844.484
1311893.9575445584,-95874.8,-89405.27,-40040.73,-3995.9717,-43753.95,8192.505,-1483.3171,64757.0
1311893.9615445775,-95893.48,-89407.92,-40038.492,-3992.8794,-43755.74,8187.5005,-1479.0853,64710.695
1311893.9655445965,-95897.305,-89411.38,-40044.027,-3993.7744,-43764.285,8192.546,-1466.9597,64779.38
1311893.9695446156,-95873.66,-89410.41,-40045.574,-3996.6636,-43774.008,8203.776,-1453.6947,64875.45
1311893.9735446346,-95866.945,-89423.26,-40046.348,-4000.814,-43769.613,8202.067,-1461.5072,64859.457
1311893.9775446537,-95881.39,-89433.96,-40044.92,-3999.5933,-43765.75,8190.3486,-1474.1619,64757.043
1311893.9815446727,-95902.06,-89435.836,-40045.74,-3995.0767,-43760.094,8180.6646,-1483.724,64701.824
1311893.9855446918,-95900.39,-89431.44,-40051.27,-3995.4429,-43767.293,8184.7334,-1474.8943,64800.17
1311893.9895447108,-95878.586,-89427.45,-40057.58,-4002.3196,-43782.39,8194.418,-1461.141,64892.824
1311893.99354473,-95864.79,-89424.69,-40054.973,-4006.185,-43778.65,8193.319,-1470.0928,64858.97
1311893.997544749,-95875.37,-89431.4,-40051.676,-4002.9705,-43762.37,8186.605,-1481.893,64761.395
1311894.001544768,-95897.42,-89434.86,-40047.28,-3998.82,-43758.426,8181.8037,-1488.1185,64701.906
1311894.005544787,-95899.3,-89447.19,-40050.62,-3999.6338,-43767.457,8187.5005,-1475.4639,64768.516
1311894.009544806,-95877.445,-89458.3,-40055.582,-4000.6106,-43772.87,8194.906,-1465.8203,64864.543
1311894.0135448251,-95864.34,-89452.15,-40054.566,-4002.7263,-43766.645,8192.302,-1477.2543,64830.324
1311894.0175448442,-95868.984,-89446.58,-40048.91,-3998.698,-43757.203,8183.0244,-1486.206,64757.53
1311894.0215448632,-95881.836,-89449.83,-40043.17,-3995.8496,-43757.285,8178.874,-1480.6316,64702.598
1311894.0255448823,-95881.92,-89457.36,-40047.08,-3998.698,-43765.547,8187.907,-1466.5121,64769.535
1311894.0295449013,-95866.09,-89464.27,-40052.652,-4004.476,-43778.77,8201.538,-1454.5898,64861.9
1311894.0335449204,-95859.01,-89465.91,-40046.793,-4004.3132,-43766.277,8200.521,-1464.03,64855.348
1311894.0375449394,-95872.48,-89472.17,-40041.79,-4000.936,-43757.164,8190.267,-1475.3418,64773.234
1311894.0415449585,-95888.47,-89477.17,-40043.215,-3998.9421,-43755.574,8179.9727,-1487.8744,64698.324
1311894.0455449775,-95883.67,-89484.336,-40048.055,-4001.343,-43767.945,8184.1636,-1476.0336,64765.18
1311894.0495449966,-95860.4,-89480.47,-40053.875,-4001.8718,-43771.445,8193.808,-1460.9375,64855.51
1311894.0535450156,-95841.64,-89473.48,-40050.336,-4002.8484,-43771.406,8193.726,-1466.1459,64837.812
1311894.0575450347,-95847.375,-89471.31,-40039.227,-3998.4946,-43764.285,8187.8257,-1473.1039,64754.68
1311894.0615450537,-95865.69,-89481.0,-40033.0,-3997.0298,-43761.152,8184.1636,-1476.4812,64693.035
1311894.0655450728,-95863.89,-89482.47,-40037.926,-3998.169,-43768.395,8188.6396,-1463.0941,64766.277
1311894.0695450918,-95851.89,-89483.445,-40046.633,-4001.0173,-43777.06,8196.493,-1459.6761,64861.98
1311894.0735451109,-95858.195,-89486.78,-40046.062,-4003.5808,-43776.164,8193.604,-1475.057,64835.574
1311894.07754513,-95870.0,-89484.945,-40042.074,-4001.1394,-43761.11,8184.4893,-1487.1826,64741.54
1311894.081545149,-95882.2,-89490.73,-40038.94,-3995.4429,-43749.188,8178.752,-1488.7695,64689.78
1311894.085545168,-95879.766,-89494.914,-40040.324,-3995.8904,-43765.707,8185.8726,-1471.9238,64758.832
1311894.089545187,-95869.59,-89492.68,-40044.516,-4002.645,-43784.223,8199.382,-1461.4666,64847.94
