timestamp,Fp1,Fp2,F3,Fz,F4,Cz,Pz,Oz
965411.1925528481,-70583.375,-50478.965,9899.821,-7124.878,11442.831,-35190.066,24671.795,51923.91
965411.1965528445,-70594.12,-50510.5,9895.183,-7126.4243,11439.331,-35190.31,24669.842,51915.0
965411.200552841,-70583.13,-50470.34,9894.003,-7129.1504,11444.377,-35191.0,24675.578,51931.97
965411.2045528374,-70570.766,-50422.12,9895.793,-7129.1504,11451.782,-35190.105,24678.06,51943.28
965411.2085528339,-70574.305,-50427.938,9896.851,-7127.8486,11449.911,-35190.27,24672.975,51937.38
965411.2125528303,-70586.39,-50474.57,9894.084,-7127.6045,11439.657,-35190.473,24670.371,51920.492
965411.2165528267,-70595.46,-50505.496,9890.666,-7128.784,11435.385,-35191.652,24669.271,51910.36
965411.2205528232,-70584.76,-50469.2,9891.032,-7130.534,11441.284,-35192.71,24673.3,51924.97
965411.2245528196,-70573.53,-50427.656,9892.497,-7130.7783,11447.185,-35192.586,24674.602,51933.188
965411.2285528161,-70577.27,-50437.094,9890.503,-7131.2256,11440.43,-35191.734,24670.777,51922.773
965411.2325528124,-70592.45,-50485.8,9887.98,-7129.883,11432.455,-35192.465,24667.033,51908.246
965411.2365528089,-70603.766,-50519.453,9885.01,-7130.4526,11429.77,-35193.766,24667.4,51900.27
965411.2405528054,-70592.734,-50479.29,9886.394,-7132.0396,11435.141,-35192.547,24675.334,51919.637
965411.2445528018,-70579.305,-50437.176,9889.7705,-7133.0977,11439.169,-35193.156,24675.822,51929.85
965411.2485527983,-70582.84,-50447.43,9889.853,-7132.772,11433.594,-35193.973,24669.719,51918.99
965411.2525527946,-70594.81,-50492.27,9887.533,-7129.8423,11427.979,-35193.93,24663.33,51897.504
965411.2565527911,-70603.4,-50517.824,9884.766,-7130.7373,11423.178,-35193.523,24665.365,51891.562
965411.2605527876,-70591.31,-50479.453,9887.736,-7132.8535,11427.124,-35193.645,24673.26,51907.35
965411.264552784,-70579.43,-50437.785,9892.131,-7132.8535,11430.014,-35192.953,24674.236,51918.906
965411.2685527804,-70581.26,-50451.01,9893.962,-7131.429,11425.497,-35193.117,24671.266,51915.324
965411.2725527768,-70595.99,-50496.83,9889.7705,-7130.168,11421.062,-35191.49,24668.01,51903.2
965411.2765527733,-70604.086,-50519.9,9886.068,-7130.0864,11422.526,-35191.0,24668.498,51894.168
965411.2805527698,-70589.16,-50479.004,9888.835,-7131.2256,11425.619,-35190.676,24678.672,51913.82
965411.2845527662,-70574.38,-50436.363,9893.718,-7131.836,11428.549,-35190.594,24685.059,51934.938
965411.2885527626,-70580.69,-50447.105,9892.741,-7131.0225,11426.147,-35191.53,24681.805,51929.16
965411.292552759,-70595.055,-50490.805,9888.469,-7129.9644,11418.173,-35192.06,24677.246,51914.51
965411.2965527555,-70602.016,-50518.027,9886.882,-7129.598,11416.138,-35191.0,24678.428,51909.75
965411.300552752,-70591.07,-50483.48,9889.364,-7130.412,11422.16,-35191.324,24685.1,51924.52
965411.3045527483,-70579.02,-50443.156,9891.317,-7131.185,11426.2295,-35193.605,24684.49,51933.473
965411.3085527448,-70582.52,-50450.156,9890.625,-7130.0864,11423.869,-35194.664,24679.525,51929.812
965411.3125527413,-70594.16,-50493.45,9887.655,-7127.4414,11420.248,-35194.95,24674.48,51912.723
965411.3165527377,-70600.586,-50522.016,9884.807,-7128.988,11417.074,-35194.99,24674.357,51902.06
965411.3205527341,-70589.07,-50481.242,9886.801,-7130.941,11421.631,-35195.56,24679.078,51913.168
965411.3245527305,-70578.78,-50439.09,9889.201,-7131.3477,11425.903,-35196.617,24680.787,51928.062
965411.328552727,-70582.766,-50452.84,9887.939,-7130.615,11420.654,-35194.703,24677.94,51923.79
965411.3325527235,-70600.016,-50499.88,9882.854,-7129.5576,11411.906,-35194.254,24674.033,51904.867
965411.3365527199,-70610.68,-50523.234,9876.913,-7128.703,11414.348,-35195.72,24671.795,51895.1
965411.3405527163,-70599.41,-50482.016,9877.197,-7129.7607,11423.666,-35196.29,24675.09,51907.96
965411.3445527127,-70590.17,-50445.8,9880.046,-7131.633,11425.131,-35197.145,24674.643,51915.324
965411.3485527092,-70596.234,-50456.383,9881.104,-7130.9004,11421.265,-35197.105,24668.213,51905.234
965411.3525527057,-70609.09,-50498.13,9876.75,-7129.0283,11416.423,-35199.137,24659.18,51883.87
965411.356552702,-70617.15,-50529.01,9875.163,-7127.4414,11415.446,-35201.703,24656.414,51872.723
965411.3605526985,-70606.81,-50495.16,9876.953,-7130.005,11421.225,-35204.43,24658.408,51880.25
965411.364552695,-70594.41,-50454.227,9879.802,-7130.493,11424.316,-35203.29,24658.53,51894.086
965411.3685526914,-70598.96,-50465.66,9878.866,-7130.371,11423.381,-35203.9,24653.402,51890.547
965411.3725526879,-70613.81,-50514.04,9874.878,-7130.493,11416.911,-35205.973,24648.154,51872.273
965411.3765526842,-70617.96,-50539.39,9874.228,-7129.5166,11414.917,-35205.324,24651.287,51866.902
965411.3805526807,-70602.54,-50498.617,9877.238,-7130.5747,11425.619,-35202.84,24662.803,51887.98
965411.3845526772,-70586.02,-50452.027,9880.331,-7130.412,11433.676,-35201.863,24667.115,51904.34
965411.3885526736,-70585.66,-50462.688,9882.487,-7131.063,11431.234,-35200.727,24665.771,51897.3
965411.39255267,-70606.0,-50516.645,9879.395,-7130.168,11429.159,-35198.895,24667.562,51889.445
965411.3965526664,-70611.05,-50541.953,9877.563,-7128.174,11429.443,-35199.098,24670.086,51881.39
965411.4005526629,-70595.18,-50498.332,9880.9,-7128.3774,11439.291,-35199.75,24677.695,51900.434
965411.4045526594,-70587.0,-50455.0,9885.58,-7127.8076,11448.771,-35199.137,24683.39,51921.145
965411.4085526558,-70585.734,-50462.688,9887.655,-7126.2617,11452.8,-35199.832,24680.096,51918.215
965411.4125526522,-70592.45,-50499.758,9886.597,-7123.576,11454.387,-35201.01,24675.375,51903.934
965411.4165526486,-70592.77,-50519.574,9886.516,-7120.036,11457.072,-35201.58,24676.066,51896.688
965411.4205526451,-70572.59,-50469.523,9893.759,-7117.269,11469.6455,-35201.254,24684.205,51915.855
965411.4245526416,-70553.914,-50428.426,9899.048,-7116.333,11477.58,-35203.125,24687.582,51932.617
965411.4285526379,-70556.89,-50442.71,9901.001,-7114.258,11476.726,-35204.67,24684.775,51923.75
965411.4325526344,-70566.37,-50481.61,9903.931,-7111.6133,11475.546,-35205.242,24682.293,51910.605
965411.4365526309,-70567.79,-50500.043,9906.86,-7109.416,11475.79,-35206.098,24681.52,51899.457
965411.4405526273,-70555.42,-50462.812,9909.668,-7111.084,11482.992,-35205.04,24687.623,51918.215
965411.4445526238,-70545.01,-50420.574,9912.68,-7113.9326,11484.538,-35203.125,24692.303,51933.27
965411.4485526201,-70546.59,-50427.734,9913.371,-7113.4443,11481.079,-35201.99,24689.332,51924.766
965411.4525526166,-70563.516,-50477.336,9907.471,-7113.2,11474.895,-35202.637,24683.473,51902.387
965411.4565526131,-70577.555,-50508.547,9901.083,-7116.1704,11471.273,-35203.492,24682.252,51892.215
965411.4605526095,-70570.48,-50471.52,9902.67,-7119.222,11473.593,-35204.305,24687.053,51909.02
965411.4645526059,-70560.266,-50433.797,9905.722,-7120.5244,11471.802,-35202.68,24688.152,51920.82
965411.4685526023,-70568.65,-50452.19,9903.483,-7123.576,11463.339,-35202.273,24683.92,51916.06
965411.4725525988,-70585.414,-50501.18,9899.658,-7124.3086,11454.672,-35203.695,24675.863,51893.027
965411.4765525953,-70598.39,-50532.637,9896.281,-7124.1455,11449.667,-35204.633,24671.672,51868.492
965411.4805525917,-70589.48,-50494.14,9896.606,-7125.8955,11453.207,-35205.812,24672.283,51877.645
965411.4845525881,-70581.42,-50454.348,9898.642,-7127.7266,11454.224,-35205.77,24671.143,51889.0
965411.4885525845,-70588.26,-50468.63,9896.2,-7127.9297,11449.992,-35205.242,24666.586,51881.758
965411.492552581,-70605.47,-50516.44,9890.869,-7128.988,11443.197,-35206.016,24659.1,51866.7
965411.4965525775,-70617.19,-50548.22,9886.394,-7129.1504,11440.1455,-35206.258,24656.332,51856.406
965411.5005525738,-70609.13,-50518.11,9887.37,-7131.7954,11445.231,-35206.95,24659.18,51863.973
965411.5045525703,-70599.94,-50481.04,9889.16,-7132.9346,11448.73,-35207.848,24659.668,51873.414
965411.5085525668,-70610.44,-50494.344,9888.225,-7132.894,11445.476,-35208.863,24654.867,51864.22
965411.5125525632,-70630.29,-50545.656,9884.5625,-7132.8125,11435.466,-35208.62,24651.693,51847.902
965411.5165525596,-70636.84,-50570.598,9882.324,-7132.6094,11429.606,-35209.72,24652.549,51839.316
965411.520552556,-70622.84,-50529.95,9883.261,-7134.9287,11436.605,-35210.33,24658.53,51851.562
965411.5245525525,-70610.31,-50485.15,9885.539,-7134.603,11444.377,-35209.8,24661.094,51866.78
965411.528552549,-70616.664,-50498.58,9885.783,-7134.033,11437.988,-35210.9,24659.344,51861.492
965411.5325525454,-70634.04,-50546.836,9881.755,-7132.8535,11431.315,-35210.695,24653.525,51841.84
965411.5365525418,-70644.21,-50579.227,9878.174,-7133.6265,11428.345,-35212.2,24654.867,51837.527
965411.5405525382,-70632.41,-50542.848,9882.487,-7134.4404,11434.652,-35212.65,24663.738,51851.277
965411.5445525347,-70621.79,-50508.26,9887.045,-7134.033,11439.331,-35210.9,24666.383,51857.22
965411.5485525312,-70629.92,-50518.434,9884.685,-7133.2197,11438.437,-35210.574,24664.023,51858.97
965411.5525525275,-70640.51,-50551.15,9881.877,-7130.412,11435.547,-35210.207,24661.541,51844.28
965411.556552524,-70642.17,-50575.074,9882.731,-7130.7373,11432.617,-35211.344,24663.615,51832.4
965411.5605525204,-70622.6,-50534.06,9888.347,-7130.29,11439.575,-35209.027,24671.795,51851.035
965411.5645525169,-70618.57,-50499.473,9889.12,-7133.2197,11439.941,-35207.723,24676.352,51867.188
965411.5685525134,-70621.26,-50502.363,9887.655,-7133.6265,11435.751,-35208.375,24676.025,51864.46
965411.5725525097,-70629.88,-50543.133,9886.068,-7132.4873,11432.048,-35208.457,24670.86,51846.07
965411.5765525062,-70639.41,-50571.168,9882.854,-7134.1147,11427.816,-35207.926,24671.672,51840.535
965411.5805525027,-70625.29,-50525.84,9883.667,-7135.4575,11434.978,-35207.805,24676.922,51857.668
965411.5845524991,-70613.85,-50484.375,9886.3125,-7135.4575,11437.012,-35205.527,24682.7,51874.105
965411.5885524955,-70620.28,-50499.676,9885.661,-7135.173,11429.932,-35205.12,24679.932,51867.516
965411.5925524919,-70636.64,-50550.17,9883.057,-7135.132,11422.567,-35206.42,24675.375,51848.43
965411.5965524884,-70645.02,-50573.49,9878.906,-7136.2715,11423.788,-35207.6,24677.084,51843.426
965411.6005524849,-70626.75,-50525.676,9879.843,-7135.9863,11434.164,-35207.113,24684.45,51870.08
965411.6045524813,-70620.41,-50486.94,9881.022,-7136.4746,11434.001,-35206.707,24686.2,51880.74
965411.6085524777,-70626.34,-50495.28,9880.005,-7135.295,11432.17,-35207.438,24679.932,51866.984
965411.6125524741,-70637.695,-50533.938,9877.768,-7133.911,11430.38,-35207.805,24677.166,51855.227
965411.6165524706,-70647.75,-50561.81,9873.861,-7134.1553,11428.874,-35207.52,24676.963,51850.14
965411.6205524671,-70636.88,-50524.863,9878.093,-7134.5625,11433.92,-35207.195,24682.7,51866.7
965411.6245524634,-70629.16,-50484.457,9879.313,-7135.5796,11439.738,-35208.008,24683.473,51876.26
965411.6285524599,-70635.09,-50488.406,9875.814,-7134.9287,11436.605,-35210.086,24677.654,51868.246
965411.6325524563,-70655.56,-50538.86,9871.745,-7133.952,11429.932,-35210.855,24674.033,51853.926
965411.6365524528,-70661.26,-50569.824,9872.925,-7133.0566,11427.734,-35211.14,24674.113,51844.85
965411.6405524493,-70652.02,-50540.61,9874.472,-7134.725,11433.676,-35211.754,24679.648,51859.863
965411.6445524456,-70648.44,-50504.273,9875.0,-7136.434,11434.164,-35212.08,24679.688,51865.848
965411.6485524421,-70650.27,-50512.047,9873.495,-7135.417,11432.007,-35212.242,24674.236,51856.812
965411.6525524386,-70666.79,-50565.918,9868.9375,-7133.423,11425.619,-35211.914,24672.242,51843.67
965411.656552435,-70678.51,-50599.773,9865.275,-7133.6265,11423.056,-35212.77,24673.34,51837.812
965411.6605524314,-70672.04,-50567.383,9867.473,-7135.295,11426.636,-35212.445,24680.42,51856.367
965411.6645524278,-70667.03,-50533.613,9870.605,-7136.8003,11430.095,-35212.402,24682.943,51870.73
965411.6685524243,-70675.5,-50552.246,9869.995,-7137.492,11427.165,-35212.65,24679.525,51866.293
965411.6725524208,-70698.08,-50608.277,9863.281,-7139.1196,11419.8,-35212.77,24678.59,51855.39
965411.6765524172,-70711.836,-50640.137,9861.084,-7140.3403,11417.929,-35210.41,24686.523,51855.105
965411.6805524136,-70702.19,-50603.477,9864.014,-7143.0664,11421.672,-35208.375,24697.715,51878.258
965411.68455241,-70694.016,-50565.555,9866.862,-7144.45,11427.165,-35206.91,24701.377,51896.2
965411.6885524065,-70707.234,-50587.812,9863.974,-7145.549,11420.736,-35206.746,24698.121,51894.168
965411.692552403,-70728.03,-50644.574,9860.393,-7145.2637,11412.313,-35207.03,24695.068,51882.652
965411.6965523993,-70738.89,-50676.27,9857.788,-7146.688,11412.191,-35206.83,24697.389,51882.61
965411.7005523958,-70731.41,-50642.863,9858.114,-7149.699,11418.945,-35205.527,24708.293,51902.508
965411.7045523922,-70725.22,-50608.6,9857.626,-7150.92,11420.858,-35203.086,24712.932,51913.37
965411.7085523887,-70738.164,-50629.844,9855.998,-7152.4253,11417.358,-35201.17,24713.34,51913.25
965411.7125523852,-70757.24,-50680.176,9852.417,-7153.1577,11408.122,-35201.375,24712.078,51904.83
965411.7165523815,-70769.25,-50711.508,9849.162,-7154.5005,11407.431,-35200.24,24716.553,51905.234
965411.720552378,-70758.1,-50677.98,9854.614,-7153.9717,11417.358,-35197.918,24727.824,51924.887
965411.7245523744,-70751.63,-50642.254,9857.504,-7156.169,11419.394,-35197.39,24730.957,51935.1
965411.7285523709,-70760.016,-50656.293,9854.33,-7157.634,11413.615,-35196.168,24726.768,51928.426
965411.7325523673,-70771.69,-50702.19,9853.271,-7156.128,11407.227,-35194.742,24723.35,51912.355
965411.7365523637,-70777.55,-50727.664,9851.767,-7156.494,11406.616,-35194.133,24723.35,51908.49
965411.7405523602,-70767.414,-50689.168,9853.516,-7157.3486,11414.348,-35193.973,24729.777,51923.22
965411.7445523567,-70762.45,-50656.496,9856.12,-7159.79,11414.958,-35195.355,24730.307,51932.863
965411.748552353,-70767.62,-50672.895,9856.323,-7159.0986,11411.255,-35194.95,24725.506,51923.543
965411.7525523495,-70781.62,-50715.09,9853.394,-7157.593,11404.257,-35194.38,24721.559,51907.51
965411.7565523459,-70789.67,-50738.973,9851.44,-7158.7324,11401.001,-35194.418,24721.72,51897.504
965411.7605523424,-70777.95,-50702.8,9851.237,-7161.052,11404.541,-35194.38,24727.58,51914.39
965411.7645523389,-70767.336,-50666.26,9853.068,-7163.249,11407.023,-35194.176,24730.592,51928.914
965411.7685523352,-70775.8,-50681.277,9852.702,-7163.371,11400.146,-35194.54,24727.133,51922.406
965411.7725523317,-70795.9,-50732.465,9848.674,-7164.266,11386.149,-35195.355,24726.238,51908.33
965411.7765523281,-70802.86,-50757.04,9847.575,-7163.8184,11384.115,-35194.703,24730.592,51906.09
965411.7805523246,-70792.32,-50722.74,9848.918,-7164.917,11389.486,-35193.402,24739.584,51928.55
965411.784552321,-70783.125,-50689.78,9848.349,-7166.789,11392.05,-35194.215,24741.09,51939.617
965411.7885523174,-70789.67,-50701.297,9846.191,-7166.3413,11389.12,-35193.645,24733.115,51925.78
965411.7925523139,-70803.43,-50746.504,9843.506,-7165.2427,11383.83,-35193.2,24725.709,51907.594
965411.7965523103,-70812.18,-50773.64,9841.269,-7165.324,11380.331,-35194.582,24724.488,51901.45
965411.8005523068,-70802.66,-50739.504,9843.588,-7167.033,11385.946,-35196.004,24730.877,51919.312
965411.8045523032,-70791.95,-50700.97,9846.843,-7167.3994,11389.934,-35196.004,24735.068,51932.863
965411.8085522996,-70798.18,-50712.65,9846.924,-7166.301,11385.458,-35195.598,24733.887,51927.37
965411.8125522961,-70812.09,-50756.023,9844.6455,-7165.08,11377.563,-35196.535,24724.61,51903.65
965411.8165522926,-70821.66,-50781.82,9840.129,-7166.626,11375.041,-35198.527,24720.908,51890.383
965411.8205522889,-70810.875,-50743.734,9842.367,-7168.457,11380.493,-35199.26,24725.059,51905.887
965411.8245522854,-70801.27,-50706.543,9846.151,-7168.742,11385.661,-35198.895,24725.342,51917.074
965411.8285522818,-70808.27,-50721.723,9844.89,-7169.4746,11380.168,-35198.406,24722.291,51911.215
965411.8325522783,-70823.734,-50766.074,9843.303,-7168.5386,11374.105,-35197.47,24719.2,51898.074
965411.8365522748,-70831.586,-50792.93,9839.885,-7168.5386,11371.582,-35197.797,24718.832,51892.863
965411.8405522711,-70815.836,-50750.613,9843.303,-7169.149,11376.221,-35196.656,24724.936,51909.344
965411.8445522676,-70802.77,-50707.36,9847.534,-7169.515,11379.11,-35196.25,24724.61,51916.63
965411.848552264,-70811.81,-50724.57,9846.965,-7169.963,11375.244,-35196.98,24718.955,51909.71
965411.8525522605,-70827.6,-50770.145,9843.262,-7169.0674,11368.042,-35195.395,24715.984,51894.246
965411.8565522569,-70834.72,-50796.348,9841.269,-7168.091,11368.164,-35195.273,24716.025,51888.266
965411.8605522533,-70826.375,-50763.55,9842.773,-7170.3696,11370.972,-35195.926,24720.908,51901.734
965411.8645522498,-70825.234,-50732.016,9844.116,-7172.3228,11371.623,-35195.68,24725.018,51915.406
965411.8685522462,-70821.25,-50732.91,9847.941,-7169.4746,11370.28,-35197.715,24720.42,51914.145
965411.8725522427,-70822.47,-50769.816,9848.552,-7166.0156,11366.618,-35200.074,24712.078,51892.66
965411.8765522391,-70831.46,-50803.266,9844.116,-7166.789,11362.061,-35201.254,24708.701,51879.598
965411.8805522355,-70812.016,-50758.18,9847.941,-7167.033,11368.246,-35199.79,24714.275,51892.375
965411.884552232,-70795.17,-50709.473,9851.726,-7167.5215,11373.861,-35198.977,24718.994,51906.984
965411.8885522285,-70790.29,-50708.496,9854.492,-7164.388,11375.0,-35199.016,24715.332,51900.188
965411.8925522248,-70802.37,-50753.906,9853.435,-7161.9873,11367.798,-35200.48,24711.71,51885.418
965411.8965522213,-70811.61,-50784.668,9849.203,-7164.1846,11365.683,-35199.344,24714.355,51881.96
965411.9005522177,-70803.914,-50744.508,9850.79,-7166.219,11369.507,-35199.137,24721.07,51898.562
965411.9045522142,-70794.516,-50701.418,9854.004,-7167.196,11372.559,-35199.26,24722.453,51912.395
965411.9085522107,-70798.305,-50709.92,9852.743,-7166.097,11369.955,-35198.367,24720.379,51910.848
965411.912552207,-70815.47,-50756.758,9848.593,-7166.423,11358.969,-35197.797,24717.896,51899.945
965411.9165522035,-70825.766,-50786.418,9843.791,-7168.132,11356.039,-35197.594,24721.396,51901.855
965411.9205521999,-70811.73,-50746.22,9847.168,-7169.4746,11364.502,-35196.98,24726.727,51911.99
965411.9245521964,-70799.234,-50706.83,9852.173,-7169.393,11370.077,-35195.883,24724.977,51914.023
965411.9285521928,-70806.07,-50723.39,9851.522,-7169.841,11366.089,-35197.51,24717.938,51899.008
965411.9325521892,-70820.27,-50770.754,9850.952,-7169.271,11361.654,-35198.0,24716.105,51889.895
965411.9365521857,-70825.4,-50792.97,9848.511,-7168.376,11362.875,-35196.82,24719.688,51887.047
965411.9405521821,-70813.36,-50753.46,9848.999,-7170.166,11371.216,-35196.86,24727.824,51902.184
965411.9445521785,-70805.87,-50715.375,9851.278,-7171.2646,11376.587,-35196.574,24731.854,51918.824
965411.948552175,-70814.7,-50730.633,9849.081,-7170.4917,11375.8545,-35196.902,24728.924,51913.535
965411.9525521714,-70829.76,-50774.254,9846.762,-7169.5557,11369.467,-35197.836,24723.227,51894.004
965411.9565521679,-70837.445,-50797.285,9844.32,-7169.7188,11368.449,-35199.87,24720.053,51882.57
965411.9605521644,-70825.93,-50757.246,9844.279,-7171.997,11374.553,-35200.48,24722.82,51894.125
965411.9645521607,-70814.984,-50719.44,9846.11,-7173.0146,11380.941,-35199.26,24726.441,51910.566
965411.9685521572,-70819.625,-50735.11,9844.482,-7172.8926,11380.981,-35200.848,24721.07,51897.176
965411.9725521536,-70835.25,-50782.51,9841.146,-7172.7295,11376.506,-35200.848,24718.994,51879.19
965411.9765521501,-70845.79,-50809.164,9838.623,-7172.6484,11376.059,-35198.855,24724.65,51879.19
965411.9805521464,-70837.12,-50774.375,9840.576,-7173.625,11381.877,-35198.73,24731.975,51893.68
965411.9845521429,-70829.14,-50746.055,9840.658,-7175.1304,11387.899,-35200.113,24730.957,51898.684
965411.9885521394,-70833.414,-50763.43,9840.21,-7174.8457,11385.01,-35200.97,24725.75,51892.5
965411.9925521358,-70847.29,-50806.4,9837.891,-7174.276,11380.941,-35201.824,24719.076,51876.18
965411.9965521323,-70855.76,-50827.19,9836.386,-7174.2354,11381.267,-35201.5,24717.123,51863.324
965412.0005521287,-70839.88,-50783.652,9840.088,-7174.4385,11387.289,-35200.766,24721.07,51878.664
965412.0045521251,-70827.15,-50741.457,9842.285,-7174.764,11394.206,-35200.645,24722.25,51894.207
965412.0085521216,-70831.016,-50755.13,9843.1,-7173.5435,11392.985,-35201.58,24716.92,51890.016
965412.012552118,-70844.81,-50803.59,9840.739,-7171.794,11388.835,-35202.84,24713.055,51872.316
965412.0165521144,-70850.875,-50826.05,9839.966,-7171.7124,11386.679,-35204.062,24713.787,51865.277
965412.0205521109,-70837.57,-50784.465,9842.651,-7172.3228,11395.224,-35205.445,24715.008,51877.727
965412.0245521073,-70824.22,-50741.457,9845.012,-7172.811,11400.065,-35204.836,24714.52,51885.5
965412.0285521038,-70829.59,-50751.63,9844.849,-7173.34,11395.386,-35204.1,24712.688,51879.438
965412.0325521003,-70847.414,-50796.797,9840.332,-7172.4043,11388.591,-35204.02,24707.398,51862.348
965412.0365520966,-70855.67,-50820.926,9839.396,-7173.1367,11386.638,-35204.957,24707.52,51852.95
965412.0405520931,-70833.984,-50773.805,9846.884,-7172.038,11395.834,-35204.715,24714.111,51869.832
965412.0445520895,-70819.336,-50735.555,9852.865,-7171.794,11398.723,-35203.816,24717.938,51885.418
965412.048552086,-70827.96,-50754.64,9850.79,-7172.6074,11392.05,-35204.957,24713.502,51879.926
965412.0525520823,-70842.0,-50798.83,9848.227,-7170.6953,11386.923,-35204.1,24710.654,51862.957
965412.0565520788,-70847.86,-50824.63,9846.558,-7169.0674,11385.01,-35203.574,24713.176,51855.43
965412.0605520753,-70834.31,-50784.832,9849.447,-7169.637,11393.677,-35204.02,24717.896,51871.258
965412.0645520717,-70825.16,-50749.188,9853.964,-7168.132,11398.234,-35204.266,24719.932,51885.094
965412.0685520682,-70829.914,-50761.477,9854.004,-7167.806,11395.468,-35205.445,24715.049,51876.18
965412.0725520646,-70843.79,-50806.97,9850.912,-7168.132,11389.486,-35206.625,24710.654,51859.99
965412.076552061,-70853.15,-50833.62,9848.145,-7169.2305,11385.661,-35207.438,24709.799,51856.855
965412.0805520575,-70840.21,-50789.227,9850.505,-7170.8984,11391.032,-35207.805,24713.623,51866.496
965412.084552054,-70826.78,-50747.273,9856.201,-7169.963,11394.409,-35207.438,24713.705,51872.48
965412.0885520503,-70832.07,-50763.184,9855.754,-7170.451,11390.788,-35206.668,24710.41,51868.33
965412.0925520468,-70845.664,-50809.164,9849.772,-7169.841,11386.19,-35208.21,24705.934,51849.285
965412.0965520432,-70856.484,-50834.434,9845.988,-7169.5557,11383.911,-35210.816,24707.072,51844.85
965412.1005520397,-70843.914,-50796.875,9848.999,-7170.736,11391.235,-35210.777,24714.844,51866.336
965412.1045520362,-70831.71,-50755.574,9850.464,-7171.509,11394.287,-35210.33,24717.734,51880.332
965412.1085520325,-70832.28,-50761.72,9851.807,-7170.085,11390.015,-35209.92,24714.275,51869.344
965412.112552029,-70846.07,-50806.887,9848.674,-7170.451,11384.074,-35209.39,24708.252,51853.395
965412.1165520254,-70852.7,-50833.906,9846.843,-7171.672,11380.859,-35211.266,24706.137,51841.27
965412.1205520219,-70842.086,-50797.895,9847.372,-7173.503,11384.277,-35211.223,24713.176,51859.09
965412.1245520182,-70833.58,-50757.324,9847.941,-7175.578,11382.772,-35211.305,24717.611,51871.785
965412.1285520147,-70839.07,-50774.414,9848.186,-7173.4214,11380.249,-35211.754,24715.658,51868.695
965412.1325520112,-70854.78,-50825.48,9843.384,-7174.0317,11374.878,-35213.016,24711.305,51851.93
965412.1365520076,-70863.53,-50850.465,9837.851,-7175.9033,11373.535,-35215.375,24710.898,51845.38
965412.140552004,-70850.47,-50811.605,9839.478,-7175.985,11379.883,-35214.844,24713.95,51857.79
965412.1445520004,-70839.32,-50776.492,9842.611,-7177.49,11379.924,-35214.6,24713.135,51865.03
965412.1485519969,-70845.42,-50790.242,9840.698,-7178.711,11373.942,-35214.316,24709.799,51855.797
965412.1525519934,-70860.88,-50837.566,9837.565,-7176.351,11366.415,-35214.52,24706.951,51845.83
965412.1565519898,-70873.21,-50862.145,9834.025,-7177.002,11362.834,-35215.008,24705.975,51834.598
965412.1605519862,-70861.33,-50821.25,9834.839,-7177.409,11370.646,-35216.473,24707.725,51840.008
965412.1645519827,-70850.22,-50782.39,9837.484,-7178.304,11370.769,-35217.246,24708.172,51850.508
965412.1685519791,-70854.17,-50792.81,9838.054,-7178.589,11365.967,-35216.555,24703.94,51846.6
965412.1725519756,-70863.89,-50829.918,9838.176,-7175.578,11361.288,-35213.664,24703.37,51839.113
965412.1765519719,-70873.375,-50855.594,9834.433,-7177.409,11359.091,-35214.316,24704.428,51837.688
965412.1805519684,-70860.76,-50814.008,9835.9375,-7179.403,11364.502,-35215.414,24708.172,51845.34
965412.1845519649,-70847.91,-50773.074,9839.315,-7179.3213,11369.914,-35214.76,24710.49,51858.887
965412.1885519613,-70856.53,-50790.367,9837.973,-7180.013,11366.089,-35216.715,24706.543,51856.285
965412.1925519578,-70865.93,-50832.36,9836.752,-7178.0195,11361.816,-35217.45,24703.207,51839.52
965412.1965519541,-70870.85,-50857.016,9835.409,-7178.0195,11360.434,-35216.676,24704.307,51831.098
965412.2005519506,-70858.12,-50814.496,9837.524,-7178.63,11365.764,-35214.6,24710.45,51847.58
965412.2045519471,-70844.61,-50772.95,9841.105,-7178.4263,11370.524,-35214.113,24714.438,51862.957
965412.2085519435,-70850.42,-50785.36,9840.536,-7178.0195,11368.164,-35214.76,24710.654,51855.266
965412.2125519399,-70866.336,-50832.766,9837.484,-7176.351,11362.875,-35215.25,24707.031,51837.363
965412.2165519363,-70874.516,-50857.75,9835.9375,-7175.9033,11360.515,-35215.945,24709.717,51835.33
965412.2205519328,-70859.17,-50817.14,9839.926,-7176.758,11365.683,-35214.723,24714.844,51852.215
965412.2245519293,-70845.79,-50772.543,9842.773,-7177.0835,11370.728,-35214.52,24716.717,51861.9
965412.2285519257,-70850.99,-50784.02,9841.553,-7177.287,11368.49,-35215.008,24712.281,51852.418
965412.2325519221,-70864.95,-50831.504,9839.885,-7176.5137,11360.067,-35213.867,24709.31,51836.875
965412.2365519186,-70872.56,-50854.25,9837.6875,-7176.677,11356.771,-35213.137,24711.426,51828.86
965412.240551915,-70862.305,-50816.53,9840.007,-7177.694,11364.868,-35213.504,24715.414,51840.742
965412.2445519115,-70852.016,-50778.85,9840.454,-7179.199,11369.467,-35214.6,24716.635,51854.94
965412.2485519078,-70855.63,-50791.06,9842.367,-7178.182,11366.903,-35214.97,24715.088,51850.06
965412.2525519043,-70867.96,-50837.08,9840.983,-7175.537,11361.45,-35216.023,24712.037,51830.203
965412.2565519008,-70874.76,-50858.523,9837.6875,-7175.6187,11357.91,-35218.996,24708.863,51817.547
965412.2605518972,-70863.94,-50821.168,9839.396,-7177.8564,11362.102,-35218.953,24713.176,51838.746
965412.2645518937,-70853.97,-50781.7,9842.978,-7178.833,11364.909,-35217.652,24716.229,51855.51
965412.26855189,-70859.87,-50793.418,9843.628,-7178.4263,11360.434,-35216.676,24713.908,51853.027
965412.2725518865,-70874.555,-50842.734,9838.867,-7178.06,11352.743,-35218.426,24706.504,51827.027
965412.276551883,-70879.44,-50867.92,9840.129,-7177.49,11352.295,-35219.484,24703.125,51811.035
965412.2805518794,-70862.8,-50828.125,9842.773,-7177.8975,11358.969,-35218.793,24711.549,51830.49
965412.2845518758,-70851.484,-50785.44,9843.181,-7179.4434,11362.102,-35218.06,24713.908,51844.81
965412.2885518722,-70859.74,-50797.812,9840.536,-7177.8975,11360.881,-35218.305,24708.701,51839.355
965412.2925518687,-70872.84,-50843.59,9840.129,-7175.2524,11353.476,-35218.06,24703.94,51820.516
965412.2965518652,-70879.16,-50867.96,9840.454,-7175.2524,11350.464,-35219.363,24703.613,51814.902
965412.3005518616,-70868.2,-50831.055,9843.954,-7175.415,11358.887,-35219.44,24709.922,51832.234
965412.304551858,-70856.53,-50788.94,9844.442,-7176.2695,11363.525,-35219.523,24710.205,51842.816
965412.3085518545,-70861.01,-50800.863,9842.8955,-7176.3916,11357.788,-35219.93,24706.543,51841.15
965412.3125518509,-70876.23,-50846.68,9840.698,-7175.456,11351.685,-35220.746,24702.354,51819.176
965412.3165518474,-70881.35,-50868.9,9838.298,-7175.578,11348.755,-35222.535,24702.8,51809.41
965412.3205518437,-70866.58,-50829.348,9841.472,-7177.287,11353.476,-35222.453,24707.154,51825.117
965412.3245518402,-70854.125,-50792.156,9844.035,-7180.013,11354.736,-35222.496,24707.072,51836.223
965412.3285518367,-70858.36,-50805.016,9842.001,-7178.752,11350.83,-35223.145,24703.207,51829.754
965412.3325518331,-70869.914,-50844.44,9838.298,-7176.3105,11346.477,-35224.527,24700.36,51819.297
965412.3365518296,-70879.234,-50868.855,9837.036,-7176.799,11344.809,-35225.098,24703.086,51817.668
965412.3405518259,-70868.49,-50831.87,9840.007,-7180.013,11350.668,-35224.246,24709.678,51832.156
965412.3445518224,-70855.266,-50789.145,9842.773,-7181.234,11352.946,-35223.758,24711.346,51841.84
965412.3485518189,-70861.58,-50799.4,9840.536,-7181.1523,11348.796,-35223.55,24707.969,51830.0
965412.3525518153,-70874.39,-50844.566,9837.199,-7180.298,11344.32,-35224.04,24704.834,51814.7
965412.3565518117,-70883.14,-50868.004,9834.188,-7178.874,11342.041,-35225.098,24703.33,51810.832
965412.3605518081,-70871.664,-50828.004,9837.362,-7180.217,11346.518,-35225.098,24706.26,51823.0
965412.3645518046,-70859.055,-50787.52,9840.983,-7180.5015,11350.342,-35224.527,24709.637,51835.492
965412.3685518011,-70864.586,-50800.66,9840.088,-7180.013,11344.482,-35224.367,24705.078,51828.98
965412.3725517974,-70881.11,-50849.164,9836.955,-7180.827,11336.223,-35225.71,24698.61,51809.45
965412.3765517939,-70888.63,-50873.82,9834.961,-7181.0303,11333.374,-35226.156,24699.26,51806.887
965412.3805517904,-70880.13,-50833.742,9836.223,-7182.6987,11340.048,-35225.465,24706.463,51822.754
965412.3845517868,-70865.03,-50789.633,9840.21,-7181.885,11343.628,-35223.145,24711.143,51840.742
965412.3885517833,-70865.03,-50799.44,9843.303,-7179.199,11342.692,-35221.52,24709.434,51841.88
965412.3925517796,-70881.43,-50846.805,9839.193,-7179.3213,11336.264,-35224.04,24701.904,51824.832
965412.3965517761,-70889.98,-50868.29,9834.106,-7180.217,11331.95,-35225.668,24699.951,51811.566
965412.4005517726,-70877.484,-50828.94,9836.386,-7181.356,11336.914,-35223.758,24708.09,51824.18
965412.404551769,-70868.125,-50790.855,9839.193,-7182.007,11342.041,-35224.367,24707.764,51831.543
965412.4085517654,-70875.29,-50804.812,9837.484,-7181.885,11336.101,-35225.016,24702.312,51823.367
965412.4125517618,-70888.266,-50849.652,9834.921,-7181.885,11327.841,-35224.49,24700.074,51810.426
965412.4165517583,-70894.94,-50869.02,9833.334,-7181.3965,11328.451,-35224.49,24702.068,51804.85
965412.4205517548,-70884.69,-50831.91,9834.677,-7181.6406,11333.74,-35225.26,24707.805,51821.656
965412.4245517512,-70873.86,-50792.48,9836.223,-7182.048,11335.734,-35225.383,24708.822,51831.504
965412.4285517476,-70877.766,-50808.434,9835.815,-7181.1523,11332.642,-35224.812,24704.346,51824.87
965412.432551744,-70892.21,-50857.504,9832.072,-7180.786,11324.748,-35225.63,24697.348,51805.176
965412.4365517405,-70899.375,-50881.188,9829.997,-7181.885,11321.33,-35227.215,24694.133,51793.582
965412.440551737,-70885.17,-50842.816,9833.171,-7183.309,11325.033,-35225.71,24701.865,51813.52
965412.4445517333,-70872.48,-50800.254,9838.013,-7183.3496,11328.491,-35223.88,24707.684,51833.17
965412.4485517298,-70874.48,-50809.125,9840.21,-7180.9897,11325.806,-35226.074,24701.254,51818.645
965412.4525517263,-70889.94,-50854.656,9837.769,-7180.176,11319.336,-35226.074,24699.951,51801.72
965412.4565517227,-70897.55,-50876.914,9835.693,-7180.0947,11317.302,-35226.688,24701.457,51795.574
965412.4605517192,-70884.65,-50837.73,9838.623,-7181.1523,11322.958,-35226.89,24705.771,51813.68
965412.4645517155,-70872.84,-50799.36,9842.001,-7181.478,11325.684,-35225.668,24711.06,51829.633
965412.468551712,-70875.94,-50807.332,9842.448,-7181.356,11321.533,-35224.49,24709.96,51824.87
965412.4725517085,-70889.85,-50853.598,9839.152,-7180.1353,11317.505,-35224.652,24704.834,51810.426
965412.4765517049,-70893.234,-50878.176,9836.304,-7179.118,11315.715,-35225.504,24702.434,51798.75
965412.4805517013,-70879.27,-50843.547,9838.379,-7180.1353,11321.005,-35227.215,24706.787,51806.355
965412.4845516977,-70869.1,-50807.293,9841.269,-7181.2744,11324.911,-35227.176,24708.496,51820.312
965412.4885516942,-70878.38,-50823.934,9839.193,-7182.2104,11320.109,-35226.156,24705.16,51819.297
965412.4925516907,-70894.125,-50868.367,9835.327,-7180.42,11314.169,-35225.63,24703.004,51806.766
965412.4965516871,-70900.07,-50888.836,9831.421,-7180.583,11311.401,-35225.668,24704.916,51799.887
965412.5005516835,-70888.266,-50851.89,9834.229,-7182.373,11316.284,-35227.215,24707.684,51807.82
965412.50455168,-70879.6,-50818.727,9836.142,-7183.9194,11319.621,-35226.766,24708.62,51817.793
965412.5085516764,-70885.87,-50829.023,9835.043,-7183.757,11315.593,-35225.098,24705.078,51812.094
965412.5125516729,-70897.3,-50869.508,9832.113,-7182.048,11310.425,-35224.203,24703.37,51797.12
965412.5165516692,-70902.02,-50891.97,9829.0205,-7182.821,11307.902,-35223.758,24706.26,51792.645
965412.5205516657,-70889.94,-50857.625,9828.735,-7184.774,11314.331,-35223.594,24710.125,51806.234
965412.5245516622,-70881.59,-50824.344,9830.404,-7185.6284,11318.4,-35222.25,24712.852,51823.69
965412.5285516586,-70886.31,-50837.73,9831.625,-7185.3438,11313.599,-35222.086,24709.19,51817.383
965412.5325516551,-70899.54,-50880.332,9829.306,-7184.2856,11308.676,-35224.367,24699.871,51797.65
965412.5365516514,-70908.77,-50904.055,9827.23,-7184.123,11308.594,-35226.81,24695.8,51787.76
965412.5405516479,-70897.71,-50866.62,9829.712,-7185.1807,11314.982,-35227.906,24700.562,51802.168
965412.5445516444,-70888.35,-50828.656,9831.909,-7187.134,11317.383,-35228.56,24704.51,51818.117
965412.5485516408,-70889.9,-50840.863,9833.903,-7185.832,11316.691,-35227.62,24701.172,51811.65
965412.5525516372,-70900.76,-50881.836,9832.194,-7184.448,11314.413,-35227.418,24696.25,51794.72
965412.5565516336,-70905.27,-50898.805,9829.631,-7183.5938,11315.756,-35228.19,24697.715,51787.844
965412.5605516301,-70890.055,-50857.42,9832.275,-7183.9194,11323.935,-35227.297,24702.557,51801.92
965412.5645516266,-70881.875,-50821.7,9835.571,-7184.53,11330.526,-35226.074,24706.748,51814.7
965412.5685516229,-70888.555,-50836.47,9835.124,-7183.5938,11329.834,-35226.32,24702.678,51804.527
965412.5725516194,-70900.27,-50880.13,9834.514,-7181.5596,11327.2705,-35226.848,24701.377,51793.418
965412.5765516158,-70907.11,-50904.5,9833.171,-7181.9663,11329.387,-35226.93,24706.299,51792.195
965412.5805516123,-70896.0,-50869.55,9836.223,-7184.082,11338.908,-35226.727,24712.81,51806.64
965412.5845516088,-70883.83,-50828.94,9838.054,-7186.5234,11338.135,-35227.906,24711.264,51817.465
965412.5885516051,-70888.555,-50841.105,9835.856,-7185.7505,11337.646,-35227.906,24705.201,51808.027
965412.5925516016,-70901.77,-50888.266,9832.316,-7183.431,11336.914,-35228.92,24697.021,51782.39
965412.596551598,-70909.34,-50911.543,9828.207,-7183.7974,11336.264,-35229.617,24696.9,51777.387
965412.6005515945,-70899.7,-50878.99,9829.387,-7186.3203,11342.692,-35229.695,24703.29,51793.62
965412.6045515909,-70888.76,-50844.484,9832.886,-7187.0527,11347.25,-35229.41,24705.242,51803.062
965412.6085515873,-70894.53,-50857.42,9831.34,-7186.727,11346.721,-35229.86,24704.143,51798.625
965412.6125515838,-70911.055,-50902.184,9825.725,-7187.4595,11341.919,-35229.492,24700.562,51778.28
965412.6165515803,-70913.82,-50919.19,9827.026,-7187.5,11339.763,-35229.574,24702.719,51774.09
965412.6205515767,-70897.09,-50874.96,9833.13,-7186.727,11347.128,-35228.72,24710.979,51793.906
965412.6245515731,-70887.66,-50836.223,9834.758,-7186.971,11352.499,-35228.152,24712.566,51808.027
965412.6285515695,-70891.08,-50849.12,9834.758,-7185.5063,11350.342,-35225.668,24708.293,51802.734
965412.632551566,-70902.06,-50891.523,9833.74,-7182.3325,11346.3955,-35224.652,24704.957,51788.86
965412.6365515625,-70909.266,-50912.477,9830.404,-7183.1055,11345.866,-35226.605,24705.363,51784.71
965412.6405515588,-70897.79,-50874.31,9830.974,-7186.3203,11351.44,-35229.332,24706.828,51791.953
965412.6445515553,-70888.67,-50837.89,9832.642,-7187.297,11351.522,-35228.72,24708.13,51804.65
965412.6485515517,-70892.87,-50852.99,9831.706,-7187.378,11348.186,-35228.477,24703.29,51800.742
965412.6525515482,-70910.08,-50902.71,9827.678,-7187.9478,11343.547,-35230.348,24695.395,51779.094
965412.6565515447,-70919.234,-50926.758,9824.829,-7188.558,11342.489,-35232.3,24693.727,51765.87
965412.660551541,-70904.42,-50880.37,9827.881,-7187.9478,11346.802,-35232.22,24701.172,51778.688
965412.6645515375,-70892.414,-50840.535,9831.137,-7187.866,11351.034,-35231.69,24704.55,51790.12
965412.668551534,-70897.38,-50854.74,9833.09,-7185.547,11348.389,-35231.73,24700.969,51784.02
965412.6725515304,-70908.49,-50901.043,9833.374,-7182.048,11343.71,-35232.586,24694.703,51768.11
965412.6765515268,-70913.82,-50921.754,9832.194,-7182.17,11341.919,-35233.684,24695.8,51763.348
965412.6805515232,-70903.41,-50877.973,9834.025,-7183.7974,11347.778,-35234.05,24700.889,51772.746
965412.6845515197,-70895.02,-50843.26,9837.484,-7185.14,11350.83,-35232.79,24703.94,51786.258
965412.6885515162,-70904.625,-50864.504,9833.537,-7186.4424,11344.6045,-35232.625,24701.457,51785.44
965412.6925515126,-70913.62,-50901.246,9831.625,-7184.326,11343.547,-35233.316,24698.854,51773.52
965412.696551509,-70918.375,-50918.824,9829.265,-7183.6753,11342.611,-35233.316,24700.156,51762.82
965412.7005515054,-70908.695,-50881.633,9829.346,-7186.4014,11349.203,-35233.035,24705.283,51774.824
965412.7045515019,-70896.89,-50845.055,9830.282,-7186.3203,11355.835,-35231.69,24707.602,51787.76
965412.7085514984,-70900.43,-50856.855,9829.509,-7185.8726,11351.156,-35230.594,24705.04,51785.28
965412.7125514947,-70914.43,-50898.64,9824.87,-7185.71,11345.703,-35231.812,24700.645,51770.67
965412.7165514912,-70918.5,-50918.133,9823.771,-7185.466,11343.791,-35232.83,24702.354,51767.62
965412.7205514876,-70906.62,-50877.973,9828.735,-7185.2217,11350.261,-35232.26,24707.56,51776.207
965412.7245514841,-70899.7,-50843.793,9830.933,-7186.5645,11353.842,-35231.406,24710.654,51790.242
965412.7285514806,-70904.38,-50857.625,9830.566,-7185.547,11350.017,-35230.67,24709.148,51788.21
965412.7325514769,-70917.195,-50904.176,9826.172,-7184.4077,11344.238,-35232.465,24702.922,51767.05
965412.7365514734,-70922.2,-50924.562,9824.341,-7183.5127,11344.157,-35233.074,24702.475,51764.85
965412.7405514698,-70910.52,-50885.457,9826.701,-7185.5063,11346.3955,-35232.18,24707.44,51779.785
965412.7445514663,-70900.64,-50846.316,9831.055,-7186.7676,11349.487,-35230.594,24710.49,51791.383
965412.7485514627,-70908.695,-50861.53,9829.265,-7186.5234,11344.442,-35231.0,24707.846,51786.824
965412.7525514591,-70924.89,-50907.676,9824.463,-7186.971,11334.351,-35232.625,24703.533,51767.133
965412.7565514556,-70932.87,-50929.77,9820.272,-7188.558,11334.799,-35232.91,24703.086,51758.71
965412.760551452,-70923.016,-50892.17,9823.853,-7190.4297,11337.443,-35232.465,24709.393,51774.336
965412.7645514484,-70911.336,-50855.39,9826.132,-7189.779,11342.204,-35231.0,24712.24,51793.785
965412.7685514449,-70918.3,-50869.47,9823.446,-7190.552,11339.315,-35232.3,24707.805,51783.203
965412.7725514413,-70936.12,-50916.14,9820.15,-7189.1685,11333.13,-35232.34,24704.713,51764.85
965412.7765514378,-70943.24,-50937.215,9816.081,-7189.4126,11332.724,-35233.805,24705.607,51759.688
965412.7805514343,-70931.89,-50896.324,9816.528,-7191.854,11337.769,-35234.17,24710.734,51775.758
965412.7845514306,-70920.66,-50860.637,9819.906,-7192.302,11338.705,-35233.727,24714.072,51793.297
965412.7885514271,-70926.35,-50876.953,9819.458,-7191.732,11335.002,-35234.05,24708.863,51784.668
965412.7925514235,-70937.87,-50916.3,9817.139,-7189.1685,11331.177,-35233.035,24703.695,51768.637
965412.79655142,-70939.82,-50931.4,9817.017,-7187.744,11332.52,-35232.016,24705.934,51767.418
965412.8005514164,-70926.76,-50894.656,9820.598,-7188.192,11338.013,-35231.57,24714.6,51788.574
965412.8045514128,-70913.86,-50857.504,9825.521,-7188.3955,11342.082,-35231.49,24715.496,51796.59
965412.8085514093,-70917.24,-50870.973,9826.945,-7186.6455,11341.105,-35231.977,24709.84,51790.527
965412.8125514057,-70936.12,-50920.25,9821.411,-7187.297,11332.764,-35232.3,24705.12,51772.504
965412.8165514022,-70945.88,-50944.785,9817.221,-7189.006,11329.184,-35233.113,24704.672,51760.05
965412.8205513986,-70931.56,-50899.742,9820.761,-7190.3076,11334.961,-35232.953,24707.969,51772.098
965412.824551395,-70918.46,-50859.133,9824.911,-7190.1045,11337.199,-35233.6,24707.031,51776.043
965412.8285513915,-70919.76,-50871.22,9827.597,-7187.663,11332.764,-35232.79,24704.713,51775.88
965412.832551388,-70931.89,-50913.332,9824.463,-7185.425,11331.137,-35234.01,24700.889,51757.57
965412.8365513843,-70936.24,-50936.363,9821.005,-7185.1807,11326.782,-35235.477,24700.236,51749.023
965412.8405513808,-70927.82,-50901.164,9822.307,-7188.2734,11327.434,-35237.062,24704.225,51763.348
965412.8445513772,-70920.86,-50864.504,9824.667,-7188.3955,11333.334,-35236.734,24706.38,51776.652
965412.8485513737,-70923.14,-50876.63,9825.277,-7185.832,11332.683,-35236.004,24704.672,51772.87
965412.8525513702,-70935.47,-50917.562,9822.348,-7185.954,11326.742,-35236.98,24699.016,51755.902
965412.8565513665,-70943.24,-50936.973,9819.458,-7185.913,11322.185,-35236.86,24699.871,51746.992
965412.860551363,-70934.164,-50899.54,9821.533,-7188.0293,11325.317,-35236.004,24706.463,51762.047
965412.8645513594,-70921.51,-50857.586,9823.8125,-7189.9824,11329.672,-35235.92,24710.775,51776.98
965412.8685513559,-70924.32,-50866.78,9824.585,-7187.744,11326.66,-35235.758,24707.275,51771.28
965412.8725513523,-70942.95,-50922.04,9819.662,-7187.297,11320.964,-35234.78,24702.312,51757.45
965412.8765513487,-70948.41,-50941.082,9818.4,-7187.134,11322.021,-35235.066,24705.445,51757.285
965412.8805513452,-70928.836,-50890.547,9823.364,-7185.71,11330.282,-35236.168,24711.955,51772.625
965412.8845513416,-70920.25,-50854.168,9826.782,-7187.785,11331.421,-35237.223,24710.938,51782.715
965412.8885513381,-70929.164,-50873.902,9825.684,-7188.2734,11327.475,-35237.02,24706.787,51776.207
965412.8925513345,-70943.08,-50921.1,9819.784,-7187.663,11322.998,-35237.875,24704.387,51762.453
965412.8965513309,-70948.695,-50939.7,9817.871,-7187.3374,11323.202,-35236.9,24705.242,51753.95
965412.9005513274,-70934.2,-50894.453,9821.533,-7188.1514,11325.725,-35236.94,24708.293,51757.203
965412.9045513239,-70922.08,-50853.56,9824.504,-7187.5815,11330.607,-35237.508,24708.049,51770.754
965412.9085513202,-70928.875,-50864.91,9823.8125,-7186.076,11325.562,-35237.348,24705.73,51772.098
965412.9125513167,-70944.336,-50907.51,9820.19,-7185.832,11318.93,-35237.875,24700.195,51753.582
965412.9165513131,-70950.89,-50927.29,9817.587,-7185.954,11317.993,-35240.316,24698.691,51746.016
965412.9205513096,-70942.836,-50892.62,9818.848,-7188.4766,11321.208,-35242.312,24700.48,51754.52
965412.9245513061,-70933.88,-50860.027,9821.981,-7189.616,11320.923,-35242.35,24701.986,51763.633
965412.9285513024,-70937.75,-50873.09,9822.021,-7189.1685,11316.122,-35241.863,24698.854,51762.207
965412.9325512989,-70953.414,-50917.645,9819.296,-7187.9478,11312.256,-35241.78,24696.045,51746.504
965412.9365512953,-70957.12,-50934.41,9817.017,-7188.314,11311.972,-35242.473,24697.145,51743.9
965412.9405512918,-70944.26,-50895.67,9818.686,-7188.965,11319.214,-35242.105,24702.354,51759.156
965412.9445512882,-70931.12,-50857.42,9822.836,-7188.965,11324.138,-35241.66,24704.754,51767.58
965412.9485512846,-70933.63,-50866.58,9822.836,-7187.175,11319.296,-35241.742,24701.416,51763.55
965412.9525512811,-70949.875,-50917.402,9818.563,-7185.913,11311.972,-35242.84,24698.203,51748.902
965412.9565512775,-70956.46,-50938.477,9815.593,-7186.483,11310.751,-35243.938,24699.057,51746.95
965412.960551274,-70942.34,-50898.4,9818.767,-7187.9478,11317.546,-35244.344,24702.557,51760.254
965412.9645512704,-70931.64,-50856.977,9820.761,-7189.575,11319.58,-35243.613,24704.713,51770.266
965412.9685512668,-70936.98,-50872.723,9821.818,-7187.419,11318.319,-35241.414,24704.957,51769.656
965412.9725512633,-70954.19,-50917.24,9816.569,-7187.541,11310.913,-35242.188,24702.393,51755.293
965412.9765512598,-70962.24,-50935.59,9812.785,-7188.558,11306.804,-35241.945,24701.742,51747.48
965412.9805512561,-70948.0,-50896.895,9814.697,-7189.1685,11311.687,-35240.848,24704.834,51755.7
965412.9845512526,-70936.0,-50865.926,9818.237,-7190.1855,11313.599,-35241.293,24708.213,51769.777
965412.988551249,-70939.29,-50885.176,9819.702,-7190.3486,11310.507,-35241.457,24705.283,51759.89
965412.9925512455,-70952.48,-50927.9,9816.772,-7188.1514,11305.746,-35242.35,24700.236,51739.625
965412.9965512418,-70958.82,-50953.41,9814.413,-7188.2734,11305.746,-35242.23,24702.598,51744.02
965413.0005512383,-70947.305,-50909.508,9817.546,-7189.209,11311.605,-35240.723,24712.646,51769.125
965413.0045512348,-70931.64,-50861.125,9822.144,-7187.378,11317.261,-35240.723,24715.537,51783.57
965413.0085512312,-70937.09,-50875.367,9822.51,-7186.3203,11313.843,-35241.17,24712.363,51782.105
965413.0125512277,-70953.53,-50921.1,9819.255,-7185.954,11308.757,-35242.39,24705.81,51763.633
965413.016551224,-70960.94,-50938.07,9816.528,-7187.297,11307.129,-35242.594,24703.41,51752.93
965413.0205512205,-70947.266,-50899.21,9818.563,-7188.5986,11308.96,-35242.516,24708.213,51767.09
965413.024551217,-70935.875,-50862.633,9821.615,-7188.3545,11311.6455,-35241.902,24708.578,51777.63
965413.0285512134,-70942.99,-50876.63,9820.517,-7187.378,11307.292,-35242.516,24702.637,51765.625
965413.0325512098,-70956.305,-50920.492,9818.197,-7185.3438,11302.287,-35242.473,24697.795,51744.914
965413.0365512063,-70962.52,-50940.594,9817.587,-7185.262,11300.619,-35242.27,24699.463,51739.95
965413.0405512027,-70953.164,-50902.957,9817.343,-7188.4766,11303.183,-35242.96,24703.41,51753.664
965413.0445511992,-70944.664,-50866.945,9818.726,-7190.2266,11303.02,-35244.63,24703.166,51759.97
965413.0485511957,-70952.27,-50888.633,9818.359,-7190.1855,11296.672,-35245.117,24701.701,51756.062
965413.052551192,-70964.12,-50928.633,9816.284,-7188.4766,11295.695,-35244.63,24702.068,51744.387
965413.0565511885,-70967.49,-50945.883,9814.372,-7187.866,11299.398,-35244.426,24703.33,51736.004
965413.0605511849,-70959.234,-50910.08,9815.186,-7189.372,11303.874,-35244.59,24708.74,51751.875
965413.0645511814,-70944.375,-50869.305,9819.214,-7188.1514,11308.635,-35243.9,24708.863,51759.44
965413.0685511777,-70949.55,-50883.465,9819.418,-7187.541,11303.467,-35242.72,24705.771,51756.836
965413.0725511742,-70962.73,-50930.83,9815.796,-7187.541,11293.335,-35244.63,24699.992,51739.746
965413.0765511707,-70967.94,-50947.957,9814.006,-7188.5986,11291.545,-35244.914,24699.139,51729.25
965413.0805511671,-70956.586,-50908.855,9815.796,-7191.3657,11295.654,-35244.63,24703.574,51741.17
965413.0845511636,-70946.05,-50873.58,9819.702,-7191.61,11297.974,-35243.777,24705.12,51754.926
965413.08855116,-70954.43,-50886.434,9818.359,-7192.22,11289.104,-35244.793,24698.486,51747.6
965413.0925511564,-70968.266,-50931.844,9816.122,-7191.732,11284.912,-35245.2,24691.406,51728.19
965413.0965511529,-70971.16,-50950.195,9814.901,-7191.284,11287.231,-35245.445,24690.879,51722.984
965413.1005511493,-70958.01,-50910.93,9814.697,-7191.4062,11292.685,-35245.08,24699.26,51742.598
965413.1045511457,-70945.88,-50875.125,9817.993,-7190.7554,11293.295,-35243.53,24706.87,51760.99
965413.1085511422,-70949.1,-50889.363,9819.255,-7189.6973,11291.748,-35240.887,24707.48,51761.312
965413.1125511386,-70965.91,-50934.9,9815.552,-7189.331,11287.68,-35241.336,24703.777,51744.71
965413.1165511351,-70969.484,-50949.832,9814.494,-7189.6567,11287.598,-35241.457,24705.648,51738.04
965413.1205511315,-70955.0,-50909.953,9817.058,-7190.3076,11295.329,-35240.195,24712.2,51753.38
965413.1245511279,-70945.195,-50873.945,9819.458,-7190.1045,11299.561,-35240.234,24714.234,51764.69
965413.1285511244,-70955.484,-50891.48,9816.977,-7190.7554,11294.922,-35241.78,24710.166,51759.89
965413.1325511208,-70970.22,-50938.76,9813.681,-7189.575,11288.493,-35242.637,24707.072,51752.566
965413.1365511173,-70974.61,-50955.16,9811.85,-7187.866,11289.917,-35242.027,24705.648,51740.766
965413.1405511136,-70964.03,-50916.06,9812.988,-7189.7383,11294.719,-35243.29,24707.154,51745.934
965413.1445511101,-70955.08,-50877.85,9813.477,-7191.976,11295.736,-35243.695,24705.078,51755.008
965413.1485511066,-70958.664,-50892.5,9812.866,-7192.0576,11290.121,-35245.32,24698.121,51747.355
965413.152551103,-70975.14,-50943.848,9809.652,-7191.4062,11283.569,-35246.055,24693.523,51734.863
965413.1565510995,-70983.56,-50969.035,9805.868,-7192.546,11279.501,-35248.293,24691.285,51723.145
965413.1605510958,-70972.17,-50931.97,9807.658,-7193.2783,11285.197,-35250.855,24690.879,51727.95
965413.1645510923,-70962.98,-50896.16,9810.344,-7193.2783,11289.917,-35251.426,24692.1,51739.18
965413.1685510888,-70970.3,-50913.332,9808.472,-7193.0747,11287.15,-35250.203,24689.291,51738.812
965413.1725510852,-70985.39,-50957.93,9804.403,-7192.0576,11282.471,-35248.332,24688.682,51725.914
965413.1765510816,-70988.69,-50976.44,9802.856,-7192.668,11284.343,-35248.58,24692.344,51721.438
965413.180551078,-70978.234,-50937.95,9805.258,-7194.58,11290.568,-35247.477,24700.645,51741.78
965413.1845510745,-70969.766,-50900.066,9806.682,-7195.4756,11297.038,-35246.664,24701.824,51750.043
965413.188551071,-70976.195,-50915.285,9805.99,-7195.4346,11296.916,-35246.582,24696.777,51742.72
965413.1925510673,-70994.836,-50961.266,9802.694,-7194.214,11293.457,-35245.445,24693.28,51726.32
965413.1965510638,-71003.46,-50979.414,9797.323,-7196.289,11294.189,-35245.934,24693.645,51716.23
965413.2005510603,-70991.09,-50943.36,9798.381,-7198.161,11300.822,-35247.07,24698.04,51730.184
965413.2045510567,-70979.49,-50907.555,9800.578,-7198.69,11306.193,-35246.34,24698.447,51743.613
965413.2085510532,-70984.945,-50923.3,9800.415,-7197.551,11303.671,-35243.777,24695.883,51738.12
965413.2125510495,-70997.16,-50968.184,9798.462,-7196.6553,11299.276,-35242.27,24691.611,51721.03
965413.216551046,-71002.65,-50989.586,9798.625,-7197.1436,11299.5205,-35241.66,24693.523,51716.23
965413.2205510425,-70984.54,-50947.836,9805.136,-7195.0684,11308.635,-35242.555,24695.924,51728.11
965413.2245510389,-70970.016,-50904.258,9809.164,-7194.824,11317.383,-35242.758,24694.785,51740.645
965413.2285510353,-70975.914,-50918.297,9806.152,-7195.7197,11315.063,-35242.434,24692.424,51732.75
965413.2325510317,-70990.6,-50963.504,9802.45,-7194.9873,11310.141,-35242.88,24686.158,51704.633
965413.2365510282,-70994.95,-50982.586,9801.27,-7194.2954,11310.873,-35243.367,24685.303,51701.457
965413.2405510247,-70983.73,-50948.242,9804.321,-7195.7197,11315.471,-35243.53,24692.506,51721.805
965413.2445510211,-70973.555,-50913.453,9808.391,-7196.045,11320.557,-35243.777,24694.58,51734.863
965413.2485510175,-70981.65,-50929.812,9808.391,-7195.8823,11317.221,-35243.082,24693.441,51728.395
965413.252551014,-70994.75,-50970.906,9804.729,-7196.452,11310.222,-35241.78,24692.627,51711.387
965413.2565510104,-70999.11,-50989.137,9804.729,-7195.3125,11311.401,-35240.926,24696.453,51707.074
965413.2605510069,-70987.19,-50949.832,9809.692,-7194.702,11318.319,-35240.97,24702.516,51725.383
965413.2645510032,-70977.17,-50911.01,9812.053,-7195.3535,11321.33,-35242.066,24701.904,51739.055
965413.2685509997,-70983.93,-50928.387,9811.605,-7195.272,11319.906,-35241.375,24698.527,51737.227
965413.2725509962,-70998.5,-50971.19,9808.146,-7194.1733,11312.378,-35241.742,24691.488,51716.555
965413.2765509926,-71002.65,-50986.613,9805.664,-7194.5396,11312.378,-35243.367,24690.268,51705.363
965413.2805509891,-70993.82,-50952.35,9805.868,-7196.6147,11316.04,-35243.695,24694.865,51721.113
965413.2845509854,-70984.055,-50922.73,9808.1875,-7197.3066,11320.068,-35244.14,24696.982,51730.105
965413.2885509819,-70987.59,-50936.77,9809.896,-7196.8994,11316.895,-35243.492,24694.988,51729.414
965413.2925509784,-71000.53,-50972.86,9807.414,-7195.8823,11312.785,-35243.082,24691.977,51721.113
965413.2965509748,-71004.64,-50989.586,9806.356,-7195.1094,11311.523,-35243.207,24690.186,51712.445
965413.3005509712,-70993.29,-50954.387,9808.105,-7196.3706,11316.04,-35245.08,24692.547,51722.21
965413.3045509676,-70980.43,-50915.895,9810.547,-7195.7603,11321.777,-35245.402,24692.832,51737.875
965413.3085509641,-70983.16,-50931.195,9810.751,-7195.6787,11318.522,-35246.055,24686.605,51734.58
965413.3125509606,-70994.71,-50975.668,9808.024,-7194.458,11309.937,-35247.965,24680.258,51717.125
965413.316550957,-71001.95,-50994.02,9805.339,-7193.8477,11311.442,-35249.105,24681.193,51709.23
965413.3205509534,-70992.516,-50959.27,9808.35,-7194.865,11316.284,-35248.66,24687.338,51725.18
965413.3245509499,-70983.36,-50923.586,9809.733,-7195.6787,11318.93,-35249.023,24687.42,51728.152
965413.3285509463,-70992.11,-50933.96,9807.943,-7195.1904,11316.325,-35250.125,24681.357,51718.1
965413.3325509428,-71006.836,-50980.227,9804.321,-7195.964,11308.96,-35250.164,24676.352,51706.465
965413.3365509391,-71011.31,-51003.867,9804.443,-7195.3535,11307.007,-35249.105,24677.451,51705.61
965413.3405509356,-71001.79,-50966.434,9804.81,-7196.6147,11310.913,-35249.105,24679.932,51716.96
965413.3445509321,-70990.56,-50928.633,9805.786,-7198.6494,11313.64,-35251.14,24676.963,51717.49
965413.3485509285,-70995.85,-50942.832,9805.258,-7197.8354,11310.181,-35251.832,24670.777,51706.707
965413.352550925,-71009.12,-50988.85,9803.183,-7195.5566,11304.77,-35252.2,24667.766,51692.344
965413.3565509213,-71013.1,-51007.45,9804.159,-7194.377,11305.664,-35253.297,24668.621,51688.76
965413.3605509178,-71001.75,-50971.395,9808.838,-7195.1094,11310.385,-35253.746,24673.828,51704.227
965413.3645509143,-70990.03,-50933.39,9811.442,-7194.702,11313.3545,-35254.76,24676.84,51719.28
965413.3685509107,-70995.85,-50948.242,9810.466,-7193.563,11309.164,-35254.07,24674.236,51714.195
965413.3725509071,-71011.72,-50996.95,9808.472,-7193.929,11303.142,-35254.8,24670.045,51699.26
965413.3765509035,-71015.71,-51005.74,9807.739,-7195.4346,11294.963,-35253.785,24673.828,51697.43
965413.3805509,-71003.5,-50963.91,9809.286,-7197.347,11297.404,-35252.156,24680.705,51710.004
965413.3845508965,-70994.75,-50926.883,9810.873,-7197.9575,11301.392,-35252.08,24681.723,51725.426
965413.3885508929,-71000.81,-50943.77,9809.937,-7196.9404,11298.178,-35252.117,24677.37,51718.387
965413.3925508893,-71014.0,-50989.87,9808.024,-7195.516,11294.189,-35251.832,24672.363,51698.773
965413.3965508858,-71018.555,-51009.24,9805.746,-7194.906,11292.847,-35252.44,24672.363,51692.547
965413.4005508822,-71007.41,-50972.008,9805.217,-7196.8994,11298.381,-35251.465,24680.258,51709.312
965413.4045508787,-70998.13,-50935.387,9808.513,-7197.795,11302.775,-35250.53,24681.56,51715.332
965413.408550875,-71005.13,-50947.918,9807.089,-7197.551,11297.893,-35251.953,24678.184,51711.754
965413.4125508715,-71019.66,-50994.55,9804.647,-7197.3066,11290.405,-35253.258,24674.928,51696.086
965413.416550868,-71025.27,-51013.715,9803.833,-7196.574,11287.761,-35253.418,24675.293,51687.543
965413.4205508644,-71011.64,-50971.844,9806.682,-7196.3706,11296.428,-35253.258,24680.625,51704.55
965413.4245508608,-71000.33,-50929.934,9808.31,-7196.737,11302.45,-35253.746,24681.275,51718.75
965413.4285508572,-71004.92,-50946.21,9808.35,-7194.824,11301.799,-35253.543,24676.88,51708.336
965413.4325508537,-71019.82,-50991.7,9804.606,-7193.6035,11295.329,-35255.008,24670.736,51689.7
965413.4365508502,-71024.74,-51009.97,9801.147,-7195.028,11291.545,-35256.31,24670.777,51685.344
965413.4405508466,-71011.4,-50975.71,9803.589,-7196.737,11298.178,-35256.473,24676.352,51702.23
965413.444550843,-71000.125,-50934.773,9806.234,-7197.1436,11303.223,-35255.414,24680.828,51718.305
965413.4485508394,-71006.72,-50948.812,9808.228,-7195.516,11300.09,-35254.8,24676.637,51705.69
965413.4525508359,-71019.94,-50991.7,9806.396,-7194.499,11293.783,-35255.21,24668.742,51682.13
965413.4565508324,-71023.4,-51007.246,9804.647,-7195.7197,11292.888,-35255.574,24669.678,51679.08
965413.4605508287,-71008.79,-50967.082,9806.356,-7197.103,11297.648,-35255.414,24674.316,51693.24
965413.4645508252,-70997.88,-50930.137,9810.222,-7197.0625,11301.799,-35255.29,24675.863,51706.992
965413.4685508216,-71003.54,-50947.348,9810.059,-7196.411,11297.119,-35255.168,24673.38,51703.33
965413.4725508181,-71019.53,-50990.36,9804.403,-7195.3535,11294.108,-35255.29,24669.639,51688.152
965413.4765508146,-71023.73,-51006.96,9801.188,-7195.4346,11292.888,-35256.43,24668.662,51679.324
965413.4805508109,-71016.12,-50970.38,9801.88,-7198.12,11294.638,-35257.652,24673.096,51693.688
965413.4845508074,-71007.33,-50938.887,9803.711,-7198.4053,11296.184,-35257.812,24675.416,51705.77
965413.4885508039,-71014.04,-50957.52,9802.084,-7198.242,11293.051,-35259.36,24669.475,51695.07
965413.4925508003,-71027.14,-50999.96,9800.049,-7196.1265,11289.633,-35259.48,24665.447,51676.19
965413.4965507967,-71031.5,-51017.09,9797.607,-7197.7134,11284.099,-35259.035,24668.213,51669.273
965413.5005507931,-71023.44,-50982.625,9798.096,-7200.0327,11286.255,-35258.707,24672.404,51688.887
965413.5045507896,-71013.47,-50947.633,9798.422,-7202.1895,11288.696,-35258.668,24671.387,51693.523
965413.5085507861,-71015.586,-50955.08,9798.625,-7200.765,11283.732,-35257.812,24667.156,51680.91
965413.5125507825,-71032.92,-51001.305,9794.922,-7200.7246,11277.385,-35258.383,24664.227,51666.26
965413.5165507789,-71040.445,-51020.996,9792.236,-7202.8,11275.879,-35259.848,24664.795,51659.668
965413.5205507753,-71028.65,-50986.53,9793.62,-7205.648,11280.762,-35259.81,24669.76,51674.277
965413.5245507718,-71015.55,-50953.41,9797.607,-7204.997,11284.75,-35258.75,24671.062,51689.74
965413.5285507683,-71018.39,-50964.766,9796.794,-7202.3926,11284.099,-35258.547,24668.58,51685.71
965413.5325507646,-71031.5,-51008.63,9793.457,-7201.7417,11275.065,-35260.5,24661.662,51671.062
965413.5365507611,-71037.234,-51026.652,9790.771,-7202.352,11270.752,-35262.004,24659.547,51663.13
965413.5405507575,-71022.18,-50988.812,9793.945,-7203.532,11279.419,-35261.76,24663.9,51675.008
965413.544550754,-71009.08,-50950.605,9799.194,-7201.6196,11284.546,-35261.07,24664.795,51686.035
965413.5485507505,-71012.86,-50962.812,9799.316,-7198.69,11282.39,-35262.25,24658.57,51673.22
965413.5525507468,-71027.67,-51008.504,9796.0205,-7197.1436,11275.676,-35263.31,24657.023,51664.836
965413.5565507433,-71031.58,-51023.887,9794.882,-7197.225,11275.065,-35261.883,24658.732,51661.094
965413.5605507398,-71019.62,-50983.727,9797.363,-7198.5273,11279.501,-35261.68,24661.053,51667.645
965413.5645507362,-71011.27,-50945.395,9799.968,-7200.521,11278.646,-35262.047,24663.453,51681.316
965413.5685507326,-71015.34,-50958.62,9796.997,-7201.9043,11274.292,-35261.68,24660.076,51676.11
965413.572550729,-71031.17,-51007.855,9790.609,-7202.3115,11266.846,-35261.19,24655.193,51660.156
965413.5765507255,-71039.1,-51031.984,9788.452,-7203.939,11262.533,-35260.62,24657.47,51651.734
965413.580550722,-71026.25,-50992.35,9793.01,-7204.183,11267.334,-35260.336,24665.244,51669.56
965413.5845507184,-71014.484,-50953.168,9797.485,-7205.119,11268.474,-35259.766,24666.26,51683.594
965413.5885507148,-71019.66,-50966.15,9797.893,-7203.7354,11267.05,-35259.93,24662.314,51673.137
965413.5925507112,-71035.28,-51013.145,9796.387,-7202.3115,11261.516,-35260.824,24659.059,51657.27
965413.5965507077,-71040.65,-51031.13,9793.945,-7203.2065,11256.633,-35260.5,24661.865,51659.953
965413.6005507042,-71032.35,-50998.414,9794.516,-7204.061,11260.702,-35259.766,24669.8,51679.973
965413.6045507005,-71022.22,-50961.348,9795.288,-7206.3804,11264.038,-35258.344,24673.137,51689.94
965413.608550697,-71028.98,-50977.46,9794.271,-7206.0547,11262.492,-35258.383,24668.621,51677.41
965413.6125506934,-71043.664,-51024.254,9791.179,-7204.3457,11257.08,-35257.812,24661.621,51659.14
965413.6165506899,-71046.43,-51041.06,9791.708,-7203.532,11253.256,-35258.18,24663.453,51657.758
965413.6205506863,-71030.93,-50998.617,9796.184,-7202.0264,11259.155,-35257.938,24669.354,51669.273
965413.6245506827,-71018.59,-50960.86,9800.741,-7203.125,11261.23,-35257.203,24669.963,51679.566
965413.6285506792,-71019.695,-50971.477,9802.246,-7202.352,11256.592,-35255.25,24668.133,51672.49
965413.6325506757,-71032.15,-51016.562,9800.781,-7200.2363,11251.669,-35255.496,24663.574,51651.855
965413.6365506721,-71042.36,-51041.426,9797.974,-7201.9043,11251.181,-35258.14,24661.703,51646.242
965413.6405506685,-71033.45,-51009.074,9798.584,-7204.956,11255.778,-35259.684,24665.568,51661.824
965413.6445506649,-71020.23,-50969.566,9802.816,-7204.956,11259.44,-35258.016,24667.686,51668.867
965413.6485506614,-71024.336,-50981.812,9802.165,-7204.4272,11257.243,-35257.203,24666.912,51666.22
965413.6525506579,-71039.1,-51022.992,9799.154,-7203.247,11251.465,-35256.797,24665.691,51659.914
965413.6565506542,-71043.26,-51039.266,9799.235,-7203.6133,11249.919,-35257.367,24668.621,51661.906
965413.6605506507,-71029.26,-51002.89,9805.42,-7203.0845,11255.127,-35256.348,24674.725,51675.703
965413.6645506471,-71018.555,-50966.84,9809.326,-7203.41,11258.261,-35256.797,24674.725,51680.46
965413.6685506436,-71026.94,-50984.457,9807.292,-7204.0205,11252.971,-35260.62,24666.016,51666.547
965413.6725506401,-71040.49,-51025.39,9805.42,-7201.782,11249.35,-35263.633,24658.367,51654.46
965413.6765506364,-71044.76,-51039.39,9805.542,-7201.172,11250.407,-35262.613,24657.92,51651.164
965413.6805506329,-71032.76,-51003.95,9807.495,-7201.6196,11255.859,-35262.613,24661.094,51661.5
965413.6845506293,-71020.19,-50962.363,9811.32,-7203.044,11258.952,-35262.086,24662.883,51672.527
965413.6885506258,-71026.05,-50974.773,9811.239,-7203.939,11251.669,-35262.086,24658.57,51667.605
965413.6925506222,-71041.1,-51018.637,9807.78,-7203.044,11246.664,-35261.965,24653.402,51651.734
965413.6965506186,-71043.664,-51032.797,9807.292,-7202.8403,11244.304,-35261.312,24656.535,51644.734
965413.7005506151,-71030.88,-50998.74,9810.547,-7204.061,11249.35,-35261.19,24660.686,51653.77
965413.7045506116,-71019.49,-50959.92,9814.982,-7203.817,11254.11,-35261.8,24659.018,51662.312
965413.708550608,-71022.71,-50974.324,9817.831,-7203.288,11248.291,-35262.41,24653.281,51653.08
965413.7125506044,-71038.9,-51022.22,9815.918,-7202.3926,11241.74,-35262.047,24650.555,51640.83
965413.7165506008,-71043.91,-51041.504,9814.087,-7202.6777,11241.333,-35262.98,24651.205,51637.13
965413.7205505973,-71030.56,-51002.77,9818.441,-7201.579,11247.111,-35264.445,24656.291,51650.027
965413.7245505938,-71019.37,-50964.805,9821.655,-7201.701,11251.669,-35264.445,24656.7,51658.652
965413.7285505901,-71023.84,-50976.2,9823.039,-7201.701,11248.942,-35264.934,24652.629,51650.84
965413.7325505866,-71037.64,-51019.94,9822.226,-7200.6025,11242.025,-35263.145,24650.432,51638.105
965413.736550583,-71042.805,-51038.453,9821.899,-7201.172,11238.892,-35263.227,24652.467,51639.61
965413.7405505795,-71030.93,-51003.34,9823.894,-7202.8403,11241.699,-35265.383,24656.088,51651.45
965413.744550576,-71019.164,-50967.773,9828.247,-7202.596,11247.152,-35264.895,24657.309,51662.312
965413.7485505723,-71024.09,-50977.297,9827.922,-7200.5615,11244.182,-35264.85,24651.246,51652.996
965413.7525505688,-71041.016,-51022.91,9822.795,-7201.091,11237.671,-35265.543,24647.99,51640.79
965413.7565505652,-71041.83,-51038.047,9822.958,-7201.294,11234.863,-35265.625,24649.7,51639.57
965413.7605505617,-71033.164,-51002.605,9824.219,-7202.7183,11240.683,-35266.03,24653.89,51651.45
965413.7645505581,-71026.0,-50970.418,9825.399,-7205.078,11242.229,-35265.668,24654.379,51659.465
965413.7685505545,-71029.42,-50983.32,9824.992,-7205.078,11237.631,-35264.61,24652.223,51653.65
965413.772550551,-71047.125,-51028.688,9822.917,-7203.044,11232.382,-35263.754,24649.09,51635.176
965413.7765505475,-71055.79,-51045.613,9819.377,-7203.8574,11230.591,-35264.04,24652.629,51631.836
965413.7805505439,-71043.375,-51009.766,9819.743,-7204.997,11234.741,-35263.957,24658.203,51650.88
965413.7845505403,-71031.13,-50975.914,9825.684,-7203.5728,11239.543,-35262.613,24657.959,51662.598
965413.7885505367,-71035.04,-50989.543,9827.556,-7203.939,11236.288,-35263.875,24653.973,51650.758
965413.7925505332,-71046.875,-51027.387,9825.236,-7203.6543,11231.934,-35264.12,24651.734,51638.836
965413.7965505297,-71049.32,-51041.344,9822.592,-7203.532,11231.567,-35265.87,24652.467,51637.29
965413.800550526,-71036.26,-51000.69,9822.754,-7204.875,11234.253,-35266.6,24654.785,51648.36
965413.8045505225,-71026.0,-50960.574,9825.562,-7204.834,11238.037,-35265.055,24657.227,51661.582
965413.8085505189,-71032.48,-50977.05,9823.771,-7206.0957,11234.66,-35266.766,24653.281,51650.473
965413.8125505154,-71045.9,-51025.84,9820.395,-7206.909,11230.0625,-35267.906,24646.934,51633.383
965413.8165505118,-71048.305,-51034.06,9819.011,-7206.9907,11229.208,-35267.17,24648.398,51635.62
965413.8205505082,-71033.9,-50997.48,9822.836,-7207.2754,11236.45,-35266.277,24657.146,51651.938
965413.8245505047,-71025.02,-50965.457,9826.091,-7207.723,11242.514,-35265.87,24660.361,51665.242
965413.8285505011,-71032.555,-50981.69,9825.521,-7207.6416,11238.892,-35266.316,24656.088,51660.117
965413.8325504976,-71047.2,-51023.766,9822.754,-7207.5195,11236.206,-35266.48,24651.979,51644.453
965413.836550494,-71054.94,-51044.598,9819.865,-7209.3506,11237.509,-35266.52,24652.629,51637.004
965413.8405504904,-71044.92,-51011.312,9821.615,-7209.758,11245.605,-35266.848,24658.041,51653.363
965413.8445504869,-71033.37,-50975.508,9825.48,-7209.2285,11252.808,-35266.4,24662.72,51671.348
965413.8485504834,-71037.03,-50989.83,9825.399,-7207.6416,11253.012,-35265.87,24656.902,51655.887
965413.8525504797,-71050.78,-51034.63,9818.848,-7208.7812,11248.495,-35267.863,24651.531,51639.203
965413.8565504762,-71054.164,-51047.08,9815.023,-7209.1475,11250.651,-35266.848,24652.873,51636.07
965413.8605504726,-71043.74,-51010.99,9816.122,-7211.548,11257.446,-35267.375,24656.414,51649.7
965413.8645504691,-71034.836,-50978.68,9820.598,-7211.589,11259.115,-35265.87,24660.482,51666.016
965413.8685504656,-71039.67,-50996.785,9820.598,-7210.6934,11259.481,-35266.6,24656.982,51653.363
965413.8725504619,-71051.88,-51037.152,9817.709,-7208.6997,11256.104,-35267.78,24654.094,51644.004
965413.8765504584,-71055.75,-51051.27,9817.261,-7209.1064,11257.772,-35268.516,24655.803,51639.977
965413.8805504548,-71040.61,-51015.465,9820.272,-7209.9204,11265.625,-35268.434,24658.0,51647.258
965413.8845504513,-71028.89,-50980.918,9823.771,-7209.1475,11266.032,-35267.17,24659.791,51660.32
965413.8885504476,-71030.44,-50994.63,9825.277,-7206.787,11263.794,-35267.62,24655.314,51652.793
965413.8925504441,-71048.22,-51040.73,9820.109,-7205.892,11260.417,-35268.84,24651.408,51641.074
965413.8965504406,-71049.16,-51053.145,9818.563,-7205.9326,11262.573,-35269.246,24651.572,51637.574
965413.900550437,-71038.25,-51011.11,9820.3125,-7204.753,11271.647,-35269.734,24657.227,51648.562
965413.9045504335,-71028.16,-50974.938,9821.045,-7203.7354,11276.896,-35269.656,24658.732,51654.38
965413.9085504299,-71027.18,-50988.65,9822.836,-7202.5146,11273.52,-35270.875,24653.281,51642.78
965413.9125504263,-71035.97,-51024.66,9821.086,-7200.8057,11270.793,-35271.973,24648.887,51624.188
965413.9165504228,-71037.36,-51032.15,9819.906,-7202.5146,11266.846,-35271.973,24652.344,51626.793
965413.9205504193,-71025.68,-50992.72,9824.382,-7203.2065,11268.515,-35273.195,24656.006,51637.86
965413.9245504156,-71009.24,-50951.133,9831.462,-7202.3926,11273.52,-35273.6,24654.582,51647.586
965413.9285504121,-71002.12,-50951.215,9836.182,-7200.277,11272.705,-35274.82,24649.049,51641.93
965413.9325504085,-70999.92,-50977.336,9836.548,-7196.33,11267.538,-35277.344,24642.01,51620.117
965413.936550405,-70991.7,-50981.527,9838.217,-7192.871,11270.102,-35278.688,24640.87,51604.574
965413.9405504015,-70964.12,-50932.78,9845.541,-7190.1855,11276.408,-35280.4,24644.328,51618.125
965413.9445503978,-70936.73,-50880.086,9853.149,-7188.68,11281.291,-35280.438,24643.475,51628.297
965413.9485503943,-70930.95,-50886.64,9855.998,-7187.541,11279.745,-35280.03,24638.672,51622.03
965413.9525503907,-70935.14,-50924.727,9855.469,-7183.9194,11274.699,-35280.438,24635.254,51606.0
965413.9565503872,-70932.3,-50930.176,9858.114,-7183.065,11273.601,-35280.6,24640.625,51603.273
965413.9605503835,-70913.58,-50885.703,9862.387,-7184.123,11278.524,-35280.03,24646.24,51618.492
965413.96455038,-70907.35,-50855.88,9863.281,-7184.896,11282.919,-35279.297,24648.52,51629.56
965413.9685503765,-70909.016,-50868.367,9862.183,-7183.5127,11281.698,-35279.625,24642.01,51621.297
965413.972550373,-70923.22,-50912.234,9857.951,-7183.2686,11273.56,-35281.58,24634.766,51599.69
965413.9765503694,-70931.805,-50931.03,9853.394,-7186.5645,11270.305,-35282.96,24633.668,51590.09
965413.9805503658,-70923.42,-50900.96,9852.539,-7188.68,11274.292,-35283.773,24636.475,51597.332
965413.9845503622,-70911.945,-50867.84,9856.689,-7187.0117,11278.239,-35283.652,24637.168,51612.062
965413.9885503587,-70918.54,-50883.3,9855.876,-7185.0996,11276.855,-35282.023,24634.645,51610.066
965413.9925503551,-70936.81,-50929.324,9851.196,-7184.896,11270.468,-35282.633,24630.86,51595.46
965413.9965503515,-70943.08,-50944.746,9849.284,-7185.0996,11269.938,-35281.78,24635.336,51597.74
965414.000550348,-70933.555,-50913.332,9850.098,-7186.157,11275.229,-35280.926,24639.486,51612.1
965414.0045503444,-70927.9,-50884.402,9853.231,-7187.297,11277.222,-35279.99,24641.643,51623.7
965414.0085503409,-70937.79,-50904.91,9852.458,-7188.0293,11268.433,-35281.453,24636.23,51611.574
965414.0125503374,-70959.64,-50958.906,9846.3545,-7188.436,11261.719,-35283.043,24631.268,51591.31
965414.0165503337,-70968.79,-50981.406,9841.838,-7191.9355,11255.737,-35283.203,24633.424,51586.793
965414.0205503302,-70960.57,-50946.82,9844.931,-7194.133,11257.69,-35281.656,24640.545,51606.406
965414.0245503266,-70959.96,-50920.125,9843.588,-7196.167,11261.3125,-35281.863,24645.508,51621.83
965414.0285503231,-70970.38,-50938.113,9839.641,-7197.0215,11255.209,-35281.008,24643.799,51611.9
965414.0325503194,-70987.71,-50986.656,9836.345,-7196.045,11247.519,-35281.453,24637.004,51587.89
965414.0365503159,-70995.32,-51009.117,9832.072,-7196.737,11247.722,-35281.863,24637.371,51588.91
965414.0405503124,-70988.2,-50978.68,9834.677,-7197.632,11251.872,-35280.438,24644.125,51610.23
965414.0445503088,-70984.26,-50951.906,9837.646,-7198.6494,11253.296,-35281.94,24645.102,51615.438
965414.0485503052,-70990.484,-50969.08,9836.264,-7197.4287,11250.937,-35280.965,24645.143,51614.83
965414.0525503017,-71008.51,-51017.254,9831.828,-7197.2656,11244.385,-35280.316,24641.643,51602.824
965414.0565502981,-71015.1,-51033.613,9828.491,-7199.5444,11242.798,-35280.56,24643.066,51606.977
965414.0605502946,-71006.72,-50998.863,9831.055,-7201.457,11247.274,-35279.42,24646.484,51614.504
965414.064550291,-70998.7,-50964.355,9834.392,-7201.4976,11250.651,-35277.996,24649.334,51623.58
965414.0685502874,-71008.79,-50987.387,9833.049,-7201.6196,11246.989,-35275.39,24649.008,51624.473
965414.0725502839,-71024.82,-51034.59,9828.613,-7201.3755,11242.1875,-35275.516,24645.549,51608.195
965414.0765502803,-71029.664,-51051.395,9826.579,-7201.457,11240.356,-35275.637,24649.781,51609.742
965414.0805502768,-71016.16,-51012.82,9829.916,-7201.3755,11246.054,-35275.31,24656.617,51623.457
965414.0845502731,-71008.18,-50979.086,9831.665,-7201.7417,11250.0,-35275.797,24657.105,51629.11
965414.0885502696,-71016.32,-50999.105,9828.817,-7202.108,11245.158,-35275.27,24654.053,51622.52
965414.0925502661,-71034.586,-51045.453,9821.411,-7202.0264,11238.7295,-35274.7,24649.822,51609.418
965414.0965502625,-71042.65,-51060.832,9818.97,-7202.8,11236.857,-35276.613,24653.037,51609.418
965414.100550259,-71032.76,-51024.902,9822.104,-7205.2817,11239.909,-35276.855,24659.832,51626.02
965414.1045502553,-71026.25,-50996.297,9822.754,-7206.706,11240.723,-35275.105,24662.15,51636.312
965414.1085502518,-71035.195,-51017.418,9821.411,-7206.462,11235.8,-35276.125,24657.146,51621.176
965414.1125502483,-71049.28,-51062.46,9819.052,-7206.3804,11229.289,-35277.344,24650.025,51596.477
965414.1165502447,-71056.766,-51074.098,9815.796,-7207.5195,11226.237,-35276.855,24653.24,51599.49
965414.1205502411,-71049.03,-51040.938,9815.918,-7208.822,11229.045,-35276.45,24656.861,51616.58
965414.1245502376,-71040.85,-51011.027,9816.488,-7209.6357,11234.701,-35276.004,24655.07,51619.59
965414.128550234,-71048.99,-51033.246,9814.087,-7207.927,11231.527,-35277.184,24650.31,51615.52
965414.1325502305,-71062.91,-51080.08,9810.71,-7207.5605,11227.214,-35277.914,24645.875,51601.523
965414.136550227,-71064.375,-51090.047,9809.937,-7208.171,11225.912,-35277.02,24648.52,51603.477
965414.1405502233,-71054.37,-51052.29,9813.477,-7210.205,11231.812,-35276.367,24655.844,51623.863
965414.1445502198,-71044.555,-51017.418,9817.18,-7210.531,11234.619,-35277.26,24656.738,51632.734
965414.1485502162,-71049.89,-51032.066,9817.343,-7208.659,11229.492,-35277.996,24654.908,51628.785
965414.1525502127,-71064.66,-51077.07,9814.697,-7207.113,11223.877,-35278.16,24652.71,51617.555
965414.156550209,-71072.35,-51094.117,9810.71,-7208.13,11222.25,-35278.727,24654.094,51613.77
965414.1605502055,-71063.48,-51058.88,9811.523,-7210.775,11226.929,-35279.83,24659.709,51637.695
965414.164550202,-71053.51,-51031.09,9814.372,-7210.9375,11230.307,-35278.08,24663.127,51655.887
965414.1685501984,-71055.75,-51043.38,9813.559,-7209.3506,11228.964,-35277.71,24659.873,51643.23
965414.1725501949,-71069.54,-51084.555,9807.78,-7208.171,11222.697,-35278.2,24653.361,51619.59
965414.1765501912,-71074.79,-51097.332,9805.583,-7209.6763,11219.32,-35277.996,24653.158,51615.4
965414.1805501877,-71066.445,-51060.957,9807.048,-7211.914,11222.168,-35276.57,24655.193,51625.285
965414.1845501842,-71060.02,-51029.22,9809.611,-7212.362,11224.691,-35275.92,24657.35,51634.117
965414.1885501806,-71067.18,-51049.44,9806.926,-7211.914,11220.337,-35276.367,24653.2,51630.25
965414.192550177,-71083.82,-51094.402,9801.84,-7213.176,11211.304,-35276.33,24649.049,51618.004
965414.1965501735,-71088.42,-51111.53,9800.253,-7214.3555,11210.979,-35276.043,24651.979,51609.254
965414.2005501699,-71076.87,-51079.55,9802.897,-7214.8438,11214.966,-35277.184,24655.193,51613.08
965414.2045501664,-71068.36,-51048.016,9806.356,-7215.698,11216.635,-35278.16,24655.926,51619.305
965414.2085501628,-71073.28,-51061.035,9807.495,-7215.0474,11213.501,-35277.47,24653.158,51612.59
965414.2125501592,-71085.695,-51101.848,9803.793,-7214.3555,11206.828,-35275.105,24651.896,51605.715
965414.2165501557,-71090.01,-51110.516,9801.025,-7214.193,11206.259,-35276.043,24653.89,51603.56
965414.2205501521,-71078.66,-51075.156,9802.531,-7214.437,11213.217,-35275.473,24661.338,51620.32
965414.2245501486,-71070.805,-51042.156,9804.6875,-7215.373,11216.472,-35273.64,24666.992,51637.41
965414.2285501449,-71072.63,-51056.195,9805.624,-7213.5825,11213.013,-35274.54,24665.568,51630.21
965414.2325501414,-71085.695,-51102.54,9800.781,-7212.972,11208.984,-35277.06,24662.314,51614.34
965414.2365501379,-71087.41,-51117.23,9800.863,-7212.6465,11209.839,-35276.855,24660.32,51603.11
965414.2405501343,-71073.41,-51079.55,9803.142,-7214.2744,11211.02,-35276.53,24663.818,51617.676
965414.2445501307,-71064.945,-51045.574,9805.38,-7214.885,11213.176,-35276.816,24662.354,51627.77
965414.2485501271,-71071.66,-51061.566,9803.427,-7213.42,11210.043,-35274.332,24664.55,51644.734
965414.2525501236,-71087.52,-51108.277,9799.235,-7213.257,11201.213,-35273.6,24663.33,51633.06
965414.2565501201,-71089.32,-51120.363,9799.154,-7213.9893,11200.684,-35276.367,24652.344,51587.08
965414.2605501165,-71078.86,-51084.23,9802.368,-7213.908,11205.078,-35276.53,24656.738,51601.2
965414.2645501129,-71068.36,-51045.207,9802.368,-7215.454,11207.724,-35277.875,24661.215,51622.97
965414.2685501094,-71071.54,-51058.105,9802.612,-7213.4604,11205.282,-35277.957,24659.344,51626.465
965414.2725501058,-71089.6,-51106.12,9796.875,-7214.315,11197.958,-35279.094,24651.002,51606.203
965414.2765501023,-71092.37,-51118.816,9795.126,-7215.332,11196.493,-35279.83,24650.635,51602.824
965414.2805500986,-71080.08,-51082.234,9797.079,-7215.78,11200.603,-35279.99,24654.95,51619.344
965414.2845500951,-71072.67,-51046.875,9799.357,-7215.21,11203.654,-35280.19,24654.053,51625.613
965414.2885500916,-71077.72,-51063.273,9799.113,-7214.559,11200.114,-35279.582,24648.887,51619.914
965414.292550088,-71094.766,-51111.695,9792.725,-7214.966,11193.115,-35281.656,24643.066,51607.625
965414.2965500845,-71100.38,-51124.637,9790.283,-7215.7393,11190.837,-35282.555,24642.783,51596.477
965414.3005500808,-71087.164,-51086.223,9793.376,-7216.0645,11192.749,-35282.96,24643.88,51597.86
965414.3045500773,-71076.336,-51052.734,9796.713,-7217.3667,11195.923,-35283.367,24644.166,51609.336
965414.3085500738,-71081.34,-51069.094,9796.469,-7216.4717,11192.261,-35284.06,24641.318,51610.066
965414.3125500702,-71094.61,-51111.53,9794.597,-7215.373,11186.6455,-35283.49,24640.83,51606.57
965414.3165500666,-71097.78,-51123.008,9794.8,-7215.454,11185.344,-35282.633,24646.322,51618.9
965414.320550063,-71087.52,-51087.363,9795.532,-7217.041,11192.546,-35280.64,24656.861,51652.547
965414.3245500595,-71073.94,-51050.418,9797.119,-7215.5356,11196.127,-35279.664,24653.158,51634.605
965414.328550056,-71076.336,-51063.926,9796.713,-7213.786,11191.528,-35279.34,24645.102,51605.918
965414.3325500524,-71092.77,-51110.516,9791.83,-7213.8267,11185.1,-35280.316,24641.602,51597.332
965414.3365500488,-71098.8,-51125.203,9789.917,-7215.5356,11183.635,-35282.715,24639.201,51587.527
965414.3405500452,-71091.88,-51096.805,9788.981,-7218.669,11187.582,-35283.082,24645.305,51611.9
965414.3445500417,-71084.31,-51069.5,9790.324,-7220.215,11190.227,-35281.008,24653.688,51649.945
965414.3485500382,-71090.05,-51082.645,9789.795,-7220.622,11187.297,-35281.453,24646.566,51632.203
965414.3525500345,-71100.914,-51119.59,9789.389,-7217.9365,11183.716,-35283.69,24633.018,51578.74
965414.356550031,-71099.164,-51124.15,9788.249,-7215.5356,11186.279,-35284.098,24629.883,51565.51
965414.3605500275,-71085.164,-51084.8,9790.935,-7215.4136,11189.331,-35283.977,24635.05,51581.992
965414.3645500239,-71076.625,-51055.543,9792.5625,-7215.251,11191.04,-35281.375,24641.074,51603.11
965414.3685500204,-71084.44,-51073.69,9791.911,-7213.7046,11187.988,-35281.617,24638.307,51594.81
965414.3725500167,-71101.6,-51122.234,9786.947,-7213.0127,11182.414,-35283.285,24632.691,51574.06
965414.3765500132,-71107.75,-51132.69,9782.593,-7214.2744,11182.983,-35284.508,24632.895,51573.895
965414.3805500097,-71095.95,-51092.695,9784.79,-7215.8203,11189.006,-35283.246,24638.836,51595.785
965414.3845500061,-71081.055,-51054.73,9789.999,-7215.21,11192.871,-35281.984,24640.79,51610.555
965414.3885500025,-71084.555,-51069.38,9791.911,-7214.6406,11189.941,-35283.285,24636.842,51598.43
965414.392549999,-71095.83,-51113.04,9790.771,-7212.4023,11184.733,-35283.246,24632.53,51579.305
965414.3965499954,-71099.125,-51128.5,9788.656,-7212.362,11178.63,-35283.57,24634.318,51578.816
965414.4005499919,-71086.67,-51091.594,9790.894,-7211.8735,11184.896,-35283.12,24640.422,51594.727
965414.4045499883,-71076.58,-51054.527,9795.573,-7212.484,11188.721,-35282.066,24639.283,51607.344
965414.4085499847,-71083.74,-51069.176,9793.254,-7212.728,11184.326,-35283.977,24636.842,51605.797
965414.4125499811,-71096.88,-51113.242,9787.964,-7212.158,11177.694,-35285.848,24630.656,51579.305
965414.4165499776,-71098.31,-51120.484,9785.319,-7211.955,11175.7,-35286.46,24628.662,51574.42
965414.4205499741,-71085.125,-51083.008,9787.231,-7212.6465,11181.763,-35287.07,24632.691,51594.16
965414.4245499704,-71075.32,-51051.516,9790.039,-7212.2803,11185.181,-35288.047,24632.08,51602.133
965414.4285499669,-71080.77,-51066.043,9790.283,-7210.5713,11182.78,-35287.64,24627.93,51597.74
965414.4325499634,-71095.42,-51112.715,9787.028,-7210.0425,11174.561,-35287.723,24624.635,51590.863
965414.4365499598,-71097.58,-51121.055,9786.906,-7209.6357,11174.357,-35288.37,24623.008,51578.535
965414.4405499562,-71084.48,-51079.062,9789.267,-7209.1064,11183.391,-35287.56,24625.0,51589.195
965414.4445499526,-71075.484,-51047.0,9790.405,-7210.7344,11185.222,-35287.64,24625.326,51601.81
965414.4485499491,-71080.77,-51062.582,9789.714,-7210.6934,11181.03,-35284.383,24622.803,51594.402
965414.4525499456,-71093.67,-51105.67,9784.994,-7209.839,11174.235,-35283.652,24621.664,51581.258
965414.456549942,-71099.61,-51120.08,9781.25,-7210.531,11173.95,-35285.117,24625.164,51587.688
965414.4605499384,-71090.58,-51086.875,9783.447,-7211.2227,11179.729,-35285.035,24632.121,51607.91
965414.4645499348,-71082.12,-51055.137,9786.54,-7212.362,11183.391,-35282.715,24636.191,51634.035
965414.4685499313,-71087.37,-51070.234,9785.686,-7210.8564,11180.583,-35283.49,24627.727,51616.863
965414.4725499278,-71098.88,-51114.137,9783.977,-7208.74,11175.375,-35284.586,24616.537,51577.11
965414.4765499241,-71099.61,-51128.094,9783.081,-7208.496,11177.938,-35284.06,24613.607,51569.62
965414.4805499206,-71087.0,-51089.355,9785.767,-7210.531,11185.303,-35283.164,24612.387,51578.816
965414.484549917,-71077.76,-51057.496,9790.487,-7210.124,11190.634,-35281.82,24613.486,51592.734
965414.4885499135,-71085.37,-51078.695,9787.761,-7209.432,11187.948,-35283.49,24606.73,51587.363
965414.49254991,-71102.74,-51127.566,9782.837,-7208.74,11183.391,-35285.117,24605.062,51579.145
965414.4965499063,-71107.83,-51139.773,9781.047,-7208.618,11188.07,-35285.81,24606.121,51582.766
965414.5005499028,-71096.93,-51104.656,9783.122,-7209.5947,11195.395,-35286.582,24609.416,51595.906
965414.5045498993,-71087.52,-51070.8,9785.727,-7209.4727,11201.254,-35287.56,24609.701,51599.0
965414.5085498957,-71090.945,-51084.96,9784.14,-7207.8857,11201.864,-35288.21,24602.295,51579.145
965414.5125498921,-71106.125,-51129.64,9779.907,-7207.4385,11196.696,-35288.617,24597.129,51562.746
965414.5165498885,-71111.164,-51143.598,9777.548,-7208.944,11198.894,-35288.656,24597.9,51561.65
965414.520549885,-71099.94,-51109.09,9778.891,-7211.833,11205.893,-35288.777,24603.354,51579.67
965414.5245498815,-71092.125,-51078.535,9780.803,-7212.606,11211.874,-35287.926,24605.145,51594.24
965414.5285498779,-71097.984,-51095.055,9781.047,-7210.9375,11210.49,-35288.574,24597.535,51587.973
965414.5325498743,-71112.43,-51139.0,9779.135,-7209.2695,11204.143,-35290.203,24588.584,51568.28
965414.5365498707,-71119.51,-51162.07,9774.862,-7210.7344,11202.026,-35290.445,24588.828,51566.816
965414.5405498672,-71112.43,-51131.188,9776.53,-7211.914,11208.008,-35290.324,24593.059,51580.16
965414.5445498637,-71097.05,-51090.414,9780.844,-7210.897,11217.367,-35290.367,24591.838,51587.688
965414.54854986,-71097.82,-51096.03,9781.047,-7209.1064,11216.879,-35291.3,24591.594,51589.887
965414.5525498565,-71109.13,-51129.68,9777.873,-7206.909,11213.095,-35291.992,24590.414,51580.445
965414.556549853,-71111.94,-51138.797,9777.792,-7206.787,11213.379,-35293.62,24587.525,51563.844
965414.5605498494,-71096.36,-51097.902,9780.6,-7206.6245,11223.1045,-35294.68,24587.81,51567.06
965414.5645498459,-71085.45,-51060.426,9780.884,-7207.5605,11228.638,-35295.535,24584.88,51568.24
965414.5685498422,-71087.2,-51066.53,9776.571,-7205.404,11229.736,-35297.69,24575.562,51553.266
965414.5725498387,-71104.58,-51112.996,9772.258,-7204.2646,11223.511,-35297.324,24572.186,51545.125
965414.5765498352,-71112.63,-51129.316,9769.653,-7205.4443,11221.68,-35297.49,24571.86,51542.684
965414.5805498316,-71100.016,-51087.566,9769.816,-7206.909,11227.743,-35297.73,24575.48,51554.566
965414.584549828,-71087.98,-51049.887,9773.071,-7207.6416,11233.562,-35296.836,24574.18,51563.273
965414.5885498244,-71092.9,-51063.355,9774.292,-7207.0723,11230.591,-35296.145,24571.006,51559.613
965414.5925498209,-71108.93,-51107.75,9769.613,-7207.7637,11223.552,-35297.406,24569.988,51549.24
965414.5965498174,-71113.445,-51121.582,9767.822,-7207.601,11223.999,-35295.492,24574.26,51545.777
965414.6005498138,-71102.945,-51088.258,9769.45,-7208.74,11228.801,-35294.15,24580.648,51563.76
965414.6045498102,-71095.18,-51061.77,9770.712,-7209.1064,11232.666,-35295.047,24578.818,51567.914
965414.6085498066,-71102.664,-51084.23,9769.613,-7208.008,11227.58,-35295.695,24571.738,51554.688
965414.6125498031,-71115.32,-51126.953,9767.212,-7208.3335,11221.232,-35296.062,24565.35,51548.26
965414.6165497996,-71119.23,-51140.06,9765.747,-7209.3506,11219.32,-35297.77,24564.17,51549.4
965414.6205497959,-71106.125,-51100.914,9767.456,-7209.7983,11226.115,-35297.61,24570.883,51570.07
965414.6245497924,-71095.22,-51062.99,9770.386,-7209.5947,11233.562,-35296.305,24574.016,51591.96
965414.6285497888,-71100.914,-51080.406,9769.45,-7208.008,11227.743,-35296.43,24571.371,51592.125
965414.6325497853,-71118.45,-51125.734,9764.445,-7208.293,11218.506,-35296.305,24568.32,51582.805
965414.6365497818,-71122.88,-51137.25,9762.411,-7209.961,11219.6455,-35297.0,24564.982,51571.414
965414.6405497781,-71109.09,-51101.074,9765.178,-7210.1646,11225.098,-35296.1,24568.97,51581.098
965414.6445497746,-71099.24,-51072.39,9769.572,-7209.6763,11228.679,-35294.76,24573.895,51594.89
965414.648549771,-71105.51,-51090.902,9769.491,-7209.6357,11224.691,-35295.29,24572.307,51597.82
965414.6525497675,-71121.46,-51130.25,9765.585,-7208.293,11220.053,-35295.574,24568.035,51583.17
965414.6565497639,-71128.91,-51142.945,9761.679,-7209.4727,11218.506,-35293.863,24570.436,51580.934
965414.6605497603,-71120.484,-51111.41,9762.817,-7212.077,11221.558,-35295.25,24568.686,51583.336
965414.6645497568,-71112.836,-51081.18,9764.242,-7213.094,11223.511,-35296.918,24563.111,51586.426
965414.6685497533,-71121.34,-51096.113,9763.306,-7212.7686,11219.035,-35296.305,24558.432,51580.977
965414.6725497496,-71133.47,-51143.477,9762.533,-7211.1816,11210.897,-35295.86,24552.857,51556.766
965414.6765497461,-71138.76,-51160.727,9761.475,-7212.362,11205.893,-35295.33,24556.193,51560.63
965414.6805497425,-71125.94,-51118.816,9764.201,-7212.5244,11214.315,-35294.516,24557.008,51569.62
965414.684549739,-71115.64,-51084.555,9766.154,-7213.501,11219.687,-35295.613,24552.734,51578.9
965414.6885497355,-71121.75,-51099.406,9765.219,-7212.606,11212.646,-35296.145,24547.893,51580.242
965414.6925497318,-71139.37,-51142.742,9759.5625,-7212.606,11207.072,-35297.61,24535.686,51563.723
965414.6965497283,-71142.54,-51155.844,9757.731,-7212.728,11202.23,-35298.543,24531.455,51566.082
965414.7005497247,-71131.516,-51117.92,9758.749,-7213.664,11206.381,-35299.6,24531.861,51577.15
965414.7045497212,-71121.75,-51084.637,9763.184,-7213.135,11211.386,-35299.113,24531.291,51584.434
965414.7085497176,-71128.13,-51102.95,9761.719,-7211.914,11205.566,-35299.44,24525.717,51577.11
965414.712549714,-71143.27,-51145.71,9756.104,-7212.2397,11199.626,-35300.78,24518.148,51553.914
965414.7165497105,-71140.79,-51152.63,9754.802,-7210.653,11201.823,-35301.11,24514.08,51540.324
965414.720549707,-71124.96,-51118.246,9760.295,-7209.5137,11208.618,-35299.766,24519.328,51553.754
965414.7245497034,-71114.87,-51087.28,9767.497,-7209.554,11209.717,-35298.055,24522.543,51570.477
965414.7285496998,-71119.875,-51100.18,9768.026,-7209.432,11205.852,-35297.445,24520.428,51573.652
965414.7325496962,-71137.25,-51149.66,9762.817,-7209.9204,11197.266,-35298.91,24515.178,51560.59
965414.7365496927,-71137.984,-51156.58,9762.126,-7209.6357,11199.057,-35297.812,24516.969,51562.95
965414.7405496892,-71122.97,-51116.293,9767.497,-7208.74,11204.468,-35296.47,24519.004,51569.664
965414.7445496855,-71114.26,-51078.613,9771.77,-7208.9844,11206.747,-35295.574,24516.236,51575.605
965414.748549682,-71120.69,-51091.676,9769.206,-7207.927,11204.062,-35295.777,24506.797,51563.113
965414.7525496784,-71133.67,-51137.332,9763.754,-7208.13,11198.039,-35295.98,24499.717,51545.332
965414.7565496749,-71139.41,-51151.734,9760.214,-7209.961,11196.208,-35297.73,24494.385,51540.04
965414.7605496714,-71132.98,-51122.6,9761.149,-7211.792,11200.317,-35299.234,24496.299,51554.12
965414.7645496677,-71120.98,-51089.277,9765.178,-7212.1177,11204.468,-35299.156,24494.752,51564.168
965414.7685496642,-71124.27,-51101.074,9762.614,-7212.077,11198.242,-35299.44,24489.299,51552.9
965414.7725496606,-71139.125,-51141.24,9757.162,-7209.961,11195.72,-35298.83,24481.08,51527.957
965414.7765496571,-71146.04,-51156.21,9755.29,-7209.2285,11193.889,-35298.137,24481.812,51527.67
965414.7805496535,-71134.69,-51121.176,9760.376,-7208.822,11198.649,-35299.6,24482.666,51543.215
965414.7845496499,-71115.27,-51079.633,9769.45,-7206.665,11205.322,-35300.133,24479.533,51555.543
965414.7885496464,-71121.99,-51096.152,9769.938,-7206.462,11201.742,-35299.97,24472.861,51549.93
965414.7925496429,-71136.03,-51142.66,9768.148,-7207.0723,11191.488,-35300.457,24467.002,51530.64
965414.7965496393,-71142.414,-51156.21,9765.788,-7208.74,11186.32,-35300.008,24468.1,51527.02
965414.8005496357,-71129.516,-51116.945,9768.515,-7209.432,11192.627,-35299.156,24470.703,51548.3
965414.8045496321,-71116.21,-51083.66,9772.99,-7210.0425,11194.418,-35297.04,24469.158,51561.85
965414.8085496286,-71120.98,-51093.184,9772.461,-7208.7812,11190.756,-35296.754,24460.043,51551.68
965414.812549625,-71136.44,-51137.656,9770.061,-7206.9907,11187.338,-35300.7,24447.715,51529.707
965414.8165496214,-71139.98,-51148.152,9772.136,-7205.77,11188.273,-35300.984,24448.08,51529.258
965414.8205496179,-71129.805,-51108.277,9774.211,-7205.7295,11194.092,-35299.766,24451.742,51544.56
965414.8245496143,-71115.27,-51073.855,9779.013,-7206.0957,11192.505,-35298.79,24451.824,51559.492
965414.8285496108,-71119.06,-51090.535,9778.809,-7206.0547,11187.744,-35297.934,24447.877,51558.188
965414.8325496073,-71136.35,-51137.492,9772.705,-7205.241,11181.193,-35299.277,24440.43,51541.383
965414.8365496036,-71140.22,-51152.832,9771.159,-7206.9907,11178.101,-35299.36,24438.396,51532.43
965414.8405496001,-71127.766,-51111.695,9772.095,-7206.828,11185.751,-35298.83,24441.773,51545.047
965414.8445495965,-71116.25,-51070.516,9773.56,-7206.706,11196.615,-35296.387,24441.855,51558.35
965414.848549593,-71118.66,-51084.15,9777.344,-7205.892,11191.162,-35295.207,24438.355,51552.9
965414.8525495894,-71133.305,-51129.805,9774.374,-7204.997,11182.902,-35295.98,24432.496,51537.723
965414.8565495858,-71139.04,-51144.29,9773.479,-7203.939,11182.089,-35295.9,24434.693,51537.477
965414.8605495823,-71127.32,-51107.344,9777.548,-7205.0376,11185.547,-35295.9,24437.217,51554.324
965414.8645495787,-71115.56,-51073.69,9779.094,-7204.997,11192.383,-35296.55,24434.611,51565.633
965414.8685495751,-71126.18,-51091.39,9773.723,-7206.136,11185.303,-35298.707,24425.66,51551.555
965414.8725495716,-71144.25,-51137.047,9767.416,-7207.2754,11174.194,-35299.93,24415.447,51532.918
965414.876549568,-71147.5,-51149.008,9766.235,-7207.479,11170.573,-35298.87,24411.582,51528.77
965414.8805495645,-71137.86,-51107.504,9766.073,-7209.1064,11177.165,-35298.83,24408.814,51536.094
965414.884549561,-71128.91,-51070.027,9766.602,-7210.6123,11180.461,-35299.156,24403.484,51547.285
965414.8885495573,-71141.44,-51094.44,9762.329,-7211.6294,11176.311,-35300.336,24393.719,51536.297
965414.8925495538,-71152.914,-51137.004,9760.376,-7209.0254,11165.121,-35300.78,24386.963,51521.73
965414.8965495502,-71156.25,-51152.996,9762.207,-7208.13,11160.197,-35301.72,24389.568,51524.293
965414.9005495467,-71144.01,-51115.195,9764.7705,-7208.2114,11166.789,-35302.004,24391.969,51536.62
965414.904549543,-71135.91,-51078.047,9766.113,-7209.432,11170.166,-35300.945,24390.666,51546.062
965414.9085495395,-71143.72,-51093.832,9765.951,-7209.432,11166.342,-35300.7,24383.953,51538.21
965414.912549536,-71158.9,-51141.887,9763.144,-7208.944,11159.587,-35301.35,24376.629,51522.746
965414.9165495324,-71161.7,-51152.184,9758.708,-7208.822,11160.075,-35302.734,24375.45,51522.22
965414.9205495289,-71149.21,-51110.312,9758.993,-7209.0254,11167.236,-35302.33,24377.361,51540.203
965414.9245495253,-71136.11,-51068.402,9763.225,-7209.758,11171.103,-35300.133,24375.938,51551.027
965414.9285495217,-71143.64,-51089.113,9761.108,-7209.961,11165.039,-35300.05,24370.361,51549.727
965414.9325495182,-71160.36,-51140.79,9758.423,-7209.2695,11155.233,-35303.1,24362.51,51538.13
965414.9365495146,-71163.82,-51151.492,9755.249,-7210.1646,11158.366,-35304.89,24356.162,51524.984
965414.940549511,-71153.52,-51113.324,9756.999,-7211.9956,11161.865,-35303.754,24357.463,51539.96
965414.9445495075,-71143.03,-51077.84,9760.986,-7212.972,11163.9,-35304.527,24357.342,51555.176
965414.9485495039,-71146.32,-51095.297,9762.045,-7211.3447,11160.238,-35303.426,24352.988,51551.758
965414.9525495004,-71161.17,-51142.17,9759.277,-7210.6934,11150.879,-35302.613,24346.273,51537.76
965414.9565494969,-71163.86,-51152.63,9758.464,-7211.9956,11150.31,-35303.266,24345.053,51534.953
965414.9605494932,-71152.38,-51114.543,9760.702,-7213.8267,11156.047,-35302.777,24350.547,51552.086
965414.9645494897,-71141.6,-51079.305,9765.056,-7213.7046,11158.041,-35301.96,24351.035,51565.676
965414.9685494861,-71147.22,-51092.164,9766.602,-7213.0127,11155.844,-35300.945,24345.256,51559.492
965414.9725494826,-71159.586,-51134.688,9766.154,-7210.9375,11151.774,-35301.395,24339.234,51544.68
965414.976549479,-71161.016,-51138.875,9767.212,-7210.1646,11153.564,-35299.234,24339.234,51543.703
965414.9805494754,-71148.12,-51096.03,9770.874,-7210.124,11160.075,-35297.49,24342.285,51565.27
965414.9845494719,-71138.19,-51060.63,9772.665,-7209.7983,11162.842,-35296.305,24343.832,51588.46
965414.9885494683,-71146.61,-51079.55,9769.531,-7210.775,11155.518,-35296.305,24337.484,51590.902
965414.9925494648,-71165.53,-51129.152,9764.038,-7210.368,11149.252,-35297.406,24329.346,51576.824
965414.9965494612,-71167.6,-51136.68,9762.777,-7208.618,11152.588,-35297.934,24325.684,51568.562
965415.0005494576,-71154.75,-51096.56,9765.422,-7209.3506,11160.319,-35297.895,24329.062,51582.6
965415.0045494541,-71144.05,-51063.113,9767.253,-7209.961,11163.046,-35298.543,24325.807,51591.84
965415.0085494505,-71146.41,-51080.203,9768.718,-7206.299,11161.662,-35298.746,24316.53,51581.504
965415.0125494469,-71160.766,-51127.44,9765.951,-7204.1016,11158.244,-35298.22,24313.396,51573.324
965415.0165494434,-71166.22,-51137.82,9762.451,-7205.6885,11155.681,-35299.195,24313.885,51577.598
965415.0205494398,-71155.03,-51101.44,9762.899,-7207.5195,11158.122,-35301.27,24313.965,51586.266
965415.0245494363,-71143.84,-51065.918,9767.497,-7207.1943,11162.231,-35302.246,24309.57,51588.746
965415.0285494328,-71146.81,-51079.754,9768.84,-7205.1597,11158.936,-35304.527,24301.19,51575.727
965415.0325494291,-71160.04,-51127.81,9766.562,-7204.468,11150.024,-35304.117,24294.475,51557.008
965415.0365494256,-71160.81,-51137.74,9764.526,-7204.1426,11148.56,-35303.71,24295.166,51561.727
965415.040549422,-71147.55,-51096.03,9767.538,-7205.3633,11154.745,-35304.28,24298.096,51583.62
965415.0445494185,-71137.66,-51060.223,9769.165,-7205.4443,11157.675,-35302.938,24299.846,51600.87
965415.0485494148,-71142.54,-51074.344,9769.125,-7204.0205,11155.722,-35301.15,24297.527,51603.438
965415.0525494113,-71158.086,-51119.344,9765.951,-7203.0845,11151.408,-35303.914,24289.227,51586.836
965415.0565494078,-71156.58,-51121.992,9767.538,-7200.765,11156.21,-35305.016,24285.727,51581.3
965415.0605494042,-71142.336,-51079.754,9772.502,-7200.155,11163.371,-35304.934,24290.771,51597.168
965415.0645494006,-71130.86,-51043.094,9775.351,-7199.87,11166.83,-35303.836,24290.121,51611.168
965415.068549397,-71139.94,-51059.773,9771.078,-7201.2534,11161.987,-35304.85,24282.064,51603.23
965415.0725493935,-71154.055,-51103.56,9768.637,-7200.643,11153.076,-35305.83,24276.652,51589.926
965415.07654939,-71158.66,-51113.04,9766.562,-7201.9043,11152.873,-35304.934,24278.361,51584.027
965415.0805493864,-71149.54,-51075.4,9767.131,-7203.6133,11156.738,-35305.22,24281.78,51601.32
965415.0845493828,-71138.555,-51041.668,9770.549,-7203.7354,11160.116,-35304.484,24281.535,51616.7
965415.0885493793,-71144.984,-51060.14,9768.881,-7204.2236,11156.535,-35303.387,24279.746,51618.613
965415.0925493757,-71162.36,-51104.574,9763.266,-7204.7935,11150.351,-35302.777,24275.92,51600.996
965415.0965493722,-71162.195,-51112.918,9764.526,-7203.6133,11148.479,-35303.02,24273.072,51590.58
965415.1005493685,-71149.45,-51075.24,9768.759,-7204.631,11154.135,-35301.598,24279.014,51609.375
965415.104549365,-71139.484,-51043.215,9770.468,-7206.584,11157.349,-35300.984,24279.338,51619.996
965415.1085493615,-71146.32,-51064.453,9767.904,-7206.421,11153.483,-35301.27,24273.438,51616.66
965415.1125493579,-71162.97,-51112.996,9760.498,-7206.136,11149.17,-35302.33,24265.3,51598.836
965415.1165493544,-71165.61,-51123.7,9759.237,-7207.113,11147.787,-35303.836,24263.145,51593.547
965415.1205493507,-71152.63,-51085.86,9763.225,-7208.8623,11150.351,-35303.387,24267.945,51612.55
965415.1245493472,-71144.82,-51054.85,9765.585,-7208.374,11154.338,-35302.45,24270.06,51629.598
965415.1285493437,-71149.336,-51069.297,9764.975,-7207.3164,11154.175,-35301.72,24264.445,51618.938
965415.1325493401,-71165.77,-51118.9,9761.108,-7208.13,11146.078,-35302.574,24258.383,51602.54
965415.1365493365,-71169.516,-51132.04,9758.667,-7209.188,11147.299,-35305.3,24257.162,51599.043
965415.140549333,-71156.86,-51092.246,9760.742,-7210.5713,11156.738,-35305.79,24265.3,51622.97
965415.1445493294,-71145.67,-51053.508,9763.144,-7209.6357,11159.79,-35304.324,24266.969,51639.977
965415.1485493259,-71150.68,-51067.06,9761.19,-7209.1475,11155.803,-35303.754,24258.262,51623.7
965415.1525493223,-71168.3,-51115.766,9758.464,-7208.537,11149.862,-35303.63,24254.191,51608.277
965415.1565493187,-71172.164,-51127.523,9757.365,-7208.8623,11153.769,-35304.04,24257.203,51611.492
965415.1605493152,-71159.95,-51086.508,9760.092,-7210.2866,11164.022,-35304.363,24261.924,51622.355
965415.1645493116,-71148.84,-51049.48,9762.411,-7210.246,11169.963,-35302.33,24268.76,51642.62
965415.1685493081,-71152.38,-51067.75,9763.266,-7208.944,11170.898,-35301.8,24268.352,51642.215
965415.1725493044,-71172.04,-51124.227,9757.731,-7209.554,11167.725,-35302.734,24261.842,51626.14
965415.1765493009,-71177.33,-51135.01,9754.272,-7211.1816,11169.475,-35302.125,24262.86,51621.297
965415.1805492974,-71162.97,-51095.543,9757.568,-7210.897,11179.118,-35302.53,24267.822,51636.68
965415.1845492938,-71147.79,-51057.17,9760.58,-7210.9375,11185.995,-35303.062,24267.09,51646.04
965415.1885492903,-71152.55,-51074.668,9759.5625,-7211.1816,11181.56,-35302.53,24265.422,51643.758
965415.1925492866,-71168.78,-51122.97,9756.999,-7209.961,11176.636,-35300.906,24263.592,51632.527
965415.1965492831,-71170.414,-51132.45,9756.511,-7210.246,11179.892,-35303.184,24261.23,51624.797
965415.2005492796,-71159.95,-51100.914,9760.458,-7210.6934,11186.972,-35304.812,24266.521,51642.293
965415.204549276,-71150.555,-51067.63,9763.835,-7211.467,11191.447,-35304.85,24268.637,51657.715
965415.2085492724,-71155.36,-51080.527,9762.858,-7210.9785,11192.871,-35304.812,24263.145,51654.094
965415.2125492689,-71168.09,-51127.363,9761.027,-7209.839,11185.954,-35304.402,24260.377,51641.113
965415.2165492653,-71169.31,-51135.418,9760.539,-7209.9204,11186.89,-35304.688,24258.994,51632.203
965415.2205492618,-71157.266,-51100.098,9762.817,-7210.8564,11191.772,-35303.793,24264.61,51647.137
965415.2245492582,-71146.0,-51069.746,9765.463,-7211.6294,11195.395,-35305.42,24265.057,51657.188
965415.2285492546,-71152.914,-51088.38,9765.341,-7211.2227,11195.3125,-35307.008,24261.842,51652.02
965415.232549251,-71168.58,-51137.695,9759.888,-7210.327,11193.319,-35306.926,24260.865,51643.72
965415.2365492475,-71170.62,-51150.676,9759.644,-7212.2803,11188.762,-35307.58,24264.771,51644.86
965415.240549244,-71156.375,-51112.305,9763.632,-7212.3213,11194.214,-35307.58,24269.125,51658.082
965415.2445492403,-71147.09,-51075.605,9765.3,-7212.362,11200.603,-35306.64,24272.299,51671.836
965415.2485492368,-71153.81,-51091.96,9764.486,-7211.792,11198.649,-35306.48,24271.729,51668.867
965415.2525492333,-71169.64,-51138.875,9762.126,-7211.548,11192.546,-35309.125,24264.69,51643.19
965415.2565492297,-71174.44,-51151.695,9760.58,-7211.467,11194.865,-35309.285,24267.457,51644.656
965415.2605492262,-71164.1,-51115.562,9759.766,-7214.7217,11201.538,-35310.1,24273.234,51659.87
965415.2645492225,-71149.945,-51083.254,9763.306,-7215.617,11201.498,-35310.305,24271.566,51663.496
965415.268549219,-71156.66,-51101.973,9761.068,-7214.3965,11200.114,-35311.035,24265.016,51653.363
965415.2725492155,-71172.0,-51145.67,9757.446,-7212.6875,11196.208,-35313.438,24258.586,51637.29
965415.2765492119,-71177.37,-51158.734,9753.703,-7214.0303,11196.615,-35315.023,24257.203,51638.023
965415.2805492083,-71166.305,-51123.414,9756.918,-7215.617,11197.998,-35314.656,24262.656,51656.17
965415.2845492047,-71155.27,-51087.16,9758.261,-7215.0474,11202.556,-35313.965,24264.61,51669.477
965415.2885492012,-71157.72,-51101.89,9760.173,-7213.867,11200.033,-35313.07,24263.55,51672.934
965415.2925491977,-71174.97,-51155.965,9756.186,-7214.1113,11194.011,-35312.094,24261.598,51664.797
965415.296549194,-71176.8,-51169.19,9754.517,-7214.2334,11194.702,-35313.68,24259.604,51661.418
965415.3005491905,-71165.57,-51130.332,9755.412,-7215.5356,11200.603,-35314.984,24262.248,51671.875
965415.304549187,-71155.4,-51092.164,9759.359,-7216.268,11203.573,-35315.555,24263.266,51684.33
965415.3085491834,-71158.125,-51106.812,9758.22,-7215.7393,11198.486,-35315.797,24260.986,51686.32
965415.3125491799,-71171.76,-51147.95,9755.453,-7215.5356,11194.865,-35315.633,24258.057,51672.49
965415.3165491762,-71176.03,-51159.06,9754.069,-7216.3496,11193.319,-35316.49,24258.506,51662.8
965415.3205491727,-71166.18,-51123.58,9756.104,-7217.326,11198.527,-35316.0,24264.73,51682.21
965415.3245491692,-71155.84,-51087.527,9759.44,-7218.2617,11201.945,-35316.53,24259.4,51689.902
965415.3285491656,-71163.086,-51103.56,9758.545,-7218.425,11199.057,-35317.223,24244.955,51685.02
965415.332549162,-71177.53,-51149.21,9755.209,-7218.547,11193.767,-35317.383,24230.877,51668.05
965415.3365491584,-71178.875,-51160.973,9753.581,-7218.506,11192.261,-35318.484,24223.715,51667.81
965415.3405491549,-71166.266,-51126.344,9753.256,-7219.9707,11196.981,-35319.01,24217.002,51676.473
965415.3445491514,-71157.516,-51091.023,9754.477,-7221.517,11197.266,-35317.223,24210.531,51689.496
965415.3485491478,-71164.516,-51110.477,9753.418,-7221.7207,11191.162,-35319.5,24196.168,51680.91
965415.3525491442,-71180.664,-51156.21,9751.262,-7218.872,11186.442,-35320.312,24181.926,51662.03
965415.3565491406,-71186.28,-51164.188,9747.233,-7220.378,11183.92,-35321.25,24173.545,51658.938
965415.3605491371,-71175.82,-51128.297,9748.251,-7222.2495,11186.564,-35321.086,24172.812,51677.98
965415.3645491336,-71162.195,-51094.566,9754.395,-7222.534,11190.512,-35319.664,24169.068,51696.453
965415.3685491299,-71164.43,-51107.586,9756.511,-7221.924,11186.076,-35321.902,24157.023,51690.43
965415.3725491264,-71176.27,-51157.797,9755.168,-7221.2324,11179.199,-35322.105,24149.008,51680.055
965415.3765491229,-71179.89,-51173.098,9753.459,-7222.453,11176.596,-35322.023,24147.502,51681.684
965415.3805491193,-71165.57,-51133.668,9757.202,-7223.0225,11181.396,-35321.047,24151.775,51702.19
965415.3845491158,-71154.87,-51095.83,9761.353,-7222.9004,11186.117,-35322.633,24148.072,51711.387
965415.3885491121,-71159.63,-51109.09,9759.888,-7221.5576,11183.146,-35322.062,24139.527,51705.16
965415.3925491086,-71173.38,-51149.09,9756.796,-7220.5405,11178.549,-35321.332,24130.209,51693.2
965415.3965491051,-71172.85,-51154.625,9757.487,-7216.4717,11180.949,-35321.535,24127.035,51691.0
965415.4005491015,-71160.445,-51119.14,9758.911,-7213.094,11184.814,-35322.348,24128.541,51706.3
965415.4045490979,-71151.9,-51087.85,9759.766,-7212.5654,11188.559,-35322.227,24128.623,51721.68
965415.4085490943,-71157.39,-51099.938,9758.627,-7211.3853,11188.192,-35323.242,24123.78,51725.383
965415.4125490908,-71172.734,-51141.6,9754.599,-7210.5713,11181.56,-35325.48,24117.066,51715.863
965415.4165490873,-71173.016,-51152.02,9754.721,-7208.944,11183.024,-35326.457,24112.305,51702.395
965415.4205490837,-71159.1,-51115.766,9758.261,-7210.327,11187.866,-35326.703,24113.69,51714.234
965415.4245490801,-71150.43,-51083.906,9761.394,-7212.4023,11190.1455,-35326.703,24110.148,51722.13
965415.4285490765,-71157.48,-51102.133,9760.132,-7213.094,11184.204,-35326.5,24102.418,51717.9
965415.432549073,-71174.195,-51147.91,9756.348,-7212.2397,11179.159,-35326.62,24093.873,51703.74
965415.4365490695,-71177.05,-51160.32,9756.145,-7211.1006,11179.525,-35326.336,24094.28,51707.48
965415.4405490658,-71161.664,-51121.094,9759.399,-7211.263,11181.071,-35326.01,24098.877,51721.355
965415.4445490623,-71150.27,-51083.418,9760.905,-7212.199,11186.198,-35325.156,24099.162,51739.87
965415.4485490588,-71159.63,-51103.56,9756.47,-7213.2163,11182.983,-35326.703,24094.158,51745.65
965415.4525490552,-71176.234,-51150.39,9751.628,-7212.7686,11175.741,-35328.004,24088.867,51732.22
965415.4565490517,-71179.52,-51162.883,9749.472,-7213.5825,11174.438,-35327.72,24087.729,51723.348
965415.460549048,-71168.91,-51128.094,9751.14,-7214.5186,11180.258,-35326.906,24086.549,51731.203
965415.4645490445,-71162.234,-51094.85,9751.425,-7216.1055,11180.054,-35328.25,24082.072,51739.95
965415.468549041,-71168.945,-51114.098,9749.756,-7216.7563,11176.636,-35330.445,24074.871,51726.484
965415.4725490374,-71184.33,-51163.008,9745.646,-7215.7393,11170.898,-35330.04,24071.006,51714.4
965415.4765490338,-71188.516,-51178.508,9743.815,-7216.2275,11168.986,-35329.957,24072.715,51716.15
965415.4805490302,-71176.39,-51142.09,9745.321,-7216.797,11172.934,-35330.484,24079.102,51733.195
965415.4845490267,-71166.51,-51106.324,9746.867,-7218.0586,11176.799,-35330.242,24082.764,51751.02
965415.4885490232,-71174.16,-51121.38,9744.914,-7218.2617,11173.747,-35330.484,24081.543,51749.35
965415.4925490195,-71188.64,-51164.023,9742.1875,-7216.8784,11168.132,-35329.508,24077.922,51738.69
965415.496549016,-71191.24,-51174.727,9740.845,-7216.5527,11170.898,-35331.543,24072.959,51730.715
965415.5005490124,-71180.26,-51142.5,9742.432,-7217.977,11171.387,-35333.375,24073.447,51742.72
965415.5045490089,-71169.48,-51103.8,9745.565,-7218.872,11174.643,-35331.258,24078.086,51764.85
965415.5085490054,-71170.984,-51111.41,9746.46,-7217.041,11174.846,-35330.08,24076.498,51764.12
965415.5125490017,-71181.93,-51157.27,9744.263,-7215.617,11168.498,-35330.12,24070.965,51748.375
965415.5165489982,-71186.77,-51168.703,9742.025,-7216.3496,11166.626,-35331.42,24070.557,51751.26
965415.5205489947,-71175.74,-51132.773,9743.408,-7217.6924,11171.591,-35330.895,24075.684,51768.758
965415.5245489911,-71166.266,-51099.406,9746.745,-7219.2793,11173.056,-35329.43,24079.143,51784.1
965415.5285489875,-71171.96,-51112.55,9744.385,-7218.4653,11169.882,-35330.65,24073.08,51773.03
965415.5325489839,-71187.586,-51159.75,9739.543,-7217.7734,11161.743,-35331.992,24064.453,51751.387
965415.5365489804,-71189.7,-51170.125,9740.031,-7217.977,11159.058,-35331.3,24065.064,51750.734
965415.5405489769,-71175.984,-51129.68,9744.507,-7218.7095,11162.15,-35329.062,24070.72,51766.035
965415.5445489733,-71162.72,-51092.816,9748.129,-7219.2383,11166.057,-35328.33,24071.371,51778.85
965415.5485489697,-71170.086,-51111.207,9744.019,-7218.7095,11163.493,-35329.47,24065.39,51781.332
965415.5525489661,-71185.95,-51158.33,9739.624,-7217.7734,11157.593,-35330.85,24056.316,51757.12
965415.5565489626,-71189.414,-51171.023,9737.061,-7220.581,11154.297,-35330.973,24054.525,51748.008
965415.5605489591,-71179.04,-51137.574,9740.927,-7223.0225,11154.948,-35330.28,24062.826,51768.72
965415.5645489554,-71173.38,-51103.07,9743.286,-7224.162,11157.187,-35330.04,24067.059,51789.023
965415.5685489519,-71181.07,-51115.277,9741.374,-7223.7144,11155.844,-35330.73,24060.832,51782.715
965415.5725489483,-71195.64,-51162.844,9737.631,-7222.3716,11150.635,-35331.137,24052.49,51766.113
965415.5765489448,-71196.58,-51175.58,9737.061,-7223.3887,11148.031,-35330.28,24052.084,51762.332
965415.5805489413,-71182.09,-51135.906,9738.77,-7224.4062,11151.286,-35330.16,24055.705,51773.887
965415.5845489376,-71171.39,-51100.14,9741.252,-7224.9756,11156.332,-35331.098,24054.893,51788.984
965415.5885489341,-71173.46,-51112.062,9741.74,-7222.86,11155.966,-35331.18,24051.475,51785.848
965415.5925489306,-71185.586,-51157.105,9738.119,-7222.575,11150.146,-35331.055,24046.55,51767.906
965415.596548927,-71189.58,-51170.207,9736.776,-7222.9414,11148.52,-35330.445,24049.033,51770.793
965415.6005489234,-71180.625,-51133.832,9738.078,-7224.9756,11150.798,-35330.527,24053.63,51791.63
965415.6045489198,-71166.22,-51096.152,9743.002,-7223.796,11155.029,-35329.145,24054.16,51804.566
965415.6085489163,-71171.43,-51110.598,9743.205,-7221.761,11153.158,-35330.85,24048.178,51798.3
965415.6125489128,-71184.125,-51153.242,9740.642,-7219.808,11149.292,-35330.973,24041.18,51783.895
965415.6165489092,-71188.31,-51165.855,9738.607,-7220.6626,11150.92,-35331.383,24039.47,51783.45
965415.6205489056,-71177.66,-51133.586,9740.031,-7222.0054,11155.64,-35331.95,24042.889,51801.395
965415.624548902,-71166.55,-51099.895,9742.27,-7222.168,11156.779,-35334.312,24038.656,51806.6
965415.6285488985,-71171.96,-51117.27,9741.537,-7222.6973,11148.804,-35337.566,24028.605,51789.188
965415.632548895,-71188.234,-51166.832,9736.9795,-7222.2495,11142.822,-35337.484,24023.193,51777.547
965415.6365488913,-71193.24,-51183.797,9734.172,-7221.843,11142.334,-35337.65,24024.537,51775.066
965415.6405488878,-71186.24,-51155.355,9735.067,-7223.3887,11145.264,-35339.56,24028.484,51795.168
965415.6445488842,-71174.36,-51120.89,9740.601,-7223.4297,11148.601,-35337.242,24034.14,51816.164
965415.6485488807,-71179.484,-51131.96,9740.438,-7223.877,11144.125,-35335.777,24031.21,51813.113
965415.6525488772,-71195.516,-51174.4,9738.119,-7222.168,11142.294,-35335.29,24025.146,51799.24
965415.6565488735,-71197.06,-51178.875,9738.119,-7221.395,11143.718,-35335.086,24024.658,51798.137
965415.66054887,-71182.414,-51138.797,9740.967,-7220.5405,11149.374,-35335.574,24028.32,51813.926
965415.6645488665,-71169.516,-51103.598,9744.873,-7221.3545,11152.792,-35335.613,24026.043,51825.523
965415.6685488629,-71175.984,-51119.062,9744.873,-7220.2964,11149.74,-35336.14,24019.654,51816.082
965415.6725488593,-71193.195,-51168.785,9740.601,-7220.256,11143.555,-35338.34,24014.69,51797.203
965415.6765488557,-71197.23,-51178.1,9737.183,-7221.6797,11141.276,-35340.945,24013.389,51796.59
965415.6805488522,-71183.92,-51141.93,9740.845,-7222.534,11142.538,-35340.047,24019.166,51817.26
965415.6845488487,-71174.56,-51108.24,9745.443,-7222.1274,11148.52,-35338.785,24018.799,51831.098
965415.688548845,-71180.914,-51119.55,9744.304,-7220.703,11147.421,-35338.83,24013.307,51823.61
965415.6925488415,-71194.016,-51163.984,9740.764,-7221.3135,11137.695,-35339.316,24007.61,51804.73
965415.6965488379,-71198.57,-51176.598,9737.509,-7222.3716,11136.475,-35339.234,24007.936,51798.953
965415.7005488344,-71187.22,-51141.6,9737.712,-7223.348,11141.806,-35337.81,24012.533,51813.76
965415.7045488309,-71178.51,-51110.027,9739.787,-7224.8535,11142.619,-35337.445,24014.527,51827.11
965415.7085488272,-71191.29,-51135.336,9736.247,-7226.8477,11132.731,-35336.996,24010.703,51821.21
965415.7125488237,-71205.77,-51182.7,9732.788,-7227.458,11124.838,-35336.996,24006.797,51801.473
965415.7165488201,-71203.164,-51180.098,9730.185,-7226.6035,11128.296,-35339.195,24007.121,51796.51
965415.7205488166,-71193.08,-51143.35,9730.388,-7227.417,11136.23,-35336.793,24012.9,51814.332
965415.724548813,-71183.02,-51107.625,9733.114,-7227.0103,11140.259,-35338.016,24010.092,51826.094
965415.7285488094,-71184.734,-51113.934,9730.551,-7224.691,11141.968,-35339.805,24003.541,51820.312
965415.7325488059,-71202.96,-51164.473,9722.209,-7227.1323,11135.702,-35341.39,23999.676,51809.125
965415.7365488023,-71206.09,-51176.19,9720.012,-7227.051,11132.324,-35341.023,24002.035,51808.434
965415.7405487988,-71192.875,-51136.07,9722.941,-7226.115,11140.422,-35341.676,24005.86,51815.88
965415.7445487952,-71182.62,-51096.152,9724.447,-7226.4404,11146.078,-35341.434,24006.715,51824.91
965415.7485487916,-71190.35,-51105.105,9720.093,-7227.173,11140.3,-35341.188,24005.576,51823.855
965415.7525487881,-71204.8,-51144.246,9716.024,-7227.3765,11131.918,-35341.35,24000.814,51803.1
965415.7565487846,-71207.97,-51154.34,9717.367,-7227.0103,11131.592,-35342.203,24004.03,51800.703
965415.7605487809,-71194.74,-51120.2,9720.215,-7227.3765,11137.777,-35343.1,24012.695,51821.492
965415.7645487774,-71187.664,-51092.125,9721.232,-7229.6143,11139.975,-35341.637,24019.898,51843.508
965415.7685487738,-71195.03,-51107.016,9719.6045,-7229.167,11138.266,-35341.555,24017.822,51831.992
965415.7725487703,-71208.09,-51147.34,9714.6,-7227.6206,11131.47,-35341.51,24013.104,51811.77
965415.7765487668,-71210.98,-51161.258,9711.508,-7227.417,11128.947,-35342.33,24014.527,51811.035
965415.7805487631,-71196.54,-51122.4,9713.786,-7226.7256,11138.632,-35341.96,24019.004,51823.57
965415.7845487596,-71183.84,-51090.457,9717.611,-7227.295,11141.073,-35341.023,24019.695,51835.45
965415.788548756,-71190.68,-51109.09,9715.658,-7227.0103,11136.516,-35342.49,24015.057,51826.418
965415.7925487525,-71205.53,-51157.88,9710.9375,-7226.074,11131.755,-35343.547,24010.986,51809.492
965415.7965487489,-71212.41,-51173.3,9707.805,-7225.952,11133.545,-35343.914,24013.51,51806.562
965415.8005487453,-71200.805,-51136.8,9710.571,-7227.8647,11136.923,-35344.156,24021.852,51822.43
965415.8045487418,-71190.23,-51097.008,9714.478,-7228.597,11141.724,-35345.01,24024.7,51837.812
965415.8085487382,-71197.67,-51113.65,9713.501,-7227.9463,11139.486,-35345.094,24021.16,51830.363
965415.8125487347,-71210.66,-51157.27,9710.043,-7228.475,11135.051,-35343.465,24020.428,51819.38
965415.8165487311,-71213.055,-51167.035,9708.659,-7228.2715,11137.451,-35341.92,24021.729,51812.867
965415.8205487275,-71201.78,-51133.79,9710.653,-7229.167,11143.799,-35340.457,24030.396,51828.9
965415.824548724,-71189.945,-51099.49,9713.908,-7229.3296,11149.496,-35338.543,24037.598,51846.438
965415.8285487205,-71196.05,-51120.89,9712.851,-7229.492,11149.536,-35338.785,24036.012,51841.555
965415.8325487168,-71208.46,-51166.465,9708.578,-7229.9805,11144.938,-35340.17,24033.041,51824.586
965415.8365487133,-71212.445,-51181.684,9707.357,-7230.2656,11145.549,-35340.17,24035.482,51824.91
965415.8405487097,-71198.2,-51142.254,9712.362,-7229.4517,11153.564,-35339.805,24040.447,51838.83
965415.8445487062,-71184.61,-51103.355,9718.669,-7227.214,11161.418,-35339.844,24042.686,51852.582
965415.8485487027,-71190.43,-51116.58,9716.838,-7226.7256,11161.703,-35340.332,24041.139,51852.05
965415.852548699,-71203.49,-51161.867,9710.734,-7226.766,11158.041,-35341.637,24034.424,51836.47
965415.8565486955,-71208.05,-51173.543,9708.456,-7227.173,11158.163,-35343.668,24033.244,51830.812
965415.8605486919,-71195.195,-51136.23,9712.851,-7227.7427,11161.133,-35344.2,24039.145,51843.63
965415.8645486884,-71183.11,-51101.44,9714.396,-7227.417,11166.708,-35343.793,24040.61,51854.74
965415.8685486848,-71189.82,-51118.45,9712.769,-7227.417,11166.748,-35343.344,24037.314,51852.05
965415.8725486812,-71202.96,-51160.93,9710.9375,-7226.2373,11160.727,-35342.69,24037.518,51839.926
965415.8765486777,-71205.0,-51172.527,9710.124,-7225.83,11161.865,-35341.758,24040.527,51836.387
965415.8805486741,-71194.336,-51137.25,9710.083,-7227.051,11170.98,-35340.535,24047.69,51854.453
965415.8845486706,-71186.56,-51104.777,9712.118,-7228.9634,11174.4795,-35340.945,24050.66,51866.09
965415.888548667,-71192.55,-51121.992,9710.693,-7229.696,11167.318,-35341.676,24047.812,51861.98
965415.8925486634,-71208.7,-51169.477,9706.747,-7230.2246,11158.366,-35342.734,24045.127,51846.6
965415.8965486599,-71211.39,-51179.688,9704.468,-7229.8994,11160.808,-35341.473,24047.934,51842.652
965415.9005486564,-71197.47,-51142.418,9707.602,-7230.7944,11168.579,-35340.375,24055.34,51858.156
965415.9045486527,-71185.51,-51111.53,9711.345,-7230.876,11171.0205,-35340.74,24057.21,51866.7
965415.9085486492,-71191.125,-51129.234,9710.287,-7229.94,11167.318,-35340.902,24055.42,51861.74
965415.9125486456,-71208.54,-51176.598,9707.4795,-7230.0215,11160.6045,-35343.1,24050.416,51842.695
965415.9165486421,-71212.32,-51188.152,9708.578,-7229.2075,11161.215,-35344.156,24050.904,51839.56
965415.9205486384,-71199.586,-51147.3,9712.199,-7230.306,11167.603,-35345.62,24054.852,51850.547
965415.9245486349,-71187.95,-51108.81,9715.332,-7229.7773,11170.166,-35345.133,24057.21,51858.44
965415.9285486314,-71193.73,-51123.7,9712.973,-7229.167,11166.911,-35345.34,24054.607,51850.26
965415.9325486278,-71207.4,-51168.99,9710.571,-7228.4346,11163.127,-35345.906,24052.043,51835.125
965415.9365486243,-71209.59,-51179.445,9710.124,-7228.2715,11165.324,-35344.727,24055.828,51834.758
965415.9405486207,-71197.47,-51140.504,9712.036,-7229.045,11168.254,-35344.85,24062.744,51847.86
965415.9445486171,-71189.91,-51106.285,9713.42,-7230.184,11171.875,-35344.727,24063.355,51860.637
965415.9485486136,-71198.57,-51123.13,9712.24,-7230.6724,11168.051,-35345.297,24059.979,51853.11
965415.95254861,-71212.77,-51169.598,9709.595,-7229.045,11161.825,-35346.64,24057.822,51832.684
965415.9565486064,-71216.39,-51182.902,9708.09,-7228.0273,11165.894,-35345.094,24061.32,51832.4
965415.9605486029,-71206.83,-51153.402,9709.595,-7229.004,11173.666,-35345.83,24066.326,51842.49
965415.9645485993,-71196.86,-51122.887,9711.996,-7230.5503,11174.643,-35347.574,24068.441,51854.37
965415.9685485958,-71202.555,-51139.082,9711.02,-7230.2656,11167.766,-35348.31,24066.244,51849.53
965415.9725485923,-71216.19,-51182.254,9706.787,-7229.8584,11161.459,-35347.656,24063.762,51834.027
965415.9765485886,-71218.79,-51190.918,9705.2,-7231.527,11159.994,-35346.723,24066.203,51830.0
965415.9805485851,-71207.4,-51153.73,9706.503,-7233.8057,11161.337,-35345.664,24075.074,51849.164
965415.9845485815,-71198.57,-51122.4,9707.968,-7235.3516,11162.883,-35345.543,24077.719,51862.715
965415.988548578,-71208.46,-51140.992,9704.956,-7234.9043,11159.302,-35345.46,24074.26,51857.953
965415.9925485743,-71223.63,-51187.5,9701.457,-7233.8057,11153.117,-35346.355,24070.598,51842.285
965415.9965485708,-71221.68,-51197.633,9701.823,-7234.172,11152.344,-35344.727,24077.271,51848.188
965416.0005485673,-71207.73,-51158.895,9708.618,-7235.3516,11155.151,-35342.41,24089.234,51868.043
965416.0045485637,-71197.67,-51125.49,9713.583,-7234.5786,11158.081,-35342.203,24092.164,51875.125
965416.0085485602,-71199.99,-51139.406,9714.233,-7233.7646,11154.623,-35343.71,24086.346,51869.266
965416.0125485566,-71217.9,-51187.215,9710.083,-7234.009,11147.299,-35343.668,24083.904,51856.203
965416.016548553,-71220.79,-51197.062,9707.235,-7234.416,11144.531,-35343.875,24087.646,51860.19
965416.0205485495,-71206.586,-51154.707,9710.734,-7234.945,11150.065,-35343.508,24092.652,51866.58
965416.024548546,-71199.18,-51122.52,9715.251,-7235.433,11152.995,-35343.465,24094.523,51876.832
965416.0285485423,-71205.89,-51138.797,9713.501,-7235.5957,11148.193,-35345.133,24091.473,51870.08
965416.0325485388,-71216.68,-51179.973,9711.223,-7232.7476,11142.782,-35345.83,24087.688,51852.906
965416.0365485352,-71219.81,-51190.96,9709.921,-7232.0967,11143.311,-35346.56,24087.852,51851.523
965416.0405485317,-71208.336,-51154.258,9710.205,-7235.4736,11146.159,-35347.86,24088.379,51860.965
965416.0445485282,-71200.484,-51120.04,9711.101,-7236.7354,11147.258,-35349.12,24087.77,51870.445
965416.0485485245,-71206.09,-51137.004,9708.374,-7235.84,11142.578,-35348.96,24086.834,51865.234
965416.052548521,-71223.59,-51187.582,9703.247,-7235.067,11135.336,-35349.938,24083.213,51850.79
965416.0565485174,-71228.555,-51195.965,9700.48,-7235.3516,11136.3125,-35350.586,24084.229,51848.918
965416.0605485139,-71213.87,-51155.6,9703.817,-7234.8228,11144.165,-35349.855,24090.496,51864.383
965416.0645485102,-71201.87,-51124.434,9707.968,-7235.1484,11145.874,-35349.49,24094.035,51879.19
965416.0685485067,-71211.71,-51144.9,9705.038,-7235.962,11139.648,-35349.203,24091.838,51873.82
965416.0725485032,-71230.43,-51191.246,9700.562,-7236.45,11130.697,-35350.383,24090.252,51863.242
965416.0765484996,-71233.65,-51203.25,9702.312,-7235.555,11130.534,-35351.24,24089.072,51851.605
965416.0805484961,-71222.54,-51167.93,9703.125,-7237.712,11136.394,-35352.418,24092.49,51860.598
965416.0845484925,-71214.64,-51134.562,9703.776,-7240.0312,11138.916,-35352.133,24093.75,51877.402
965416.0885484889,-71219.69,-51148.684,9701.172,-7239.5835,11134.196,-35353.273,24087.24,51871.582
965416.0925484854,-71228.84,-51188.438,9698.69,-7237.6304,11129.883,-35353.312,24083.537,51850.508
