timestamp,Fp1,Fp2,F3,Fz,F4,Cz,Pz,Oz
965381.176579573,-66389.2,-45419.273,10505.859,-5977.1323,14012.939,-34176.27,24811.24,54181.074
965381.1805795694,-66377.52,-45376.223,10507.121,-5980.998,14020.386,-34175.293,24818.32,54198.73
965381.1845795659,-66360.15,-45311.934,10507.976,-5984.782,14023.764,-34175.17,24820.842,54215.414
965381.1885795624,-66365.484,-45317.14,10505.534,-5985.4736,14019.328,-34174.723,24820.15,54212.812
965381.1925795587,-66381.72,-45372.355,10504.272,-5983.48,14014.323,-34174.234,24816.162,54196.617
965381.1965795552,-66393.27,-45411.824,10502.849,-5982.3,14009.5625,-34175.17,24813.477,54186.73
965381.2005795516,-66381.06,-45374.594,10504.883,-5983.9683,14011.3125,-34176.23,24819.785,54201.66
965381.2045795481,-66363.89,-45312.46,10507.976,-5985.4736,14014.934,-34176.312,24821.494,54217.125
965381.2085795444,-66367.88,-45315.84,10509.644,-5986.328,14012.329,-34177.246,24818.035,54219.32
965381.2125795409,-66383.1,-45372.723,10507.568,-5983.9277,14006.796,-34177.37,24812.46,54200.93
965381.2165795374,-66397.14,-45414.023,10504.639,-5982.015,14002.849,-34177.492,24808.799,54180.137
965381.2205795338,-66385.58,-45373.902,10505.331,-5983.9277,14008.098,-34177.207,24813.965,54189.25
965381.2245795303,-66368.45,-45310.75,10508.179,-5986.898,14014.608,-34176.395,24818.482,54214.195
965381.2285795267,-66370.2,-45313.477,10507.731,-5987.915,14008.139,-34175.863,24817.22,54215.375
965381.2325795231,-66390.625,-45379.64,10505.981,-5986.898,14001.709,-34175.133,24812.988,54194.785
965381.2365795196,-66406.086,-45424.562,10501.831,-5986.8164,13998.495,-34175.09,24810.547,54179.934
965381.240579516,-66392.87,-45384.766,10503.012,-5988.5254,14001.181,-34175.78,24815.43,54194.99
965381.2445795124,-66373.78,-45321.535,10508.505,-5989.177,14008.993,-34175.05,24819.703,54214.234
965381.2485795089,-66375.77,-45318.688,10508.505,-5989.299,14006.958,-34174.6,24815.879,54210.37
965381.2525795053,-66394.05,-45381.473,10505.412,-5988.2,13996.542,-34176.473,24809.082,54196.535
965381.2565795018,-66407.19,-45428.387,10502.238,-5985.5957,13992.27,-34177.37,24806.152,54185.957
965381.2605794983,-66395.1,-45384.36,10504.028,-5986.247,13999.431,-34178.836,24810.14,54199.504
965381.2645794946,-66380.54,-45324.79,10507.935,-5988.2,14006.552,-34178.184,24814.414,54218.75
965381.2685794911,-66382.164,-45331.098,10507.65,-5987.1826,14003.744,-34177.734,24814.82,54220.543
965381.2725794875,-66399.13,-45390.668,10503.784,-5983.3174,13996.338,-34179.242,24809.205,54196.29
965381.276579484,-66411.91,-45436.81,10501.059,-5982.9917,13994.06,-34181.766,24804.81,54179.2
965381.2805794803,-66396.98,-45392.5,10503.256,-5984.782,14000.285,-34181.48,24811.32,54195.883
965381.2845794768,-66377.04,-45323.242,10507.528,-5986.4097,14005.249,-34178.63,24818.197,54222.535
965381.2885794733,-66376.18,-45319.99,10508.423,-5985.759,14001.669,-34178.1,24813.152,54213.42
965381.2925794697,-66394.37,-45378.906,10506.43,-5984.945,13995.6875,-34177.9,24807.861,54192.832
965381.2965794662,-66408.57,-45425.984,10504.15,-5984.741,13992.676,-34177.246,24811.117,54185.305
965381.3005794625,-66397.664,-45388.957,10505.005,-5985.962,13996.338,-34177.125,24819.418,54208.824
965381.304579459,-66380.25,-45324.465,10507.976,-5987.0605,13999.187,-34176.188,24821.697,54232.707
965381.3085794555,-66382.125,-45327.395,10507.406,-5986.2876,13996.542,-34176.35,24816.488,54225.953
965381.312579452,-66398.89,-45389.16,10504.028,-5986.125,13990.683,-34175.7,24812.135,54204.145
965381.3165794483,-66411.664,-45430.38,10499.228,-5986.328,13987.224,-34176.395,24810.955,54189.21
965381.3205794448,-66399.414,-45393.758,10499.594,-5987.1826,13991.74,-34177.695,24813.965,54195.965
965381.3245794412,-66383.016,-45330.61,10502.563,-5988.2407,13995.6875,-34177.004,24817.871,54215.496
965381.3285794377,-66385.99,-45335.9,10502.116,-5988.1187,13993.652,-34176.598,24815.879,54214.6
965381.3325794342,-66399.21,-45390.992,10500.732,-5986.4097,13988.403,-34176.27,24811.729,54199.14
965381.3365794305,-66409.95,-45430.664,10499.187,-5984.4565,13987.997,-34176.066,24808.799,54188.4
965381.340579427,-66396.32,-45388.875,10502.197,-5985.962,13992.676,-34174.48,24816.326,54210.656
965381.3445794234,-66376.18,-45325.074,10507.162,-5986.8574,13997.07,-34173.055,24821.168,54231.934
965381.3485794199,-66378.945,-45332.805,10508.383,-5986.898,13995.036,-34175.05,24816.406,54228.844
965381.3525794162,-66397.99,-45390.465,10504.272,-5984.8633,13989.055,-34177.33,24807.455,54207.156
965381.3565794127,-66410.69,-45429.527,10502.563,-5983.236,13986.247,-34178.754,24807.822,54195.64
965381.3605794092,-66395.1,-45382.977,10506.674,-5984.538,13991.862,-34177.207,24817.871,54216.88
965381.3645794056,-66377.36,-45318.117,10508.789,-5987.8745,13996.42,-34177.164,24822.43,54238.445
965381.368579402,-66379.03,-45322.43,10508.871,-5987.386,13994.101,-34177.652,24819.012,54232.832
965381.3725793984,-66393.35,-45378.176,10508.179,-5984.741,13988.403,-34176.473,24815.918,54215.66
965381.3765793949,-66405.07,-45422.0,10508.749,-5983.6426,13987.346,-34175.375,24818.686,54208.215
965381.3805793914,-66389.2,-45384.117,10511.516,-5984.253,13994.751,-34175.133,24827.068,54224.45
965381.3845793878,-66370.61,-45313.6,10514.404,-5986.2876,13999.797,-34175.457,24830.12,54246.38
965381.3885793842,-66375.2,-45312.34,10513.347,-5985.433,13997.192,-34175.375,24826.865,54243.043
965381.3925793807,-66391.97,-45376.06,10509.685,-5983.846,13987.183,-34178.508,24817.832,54220.746
965381.3965793771,-66403.24,-45419.395,10509.074,-5984.05,13982.504,-34179.04,24815.756,54208.54
965381.4005793736,-66388.63,-45377.77,10510.173,-5984.945,13988.811,-34177.816,24822.633,54225.14
965381.4045793699,-66372.84,-45324.504,10513.754,-5985.7993,13990.601,-34177.816,24823.568,54242.312
965381.4085793664,-66379.44,-45337.484,10514.201,-5986.1655,13984.579,-34177.492,24818.523,54237.836
965381.4125793629,-66398.69,-45398.03,10509.399,-5986.5723,13975.261,-34178.957,24811.32,54213.83
965381.4165793593,-66413.375,-45438.316,10505.453,-5987.59,13971.599,-34179.363,24809.49,54201.254
965381.4205793558,-66400.15,-45397.992,10506.47,-5989.0547,13976.196,-34177.98,24815.674,54218.71
965381.4245793521,-66384.36,-45333.457,10508.383,-5990.3975,13981.853,-34177.207,24819.541,54241.496
965381.4285793486,-66387.17,-45338.867,10508.383,-5989.787,13977.783,-34178.63,24811.443,54226.074
965381.4325793451,-66401.82,-45401.9,10506.063,-5987.834,13970.5,-34178.426,24801.19,54196.574
965381.4365793415,-66419.234,-45446.004,10501.953,-5988.4443,13965.129,-34178.754,24797.324,54187.137
965381.4405793379,-66409.71,-45410.402,10503.581,-5990.072,13970.297,-34178.223,24802.898,54206.707
965381.4445793343,-66390.75,-45341.27,10507.406,-5990.7227,13977.621,-34177.695,24805.543,54221.438
965381.4485793308,-66391.16,-45343.75,10507.08,-5990.4785,13975.139,-34177.53,24802.654,54218.875
965381.4525793273,-66407.72,-45407.594,10502.808,-5989.177,13968.954,-34177.45,24798.26,54199.344
965381.4565793237,-66420.25,-45450.117,10499.023,-5989.421,13963.379,-34177.613,24798.096,54189.496
965381.4605793201,-66409.47,-45411.133,10499.716,-5991.0483,13968.059,-34176.11,24808.594,54214.723
965381.4645793166,-66391.56,-45348.348,10503.459,-5993.1235,13975.058,-34175.863,24810.508,54224.977
965381.468579313,-66394.29,-45353.152,10504.68,-5991.781,13974.325,-34175.05,24805.217,54212.04
965381.4725793095,-66413.86,-45415.49,10501.059,-5990.438,13970.053,-34175.418,24800.334,54192.63
965381.4765793058,-66426.35,-45455.566,10496.948,-5990.4785,13967.978,-34176.473,24798.34,54179.934
965381.4805793023,-66410.93,-45414.594,10497.763,-5992.6353,13974.325,-34177.613,24803.02,54194.785
965381.4845792988,-66395.71,-45353.477,10500.8955,-5994.7104,13980.754,-34177.734,24808.676,54215.984
965381.4885792952,-66401.82,-45364.055,10499.919,-5995.565,13978.19,-34176.516,24808.35,54214.074
965381.4925792917,-66420.01,-45426.555,10496.094,-5994.344,13974.203,-34175.418,24802.734,54193.93
965381.496579288,-66423.914,-45460.164,10497.966,-5991.74,13974.936,-34174.645,24802.898,54189.58
965381.5005792845,-66411.99,-45418.906,10501.14,-5993.408,13982.26,-34174.277,24810.1,54204.31
965381.504579281,-66401.53,-45364.016,10502.686,-5996.135,13986.328,-34173.258,24812.867,54220.38
965381.5085792774,-66403.16,-45365.562,10502.401,-5994.548,13987.793,-34173.098,24812.582,54220.258
965381.5125792738,-66419.35,-45430.46,10497.641,-5993.6934,13980.713,-34174.562,24809.082,54198.977
965381.5165792702,-66432.13,-45471.234,10495.891,-5993.408,13979.736,-34176.637,24808.594,54189.94
965381.5205792667,-66415.85,-45424.24,10501.14,-5995.3613,13988.7295,-34176.598,24814.617,54205.73
965381.5245792632,-66397.26,-45357.992,10505.412,-5995.931,13997.314,-34176.066,24816.326,54225.18
965381.5285792596,-66401.25,-45361.53,10504.843,-5994.507,13996.298,-34176.395,24811.361,54219.2
965381.532579256,-66418.984,-45424.562,10499.594,-5993.734,13987.061,-34178.348,24804.2,54196.74
965381.5365792525,-66432.375,-45470.664,10495.402,-5994.4663,13982.3,-34178.914,24801.758,54182.496
965381.5405792489,-66421.02,-45426.92,10498.657,-5994.385,13990.275,-34177.695,24810.508,54196.86
965381.5445792454,-66406.086,-45359.863,10504.232,-5995.3613,13996.948,-34177.45,24816.041,54218.1
965381.5485792417,-66407.63,-45365.36,10505.737,-5994.426,13995.605,-34176.312,24815.023,54216.473
965381.5525792382,-66428.67,-45430.543,10500.937,-5993.9375,13989.096,-34177.004,24810.385,54193.89
965381.5565792347,-66440.63,-45473.88,10496.582,-5995.9717,13984.701,-34178.1,24808.92,54183.39
965381.5605792311,-66425.91,-45433.92,10500.041,-5997.03,13989.38,-34178.348,24815.227,54197.55
965381.5645792275,-66408.98,-45369.996,10503.459,-5998.047,13996.46,-34179.445,24815.43,54211.793
965381.5685792239,-66412.234,-45372.6,10505.371,-5996.257,13992.676,-34178.426,24812.297,54211.47
965381.5725792204,-66427.77,-45429.12,10503.744,-5992.7573,13989.502,-34176.11,24812.582,54199.426
965381.5765792169,-66439.7,-45478.395,10500.651,-5993.1235,13986.613,-34176.11,24811.035,54182.496
965381.5805792133,-66430.016,-45443.562,10500.407,-5996.379,13990.683,-34178.266,24813.355,54189.66
965381.5845792097,-66417.08,-45386.64,10503.54,-5999.5527,13992.351,-34178.55,24815.756,54210.125
965381.5885792061,-66420.58,-45391.523,10504.436,-5998.698,13988.974,-34178.71,24813.03,54203.613
965381.5925792026,-66435.586,-45450.523,10502.6455,-5997.274,13983.562,-34177.695,24810.223,54184.695
965381.5965791991,-66446.58,-45487.508,10498.373,-5997.274,13981.975,-34178.184,24810.02,54177.246
965381.6005791954,-66435.1,-45442.18,10497.274,-5999.1865,13988.688,-34179.363,24816.65,54191.043
965381.6045791919,-66419.4,-45376.18,10499.756,-6000.8545,13993.571,-34178.914,24819.459,54209.312
965381.6085791884,-66422.04,-45375.41,10500.692,-5999.797,13991.252,-34178.305,24817.262,54209.72
965381.6125791848,-66438.73,-45438.19,10499.35,-5997.518,13983.603,-34176.92,24812.379,54190.023
965381.6165791813,-66447.1,-45480.797,10497.03,-5997.4775,13979.248,-34177.33,24812.988,54181.766
965381.6205791776,-66432.375,-45440.43,10499.594,-5998.413,13986.044,-34176.883,24822.877,54199.06
965381.6245791741,-66415.77,-45381.473,10503.825,-5999.634,13991.699,-34175.336,24827.11,54214.52
965381.6285791706,-66414.63,-45380.25,10505.656,-5999.2676,13988.2,-34176.312,24823.812,54211.348
965381.632579167,-66432.21,-45441.53,10502.768,-5998.291,13982.707,-34176.84,24819.947,54193.727
965381.6365791634,-66442.016,-45484.5,10500.326,-5996.9893,13981.12,-34176.312,24819.459,54185.387
965381.6405791598,-66427.45,-45443.523,10501.872,-5997.966,13986.044,-34176.72,24824.668,54202.477
965381.6445791563,-66407.68,-45378.95,10506.348,-5999.227,13989.421,-34179.04,24822.51,54216.88
965381.6485791528,-66409.34,-45381.023,10506.836,-5998.291,13987.915,-34178.348,24817.709,54211.793
965381.6525791492,-66425.26,-45442.668,10506.43,-5994.914,13984.375,-34178.1,24813.518,54188.355
965381.6565791456,-66434.695,-45485.598,10503.215,-5994.1406,13981.812,-34179.16,24812.338,54175.58
965381.660579142,-66416.1,-45437.703,10505.127,-5997.0703,13986.044,-34180.543,24816.895,54193.28
965381.6645791385,-66394.086,-45365.887,10511.638,-5997.7217,13989.421,-34179.77,24820.518,54216.15
965381.668579135,-66396.445,-45367.92,10512.533,-5996.7856,13986.247,-34180.137,24819.5,54216.516
965381.6725791313,-66409.95,-45425.09,10511.923,-5992.8794,13981.242,-34179.934,24815.43,54199.832
965381.6765791278,-66418.625,-45465.78,10510.458,-5991.781,13976.481,-34179.324,24814.697,54187.22
965381.6805791243,-66401.33,-45420.125,10511.963,-5993.612,13979.248,-34179.77,24819.5,54198.285
965381.6845791207,-66380.29,-45349.69,10515.666,-5993.3677,13988.078,-34178.914,24819.297,54208.008
965381.6885791172,-66380.984,-45355.145,10516.684,-5993.612,13982.463,-34179.934,24814.697,54204.145
965381.6925791135,-66394.01,-45411.95,10514.486,-5991.577,13974.65,-34179.73,24810.508,54185.426
965381.69657911,-66396.57,-45444.5,10515.503,-5988.5254,13973.918,-34179.242,24810.223,54175.01
965381.7005791065,-66378.22,-45399.21,10520.183,-5989.746,13981.201,-34181.234,24816.53,54191.613
965381.7045791029,-66356.85,-45332.645,10526.652,-5988.8105,13989.258,-34182.414,24817.344,54213.91
965381.7085790993,-66356.94,-45330.566,10525.351,-5988.4443,13986.044,-34184.246,24812.705,54211.508
965381.7125790957,-66366.664,-45384.727,10523.601,-5985.3516,13980.51,-34186.08,24805.746,54189.82
965381.7165790922,-66372.88,-45422.934,10523.642,-5982.422,13976.196,-34186.93,24801.596,54169.152
965381.7205790887,-66355.63,-45376.26,10527.385,-5984.253,13982.097,-34187.38,24807.617,54185.547
965381.7245790851,-66331.586,-45301.066,10532.553,-5984.9043,13989.624,-34188.113,24807.578,54201.38
965381.7285790815,-66329.23,-45298.098,10531.901,-5982.788,13987.997,-34188.805,24800.09,54190.35
965381.732579078,-66340.66,-45353.844,10529.501,-5979.248,13983.725,-34188.64,24794.027,54171.55
965381.7365790744,-66343.914,-45387.332,10530.966,-5977.336,13979.858,-34188.844,24791.3,54155.355
965381.7405790709,-66325.97,-45338.664,10533.977,-5979.492,13983.725,-34188.883,24796.713,54169.07
965381.7445790672,-66309.57,-45271.28,10539.0625,-5979.7363,13992.432,-34188.844,24803.06,54191.855
965381.7485790637,-66306.73,-45265.79,10540.161,-5978.6377,13992.147,-34190.145,24796.754,54188.76
965381.7525790602,-66315.555,-45318.156,10539.511,-5975.9116,13984.335,-34191.652,24787.762,54167.156
965381.7565790566,-66320.48,-45355.43,10538.859,-5973.877,13981.975,-34193.93,24785.482,54150.15
965381.760579053,-66304.12,-45309.613,10541.952,-5974.935,13991.496,-34194.867,24790.895,54161.99
965381.7645790494,-66286.74,-45242.066,10541.952,-5977.9463,13993.856,-34196.207,24791.098,54177.086
965381.7685790459,-66285.16,-45244.14,10541.789,-5976.9697,13989.787,-34196.047,24786.012,54172.406
965381.7725790424,-66300.46,-45307.496,10541.301,-5973.5923,13983.195,-34196.086,24781.861,54156.617
965381.7765790388,-66310.914,-45349.0,10537.069,-5972.6562,13981.689,-34195.598,24780.723,54142.945
965381.7805790352,-66294.76,-45302.695,10539.836,-5974.935,13988.892,-34194.906,24789.348,54157.35
965381.7845790316,-66277.43,-45232.547,10545.085,-5975.6675,13996.664,-34193.688,24797.607,54180.22
965381.7885790281,-66278.85,-45237.793,10546.55,-5973.1445,13993.9375,-34192.508,24796.387,54180.016
965381.7925790246,-66289.836,-45295.29,10544.882,-5971.7207,13986.044,-34192.383,24792.604,54161.094
965381.7965790209,-66301.15,-45338.016,10541.016,-5972.6973,13980.957,-34193.035,24790.04,54144.25
965381.8005790174,-66288.54,-45295.047,10541.789,-5975.708,13986.044,-34193.156,24796.307,54159.465
965381.8045790138,-66270.23,-45229.574,10546.143,-5976.9287,13991.252,-34193.605,24798.79,54174.97
965381.8085790103,-66268.96,-45233.44,10545.37,-5975.0977,13989.502,-34194.38,24793.05,54172.65
965381.8125790068,-66287.84,-45297.566,10541.504,-5973.3887,13982.3,-34193.36,24789.756,54159.305
965381.8165790031,-66298.71,-45337.812,10540.609,-5972.575,13980.713,-34194.99,24786.012,54143.555
965381.8205789996,-66285.484,-45294.56,10543.417,-5974.284,13986.125,-34196.74,24787.07,54151.41
965381.824578996,-66270.836,-45233.277,10546.387,-5976.3594,13989.99,-34197.836,24790.08,54171.957
965381.8285789925,-66274.87,-45237.59,10547.567,-5976.2373,13987.183,-34195.76,24790.406,54178.223
965381.8325789889,-66288.414,-45294.883,10546.794,-5974.121,13978.3125,-34195.027,24785.117,54154.016
965381.8365789853,-66300.984,-45339.926,10544.271,-5973.348,13973.43,-34194.785,24780.762,54134.645
965381.8405789818,-66283.125,-45296.918,10547.852,-5973.8364,13979.004,-34192.914,24788.33,54158.45
965381.8445789783,-66265.55,-45233.645,10551.921,-5976.074,13985.067,-34192.098,24791.3,54174.48
965381.8485789747,-66262.78,-45236.816,10554.565,-5975.749,13983.195,-34193.688,24783.773,54159.668
965381.8525789711,-66276.53,-45298.91,10552.816,-5972.982,13977.214,-34194.297,24778.484,54142.336
965381.8565789675,-66291.14,-45344.688,10550.049,-5970.825,13974.609,-34196.207,24774.902,54132.043
965381.860578964,-66276.94,-45302.492,10554.118,-5970.4185,13979.736,-34196.29,24782.635,54147.992
965381.8645789605,-66256.76,-45241.742,10559.123,-5972.412,13984.538,-34195.598,24788.941,54172.406
965381.8685789568,-66266.03,-45257.367,10556.804,-5973.104,13984.579,-34194.99,24785.4,54171.227
965381.8725789533,-66281.29,-45314.82,10553.833,-5969.035,13978.19,-34196.13,24776.531,54144.41
965381.8765789497,-66288.01,-45353.11,10553.549,-5965.8203,13976.278,-34196.047,24776.002,54131.797
965381.8805789462,-66273.48,-45313.438,10555.542,-5967.448,13983.276,-34196.004,24784.059,54149.984
965381.8845789427,-66257.37,-45250.652,10558.594,-5968.8315,13988.2,-34196.535,24786.012,54166.344
965381.888578939,-66263.76,-45254.152,10558.31,-5970.2964,13982.097,-34195.965,24782.635,54163.656
965381.8925789355,-66280.68,-45317.426,10556.071,-5968.1396,13974.081,-34195.598,24779.338,54148.277
965381.896578932,-66297.57,-45360.965,10551.474,-5967.9365,13968.954,-34196.004,24778.076,54141.156
965381.9005789284,-66281.74,-45319.582,10551.2295,-5970.7847,13972.697,-34197.43,24781.535,54154.992
965381.9045789248,-66262.66,-45256.105,10554.647,-5971.5576,13977.295,-34198.242,24783.773,54173.137
965381.9085789212,-66261.64,-45255.902,10556.479,-5968.8315,13977.214,-34198.57,24778.158,54160.484
965381.9125789177,-66277.95,-45318.77,10551.88,-5967.977,13970.297,-34197.266,24774.943,54139.12
965381.9165789142,-66287.11,-45357.832,10549.235,-5967.448,13966.513,-34197.67,24773.723,54126.75
965381.9205789106,-66275.59,-45311.77,10549.887,-5968.994,13973.186,-34196.13,24781.006,54146.527
965381.924578907,-66259.12,-45244.996,10552.124,-5969.32,13980.835,-34196.492,24784.18,54167.727
965381.9285789034,-66259.195,-45246.055,10554.159,-5967.8955,13980.673,-34197.957,24776.855,54160.363
965381.9325788999,-66275.84,-45305.586,10551.962,-5965.373,13975.383,-34197.797,24768.107,54136.72
965381.9365788964,-66288.01,-45354.94,10548.137,-5966.39,13968.954,-34198.49,24763.389,54126.14
965381.9405788927,-66278.85,-45317.87,10547.852,-5967.285,13974.04,-34199.625,24768.107,54134.562
965381.9445788892,-66261.07,-45251.305,10552.49,-5967.163,13979.696,-34199.465,24770.834,54153.77
965381.9485788856,-66261.72,-45252.117,10551.474,-5967.733,13974.854,-34199.832,24766.846,54152.387
965381.9525788821,-66282.59,-45319.46,10544.963,-5969.4014,13964.315,-34198.773,24765.625,54137.98
965381.9565788786,-66295.086,-45362.633,10541.708,-5969.6455,13957.397,-34196.535,24769.857,54136.11
965381.9605788749,-66281.945,-45320.477,10542.358,-5972.453,13960.734,-34194.99,24781.576,54166.3
965381.9645788714,-66263.266,-45255.168,10548.015,-5973.755,13967.448,-34193.2,24787.639,54186.65
965381.9685788678,-66262.9,-45257.938,10547.445,-5971.761,13968.506,-34192.832,24782.756,54173.953
965381.9725788643,-66277.914,-45313.355,10545.817,-5969.2793,13964.478,-34191.246,24778.564,54155.64
965381.9765788607,-66289.59,-45358.562,10542.236,-5969.5234,13961.06,-34191.57,24777.426,54138.227
965381.9805788571,-66277.875,-45319.824,10542.44,-5972.453,13965.088,-34194.094,24782.188,54154.664
965381.9845788536,-66257.41,-45250.285,10547.7295,-5972.7783,13970.297,-34196.492,24780.803,54172.73
965381.98857885,-66257.53,-45250.125,10549.357,-5971.2324,13970.5,-34196.207,24771.69,54163.008
965381.9925788464,-66277.43,-45319.094,10544.516,-5970.0522,13961.304,-34197.105,24764.934,54141.074
965381.9965788429,-66289.72,-45364.18,10539.999,-5970.378,13956.503,-34198.69,24762.492,54128.258
965382.0005788393,-66279.22,-45321.29,10540.446,-5972.738,13960.979,-34198.773,24770.834,54145.875
965382.0045788358,-66265.51,-45260.094,10542.318,-5975.0977,13963.745,-34197.715,24773.357,54164.188
965382.0085788323,-66269.37,-45262.82,10542.929,-5975.0166,13960.49,-34197.715,24767.701,54156.047
965382.0125788286,-66289.96,-45328.656,10541.789,-5973.3887,13951.986,-34199.383,24763.469,54135.703
965382.0165788251,-66299.73,-45373.58,10538.696,-5971.5576,13946.655,-34202.637,24757.61,54120.527
965382.0205788215,-66285.97,-45325.36,10539.104,-5972.534,13955.322,-34202.434,24763.55,54137.74
965382.024578818,-66269.164,-45260.5,10543.783,-5974.4062,13959.717,-34200.848,24765.87,54155.438
965382.0285788144,-66272.664,-45263.105,10545.166,-5973.674,13955.282,-34201.418,24762.248,54150.758
965382.0325788108,-66290.94,-45327.68,10540.121,-5972.9414,13946.289,-34201.54,24757.121,54131.188
965382.0365788073,-66301.64,-45374.023,10536.255,-5974.6504,13939.982,-34202.027,24754.15,54117.96
965382.0405788037,-66292.805,-45335.816,10535.238,-5977.0103,13943.197,-34202.23,24759.115,54135.176
965382.0445788002,-66276.62,-45275.15,10539.226,-5978.2715,13949.545,-34201.703,24763.389,54155.926
965382.0485787966,-66280.07,-45280.152,10539.795,-5977.702,13948.12,-34201.5,24757.65,54146.04
965382.052578793,-66299.195,-45339.277,10536.865,-5977.0103,13936.728,-34200.766,24751.303,54121.055
965382.0565787895,-66307.984,-45383.668,10536.052,-5976.3594,13933.146,-34200.4,24752.564,54114.953
965382.060578786,-66291.34,-45333.742,10539.795,-5976.3184,13939.901,-34200.156,24760.459,54136.598
965382.0645787823,-66276.734,-45272.504,10541.423,-5979.0854,13946.167,-34199.18,24766.154,54161.785
965382.0685787788,-66281.17,-45280.64,10541.016,-5979.167,13946.086,-34197.88,24762.94,54161.133
965382.0725787752,-66296.836,-45342.285,10538.981,-5975.952,13940.227,-34198.65,24756.715,54139.49
965382.0765787717,-66302.695,-45377.32,10537.231,-5975.3013,13935.995,-34198.367,24754.639,54123.863
965382.0805787682,-66291.055,-45338.992,10539.47,-5977.4985,13939.657,-34197.227,24762.94,54141.48
965382.0845787645,-66274.414,-45282.88,10544.882,-5979.7773,13942.302,-34196.453,24769.084,54162.56
965382.088578761,-66279.336,-45286.46,10545.085,-5979.0854,13939.901,-34195.027,24768.76,54165.285
965382.0925787574,-66293.83,-45344.16,10542.969,-5976.7256,13937.338,-34196.414,24762.533,54147.137
965382.0965787539,-66305.79,-45381.43,10541.952,-5977.1323,13937.663,-34197.51,24760.662,54138.754
965382.1005787503,-66287.72,-45327.72,10545.98,-5976.4404,13944.662,-34198.49,24764.324,54154.055
965382.1045787467,-66272.55,-45276.164,10548.34,-5977.8647,13950.114,-34196.574,24767.62,54170.777
965382.1085787432,-66278.85,-45281.617,10544.841,-5978.1904,13950.236,-34194.01,24767.904,54169.355
965382.1125787396,-66289.72,-45328.125,10541.342,-5974.0806,13947.998,-34195.598,24761.598,54144.41
965382.1165787361,-66302.086,-45368.207,10538.859,-5972.209,13943.645,-34195.72,24762.207,54136.11
965382.1205787325,-66292.28,-45332.93,10540.283,-5977.214,13948.364,-34195.926,24772.137,54160.77
965382.1245787289,-66276.086,-45265.707,10545.329,-5980.3877,13956.625,-34196.332,24772.46,54170.13
965382.1285787254,-66276.9,-45268.637,10546.225,-5979.696,13957.4795,-34195.64,24766.357,54161.133
965382.1325787219,-66299.6,-45343.06,10540.527,-5979.289,13950.439,-34196.004,24761.963,54143.434
965382.1365787182,-66310.51,-45385.99,10537.842,-5977.4985,13949.707,-34195.438,24761.436,54139.895
965382.1405787147,-66293.78,-45335.777,10538.94,-5978.109,13960.124,-34194.582,24768.719,54160.117
965382.1445787111,-66274.336,-45275.23,10542.847,-5979.7773,13969.442,-34193.562,24772.299,54180.22
965382.1485787076,-66275.68,-45281.332,10543.417,-5979.7773,13966.309,-34193.973,24767.254,54178.387
965382.1525787041,-66295.49,-45346.316,10540.935,-5979.004,13959.799,-34195.76,24760.05,54154.582
965382.1565787004,-66313.195,-45394.94,10536.703,-5979.5737,13957.357,-34196.168,24756.389,54136.883
965382.1605786969,-66302.45,-45356.285,10538.249,-5981.893,13963.298,-34196.82,24763.145,54154.582
965382.1645786933,-66281.21,-45286.38,10543.864,-5979.8994,13976.156,-34196.414,24765.219,54169.64
965382.1685786898,-66282.23,-45289.797,10543.457,-5978.882,13973.43,-34197.39,24758.465,54158.734
965382.1725786861,-66301.76,-45348.96,10541.26,-5977.539,13966.757,-34197.957,24756.47,54144.004
965382.1765786826,-66317.99,-45407.51,10538.534,-5978.4346,13961.508,-34199.26,24755.047,54133.344
965382.1805786791,-66311.69,-45370.85,10538.249,-5982.015,13968.018,-34199.016,24761.395,54146.69
965382.1845786755,-66291.79,-45297.527,10540.935,-5983.3984,13979.126,-34198.57,24764.975,54166.504
965382.1885786719,-66298.1,-45302.45,10538.371,-5984.538,13976.196,-34198.16,24763.021,54163.574
965382.1925786684,-66316.04,-45367.676,10536.133,-5982.5034,13969.768,-34199.06,24757.977,54144.613
965382.1965786648,-66321.58,-45402.266,10535.034,-5981.405,13967.773,-34199.098,24756.186,54134.89
965382.2005786613,-66304.69,-45356.285,10538.574,-5982.341,13973.837,-34198.367,24763.389,54148.723
965382.2045786578,-66292.766,-45299.03,10542.196,-5983.846,13977.011,-34196.414,24768.19,54166.79
965382.2085786541,-66298.79,-45308.434,10539.47,-5984.131,13972.29,-34197.266,24762.736,54157.84
965382.2125786506,-66311.69,-45363.65,10538.493,-5981.4863,13967.814,-34197.55,24757.121,54136.19
965382.216578647,-66317.99,-45402.305,10538.371,-5979.411,13965.78,-34196.74,24755.82,54127.973
965382.2205786435,-66310.63,-45368.246,10540.283,-5982.422,13970.256,-34198.12,24760.498,54145.145
965382.2245786398,-66297.37,-45311.484,10542.725,-5984.4565,13977.824,-34198.285,24763.55,54163.78
965382.2285786363,-66295.9,-45307.66,10543.091,-5983.846,13974.936,-34197.31,24762.656,54160.32
965382.2325786328,-66314.25,-45368.938,10538.656,-5982.422,13968.14,-34196.94,24758.994,54139.855
965382.2365786292,-66327.07,-45418.094,10534.546,-5983.114,13964.682,-34196.86,24759.033,54127.77
965382.2405786257,-66313.73,-45378.582,10535.075,-5984.9854,13970.988,-34195.027,24769.695,54145.793
965382.244578622,-66299.64,-45318.074,10537.069,-5987.712,13976.196,-34194.5,24774.455,54166.18
965382.2485786185,-66304.61,-45323.73,10537.028,-5987.59,13972.656,-34195.312,24767.945,54159.26
965382.252578615,-66317.06,-45375.652,10534.912,-5984.8228,13967.082,-34197.145,24759.562,54134.156
965382.2565786114,-66326.984,-45415.082,10532.634,-5984.7007,13964.274,-34196.86,24758.994,54121.34
965382.2605786078,-66315.266,-45370.04,10534.953,-5986.9385,13968.832,-34196.332,24767.13,54142.418
965382.2645786043,-66300.74,-45312.34,10538.737,-5990.194,13973.552,-34195.438,24774.822,54165.938
965382.2685786007,-66302.94,-45318.36,10539.389,-5989.38,13971.64,-34194.38,24771.484,54166.383
965382.2725785972,-66319.46,-45378.867,10536.459,-5986.2876,13967.8955,-34194.5,24766.318,54149.945
965382.2765785936,-66333.26,-45423.137,10531.942,-5986.0435,13963.542,-34195.598,24765.666,54138.957
965382.28057859,-66318.61,-45373.293,10534.018,-5987.9966,13970.459,-34196.617,24771.852,54151.164
965382.2845785865,-66303.23,-45307.78,10538.412,-5988.973,13975.546,-34196.207,24774.537,54167.848
965382.2885785829,-66302.734,-45311.973,10539.592,-5987.9966,13971.68,-34199.098,24765.38,54157.555
965382.2925785794,-66321.414,-45380.574,10537.964,-5985.555,13965.82,-34201.254,24758.018,54132.938
965382.2965785757,-66334.07,-45429.77,10536.865,-5984.8228,13961.304,-34201.254,24757.244,54120.117
965382.3005785722,-66319.42,-45379.598,10539.267,-5986.369,13965.088,-34201.945,24766.807,54142.62
965382.3045785687,-66306.27,-45319.176,10542.644,-5987.8745,13968.344,-34203.574,24771.648,54167.44
965382.3085785651,-66311.81,-45325.887,10541.586,-5988.4443,13965.576,-34203.74,24766.766,54159.465
965382.3125785616,-66324.95,-45375.0,10539.755,-5985.189,13961.345,-34203.94,24758.709,54139.73
965382.316578558,-66331.34,-45412.438,10539.917,-5983.6836,13959.961,-34202.92,24758.262,54128.055
965382.3205785544,-66323.49,-45378.785,10541.098,-5987.1016,13961.426,-34202.555,24765.178,54149.824
965382.3245785509,-66307.945,-45315.594,10541.992,-5989.38,13965.007,-34202.15,24769.613,54168.133
965382.3285785473,-66308.02,-45320.438,10543.295,-5987.1826,13962.973,-34201.785,24768.475,54165.246
965382.3325785437,-66325.73,-45385.38,10541.016,-5986.206,13954.509,-34203.98,24763.348,54144.816
965382.3365785402,-66338.7,-45426.312,10537.842,-5985.962,13948.894,-34205.203,24759.074,54128.01
965382.3405785366,-66324.016,-45383.668,10539.592,-5988.729,13952.108,-34205.895,24762.94,54142.99
965382.3445785331,-66311.04,-45325.684,10542.399,-5991.252,13954.428,-34205.973,24767.578,54162.76
965382.3485785295,-66316.86,-45332.887,10544.149,-5990.438,13952.475,-34204.266,24766.398,54160.727
965382.3525785259,-66328.49,-45386.355,10543.051,-5987.3047,13949.504,-34203.656,24761.395,54141.24
965382.3565785224,-66338.14,-45430.176,10539.999,-5986.2876,13945.923,-34204.062,24760.742,54132.812
965382.3605785188,-66327.4,-45390.18,10540.487,-5987.468,13951.823,-34205.28,24765.666,54149.457
965382.3645785153,-66313.27,-45332.48,10543.091,-5988.851,13957.683,-34206.586,24766.969,54166.668
965382.3685785116,-66319.625,-45343.63,10541.138,-5989.0547,13953.654,-34205.28,24762.207,54157.31
965382.3725785081,-66341.15,-45403.242,10535.238,-5989.624,13946.371,-34208.336,24754.03,54134.156
965382.3765785046,-66348.88,-45441.855,10533.407,-5988.6475,13944.824,-34209.39,24749.797,54120.73
965382.380578501,-66336.305,-45398.848,10534.668,-5991.455,13950.317,-34209.15,24756.512,54135.215
965382.3845784974,-66322.1,-45339.723,10536.621,-5993.083,13951.782,-34209.758,24761.068,54159.06
965382.3885784938,-66323.94,-45347.902,10538.9,-5991.8623,13946.981,-34209.066,24758.22,54159.14
965382.3925784903,-66337.57,-45406.332,10538.046,-5989.299,13942.79,-34208.7,24751.344,54131.676
965382.3965784868,-66349.04,-45443.074,10536.743,-5987.1016,13939.941,-34208.414,24747.926,54110.84
965382.4005784832,-66339.16,-45401.57,10535.686,-5991.496,13944.133,-34208.54,24753.541,54126.426
965382.4045784796,-66327.6,-45348.555,10535.93,-5994.2627,13945.801,-34209.88,24755.494,54144.53
965382.408578476,-66332.03,-45354.74,10533.977,-5993.7744,13943.645,-34209.434,24753.418,54145.633
965382.4125784725,-66345.79,-45413.496,10532.1045,-5992.025,13937.5,-34209.23,24749.553,54130.984
965382.416578469,-66356.734,-45458.824,10529.785,-5991.577,13934.57,-34210.45,24749.35,54117.96
965382.4205784653,-66345.54,-45412.76,10531.454,-5993.042,13941.488,-34209.35,24757.65,54131.023
965382.4245784618,-66329.914,-45346.64,10534.506,-5996.1753,13946.289,-34206.91,24759.156,54149.54
965382.4285784583,-66330.33,-45350.996,10535.034,-5997.0703,13941.325,-34206.79,24755.25,54147.91
965382.4325784547,-66344.89,-45410.89,10531.454,-5995.443,13935.873,-34206.992,24750.0,54126.832
965382.4365784512,-66355.51,-45450.44,10529.338,-5993.8154,13935.954,-34207.195,24748.252,54116.05
965382.4405784475,-66346.64,-45409.383,10531.088,-5996.623,13938.518,-34207.48,24758.18,54143.516
965382.444578444,-66333.945,-45350.996,10537.354,-5997.4365,13944.377,-34207.03,24764.121,54163.086
965382.4485784405,-66332.28,-45354.656,10537.883,-5996.46,13942.912,-34206.625,24760.092,54152.184
965382.4525784369,-66348.35,-45415.73,10533.163,-5995.6055,13935.1,-34206.016,24754.273,54127.77
965382.4565784333,-66359.21,-45459.434,10528.361,-5994.873,13931.804,-34206.668,24751.832,54118.207
965382.4605784297,-66348.15,-45415.12,10528.036,-5996.948,13935.507,-34208.863,24754.559,54131.797
965382.4645784262,-66335.414,-45356.12,10530.559,-5998.9014,13939.006,-34210.45,24755.047,54144.043
965382.4685784227,-66336.02,-45364.543,10531.413,-5997.4775,13934.855,-34209.188,24752.402,54141.156
965382.4725784191,-66354.29,-45432.008,10527.954,-5996.338,13928.549,-34209.27,24750.205,54126.06
965382.4765784155,-66367.88,-45470.34,10525.351,-5995.5244,13927.368,-34210.98,24751.1,54122.438
965382.480578412,-66351.4,-45422.203,10529.582,-5997.8438,13933.472,-34211.387,24758.79,54140.344
965382.4845784084,-66329.555,-45358.035,10535.808,-5998.3726,13936.687,-34210.98,24762.127,54158.652
965382.4885784049,-66332.805,-45363.895,10534.831,-5996.9893,13932.333,-34211.1,24759.482,54155.926
965382.4925784012,-66352.83,-45424.645,10531.25,-5995.687,13925.903,-34210.9,24753.135,54134.035
965382.4965783977,-66366.13,-45465.742,10527.914,-5995.7275,13921.957,-34212.402,24748.861,54117.027
965382.5005783942,-66352.016,-45420.777,10530.233,-5996.379,13929.484,-34214.56,24753.906,54134.32
965382.5045783906,-66335.695,-45359.254,10533.8955,-5998.9014,13931.601,-34214.273,24755.82,54148.438
965382.5085783871,-66340.91,-45368.207,10532.268,-5999.5933,13927.531,-34214.76,24748.576,54139.04
965382.5125783834,-66355.96,-45428.836,10529.135,-5996.7856,13921.0205,-34214.316,24744.914,54125.082
965382.5165783799,-66363.08,-45467.207,10527.466,-5996.257,13914.633,-34214.152,24745.281,54115.766
965382.5205783764,-66352.375,-45425.293,10528.972,-5999.5933,13917.725,-34213.992,24750.041,54132.043
965382.5245783728,-66335.9,-45366.58,10531.128,-6002.3193,13920.329,-34214.723,24753.135,54148.48
965382.5285783692,-66342.086,-45374.188,10528.605,-6001.4243,13918.376,-34215.945,24749.879,54143.637
965382.5325783656,-66364.99,-45438.723,10525.676,-6000.366,13912.72,-34215.535,24744.71,54127.035
965382.5365783621,-66375.37,-45480.266,10523.723,-6000.3257,13909.14,-34214.355,24743.37,54116.17
965382.5405783586,-66357.83,-45432.05,10526.042,-6001.872,13913.574,-34214.355,24751.709,54137.332
965382.544578355,-66342.53,-45369.508,10528.076,-6003.703,13917.277,-34213.504,24755.535,54158.125
965382.5485783514,-66347.13,-45374.27,10527.67,-6003.174,13914.145,-34212.04,24751.506,54152.832
965382.5525783479,-66361.86,-45433.434,10524.414,-6001.872,13908.081,-34211.344,24746.379,54132.203
965382.5565783443,-66374.59,-45477.703,10521.24,-6001.2617,13902.914,-34210.45,24744.426,54114.87
965382.5605783408,-66364.586,-45438.477,10522.136,-6003.337,13905.762,-34210.855,24749.146,54129.56
965382.5645783371,-66354.375,-45383.668,10525.229,-6006.0225,13908.325,-34211.47,24754.436,54149.457
965382.5685783336,-66358.12,-45391.074,10526.367,-6004.924,13905.192,-34212.28,24750.53,54142.785
965382.5725783301,-66372.48,-45444.906,10525.146,-6002.116,13899.902,-34213.137,24742.717,54119.508
965382.5765783265,-66378.87,-45476.117,10522.909,-6001.831,13897.461,-34214.355,24736.857,54097.863
965382.580578323,-66361.94,-45432.17,10527.344,-6001.831,13900.92,-34213.867,24743.164,54116.78
965382.5845783193,-66353.72,-45376.344,10528.769,-6003.988,13904.989,-34213.094,24746.135,54138.88
965382.5885783158,-66354.53,-45377.523,10528.728,-6002.4414,13902.304,-34214.684,24739.99,54132.324
965382.5925783123,-66370.32,-45438.52,10527.263,-5999.0234,13898.479,-34215.82,24735.068,54115.074
965382.5965783087,-66379.88,-45475.914,10524.699,-5998.291,13896.403,-34217.082,24736.857,54107.383
965382.6005783051,-66365.32,-45429.77,10525.513,-6001.587,13902.995,-34216.92,24745.729,54126.67
965382.6045783015,-66352.336,-45371.867,10527.67,-6005.005,13908.285,-34214.273,24750.814,54149.414
965382.608578298,-66353.516,-45372.97,10527.67,-6003.581,13905.681,-34212.242,24748.658,54145.387
965382.6125782945,-66370.12,-45429.566,10524.008,-6002.0347,13899.577,-34212.04,24743.816,54126.508
965382.6165782908,-66382.695,-45471.965,10520.346,-6001.0176,13896.078,-34211.875,24744.834,54114.465
965382.6205782873,-66368.164,-45427.33,10523.845,-6001.6685,13902.06,-34212.688,24752.197,54130.94
965382.6245782838,-66352.016,-45366.09,10528.646,-6004.9644,13904.989,-34212.77,24757.041,54156.74
965382.6285782802,-66357.99,-45376.465,10529.541,-6005.941,13898.479,-34212.77,24754.6,54147.79
965382.6325782767,-66376.305,-45444.824,10527.873,-6003.6216,13884.848,-34212.85,24748.74,54120.65
965382.636578273,-66390.46,-45490.52,10522.502,-6004.11,13881.47,-34212.363,24745.525,54106.285
965382.6405782695,-66376.43,-45440.023,10521.973,-6006.063,13890.178,-34214.438,24748.984,54116.945
965382.644578266,-66358.03,-45374.758,10526.042,-6005.7373,13896.037,-34214.97,24749.064,54133.223
965382.6485782624,-66362.8,-45381.145,10526.489,-6005.493,13893.881,-34213.707,24744.264,54129.438
965382.6525782588,-66383.75,-45443.727,10521.933,-6006.1035,13884.074,-34213.22,24740.643,54110.68
965382.6565782552,-66397.95,-45492.598,10518.881,-6007.0396,13878.703,-34213.094,24740.398,54103.027
965382.6605782517,-66389.08,-45454.387,10518.921,-6011.2305,13881.063,-34210.777,24749.268,54125.043
965382.6645782482,-66371.625,-45386.19,10520.63,-6013.55,13885.458,-34212.2,24749.064,54145.387
965382.6685782446,-66375.37,-45389.16,10519.45,-6011.8003,13884.196,-34212.527,24745.037,54141.887
965382.672578241,-66390.75,-45451.375,10515.219,-6010.417,13877.441,-34214.684,24737.59,54119.02
965382.6765782374,-66395.34,-45491.7,10513.632,-6008.3823,13875.488,-34215.496,24734.498,54098.473
965382.6805782339,-66382.164,-45448.324,10515.381,-6010.498,13883.871,-34215.17,24741.293,54114.383
965382.6845782304,-66374.59,-45393.598,10514.7705,-6013.6313,13889.242,-34214.52,24744.346,54136.11
965382.6885782267,-66379.48,-45397.586,10511.76,-6013.4277,13885.661,-34214.52,24741.455,54133.14
965382.6925782232,-66392.58,-45452.56,10509.399,-6010.9053,13882.568,-34214.844,24737.998,54109.5
965382.6965782196,-66405.11,-45494.875,10505.371,-6011.0273,13879.639,-34215.008,24739.299,54098.633
965382.7005782161,-66390.46,-45442.793,10507.854,-6011.312,13887.899,-34213.42,24746.46,54114.504
965382.7045782126,-66374.555,-45380.332,10512.614,-6012.655,13890.056,-34212.2,24751.426,54136.516
965382.7085782089,-66377.04,-45392.254,10514.242,-6012.2886,13884.115,-34213.46,24747.479,54131.51
965382.7125782054,-66396.24,-45457.887,10511.108,-6011.5156,13875.651,-34213.46,24742.88,54112.875
965382.7165782019,-66410.41,-45505.535,10506.999,-6011.3936,13870.361,-34213.016,24741.455,54099.246
965382.7205781983,-66395.71,-45459.883,10508.993,-6012.492,13877.279,-34210.492,24749.797,54118.695
965382.7245781947,-66381.92,-45397.055,10512.777,-6014.1196,13883.505,-34211.14,24751.14,54136.64
965382.7285781911,-66380.74,-45400.96,10515.097,-6012.9395,13881.308,-34211.996,24743.896,54126.547
965382.7325781876,-66396.94,-45462.2,10513.225,-6010.62,13873.169,-34212.605,24738.363,54109.01
965382.7365781841,-66410.41,-45510.094,10510.539,-6010.8237,13868.652,-34213.34,24738.486,54097.25
965382.7405781805,-66394.414,-45464.56,10512.614,-6013.265,13874.716,-34214.152,24745.605,54113.61
965382.7445781769,-66379.97,-45402.305,10513.957,-6016.439,13874.553,-34215.74,24746.867,54130.414
965382.7485781733,-66383.14,-45407.555,10516.113,-6014.9336,13872.641,-34215.25,24743.896,54125.734
965382.7525781698,-66395.1,-45464.152,10514.079,-6011.882,13867.554,-34215.457,24741.334,54111.25
965382.7565781663,-66404.95,-45504.395,10510.336,-6011.1494,13862.102,-34214.438,24743.287,54105.957
965382.7605781626,-66395.76,-45460.45,10511.108,-6013.1025,13868.449,-34213.176,24750.938,54123.617
965382.7645781591,-66379.88,-45394.86,10515.951,-6013.835,13873.739,-34213.297,24752.727,54146.324
965382.7685781555,-66379.44,-45399.863,10518.107,-6011.6377,13870.199,-34213.83,24749.39,54142.99
965382.772578152,-66394.414,-45461.836,10515.585,-6008.7485,13864.136,-34213.34,24743.734,54115.48
965382.7765781485,-66408.0,-45504.273,10511.394,-6010.783,13859.497,-34215.17,24741.863,54099.938
965382.7805781448,-66396.08,-45466.637,10513.347,-6014.038,13863.647,-34215.375,24747.764,54118.86
965382.7845781413,-66379.44,-45410.44,10517.334,-6016.4795,13866.618,-34216.35,24748.576,54137.98
965382.7885781378,-66384.04,-45418.66,10514.934,-6015.096,13864.787,-34216.637,24743.613,54129.316
965382.7925781342,-66401.94,-45482.137,10510.783,-6012.329,13859.741,-34214.844,24739.137,54107.465
965382.7965781306,-66409.14,-45521.324,10507.976,-6011.2305,13858.887,-34215.902,24736.695,54097.047
965382.800578127,-66396.04,-45476.523,10507.528,-6013.2246,13868.368,-34215.66,24744.549,54120.324
965382.8045781235,-66384.04,-45417.727,10510.783,-6015.2183,13872.396,-34216.31,24747.031,54141.81
965382.80857812,-66383.1,-45421.227,10514.7705,-6013.591,13870.81,-34216.676,24742.27,54135.5
965382.8125781163,-66402.95,-45479.535,10512.451,-6011.8003,13862.59,-34218.426,24734.457,54108.24
965382.8165781128,-66417.93,-45523.36,10506.022,-6012.0444,13859.294,-34219.973,24731.121,54090.984
965382.8205781092,-66399.45,-45476.2,10507.162,-6014.486,13867.717,-34220.62,24733.887,54103.598
965382.8245781057,-66384.97,-45415.938,10511.923,-6016.195,13875.204,-34220.664,24737.305,54131.594
965382.8285781022,-66390.055,-45423.3,10511.963,-6016.0728,13872.152,-34220.258,24732.098,54123.254
965382.8325780985,-66409.586,-45488.12,10508.545,-6014.2417,13867.147,-34220.867,24726.523,54098.715
965382.836578095,-66420.94,-45534.914,10505.534,-6013.835,13865.397,-34221.68,24726.115,54088.34
965382.8405780914,-66408.086,-45490.4,10505.534,-6018.148,13875.326,-34220.543,24736.777,54109.66
965382.8445780879,-66392.46,-45425.17,10506.511,-6021.7285,13882.8125,-34218.387,24744.06,54132.53
965382.8485780843,-66392.055,-45429.324,10507.324,-6020.3857,13882.69,-34218.02,24742.066,54128.625
965382.8525780807,-66407.96,-45488.77,10505.249,-6017.9854,13880.615,-34218.465,24736.207,54104.047
965382.8565780772,-66418.01,-45529.34,10503.581,-6018.3105,13877.686,-34217.773,24736.328,54095.582
965382.8605780737,-66404.7,-45483.93,10506.836,-6021.2812,13884.318,-34218.832,24743.084,54115.93
965382.8645780701,-66385.17,-45426.637,10511.435,-6022.38,13892.741,-34218.914,24748.861,54136.438
965382.8685780665,-66392.3,-45438.19,10511.923,-6021.566,13890.056,-34216.188,24749.717,54132.855
965382.8725780629,-66410.12,-45498.82,10509.97,-6019.328,13887.492,-34216.594,24746.908,54119.348
965382.8765780594,-66417.93,-45537.438,10506.226,-6018.27,13888.428,-34217.45,24748.576,54110.11
965382.8805780559,-66404.46,-45495.28,10506.511,-6019.45,13896.322,-34216.39,24758.057,54128.95
965382.8845780522,-66389.734,-45432.21,10511.108,-6020.1826,13903.687,-34215.332,24760.58,54144.41
965382.8885780487,-66391.195,-45435.02,10515.747,-6018.514,13904.541,-34217.57,24755.412,54140.953
965382.8925780451,-66409.836,-45497.97,10512.248,-6017.212,13897.624,-34218.387,24750.488,54120.934
965382.8965780416,-66425.46,-45545.41,10507.365,-6017.6597,13894.938,-34217.816,24753.256,54113.527
965382.9005780381,-66408.125,-45490.074,10512.207,-6017.5376,13904.053,-34216.227,24762.451,54137.207
965382.9045780344,-66388.15,-45422.812,10517.538,-6017.8633,13911.174,-34216.637,24761.15,54151.613
965382.9085780309,-66384.93,-45425.62,10520.874,-6015.8286,13909.546,-34217.938,24752.85,54141.645
965382.9125780273,-66404.09,-45491.17,10517.782,-6016.6426,13900.554,-34220.215,24746.42,54120.605
965382.9165780238,-66415.53,-45531.535,10515.788,-6015.544,13898.031,-34220.258,24746.664,54110.76
965382.9205780202,-66403.28,-45484.09,10517.782,-6014.6895,13907.349,-34221.19,24754.762,54127.85
965382.9245780166,-66388.02,-45422.85,10519.572,-6016.7646,13911.174,-34223.51,24754.355,54140.668
965382.9285780131,-66390.71,-45429.402,10519.043,-6016.1133,13908.8545,-34223.473,24748.617,54135.5
965382.9325780096,-66411.586,-45497.113,10514.7705,-6013.6313,13902.629,-34222.293,24745.037,54124.066
965382.936578006,-66423.71,-45542.277,10512.004,-6013.835,13897.583,-34220.83,24747.234,54115.562
965382.9405780024,-66412.6,-45497.4,10512.492,-6017.9443,13904.175,-34221.355,24750.611,54125.695
965382.9445779988,-66397.5,-45436.85,10513.55,-6021.0776,13909.058,-34221.76,24750.732,54136.273
965382.9485779953,-66401.98,-45446.74,10513.021,-6021.7285,13904.297,-34222.293,24745.605,54128.785
965382.9525779918,-66422.77,-45514.04,10508.789,-6020.4673,13892.09,-34220.867,24741.455,54107.91
965382.9565779881,-66437.38,-45563.438,10505.534,-6020.7114,13889.567,-34219.645,24744.426,54101.848
965382.9605779846,-66422.04,-45510.38,10508.667,-6021.4033,13898.153,-34219.85,24755.535,54125.0
965382.964577981,-66405.31,-45446.656,10513.794,-6023.1934,13901.001,-34218.953,24762.207,54145.266
965382.9685779775,-66408.37,-45463.055,10515.381,-6023.763,13895.834,-34217.855,24758.465,54144.94
965382.972577974,-66430.75,-45530.76,10508.993,-6024.089,13887.98,-34218.953,24752.035,54124.96
965382.9765779703,-66437.46,-45568.28,10507.935,-6023.031,13886.149,-34219.32,24750.0,54110.84
965382.9805779668,-66418.42,-45517.375,10512.329,-6024.211,13894.165,-34219.77,24754.965,54123.984
965382.9845779632,-66405.88,-45461.996,10513.754,-6027.1406,13898.234,-34218.71,24757.936,54142.17
965382.9885779597,-66411.99,-45469.117,10513.835,-6026.367,13897.38,-34218.59,24752.32,54136.56
965382.992577956,-66426.15,-45526.652,10513.225,-6023.031,13891.887,-34220.62,24746.014,54117.395
965382.9965779525,-66440.68,-45572.797,10509.685,-6023.7227,13887.045,-34220.83,24746.543,54106.203
965383.000577949,-66428.02,-45524.742,10510.702,-6026.8555,13890.341,-34222.25,24753.867,54122.03
965383.0045779455,-66408.0,-45458.7,10516.439,-6026.8965,13895.956,-34223.145,24754.965,54139.773
965383.0085779418,-66414.67,-45466.473,10513.591,-6026.8965,13892.212,-34224.367,24748.943,54134.89
965383.0125779383,-66434.61,-45528.363,10509.155,-6025.9604,13885.417,-34224.324,24743.164,54113.527
965383.0165779347,-66442.836,-45568.89,10507.162,-6025.3906,13883.261,-34223.715,24743.043,54099.977
965383.0205779312,-66429.89,-45519.29,10508.545,-6027.303,13889.73,-34223.88,24751.67,54119.55
965383.0245779277,-66416.71,-45457.44,10511.3125,-6029.704,13893.515,-34221.56,24756.512,54143.027
965383.028577924,-66420.29,-45465.332,10509.97,-6029.582,13893.066,-34221.926,24753.053,54140.707
965383.0325779205,-66437.586,-45529.34,10505.412,-6026.937,13889.445,-34223.594,24748.984,54117.676
965383.0365779169,-66449.875,-45577.35,10502.441,-6026.6523,13883.83,-34223.96,24750.285,54106.527
965383.0405779134,-66432.66,-45525.96,10508.139,-6027.995,13889.526,-34223.88,24757.65,54127.117
965383.0445779097,-66414.875,-45460.652,10513.469,-6029.419,13893.596,-34223.918,24759.645,54143.84
965383.0485779062,-66422.65,-45477.742,10510.295,-6030.111,13887.289,-34224.895,24753.135,54134.402
965383.0525779027,-66443.81,-45539.31,10502.401,-6030.5586,13880.209,-34226.645,24744.346,54113.04
965383.0565778991,-66454.71,-45576.457,10499.553,-6030.0293,13875.244,-34225.75,24745.2,54099.164
965383.0605778956,-66443.766,-45532.473,10499.878,-6031.8604,13879.477,-34225.953,24750.408,54109.01
965383.064577892,-66426.15,-45472.78,10505.493,-6032.2676,13882.8125,-34226.688,24750.814,54130.74
965383.0685778884,-66430.09,-45480.754,10507.365,-6032.308,13879.721,-34226.605,24746.664,54131.27
965383.0725778849,-66452.31,-45545.74,10502.279,-6031.372,13874.472,-34226.402,24742.637,54108.766
965383.0765778814,-66462.28,-45590.457,10499.187,-6031.7383,13872.192,-34228.027,24740.846,54093.14
965383.0805778777,-66441.86,-45540.61,10503.744,-6031.372,13879.802,-34229.695,24743.896,54103.56
965383.0845778742,-66427.9,-45482.75,10507.772,-6034.1797,13884.604,-34229.9,24746.055,54122.277
965383.0885778706,-66429.52,-45493.125,10508.179,-6033.8135,13877.686,-34230.754,24743.408,54121.34
965383.0925778671,-66447.836,-45561.402,10505.331,-6031.169,13869.06,-34231.65,24735.596,54095.83
965383.0965778636,-66459.76,-45596.805,10502.93,-6030.3955,13865.479,-34233.848,24729.168,54074.22
965383.1005778599,-66444.055,-45537.76,10505.575,-6032.0234,13873.657,-34233.316,24736.37,54097.617
965383.1045778564,-66426.39,-45471.438,10508.952,-6033.5693,13879.028,-34233.156,24739.707,54122.277
965383.1085778528,-66424.6,-45479.13,10509.5625,-6031.8604,13874.431,-34233.113,24736.045,54120.77
965383.1125778493,-66442.51,-45544.027,10507.243,-6031.006,13868.734,-34231.934,24732.504,54102.133
965383.1165778456,-66454.02,-45585.33,10503.174,-6031.291,13866.455,-34231.445,24733.969,54094.2
965383.1205778421,-66440.39,-45536.543,10503.662,-6033.122,13874.96,-34230.47,24744.59,54116.824
965383.1245778386,-66427.695,-45473.105,10506.308,-6035.1157,13880.371,-34228.152,24752.238,54135.664
965383.128577835,-66433.92,-45482.098,10505.29,-6033.895,13876.14,-34228.355,24749.473,54132.082
965383.1325778315,-66448.85,-45547.65,10503.459,-6031.25,13869.589,-34229.74,24742.352,54108.727
965383.1365778279,-66456.586,-45588.83,10502.36,-6030.233,13869.101,-34230.184,24743.002,54098.84
965383.1405778243,-66442.22,-45537.598,10505.819,-6032.5522,13877.116,-34229.004,24750.814,54120.445
965383.1445778208,-66429.0,-45474.164,10508.179,-6035.3193,13880.859,-34228.355,24755.697,54141.48
965383.1485778173,-66429.73,-45480.51,10508.789,-6034.6274,13877.686,-34228.477,24752.686,54136.438
965383.1525778136,-66449.55,-45546.51,10506.226,-6032.3486,13872.111,-34227.785,24746.664,54110.07
965383.1565778101,-66457.07,-45581.953,10505.127,-6030.8027,13868.9375,-34229.332,24741.74,54094.688
965383.1605778065,-66437.95,-45529.055,10508.871,-6031.047,13877.482,-34231.04,24747.07,54118.086
965383.164577803,-66423.75,-45471.844,10514.567,-6032.959,13882.487,-34231.73,24751.75,54137.82
965383.1685777995,-66427.49,-45482.625,10515.829,-6030.721,13880.615,-34231.12,24749.756,54134.24
965383.1725777958,-66444.09,-45546.145,10511.027,-6029.826,13873.129,-34231.527,24745.2,54118.816
965383.1765777923,-66458.375,-45587.402,10507.365,-6029.6226,13869.548,-34230.715,24745.443,54105.266
965383.1805777887,-66444.055,-45542.195,10509.277,-6032.2266,13875.0,-34230.918,24753.012,54120.812
965383.1845777852,-66425.984,-45484.05,10512.207,-6034.261,13877.482,-34231.0,24755.412,54139.16
965383.1885777815,-66432.66,-45492.11,10511.841,-6032.715,13874.35,-34231.324,24752.117,54129.355
965383.192577778,-66451.055,-45552.938,10508.261,-6032.3896,13866.943,-34232.91,24744.102,54105.266
965383.1965777745,-66456.586,-45593.02,10507.935,-6031.9824,13860.922,-34233.44,24744.182,54100.26
965383.200577771,-66445.6,-45552.938,10510.295,-6034.343,13864.909,-34232.992,24752.727,54120.85
965383.2045777674,-66432.13,-45495.08,10514.364,-6036.418,13870.6875,-34234.17,24754.477,54135.582
965383.2085777638,-66436.16,-45493.734,10513.672,-6036.0107,13868.856,-34234.215,24749.268,54125.207
965383.2125777602,-66457.4,-45556.234,10509.604,-6035.1973,13859.375,-34232.87,24746.379,54106.773
965383.2165777567,-66463.46,-45598.023,10507.446,-6034.709,13856.527,-34233.156,24745.688,54089.52
965383.2205777531,-66448.85,-45555.79,10509.237,-6036.499,13860.718,-34231.285,24754.762,54111.98
965383.2245777495,-66437.09,-45493.613,10509.5625,-6039.8765,13867.392,-34229.29,24759.645,54138.594
965383.228577746,-66441.125,-45497.316,10509.359,-6039.022,13866.293,-34227.99,24757.447,54136.312
965383.2325777424,-66459.76,-45557.66,10505.331,-6037.3535,13859.294,-34227.906,24754.314,54114.707
965383.2365777389,-66470.79,-45596.965,10501.425,-6037.4756,13853.882,-34228.477,24754.965,54102.867
965383.2405777352,-66458.01,-45554.324,10501.343,-6039.8765,13855.998,-34228.56,24762.574,54124.27
965383.2445777317,-66446.49,-45498.13,10503.134,-6042.684,13861.247,-34229.168,24765.748,54143.35
965383.2485777282,-66450.4,-45500.33,10502.6455,-6040.9346,13859.741,-34229.777,24761.271,54135.215
965383.2525777246,-66466.31,-45560.832,10499.309,-6038.9404,13851.074,-34231.242,24753.174,54115.93
965383.2565777211,-66481.695,-45607.91,10496.379,-6039.3066,13846.151,-34232.668,24749.105,54106.895
965383.2605777174,-66466.02,-45558.84,10497.07,-6040.6904,13854.33,-34233.36,24751.303,54117.35
965383.2645777139,-66450.234,-45491.742,10498.901,-6042.9688,13856.283,-34234.54,24749.268,54133.508
965383.2685777104,-66452.84,-45496.992,10501.018,-6041.0156,13852.051,-34234.05,24744.996,54128.625
965383.2725777068,-66468.55,-45561.727,10500.041,-6038.1675,13846.273,-34236.086,24737.59,54102.133
965383.2765777032,-66483.28,-45615.277,10496.867,-6038.8594,13840.088,-34236.53,24736.166,54088.543
965383.2805776997,-66473.266,-45578.086,10497.478,-6041.992,13843.872,-34235.758,24744.182,54108.684
965383.2845776961,-66455.61,-45513.387,10500.529,-6043.132,13848.593,-34234.824,24747.764,54127.89
965383.2885776926,-66463.99,-45523.684,10498.129,-6044.3525,13842.814,-34234.78,24744.426,54120.324
965383.292577689,-66484.336,-45589.48,10494.101,-6044.6777,13834.961,-34235.434,24739.137,54103.438
965383.2965776854,-66494.14,-45630.78,10492.31,-6044.1084,13830.7705,-34236.207,24739.99,54093.875
965383.3005776819,-66484.055,-45590.66,10493.774,-6046.224,13835.002,-34235.066,24751.547,54111.74
965383.3045776783,-66475.266,-45534.832,10493.571,-6050.212,13837.729,-34234.457,24755.697,54123.7
965383.3085776748,-66475.51,-45530.965,10492.961,-6047.8926,13836.752,-34235.434,24750.488,54118.33
965383.3125776711,-66494.875,-45587.688,10488.444,-6046.7124,13832.724,-34235.27,24745.89,54102.133
965383.3165776676,-66505.21,-45627.645,10488.403,-6045.7764,13829.59,-34234.133,24746.094,54095.664
965383.3205776641,-66487.875,-45581.504,10493.205,-6045.6953,13838.664,-34234.457,24750.732,54111.29
965383.3245776605,-66471.234,-45523.848,10496.745,-6048.747,13840.088,-34236.53,24749.879,54124.676
965383.328577657,-66472.945,-45533.33,10497.07,-6047.2007,13836.508,-34237.145,24744.71,54122.926
965383.3325776533,-66486.695,-45589.234,10491.496,-6043.905,13831.34,-34236.613,24740.072,54103.56
965383.3365776498,-66498.66,-45629.316,10488.607,-6043.2944,13828.491,-34237.062,24742.473,54093.875
965383.3405776463,-66480.39,-45579.1,10492.392,-6046.3867,13833.293,-34236.777,24751.873,54119.387
965383.3445776427,-66455.98,-45515.547,10498.739,-6047.4043,13837.932,-34236.37,24755.656,54142.54
965383.3485776391,-66461.06,-45522.42,10498.779,-6046.794,13834.799,-34234.906,24753.418,54137.656
965383.3525776356,-66480.1,-45588.137,10494.263,-6045.2476,13829.712,-34233.36,24750.082,54120.605
965383.356577632,-66487.76,-45626.996,10493.815,-6043.62,13828.776,-34233.277,24747.967,54107.668
965383.3605776285,-66474.57,-45579.59,10496.42,-6045.532,13833.13,-34234.62,24753.662,54121.137
965383.364577625,-66459.31,-45520.996,10501.181,-6046.631,13836.833,-34235.15,24755.535,54139.367
965383.3685776213,-66460.66,-45526.004,10502.808,-6045.085,13835.775,-34235.68,24750.285,54137.207
965383.3725776178,-66480.43,-45589.97,10498.454,-6045.41,13827.312,-34236.086,24747.479,54124.51
965383.3765776142,-66488.77,-45633.832,10497.152,-6045.6953,13820.517,-34234.58,24750.45,54122.03
965383.3805776107,-66478.35,-45588.22,10496.054,-6048.1772,13826.132,-34233.805,24760.58,54142.418
965383.384577607,-66463.79,-45527.387,10498.576,-6049.4795,13832.561,-34232.75,24765.586,54161.418
965383.3885776035,-66467.33,-45532.227,10499.431,-6048.4214,13831.137,-34233.113,24757.61,54147.586
965383.3925776,-66488.734,-45597.86,10495.932,-6046.5903,13823.894,-34234.5,24750.408,54123.293
965383.3965775964,-66496.46,-45639.324,10495.077,-6047.241,13819.54,-34234.01,24753.297,54113.527
965383.4005775929,-66476.73,-45584.637,10498.657,-6049.3164,13826.538,-34232.465,24763.348,54137.29
965383.4045775892,-66462.61,-45527.02,10499.716,-6052.6533,13828.9795,-34232.22,24766.969,54158.57
965383.4085775857,-66467.53,-45534.832,10498.576,-6052.7344,13824.341,-34230.387,24764.527,54153.2
965383.4125775822,-66480.02,-45592.49,10496.989,-6050.049,13819.255,-34230.918,24757.406,54130.09
965383.4165775786,-66491.62,-45634.727,10493.612,-6049.8457,13814.087,-34232.79,24753.867,54116.66
965383.420577575,-66478.31,-45587.73,10495.117,-6051.7173,13818.115,-34233.48,24759.4,54131.918
965383.4245775715,-66468.38,-45532.594,10496.054,-6053.1006,13822.754,-34232.586,24762.533,54155.152
965383.4285775679,-66473.47,-45540.164,10494.019,-6052.409,13822.0625,-34233.562,24757.447,54152.387
965383.4325775644,-66492.48,-45598.27,10488.974,-6052.0835,13812.012,-34235.477,24750.977,54128.543
965383.4365775607,-66500.66,-45636.56,10487.509,-6049.6826,13812.012,-34235.92,24750.57,54118.043
965383.4405775572,-66486.45,-45588.137,10490.601,-6050.863,13817.587,-34236.492,24754.395,54124.35
965383.4445775537,-66469.89,-45525.594,10493.9375,-6052.287,13819.418,-34238.12,24752.768,54136.8
965383.4485775501,-66474.164,-45535.36,10493.408,-6051.799,13815.674,-34237.55,24747.355,54130.293
965383.4525775466,-66491.82,-45599.977,10487.387,-6051.351,13807.333,-34238.566,24741.66,54111.37
965383.4565775429,-66505.54,-45641.316,10483.847,-6051.6357,13804.565,-34237.918,24741.252,54101.035
965383.4605775394,-66494.914,-45592.938,10485.312,-6054.5654,13809.57,-34237.957,24748.984,54116.742
965383.4645775359,-66482.18,-45529.34,10488.281,-6057.3325,13815.552,-34238.527,24750.082,54135.742
965383.4685775323,-66481.164,-45537.152,10489.99,-6054.891,13812.378,-34237.223,24748.373,54133.26
965383.4725775287,-66502.41,-45604.453,10485.107,-6054.769,13801.799,-34236.53,24747.926,54117.473
965383.4765775251,-66515.14,-45648.766,10483.398,-6054.6875,13797.241,-34237.55,24748.7,54104.332
965383.4805775216,-66500.81,-45604.086,10483.276,-6056.8037,13803.915,-34237.633,24755.371,54123.457
965383.4845775181,-66486.82,-45545.207,10484.782,-6059.2856,13811.157,-34236.816,24757.324,54141.97
965383.4885775145,-66492.39,-45554.484,10484.172,-6058.6753,13806.926,-34236.53,24752.523,54136.477
965383.4925775109,-66508.625,-45613.363,10480.917,-6055.6235,13798.178,-34237.145,24746.094,54118.004
965383.4965775074,-66521.98,-45656.58,10475.017,-6057.495,13793.905,-34239.46,24743.084,54100.71
965383.5005775038,-66503.99,-45604.086,10479.777,-6058.716,13799.438,-34238.242,24750.205,54119.1
965383.5045775003,-66481.94,-45540.812,10487.427,-6058.3496,13805.99,-34235.72,24755.656,54143.434
965383.5085774966,-66485.48,-45549.48,10489.014,-6057.251,13802.246,-34235.965,24752.158,54139.04
965383.5125774931,-66508.14,-45616.54,10484.579,-6057.8613,13792.969,-34237.184,24747.967,54122.234
965383.5165774896,-66519.94,-45658.164,10480.388,-6058.1055,13788.778,-34236.9,24746.176,54110.637
965383.520577486,-66501.836,-45601.93,10482.016,-6058.553,13798.828,-34236.816,24751.018,54128.418
965383.5245774825,-66483.08,-45542.035,10486.166,-6059.0415,13808.105,-34236.125,24753.215,54148.645
965383.5285774788,-66483.85,-45550.824,10486.166,-6058.065,13806.601,-34237.836,24745.932,54141.97
965383.5325774753,-66507.37,-45618.45,10481.161,-6057.617,13799.968,-34239.46,24737.793,54118.45
965383.5365774718,-66521.164,-45665.61,10477.783,-6057.17,13797.7295,-34240.277,24734.904,54106.69
965383.5405774682,-66509.445,-45619.184,10478.354,-6059.5703,13804.647,-34239.746,24740.44,54128.746
965383.5445774646,-66497.07,-45560.832,10481.12,-6061.7676,13808.432,-34239.95,24742.188,54143.312
965383.548577461,-66501.836,-45564.21,10482.626,-6060.71,13809.367,-34239.95,24738.281,54132.324
965383.5525774575,-66519.94,-45627.727,10479.126,-6059.0415,13803.711,-34239.176,24735.557,54110.477
965383.556577454,-66534.51,-45674.113,10474.081,-6060.3438,13802.45,-34238.688,24737.549,54098.27
965383.5605774504,-66515.586,-45623.66,10478.394,-6062.785,13812.175,-34239.87,24747.6,54117.555
965383.5645774468,-66500.94,-45562.703,10483.725,-6063.9243,13819.865,-34239.83,24753.135,54136.438
965383.5685774432,-66508.42,-45575.24,10483.806,-6062.9478,13817.993,-34238.363,24754.518,54132.53
965383.5725774397,-66524.82,-45638.023,10479.655,-6062.378,13813.11,-34237.305,24753.338,54114.87
965383.5765774362,-66535.69,-45678.184,10477.051,-6062.0527,13812.175,-34237.062,24754.559,54108.684
965383.5805774325,-66519.45,-45628.133,10481.812,-6063.1104,13821.574,-34235.11,24764.486,54130.78
965383.584577429,-66501.875,-45566.367,10488.159,-6064.9414,13827.637,-34234.457,24768.107,54149.414
965383.5885774255,-66506.8,-45577.883,10489.909,-6064.006,13825.277,-34234.58,24763.469,54142.336
965383.5925774219,-66527.18,-45647.34,10484.945,-6062.663,13818.115,-34236.207,24755.738,54122.887
965383.5965774184,-66539.47,-45693.32,10482.138,-6062.7036,13817.79,-34236.734,24751.344,54109.945
965383.6005774147,-66520.836,-45640.42,10484.985,-6063.2734,13826.742,-34235.598,24758.75,54128.543
965383.6045774112,-66503.26,-45574.832,10488.933,-6063.8022,13831.706,-34237.348,24759.807,54145.062
965383.6085774077,-66504.97,-45582.48,10491.089,-6062.866,13829.794,-34237.59,24753.744,54135.5
965383.6125774041,-66522.38,-45647.664,10487.712,-6061.2793,13823.8125,-34239.258,24747.234,54113.934
965383.6165774005,-66530.56,-45685.305,10484.375,-6059.774,13823.771,-34240.6,24745.037,54104.74
965383.6205773969,-66516.69,-45634.605,10487.0205,-6061.6865,13828.654,-34240.684,24750.041,54125.164
965383.6245773934,-66505.01,-45577.19,10489.584,-6064.5347,13832.764,-34239.95,24753.379,54139.61
965383.6285773899,-66507.9,-45587.89,10488.892,-6064.6973,13829.875,-34239.664,24749.879,54132.043
965383.6325773862,-66528.77,-45656.375,10483.154,-6064.7383,13822.917,-34240.195,24745.443,54106.855
965383.6365773827,-66540.734,-45696.86,10480.469,-6064.453,13819.946,-34240.64,24747.559,54096.19
965383.6405773791,-66521.98,-45647.34,10484.985,-6067.2607,13825.725,-34240.152,24756.959,54119.223
965383.6445773756,-66510.7,-45595.258,10488.119,-6069.906,13827.393,-34238.65,24763.062,54137.086
965383.6485773721,-66515.79,-45604.004,10489.95,-6070.028,13821.737,-34238.445,24764.73,54137.13
965383.6525773684,-66528.61,-45652.914,10489.868,-6065.511,13819.214,-34238.16,24762.492,54123.457
965383.6565773649,-66542.16,-45693.848,10487.468,-6063.3545,13817.79,-34238.363,24762.086,54110.19
965383.6605773614,-66524.3,-45644.207,10490.967,-6064.494,13823.242,-34236.613,24772.258,54132.324
965383.6645773578,-66507.94,-45581.137,10496.054,-6064.8193,13832.846,-34234.99,24775.514,54149.336
965383.6685773542,-66512.375,-45593.1,10494.589,-6065.1045,13830.974,-34237.55,24768.719,54141.195
965383.6725773506,-66533.57,-45665.164,10487.956,-6065.9995,13823.161,-34237.836,24764.445,54123.902
965383.6765773471,-66545.49,-45705.73,10482.422,-6064.209,13822.021,-34239.42,24762.004,54109.785
965383.6805773436,-66529.18,-45649.7,10484.66,-6064.494,13832.968,-34239.42,24767.62,54128.99
965383.68457734,-66512.66,-45585.695,10489.421,-6066.976,13837.443,-34239.3,24772.137,54153.117
965383.6885773364,-66512.414,-45593.26,10489.421,-6065.959,13832.235,-34239.586,24765.666,54146.08
965383.6925773328,-66529.664,-45664.633,10486.125,-6065.4297,13822.551,-34239.016,24758.668,54117.395
965383.6965773293,-66543.664,-45708.78,10481.73,-6066.04,13819.255,-34238.363,24757.365,54106.527
965383.7005773258,-66525.39,-45651.53,10484.538,-6066.5283,13827.841,-34240.277,24762.004,54126.426
965383.7045773221,-66509.85,-45585.695,10489.38,-6068.2783,13832.846,-34240.723,24762.818,54145.55
965383.7085773186,-66516.4,-45593.14,10488.647,-6068.2373,13829.062,-34241.05,24755.25,54139.445
965383.712577315,-66534.63,-45655.926,10484.375,-6065.959,13823.486,-34244.1,24745.117,54117.312
965383.7165773115,-66546.76,-45701.863,10483.276,-6065.4297,13817.953,-34244.47,24745.117,54103.56
965383.720577308,-66529.83,-45652.223,10487.427,-6066.7725,13826.416,-34243.695,24751.629,54117.35
965383.7245773043,-66512.66,-45592.45,10492.229,-6068.3594,13829.062,-34243.777,24755.697,54134.645
965383.7285773008,-66517.5,-45608.24,10490.967,-6068.4004,13823.69,-34243.125,24755.006,54130.58
965383.7325772973,-66539.516,-45671.957,10486.003,-6068.807,13815.1455,-34242.066,24753.867,54111.453
965383.7365772937,-66548.99,-45707.316,10483.562,-6068.441,13813.518,-34241.945,24756.023,54104.168
965383.7405772901,-66534.06,-45657.066,10487.305,-6070.516,13818.604,-34241.457,24764.61,54124.637
965383.7445772865,-66521.04,-45598.39,10491.374,-6071.6147,13821.696,-34241.05,24770.752,54143.598
965383.748577283,-66523.48,-45603.72,10493.002,-6070.8823,13819.499,-34239.95,24770.957,54140.953
965383.7525772795,-66541.18,-45666.79,10488.852,-6069.092,13812.744,-34240.97,24765.992,54121.34
965383.7565772759,-66551.15,-45708.7,10484.904,-6068.7256,13811.728,-34240.277,24768.434,54114.42
965383.7605772723,-66537.15,-45656.66,10484.904,-6071.411,13818.075,-34239.258,24778.809,54142.05
965383.7645772687,-66524.05,-45595.543,10485.678,-6074.829,13820.435,-34239.46,24778.361,54155.438
965383.7685772652,-66529.5,-45606.285,10484.253,-6075.9277,13814.006,-34241.496,24769.816,54138.957
965383.7725772617,-66546.8,-45667.605,10483.439,-6074.707,13803.63,-34242.758,24765.504,54122.355
965383.776577258,-66558.19,-45709.516,10483.358,-6072.754,13802.328,-34244.266,24764.16,54116.457
965383.7805772545,-66542.93,-45662.395,10485.596,-6074.4224,13811.89,-34244.508,24769.41,54135.664
965383.784577251,-66527.8,-45605.51,10487.956,-6075.8057,13815.674,-34244.02,24769.816,54154.543
965383.7885772474,-66527.75,-45611.74,10487.509,-6074.5444,13812.012,-34245.08,24761.436,54146.203
965383.7925772439,-66542.195,-45670.86,10485.312,-6071.2485,13807.414,-34244.754,24751.914,54123.496
965383.7965772402,-66555.3,-45714.723,10481.486,-6071.859,13802.206,-34246.867,24745.322,54108.117
965383.8005772367,-66541.914,-45664.55,10483.154,-6073.8936,13806.396,-34248.293,24747.031,54122.234
965383.8045772332,-66527.34,-45604.047,10487.59,-6075.8057,13809.814,-34250.45,24744.467,54132.895
965383.8085772296,-66532.836,-45620.484,10486.613,-6075.277,13805.908,-34250.0,24738.73,54124.96
965383.812577226,-66552.66,-45685.508,10480.632,-6073.4863,13797.363,-34250.0,24731.934,54100.426
965383.8165772224,-66562.38,-45723.348,10478.068,-6071.086,13794.516,-34250.45,24730.266,54085.33
965383.8205772189,-66547.28,-45675.742,10481.323,-6073.7305,13804.6875,-34249.918,24738.566,54107.42
965383.8245772154,-66531.25,-45618.652,10485.474,-6076.213,13809.692,-34248.375,24745.525,54129.64
965383.8285772118,-66535.61,-45628.906,10485.189,-6076.416,13802.816,-34248.863,24743.734,54119.14
965383.8325772082,-66556.97,-45694.297,10481.689,-6075.8057,13792.074,-34249.188,24741.172,54096.07
965383.8365772046,-66570.88,-45731.65,10480.388,-6075.8467,13790.527,-34247.355,24742.676,54085.86
965383.8405772011,-66550.82,-45674.887,10483.48,-6075.3174,13800.985,-34246.582,24752.482,54103.312
965383.8445771976,-66532.11,-45608.93,10486.9795,-6075.4805,13806.723,-34245.77,24760.174,54129.76
965383.8485771939,-66537.03,-45621.785,10486.694,-6076.9453,13800.781,-34243.855,24760.05,54130.7
965383.8525771904,-66552.57,-45682.82,10484.335,-6075.4805,13792.277,-34243.33,24756.023,54115.48
965383.8565771868,-66561.12,-45722.168,10483.317,-6073.6084,13792.44,-34243.207,24757.936,54108.074
965383.8605771833,-66550.055,-45674.6,10484.213,-6076.172,13798.137,-34243.613,24767.498,54131.676
965383.8645771797,-66538.336,-45621.46,10485.8,-6079.6714,13800.578,-34243.816,24771.77,54149.414
965383.8685771761,-66537.07,-45628.703,10489.014,-6077.108,13800.497,-34243.41,24770.143,54142.375
965383.8725771726,-66553.34,-45692.18,10487.387,-6073.161,13797.445,-34243.246,24765.79,54126.508
965383.876577169,-66565.836,-45729.13,10482.016,-6072.7134,13794.108,-34244.266,24762.127,54117.473
965383.8805771655,-66551.76,-45672.285,10483.195,-6075.6025,13801.025,-34244.914,24764.61,54133.02
965383.8845771619,-66531.66,-45607.953,10490.072,-6076.1313,13806.723,-34246.625,24762.086,54147.95
965383.8885771583,-66536.586,-45624.35,10491.171,-6076.213,13799.194,-34249.39,24751.914,54138.348
965383.8925771548,-66552.984,-45685.914,10490.886,-6074.585,13792.521,-34251.547,24743.287,54121.055
965383.8965771513,-66565.59,-45722.168,10488.607,-6073.039,13791.464,-34253.62,24739.828,54105.062
965383.9005771476,-66552.57,-45676.516,10488.933,-6073.8936,13798.747,-34256.633,24740.52,54114.42
965383.9045771441,-66538.25,-45621.625,10492.473,-6074.829,13801.514,-34257.082,24739.014,54132.652
965383.9085771405,-66540.81,-45625.043,10494.06,-6074.0156,13794.678,-34256.836,24730.674,54125.734
965383.912577137,-66557.984,-45689.94,10488.566,-6074.178,13784.18,-34257.45,24722.576,54098.105
965383.9165771335,-66574.38,-45742.188,10481.934,-6076.579,13775.757,-34258.465,24721.64,54077.15
965383.9205771298,-66565.836,-45702.637,10481.812,-6079.956,13781.169,-34256.023,24734.01,54099.33
965383.9245771263,-66549.234,-45639.49,10485.8,-6081.014,13789.022,-34252.523,24744.752,54121.504
965383.9285771227,-66553.305,-45647.34,10485.148,-6080.4443,13786.581,-34250.734,24745.932,54119.508
965383.9325771192,-66574.95,-45712.2,10479.33,-6080.078,13779.053,-34249.758,24743.693,54099.33
965383.9365771156,-66584.15,-45747.64,10476.848,-6079.7935,13773.479,-34248.902,24745.078,54092.855
965383.940577112,-66563.36,-45695.152,10481.079,-6079.3457,13782.064,-34249.35,24751.914,54115.234
965383.9445771085,-66549.234,-45640.137,10481.12,-6081.421,13785.441,-34249.637,24756.633,54135.703
965383.948577105,-66557.3,-45652.266,10477.58,-6082.3975,13782.268,-34248.7,24755.412,54126.547
965383.9525771014,-66575.97,-45707.887,10473.552,-6080.3633,13778.769,-34246.707,24751.873,54107.63
965383.9565770978,-66585.33,-45747.723,10472.534,-6078.8574,13775.473,-34246.582,24756.389,54103.965
965383.9605770942,-66569.17,-45702.15,10476.5625,-6080.9326,13782.064,-34245.688,24769.94,54129.316
965383.9645770907,-66555.7,-45642.375,10480.469,-6083.74,13784.343,-34243.207,24777.996,54157.96
965383.9685770872,-66557.945,-45653.242,10482.544,-6082.5605,13780.437,-34241.902,24775.676,54156.496
965383.9725770835,-66574.95,-45712.77,10481.039,-6078.939,13775.1875,-34243.082,24767.986,54127.77
965383.97657708,-66586.14,-45750.57,10475.668,-6079.6714,13773.52,-34243.9,24762.004,54112.59
965383.9805770764,-66574.42,-45699.42,10476.115,-6082.357,13779.826,-34245.117,24765.26,54129.355
965383.9845770729,-66557.62,-45641.316,10482.585,-6082.601,13783.529,-34245.688,24767.822,54149.05
965383.9885770694,-66554.61,-45645.59,10487.59,-6079.875,13780.355,-34247.805,24761.557,54138.88
965383.9925770657,-66571.945,-45703.816,10485.596,-6077.922,13771.525,-34250.043,24752.727,54118.207
965383.9965770622,-66585.25,-45752.645,10481.649,-6079.997,13766.4795,-34250.125,24750.732,54105.188
965384.0005770586,-66571.9,-45705.65,10482.829,-6083.2114,13771.484,-34251.344,24754.68,54116.375
965384.0045770551,-66554.81,-45642.05,10486.369,-6081.909,13776.123,-34251.508,24753.662,54135.46
965384.0085770515,-66554.52,-45648.766,10487.305,-6078.9795,13773.356,-34251.668,24744.508,54126.305
965384.0125770479,-66571.74,-45709.883,10483.398,-6077.1895,13765.747,-34253.38,24736.29,54104.7
965384.0165770444,-66580.98,-45749.15,10480.307,-6076.294,13763.225,-34253.176,24737.713,54096.6
965384.0205770409,-66571.49,-45707.03,10480.021,-6080.6074,13768.515,-34254.477,24747.559,54115.645
965384.0245770373,-66559.61,-45649.496,10483.725,-6082.723,13770.224,-34255.008,24752.361,54134.848
965384.0285770337,-66561.445,-45655.684,10484.335,-6081.706,13764.7705,-34254.477,24751.67,54132.812
965384.0325770301,-66579.836,-45717.207,10479.98,-6080.8105,13757.04,-34255.414,24746.867,54104.332
965384.0365770266,-66596.11,-45758.547,10475.139,-6081.462,13750.529,-34253.582,24749.309,54088.95
965384.040577023,-66583.13,-45710.734,10475.098,-6084.2285,13757.243,-34252.24,24759.97,54106.69
965384.0445770194,-66562.99,-45651.652,10480.673,-6084.2695,13763.225,-34248.74,24764.934,54126.914
965384.0485770159,-66562.38,-45657.637,10481.242,-6083.537,13758.911,-34246.46,24764.404,54129.477
965384.0525770123,-66583.984,-45721.723,10474.976,-6083.13,13751.872,-34247.152,24763.916,54116.906
965384.0565770088,-66595.09,-45761.516,10471.599,-6082.601,13746.704,-34248.13,24765.178,54113.12
965384.0605770051,-66582.89,-45712.566,10473.186,-6085.8564,13751.913,-34246.95,24776.611,54138.754
965384.0645770016,-66571.01,-45661.906,10476.237,-6088.542,13752.89,-34245.566,24782.553,54159.875
965384.0685769981,-66576.055,-45676.84,10477.133,-6086.67,13750.977,-34246.055,24778.85,54155.03
965384.0725769945,-66588.55,-45726.645,10475.302,-6083.8623,13749.064,-34248.21,24770.549,54134.156
965384.076576991,-66596.44,-45761.434,10474.162,-6083.049,13747.355,-34249.637,24766.562,54116.945
965384.0805769874,-66580.04,-45715.375,10477.783,-6086.141,13751.791,-34252.28,24768.637,54134.24
965384.0845769838,-66565.02,-45657.39,10481.73,-6086.8735,13755.9,-34252.605,24767.986,54150.027
965384.0885769803,-66566.94,-45662.68,10481.323,-6084.554,13753.378,-34252.24,24761.719,54144.86
965384.0925769767,-66581.26,-45720.625,10480.307,-6082.9673,13746.094,-34253.906,24754.07,54125.734
965384.0965769731,-66591.92,-45761.883,10480.185,-6083.415,13743.083,-34254.56,24749.92,54107.79
965384.1005769696,-66580.37,-45720.703,10481.73,-6086.711,13743.408,-34253.99,24752.361,54115.156
965384.104576966,-66568.16,-45665.938,10483.236,-6089.3555,13747.233,-34253.906,24750.938,54125.125
965384.1085769625,-66574.305,-45675.62,10482.382,-6087.728,13745.077,-34253.133,24746.826,54121.79
965384.112576959,-66589.234,-45734.17,10478.801,-6085.49,13739.055,-34252.688,24741.455,54099.0
965384.1165769553,-66597.21,-45770.145,10476.645,-6086.1006,13735.107,-34251.914,24742.27,54088.137
965384.1205769518,-66585.33,-45726.81,10476.604,-6089.6406,13738.974,-34252.24,24750.977,54108.727
965384.1245769482,-66574.1,-45675.824,10477.743,-6091.6343,13741.821,-34249.637,24757.568,54123.984
965384.1285769447,-66579.836,-45683.31,10476.237,-6091.96,13738.607,-34248.21,24758.586,54118.53
965384.132576941,-66597.375,-45740.97,10473.471,-6090.21,13733.398,-34248.496,24758.953,54104.74
965384.1365769375,-66605.8,-45774.742,10474.406,-6089.071,13733.073,-34246.582,24765.38,54103.76
965384.140576934,-66589.12,-45725.668,10477.377,-6091.146,13740.316,-34245.035,24778.281,54130.293
965384.1445769304,-66577.64,-45676.637,10478.354,-6092.489,13744.141,-34244.875,24784.912,54148.562
965384.1485769269,-66580.89,-45684.57,10477.255,-6091.797,13740.683,-34246.664,24780.926,54140.87
965384.1525769233,-66593.67,-45738.812,10475.749,-6090.6577,13732.26,-34248.414,24776.367,54126.184
965384.1565769197,-66601.56,-45777.344,10472.982,-6089.5186,13729.574,-34247.6,24775.146,54116.78
965384.1605769162,-66589.73,-45735.477,10472.331,-6091.716,13733.969,-34247.152,24781.047,54135.297
965384.1645769126,-66579.47,-45681.438,10472.494,-6093.547,13738.037,-34247.113,24781.617,54146.65
965384.168576909,-66581.26,-45683.88,10472.209,-6091.4717,13736.694,-34249.227,24775.025,54142.01
965384.1725769055,-66597.13,-45740.277,10472.697,-6088.908,13730.713,-34249.88,24769.043,54121.91
965384.1765769019,-66608.65,-45776.613,10469.076,-6090.129,13727.946,-34252.156,24762.777,54105.594
965384.1805768984,-66596.27,-45734.05,10468.425,-6093.0176,13734.985,-34252.24,24766.602,54125.734
965384.1845768949,-66580.65,-45678.348,10471.3545,-6094.686,13737.712,-34252.08,24765.992,54145.47
965384.1885768912,-66587.37,-45692.832,10473.063,-6093.9536,13729.411,-34253.664,24757.406,54143.11
965384.1925768877,-66603.64,-45752.81,10470.907,-6092.0005,13721.069,-34254.438,24746.826,54117.23
965384.1965768841,-66612.1,-45793.215,10468.466,-6091.4717,13719.442,-34255.82,24741.863,54097.617
965384.2005768806,-66597.05,-45739.95,10472.128,-6093.0176,13727.987,-34256.227,24746.582,54116.336
965384.204576877,-66581.055,-45677.938,10476.807,-6093.1396,13734.701,-34254.76,24748.17,54132.043
965384.2085768734,-66581.79,-45683.637,10478.557,-6092.5703,13729.33,-34255.008,24741.496,54116.05
965384.2125768699,-66597.78,-45743.777,10477.092,-6091.5938,13723.715,-34253.215,24737.06,54093.547
965384.2165768663,-66611.086,-45790.73,10473.593,-6091.96,13718.872,-34251.508,24740.56,54086.957
965384.2205768628,-66597.29,-45745.65,10475.424,-6093.221,13726.44,-34251.668,24749.92,54103.723
965384.2245768592,-66583.74,-45685.63,10477.133,-6093.913,13733.887,-34250.816,24754.191,54125.855
965384.2285768556,-66591.23,-45698.527,10474.569,-6095.459,13731.12,-34250.895,24751.14,54118.125
965384.2325768521,-66612.8,-45764.242,10467.8955,-6097.168,13721.436,-34251.953,24746.543,54089.926
965384.2365768485,-66625.61,-45805.137,10463.827,-6098.2666,13719.442,-34252.77,24748.21,54082.156
965384.2405768449,-66609.375,-45751.305,10468.384,-6098.796,13730.388,-34252.035,24759.36,54106.69
965384.2445768414,-66592.2,-45689.168,10470.541,-6099.8945,13738.241,-34250.855,24763.021,54125.125
965384.2485768378,-66597.86,-45700.44,10470.012,-6099.5283,13736.776,-34249.43,24761.719,54123.254
965384.2525768343,-66613.484,-45762.617,10469.198,-6098.9585,13732.626,-34249.188,24760.703,54111.125
965384.2565768308,-66624.72,-45799.24,10466.024,-6098.755,13734.335,-34249.35,24762.371,54105.633
965384.2605768271,-66614.664,-45759.402,10466.757,-6101.9287,13743.002,-34247.07,24774.09,54131.066
965384.2645768236,-66599.57,-45704.633,10470.134,-6102.661,13745.85,-34245.85,24780.152,54151.246
965384.26857682,-66604.05,-45714.684,10468.791,-6102.2544,13745.199,-34248.21,24775.31,54141.035
965384.2725768165,-66623.086,-45776.938,10463.867,-6102.051,13740.479,-34250.33,24767.457,54115.766
965384.2765768128,-66633.55,-45814.58,10459.106,-6102.295,13740.194,-34251.547,24768.23,54110.027
965384.2805768093,-66618.05,-45763.43,10461.752,-6102.824,13751.75,-34250.367,24775.188,54126.75
965384.2845768058,-66602.336,-45708.58,10465.251,-6103.882,13757.121,-34250.125,24776.938,54145.227
965384.2885768022,-66603.07,-45715.863,10467.163,-6103.801,13753.378,-34251.59,24771.322,54141.645
965384.2925767986,-66617.07,-45773.074,10467.245,-6100.9116,13746.826,-34253.582,24760.621,54107.504
965384.296576795,-66629.64,-45814.58,10465.373,-6100.383,13743.53,-34254.234,24757.53,54094.28
965384.3005767915,-66616.78,-45764.934,10467.204,-6102.417,13751.791,-34254.19,24763.348,54112.793
965384.304576788,-66604.17,-45706.465,10470.419,-6104.004,13757.487,-34255.168,24763.754,54129.965
965384.3085767844,-66605.39,-45716.72,10471.436,-6102.783,13756.552,-34257.12,24756.104,54119.305
965384.3125767808,-66623.086,-45778.65,10469.971,-6102.336,13750.122,-34257.203,24750.488,54099.082
965384.3165767773,-66630.17,-45815.88,10470.866,-6101.522,13741.659,-34256.797,24750.938,54090.414
965384.3205767737,-66620.52,-45772.22,10470.581,-6102.987,13748.332,-34255.453,24759.033,54109.215
965384.3245767702,-66608.36,-45712.04,10470.622,-6105.184,13754.802,-34255.94,24760.824,54119.508
965384.3285767665,-66612.39,-45718.67,10471.151,-6103.475,13757.568,-34255.29,24761.068,54111.492
965384.332576763,-66630.13,-45780.805,10467.855,-6101.522,13753.54,-34254.723,24761.883,54097.863
965384.3365767595,-66644.01,-45821.492,10465.373,-6101.2373,13749.96,-34255.21,24764.201,54090.332
965384.3405767559,-66626.95,-45770.633,10467.692,-6101.1963,13757.935,-34253.703,24776.043,54113.242
965384.3445767524,-66610.555,-45710.492,10471.436,-6101.5625,13762.451,-34254.312,24778.809,54133.63
965384.3485767487,-66612.59,-45722.535,10473.022,-6101.115,13758.911,-34254.8,24774.414,54130.293
965384.3525767452,-66626.305,-45783.164,10470.093,-6101.278,13751.343,-34255.94,24771.445,54117.883
965384.3565767417,-66636.195,-45823.855,10466.675,-6100.586,13749.309,-34257.285,24771.24,54100.098
965384.3605767381,-66622.52,-45776.41,10468.913,-6102.417,13753.215,-34257.895,24776.855,54115.52
965384.3645767345,-66610.68,-45721.805,10470.622,-6104.0854,13757.976,-34257.082,24779.217,54133.02
965384.368576731,-66616.05,-45734.01,10469.849,-6103.801,13753.581,-34257.773,24772.46,54125.0
965384.3725767274,-66633.67,-45795.86,10467.163,-6103.109,13744.751,-34257.69,24765.422,54102.906
965384.3765767239,-66646.89,-45837.242,10463.135,-6103.0684,13741.455,-34259.89,24761.8,54093.914
965384.3805767203,-66634.484,-45789.676,10464.152,-6105.0215,13747.722,-34262.777,24763.957,54108.074
965384.3845767167,-66616.375,-45725.914,10467.611,-6104.4517,13755.778,-34264.285,24763.021,54121.137
965384.3885767132,-66618.86,-45733.36,10467.855,-6102.092,13756.063,-34262.535,24758.586,54115.766
965384.3925767096,-66636.27,-45792.36,10464.6,-6101.5625,13747.314,-34262.047,24752.523,54093.387
965384.3965767061,-66652.305,-45837.324,10459.188,-6104.4517,13742.27,-34262.168,24750.53,54081.137
965384.4005767024,-66639.61,-45791.87,10460.612,-6106.0386,13748.861,-34261.477,24761.027,54105.754
965384.4045766989,-66624.19,-45735.15,10464.274,-6105.591,13756.226,-34260.54,24766.48,54126.914
965384.4085766954,-66628.46,-45751.63,10463.786,-6106.2827,13752.523,-34260.742,24764.854,54122.766
965384.4125766918,-66646.28,-45812.137,10459.025,-6107.015,13743.246,-34260.824,24759.93,54102.297
965384.4165766883,-66656.66,-45849.043,10457.602,-6106.201,13739.055,-34260.703,24761.395,54090.332
965384.4205766846,-66643.15,-45799.6,10458.944,-6107.2188,13743.693,-34261.8,24767.578,54101.402
965384.4245766811,-66629.64,-45749.105,10462.851,-6109.294,13746.298,-34261.598,24770.59,54114.625
965384.4285766776,-66635.3,-45762.41,10463.461,-6109.619,13740.764,-34260.824,24771.24,54116.336
965384.432576674,-66651.66,-45820.844,10460.449,-6106.7305,13734.253,-34260.05,24769.531,54102.62
965384.4365766704,-66657.266,-45852.824,10459.595,-6105.2656,13734.253,-34257.773,24773.52,54096.52
965384.4405766668,-66642.74,-45806.234,10461.06,-6106.9336,13743.9375,-34258.18,24782.35,54116.457
965384.4445766633,-66626.266,-45746.543,10463.827,-6107.7476,13749.431,-34258.953,24785.197,54135.867
965384.4485766598,-66629.234,-45751.426,10462.769,-6106.9746,13746.582,-34258.668,24781.21,54138.754
965384.4525766562,-66648.73,-45809.004,10458.334,-6105.998,13740.927,-34256.43,24778.77,54127.727
965384.4565766526,-66657.72,-45844.402,10458.252,-6103.475,13739.014,-34256.715,24778.605,54120.402
965384.460576649,-66642.13,-45796.59,10460.979,-6105.306,13743.408,-34258.465,24780.355,54128.785
965384.4645766455,-66626.06,-45738.61,10465.048,-6106.1606,13749.39,-34260.582,24778.2,54134.156
965384.468576642,-66634.16,-45751.71,10464.804,-6106.6084,13744.345,-34260.254,24773.438,54130.13
965384.4725766383,-66654.22,-45812.055,10460.043,-6105.5503,13739.95,-34259.48,24768.393,54116.21
965384.4765766348,-66663.29,-45851.402,10455.566,-6105.632,13737.143,-34260.215,24767.254,54112.184
965384.4805766313,-66647.016,-45797.527,10455.038,-6108.2764,13743.042,-34261.312,24771.037,54131.188
965384.4845766277,-66630.82,-45740.113,10460.124,-6109.3345,13747.925,-34261.8,24768.516,54137.207
965384.4885766241,-66633.99,-45753.258,10464.233,-6107.8696,13743.652,-34261.395,24760.254,54127.08
965384.4925766205,-66652.67,-45809.773,10462.362,-6104.289,13737.427,-34262.492,24753.379,54106.61
965384.496576617,-66661.87,-45843.547,10460.9375,-6101.8066,13735.434,-34263.875,24754.232,54096.4
965384.5005766135,-66649.664,-45800.496,10461.589,-6105.835,13739.502,-34264.12,24758.871,54114.137
965384.5045766099,-66638.76,-45750.652,10463.135,-6108.358,13743.856,-34263.47,24761.639,54131.023
965384.5085766063,-66642.91,-45756.918,10461.223,-6107.9917,13739.746,-34261.8,24759.318,54121.83
965384.5125766027,-66659.016,-45812.01,10458.212,-6107.585,13730.917,-34261.434,24756.43,54102.703
965384.5165765992,-66666.71,-45846.805,10457.927,-6106.405,13729.37,-34261.395,24756.227,54088.34
965384.5205765957,-66654.625,-45798.586,10460.246,-6109.4565,13733.765,-34261.434,24762.371,54103.64
965384.524576592,-66645.59,-45752.93,10462.158,-6112.9966,13733.969,-34260.5,24764.73,54118.33
965384.5285765885,-66655.234,-45767.293,10460.043,-6113.3223,13730.795,-34260.66,24761.312,54111.37
965384.532576585,-66669.234,-45818.035,10456.869,-6110.5957,13725.708,-34260.5,24757.854,54095.34
965384.5365765814,-66677.01,-45853.516,10454.631,-6109.9854,13724.121,-34260.01,24760.58,54090.254
965384.5405765779,-66664.02,-45809.57,10457.397,-6112.6304,13730.835,-34260.945,24766.48,54108.36
965384.5445765742,-66651.57,-45754.07,10459.025,-6114.868,13735.148,-34261.355,24769.451,54128.215
965384.5485765707,-66656.86,-45759.605,10458.334,-6113.973,13733.358,-34262.207,24766.725,54124.473
965384.5525765672,-66671.76,-45816.938,10455.16,-6113.5254,13724.813,-34263.31,24760.986,54105.797
965384.5565765636,-66680.99,-45857.79,10452.2705,-6114.38,13719.401,-34263.348,24760.703,54096.844
965384.56057656,-66665.49,-45811.523,10456.299,-6115.3564,13724.243,-34260.785,24770.184,54116.336
965384.5645765564,-66650.48,-45753.258,10460.49,-6115.0312,13730.185,-34260.254,24772.178,54132.61
965384.5685765529,-66654.79,-45768.15,10461.06,-6113.729,13727.661,-34260.133,24766.44,54126.996
965384.5725765494,-66674.4,-45834.72,10457.113,-6112.59,13720.256,-34262.332,24760.865,54109.254
965384.5765765458,-66682.414,-45867.11,10455.404,-6110.759,13720.175,-34263.348,24762.207,54105.062
965384.5805765422,-66664.39,-45810.305,10460.002,-6111.9795,13729.045,-34262.98,24766.887,54120.934
965384.5845765386,-66653.89,-45757.812,10461.589,-6114.421,13730.591,-34264.08,24764.527,54132.45
965384.5885765351,-66658.61,-45768.11,10460.653,-6114.665,13727.539,-34264.895,24758.75,54129.64
965384.5925765316,-66673.51,-45826.094,10458.456,-6113.485,13719.971,-34263.957,24753.785,54109.582
965384.5965765279,-66683.555,-45868.574,10455.322,-6112.8745,13714.926,-34264.363,24750.773,54093.47
965384.6005765244,-66672.94,-45826.5,10455.038,-6115.3975,13721.762,-34265.87,24754.518,54106.367
965384.6045765209,-66660.24,-45770.633,10458.13,-6115.072,13729.086,-34265.87,24756.104,54121.3
965384.6085765173,-66662.92,-45777.63,10458.293,-6114.99,13721.884,-34265.016,24754.273,54118.41
965384.6125765138,-66683.72,-45837.89,10451.254,-6116.374,13708.374,-34264.566,24751.791,54102.418
965384.6165765101,-66696.45,-45877.363,10447.958,-6117.147,13703.247,-34264.527,24753.826,54095.176
965384.6205765066,-66682.05,-45832.97,10452.23,-6118.327,13710.449,-34264.69,24761.557,54107.14
965384.6245765031,-66668.01,-45781.25,10455.811,-6119.995,13715.048,-34264.61,24763.633,54122.805
965384.6285764995,-66672.24,-45788.86,10454.753,-6118.978,13710.368,-34262.82,24764.61,54128.95
965384.6325764959,-66690.266,-45845.582,10453.044,-6116.618,13706.177,-34263.59,24762.94,54113.203
965384.6365764923,-66699.625,-45879.11,10450.806,-6116.4146,13707.764,-34264.08,24763.104,54100.87
965384.6405764888,-66688.234,-45831.383,10450.521,-6119.1406,13710.9375,-34265.3,24766.887,54114.83
965384.6445764853,-66676.31,-45779.746,10452.189,-6120.2393,13714.641,-34267.008,24763.55,54124.676
965384.6485764817,-66676.76,-45795.004,10453.817,-6118.408,13713.583,-34268.555,24758.3,54121.867
965384.6525764781,-66688.11,-45849.652,10452.719,-6115.1533,13709.677,-34268.27,24753.053,54105.145
965384.6565764745,-66698.164,-45885.906,10448.486,-6115.0312,13706.218,-34267.336,24748.496,54088.707
965384.660576471,-66688.31,-45842.207,10448.364,-6118.8154,13705.322,-34266.805,24754.803,54109.863
965384.6645764675,-66674.97,-45786.99,10453.776,-6120.158,13708.252,-34264.977,24762.004,54135.99
965384.6685764638,-66676.72,-45793.094,10454.346,-6120.2803,13706.625,-34266.848,24753.379,54123.66
965384.6725764603,-66691.734,-45848.96,10451.172,-6119.3037,13699.911,-34267.215,24746.217,54100.668
965384.6765764568,-66700.234,-45881.105,10451.782,-6118.978,13696.371,-34264.812,24750.285,54092.652
965384.6805764532,-66674.805,-45819.258,10459.799,-6117.3096,13706.95,-34264.977,24758.424,54117.598
965384.6845764496,-66659.016,-45765.3,10463.501,-6118.164,13711.996,-34265.22,24760.865,54133.344
965384.688576446,-66670.086,-45783.773,10460.49,-6119.344,13707.764,-34264.363,24759.889,54128.582
965384.6925764425,-66690.06,-45846.234,10454.672,-6117.839,13699.829,-34263.875,24757.65,54110.8
965384.696576439,-66699.67,-45880.37,10452.719,-6116.2925,13699.016,-34264.285,24754.395,54098.594
965384.7005764354,-66684.2,-45830.242,10455.322,-6118.042,13704.794,-34265.26,24760.865,54118.086
965384.7045764318,-66675.336,-45782.227,10456.828,-6121.704,13707.113,-34265.465,24764.16,54133.87
965384.7085764282,-66680.46,-45795.047,10457.927,-6121.1753,13703.41,-34264.285,24762.451,54129.76
965384.7125764247,-66692.99,-45858.6,10457.397,-6119.8325,13695.842,-34262.453,24760.377,54114.18
965384.7165764212,-66705.33,-45895.305,10454.224,-6120.6055,13692.546,-34260.133,24763.389,54112.957
965384.7205764175,-66692.79,-45846.64,10455.852,-6121.135,13698.324,-34260.094,24773.764,54139.812
965384.724576414,-66677.29,-45794.56,10458.822,-6123.088,13702.963,-34259.89,24777.71,54156.21
965384.7285764104,-66681.07,-45808.434,10458.944,-6123.6167,13699.748,-34260.867,24771.16,54145.305
965384.7325764069,-66700.445,-45871.297,10454.753,-6122.5996,13695.028,-34261.23,24764.16,54121.38
965384.7365764034,-66714.84,-45911.46,10450.399,-6122.762,13689.86,-34262.332,24761.271,54109.05
965384.7405763997,-66697.02,-45860.35,10453.939,-6124.919,13697.185,-34263.47,24764.73,54130.168
965384.7445763962,-66680.016,-45805.746,10457.4795,-6126.384,13699.585,-34263.836,24764.324,54142.66
965384.7485763927,-66686.65,-45818.035,10454.672,-6125.3257,13694.743,-34263.797,24758.3,54131.27
965384.7525763891,-66705.08,-45875.69,10451.213,-6123.8203,13686.564,-34263.875,24750.977,54110.273
965384.7565763855,-66716.68,-45914.715,10449.057,-6123.535,13682.821,-34265.383,24749.188,54096.273
965384.7605763819,-66703.21,-45867.88,10450.806,-6125.5293,13689.941,-34266.316,24756.186,54112.062
965384.7645763784,-66685.875,-45807.21,10453.085,-6126.058,13693.481,-34266.316,24759.115,54127.81
965384.7685763749,-66693.16,-45822.023,10450.888,-6127.1973,13686.85,-34265.098,24755.9,54121.055
965384.7725763713,-66708.46,-45879.844,10448.446,-6124.8374,13679.77,-34264.566,24748.17,54100.586
965384.7765763677,-66723.23,-45921.59,10445.231,-6124.797,13678.223,-34266.156,24745.322,54091.35
965384.7805763641,-66712.98,-45877.727,10446.615,-6129.0283,13679.077,-34267.215,24751.1,54111.37
965384.7845763606,-66699.625,-45823.855,10447.226,-6132.202,13680.176,-34267.62,24753.256,54125.9
965384.7885763571,-66703.82,-45828.453,10444.865,-6133.0977,13678.671,-34266.97,24749.309,54114.953
965384.7925763534,-66721.64,-45888.55,10441.772,-6131.5513,13671.997,-34266.727,24744.02,54092.53
965384.7965763499,-66734.74,-45924.848,10438.3955,-6131.4697,13668.62,-34268.473,24743.125,54086.348
965384.8005763463,-66717.2,-45871.83,10441.813,-6132.65,13676.799,-34270.836,24748.291,54108.32
965384.8045763428,-66701.09,-45816.69,10446.249,-6131.0225,13683.432,-34271.12,24752.768,54124.51
965384.8085763393,-66705.81,-45828.168,10445.19,-6130.615,13680.38,-34269.9,24749.838,54122.07
965384.8125763356,-66721.07,-45886.273,10442.668,-6129.924,13672.323,-34270.996,24748.455,54113.16
965384.8165763321,-66730.875,-45921.67,10439.575,-6129.8423,13667.521,-34270.184,24749.105,54104.25
965384.8205763286,-66715.45,-45871.176,10441.65,-6131.2666,13674.235,-34267.62,24757.162,54122.766
965384.824576325,-66699.51,-45814.656,10445.19,-6131.633,13681.885,-34267.254,24758.424,54137.86
965384.8285763214,-66702.35,-45826.215,10445.109,-6131.6733,13679.199,-34269.695,24750.367,54127.566
965384.8325763178,-66717.45,-45883.992,10443.645,-6130.9004,13671.306,-34270.062,24744.71,54111.29
965384.8365763143,-66726.56,-45920.695,10442.668,-6130.127,13666.26,-34269.168,24745.85,54104.74
965384.8405763108,-66712.81,-45873.047,10446.899,-6131.5107,13672.445,-34267.457,24755.047,54127.363
965384.8445763072,-66698.33,-45815.633,10449.423,-6132.894,13677.734,-34265.707,24757.568,54147.707
965384.8485763036,-66701.91,-45825.645,10447.144,-6131.7954,13673.544,-34267.215,24752.97,54138.105
965384.8525763,-66720.13,-45883.344,10443.034,-6129.8423,13666.301,-34269.41,24745.605,54116.21
965384.8565762965,-66728.11,-45917.035,10440.878,-6129.6387,13664.551,-34270.71,24741.496,54098.473
965384.860576293,-66711.875,-45868.695,10442.465,-6132.243,13670.939,-34270.47,24746.582,54119.957
965384.8645762893,-66699.18,-45815.918,10444.946,-6133.911,13674.602,-34270.633,24746.826,54140.06
965384.8685762858,-66705.81,-45830.895,10443.197,-6132.894,13669.963,-34269.98,24742.555,54130.25
965384.8725762822,-66725.914,-45893.395,10437.663,-6133.0566,13664.999,-34272.22,24737.672,54107.22
965384.8765762787,-66734.21,-45928.426,10434.814,-6132.4463,13665.243,-34273.97,24735.475,54095.055
965384.8805762752,-66719.12,-45881.594,10436.768,-6133.8706,13672.893,-34274.82,24739.625,54111.613
965384.8845762715,-66707.195,-45830.812,10439.575,-6136.312,13677.206,-34274.457,24741.781,54127.035
965384.888576268,-66709.96,-45842.695,10440.227,-6135.946,13671.835,-34274.17,24738.77,54122.03
965384.8925762645,-66728.88,-45906.047,10437.134,-6135.9053,13664.836,-34274.58,24734.701,54102.824
965384.8965762609,-66745.08,-45950.684,10432.373,-6136.76,13663.534,-34275.188,24734.863,54093.26
965384.9005762573,-66729.58,-45897.22,10434.286,-6137.573,13672.7295,-34275.555,24740.234,54109.945
965384.9045762537,-66719.12,-45842.367,10435.71,-6140.259,13678.915,-34275.23,24744.305,54128.785
965384.9085762502,-66722.01,-45856.855,10435.954,-6138.3467,13680.38,-34274.17,24743.816,54125.734
965384.9125762467,-66733.484,-45912.477,10435.913,-6135.9053,13677.531,-34275.066,24739.543,54105.754
965384.916576243,-66744.39,-45951.418,10432.251,-6135.7017,13676.636,-34274.375,24741.049,54104.656
965384.9205762395,-66728.97,-45903.77,10435.832,-6136.963,13686.483,-34273.64,24748.74,54124.27
965384.9245762359,-66715.25,-45848.227,10439.169,-6138.2246,13695.3125,-34275.35,24749.879,54135.906
965384.9285762324,-66719.65,-45859.133,10440.186,-6136.841,13694.702,-34276.773,24746.217,54131.51
965384.9325762289,-66739.87,-45918.703,10436.483,-6136.2715,13690.837,-34277.1,24745.037,54117.27
965384.9365762252,-66748.86,-45954.023,10434.408,-6136.963,13690.43,-34274.58,24747.07,54111.613
965384.9405762217,-66731.445,-45898.6,10439.291,-6137.004,13700.358,-34273.723,24752.361,54128.094
965384.9445762181,-66713.625,-45840.293,10445.272,-6136.2715,13709.433,-34272.46,24752.93,54142.742
965384.9485762146,-66720.055,-45852.703,10443.767,-6137.126,13705.893,-34274.863,24746.338,54130.168
965384.952576211,-66734.984,-45911.297,10443.686,-6135.7017,13698.161,-34276.285,24742.066,54111.086
965384.9565762074,-66743.49,-45947.715,10442.383,-6133.7485,13696.452,-34275.758,24743.37,54109.418
965384.9605762039,-66732.016,-45900.88,10441.366,-6136.312,13699.504,-34276.57,24750.732,54130.496
965384.9645762003,-66718.79,-45852.297,10442.139,-6138.55,13703.9795,-34277.184,24750.205,54133.223
965384.9685761968,-66723.11,-45862.266,10442.465,-6137.655,13703.247,-34277.71,24746.338,54125.613
965384.9725761932,-66738.2,-45917.48,10440.186,-6135.946,13698.283,-34278.117,24741.66,54108.44
965384.9765761896,-66749.35,-45953.74,10437.704,-6136.2305,13695.109,-34279.176,24741.008,54091.555
965384.9805761861,-66735.64,-45905.684,10439.697,-6138.7534,13702.026,-34277.14,24752.768,54114.098
965384.9845761826,-66721.07,-45851.81,10442.465,-6139.974,13705.444,-34276.45,24756.512,54133.832
965384.9885761789,-66728.31,-45865.645,10441.04,-6139.7705,13704.0205,-34275.473,24751.914,54124.758
965384.9925761754,-66744.06,-45925.375,10438.559,-6138.1836,13699.016,-34275.105,24747.479,54107.383
965384.9965761718,-66754.84,-45964.438,10436.361,-6138.2246,13696.208,-34274.742,24751.1,54106.895
965385.0005761683,-66740.52,-45917.277,10439.616,-6139.8115,13703.247,-34275.797,24758.627,54126.832
965385.0045761648,-66727.09,-45861.37,10443.93,-6141.6016,13706.909,-34275.188,24762.574,54144.86
965385.0085761611,-66731.41,-45869.957,10444.255,-6139.7705,13706.381,-34274.863,24759.482,54138.836
965385.0125761576,-66747.88,-45928.71,10441.081,-6137.0444,13700.399,-34274.742,24755.576,54119.508
965385.016576154,-66758.71,-45960.29,10439.779,-6136.9224,13697.673,-34274.375,24755.535,54110.516
965385.0205761505,-66743.77,-45910.32,10442.465,-6140.1777,13703.695,-34274.945,24761.475,54130.293
965385.0245761469,-66730.39,-45860.027,10446.655,-6141.317,13706.299,-34276.652,24760.783,54142.863
965385.0285761433,-66735.68,-45873.047,10447.429,-6139.323,13704.265,-34276.004,24756.227,54135.05
965385.0325761398,-66750.49,-45926.395,10444.133,-6137.248,13697.104,-34275.27,24752.605,54118.207
965385.0365761362,-66761.76,-45964.277,10439.169,-6136.9224,13690.878,-34276.004,24751.1,54106.082
965385.0405761327,-66750.29,-45923.34,10441.61,-6140.381,13696.859,-34277.344,24754.477,54121.258
965385.0445761291,-66737.76,-45872.844,10442.912,-6142.7817,13700.48,-34279.625,24754.03,54134.277
965385.0485761255,-66743.25,-45885.38,10441.8545,-6140.3,13698.405,-34280.152,24750.488,54129.965
965385.052576122,-66759.52,-45942.508,10440.512,-6138.55,13691.977,-34279.83,24747.031,54112.1
965385.0565761185,-66764.57,-45973.188,10438.884,-6139.282,13689.901,-34280.438,24748.21,54103.56
965385.0605761148,-66744.59,-45920.29,10442.058,-6140.2183,13697.673,-34280.438,24755.9,54121.094
965385.0645761113,-66731.164,-45867.188,10445.801,-6142.0493,13701.335,-34277.996,24760.05,54140.79
965385.0685761077,-66737.63,-45884.2,10447.51,-6141.2354,13696.777,-34276.98,24759.848,54136.19
965385.0725761042,-66754.07,-45939.496,10444.499,-6139.608,13690.43,-34276.492,24757.0,54120.28
965385.0765761007,-66763.305,-45973.188,10442.017,-6139.5264,13687.582,-34276.98,24756.268,54113.445
965385.080576097,-66748.5,-45925.254,10442.79,-6141.805,13694.906,-34276.9,24762.127,54127.77
965385.0845760935,-66736.01,-45871.016,10446.981,-6142.5376,13698.649,-34276.695,24763.062,54138.594
965385.0885760899,-66742.15,-45882.406,10447.998,-6141.8457,13691.895,-34276.98,24761.516,54138.836
965385.0925760864,-66758.51,-45944.176,10442.953,-6142.0493,13682.861,-34277.875,24754.762,54112.184
965385.0965760828,-66767.46,-45978.72,10439.087,-6141.6016,13681.967,-34278.85,24753.541,54101.32
965385.1005760792,-66753.54,-45927.246,10440.186,-6143.3105,13689.006,-34279.258,24760.58,54124.31
965385.1045760757,-66741.87,-45874.105,10442.546,-6144.6533,13692.465,-34279.01,24763.633,54146.77
965385.1085760721,-66743.66,-45884.766,10440.878,-6144.5723,13689.006,-34278.934,24759.482,54138.43
965385.1125760685,-66759.484,-45942.344,10437.175,-6143.84,13681.03,-34278.32,24756.633,54119.63
965385.116576065,-66770.266,-45983.44,10434.286,-6144.165,13677.287,-34278.2,24758.22,54114.383
965385.1205760614,-66753.42,-45934.33,10439.779,-6144.1245,13683.432,-34278.32,24763.754,54131.594
965385.1245760579,-66739.664,-45879.395,10444.987,-6145.1416,13686.361,-34278.2,24767.13,54148.887
965385.1285760544,-66741.58,-45888.145,10448.73,-6142.741,13687.053,-34278.08,24763.021,54138.633
965385.1325760507,-66757.04,-45946.86,10448.161,-6142.2935,13680.176,-34280.07,24757.773,54119.426
965385.1365760472,-66766.195,-45985.19,10444.621,-6142.5376,13675.415,-34281.09,24755.127,54108.156
965385.1405760436,-66753.5,-45937.83,10445.476,-6144.043,13683.757,-34280.355,24760.703,54124.188
965385.1445760401,-66738.65,-45879.52,10446.818,-6145.915,13688.151,-34280.03,24764.08,54148.887
965385.1485760364,-66742.96,-45886.8,10445.923,-6145.1826,13685.181,-34278.81,24761.8,54142.824
965385.1525760329,-66754.516,-45938.113,10443.156,-6142.8223,13679.892,-34278.81,24754.355,54114.625
965385.1565760294,-66763.35,-45973.555,10440.878,-6141.8867,13675.497,-34279.5,24754.15,54110.23
965385.1605760258,-66754.56,-45932.457,10441.406,-6144.45,13678.386,-34279.38,24758.342,54121.3
965385.1645760223,-66745.2,-45885.785,10441.122,-6147.339,13682.373,-34281.74,24755.982,54131.594
965385.1685760187,-66751.55,-45900.39,10437.744,-6148.3564,13678.955,-34281.7,24750.244,54125.613
965385.1725760151,-66765.1,-45954.184,10435.181,-6147.217,13671.184,-34281.78,24746.258,54106.406
965385.1765760116,-66774.664,-45988.73,10432.292,-6147.0137,13669.516,-34280.64,24748.252,54100.18
965385.180576008,-66761.516,-45940.797,10433.92,-6147.9087,13679.159,-34279.867,24755.168,54119.184
965385.1845760044,-66747.11,-45887.617,10436.931,-6148.5596,13684.489,-34280.76,24757.406,54134.848
965385.1885760009,-66751.55,-45896.934,10436.768,-6149.333,13681.071,-34282.633,24752.646,54130.7
965385.1925759973,-66771.37,-45953.086,10431.56,-6148.4785,13676.27,-34283.164,24748.496,54112.47
965385.1965759938,-66781.984,-45983.156,10427.694,-6148.2344,13672.445,-34283.938,24748.252,54106.57
965385.2005759903,-66763.47,-45932.742,10432.739,-6148.8447,13680.461,-34282.188,24755.982,54128.137
965385.2045759866,-66752.69,-45881.43,10435.71,-6150.594,13685.669,-34281.375,24759.482,54145.918
965385.2085759831,-66756.266,-45891.074,10434.082,-6150.635,13682.617,-34282.023,24756.309,54139.16
965385.2125759795,-66767.26,-45941.734,10433.1875,-6149.658,13673.869,-34281.82,24750.53,54114.22
965385.216575976,-66777.02,-45980.348,10430.461,-6149.9023,13669.8,-34280.926,24752.441,54106.61
965385.2205759723,-66762.53,-45940.023,10432.902,-6151.001,13674.072,-34278.81,24760.174,54130.7
965385.2245759688,-66749.27,-45892.906,10435.669,-6152.629,13678.671,-34276.695,24764.527,54147.258
965385.2285759653,-66756.836,-45901.613,10434.611,-6152.6694,13673.95,-34277.1,24759.482,54139.203
965385.2325759617,-66773.07,-45955.16,10432.495,-6151.4893,13667.685,-34277.957,24753.459,54123.254
965385.2365759582,-66780.6,-45990.4,10430.624,-6150.3906,13664.389,-34281.414,24748.861,54110.516
965385.2405759546,-66765.305,-45947.31,10434.489,-6150.472,13670.614,-34283.246,24750.285,54115.766
965385.244575951,-66757.125,-45904.137,10436.972,-6152.7915,13672.7295,-34283.082,24749.023,54122.97
965385.2485759475,-66765.46,-45922.16,10435.791,-6153.117,13669.189,-34283.12,24743.572,54116.457
965385.252575944,-66779.95,-45968.1,10434.408,-6150.7163,13662.517,-34284.465,24739.787,54101.727
965385.2565759403,-66784.016,-45993.938,10433.757,-6150.676,13658.081,-34287.027,24739.014,54093.875
965385.2605759368,-66768.234,-45947.145,10434.814,-6152.588,13662.395,-34286.62,24746.664,54111.207
965385.2645759332,-66758.55,-45897.87,10436.85,-6154.0938,13664.795,-34284.098,24750.285,54123.457
965385.2685759297,-66764.08,-45913.984,10438.3545,-6153.3203,13659.912,-34283.246,24746.217,54121.42
965385.2725759262,-66784.14,-45973.145,10433.594,-6153.7275,13654.419,-34284.63,24742.393,54106.61
965385.2765759225,-66795.58,-46006.43,10429.525,-6154.7446,13650.92,-34285.93,24741.984,54095.664
965385.280575919,-66782.96,-45962.566,10432.455,-6155.2734,13655.518,-34285.156,24748.291,54111.168
965385.2845759154,-66764.484,-45906.453,10437.297,-6154.826,13660.767,-34285.035,24749.92,54126.344
965385.2885759119,-66770.266,-45921.59,10437.175,-6155.5586,13656.657,-34285.035,24746.95,54122.316
965385.2925759082,-66789.1,-45977.336,10432.048,-6156.3315,13649.048,-34285.848,24742.473,54105.715
965385.2965759047,-66799.6,-46001.18,10428.386,-6155.8433,13646.159,-34287.355,24738.322,54092.043
965385.3005759012,-66783.734,-45952.68,10430.502,-6156.006,13654.704,-34287.438,24743.125,54108.32
965385.3045758976,-66771.04,-45904.543,10432.414,-6157.2266,13660.849,-34286.258,24746.014,54121.707
965385.308575894,-66780.48,-45917.81,10428.508,-6157.4707,13654.663,-34286.664,24740.195,54111.613
965385.3125758904,-66802.21,-45977.297,10423.218,-6156.616,13646.525,-34288.535,24734.54,54095.625
965385.3165758869,-66804.69,-46010.254,10423.096,-6155.2734,13645.712,-34290.73,24733.725,54085.734
965385.3205758834,-66790.24,-45968.465,10425.7,-6156.494,13650.676,-34290.04,24743.084,54100.996
965385.3245758798,-66778.41,-45915.773,10429.81,-6157.715,13653.524,-34288.414,24748.21,54120.73
965385.3285758762,-66778.2,-45919.92,10431.03,-6156.372,13649.455,-34287.07,24745.81,54116.58
965385.3325758727,-66790.61,-45971.355,10428.223,-6155.721,13641.724,-34286.785,24740.928,54099.57
965385.3365758691,-66798.71,-46007.855,10425.537,-6155.6396,13637.899,-34287.152,24738.934,54089.03
965385.3405758656,-66785.24,-45964.844,10427.45,-6157.9185,13639.16,-34286.258,24746.582,54107.016
965385.3445758619,-66772.71,-45910.973,10428.752,-6158.081,13643.515,-34286.785,24748.7,54120.117
965385.3485758584,-66775.27,-45916.668,10429.932,-6156.169,13644.165,-34285.44,24746.867,54116.457
965385.3525758549,-66788.01,-45965.58,10430.583,-6153.646,13640.259,-34286.133,24742.596,54101.81
965385.3565758513,-66795.734,-45995.28,10428.549,-6153.4424,13637.37,-34288.82,24737.998,54082.113
965385.3605758478,-66782.11,-45950.36,10430.664,-6155.0293,13642.416,-34289.188,24743.205,54091.23
965385.3645758441,-66767.01,-45898.805,10435.791,-6154.7446,13647.095,-34288.492,24746.787,54111.125
965385.3685758406,-66767.7,-45911.01,10439.128,-6151.693,13645.793,-34288.777,24746.379,54112.023
965385.3725758371,-66783.45,-45966.758,10435.751,-6150.594,13641.724,-34289.918,24744.467,54100.71
965385.3765758335,-66793.54,-45997.805,10432.089,-6150.3096,13641.276,-34291.14,24743.002,54091.15
965385.3805758299,-66779.75,-45945.477,10436.117,-6152.0996,13648.52,-34290.855,24748.088,54111.37
965385.3845758263,-66764.28,-45892.336,10439.413,-6153.4834,13651.489,-34289.633,24750.205,54128.703
965385.3885758228,-66768.96,-45909.1,10438.11,-6153.4424,13646.892,-34288.617,24748.78,54129.395
965385.3925758193,-66789.23,-45969.523,10433.146,-6153.89,13637.207,-34289.062,24746.623,54116.742
965385.3965758157,-66800.62,-46002.973,10430.136,-6156.128,13631.918,-34289.715,24747.152,54108.32
965385.4005758121,-66784.22,-45956.3,10433.716,-6157.4707,13638.957,-34287.926,24754.355,54127.24
965385.4045758086,-66772.83,-45910.28,10432.617,-6159.424,13643.433,-34286.664,24755.535,54138.51
965385.408575805,-66779.95,-45923.42,10427.694,-6159.139,13640.178,-34287.883,24750.285,54127.117
965385.4125758015,-66796.836,-45977.62,10423.788,-6157.7964,13633.342,-34291.3,24744.873,54108.523
965385.4165757978,-66807.54,-46011.312,10420.573,-6158.529,13630.697,-34292.848,24747.682,54097.656
965385.4205757943,-66792.6,-45966.555,10422.079,-6160.5225,13636.3125,-34292.93,24753.744,54115.645
965385.4245757908,-66779.13,-45918.582,10425.863,-6163.1675,13638.347,-34290.12,24757.041,54132.082
965385.4285757872,-66785.28,-45931.438,10424.846,-6163.452,13633.057,-34289.188,24754.559,54123.58
965385.4325757837,-66801.8,-45986.004,10419.312,-6162.069,13626.953,-34289.715,24748.943,54105.145
965385.43657578,-66812.3,-46016.766,10413.249,-6162.557,13623.901,-34290.367,24746.014,54095.055
965385.4405757765,-66799.56,-45971.965,10415.527,-6165.08,13628.906,-34289.633,24750.285,54110.56
965385.444575773,-66780.4,-45915.082,10422.567,-6165.4053,13633.952,-34290.367,24753.012,54125.734
965385.4485757694,-66786.38,-45929.324,10422.607,-6164.8765,13629.11,-34290.57,24750.896,54125.125
965385.4525757658,-66803.875,-45987.145,10418.62,-6162.964,13623.373,-34292.645,24746.502,54105.31
965385.4565757622,-66816.94,-46023.438,10414.267,-6164.388,13619.304,-34292.684,24745.646,54092.98
965385.4605757587,-66805.914,-45972.25,10411.987,-6167.3994,13624.228,-34292.156,24748.984,54103.438
965385.4645757552,-66792.65,-45918.05,10413.981,-6168.579,13628.866,-34290.934,24752.158,54122.355
965385.4685757516,-66795.984,-45929.934,10414.836,-6166.423,13623.495,-34290.12,24750.326,54120.04
965385.472575748,-66806.4,-45983.44,10415.731,-6163.493,13618.327,-34290.445,24745.688,54097.13
965385.4765757445,-66815.19,-46016.4,10413.33,-6163.005,13616.089,-34289.55,24745.646,54089.113
965385.4805757409,-66808.43,-45973.43,10412.964,-6167.3994,13621.135,-34290.242,24749.92,54099.285
965385.4845757374,-66798.016,-45926.27,10414.999,-6170.207,13623.82,-34290.934,24749.594,54115.234
965385.4885757337,-66797.33,-45936.77,10418.945,-6165.8125,13623.617,-34290.61,24743.896,54109.457
965385.4925757302,-66808.11,-45988.242,10420.248,-6163.574,13616.537,-34291.668,24737.916,54093.47
965385.4965757267,-66816.445,-46024.254,10417.725,-6164.592,13612.549,-34293.05,24738.893,54085.613
965385.5005757231,-66803.47,-45980.55,10417.807,-6166.1787,13618.9375,-34293.863,24746.705,54101.93
965385.5045757196,-66790.41,-45930.91,10421.916,-6165.853,13623.617,-34294.07,24749.064,54117.883
965385.5085757159,-66793.984,-45942.71,10421.387,-6165.731,13618.896,-34295.574,24744.834,54113.934
965385.5125757124,-66808.555,-45997.56,10417.969,-6164.673,13612.183,-34296.55,24738.363,54097.74
965385.5165757089,-66817.875,-46031.13,10414.104,-6165.4463,13608.154,-34295.086,24740.275,54089.887
965385.5205757053,-66801.234,-45979.902,10418.457,-6167.8467,13612.305,-34294.637,24747.193,54109.703
965385.5245757017,-66783.164,-45924.316,10424.724,-6168.091,13618.205,-34294.395,24749.309,54125.977
965385.5285756981,-66790.33,-45942.02,10421.997,-6168.457,13615.316,-34294.19,24746.623,54124.594
965385.5325756946,-66808.39,-46001.1,10417.196,-6168.091,13608.236,-34295.207,24739.951,54102.785
965385.5365756911,-66815.59,-46031.74,10415.487,-6168.4165,13605.876,-34295.207,24739.219,54093.875
965385.5405756874,-66802.414,-45986.9,10415.202,-6170.8984,13610.556,-34293.297,24746.705,54113.61
965385.5445756839,-66792.65,-45936.2,10415.243,-6172.811,13616.984,-34291.14,24750.773,54127.44
965385.5485756804,-66797.69,-45943.484,10414.185,-6172.7705,13617.392,-34290.49,24749.717,54124.51
965385.5525756768,-66814.91,-45994.344,10410.482,-6172.0786,13609.335,-34291.79,24744.629,54109.094
965385.5565756733,-66825.08,-46029.83,10409.14,-6171.7124,13608.032,-34291.953,24744.14,54103.438
965385.5605756696,-66809.98,-45982.586,10412.517,-6172.811,13615.52,-34293.17,24747.438,54115.645
965385.5645756661,-66790.81,-45926.395,10419.067,-6172.7295,13623.169,-34293.785,24747.479,54128.46
965385.5685756626,-66796.43,-45940.676,10418.335,-6172.689,13623.413,-34294.395,24740.56,54117.758
965385.572575659,-66815.836,-45998.7,10414.551,-6173.055,13618.002,-34293.17,24736.857,54102.54
965385.5765756554,-66824.055,-46028.77,10412.313,-6172.241,13621.135,-34292.117,24738.81,54096.19
965385.5805756518,-66806.03,-45975.223,10414.267,-6172.6484,13631.308,-34292.277,24747.07,54119.67
965385.5845756483,-66791.055,-45923.3,10418.864,-6172.6484,13638.957,-34291.75,24749.473,54136.516
965385.5885756448,-66794.11,-45935.59,10418.823,-6170.7764,13640.666,-34292.523,24744.955,54127.973
965385.5925756412,-66805.914,-45989.383,10417.399,-6168.579,13637.777,-34292.93,24741.822,54112.47
965385.5965756376,-66815.35,-46024.05,10414.551,-6170.085,13639.201,-34292.605,24744.914,54113.49
965385.600575634,-66804.0,-45979.98,10416.057,-6171.9565,13648.723,-34291.3,24752.727,54126.14
965385.6045756305,-66791.266,-45929.402,10420.898,-6172.0786,13654.46,-34290.164,24757.406,54139.57
965385.608575627,-66794.88,-45941.33,10422.079,-6171.1426,13650.757,-34289.023,24755.576,54131.715
965385.6125756233,-66813.84,-45999.35,10416.545,-6170.9395,13645.386,-34288.74,24752.85,54118.207
965385.6165756198,-66824.75,-46032.473,10413.94,-6172.567,13645.671,-34288.82,24756.43,54112.957
965385.6205756163,-66809.45,-45983.523,10416.748,-6173.828,13652.507,-34289.51,24760.703,54130.7
965385.6245756127,-66796.35,-45933.88,10418.335,-6175.171,13657.837,-34291.26,24760.58,54143.68
965385.6285756092,-66798.42,-45944.703,10418.579,-6174.0723,13656.86,-34292.727,24757.488,54136.395
965385.6325756055,-66815.02,-45999.27,10416.708,-6172.445,13653.402,-34291.14,24754.965,54120.08
965385.636575602,-66827.07,-46034.02,10416.22,-6172.16,13651.449,-34289.062,24758.018,54117.23
965385.6405755985,-66817.34,-45990.316,10416.708,-6174.968,13655.233,-34288.492,24765.545,54136.355
965385.6445755949,-66801.64,-45940.473,10419.719,-6176.595,13659.872,-34289.023,24766.074,54149.945
965385.6485755913,-66803.75,-45948.73,10421.265,-6173.747,13659.628,-34288.656,24762.615,54140.87
965385.6525755877,-66820.15,-46003.582,10418.376,-6172.3633,13654.094,-34291.016,24756.348,54118.246
965385.6565755842,-66829.39,-46036.055,10415.731,-6172.567,13652.629,-34293.215,24754.883,54111.98
965385.6605755807,-66815.76,-45990.277,10419.556,-6174.3574,13656.372,-34293.906,24759.97,54133.26
965385.6645755771,-66804.04,-45943.156,10424.846,-6174.5605,13658.773,-34293.582,24760.621,54144.33
965385.6685755735,-66809.94,-45956.707,10424.968,-6173.055,13658.488,-34294.8,24755.371,54134.074
965385.67257557,-66824.016,-46010.457,10423.218,-6171.3867,13652.629,-34295.9,24751.22,54114.746
965385.6765755664,-66834.35,-46045.29,10419.882,-6171.346,13648.479,-34296.305,24751.506,54104.86
965385.6805755629,-66821.78,-46002.035,10421.672,-6171.753,13655.925,-34297.65,24755.615,54123.58
965385.6845755592,-66806.234,-45954.55,10425.497,-6171.3057,13662.069,-34297.242,24755.738,54133.344
965385.6885755557,-66812.13,-45972.453,10422.893,-6172.241,13654.623,-34297.363,24749.268,54122.56
965385.6925755522,-66832.84,-46030.195,10417.155,-6173.95,13647.014,-34297.934,24743.613,54098.145
965385.6965755486,-66844.69,-46059.285,10414.47,-6174.1943,13646.281,-34298.543,24744.182,54089.844
965385.7005755451,-66830.445,-46014.445,10417.44,-6175.09,13652.507,-34298.3,24748.902,54103.844
965385.7045755414,-66817.71,-45971.926,10421.591,-6177.002,13653.442,-34297.85,24751.75,54112.715
965385.7085755379,-66821.82,-45985.027,10420.207,-6176.351,13650.432,-34296.957,24754.15,54107.832
965385.7125755344,-66837.32,-46036.46,10417.155,-6174.6826,13643.393,-34295.168,24753.988,54097.453
965385.7165755308,-66847.01,-46067.914,10414.877,-6174.927,13640.91,-34295.535,24753.947,54094.523
965385.7205755272,-66832.93,-46018.15,10418.417,-6176.107,13647.665,-34297.16,24757.041,54105.348
965385.7245755236,-66816.37,-45964.844,10423.015,-6175.2524,13652.792,-34296.305,24758.871,54123.7
965385.7285755201,-66824.47,-45987.59,10421.591,-6174.8047,13649.13,-34296.348,24755.25,54119.996
965385.7325755166,-66845.586,-46058.797,10416.504,-6173.9097,13642.822,-34296.67,24750.977,54096.52
965385.7365755129,-66854.62,-46092.613,10411.947,-6173.7876,13643.962,-34296.633,24752.85,54081.586
965385.7405755094,-66843.34,-46045.168,10411.906,-6174.968,13649.17,-34295.695,24760.377,54104.777
965385.7445755058,-66831.99,-45997.926,10413.981,-6177.694,13649.048,-34296.836,24761.15,54123.496
965385.7485755023,-66836.836,-46011.76,10411.947,-6178.2227,13644.735,-34296.836,24757.041,54115.805
965385.7525754988,-66853.27,-46061.08,10407.471,-6177.287,13640.788,-34298.18,24751.303,54101.81
965385.7565754951,-66861.414,-46086.996,10404.419,-6178.0195,13639.445,-34302.004,24746.502,54089.766
965385.7605754916,-66844.98,-46038.37,10408.773,-6178.182,13644.653,-34302.246,24749.064,54097.74
965385.764575488,-66831.87,-45989.22,10412.517,-6179.24,13647.055,-34300.945,24754.15,54118.816
965385.7685754845,-66836.39,-45996.625,10411.784,-6178.4263,13644.653,-34299.848,24752.564,54119.508
965385.7725754809,-66847.17,-46045.535,10410.849,-6175.0083,13638.347,-34299.887,24747.479,54103.64
965385.7765754773,-66855.72,-46078.125,10407.39,-6174.8047,13636.3125,-34300.742,24745.2,54091.188
965385.7805754738,-66845.016,-46036.62,10409.709,-6178.2637,13638.144,-34302.043,24747.396,54104.332
965385.7845754703,-66834.44,-45990.316,10411.987,-6180.583,13640.91,-34303.062,24747.438,54113.08
965385.7885754667,-66840.5,-46001.344,10410.116,-6179.8506,13638.021,-34303.63,24744.67,54109.215
965385.7925754631,-66855.19,-46049.562,10407.837,-6177.9785,13631.999,-34303.426,24744.102,54094.16
965385.7965754595,-66868.695,-46083.254,10403.564,-6179.769,13626.709,-34303.71,24745.973,54085.45
965385.800575456,-66859.09,-46041.06,10403.32,-6181.6406,13630.819,-34303.63,24750.732,54096.355
965385.8045754525,-66845.016,-45993.246,10406.535,-6183.2686,13632.365,-34303.47,24752.686,54108.684
965385.8085754488,-66848.92,-46000.285,10406.657,-6183.065,13629.477,-34302.41,24753.135,54107.18
965385.8125754453,-66865.56,-46054.934,10403.972,-6183.2686,13621.786,-34304.16,24750.693,54092.33
965385.8165754417,-66873.13,-46084.395,10402.263,-6182.251,13620.524,-34303.957,24752.482,54085.246
965385.8205754382,-66855.51,-46033.164,10406.169,-6181.6,13628.052,-34303.14,24757.977,54101.074
965385.8245754347,-66839.27,-45981.527,10409.343,-6183.1055,13630.697,-34303.754,24760.986,54120.566
965385.828575431,-66845.22,-45993.125,10409.709,-6183.9194,13624.023,-34303.348,24758.912,54122.52
965385.8325754275,-66860.44,-46042.117,10406.982,-6181.6,13621.786,-34303.875,24755.82,54106.69
965385.836575424,-66869.23,-46069.582,10404.216,-6180.705,13620.646,-34305.094,24752.768,54094.28
965385.8405754204,-66854.414,-46024.742,10408.081,-6182.943,13626.913,-34304.566,24756.104,54112.387
965385.8445754168,-66836.95,-45972.293,10412.761,-6183.2275,13631.511,-34304.08,24756.348,54131.348
965385.8485754132,-66843.02,-45979.777,10412.15,-6183.309,13628.174,-34305.504,24749.188,54125.9
965385.8525754097,-66862.02,-46034.426,10408.041,-6183.309,13620.158,-34307.21,24742.799,54106.203
965385.8565754062,-66867.92,-46058.555,10405.925,-6182.821,13619.589,-34308.27,24739.38,54094.77
965385.8605754026,-66851.445,-46012.74,10409.099,-6183.3906,13626.425,-34308.473,24742.84,54113.445
965385.864575399,-66835.164,-45965.535,10412.924,-6182.617,13631.714,-34306.887,24747.438,54128.46
965385.8685753954,-66840.91,-45981.0,10413.656,-6182.0884,13629.721,-34307.293,24743.572,54118.53
965385.8725753919,-66856.33,-46039.918,10411.743,-6179.403,13626.343,-34309.367,24740.316,54101.562
965385.8765753884,-66862.914,-46071.453,10410.686,-6178.3447,13622.885,-34309.855,24742.27,54096.64
965385.8805753847,-66849.77,-46032.15,10412.517,-6180.949,13627.849,-34310.344,24748.291,54111.86
965385.8845753812,-66834.516,-45983.6,10415.854,-6180.908,13634.318,-34308.637,24752.32,54126.344
965385.8885753776,-66834.76,-45991.457,10418.132,-6180.298,13628.784,-34307.008,24754.15,54125.125
965385.8925753741,-66853.68,-46047.85,10413.168,-6179.647,13621.094,-34307.902,24752.482,54106.0
965385.8965753706,-66868.94,-46085.574,10408.732,-6181.2744,13620.402,-34306.4,24754.111,54094.81
965385.9005753669,-66857.99,-46040.164,10409.587,-6183.838,13627.319,-34305.22,24763.145,54113.04
965385.9045753634,-66846.97,-45991.457,10412.109,-6185.791,13629.517,-34305.258,24769.492,54130.86
965385.9085753598,-66847.17,-46001.26,10414.592,-6185.3027,13625.977,-34305.746,24766.357,54122.07
965385.9125753563,-66861.66,-46056.684,10411.621,-6185.1807,13617.432,-34304.484,24762.371,54105.188
965385.9165753527,-66872.32,-46094.035,10405.844,-6186.2793,13612.0205,-34303.836,24764.04,54097.535
965385.9205753491,-66860.68,-46052.9,10408.813,-6187.622,13617.636,-34301.516,24772.014,54117.473
965385.9245753456,-66844.56,-46001.668,10415.365,-6186.849,13621.704,-34301.72,24772.787,54129.883
965385.928575342,-66847.984,-46012.535,10415.202,-6187.0527,13617.676,-34303.02,24765.748,54120.89
965385.9325753384,-66865.6,-46067.87,10413.534,-6185.71,13609.579,-34304.77,24758.424,54105.88
965385.9365753349,-66877.12,-46106.812,10411.215,-6185.954,13606.242,-34306.113,24755.9,54099.082
965385.9405753313,-66860.805,-46062.42,10414.267,-6186.4014,13612.224,-34306.52,24757.285,54111.492
965385.9445753278,-66851.52,-46026.082,10415.202,-6188.314,13613.2,-34306.07,24760.58,54123.58
965385.9485753243,-66861.125,-46045.37,10413.29,-6188.2734,13607.341,-34304.89,24756.186,54115.316
965385.9525753206,-66875.66,-46094.16,10411.296,-6185.832,13600.627,-34305.258,24749.309,54095.46
965385.9565753171,-66883.305,-46121.785,10410.4,-6185.588,13599.081,-34306.926,24747.355,54083.984
965385.9605753135,-66870.73,-46076.05,10413.33,-6187.175,13605.917,-34308.434,24752.89,54103.07
965385.96457531,-66860.6,-46033.246,10414.511,-6188.8022,13608.195,-34308.72,24755.697,54124.51
965385.9685753064,-66862.1,-46042.727,10413.452,-6188.1104,13606.201,-34309.734,24747.764,54118.86
965385.9725753028,-66873.45,-46089.316,10411.052,-6185.547,13600.993,-34311.16,24739.99,54085.734
965385.9765752993,-66885.54,-46121.094,10408.447,-6186.198,13599.365,-34311.89,24741.7,54072.918
965385.9805752957,-66873.414,-46077.395,10411.174,-6188.7207,13606.405,-34311.16,24750.693,54093.547
965385.9845752922,-66863.164,-46034.63,10413.859,-6190.267,13608.887,-34310.914,24756.797,54114.668
965385.9885752886,-66870.2,-46049.074,10410.522,-6189.8193,13605.185,-34310.875,24754.844,54109.01
965385.992575285,-66887.49,-46101.93,10406.535,-6189.9824,13597.941,-34310.953,24752.97,54090.21
965385.9965752815,-66894.53,-46127.523,10404.907,-6190.3486,13594.482,-34310.547,24753.094,54080.04
965386.000575278,-66883.42,-46084.8,10404.175,-6192.668,13597.209,-34311.85,24752.646,54090.902
965386.0045752743,-66870.484,-46040.895,10405.3955,-6193.929,13601.848,-34311.363,24753.744,54103.56
965386.0085752708,-66879.84,-46054.77,10402.466,-6193.2783,13598.145,-34310.344,24751.426,54098.676
965386.0125752672,-66899.05,-46107.344,10398.193,-6193.929,13590.739,-34310.793,24747.764,54082.684
965386.0165752637,-66906.01,-46140.75,10397.055,-6194.1733,13587.158,-34310.305,24748.332,54074.953
965386.0205752602,-66893.39,-46099.49,10397.868,-6196.167,13592.082,-34311.484,24753.459,54090.7
