timestamp,Fp1,Fp2,F3,Fz,F4,Cz,Pz,Oz
1316943.3376141891,-64977.336,-86143.84,-40493.855,-23423.584,-12563.599,-28152.71,-16556.844,-20187.256
1316943.3416141842,-64972.82,-86134.28,-40489.22,-23411.174,-12554.362,-28152.71,-16555.908,-20185.873
1316943.3456141793,-64969.117,-86119.55,-40487.223,-23394.492,-12546.469,-28154.502,-16556.885,-20186.28
1316943.349614174,-64965.58,-86113.77,-40490.234,-23394.004,-12547.7295,-28154.867,-16555.135,-20183.594
1316943.3536141692,-64968.832,-86130.945,-40493.043,-23412.191,-12556.641,-28152.264,-16548.951,-20174.195
1316943.357614164,-64975.305,-86145.67,-40493.367,-23423.91,-12557.739,-28150.514,-16545.248,-20170.37
1316943.361614159,-64970.95,-86132.66,-40485.19,-23413.371,-12548.096,-28150.39,-16543.498,-20169.516
1316943.3656141541,-64962.688,-86112.305,-40481.242,-23395.834,-12539.633,-28150.717,-16543.865,-20171.59
1316943.369614149,-64962.406,-86107.75,-40486.168,-23394.736,-12545.939,-28152.793,-16548.625,-20175.537
1316943.373614144,-64975.75,-86127.16,-40495.242,-23415.527,-12562.094,-28154.46,-16552.37,-20177.613
1316943.3776141389,-64988.363,-86146.28,-40501.383,-23429.363,-12568.237,-28153.973,-16552.898,-20180.014
1316943.381614134,-64986.004,-86141.56,-40496.83,-23417.969,-12559.652,-28154.258,-16555.623,-20185.182
1316943.3856141288,-64979.414,-86122.48,-40493.53,-23397.99,-12548.218,-28155.355,-16557.984,-20189.941
1316943.3896141239,-64984.133,-86119.14,-40496.258,-23394.248,-12551.188,-28153.564,-16555.867,-20188.396
1316943.393614119,-64993.45,-86135.74,-40500.855,-23413.982,-12561.89,-28151.734,-16551.758,-20185.14
1316943.3976141138,-64990.645,-86141.08,-40496.785,-23424.643,-12562.216,-28150.229,-16549.48,-20182.617
1316943.4016141088,-64981.855,-86128.91,-40491.17,-23409.424,-12552.246,-28151.164,-16553.305,-20187.256
1316943.4056141037,-64972.496,-86109.984,-40487.957,-23392.578,-12545.654,-28154.908,-16558.025,-20190.797
1316943.4096140987,-64975.914,-86107.266,-40491.617,-23396.566,-12555.38,-28157.188,-16557.7,-20191.488
1316943.4136140938,-64989.953,-86130.82,-40499.637,-23415.488,-12567.749,-28154.135,-16551.717,-20187.053
1316943.4176140886,-64997.03,-86148.16,-40500.977,-23427.41,-12569.255,-28152.14,-16549.357,-20184.082
1316943.4216140837,-64992.11,-86138.02,-40494.547,-23414.633,-12559.204,-28153.85,-16551.596,-20187.541
1316943.4256140785,-64984.094,-86120.164,-40490.316,-23393.922,-12548.178,-28154.176,-16553.426,-20191.244
1316943.4296140736,-64982.06,-86113.77,-40491.414,-23394.654,-12551.636,-28153.037,-16552.246,-20188.152
1316943.4336140687,-64986.656,-86125.05,-40496.42,-23409.424,-12561.035,-28150.758,-16547.81,-20181.234
1316943.4376140635,-64993.492,-86139.37,-40496.83,-23418.621,-12564.535,-28148.926,-16546.428,-20176.678
1316943.4416140586,-64995.61,-86137.414,-40491.78,-23410.28,-12558.35,-28151.205,-16551.637,-20182.252
1316943.4456140534,-64993.086,-86127.24,-40490.97,-23397.178,-12554.362,-28155.479,-16557.455,-20187.053
1316943.4496140485,-64990.113,-86121.09,-40493.53,-23394.084,-12555.99,-28155.967,-16558.025,-20185.791
1316943.4536140433,-64997.52,-86132.164,-40498.332,-23410.605,-12564.982,-28157.227,-16558.309,-20194.58
1316943.4576140384,-65005.7,-86145.02,-40500.855,-23422.607,-12568.645,-28158.0,-16558.92,-20273.193
1316943.4616140334,-64998.375,-86137.78,-40494.875,-23412.07,-12557.861,-28157.309,-16558.309,-20354.736
1316943.4656140283,-64989.465,-86117.92,-40490.723,-23392.783,-12548.137,-28158.814,-16556.805,-20381.836
1316943.4696140233,-64990.316,-86112.1,-40497.684,-23394.654,-12552.572,-28158.732,-16553.752,-20387.86
1316943.4736140182,-65001.426,-86127.65,-40503.543,-23412.15,-12563.151,-28155.273,-16549.44,-20388.348
1316943.4776140132,-65016.766,-86147.71,-40507.652,-23427.37,-12569.54,-28153.443,-16548.016,-20392.09
1316943.4816140083,-65016.117,-86143.07,-40502.973,-23415.203,-12562.541,-28154.258,-16550.781,-20400.146
1316943.4856140031,-65006.96,-86126.266,-40497.844,-23396.404,-12553.671,-28155.273,-16552.49,-20404.135
1316943.4896139982,-65005.82,-86123.13,-40499.88,-23393.719,-12558.35,-28156.414,-16552.775,-20405.438
1316943.493613993,-65016.195,-86138.06,-40510.215,-23413.615,-12572.348,-28159.1,-16553.223,-20406.373
1316943.4976139881,-65025.92,-86149.54,-40513.023,-23425.578,-12580.241,-28159.832,-16552.613,-20407.39
1316943.501613983,-65023.48,-86143.07,-40508.707,-23415.691,-12572.714,-28158.732,-16553.426,-20411.174
1316943.505613978,-65018.312,-86130.7,-40503.543,-23400.025,-12563.232,-28159.994,-16557.943,-20419.271
1316943.509613973,-65016.035,-86123.21,-40505.086,-23395.428,-12561.564,-28159.059,-16555.867,-20420.777
1316943.513613968,-65020.918,-86133.1,-40507.61,-23412.68,-12570.761,-28156.17,-16550.049,-20419.516
1316943.517613963,-65024.457,-86145.96,-40506.918,-23424.44,-12572.47,-28153.973,-16547.607,-20431.152
1316943.5216139578,-65023.48,-86139.28,-40503.094,-23412.803,-12564.169,-28156.494,-16554.402,-20451.416
1316943.525613953,-65021.242,-86126.06,-40501.26,-23395.346,-12558.146,-28161.459,-16561.238,-20464.6
1316943.529613948,-65022.055,-86123.91,-40505.25,-23394.125,-12563.965,-28163.697,-16562.297,-20468.344
1316943.5336139428,-65027.836,-86137.695,-40508.992,-23408.041,-12569.377,-28161.053,-16558.635,-20466.96
1316943.5376139379,-65035.363,-86153.0,-40510.336,-23422.486,-12573.324,-28160.441,-16558.309,-20469.238
1316943.5416139327,-65031.984,-86142.5,-40504.152,-23410.93,-12566.732,-28159.629,-16561.646,-20477.986
1316943.5456139278,-65025.72,-86125.0,-40500.816,-23391.887,-12561.279,-28160.85,-16564.861,-20483.398
1316943.5496139226,-65023.316,-86120.28,-40503.297,-23391.277,-12565.227,-28160.4,-16564.129,-20485.475
1316943.5536139177,-65030.684,-86132.49,-40509.93,-23409.303,-12573.568,-28158.408,-16558.35,-20480.998
1316943.5576139127,-65041.344,-86148.56,-40512.74,-23422.648,-12575.766,-28156.982,-16550.62,-20473.47
1316943.5616139076,-65040.324,-86143.84,-40510.094,-23412.11,-12566.569,-28157.879,-16549.969,-20474.324
1316943.5656139026,-65034.06,-86127.2,-40506.473,-23394.572,-12559.57,-28160.076,-16553.387,-20480.836
1316943.5696138975,-65034.832,-86122.12,-40509.81,-23390.463,-12565.959,-28160.768,-16554.525,-20484.822
1316943.5736138925,-65042.484,-86136.44,-40515.016,-23409.588,-12578.369,-28158.977,-16550.701,-20482.625
1316943.5776138876,-65050.418,-86153.445,-40512.74,-23421.998,-12580.444,-28155.111,-16547.404,-20478.963
1316943.5816138824,-65049.195,-86150.92,-40510.785,-23412.518,-12571.615,-28156.982,-16551.596,-20484.66
1316943.5856138775,-65042.32,-86133.06,-40505.496,-23393.88,-12566.691,-28161.377,-16558.553,-20491.049
1316943.5896138723,-65045.207,-86126.23,-40509.93,-23393.516,-12572.388,-28163.86,-16559.896,-20493.408
1316943.5936138674,-65055.46,-86142.42,-40519.574,-23410.645,-12579.997,-28163.006,-16555.623,-20490.479
1316943.5976138623,-65063.234,-86158.41,-40522.016,-23422.568,-12582.357,-28164.633,-16556.152,-20490.357
1316943.6016138573,-65060.47,-86151.77,-40518.883,-23413.697,-12572.0625,-28164.674,-16558.188,-20495.076
1316943.6056138524,-65053.062,-86134.4,-40514.0,-23398.438,-12566.081,-28166.342,-16557.21,-20495.32
1316943.6096138472,-65051.23,-86126.586,-40512.613,-23393.23,-12570.557,-28164.795,-16553.305,-20491.293
1316943.6136138423,-65055.83,-86136.97,-40516.074,-23407.879,-12578.573,-28160.482,-16546.102,-20485.19
1316943.6176138371,-65061.566,-86149.82,-40514.16,-23420.574,-12583.008,-28158.652,-16542.889,-20484.334
1316943.6216138322,-65061.08,-86142.54,-40512.332,-23410.889,-12575.236,-28162.232,-16547.607,-20490.643
1316943.6256138273,-65052.98,-86122.766,-40510.01,-23391.684,-12564.006,-28164.877,-16554.363,-20497.479
1316943.629613822,-65049.48,-86115.52,-40509.93,-23386.68,-12565.471,-28164.512,-16554.81,-20499.023
1316943.6336138172,-65059.086,-86132.24,-40517.133,-23403.484,-12574.423,-28163.209,-16550.781,-20496.053
1316943.637613812,-65069.62,-86150.72,-40519.777,-23417.033,-12579.875,-28162.477,-16548.34,-20491.375
1316943.641613807,-65071.535,-86147.016,-40519.492,-23408.326,-12577.067,-28163.453,-16548.787,-20488.566
1316943.645613802,-65066.125,-86130.25,-40517.58,-23389.527,-12566.813,-28164.795,-16549.764,-20487.102
1316943.649613797,-65068.24,-86127.16,-40520.1,-23388.307,-12573.364,-28165.854,-16551.393,-20486.572
1316943.653613792,-65076.867,-86141.97,-40526.164,-23404.746,-12582.724,-28165.65,-16550.984,-20488.201
1316943.6576137869,-65082.562,-86157.27,-40530.6,-23416.504,-12585.083,-28167.36,-16553.426,-20493.002
1316943.661613782,-65077.11,-86149.26,-40524.66,-23405.111,-12573.405,-28169.312,-16557.7,-20499.35
1316943.6656137768,-65065.35,-86124.555,-40517.66,-23385.133,-12562.5,-28170.086,-16560.059,-20504.965
1316943.6696137718,-65060.344,-86117.03,-40518.758,-23386.436,-12568.848,-28170.004,-16557.902,-20504.518
1316943.673613767,-65071.656,-86134.195,-40526.45,-23404.42,-12580.363,-28166.668,-16552.043,-20500.164
1316943.6776137617,-65084.516,-86153.12,-40529.664,-23417.645,-12585.856,-28165.447,-16550.457,-20500.203
1316943.6816137568,-65081.953,-86147.34,-40522.91,-23406.943,-12574.829,-28164.836,-16550.537,-20501.994
1316943.6856137516,-65074.71,-86130.29,-40520.957,-23387.777,-12566.447,-28167.156,-16554.81,-20508.424
1316943.6896137467,-65072.88,-86124.23,-40524.7,-23385.174,-12571.981,-28167.277,-16553.67,-20505.047
1316943.6936137418,-65081.383,-86136.56,-40529.703,-23401.328,-12582.805,-28164.877,-16548.219,-20498.006
1316943.6976137366,-65087.363,-86148.03,-40528.402,-23412.72,-12585.368,-28162.191,-16545.086,-20496.664
1316943.7016137317,-65088.34,-86142.91,-40525.72,-23402.588,-12579.265,-28164.877,-16550.172,-20507.691
1316943.7056137265,-65085.086,-86128.016,-40524.66,-23384.807,-12574.138,-28167.115,-16555.828,-20515.504
1316943.7096137216,-65084.477,-86123.13,-40528.523,-23385.377,-12579.387,-28168.213,-16558.105,-20521.893
1316943.7136137164,-65091.8,-86139.81,-40532.594,-23404.176,-12589.03,-28167.48,-16554.646,-20520.06
1316943.7176137115,-65103.312,-86158.25,-40536.46,-23416.627,-12590.414,-28165.283,-16549.725,-20517.049
1316943.7216137066,-65101.402,-86153.2,-40535.81,-23407.023,-12582.602,-28164.512,-16549.887,-20518.963
1316943.7256137014,-65094.28,-86132.86,-40531.09,-23388.633,-12574.829,-28166.586,-16553.02,-20522.46
1316943.7296136965,-65094.605,-86124.43,-40534.02,-23386.271,-12581.055,-28169.719,-16556.072,-20526.408
1316943.7336136913,-65101.727,-86140.26,-40538.656,-23402.67,-12591.919,-28170.127,-16555.543,-20524.658
1316943.7376136864,-65111.74,-86159.586,-40538.94,-23414.592,-12598.43,-28168.336,-16553.71,-20520.996
1316943.7416136814,-65111.29,-86155.97,-40532.918,-23404.258,-12590.983,-28167.441,-16552.287,-20520.672
1316943.7456136763,-65105.797,-86141.484,-40529.34,-23388.633,-12583.659,-28168.213,-16554.24,-20522.746
1316943.7496136713,-65107.383,-86137.01,-40533.49,-23387.004,-12585.124,-28168.01,-16555.055,-20523.396
1316943.7536136662,-65116.945,-86149.82,-40541.26,-23404.623,-12591.797,-28168.377,-16552.002,-20520.387
1316943.7576136612,-65126.875,-86166.14,-40543.863,-23416.424,-12593.588,-28165.244,-16547.607,-20515.951
1316943.761613656,-65129.355,-86163.82,-40542.035,-23406.535,-12587.036,-28167.807,-16551.473,-20520.916
1316943.7656136511,-65124.188,-86147.83,-40541.63,-23391.074,-12578.735,-28170.127,-16554.12,-20524.17
1316943.7696136462,-65122.805,-86142.21,-40544.8,-23390.545,-12581.95,-28170.248,-16552.205,-20521.932
1316943.773613641,-65129.965,-86154.42,-40548.87,-23405.438,-12588.949,-28168.58,-16546.754,-20517.375
1316943.777613636,-65136.598,-86167.56,-40550.984,-23418.906,-12596.518,-28166.953,-16541.627,-20511.719
1316943.781613631,-65133.26,-86158.734,-40545.33,-23407.512,-12588.257,-28165.732,-16539.145,-20511.475
1316943.785613626,-65124.027,-86139.164,-40536.99,-23388.266,-12581.259,-28167.4,-16540.486,-20511.516
1316943.789613621,-65122.48,-86132.04,-40538.98,-23386.027,-12585.327,-28167.318,-16538.738,-20507.08
1316943.793613616,-65128.664,-86143.234,-40543.945,-23401.123,-12593.344,-28164.023,-16533.123,-20500.203
1316943.797613611,-65139.203,-86163.336,-40547.324,-23415.203,-12598.755,-28164.43,-16534.18,-20501.344
1316943.8016136058,-65141.36,-86161.26,-40547.28,-23409.262,-12592.367,-28168.05,-16540.975,-20508.18
1316943.8056136009,-65136.234,-86141.12,-40543.99,-23387.656,-12582.113,-28169.434,-16545.492,-20514.12
1316943.8096135957,-65132.33,-86134.97,-40545.9,-23384.115,-12585.368,-28170.127,-16546.875,-20517.172
1316943.8136135908,-65138.918,-86151.0,-40551.598,-23403.688,-12594.849,-28169.068,-16547.283,-20521.566
1316943.8176135859,-65147.34,-86165.086,-40554.28,-23419.19,-12601.237,-28169.719,-16547.73,-20520.06
1316943.8216135807,-65143.07,-86155.97,-40545.9,-23406.535,-12593.059,-28169.395,-16546.469,-20516.195
1316943.8256135758,-65133.508,-86137.33,-40536.336,-23385.662,-12579.55,-28168.498,-16545.94,-20518.393
1316943.8296135706,-65131.676,-86132.33,-40537.68,-23384.97,-12583.822,-28168.092,-16546.266,-20519.451
1316943.8336135657,-65142.99,-86153.81,-40545.125,-23403.525,-12597.128,-28168.336,-16543.783,-20517.254
1316943.8376135607,-65153.363,-86167.65,-40547.49,-23415.324,-12600.627,-28168.498,-16543.295,-20514.852
1316943.8416135556,-65149.293,-86160.32,-40543.906,-23403.973,-12591.391,-28170.004,-16544.19,-20516.969
1316943.8456135506,-65143.8,-86146.81,-40539.715,-23386.557,-12583.496,-28169.963,-16544.23,-20519.328
1316943.8496135455,-65140.06,-86138.06,-40541.87,-23383.709,-12587.484,-28171.428,-16544.068,-20521.973
1316943.8536135405,-65145.633,-86150.76,-40547.65,-23398.602,-12599.65,-28168.824,-16540.324,-20518.025
1316943.8576135354,-65153.77,-86165.33,-40547.445,-23408.936,-12604.33,-28164.348,-16533.773,-20510.865
1316943.8616135304,-65152.14,-86161.13,-40545.125,-23399.455,-12597.738,-28165.691,-16533.691,-20511.922
1316943.8656135255,-65139.04,-86138.19,-40537.598,-23379.844,-12585.734,-28166.709,-16533.977,-20512.736
1316943.8696135203,-65134.562,-86129.84,-40536.582,-23374.879,-12590.78,-28168.742,-16532.39,-20509.277
1316943.8736135154,-65141.277,-86146.61,-40539.797,-23390.951,-12598.308,-28168.621,-16529.867,-20506.43
1316943.8776135102,-65149.824,-86161.664,-40542.156,-23404.705,-12601.807,-28170.41,-16531.414,-20509.318
1316943.8816135053,-65149.09,-86157.8,-40539.023,-23396.525,-12595.5,-28171.998,-16533.285,-20511.719
1316943.8856135004,-65143.598,-86142.83,-40537.027,-23379.477,-12588.339,-28173.707,-16537.312,-20517.01
1316943.8896134952,-65143.965,-86137.74,-40543.17,-23375.938,-12590.088,-28172.283,-16538.818,-20521.932
1316943.8936134903,-65151.816,-86152.02,-40548.707,-23393.19,-12598.1045,-28169.598,-16537.518,-20522.299
1316943.897613485,-65161.01,-86164.31,-40549.848,-23408.285,-12602.58,-28168.986,-16536.5,-20521.566
1316943.9016134802,-65155.723,-86153.85,-40541.707,-23394.816,-12594.279,-28168.05,-16535.482,-20519.287
1316943.905613475,-65141.195,-86130.29,-40530.438,-23373.047,-12585.409,-28167.686,-16534.871,-20519.816
1316943.90961347,-65138.594,-86123.336,-40531.82,-23371.95,-12592.204,-28170.615,-16533.691,-20518.434
1316943.9136134651,-65147.383,-86138.35,-40539.31,-23389.73,-12600.586,-28168.05,-16529.094,-20515.219
1316943.91761346,-65156.863,-86158.9,-40541.668,-23404.908,-12602.092,-28164.836,-16526.002,-20513.51
1316943.921613455,-65158.164,-86154.75,-40538.453,-23395.428,-12595.785,-28165.568,-16529.908,-20519.734
1316943.92561345,-65150.598,-86133.99,-40534.75,-23373.7,-12584.921,-28168.986,-16535.197,-20526.693
1316943.929613445,-65149.17,-86128.95,-40539.31,-23371.543,-12585.531,-28173.016,-16537.354,-20529.908
1316943.93361344,-65160.402,-86146.08,-40548.18,-23387.127,-12595.581,-28171.387,-16534.791,-20525.555
1316943.9376134349,-65170.29,-86160.445,-40550.254,-23400.39,-12598.796,-28167.969,-16531.82,-20520.916
1316943.94161343,-65167.484,-86154.26,-40545.535,-23391.318,-12589.966,-28165.568,-16531.861,-20522.34
1316943.9456134248,-65162.03,-86137.78,-40544.23,-23374.146,-12582.886,-28167.889,-16536.012,-20525.799
1316943.9496134198,-65162.965,-86135.79,-40545.94,-23374.39,-12589.763,-28170.004,-16536.58,-20526.082
1316943.953613415,-65169.56,-86149.17,-40551.15,-23389.324,-12598.308,-28170.004,-16533.488,-20524.373
1316943.9576134097,-65175.457,-86156.5,-40554.242,-23402.832,-12600.708,-28169.922,-16534.871,-20525.879
1316943.9616134048,-65176.35,-86152.59,-40549.195,-23394.98,-12596.599,-28170.86,-16539.145,-20531.047
1316943.9656133996,-65167.156,-86130.62,-40540.12,-23371.908,-12587.565,-28172.486,-16542.604,-20536.053
1316943.9696133947,-65160.688,-86120.0,-40539.188,-23365.684,-12589.763,-28172.975,-16542.236,-20539.348
1316943.9736133895,-65168.95,-86135.055,-40546.51,-23383.627,-12599.854,-28169.23,-16534.262,-20531.535
1316943.9776133846,-65179.28,-86154.83,-40550.7,-23398.113,-12605.754,-28167.441,-16530.885,-20526.49
1316943.9816133797,-65175.5,-86147.42,-40545.33,-23389.812,-12593.059,-28167.156,-16528.809,-20527.791
1316943.9856133745,-65164.715,-86125.77,-40537.07,-23370.729,-12582.642,-28166.383,-16527.508,-20528.117
1316943.9896133696,-65161.906,-86119.75,-40539.348,-23367.96,-12588.745,-28164.795,-16524.334,-20527.182
1316943.9936133644,-65172.12,-86134.52,-40546.145,-23383.139,-12598.145,-28163.615,-16521.078,-20521.973
1316943.9976133595,-65184.695,-86152.67,-40551.516,-23399.74,-12602.092,-28163.615,-16521.322,-20522.42
1316944.0016133545,-65185.59,-86149.984,-40551.92,-23392.822,-12596.558,-28166.871,-16529.012,-20529.338
1316944.0056133494,-65179.28,-86135.625,-40548.543,-23374.676,-12587.646,-28170.98,-16534.871,-20535.36
1316944.0096133444,-65177.695,-86128.22,-40550.375,-23368.979,-12590.495,-28173.38,-16534.627,-20534.22
1316944.0136133393,-65184.613,-86142.87,-40553.875,-23383.586,-12602.377,-28172.242,-16531.861,-20532.47
1316944.0176133343,-65195.395,-86160.41,-40553.55,-23399.414,-12611.654,-28169.434,-16529.379,-20529.46
1316944.0216133292,-65194.543,-86152.23,-40548.055,-23389.324,-12604.818,-28169.475,-16530.232,-20530.438
1316944.0256133243,-65187.094,-86134.69,-40543.375,-23371.055,-12595.175,-28172.527,-16533.57,-20535.97
1316944.0296133193,-65186.605,-86130.414,-40546.305,-23369.71,-12599.121,-28174.316,-16535.523,-20539.43
1316944.0336133142,-65197.918,-86146.0,-40556.52,-23388.998,-12610.148,-28173.87,-16533.611,-20540.324
1316944.0376133092,-65208.945,-86164.555,-40562.703,-23404.46,-12611.328,-28169.719,-16531.17,-20540.527
1316944.041613304,-65207.6,-86160.08,-40559.285,-23394.207,-12604.208,-28168.58,-16532.838,-20544.842
1316944.0456132991,-65198.45,-86140.42,-40553.67,-23373.496,-12594.157,-28170.248,-16535.97,-20549.969
1316944.0496132942,-65196.008,-86133.1,-40555.664,-23369.467,-12597.656,-28171.672,-16536.418,-20550.781
1316944.053613289,-65204.387,-86148.36,-40562.46,-23387.615,-12608.317,-28168.701,-16534.424,-20543.742
1316944.057613284,-65209.555,-86161.54,-40563.723,-23399.13,-12611.654,-28165.447,-16531.373,-20537.232
1316944.061613279,-65206.26,-86153.41,-40558.555,-23387.045,-12602.133,-28168.662,-16535.889,-20541.504
1316944.065613274,-65201.703,-86138.59,-40556.723,-23370.81,-12594.442,-28171.184,-16538.656,-20543.66
1316944.0696132688,-65198.45,-86132.77,-40557.332,-23368.37,-12595.581,-28169.354,-16538.086,-20542.807
1316944.073613264,-65202.11,-86143.27,-40561.605,-23385.783,-12604.574,-28166.465,-16532.635,-20538.777
1316944.077613259,-65211.957,-86158.33,-40564.414,-23400.229,-12609.009,-28163.371,-16528.973,-20539.348
1316944.0816132538,-65205.445,-86150.19,-40557.984,-23388.957,-12600.22,-28161.256,-16529.705,-20542.725
1316944.0856132489,-65191.53,-86130.58,-40548.543,-23368.45,-12590.495,-28162.07,-16530.844,-20544.678
1316944.0896132437,-65190.39,-86123.82,-40548.586,-23363.934,-12592.407,-28162.883,-16528.158,-20540.04
1316944.0936132388,-65198.652,-86137.21,-40553.02,-23381.389,-12603.76,-28160.32,-16522.828,-20536.133
1316944.0976132338,-65210.656,-86153.52,-40556.887,-23396.484,-12606.649,-28154.95,-16515.34,-20527.71
1316944.1016132287,-65209.312,-86150.39,-40552.043,-23388.062,-12597.9,-28154.094,-16515.016,-20527.02
1316944.1056132237,-65198.977,-86132.04,-40545.656,-23367.96,-12588.827,-28156.291,-16518.84,-20531.78
1316944.1096132186,-65197.473,-86123.7,-40548.707,-23362.387,-12590.82,-28156.17,-16520.71,-20535.604
1316944.1136132136,-65208.254,-86137.74,-40557.09,-23381.47,-12601.4,-28154.053,-16518.922,-20534.18
1316944.1176132085,-65220.176,-86157.07,-40559.773,-23397.625,-12606.283,-28151.979,-16517.578,-20531.941
1316944.1216132035,-65221.113,-86158.61,-40557.7,-23392.783,-12597.941,-28154.217,-16520.06,-20536.621
1316944.1256131986,-65213.664,-86142.01,-40554.402,-23373.414,-12587.321,-28157.309,-16524.984,-20545.33
1316944.1296131935,-65208.17,-86130.336,-40555.867,-23367.148,-12589.804,-28157.309,-16525.879,-20545.898
1316944.1336131885,-65216.15,-86143.555,-40561.44,-23381.633,-12601.481,-28156.902,-16523.072,-20544.557
1316944.1376131834,-65224.855,-86159.71,-40562.703,-23396.484,-12605.835,-28154.379,-16522.176,-20542.033
1316944.1416131784,-65218.426,-86150.8,-40554.16,-23392.457,-12597.25,-28154.541,-16523.805,-20544.8
1316944.1456131735,-65212.324,-86133.99,-40547.61,-23374.268,-12591.187,-28157.715,-16527.629,-20547.404
1316944.1496131683,-65212.28,-86128.79,-40550.254,-23369.793,-12592.937,-28158.855,-16528.646,-20548.504
1316944.1536131634,-65218.875,-86144.984,-40557.008,-23385.865,-12602.173,-28156.088,-16524.414,-20543.824
1316944.1576131582,-65228.312,-86160.32,-40560.75,-23400.025,-12606.242,-28154.297,-16521.322,-20539.836
1316944.1616131533,-65225.953,-86154.83,-40557.535,-23392.09,-12598.552,-28154.176,-16522.502,-20540.447
1316944.1656131481,-65219.32,-86137.414,-40553.223,-23374.838,-12588.664,-28155.967,-16524.09,-20541.951
1316944.1696131432,-65217.45,-86131.23,-40557.863,-23372.438,-12592.448,-28154.541,-16521.688,-20540.08
1316944.1736131383,-65224.773,-86148.234,-40565.676,-23391.807,-12604.94,-28149.455,-16513.672,-20535.4
1316944.177613133,-65230.754,-86161.99,-40565.188,-23406.82,-12609.457,-28145.957,-16509.115,-20532.268
1316944.1816131282,-65229.86,-86156.62,-40561.117,-23400.352,-12602.905,-28148.438,-16512.33,-20536.336
1316944.185613123,-65224.816,-86140.1,-40554.242,-23380.371,-12593.466,-28150.066,-16516.154,-20544.271
1316944.189613118,-65225.465,-86131.76,-40557.457,-23375.326,-12595.622,-28151.367,-16518.27,-20547.242
1316944.1936131131,-65236.086,-86142.13,-40564.82,-23391.236,-12601.767,-28149.62,-16515.584,-20544.068
1316944.197613108,-65247.355,-86162.27,-40567.953,-23406.414,-12604.004,-28148.764,-16513.062,-20540.242
1316944.201613103,-65242.84,-86154.75,-40561.89,-23396.24,-12599.447,-28149.822,-16515.545,-20542.725
1316944.2056130979,-65235.355,-86132.9,-40558.39,-23381.836,-12592.204,-28150.96,-16519.734,-20547.73
1316944.209613093,-65234.336,-86128.3,-40561.727,-23379.232,-12596.151,-28148.764,-16518.393,-20546.102
1316944.213613088,-65240.848,-86145.19,-40567.3,-23396.24,-12610.759,-28144.37,-16513.998,-20540.975
1316944.2176130828,-65250.938,-86162.56,-40570.477,-23412.559,-12613.647,-28140.098,-16509.93,-20538.818
1316944.221613078,-65250.816,-86154.87,-40567.668,-23402.426,-12603.598,-28138.021,-16511.475,-20540.365
1316944.2256130727,-65245.363,-86137.375,-40562.95,-23385.174,-12595.785,-28138.469,-16515.87,-20546.834
1316944.2296130678,-65245.812,-86130.82,-40563.805,-23382.0,-12600.464,-28138.266,-16517.498,-20547.04
1316944.2336130626,-65252.934,-86145.875,-40570.027,-23399.984,-12609.741,-28137.94,-16517.334,-20547.322
1316944.2376130577,-65263.836,-86168.22,-40574.91,-23417.277,-12614.421,-28137.695,-16517.172,-20546.062
1316944.2416130528,-65254.477,-86159.47,-40567.223,-23405.396,-12601.074,-28137.736,-16519.531,-20548.178
1316944.2456130476,-65241.58,-86135.13,-40560.67,-23382.854,-12588.176,-28138.389,-16519.654,-20549.113
1316944.2496130427,-65241.133,-86123.13,-40561.727,-23379.6,-12591.594,-28138.145,-16517.01,-20547.04
1316944.2536130375,-65246.867,-86132.9,-40565.96,-23396.363,-12602.783,-28137.574,-16513.143,-20543.092
1316944.2576130326,-65252.973,-86149.87,-40566.49,-23411.297,-12607.26,-28135.336,-16512.41,-20541.79
1316944.2616130277,-65256.35,-86152.875,-40563.477,-23405.844,-12602.783,-28132.732,-16511.068,-20543.621
1316944.2656130225,-65255.375,-86140.18,-40563.56,-23391.807,-12596.924,-28133.342,-16513.875,-20548.951
1316944.2696130176,-65249.88,-86129.6,-40561.89,-23386.15,-12596.762,-28131.553,-16511.475,-20545.533
1316944.2736130124,-65255.617,-86142.74,-40566.53,-23401.123,-12604.696,-28128.744,-16508.22,-20541.424
1316944.2776130075,-65266.766,-86160.0,-40571.574,-23416.22,-12609.294,-28128.541,-16508.424,-20542.033
1316944.2816130023,-65262.7,-86150.76,-40563.64,-23404.99,-12599.365,-28128.215,-16509.562,-20542.318
1316944.2856129974,-65252.484,-86127.93,-40559.977,-23383.668,-12589.355,-28128.338,-16511.11,-20542.36
1316944.2896129924,-65248.742,-86119.47,-40562.34,-23379.191,-12587.24,-28130.371,-16511.8,-20543.254
1316944.2936129873,-65254.6,-86130.25,-40568.605,-23397.178,-12597.575,-28127.727,-16504.559,-20533.57
1316944.2976129823,-65268.8,-86151.57,-40573.895,-23415.812,-12607.3,-28123.943,-16498.82,-20528.402
1316944.3016129772,-65270.55,-86150.02,-40573.49,-23409.668,-12602.011,-28126.182,-16501.22,-20530.273
1316944.3056129722,-65261.477,-86129.03,-40566.652,-23389.934,-12591.228,-28126.182,-16503.377,-20533.326
1316944.3096129673,-65258.02,-86115.97,-40564.78,-23384.97,-12593.222,-28125.285,-16502.889,-20535.32
1316944.3136129621,-65265.992,-86130.375,-40569.297,-23403.688,-12604.045,-28125.732,-16501.018,-20533.814
1316944.3176129572,-65280.4,-86151.086,-40573.73,-23419.922,-12611.288,-28125.652,-16500.896,-20536.012
1316944.321612952,-65279.83,-86147.75,-40568.402,-23409.668,-12605.185,-28124.146,-16502.482,-20537.15
1316944.325612947,-65274.254,-86130.45,-40562.99,-23391.398,-12597.86,-28125.041,-16505.168,-20539.998
1316944.329612942,-65274.17,-86121.09,-40563.438,-23386.719,-12597.25,-28125.205,-16503.703,-20537.395
1316944.333612937,-65281.008,-86131.35,-40570.926,-23404.379,-12604.98,-28125.611,-16501.424,-20534.75
1316944.337612932,-65289.105,-86146.484,-40576.99,-23422.201,-12612.102,-28125.041,-16502.035,-20533.488
1316944.341612927,-65288.535,-86141.93,-40574.586,-23416.424,-12600.342,-28125.164,-16503.174,-20534.75
1316944.345612922,-65280.03,-86122.97,-40569.5,-23396.852,-12588.623,-28125.57,-16504.598,-20537.03
1316944.3496129168,-65279.582,-86118.57,-40572.105,-23393.027,-12594.36,-28126.385,-16505.615,-20539.307
1316944.353612912,-65292.973,-86135.09,-40581.383,-23409.75,-12606.486,-28124.96,-16502.85,-20537.72
1316944.357612907,-65305.95,-86156.13,-40583.414,-23425.66,-12612.143,-28123.82,-16500.896,-20535.848
1316944.3616129018,-65308.39,-86154.75,-40578.043,-23418.418,-12608.154,-28127.117,-16505.818,-20540.812
1316944.3656128969,-65303.02,-86139.2,-40573.324,-23398.967,-12602.011,-28129.436,-16510.701,-20549.725
1316944.3696128917,-65296.55,-86124.516,-40570.438,-23391.357,-12602.011,-28129.72,-16510.621,-20550.213
1316944.3736128868,-65303.836,-86137.086,-40575.48,-23406.7,-12611.328,-28128.744,-16508.26,-20544.598
1316944.3776128816,-65315.023,-86154.99,-40579.715,-23421.63,-12613.2,-28128.703,-16506.389,-20544.068
1316944.3816128767,-65316.33,-86155.16,-40578.41,-23416.016,-12605.591,-28128.541,-16507.936,-20545.613
1316944.3856128717,-65316.246,-86145.51,-40576.785,-23400.229,-12599.528,-28129.924,-16512.004,-20551.96
1316944.3896128666,-65312.95,-86136.195,-40579.145,-23397.584,-12605.185,-28129.355,-16511.19,-20550.13
1316944.3936128616,-65316.367,-86144.45,-40584.637,-23413.168,-12616.618,-28126.059,-16504.72,-20541.748
1316944.3976128565,-65326.01,-86158.33,-40590.375,-23430.87,-12622.111,-28125.773,-16501.465,-20539.633
1316944.4016128515,-65324.016,-86151.66,-40586.63,-23423.178,-12612.061,-28127.158,-16504.03,-20541.219
1316944.4056128466,-65319.906,-86139.695,-40581.42,-23402.793,-12604.614,-28129.924,-16509.36,-20548.219
1316944.4096128414,-65321.13,-86137.86,-40580.324,-23397.055,-12609.945,-28132.895,-16512.615,-20555.055
1316944.4136128365,-65328.37,-86150.02,-40583.984,-23413.371,-12618.612,-28132.324,-16510.457,-20552.613
1316944.4176128313,-65335.37,-86163.78,-40584.27,-23429.404,-12621.379,-28130.494,-16508.26,-20548.26
1316944.4216128264,-65334.84,-86159.06,-40580.61,-23421.387,-12614.218,-28131.227,-16508.79,-20549.887
1316944.4256128212,-65328.332,-86136.4,-40574.42,-23402.467,-12607.585,-28133.18,-16510.662,-20554.281
1316944.4296128163,-65326.418,-86127.61,-40577.066,-23395.672,-12611.572,-28135.418,-16511.312,-20554.363
1316944.4336128114,-65334.27,-86138.43,-40584.473,-23411.053,-12618.896,-28133.424,-16508.3,-20551.637
1316944.4376128062,-65345.297,-86156.45,-40589.03,-23429.037,-12620.605,-28130.494,-16506.43,-20549.031
1316944.4416128013,-65347.984,-86159.63,-40589.887,-23424.766,-12615.601,-28133.18,-16511.719,-20552.654
1316944.4456127961,-65341.758,-86148.766,-40586.1,-23404.502,-12608.684,-28138.916,-16517.62,-20556.275
1316944.4496127912,-65340.617,-86141.69,-40587.402,-23397.91,-12607.788,-28140.545,-16514.73,-20550.172
1316944.4536127863,-65346.03,-86153.52,-40592.0,-23409.994,-12616.455,-28138.592,-16512.371,-20541.748
1316944.457612781,-65353.844,-86168.46,-40593.344,-23422.934,-12621.42,-28137.371,-16510.662,-20538.818
1316944.4616127762,-65352.543,-86159.47,-40587.04,-23417.889,-12612.468,-28138.307,-16510.174,-20541.992
1316944.465612771,-65344.89,-86139.08,-40581.3,-23401.328,-12601.889,-28138.672,-16509.725,-20544.475
1316944.469612766,-65342.164,-86127.85,-40584.27,-23396.893,-12603.027,-28137.86,-16506.877,-20545.818
1316944.473612761,-65350.02,-86141.195,-40589.152,-23413.047,-12611.084,-28132.773,-16498.455,-20536.662
1316944.477612756,-65358.93,-86160.89,-40592.246,-23430.137,-12617.065,-28131.674,-16496.42,-20534.994
1316944.481612751,-65359.418,-86158.41,-40589.234,-23426.393,-12608.969,-28135.133,-16500.326,-20541.545
1316944.4856127459,-65354.086,-86143.234,-40585.367,-23408.0,-12599.365,-28137.412,-16503.377,-20547.04
1316944.489612741,-65351.08,-86135.016,-40586.508,-23402.793,-12598.715,-28136.312,-16501.994,-20546.51
1316944.4936127358,-65358.645,-86147.83,-40591.473,-23418.377,-12612.061,-28135.824,-16498.78,-20540.406
1316944.4976127308,-65369.71,-86165.734,-40594.77,-23434.205,-12620.6875,-28136.475,-16496.42,-20538.127
1316944.501612726,-65370.12,-86163.54,-40591.31,-23424.602,-12611.41,-28137.451,-16496.623,-20537.883
1316944.5056127207,-65363.242,-86145.914,-40587.65,-23405.844,-12602.458,-28140.666,-16499.635,-20541.748
1316944.5096127158,-65353.965,-86131.43,-40585.45,-23396.607,-12601.359,-28138.55,-16496.826,-20538.29
1316944.5136127106,-65363.242,-86143.31,-40593.914,-23414.512,-12613.363,-28136.68,-16493.205,-20535.97
1316944.5176127057,-65375.613,-86163.695,-40600.63,-23431.885,-12621.135,-28132.977,-16490.113,-20533.855
1316944.5216127008,-65376.47,-86161.055,-40598.105,-23427.246,-12615.438,-28133.506,-16491.62,-20537.68
1316944.5256126956,-65368.043,-86140.83,-40592.734,-23406.129,-12606.853,-28135.05,-16497.111,-20545.695
1316944.5296126907,-65363.12,-86130.25,-40591.758,-23399.008,-12608.48,-28135.01,-16498.576,-20546.59
1316944.5336126855,-65373.414,-86146.41,-40599.977,-23419.23,-12620.932,-28135.01,-16497.682,-20545.004
1316944.5376126806,-65382.734,-86166.18,-40603.19,-23436.85,-12630.453,-28136.76,-16499.309,-20545.94
1316944.5416126754,-65380.617,-86162.84,-40595.95,-23428.834,-12621.135,-28138.592,-16501.262,-20548.584
1316944.5456126705,-65370.812,-86140.47,-40587.688,-23406.494,-12609.213,-28141.154,-16504.191,-20549.357
1316944.5496126655,-65367.066,-86128.18,-40590.008,-23397.217,-12611.816,-28143.352,-16505.371,-20549.48
1316944.5536126604,-65375.816,-86144.33,-40599.0,-23415.406,-12622.722,-28141.643,-16500.082,-20543.742
1316944.5576126555,-65385.99,-86162.11,-40604.535,-23435.344,-12630.575,-28137.492,-16496.135,-20539.389
1316944.5616126503,-65386.883,-86158.37,-40602.582,-23428.508,-12624.35,-28139.648,-16499.797,-20544.719
1316944.5656126454,-65379.19,-86138.266,-40596.477,-23406.047,-12610.8,-28140.098,-16503.582,-20549.805
1316944.5696126404,-65379.805,-86130.54,-40598.473,-23403.85,-12612.183,-28142.416,-16506.633,-20553.996
1316944.5736126353,-65393.15,-86147.75,-40607.137,-23423.748,-12626.587,-28143.637,-16506.633,-20552.002
1316944.5776126303,-65406.617,-86166.99,-40612.55,-23442.547,-12636.638,-28141.969,-16503.785,-20548.787
1316944.5816126252,-65407.39,-86165.24,-40608.805,-23435.914,-12628.093,-28141.277,-16502.523,-20550.457
1316944.5856126202,-65401.777,-86148.07,-40603.92,-23416.057,-12619.914,-28141.969,-16501.629,-20548.26
1316944.589612615,-65400.066,-86140.42,-40603.477,-23409.385,-12621.094,-28143.719,-16502.564,-20548.34
1316944.5936126101,-65406.17,-86154.26,-40607.18,-23422.201,-12627.035,-28145.549,-16502.441,-20545.818
1316944.5976126052,-65417.402,-86170.33,-40612.508,-23438.762,-12630.778,-28146.322,-16500.326,-20542.074
1316944.6016126,-65418.215,-86167.12,-40609.78,-23433.799,-12623.129,-28146.81,-16500.123,-20543.701
1316944.605612595,-65413.008,-86151.25,-40606.812,-23418.133,-12615.845,-28148.764,-16501.588,-20544.393
1316944.60961259,-65409.223,-86140.055,-40607.79,-23411.377,-12615.886,-28147.543,-16497.111,-20540.447
1316944.613612585,-65418.418,-86152.75,-40614.625,-23428.223,-12626.384,-28143.393,-16491.21,-20537.436
1316944.61761258,-65432.09,-86171.92,-40620.035,-23443.686,-12630.087,-28139.73,-16489.217,-20536.092
1316944.621612575,-65435.55,-86172.33,-40618.246,-23439.82,-12621.582,-28141.846,-16494.549,-20538.615
1316944.62561257,-65429.242,-86154.46,-40612.67,-23419.598,-12611.166,-28143.352,-16498.17,-20543.092
1316944.6296125648,-65426.395,-86145.1,-40612.836,-23411.947,-12613.688,-28143.76,-16500.326,-20548.992
1316944.6336125599,-65438.52,-86159.55,-40620.566,-23428.996,-12627.319,-28145.06,-16501.912,-20548.87
1316944.6376125547,-65449.504,-86175.5,-40622.684,-23443.645,-12634.5625,-28146.037,-16503.744,-20546.307
1316944.6416125498,-65446.008,-86173.26,-40615.684,-23433.31,-12625.285,-28147.746,-16506.43,-20549.887
1316944.6456125448,-65438.52,-86154.016,-40611.613,-23413.453,-12612.956,-28150.879,-16509.277,-20555.502
1316944.6496125397,-65436.605,-86141.195,-40611.94,-23405.03,-12615.642,-28149.21,-16506.186,-20553.426
1316944.6536125347,-65447.633,-86155.27,-40619.63,-23423.38,-12627.727,-28147.87,-16503.662,-20548.178
1316944.6576125296,-65461.47,-86178.14,-40624.84,-23443.28,-12635.539,-28145.916,-16502.035,-20547.648
1316944.6616125247,-65460.492,-86175.83,-40619.547,-23436.24,-12628.012,-28145.387,-16501.262,-20551.637
1316944.6656125197,-65449.87,-86153.52,-40614.055,-23415.0,-12616.781,-28147.625,-16504.72,-20554.363
1316944.6696125146,-65446.332,-86139.9,-40612.348,-23405.926,-12614.909,-28147.625,-16504.191,-20555.258
1316944.6736125096,-65453.207,-86152.63,-40615.887,-23422.73,-12625.814,-28146.525,-16499.105,-20549.602
1316944.6776125045,-65460.492,-86169.31,-40616.742,-23438.193,-12631.104,-28145.793,-16497.193,-20543.986
1316944.6816124995,-65461.754,-86169.07,-40613.445,-23428.916,-12624.431,-28148.805,-16502.686,-20548.26
1316944.6856124944,-65459.395,-86150.11,-40608.277,-23409.506,-12614.055,-28152.549,-16510.254,-20556.234
1316944.6896124894,-65456.953,-86139.41,-40608.93,-23403.158,-12616.008,-28154.46,-16512.29,-20558.229
1316944.6936124845,-65465.824,-86152.63,-40615.848,-23420.451,-12629.517,-28153.32,-16510.662,-20555.258
1316944.6976124793,-65478.395,-86173.34,-40621.258,-23439.209,-12640.991,-28151.205,-16507.121,-20553.387
1316944.7016124744,-65479.086,-86171.1,-40616.984,-23433.27,-12632.731,-28151.002,-16507.365,-20553.467
1316944.7056124692,-65471.355,-86150.8,-40610.84,-23413.086,-12621.623,-28151.611,-16508.342,-20554.158
1316944.7096124643,-65465.742,-86137.33,-40609.17,-23404.379,-12616.659,-28151.164,-16505.697,-20551.229
1316944.7136124594,-65473.023,-86149.13,-40612.67,-23421.387,-12625.977,-28148.887,-16499.676,-20545.818
1316944.7176124542,-65482.914,-86164.96,-40614.992,-23438.273,-12630.371,-28146.24,-16495.605,-20539.715
1316944.7216124493,-65479.984,-86157.555,-40608.24,-23428.184,-12621.745,-28146.201,-16494.832,-20538.9
1316944.725612444,-65472.863,-86137.9,-40601.848,-23407.838,-12612.712,-28148.602,-16497.152,-20543.092
1316944.7296124392,-65471.805,-86127.77,-40601.277,-23398.398,-12615.397,-28146.404,-16494.264,-20539.43
1316944.733612434,-65482.344,-86141.234,-40607.504,-23415.527,-12626.099,-28145.957,-16491.17,-20534.912
1316944.737612429,-65494.266,-86156.62,-40610.758,-23431.438,-12630.615,-28145.225,-16490.926,-20535.36
1316944.7416124241,-65493.125,-86153.445,-40604.332,-23422.201,-12620.6875,-28143.434,-16489.096,-20534.018
1316944.745612419,-65487.836,-86134.81,-40597.94,-23402.588,-12607.87,-28142.334,-16488.24,-20535.32
1316944.749612414,-65487.1,-86120.24,-40597.21,-23392.172,-12603.516,-28139.404,-16484.54,-20533.488
1316944.7536124089,-65495.16,-86128.336,-40599.203,-23405.03,-12610.352,-28134.033,-16477.703,-20525.799
1316944.757612404,-65510.906,-86147.87,-40604.004,-23421.307,-12614.421,-28130.047,-16472.006,-20518.84
1316944.761612399,-65516.32,-86147.22,-40600.3,-23415.406,-12606.771,-28130.006,-16474.65,-20523.52
1316944.7656123939,-65511.273,-86128.42,-40594.973,-23396.201,-12596.191,-28131.47,-16481.771,-20529.46
1316944.769612389,-65513.633,-86118.33,-40597.574,-23391.154,-12599.04,-28131.592,-16485.027,-20534.139
1316944.7736123838,-65529.3,-86131.836,-40604.086,-23408.977,-12610.352,-28129.924,-16483.236,-20530.682
1316944.7776123788,-65544.805,-86149.664,-40608.316,-23425.09,-12617.229,-28128.338,-16482.748,-20527.385
1316944.781612374,-65550.375,-86145.51,-40604.535,-23414.756,-12607.829,-28126.588,-16482.91,-20527.914
1316944.7856123687,-65546.96,-86126.14,-40596.883,-23391.846,-12597.128,-28125.855,-16484.05,-20530.396
1316944.7896123638,-65545.9,-86112.914,-40594.77,-23386.271,-12596.069,-28120.402,-16481.445,-20528.85
1316944.7936123586,-65558.76,-86124.555,-40602.297,-23401.367,-12606.567,-28115.072,-16476.074,-20525.635
1316944.7976123537,-65573.37,-86140.305,-40606.977,-23417.115,-12610.148,-28109.213,-16471.232,-20522.46
1316944.8016123485,-65574.71,-86135.7,-40601.035,-23411.785,-12600.993,-28105.062,-16471.314,-20520.672
1316944.8056123436,-65571.9,-86117.516,-40596.355,-23393.19,-12594.564,-28106.486,-16476.238,-20528.117
1316944.8096123387,-65573.695,-86107.47,-40596.926,-23383.506,-12594.36,-28106.69,-16478.23,-20533.123
1316944.8136123335,-65586.75,-86121.26,-40602.785,-23399.781,-12603.72,-28102.092,-16474.773,-20530.314
1316944.8176123286,-65600.625,-86141.97,-40605.797,-23418.621,-12609.497,-28099.406,-16474.08,-20529.5
1316944.8216123234,-65605.1,-86140.38,-40601.156,-23411.662,-12600.058,-28099.244,-16474.977,-20532.186
1316944.8256123185,-65600.75,-86120.65,-40593.59,-23389.975,-12590.007,-28099.53,-16477.215,-20534.22
1316944.8296123135,-65595.336,-86106.125,-40590.25,-23383.83,-12588.664,-28098.715,-16472.535,-20529.012
1316944.8336123084,-65605.51,-86120.04,-40596.56,-23402.14,-12597.9,-28095.785,-16464.438,-20519.166
1316944.8376123034,-65620.93,-86141.93,-40603.027,-23420.98,-12604.126,-28093.832,-16460.816,-20515.828
1316944.8416122983,-65624.02,-86140.75,-40598.51,-23416.26,-12597.656,-28093.832,-16462.361,-20520.06
1316944.8456122933,-65621.99,-86123.21,-40593.668,-23398.52,-12587.81,-28097.25,-16467.408,-20529.012
1316944.8496122882,-65624.31,-86115.195,-40597.984,-23392.945,-12589.885,-28099.773,-16469.076,-20531.25
1316944.8536122832,-65634.89,-86124.555,-40606.57,-23409.668,-12603.638,-28097.697,-16464.031,-20525.514
1316944.8576122783,-65650.68,-86144.66,-40615.074,-23430.055,-12610.962,-28096.64,-16461.182,-20523.479
1316944.8616122731,-65655.805,-86145.06,-40613.12,-23424.684,-12602.417,-28096.885,-16462.037,-20526.326
1316944.8656122682,-65650.48,-86126.8,-40607.79,-23406.78,-12593.262,-28096.6,-16464.193,-20528.117
1316944.869612263,-65649.375,-86117.64,-40613.16,-23403.158,-12596.313,-28097.412,-16465.902,-20529.46
1316944.8736122581,-65660.12,-86129.31,-40621.01,-23420.086,-12606.242,-28096.436,-16464.764,-20527.426
1316944.8776122532,-65671.266,-86145.06,-40623.453,-23436.646,-12609.904,-28094.28,-16459.31,-20520.672
1316944.881612248,-65670.86,-86138.836,-40616.13,-23431.193,-12601.278,-28092.285,-16457.031,-20515.748
1316944.885612243,-65664.23,-86119.51,-40612.184,-23413.656,-12591.513,-28094.035,-16460.084,-20518.678
1316944.889612238,-65657.02,-86102.016,-40609.703,-23407.715,-12590.129,-28092.979,-16456.91,-20515.666
1316944.893612233,-65664.72,-86113.85,-40614.176,-23423.219,-12599.121,-28090.088,-16449.586,-20507.977
1316944.8976122278,-65683.72,-86140.875,-40619.793,-23445.557,-12610.107,-28089.355,-16447.021,-20505.453
1316944.901612223,-65690.92,-86142.91,-40620.28,-23442.1,-12602.214,-28090.293,-16451.58,-20509.686
1316944.905612218,-65685.18,-86126.23,-40617.312,-23423.422,-12594.238,-28091.676,-16454.754,-20515.096
1316944.9096122128,-65680.34,-86113.81,-40617.312,-23415.61,-12595.825,-28093.629,-16454.225,-20515.178
1316944.9136122079,-65687.99,-86123.82,-40624.023,-23430.46,-12605.469,-28092.123,-16448.527,-20506.959
1316944.9176122027,-65695.72,-86140.99,-40625.938,-23446.9,-12610.596,-28090.21,-16446.004,-20502.809
1316944.9216121978,-65697.39,-86139.77,-40621.22,-23442.832,-12603.231,-28090.537,-16449.422,-20508.668
1316944.9256121928,-65690.8,-86120.52,-40615.277,-23421.998,-12592.245,-28090.088,-16451.092,-20512.33
1316944.9296121877,-65686.04,-86107.67,-40614.46,-23414.389,-12592.001,-28090.008,-16451.58,-20512.736
1316944.9336121827,-65695.68,-86122.766,-40620.363,-23430.99,-12604.208,-28088.908,-16448.895,-20510.621
1316944.9376121776,-65709.84,-86144.734,-40626.793,-23451.986,-12611.532,-28088.34,-16447.633,-20511.19
1316944.9416121726,-65710.125,-86144.25,-40623.58,-23448.486,-12605.103,-28085.775,-16447.186,-20509.807
1316944.9456121675,-65705.77,-86126.95,-40621.094,-23431.56,-12598.022,-28086.59,-16449.016,-20510.092
1316944.9496121625,-65706.34,-86118.86,-40625.0,-23428.184,-12600.058,-28087.12,-16451.824,-20514.16
1316944.9536121576,-65715.45,-86132.125,-40631.105,-23445.598,-12607.992,-28085.938,-16449.098,-20511.068
1316944.9576121524,-65727.5,-86150.8,-40633.79,-23462.24,-12614.177,-28085.043,-16447.795,-20508.586
1316944.9616121475,-65732.71,-86152.1,-40630.37,-23456.26,-12608.195,-28084.758,-16449.586,-20513.592
1316944.9656121423,-65725.67,-86127.61,-40624.15,-23436.035,-12598.511,-28086.63,-16451.701,-20517.945
1316944.9696121374,-65721.03,-86111.66,-40622.926,-23426.719,-12598.1045,-28084.434,-16449.26,-20515.34
1316944.9736121325,-65730.67,-86125.77,-40629.438,-23443.482,-12609.497,-28081.219,-16443.523,-20509.686
1316944.9776121273,-65741.01,-86144.05,-40634.074,-23466.27,-12614.624,-28080.404,-16440.47,-20506.023
1316944.9816121224,-65744.14,-86141.28,-40629.438,-23464.438,-12607.138,-28080.566,-16439.332,-20505.453
1316944.9856121172,-65743.086,-86129.07,-40624.637,-23448.283,-12599.121,-28081.625,-16440.877,-20509.807
1316944.9896121123,-65739.99,-86117.11,-40624.96,-23440.43,-12597.738,-28082.602,-16442.303,-20512.166
1316944.9936121071,-65744.59,-86125.2,-40629.883,-23453.94,-12605.673,-28080.201,-16438.396,-20504.518
1316944.9976121022,-65757.0,-86144.94,-40634.93,-23473.35,-12612.712,-28078.125,-16435.71,-20503.338
1316945.0016120973,-65760.54,-86141.445,-40630.414,-23467.979,-12605.835,-28078.045,-16438.152,-20508.912
1316945.005612092,-65753.945,-86121.79,-40624.43,-23449.057,-12598.877,-28079.875,-16444.459,-20513.672
1316945.0096120872,-65750.61,-86109.7,-40624.918,-23444.824,-12599.772,-28079.63,-16442.912,-20511.922
1316945.013612082,-65758.14,-86124.68,-40630.984,-23462.932,-12609.904,-28075.807,-16435.059,-20503.703
1316945.017612077,-65770.02,-86141.4,-40635.215,-23480.918,-12616.496,-28073.203,-16430.42,-20496.746
1316945.0216120721,-65772.34,-86138.92,-40629.56,-23474.732,-12610.637,-28074.992,-16432.537,-20497.803
1316945.025612067,-65762.9,-86117.92,-40622.316,-23452.516,-12601.115,-28075.889,-16433.594,-20497.273
1316945.029612062,-65757.53,-86102.17,-40623.7,-23444.58,-12598.1045,-28074.83,-16433.229,-20496.217
1316945.0336120569,-65769.37,-86115.08,-40634.24,-23465.455,-12609.335,-28073.771,-16430.135,-20495.688
1316945.037612052,-65779.7,-86137.45,-40639.65,-23485.76,-12616.659,-28072.795,-16428.875,-20491.537
1316945.041612047,-65780.52,-86137.945,-40634.402,-23482.91,-12606.608,-28075.645,-16431.111,-20491.62
1316945.0456120418,-65772.75,-86117.76,-40628.785,-23462.24,-12594.687,-28079.062,-16435.629,-20497.64
1316945.049612037,-65769.125,-86106.81,-40631.062,-23455.648,-12594.238,-28080.69,-16436.809,-20498.78
1316945.0536120317,-65777.34,-86118.94,-40638.184,-23473.756,-12609.213,-28077.23,-16431.64,-20494.1
1316945.0576120268,-65787.92,-86137.05,-40643.434,-23495.402,-12616.496,-28076.172,-16427.898,-20491.21
1316945.0616120216,-65790.53,-86135.91,-40642.215,-23492.555,-12611.572,-28080.363,-16432.088,-20496.908
1316945.0656120167,-65786.17,-86120.445,-40639.16,-23474.0,-12602.661,-28083.375,-16437.541,-20503.703
1316945.0696120118,-65784.586,-86112.1,-40639.12,-23466.432,-12603.923,-28083.334,-16438.273,-20507.65
1316945.0736120066,-65791.47,-86122.93,-40644.086,-23483.643,-12615.967,-28081.543,-16435.67,-20503.338
1316945.0776120017,-65799.4,-86142.21,-40648.277,-23504.07,-12621.908,-28082.031,-16436.035,-20500.244
1316945.0816119965,-65800.13,-86141.805,-40643.473,-23499.39,-12615.397,-28084.19,-16438.559,-20502.93
1316945.0856119916,-65788.01,-86117.44,-40636.68,-23478.436,-12603.19,-28087.443,-16440.877,-20508.098
1316945.0896119867,-65782.836,-86104.9,-40639.69,-23470.541,-12603.027,-28088.299,-16440.594,-20509.197
1316945.0936119815,-65796.67,-86120.61,-40648.52,-23487.834,-12615.275,-28085.775,-16436.605,-20507.0
1316945.0976119766,-65810.914,-86140.016,-40653.566,-23506.512,-12620.28,-28083.252,-16432.943,-20501.873
1316945.1016119714,-65812.13,-86138.59,-40649.17,-23504.273,-12612.468,-28083.781,-16433.473,-20501.262
1316945.1056119665,-65804.08,-86118.984,-40644.98,-23486.898,-12602.336,-28087.322,-16438.924,-20507.854
1316945.1096119613,-65800.62,-86105.43,-40645.793,-23475.912,-12598.715,-28088.135,-16439.453,-20510.621
1316945.1136119564,-65811.93,-86122.4,-40655.07,-23496.176,-12612.102,-28089.275,-16440.389,-20511.23
1316945.1176119514,-65823.445,-86142.17,-40660.77,-23515.83,-12619.873,-28089.805,-16440.309,-20510.213
1316945.1216119463,-65821.984,-86140.18,-40655.152,-23508.912,-12611.9795,-28090.414,-16441.732,-20512.248
1316945.1256119413,-65813.6,-86121.26,-40649.332,-23488.404,-12600.708,-28092.896,-16444.621,-20517.62
1316945.1296119362,-65806.93,-86106.0,-40648.97,-23478.068,-12599.936,-28092.734,-16444.377,-20517.578
1316945.1336119312,-65817.51,-86119.96,-40655.6,-23495.932,-12611.938,-28093.182,-16441.773,-20513.184
1316945.1376119263,-65832.07,-86144.94,-40662.273,-23516.684,-12618.856,-28092.082,-16437.5,-20505.209
1316945.1416119211,-65830.445,-86144.695,-40657.188,-23508.139,-12609.457,-28092.855,-16436.564,-20503.662
1316945.1456119162,-65821.21,-86125.53,-40651.98,-23488.12,-12600.058,-28094.117,-16440.186,-20509.807
1316945.149611911,-65813.36,-86108.97,-40652.344,-23479.656,-12600.993,-28095.215,-16442.18,-20512.736
1316945.153611906,-65820.4,-86120.57,-40658.285,-23495.973,-12611.694,-28094.076,-16442.18,-20513.875
1316945.157611901,-65830.2,-86142.664,-40662.598,-23517.416,-12619.873,-28094.523,-16442.424,-20512.94
1316945.161611896,-65827.15,-86139.164,-40658.12,-23512.777,-12609.823,-28095.744,-16443.562,-20517.822
1316945.165611891,-65821.9,-86120.164,-40654.543,-23491.943,-12599.447,-28097.656,-16446.045,-20524.496
1316945.169611886,-65819.46,-86106.695,-40656.09,-23483.154,-12600.83,-28097.494,-16445.312,-20525.39
1316945.173611881,-65827.96,-86120.65,-40662.965,-23501.914,-12613.7295,-28096.232,-16441.285,-20520.06
1316945.1776118758,-65838.26,-86140.83,-40668.215,-23520.63,-12622.681,-28095.703,-16439.047,-20519.775
1316945.1816118709,-65840.945,-86142.01,-40664.55,-23515.625,-12619.833,-28097.535,-16440.674,-20520.793
1316945.185611866,-65836.14,-86129.516,-40660.93,-23496.582,-12611.532,-28100.098,-16445.477,-20523.602
1316945.1896118608,-65832.234,-86120.08,-40662.64,-23487.793,-12611.898,-28102.092,-16447.633,-20521.688
1316945.1936118559,-65835.25,-86130.984,-40668.375,-23504.395,-12618.612,-28099.691,-16441.61,-20512.98
1316945.1976118507,-65843.95,-86146.24,-40671.918,-23524.09,-12625.0,-28098.023,-16435.629,-20505.412
1316945.2016118458,-65842.77,-86140.016,-40669.516,-23518.719,-12617.554,-28099.936,-16436.32,-20505.33
1316945.2056118406,-65828.29,-86116.54,-40663.617,-23496.746,-12606.486,-28103.8,-16439.332,-20508.668
1316945.2096118357,-65824.47,-86104.62,-40662.64,-23489.096,-12604.858,-28104.9,-16442.018,-20510.418
1316945.2136118307,-65833.78,-86116.26,-40669.637,-23505.738,-12613.078,-28103.15,-16439.576,-20509.033
1316945.2176118256,-65845.99,-86137.125,-40674.316,-23526.572,-12622.478,-28102.459,-16438.965,-20508.79
1316945.2216118206,-65847.336,-86137.33,-40672.04,-23522.34,-12615.52,-28102.906,-16441.0,-20514.486
1316945.2256118155,-65839.32,-86120.57,-40666.383,-23502.158,-12604.045,-28104.168,-16444.54,-20521.566
1316945.2296118105,-65837.37,-86111.45,-40667.766,-23494.955,-12606.689,-28107.057,-16447.877,-20525.229
1316945.2336118056,-65844.81,-86122.805,-40675.133,-23511.8,-12618.774,-28107.586,-16444.54,-20519.816
1316945.2376118004,-65852.26,-86140.95,-40679.445,-23528.158,-12625.814,-28104.086,-16437.256,-20511.354
1316945.2416117955,-65854.86,-86143.234,-40678.348,-23525.514,-12622.152,-28105.021,-16437.988,-20512.98
1316945.2456117903,-65849.77,-86126.95,-40674.156,-23507.812,-12609.904,-28106.812,-16442.912,-20516.48
1316945.2496117854,-65841.39,-86113.445,-40671.633,-23499.879,-12607.504,-28105.469,-16441.854,-20515.584
1316945.2536117802,-65844.2,-86124.31,-40676.96,-23517.213,-12617.595,-28105.754,-16438.477,-20512.533
1316945.2576117753,-65856.9,-86142.984,-40681.805,-23536.418,-12624.797,-28106.365,-16436.28,-20510.783
1316945.2616117704,-65861.086,-86145.63,-40678.305,-23533.652,-12621.826,-28108.562,-16439.656,-20515.504
1316945.2656117652,-65858.44,-86130.01,-40674.074,-23514.16,-12610.881,-28111.084,-16443.197,-20518.23
1316945.2696117603,-65858.52,-86118.125,-40678.062,-23505.9,-12610.026,-28111.857,-16442.424,-20515.26
1316945.273611755,-65869.18,-86132.164,-40689.25,-23522.99,-12623.983,-28109.701,-16436.97,-20508.871
1316945.2776117502,-65883.47,-86153.89,-40695.027,-23541.83,-12630.331,-28108.236,-16434.408,-20508.953
1316945.2816117452,-65880.945,-86153.32,-40690.31,-23537.03,-12623.698,-28110.19,-16439.9,-20518.678
1316945.28561174,-65869.914,-86133.06,-40684.043,-23518.434,-12614.828,-28113.445,-16444.174,-20521.688
1316945.2896117351,-65862.8,-86119.14,-40682.17,-23508.424,-12611.166,-28115.195,-16445.598,-20524.373
1316945.29361173,-65866.336,-86125.25,-40688.152,-23526.49,-12620.769,-28113.77,-16441.895,-20518.922
1316945.297611725,-65878.18,-86145.555,-40691.895,-23548.666,-12631.186,-28113.525,-16439.453,-20515.3
1316945.3016117201,-65882.086,-86150.19,-40688.64,-23546.592,-12626.994,-28115.479,-16441.326,-20517.13
1316945.305611715,-65872.68,-86129.195,-40683.434,-23526.531,-12617.88,-28117.432,-16444.988,-20519.002
1316945.30961171,-65864.016,-86113.41,-40682.496,-23514.242,-12617.31,-28116.66,-16444.174,-20516.969
1316945.3136117049,-65876.47,-86130.45,-40691.895,-23531.902,-12628.54,-28115.072,-16440.633,-20512.898
1316945.3176117,-65891.28,-86153.73,-40696.656,-23546.916,-12636.923,-28111.045,-16437.826,-20510.986
1316945.3216116948,-65893.11,-86154.586,-40695.56,-23542.033,-12632.202,-28110.434,-16437.947,-20512.695
1316945.3256116898,-65888.63,-86138.305,-40693.766,-23524.496,-12624.431,-28111.41,-16440.268,-20517.62
1316945.329611685,-65884.85,-86127.77,-40694.54,-23517.13,-12625.0,-28112.346,-16441.121,-20521.932
1316945.3336116797,-65891.36,-86142.7,-40701.742,-23536.459,-12637.126,-28112.834,-16437.826,-20523.805
1316945.3376116748,-65901.86,-86165.445,-40705.69,-23558.188,-12644.897,-28111.328,-16433.39,-20522.502
1316945.3416116696,-65903.484,-86166.99,-40703.37,-23555.258,-12640.259,-28109.66,-16433.146,-20522.705
1316945.3456116647,-65894.01,-86146.85,-40698.445,-23536.582,-12630.534,-28109.254,-16436.89,-20525.717
1316945.3496116598,-65888.43,-86133.67,-40698.49,-23527.426,-12627.238,-28109.58,-16438.111,-20525.717
1316945.3536116546,-65897.586,-86143.805,-40705.65,-23543.295,-12636.516,-28107.586,-16434.855,-20521.16
1316945.3576116497,-65910.484,-86162.68,-40709.88,-23562.705,-12648.356,-28107.383,-16431.926,-20516.072
1316945.3616116445,-65915.08,-86166.875,-40708.496,-23559.814,-12644.409,-28109.986,-16436.443,-20519.166
1316945.3656116396,-65906.01,-86151.82,-40703.168,-23540.812,-12631.714,-28113.566,-16442.791,-20525.879
1316945.3696116344,-65897.586,-86133.586,-40699.707,-23528.361,-12626.628,-28114.258,-16443.97,-20525.96
1316945.3736116295,-65902.836,-86141.85,-40703.9,-23542.969,-12634.644,-28112.875,-16441.121,-20523.357
1316945.3776116245,-65917.97,-86164.88,-40709.15,-23563.64,-12647.339,-28111.328,-16438.477,-20522.176
1316945.3816116194,-65920.734,-86164.59,-40705.973,-23557.943,-12641.032,-28110.8,-16438.559,-20523.113
1316945.3856116144,-65909.55,-86142.46,-40699.547,-23537.803,-12628.052,-28109.783,-16437.297,-20522.137
1316945.3896116093,-65902.75,-86130.74,-40701.5,-23532.064,-12628.378,-28108.766,-16434.896,-20518.025
1316945.3936116043,-65908.81,-86142.42,-40707.48,-23550.375,-12639.201,-28107.383,-16430.908,-20513.55
1316945.3976115994,-65922.85,-86165.33,-40712.16,-23570.518,-12648.56,-28105.104,-16427.166,-20507.162
1316945.4016115943,-65923.83,-86163.695,-40707.074,-23564.82,-12637.899,-28105.145,-16428.467,-20508.586
1316945.4056115893,-65914.67,-86144.05,-40701.375,-23545.533,-12626.303,-28110.107,-16434.53,-20515.096
1316945.4096115842,-65909.67,-86133.47,-40701.99,-23536.174,-12627.035,-28113.852,-16437.867,-20517.375
1316945.4136115792,-65913.695,-86142.21,-40708.984,-23549.56,-12637.167,-28111.94,-16432.943,-20512.004
1316945.417611574,-65924.36,-86161.5,-40712.32,-23569.418,-12645.142,-28108.36,-16426.229,-20503.133
1316945.4216115691,-65926.44,-86159.55,-40707.277,-23568.156,-12637.37,-28106.65,-16424.846,-20503.297
1316945.4256115642,-65918.3,-86142.17,-40700.32,-23549.928,-12627.157,-28107.098,-16426.88,-20507.447
1316945.429611559,-65915.53,-86134.69,-40704.02,-23543.906,-12628.052,-28109.54,-16429.688,-20513.916
1316945.433611554,-65918.83,-86145.305,-40709.637,-23556.805,-12634.848,-28107.871,-16427.166,-20509.807
1316945.437611549,-65929.73,-86164.23,-40717.0,-23575.807,-12641.724,-28106.69,-16423.543,-20504.72
1316945.441611544,-65932.7,-86165.61,-40718.547,-23574.545,-12636.394,-28109.498,-16425.74,-20509.766
1316945.445611539,-65922.81,-86141.89,-40712.402,-23553.102,-12627.035,-28111.654,-16430.258,-20516.684
1316945.449611534,-65917.85,-86127.69,-40711.266,-23543.783,-12625.488,-28112.672,-16432.781,-20516.398
1316945.453611529,-65925.74,-86140.34,-40717.246,-23559.652,-12635.58,-28111.816,-16431.52,-20514.893
1316945.4576115238,-65936.52,-86161.87,-40718.06,-23578.166,-12641.887,-28108.398,-16428.793,-20511.23
1316945.4616115189,-65936.24,-86162.6,-40710.734,-23574.668,-12635.254,-28109.375,-16430.34,-20511.19
1316945.4656115137,-65929.52,-86140.586,-40703.168,-23554.281,-12624.878,-28112.549,-16434.123,-20513.875
1316945.4696115088,-65923.016,-86121.79,-40702.72,-23544.19,-12623.251,-28114.422,-16434.814,-20514.607
1316945.4736115038,-65933.48,-86134.56,-40713.176,-23560.996,-12634.644,-28115.44,-16432.943,-20511.11
1316945.4776114987,-65945.48,-86156.78,-40719.645,-23583.008,-12641.032,-28114.38,-16431.275,-20508.586
1316945.4816114937,-65946.21,-86158.49,-40717.41,-23580.852,-12635.295,-28113.648,-16432.008,-20511.11
1316945.4856114886,-65941.37,-86140.18,-40712.934,-23561.523,-12627.238,-28112.834,-16432.82,-20511.842
1316945.4896114836,-65933.92,-86127.56,-40711.223,-23553.549,-12628.134,-28113.12,-16432.088,-20510.824
1316945.4936114787,-65938.31,-86138.72,-40717.164,-23568.32,-12638.794,-28110.84,-16425.74,-20505.656
1316945.4976114735,-65952.03,-86161.38,-40723.51,-23588.096,-12645.427,-28110.19,-16421.834,-20499.635
1316945.5016114686,-65947.76,-86162.88,-40715.58,-23583.13,-12636.353,-28110.352,-16423.219,-20499.553
1316945.5056114634,-65941.61,-86143.44,-40707.234,-23561.973,-12622.519,-28110.516,-16425.049,-20501.588
1316945.5096114585,-65937.79,-86127.0,-40705.242,-23550.904,-12618.774,-28112.225,-16424.887,-20502.482
1316945.5136114534,-65942.266,-86133.18,-40709.066,-23564.617,-12627.93,-28111.084,-16424.195,-20500.611
1316945.5176114484,-65955.37,-86151.734,-40713.42,-23585.002,-12638.672,-28107.951,-16422.69,-20499.635
1316945.5216114435,-65961.75,-86152.47,-40711.875,-23583.863,-12633.505,-28107.016,-16424.846,-20504.598
1316945.5256114383,-65954.836,-86132.086,-40705.73,-23563.72,-12620.728,-28105.55,-16425.496,-20507.244
1316945.5296114334,-65949.22,-86117.39,-40704.43,-23551.719,-12619.06,-28105.307,-16423.87,-20506.47
1316945.5336114282,-65957.6,-86127.41,-40709.598,-23569.174,-12629.802,-28104.941,-16422.242,-20502.482
1316945.5376114233,-65971.31,-86149.984,-40713.83,-23590.049,-12640.341,-28104.086,-16423.219,-20503.5
1316945.5416114184,-65973.72,-86152.305,-40710.695,-23587.363,-12635.498,-28106.324,-16427.898,-20508.79
1316945.5456114132,-65970.5,-86134.32,-40706.586,-23567.18,-12624.756,-28110.068,-16432.455,-20513.143
1316945.5496114083,-65968.18,-86120.57,-40705.12,-23558.799,-12620.646,-28109.213,-16429.729,-20509.197
1316945.553611403,-65972.74,-86125.61,-40710.613,-23572.959,-12628.459,-28106.162,-16421.957,-20501.385
1316945.5576113982,-65984.78,-86141.93,-40716.434,-23591.229,-12636.23,-28103.68,-16416.871,-20497.518
1316945.561611393,-65987.51,-86141.234,-40714.6,-23588.705,-12630.168,-28104.818,-16417.725,-20499.959
1316945.565611388,-65978.766,-86123.74,-40710.164,-23570.191,-12621.013,-28106.568,-16419.8,-20502.482
1316945.5696113831,-65974.98,-86111.984,-40712.242,-23562.135,-12622.803,-28107.666,-16419.842,-20502.28
1316945.573611378,-65983.52,-86124.59,-40717.043,-23578.533,-12634.033,-28105.754,-16414.715,-20496.502
1316945.577611373,-65997.11,-86145.06,-40722.047,-23597.941,-12639.404,-28104.656,-16411.377,-20490.602
1316945.5816113679,-65998.91,-86143.234,-40719.2,-23594.85,-12632.772,-28106.527,-16412.842,-20492.146
1316945.585611363,-65988.85,-86123.45,-40713.22,-23572.43,-12620.077,-28108.766,-16415.854,-20495.564
1316945.589611358,-65983.28,-86111.17,-40711.793,-23558.229,-12616.211,-28109.092,-16416.951,-20495.646
1316945.5936113528,-65992.23,-86123.74,-40717.977,-23573.73,-12627.6045,-28107.383,-16415.406,-20495.076
1316945.597611348,-66006.96,-86147.34,-40725.992,-23598.715,-12639.73,-28107.219,-16413.086,-20496.541
1316945.6016113427,-66010.375,-86149.5,-40722.74,-23597.047,-12635.986,-28105.145,-16411.012,-20496.541
1316945.6056113378,-66001.47,-86131.47,-40715.82,-23576.172,-12626.425,-28105.55,-16410.4,-20500.53
1316945.6096113329,-65993.0,-86116.58,-40712.04,-23562.053,-12619.995,-28107.83,-16413.738,-20504.842
1316945.6136113277,-65998.21,-86123.01,-40716.105,-23575.684,-12628.744,-28109.295,-16416.668,-20503.541
1316945.6176113228,-66012.58,-86146.12,-40720.664,-23598.309,-12638.754,-28108.643,-16415.486,-20500.447
1316945.6216113176,-66014.81,-86147.87,-40717.246,-23597.861,-12631.918,-28109.986,-16419.354,-20504.924
1316945.6256113127,-66005.29,-86128.5,-40714.07,-23579.957,-12620.972,-28111.328,-16422.242,-20506.877
1316945.6296113075,-66001.79,-86115.805,-40715.902,-23567.303,-12618.205,-28109.986,-16422.81,-20507.568
1316945.6336113026,-66012.45,-86131.836,-40724.367,-23582.764,-12631.022,-28106.934,-16416.668,-20501.588
1316945.6376112977,-66030.4,-86161.26,-40730.266,-23606.406,-12641.765,-28102.5,-16411.215,-20498.414
1316945.6416112925,-66039.72,-86167.56,-40730.875,-23605.998,-12638.306,-28101.848,-16411.988,-20499.023
1316945.6456112876,-66024.01,-86139.37,-40721.19,-23582.643,-12622.233,-28100.953,-16414.145,-20501.465
1316945.6496112824,-66007.85,-86115.36,-40718.63,-23569.824,-12621.298,-28102.5,-16415.771,-20503.133
1316945.6536112775,-66011.35,-86123.74,-40725.18,-23583.904,-12634.196,-28101.36,-16412.395,-20498.943
1316945.6576112725,-66028.41,-86150.234,-40730.875,-23608.277,-12645.427,-28098.105,-16408.732,-20496.785
1316945.6616112674,-66032.19,-86153.37,-40726.93,-23607.504,-12637.207,-28098.674,-16410.848,-20497.885
1316945.6656112624,-66022.625,-86132.0,-40721.68,-23584.96,-12625.366,-28100.18,-16413.86,-20500.326
1316945.6696112573,-66017.54,-86116.58,-40721.477,-23572.633,-12625.448,-28100.139,-16414.633,-20499.838
1316945.6736112523,-66024.54,-86129.44,-40727.824,-23587.646,-12633.871,-28098.35,-16408.65,-20491.252
1316945.6776112472,-66038.66,-86153.12,-40731.445,-23608.684,-12641.357,-28095.664,-16405.273,-20491.822
1316945.6816112422,-66043.26,-86158.125,-40730.023,-23607.83,-12635.864,-28094.2,-16406.902,-20496.258
1316945.6856112373,-66038.695,-86144.78,-40727.62,-23588.543,-12627.849,-28095.176,-16410.564,-20503.297
1316945.6896112321,-66033.49,-86131.43,-40726.766,-23576.457,-12627.768,-28096.232,-16412.518,-20508.098
1316945.6936112272,-66043.46,-86144.29,-40734.293,-23593.791,-12639.404,-28095.297,-16411.215,-20507.283
1316945.697611222,-66058.11,-86164.23,-40740.4,-23613.852,-12648.601,-28093.71,-16410.645,-20504.924
1316945.701611217,-66062.38,-86166.95,-40740.52,-23611.654,-12642.741,-28095.094,-16411.459,-20506.145
1316945.7056112122,-66051.31,-86146.89,-40732.18,-23590.17,-12629.232,-28095.867,-16413.25,-20506.877
1316945.709611207,-66041.34,-86127.52,-40730.754,-23575.684,-12622.925,-28096.559,-16411.988,-20501.506
1316945.713611202,-66050.7,-86137.05,-40740.316,-23590.781,-12633.708,-28096.273,-16407.756,-20495.037
1316945.717611197,-66064.49,-86159.63,-40748.047,-23612.549,-12641.684,-28096.803,-16405.844,-20493.084
1316945.721611192,-66062.5,-86159.18,-40744.223,-23607.83,-12634.888,-28097.576,-16406.17,-20495.037
1316945.7256111868,-66054.24,-86139.9,-40739.504,-23586.67,-12623.21,-28100.547,-16412.11,-20503.621
1316945.729611182,-66047.94,-86125.29,-40736.043,-23575.766,-12622.763,-28102.783,-16414.43,-20504.07
1316945.733611177,-66054.04,-86134.89,-40740.6,-23592.408,-12636.516,-28101.686,-16411.58,-20498.088
1316945.7376111718,-66067.34,-86154.87,-40745.28,-23612.549,-12644.328,-28102.459,-16412.03,-20496.541
1316945.7416111669,-66067.51,-86155.07,-40743.29,-23608.969,-12637.451,-28102.54,-16415.121,-20498.576
1316945.7456111617,-66059.05,-86136.72,-40740.4,-23588.299,-12627.116,-28103.395,-16414.266,-20500.244
1316945.7496111568,-66053.06,-86123.58,-40739.22,-23577.434,-12626.425,-28102.947,-16411.785,-20498.738
1316945.7536111518,-66058.72,-86133.266,-40745.688,-23591.27,-12637.167,-28100.424,-16405.64,-20493.123
1316945.7576111467,-66071.62,-86153.65,-40750.773,-23610.8,-12645.834,-28097.617,-16398.764,-20484.01
1316945.7616111417,-66077.03,-86157.11,-40749.188,-23609.863,-12640.747,-28099.61,-16401.082,-20486.572
1316945.7656111366,-66067.55,-86140.305,-40743.45,-23589.234,-12632.284,-28103.436,-16407.594,-20495.564
1316945.7696111316,-66058.76,-86126.06,-40741.617,-23577.354,-12630.127,-28106.934,-16410.889,-20498.943
1316945.7736111265,-66064.945,-86136.31,-40747.195,-23589.152,-12640.341,-28107.91,-16408.732,-20498.535
1316945.7776111215,-66076.09,-86157.19,-40750.164,-23607.666,-12648.601,-28103.924,-16402.71,-20492.879
1316945.7816111166,-66079.06,-86158.49,-40749.188,-23606.934,-12641.562,-28104.98,-16406.332,-20497.926
1316945.7856111114,-66077.03,-86144.734,-40745.402,-23588.217,-12632.121,-28107.26,-16410.156,-20505.412
1316945.7896111065,-66075.69,-86138.06,-40746.01,-23580.648,-12632.609,-28106.445,-16410.97,-20510.213
1316945.7936111013,-66082.03,-86150.35,-40753.543,-23597.088,-12643.311,-28105.389,-16407.512,-20506.877
1316945.7976110964,-66093.586,-86165.734,-40756.836,-23614.666,-12651.449,-28104.248,-16403.158,-20500.814
1316945.8016110915,-66098.92,-86167.97,-40754.883,-23610.068,-12645.671,-28103.598,-16402.914,-20501.465
1316945.8056110863,-66090.91,-86149.26,-40749.39,-23588.299,-12633.017,-28103.924,-16406.453,-20507.895
1316945.8096110814,-66084.516,-86134.12,-40750.773,-23578.94,-12631.714,-28105.713,-16406.17,-20507.527
1316945.8136110762,-66093.38,-86146.61,-40759.035,-23596.885,-12643.393,-28106.406,-16402.996,-20503.053
1316945.8176110713,-66104.17,-86166.22,-40762.777,-23614.99,-12650.554,-28103.842,-16400.105,-20499.309
1316945.821611066,-66102.79,-86164.72,-40758.953,-23610.922,-12643.188,-28103.8,-16401.002,-20497.803
1316945.8256110612,-66093.63,-86143.35,-40752.688,-23587.688,-12631.755,-28107.178,-16405.355,-20500.773
1316945.8296110563,-66084.44,-86123.13,-40747.76,-23572.47,-12629.639,-28108.684,-16408.611,-20502.28
1316945.833611051,-66093.43,-86136.11,-40754.07,-23588.623,-12639.16,-28109.62,-16410.238,-20501.303
1316945.8376110462,-66104.945,-86159.95,-40758.914,-23607.3,-12644.328,-28106.771,-16404.988,-20493.328
1316945.841611041,-66108.56,-86161.79,-40759.684,-23608.887,-12639.7705,-28110.637,-16407.146,-20496.297
1316945.845611036,-66099.65,-86139.9,-40754.273,-23587.158,-12627.238,-28113.12,-16408.936,-20501.547
1316945.8496110311,-66094.2,-86124.07,-40752.848,-23575.48,-12626.262,-28114.299,-16407.838,-20500.936
1316945.853611026,-66101.6,-86134.56,-40757.406,-23589.111,-12637.492,-28109.295,-16399.7,-20493.938
1316945.857611021,-66117.39,-86158.734,-40764.242,-23611.004,-12649.008,-28105.104,-16394.41,-20490.967
1316945.8616110159,-66122.68,-86162.766,-40762.41,-23610.312,-12646.037,-28105.389,-16396.037,-20493.531
1316945.865611011,-66114.26,-86143.68,-40754.68,-23589.234,-12634.359,-28107.545,-16399.617,-20498.738
1316945.869611006,-66107.75,-86126.586,-40752.44,-23574.016,-12631.755,-28109.783,-16402.14,-20502.076
1316945.8736110008,-66113.65,-86136.97,-40758.547,-23588.014,-12643.718,-28110.393,-16401.002,-20501.385
1316945.877610996,-66126.95,-86161.46,-40764.65,-23608.074,-12652.67,-28107.463,-16398.152,-20501.262
1316945.8816109907,-66131.63,-86165.77,-40762.29,-23604.615,-12646.851,-28106.854,-16399.373,-20504.436
1316945.8856109858,-66124.11,-86146.08,-40756.88,-23584.434,-12637.289,-28109.172,-16402.1,-20504.883
1316945.8896109806,-66119.02,-86129.6,-40757.04,-23574.668,-12635.742,-28112.266,-16402.264,-20503.133
1316945.8936109757,-66127.56,-86140.016,-40765.3,-23589.885,-12642.944,-28111.207,-16400.838,-20501.424
1316945.8976109708,-66139.484,-86160.93,-40771.566,-23610.107,-12649.699,-28111.125,-16399.74,-20498.82
1316945.9016109656,-66136.11,-86158.98,-40767.215,-23605.266,-12642.334,-28111.125,-16400.31,-20499.188
1316945.9056109607,-66127.69,-86140.1,-40760.99,-23586.387,-12630.412,-28115.887,-16405.518,-20504.232
1316945.9096109555,-66123.21,-86124.76,-40760.785,-23576.865,-12627.768,-28119.752,-16407.715,-20501.262
1316945.9136109506,-66126.47,-86131.02,-40765.42,-23587.729,-12636.19,-28116.74,-16399.984,-20490.072
1316945.9176109456,-66140.71,-86151.414,-40772.016,-23607.219,-12646.77,-28116.008,-16397.055,-20492.84
1316945.9216109405,-66146.0,-86158.41,-40772.746,-23607.666,-12644.165,-28114.787,-16398.072,-20492.758
1316945.9256109355,-66138.06,-86140.016,-40768.15,-23588.95,-12632.69,-28115.602,-16402.629,-20499.35
1316945.9296109304,-66130.45,-86123.7,-40765.18,-23576.742,-12627.157,-28117.31,-16405.926,-20505.574
1316945.9336109255,-66139.65,-86134.65,-40773.234,-23592.285,-12639.853,-28116.943,-16404.256,-20502.645
1316945.9376109203,-66151.45,-86157.19,-40779.5,-23611.613,-12649.74,-28115.195,-16399.617,-20495.85
1316945.9416109154,-66151.29,-86158.695,-40773.195,-23606.162,-12643.718,-28114.299,-16397.137,-20491.414
1316945.9456109104,-66143.234,-86135.91,-40765.055,-23586.387,-12632.406,-28116.416,-16401.652,-20495.443
1316945.9496109053,-66136.88,-86119.23,-40764.69,-23573.975,-12630.493,-28118.531,-16402.67,-20498.332
1316945.9536109003,-66147.75,-86132.37,-40772.055,-23588.908,-12640.747,-28116.13,-16397.42,-20494.385
1316945.9576108952,-66162.88,-86155.68,-40777.59,-23611.816,-12652.06,-28113.16,-16393.799,-20491.334
1316945.9616108902,-66166.95,-86161.38,-40773.684,-23611.328,-12649.252,-28112.346,-16393.922,-20493.328
1316945.9656108853,-66163.695,-86146.734,-40766.93,-23592.693,-12639.486,-28114.99,-16397.95,-20500.814
1316945.9696108801,-66160.766,-86130.336,-40767.742,-23579.021,-12637.37,-28115.072,-16399.822,-20502.605
1316945.9736108752,-66167.445,-86141.445,-40777.223,-23594.32,-12648.275,-28113.445,-16397.46,-20498.414
1316945.97761087,-66178.34,-86162.31,-40782.35,-23614.055,-12656.291,-28112.06,-16395.143,-20495.281
1316945.981610865,-66182.13,-86164.15,-40778.28,-23609.62,-12650.635,-28111.816,-16395.549,-20496.826
1316945.98561086,-66173.87,-86142.74,-40772.22,-23589.52,-12638.713,-28114.096,-16399.902,-20501.385
1316945.989610855,-66162.805,-86124.43,-40770.266,-23574.912,-12633.545,-28116.293,-16399.21,-20500.447
1316945.99361085,-66167.445,-86134.766,-40774.09,-23590.008,-12642.09,-28113.893,-16394.084,-20493.531
1316945.997610845,-66182.01,-86157.76,-40778.566,-23611.125,-12651.652,-28112.875,-16390.951,-20491.17
1316946.00161084,-66188.73,-86163.086,-40778.24,-23611.045,-12649.536,-28114.299,-16393.758,-20495.281
1316946.0056108348,-66185.14,-86148.03,-40775.434,-23592.896,-12640.747,-28115.44,-16395.184,-20496.297
1316946.0096108299,-66177.66,-86131.72,-40773.805,-23579.266,-12638.957,-28114.99,-16394.125,-20492.879
1316946.013610825,-66182.3,-86138.06,-40779.582,-23591.96,-12649.008,-28114.99,-16391.113,-20486.531
1316946.0176108198,-66192.914,-86156.66,-40783.367,-23611.736,-12656.25,-28114.258,-16389.445,-20484.498
1316946.0216108148,-66195.88,-86159.02,-40781.21,-23610.19,-12652.182,-28113.975,-16390.3,-20485.596
1316946.0256108097,-66190.266,-86142.83,-40776.33,-23591.27,-12642.05,-28118.816,-16395.996,-20490.602
1316946.0296108047,-66180.664,-86126.51,-40772.664,-23576.498,-12640.951,-28122.111,-16399.414,-20493.693
1316946.0336107996,-66182.91,-86132.94,-40778.445,-23592.002,-12649.658,-28119.102,-16395.264,-20488.607
1316946.0376107947,-66195.234,-86155.27,-40786.62,-23613.648,-12654.867,-28115.846,-16390.3,-20486.125
1316946.0416107897,-66200.195,-86160.52,-40786.582,-23611.492,-12652.873,-28117.107,-16392.09,-20489.87
1316946.0456107846,-66197.72,-86145.555,-40781.902,-23592.896,-12644.206,-28119.59,-16396.484,-20496.217
1316946.0496107796,-66190.31,-86129.48,-40778.16,-23577.516,-12639.934,-28117.555,-16394.328,-20495.646
1316946.0536107745,-66194.625,-86137.74,-40783.45,-23588.096,-12649.17,-28117.107,-16393.475,-20495.076
1316946.0576107695,-66209.234,-86162.6,-40790.164,-23609.498,-12659.302,-28121.094,-16397.34,-20501.547
1316946.0616107646,-66211.59,-86165.2,-40788.086,-23606.812,-12654.582,-28123.861,-16400.676,-20506.512
1316946.0656107594,-66200.65,-86142.055,-40781.21,-23585.49,-12638.632,-28124.188,-16401.734,-20508.627
1316946.0696107545,-66198.49,-86129.805,-40781.863,-23575.44,-12636.597,-28125.164,-16403.932,-20512.004
1316946.0736107493,-66209.07,-86141.445,-40791.098,-23593.547,-12647.583,-28124.146,-16401.611,-20509.115
1316946.0776107444,-66224.33,-86164.02,-40796.836,-23615.805,-12656.901,-28121.705,-16395.346,-20501.873
1316946.0816107392,-66225.22,-86166.99,-40791.91,-23611.492,-12652.466,-28122.234,-16394.734,-20501.465
1316946.0856107343,-66213.95,-86142.74,-40783.652,-23590.008,-12639.853,-28123.129,-16399.008,-20507.0
1316946.0896107294,-66205.94,-86124.39,-40783.043,-23576.498,-12639.12,-28125.732,-16403.89,-20515.38
1316946.0936107242,-66214.97,-86138.1,-40790.895,-23592.896,-12651.327,-28127.117,-16402.426,-20511.922
1316946.0976107193,-66228.84,-86162.88,-40797.527,-23614.543,-12661.296,-28126.832,-16401.205,-20505.209
1316946.101610714,-66230.15,-86167.89,-40794.965,-23612.957,-12656.901,-28126.385,-16399.781,-20501.059
1316946.1056107092,-66227.3,-86153.93,-40792.32,-23596.844,-12648.397,-28128.338,-16400.432,-20498.82
1316946.1096107042,-66224.49,-86141.445,-40795.168,-23584.27,-12647.746,-28129.355,-16397.625,-20490.52
1316946.113610699,-66230.35,-86149.26,-40802.33,-23597.78,-12656.616,-28126.914,-16392.498,-20482.625
1316946.1176106941,-66239.71,-86167.16,-40808.188,-23618.408,-12664.673,-28124.268,-16391.56,-20483.602
1316946.121610689,-66242.19,-86168.664,-40808.15,-23620.443,-12660.6045,-28125.938,-16393.963,-20491.943
1316946.125610684,-66230.92,-86150.516,-40803.02,-23600.342,-12652.507,-28128.418,-16397.908,-20499.105
1316946.129610679,-66223.67,-86138.555,-40800.21,-23586.71,-12650.92,-28131.797,-16401.611,-20502.85
1316946.133610674,-66231.53,-86149.91,-40806.07,-23601.156,-12662.598,-28131.797,-16399.902,-20500.53
1316946.137610669,-66244.47,-86171.875,-40809.613,-23621.664,-12671.997,-28129.844,-16396.648,-20499.064
1316946.1416106638,-66246.91,-86175.74,-40806.355,-23620.037,-12666.057,-28132.895,-16398.275,-20503.215
1316946.145610659,-66238.164,-86154.7,-40801.395,-23600.506,-12655.355,-28133.424,-16402.873,-20505.818
1316946.1496106538,-66230.555,-86138.35,-40801.23,-23587.77,-12649.902,-28134.645,-16404.541,-20504.68
1316946.1536106488,-66234.336,-86145.67,-40807.66,-23601.93,-12659.872,-28133.994,-16401.326,-20501.18
1316946.157610644,-66247.56,-86168.26,-40815.473,-23625.408,-12672.038,-28134.441,-16399.21,-20503.215
1316946.1616106387,-66254.11,-86177.086,-40815.797,-23625.285,-12668.986,-28136.598,-16400.514,-20505.047
1316946.1656106338,-66248.86,-86162.6,-40810.832,-23604.574,-12658.773,-28140.057,-16406.658,-20508.709
1316946.1696106286,-66242.11,-86147.75,-40811.16,-23592.855,-12654.907,-28143.596,-16411.5,-20516.643
1316946.1736106237,-66249.35,-86156.17,-40816.285,-23609.295,-12664.836,-28143.555,-16408.53,-20514.486
1316946.1776106188,-66263.02,-86178.43,-40819.824,-23630.047,-12673.869,-28140.219,-16402.67,-20508.912
1316946.1816106136,-66265.14,-86183.15,-40816.367,-23627.402,-12669.556,-28140.504,-16403.809,-20511.963
1316946.1856106087,-66253.7,-86163.49,-40810.59,-23607.098,-12659.587,-28142.334,-16406.658,-20515.707
1316946.1896106035,-66246.18,-86142.21,-40809.816,-23595.012,-12654.663,-28143.88,-16407.105,-20518.107
1316946.1936105986,-66251.63,-86154.75,-40817.87,-23609.58,-12666.464,-28142.54,-16405.193,-20514.283
1316946.1976105934,-66265.34,-86179.734,-40825.81,-23632.121,-12679.077,-28141.074,-16402.223,-20510.701
1316946.2016105885,-66265.79,-86179.2,-40822.594,-23627.605,-12669.597,-28140.91,-16402.67,-20511.639
1316946.2056105835,-66257.9,-86161.016,-40817.953,-23606.445,-12656.494,-28141.969,-16406.088,-20515.584
1316946.2096105784,-66251.34,-86145.1,-40814.414,-23591.594,-12654.704,-28143.922,-16407.635,-20516.725
1316946.2136105734,-66254.88,-86150.15,-40817.547,-23601.318,-12664.429,-28144.287,-16405.72,-20514.16
1316946.2176105683,-66265.664,-86171.63,-40822.51,-23623.414,-12670.858,-28143.555,-16404.46,-20510.945
1316946.2216105633,-66269.695,-86177.25,-40819.664,-23623.008,-12667.847,-28142.498,-16403.158,-20510.621
1316946.2256105584,-66262.086,-86162.516,-40811.44,-23601.727,-12658.977,-28143.596,-16406.738,-20514.283
1316946.2296105532,-66255.45,-86148.97,-40811.44,-23589.316,-12655.559,-28145.184,-16409.1,-20519.125
1316946.2336105483,-66261.805,-86154.664,-40819.215,-23602.133,-12669.149,-28143.475,-16406.17,-20516.44
1316946.2376105431,-66273.48,-86172.94,-40824.137,-23622.152,-12674.357,-28139.486,-16402.426,-20512.615
1316946.2416105382,-66276.82,-86175.336,-40822.51,-23621.787,-12669.475,-28138.877,-16402.791,-20514.283
1316946.245610533,-66268.84,-86157.07,-40819.336,-23604.004,-12657.553,-28140.504,-16403.729,-20517.375
1316946.2496105281,-66259.85,-86143.72,-40818.973,-23589.764,-12652.751,-28141.398,-16402.14,-20517.781
1316946.2536105232,-66263.06,-86150.19,-40824.3,-23600.342,-12664.185,-28137.98,-16395.06,-20509.889
1316946.257610518,-66277.55,-86173.586,-40828.816,-23622.885,-12675.822,-28135.01,-16389.934,-20500.896
1316946.261610513,-66283.45,-86180.79,-40828.41,-23624.512,-12671.103,-28135.54,-16390.666,-20503.256
1316946.265610508,-66275.48,-86163.414,-40820.598,-23604.492,-12658.732,-28138.469,-16393.719,-20505.941
1316946.269610503,-66265.71,-86144.49,-40814.617,-23590.82,-12652.426,-28139.61,-16395.63,-20505.697
1316946.273610498,-66268.76,-86151.0,-40819.867,-23602.58,-12663.615,-28138.916,-16393.719,-20501.953
1316946.277610493,-66281.86,-86173.26,-40826.457,-23623.088,-12674.276,-28137.371,-16391.44,-20501.344
1316946.281610488,-66286.79,-86180.87,-40825.074,-23625.123,-12672.282,-28136.76,-16392.416,-20503.621
1316946.2856104828,-66277.305,-86163.49,-40821.332,-23606.527,-12660.4,-28137.656,-16395.428,-20510.295
1316946.2896104779,-66270.47,-86148.234,-40819.785,-23592.693,-12655.559,-28139.486,-16395.06,-20511.8
1316946.2936104727,-66272.38,-86151.9,-40826.17,-23604.168,-12664.145,-28137.9,-16391.113,-20507.488
1316946.2976104678,-66280.68,-86170.74,-40831.992,-23623.414,-12671.143,-28134.848,-16388.387,-20503.826
1316946.3016104628,-66285.484,-86178.914,-40829.062,-23623.902,-12668.335,-28137.615,-16391.398,-20506.268
1316946.3056104577,-66276.33,-86160.16,-40820.8,-23602.377,-12656.413,-28141.725,-16397.908,-20512.86
1316946.3096104527,-66270.23,-86145.59,-40818.973,-23588.787,-12655.803,-28145.387,-16403.2,-20515.666
1316946.3136104476,-66276.086,-86155.36,-40825.848,-23602.459,-12668.295,-28145.305,-16403.158,-20514.08
1316946.3176104426,-66286.74,-86177.86,-40830.527,-23625.326,-12678.386,-28142.54,-16398.602,-20509.889
1316946.3216104377,-66288.62,-86178.14,-40827.312,-23625.488,-12673.788,-28142.578,-16397.95,-20510.336
1316946.3256104325,-66278.2,-86156.7,-40820.598,-23604.371,-12660.156,-28143.23,-16400.838,-20513.713
1316946.3296104276,-66269.086,-86139.57,-40818.645,-23589.64,-12656.616,-28142.822,-16402.467,-20516.805
1316946.3336104224,-66269.37,-86143.31,-40822.023,-23598.918,-12665.69,-28139.08,-16397.46,-20510.174
1316946.3376104175,-66281.78,-86165.734,-40826.09,-23622.396,-12673.015,-28136.963,-16392.537,-20501.912
1316946.3416104123,-66289.266,-86175.414,-40822.957,-23624.39,-12669.76,-28137.127,-16391.236,-20500.855
1316946.3456104074,-66280.97,-86158.125,-40818.32,-23603.15,-12659.221,-28138.469,-16393.922,-20505.574
1316946.3496104025,-66270.51,-86139.9,-40819.99,-23588.46,-12654.907,-28140.137,-16394.287,-20504.436
1316946.3536103973,-66274.5,-86148.93,-40824.75,-23601.93,-12666.504,-28138.389,-16386.068,-20494.467
1316946.3576103924,-66285.766,-86168.22,-40832.277,-23626.588,-12675.375,-28137.207,-16380.412,-20488.322
1316946.3616103872,-66286.625,-86169.6,-40828.86,-23626.182,-12670.532,-28137.574,-16379.029,-20488.607
1316946.3656103823,-66281.7,-86159.02,-40824.42,-23608.725,-12664.47,-28141.398,-16383.749,-20495.076
1316946.3696103774,-66276.41,-86146.164,-40822.227,-23595.297,-12661.784,-28142.334,-16384.848,-20499.676
1316946.3736103722,-66279.75,-86149.17,-40825.44,-23604.086,-12669.76,-28140.422,-16383.708,-20499.838
1316946.3776103673,-66291.22,-86170.695,-40830.04,-23623.576,-12679.321,-28137.371,-16382.731,-20500.732
1316946.381610362,-66291.83,-86169.72,-40824.3,-23622.152,-12670.776,-28138.062,-16385.701,-20505.738
1316946.3856103572,-66281.25,-86148.89,-40817.18,-23599.488,-12656.21,-28141.318,-16391.236,-20510.457
1316946.3896103522,-66274.25,-86134.28,-40817.02,-23588.787,-12654.501,-28146.852,-16394.695,-20508.586
1316946.393610347,-66279.3,-86144.86,-40821.74,-23601.848,-12663.371,-28147.87,-16392.254,-20503.703
1316946.3976103421,-66290.85,-86169.516,-40827.066,-23623.74,-12671.916,-28145.916,-16389.893,-20501.791
1316946.401610337,-66295.45,-86172.98,-40824.832,-23622.682,-12669.963,-28142.822,-16388.225,-20496.217
1316946.405610332,-66288.74,-86155.48,-40820.11,-23603.842,-12660.075,-28143.148,-16387.574,-20496.99
1316946.4096103269,-66281.336,-86136.72,-40819.54,-23590.781,-12657.349,-28144.451,-16387.86,-20496.95
1316946.413610322,-66290.24,-86149.01,-40826.62,-23603.598,-12669.841,-28143.963,-16386.15,-20494.629
1316946.417610317,-66303.14,-86170.414,-40831.3,-23625.285,-12679.118,-28142.54,-16384.36,-20496.053
1316946.4216103118,-66304.61,-86171.43,-40827.027,-23622.52,-12672.038,-28144.166,-16386.922,-20500.814
1316946.425610307,-66299.32,-86159.914,-40821.37,-23604.127,-12661.906,-28147.91,-16391.033,-20507.0
1316946.4296103017,-66291.266,-86142.26,-40818.24,-23591.797,-12659.831,-28148.357,-16392.986,-20512.248
1316946.4336102968,-66295.86,-86152.266,-40821.82,-23605.266,-12669.556,-28146.893,-16392.457,-20515.545
1316946.4376102919,-66309.86,-86179.0,-40826.703,-23625.408,-12678.833,-28144.004,-16388.428,-20512.371
1316946.4416102867,-66312.7,-86183.64,-40824.992,-23622.396,-12673.218,-28145.672,-16386.271,-20512.615
1316946.4456102818,-66307.09,-86166.14,-40820.598,-23602.133,-12663.29,-28146.607,-16385.945,-20512.736
1316946.4496102766,-66298.1,-86146.0,-40820.598,-23589.396,-12659.953,-28144.695,-16383.546,-20509.93
1316946.4536102717,-66300.54,-86151.62,-40826.5,-23601.93,-12670.939,-28141.521,-16380.697,-20506.836
1316946.4576102665,-66315.15,-86172.33,-40835.574,-23624.432,-12680.542,-28139.893,-16380.86,-20507.283
1316946.4616102616,-66318.24,-86177.164,-40836.184,-23624.229,-12675.822,-28142.13,-16387.166,-20513.672
1316946.4656102567,-66312.42,-86161.016,-40827.312,-23608.154,-12664.0625,-28147.705,-16395.143,-20519.37
1316946.4696102515,-66304.41,-86145.19,-40824.547,-23595.867,-12663.005,-28152.588,-16399.537,-20519.695
1316946.4736102466,-66308.88,-86153.2,-40827.92,-23606.162,-12673.381,-28152.752,-16397.176,-20512.654
1316946.4776102414,-66321.58,-86175.375,-40831.055,-23626.506,-12681.152,-28151.531,-16391.072,-20503.988
1316946.4816102365,-66322.23,-86178.266,-40827.273,-23626.67,-12673.991,-28150.879,-16387.29,-20502.117
1316946.4856102315,-66316.33,-86161.46,-40822.266,-23609.375,-12660.563,-28150.84,-16384.93,-20499.756
1316946.4896102264,-66306.89,-86141.03,-40818.89,-23593.994,-12654.663,-28150.676,-16382.691,-20500.0
1316946.4936102214,-66308.63,-86146.08,-40825.277,-23606.527,-12665.69,-28147.258,-16378.581,-20498.088
1316946.4976102163,-66326.336,-86172.08,-40833.7,-23632.732,-12680.827,-28143.475,-16373.739,-20494.752
1316946.5016102113,-66330.53,-86174.4,-40831.18,-23632.773,-12677.45,-28140.26,-16372.641,-20497.396
1316946.5056102062,-66326.5,-86160.16,-40828.41,-23613.934,-12670.573,-28141.277,-16376.791,-20500.896
1316946.5096102012,-66324.055,-86147.83,-40827.637,-23602.621,-12668.091,-28144.492,-16381.186,-20504.598
1316946.5136101963,-66332.44,-86160.85,-40837.2,-23617.352,-12677.165,-28147.258,-16384.969,-20506.836
1316946.5176101911,-66346.195,-86185.06,-40844.81,-23638.957,-12683.879,-28145.916,-16382.406,-20506.756
1316946.5216101862,-66347.945,-86188.88,-40841.473,-23636.027,-12676.88,-28145.59,-16382.691,-20506.715
1316946.525610181,-66336.14,-86166.875,-40829.957,-23614.463,-12666.26,-28147.543,-16383.098,-20505.9
1316946.529610176,-66324.26,-86146.65,-40821.86,-23598.959,-12665.771,-28148.031,-16380.941,-20504.803
1316946.5336101712,-66325.805,-86153.61,-40823.65,-23608.398,-12676.107,-28145.957,-16375.367,-20500.326
1316946.537610166,-66334.234,-86173.016,-40829.43,-23632.406,-12685.1,-28143.922,-16370.199,-20493.246
1316946.541610161,-66334.84,-86176.84,-40827.883,-23631.47,-12679.973,-28142.172,-16369.345,-20493.611
1316946.545610156,-66328.49,-86161.95,-40824.832,-23608.277,-12668.661,-28143.76,-16373.414,-20500.367
1316946.549610151,-66323.81,-86146.734,-40825.97,-23597.291,-12664.755,-28145.346,-16376.466,-20503.582
1316946.5536101458,-66333.13,-86156.82,-40832.684,-23613.934,-12675.334,-28145.996,-16375.773,-20502.93
1316946.5576101409,-66347.74,-86180.51,-40839.52,-23635.092,-12684.408,-28145.834,-16376.425,-20502.93
1316946.561610136,-66353.4,-86186.65,-40840.293,-23636.436,-12680.827,-28144.775,-16377.849,-20504.395
1316946.5656101308,-66346.766,-86170.62,-40837.566,-23618.896,-12670.044,-28146.445,-16381.022,-20509.236
1316946.5696101259,-66335.695,-86151.77,-40833.133,-23602.174,-12665.894,-28147.422,-16381.063,-20509.686
1316946.5736101207,-66339.73,-86156.13,-40835.33,-23614.584,-12673.381,-28145.957,-16374.675,-20502.156
1316946.5776101158,-66351.56,-86180.055,-40840.332,-23637.818,-12685.588,-28142.01,-16368.693,-20496.623
1316946.5816101108,-66355.06,-86186.04,-40838.785,-23638.754,-12684.611,-28141.725,-16369.304,-20501.385
1316946.5856101057,-66351.445,-86171.555,-40832.887,-23619.508,-12674.235,-28144.98,-16376.1,-20509.115
1316946.5896101007,-66341.31,-86153.98,-40829.508,-23604.248,-12668.742,-28147.299,-16379.762,-20511.598
1316946.5936100956,-66340.7,-86156.945,-40834.23,-23614.666,-12674.276,-28146.484,-16377.6455,-20505.86
1316946.5976100906,-66349.445,-86173.75,-40836.59,-23633.262,-12683.269,-28145.02,-16369.874,-20494.223
1316946.6016100855,-66353.03,-86176.72,-40832.766,-23634.4,-12678.264,-28143.066,-16366.537,-20490.764
1316946.6056100805,-66348.96,-86159.71,-40829.957,-23617.92,-12664.551,-28145.305,-16369.101,-20492.84
1316946.6096100756,-66345.38,-86143.234,-40833.133,-23603.598,-12660.889,-28147.543,-16370.81,-20492.514
1316946.6136100704,-66349.33,-86147.914,-40841.35,-23614.87,-12672.201,-28144.572,-16366.944,-20487.957
1316946.6176100655,-66367.64,-86174.89,-40853.027,-23641.521,-12685.832,-28142.66,-16365.724,-20488.12
1316946.6216100603,-66375.45,-86182.414,-40852.867,-23646.404,-12683.554,-28143.271,-16367.88,-20491.943
1316946.6256100554,-66364.95,-86165.81,-40845.46,-23626.588,-12671.387,-28143.963,-16370.565,-20498.006
1316946.6296100505,-66357.99,-86150.48,-40842.164,-23613.037,-12670.614,-28144.084,-16370.729,-20502.361
1316946.6336100453,-66361.984,-86157.39,-40845.38,-23622.803,-12685.913,-28142.375,-16369.345,-20500.488
1316946.6376100404,-66373.45,-86180.38,-40848.88,-23642.457,-12696.899,-28141.074,-16366.903,-20497.6
1316946.6416100352,-66377.36,-86183.44,-40845.418,-23642.742,-12691.691,-28141.846,-16369.711,-20503.012
1316946.6456100303,-66372.32,-86166.34,-40839.64,-23623.902,-12680.827,-28143.066,-16373.658,-20509.562
1316946.649610025,-66366.13,-86149.87,-40837.32,-23609.904,-12676.84,-28144.775,-16373.942,-20511.842
1316946.6536100202,-66366.87,-86154.83,-40842.57,-23620.037,-12682.658,-28141.846,-16367.351,-20505.9
1316946.6576100152,-66377.81,-86176.19,-40850.87,-23640.83,-12691.977,-28139.771,-16362.468,-20498.82
1316946.66161001,-66383.914,-86183.19,-40849.324,-23641.602,-12685.222,-28139.69,-16362.346,-20499.47
1316946.6656100051,-66379.36,-86166.34,-40845.906,-23624.309,-12674.194,-28140.83,-16365.4795,-20504.191
1316946.66961,-66375.25,-86155.03,-40850.06,-23612.51,-12673.218,-28144.004,-16371.054,-20506.877
1316946.673609995,-66377.52,-86160.65,-40853.72,-23621.46,-12681.112,-28143.31,-16368.897,-20500.57
1316946.6776099901,-66385.42,-86177.25,-40855.875,-23640.707,-12690.878,-28142.01,-16364.381,-20496.053
1316946.681609985,-66388.51,-86183.84,-40853.23,-23642.945,-12687.866,-28143.148,-16364.584,-20497.111
1316946.68560998,-66382.734,-86173.18,-40845.62,-23624.797,-12677.816,-28144.816,-16367.799,-20500.203
1316946.6896099749,-66378.055,-86160.32,-40846.03,-23608.684,-12674.154,-28146.281,-16371.217,-20504.72
1316946.69360997,-66385.22,-86166.95,-40850.06,-23619.629,-12682.658,-28146.648,-16373.658,-20505.412
1316946.697609965,-66398.805,-86184.86,-40853.965,-23638.633,-12693.522,-28143.555,-16370.769,-20502.156
1316946.7016099598,-66403.16,-86188.195,-40852.785,-23638.592,-12691.528,-28142.783,-16370.606,-20500.773
1316946.705609955,-66392.46,-86167.56,-40845.664,-23618.775,-12678.915,-28143.066,-16369.67,-20500.203
1316946.7096099497,-66384.93,-86149.46,-40843.953,-23605.348,-12678.589,-28144.084,-16368.043,-20499.064
1316946.7136099448,-66388.305,-86154.055,-40849.04,-23617.92,-12687.541,-28142.05,-16361.003,-20491.943
1316946.7176099396,-66402.38,-86178.47,-40857.586,-23642.701,-12696.981,-28139.812,-16355.429,-20485.719
1316946.7216099347,-66409.75,-86188.805,-40858.074,-23648.52,-12697.185,-28140.545,-16354.208,-20484.13
1316946.7256099298,-66401.37,-86172.57,-40852.418,-23629.111,-12685.181,-28144.613,-16359.538,-20491.455
1316946.7296099246,-66392.375,-86152.67,-40851.117,-23613.69,-12678.63,-28146.729,-16364.625,-20499.309
1316946.7336099197,-66398.6,-86160.2,-40855.715,-23621.99,-12686.605,-28146.934,-16366.252,-20501.14
1316946.7376099145,-66412.36,-86185.47,-40861.29,-23643.271,-12699.179,-28147.299,-16366.252,-20501.18
1316946.7416099096,-66416.055,-86191.37,-40858.6,-23645.59,-12695.801,-28149.863,-16373.17,-20509.48
1316946.7456099046,-66407.19,-86169.68,-40850.3,-23624.064,-12682.78,-28152.02,-16378.663,-20514.812
1316946.7496098995,-66397.95,-86152.266,-40845.83,-23609.295,-12679.606,-28151.938,-16379.68,-20516.316
1316946.7536098945,-66400.31,-86159.79,-40849.977,-23620.646,-12691.895,-28149.7,-16374.513,-20510.498
1316946.7576098894,-66412.6,-86183.02,-40857.3,-23645.996,-12703.41,-28146.81,-16369.101,-20505.25
1316946.7616098844,-66416.38,-86191.695,-40859.375,-23652.14,-12699.097,-28144.287,-16367.025,-20500.977
1316946.7656098793,-66409.99,-86177.164,-40857.992,-23633.83,-12688.762,-28145.02,-16371.298,-20505.453
1316946.7696098743,-66403.81,-86160.52,-40857.79,-23617.758,-12685.425,-28146.69,-16373.007,-20507.895
1316946.7736098694,-66411.016,-86167.97,-40868.33,-23628.947,-12692.749,-28145.549,-16369.711,-20504.924
1316946.7776098642,-66424.4,-86192.71,-40874.39,-23650.188,-12700.236,-28144.287,-16364.909,-20497.234
1316946.7816098593,-66426.48,-86193.61,-40872.965,-23650.473,-12696.818,-28144.572,-16364.584,-20494.344
1316946.7856098542,-66420.49,-86174.85,-40867.473,-23630.656,-12684.896,-28147.746,-16367.717,-20498.658
1316946.7896098492,-66413.74,-86157.23,-40865.316,-23614.502,-12679.077,-28149.09,-16367.473,-20498.373
1316946.7936098443,-66420.25,-86163.91,-40870.32,-23626.547,-12690.918,-28147.014,-16365.4795,-20494.344
1316946.7976098391,-66435.51,-86189.086,-40875.406,-23652.305,-12704.306,-28145.143,-16361.857,-20491.863
1316946.8016098342,-66438.234,-86194.016,-40872.684,-23654.135,-12698.202,-28145.63,-16361.166,-20493.002
1316946.805609829,-66425.945,-86171.15,-40865.64,-23631.918,-12685.141,-28150.514,-16364.503,-20496.95
1316946.809609824,-66411.625,-86145.555,-40858.727,-23611.166,-12676.88,-28151.49,-16362.672,-20492.188
1316946.813609819,-66416.71,-86152.75,-40865.316,-23623.82,-12685.263,-28150.31,-16359.01,-20485.393
1316946.817609814,-66436.41,-86183.23,-40877.28,-23652.1,-12699.707,-28149.902,-16358.847,-20484.822
1316946.821609809,-66440.63,-86186.484,-40878.38,-23655.803,-12696.045,-28150.596,-16361.41,-20488.81
1316946.825609804,-66433.35,-86167.24,-40875.125,-23633.465,-12681.641,-28152.71,-16365.683,-20490.926
1316946.829609799,-66423.914,-86145.266,-40873.008,-23617.107,-12675.09,-28153.564,-16367.229,-20494.305
1316946.8336097938,-66428.266,-86149.87,-40882.406,-23628.418,-12685.1,-28152.996,-16366.7,-20494.426
1316946.8376097889,-66446.58,-86179.98,-40892.945,-23652.344,-12699.179,-28150.27,-16365.316,-20492.188
1316946.841609784,-66455.2,-86194.945,-40891.684,-23655.64,-12697.754,-28149.049,-16365.724,-20493.123
1316946.8456097788,-66445.15,-86176.88,-40882.57,-23634.97,-12688.681,-28151.896,-16368.979,-20500.611
1316946.8496097738,-66437.13,-86160.65,-40874.676,-23618.979,-12687.378,-28154.99,-16371.461,-20501.424
1316946.8536097687,-66436.73,-86164.266,-40873.17,-23627.361,-12699.667,-28153.688,-16366.822,-20495.281
1316946.8576097637,-66444.586,-86183.48,-40875.33,-23648.234,-12711.223,-28150.717,-16362.0205,-20492.188
1316946.8616097586,-66450.766,-86190.02,-40874.27,-23651.164,-12703.613,-28149.863,-16359.62,-20491.62
1316946.8656097536,-66442.55,-86172.164,-40867.72,-23632.812,-12689.535,-28151.123,-16361.613,-20496.094
1316946.8696097487,-66435.1,-86154.38,-40869.14,-23616.008,-12682.739,-28154.664,-16365.4795,-20503.377
1316946.8736097435,-66441.98,-86159.305,-40878.46,-23623.902,-12691.813,-28153.361,-16365.561,-20504.191
1316946.8776097386,-66458.414,-86184.53,-40887.207,-23648.56,-12703.776,-28152.914,-16362.55,-20502.4
1316946.8816097334,-66459.19,-86191.25,-40886.965,-23649.863,-12698.324,-28153.688,-16362.672,-20503.377
1316946.8856097285,-66450.56,-86175.945,-40880.13,-23630.006,-12687.744,-28155.6,-16365.316,-20505.412
1316946.8896097236,-66446.66,-86163.984,-40877.24,-23617.27,-12687.826,-28157.797,-16366.862,-20506.918
1316946.8936097184,-66451.58,-86169.07,-40881.227,-23627.605,-12696.777,-28156.373,-16363.607,-20504.15
1316946.8976097135,-66464.88,-86190.48,-40889.566,-23649.578,-12707.602,-28154.541,-16357.057,-20497.682
1316946.9016097083,-66472.17,-86200.24,-40890.83,-23655.03,-12705.2,-28155.6,-16359.416,-20497.885
1316946.9056097034,-66461.14,-86179.57,-40880.13,-23632.53,-12690.756,-28156.455,-16362.753,-20498.902
1316946.9096096982,-66448.0,-86155.48,-40874.27,-23614.055,-12682.983,-28157.39,-16364.584,-20500.203
1316946.9136096933,-66448.49,-86157.68,-40880.902,-23623.047,-12693.156,-28156.373,-16362.59,-20497.273
1316946.9176096884,-66462.445,-86179.41,-40889.363,-23646.69,-12706.95,-28154.664,-16360.515,-20495.361
1316946.9216096832,-66470.74,-86188.07,-40889.0,-23650.432,-12703.41,-28155.273,-16361.817,-20495.688
1316946.9256096783,-66463.42,-86168.74,-40882.04,-23629.15,-12688.518,-28155.355,-16362.834,-20498.738
1316946.929609673,-66452.35,-86147.14,-40879.438,-23610.88,-12684.286,-28157.023,-16364.787,-20505.615
1316946.9336096682,-66459.68,-86155.84,-40888.348,-23624.229,-12696.086,-28157.797,-16363.607,-20505.738
1316946.9376096632,-66474.164,-86181.93,-40893.23,-23649.455,-12709.677,-28154.053,-16356.446,-20497.6
1316946.941609658,-66476.56,-86190.8,-40891.156,-23651.775,-12704.346,-28153.688,-16354.655,-20495.281
1316946.9456096531,-66465.5,-86171.67,-40883.75,-23633.262,-12692.953,-28154.99,-16358.195,-20495.361
1316946.949609648,-66456.83,-86155.195,-40877.117,-23617.514,-12687.378,-28154.785,-16358.399,-20490.723
1316946.953609643,-66461.875,-86161.99,-40882.61,-23629.191,-12700.155,-28150.799,-16351.97,-20480.145
1316946.957609638,-66478.07,-86184.82,-40892.418,-23655.111,-12711.345,-28148.56,-16346.437,-20471.03
1316946.961609633,-66482.99,-86191.734,-40891.766,-23658.0,-12707.275,-28148.846,-16344.687,-20466.553
1316946.965609628,-66474.49,-86173.18,-40885.867,-23637.695,-12695.3125,-28151.123,-16348.349,-20471.6
1316946.9696096228,-66461.63,-86151.05,-40880.332,-23618.49,-12688.559,-28152.264,-16347.901,-20476.604
1316946.973609618,-66462.28,-86150.59,-40883.426,-23627.89,-12696.249,-28149.658,-16343.873,-20475.139
1316946.9776096127,-66477.336,-86173.67,-40890.137,-23654.664,-12709.188,-28148.275,-16340.129,-20472.088
1316946.9816096078,-66482.914,-86177.984,-40889.16,-23658.936,-12703.817,-28145.957,-16337.565,-20471.355
1316946.9856096029,-66476.36,-86160.445,-40886.516,-23638.469,-12690.796,-28148.479,-16341.798,-20479.451
1316946.9896095977,-66474.77,-86148.12,-40887.94,-23623.535,-12686.198,-28151.816,-16344.89,-20483.562
1316946.9936095928,-66481.08,-86154.586,-40894.938,-23635.01,-12696.859,-28152.752,-16344.89,-20480.795
1316946.9976095876,-66494.47,-86177.33,-40900.31,-23656.7,-12707.113,-28152.06,-16342.408,-20476.441
1316947.0016095827,-66499.8,-86188.195,-40897.707,-23659.018,-12704.834,-28151.938,-16342.611,-20475.3
1316947.0056095778,-66490.56,-86170.984,-40891.195,-23638.266,-12693.481,-28154.664,-16346.11,-20477.986
1316947.0096095726,-66481.65,-86151.57,-40888.875,-23619.834,-12689.779,-28156.7,-16349.8545,-20486.451
1316947.0136095677,-66488.53,-86158.33,-40895.47,-23631.674,-12701.986,-28155.885,-16350.058,-20483.277
1316947.0176095625,-66499.8,-86181.97,-40901.734,-23654.867,-12718.14,-28157.188,-16350.383,-20481.854
1316947.0216095576,-66504.48,-86191.164,-40899.254,-23656.455,-12715.698,-28157.47,-16350.668,-20482.545
1316947.0256095524,-66497.32,-86173.67,-40892.703,-23634.686,-12701.864,-28159.344,-16353.517,-20488.525
1316947.0296095475,-66486.695,-86154.34,-40887.492,-23616.13,-12694.092,-28160.768,-16355.0625,-20491.09
1316947.0336095425,-66493.77,-86162.4,-40894.53,-23628.094,-12703.329,-28161.012,-16355.144,-20490.52
1316947.0376095374,-66509.04,-86182.5,-40901.816,-23650.352,-12710.815,-28158.447,-16352.011,-20485.719
1316947.0416095324,-66516.195,-86192.79,-40901.938,-23653.932,-12708.09,-28160.32,-16354.249,-20488.648
1316947.0456095273,-66507.04,-86173.79,-40895.55,-23632.895,-12695.028,-28161.621,-16356.608,-20493.734
1316947.0496095223,-66494.914,-86150.35,-40890.953,-23614.055,-12689.413,-28162.598,-16356.771,-20495.24
1316947.0536095174,-66500.734,-86158.33,-40898.52,-23624.146,-12699.26,-28160.97,-16353.598,-20491.049
1316947.0576095122,-66517.78,-86186.32,-40907.227,-23649.863,-12712.158,-28161.459,-16352.865,-20488.648
1316947.0616095073,-66523.16,-86194.99,-40904.703,-23653.361,-12709.839,-28165.324,-16357.748,-20494.14
1316947.0656095021,-66515.22,-86178.266,-40895.387,-23633.424,-12699.748,-28167.562,-16361.817,-20499.797
1316947.0696094972,-66506.8,-86159.305,-40891.277,-23617.107,-12697.307,-28169.639,-16364.299,-20502.85
1316947.073609492,-66511.234,-86163.54,-40898.074,-23628.256,-12706.991,-28171.266,-16362.997,-20499.35
1316947.077609487,-66521.98,-86182.58,-40903.484,-23650.717,-12715.536,-28166.748,-16358.562,-20494.426
1316947.0816094822,-66526.29,-86188.805,-40903.402,-23653.24,-12709.514,-28167.36,-16358.806,-20493.938
1316947.085609477,-66516.64,-86173.14,-40902.344,-23633.994,-12697.348,-28168.377,-16361.125,-20496.746
1316947.089609472,-66508.75,-86155.07,-40901.53,-23617.188,-12693.767,-28169.11,-16363.607,-20500.691
1316947.093609467,-66515.55,-86157.39,-40909.305,-23627.768,-12702.719,-28168.295,-16359.538,-20497.355
1316947.097609462,-66527.95,-86178.43,-40914.957,-23653.24,-12710.043,-28166.016,-16353.517,-20491.049
1316947.101609457,-66531.82,-86188.4,-40910.035,-23655.64,-12706.503,-28163.738,-16351.889,-20490.479
1316947.105609452,-66526.33,-86180.055,-40903.973,-23638.55,-12697.632,-28164.756,-16353.801,-20493.246
1316947.109609447,-66519.25,-86162.93,-40898.64,-23624.553,-12696.127,-28166.586,-16352.865,-20491.658
1316947.1136094418,-66521.98,-86164.836,-40901.367,-23633.098,-12706.787,-28164.227,-16349.122,-20483.928
1316947.1176094369,-66532.43,-86182.78,-40905.113,-23653.281,-12715.739,-28160.97,-16345.053,-20481.324
1316947.1216094317,-66541.38,-86191.086,-40902.305,-23657.064,-12712.769,-28159.953,-16344.972,-20483.887
1316947.1256094268,-66535.32,-86180.055,-40897.707,-23639.121,-12704.956,-28161.988,-16350.709,-20489.746
1316947.1296094218,-66525.516,-86160.2,-40897.707,-23622.355,-12701.294,-28163.738,-16352.906,-20490.275
1316947.1336094167,-66527.875,-86162.88,-40904.01,-23630.9,-12706.177,-28161.988,-16348.918,-20487.508
1316947.1376094117,-66542.445,-86187.55,-40913.25,-23658.691,-12718.181,-28160.768,-16345.744,-20482.178
1316947.1416094066,-66543.83,-86189.62,-40910.562,-23660.156,-12713.501,-28159.344,-16343.832,-20479.574
1316947.1456094016,-66534.38,-86167.16,-40902.1,-23638.225,-12698.8125,-28159.953,-16346.192,-20482.87
1316947.1496093967,-66526.53,-86149.05,-40898.355,-23621.908,-12693.645,-28159.75,-16348.837,-20486.695
1316947.1536093915,-66532.15,-86159.75,-40901.45,-23630.615,-12703.247,-28159.873,-16348.674,-20487.264
1316947.1576093866,-66546.23,-86185.23,-40903.727,-23653.24,-12714.478,-28159.344,-16348.512,-20486.41
1316947.1616093814,-66552.086,-86195.234,-40899.66,-23657.188,-12714.193,-28156.25,-16349.772,-20487.508
1316947.1656093765,-66545.78,-86181.93,-40893.27,-23638.389,-12703.532,-28156.861,-16353.801,-20495.24
1316947.1696093713,-66536.016,-86159.23,-40890.75,-23618.49,-12695.679,-28159.262,-16354.818,-20497.559
1316947.1736093664,-66540.65,-86162.07,-40895.793,-23627.482,-12704.387,-28156.78,-16350.587,-20491.822
1316947.1776093615,-66557.7,-86185.71,-40904.99,-23653.89,-12717.407,-28152.793,-16345.46,-20483.969
1316947.1816093563,-66563.48,-86194.74,-40901.652,-23660.85,-12713.176,-28152.02,-16344.361,-20485.19
1316947.1856093514,-66553.06,-86177.45,-40892.496,-23642.295,-12700.725,-28152.264,-16345.012,-20486.816
1316947.1896093462,-66544.64,-86161.38,-40891.195,-23626.344,-12700.317,-28152.955,-16346.681,-20488.12
1316947.1936093413,-66547.445,-86165.734,-40895.426,-23634.4,-12707.438,-28151.734,-16344.768,-20484.172
1316947.1976093363,-66558.07,-86186.0,-40901.33,-23656.17,-12714.804,-28148.154,-16340.78,-20478.719
1316947.2016093312,-66562.54,-86196.62,-40903.402,-23660.441,-12710.49,-28146.852,-16342.042,-20477.254
1316947.2056093263,-66557.05,-86180.75,-40900.23,-23642.457,-12699.626,-28148.682,-16345.744,-20481.893
1316947.209609321,-66552.37,-86162.195,-40898.723,-23625.855,-12696.737,-28149.62,-16348.552,-20487.06
1316947.2136093162,-66556.234,-86164.19,-40902.75,-23634.441,-12704.794,-28148.967,-16347.128,-20483.684
1316947.2176093112,-66569.17,-86186.41,-40909.06,-23661.785,-12716.716,-28146.729,-16343.059,-20478.23
1316947.221609306,-66575.36,-86195.805,-40904.785,-23667.277,-12714.396,-28144.492,-16341.391,-20478.8
1316947.2256093011,-66567.34,-86179.81,-40898.277,-23647.625,-12700.562,-28146.525,-16345.094,-20484.457
1316947.229609296,-66555.55,-86157.19,-40893.637,-23627.076,-12690.674,-28147.95,-16347.291,-20490.52
1316947.233609291,-66556.56,-86162.4,-40896.08,-23633.709,-12698.568,-28146.648,-16343.466,-20486.287
1316947.2376092859,-66574.99,-86189.086,-40904.5,-23659.14,-12713.989,-28144.37,-16342.245,-20481.812
1316947.241609281,-66584.234,-86199.83,-40904.176,-23663.209,-12711.182,-28144.207,-16345.826,-20485.799
1316947.245609276,-66576.055,-86181.12,-40896.973,-23643.475,-12695.72,-28144.207,-16350.953,-20493.246
1316947.2496092708,-66567.63,-86158.29,-40889.566,-23625.244,-12689.291,-28143.475,-16353.72,-20495.85
1316947.253609266,-66568.445,-86158.734,-40892.824,-23633.953,-12699.463,-28140.38,-16351.197,-20491.049
1316947.2576092607,-66579.63,-86182.09,-40899.617,-23656.17,-12711.874,-28136.436,-16346.884,-20485.066
1316947.2616092558,-66584.84,-86191.0,-40898.6,-23660.686,-12705.282,-28136.11,-16344.85,-20483.725
1316947.2656092509,-66576.01,-86168.87,-40891.887,-23640.422,-12692.099,-28135.418,-16347.169,-20489.705
1316947.2696092457,-66568.81,-86147.14,-40888.875,-23623.496,-12688.477,-28133.262,-16347.575,-20492.025
1316947.2736092408,-66573.57,-86155.195,-40893.23,-23634.521,-12695.557,-28130.941,-16342.001,-20485.678
1316947.2776092356,-66587.28,-86177.086,-40901.043,-23656.494,-12706.177,-28126.059,-16337.932,-20478.027
1316947.2816092307,-66597.74,-86188.44,-40902.71,-23661.215,-12705.241,-28125.164,-16340.373,-20479.777
1316947.2856092255,-66591.19,-86172.734,-40897.46,-23642.05,-12693.359,-28127.564,-16344.931,-20485.637
1316947.2896092206,-66578.86,-86149.375,-40891.156,-23621.46,-12683.146,-28128.215,-16345.948,-20486.492
1316947.2936092156,-66581.18,-86151.98,-40893.758,-23628.418,-12692.79,-28126.67,-16344.076,-20482.951
1316947.2976092105,-66594.41,-86174.805,-40900.434,-23652.629,-12706.015,-28124.473,-16341.31,-20479.695
1316947.3016092055,-66598.11,-86183.19,-40898.926,-23658.53,-12704.794,-28123.129,-16342.53,-20482.178
1316947.3056092004,-66591.48,-86167.65,-40892.703,-23639.404,-12692.79,-28125.57,-16345.744,-20489.178
1316947.3096091955,-66583.01,-86148.56,-40888.062,-23624.146,-12687.744,-28124.064,-16347.209,-20492.717
1316947.3136091905,-66588.586,-86152.914,-40893.15,-23635.621,-12696.086,-28119.955,-16342.042,-20487.752
1316947.3176091854,-66603.88,-86177.33,-40902.387,-23660.035,-12703.329,-28117.555,-16334.88,-20480.021
1316947.3216091804,-66609.055,-86183.35,-40899.293,-23661.988,-12698.894,-28118.164,-16333.131,-20476.441
1316947.3256091753,-66601.65,-86167.484,-40890.992,-23640.422,-12685.303,-28120.484,-16336.223,-20478.271
1316947.3296091703,-66589.44,-86144.01,-40886.883,-23624.594,-12680.827,-28121.379,-16338.461,-20480.795
1316947.3336091652,-66591.35,-86146.61,-40890.586,-23635.254,-12690.063,-28120.525,-16336.752,-20477.498
1316947.3376091602,-66604.86,-86166.71,-40897.34,-23659.75,-12700.033,-28119.996,-16336.101,-20472.576
1316947.3416091553,-66615.6,-86176.92,-40895.47,-23663.615,-12697.429,-28120.402,-16336.467,-20473.43
1316947.3456091501,-66613.81,-86166.42,-40891.277,-23644.207,-12686.035,-28121.705,-16340.861,-20476.604
1316947.3496091452,-66603.555,-86148.84,-40886.027,-23625.244,-12681.56,-28123.943,-16345.053,-20480.998
1316947.35360914,-66599.445,-86146.53,-40889.16,-23634.727,-12692.749,-28121.258,-16342.448,-20481.242
1316947.357609135,-66611.37,-86165.734,-40896.85,-23660.482,-12703.288,-28117.31,-16336.02,-20473.104
1316947.3616091302,-66618.2,-86172.445,-40898.6,-23665.65,-12699.138,-28115.602,-16335.409,-20473.104
1316947.365609125,-66612.43,-86155.68,-40895.67,-23650.27,-12689.819,-28117.025,-16337.932,-20479.086
1316947.36960912,-66603.72,-86137.125,-40894.9,-23633.383,-12685.954,-28116.822,-16336.305,-20483.113
1316947.373609115,-66607.1,-86141.195,-40901.773,-23641.44,-12694.987,-28113.975,-16331.544,-20478.68
1316947.37760911,-66623.086,-86163.86,-40907.594,-23666.953,-12703.695,-28111.004,-16326.254,-20470.541
1316947.3816091048,-66633.95,-86177.734,-40906.94,-23674.277,-12702.2705,-28113.404,-16329.631,-20473.268
1316947.3856090999,-66628.09,-86164.516,-40899.17,-23655.07,-12689.535,-28116.74,-16332.887,-20478.557
1316947.389609095,-66617.516,-86147.71,-40896.445,-23638.389,-12682.292,-28120.037,-16335.002,-20482.016
1316947.3936090898,-66618.9,-86152.43,-40897.586,-23646.322,-12692.79,-28120.037,-16334.27,-20480.307
1316947.3976090848,-66631.92,-86172.41,-40902.26,-23666.748,-12705.648,-28118.49,-16333.497,-20476.97
1316947.4016090797,-66638.76,-86178.266,-40900.637,-23669.11,-12702.312,-28117.88,-16335.328,-20476.521
1316947.4056090747,-66629.72,-86162.16,-40891.24,-23649.863,-12689.25,-28118.45,-16336.142,-20479.86
1316947.4096090698,-66618.94,-86141.6,-40886.598,-23632.65,-12680.624,-28118.734,-16336.345,-20480.51
1316947.4136090646,-66623.66,-86141.445,-40894.574,-23640.422,-12689.982,-28115.316,-16331.462,-20475.262
1316947.4176090597,-66636.195,-86160.445,-40901.164,-23664.023,-12700.644,-28110.475,-16323.243,-20468.426
1316947.4216090546,-66644.33,-86171.43,-40903.16,-23673.87,-12700.073,-28113.037,-16322.999,-20469.197
1316947.4256090496,-66639.37,-86159.67,-40898.684,-23657.309,-12690.674,-28117.025,-16325.5625,-20473.918
1316947.4296090445,-66638.06,-86148.234,-40898.562,-23644.084,-12687.053,-28118.043,-16325.888,-20474.08
1316947.4336090395,-66645.55,-86155.07,-40904.01,-23652.06,-12695.964,-28116.252,-16324.342,-20471.518
1316947.4376090346,-66656.74,-86175.83,-40912.312,-23673.87,-12704.753,-28115.479,-16325.5625,-20473.145
1316947.4416090294,-66659.71,-86180.79,-40912.438,-23677.002,-12700.847,-28115.316,-16326.295,-20471.762
1316947.4456090245,-66651.49,-86162.4,-40905.723,-23653.076,-12687.988,-28115.887,-16327.597,-20472.82
1316947.4496090193,-66644.984,-86144.734,-40905.273,-23634.604,-12682.373,-28119.305,-16329.713,-20475.465
1316947.4536090144,-66651.05,-86150.27,-40911.418,-23646.16,-12693.522,-28119.14,-16328.004,-20475.953
1316947.4576090095,-66665.49,-86172.734,-40915.367,-23674.154,-12705.16,-28114.34,-16320.68,-20468.588
1316947.4616090043,-66670.695,-86184.734,-40911.824,-23679.729,-12702.189,-28112.021,-16317.384,-20465.414
1316947.4656089994,-66663.86,-86170.74,-40903.81,-23661.785,-12691.813,-28112.957,-16319.093,-20471.559
1316947.4696089942,-66655.84,-86153.52,-40901.938,-23643.434,-12687.622,-28114.828,-16321.168,-20476.93
1316947.4736089893,-66658.77,-86156.82,-40908.61,-23648.846,-12697.51,-28112.346,-16319.906,-20473.797
1316947.4776089843,-66671.19,-86175.055,-40914.594,-23671.387,-12706.95,-28109.701,-16314.86,-20468.1
1316947.4816089792,-66677.62,-86184.45,-40913.777,-23678.63,-12703.695,-28110.107,-16314.413,-20466.838
1316947.4856089742,-66673.51,-86168.336,-40907.758,-23661.662,-12693.645,-28114.99,-16319.255,-20469.93
1316947.489608969,-66663.336,-86145.76,-40904.746,-23642.66,-12684.326,-28117.92,-16322.145,-20474.365
1316947.4936089641,-66667.28,-86150.27,-40908.69,-23651.328,-12693.319,-28118.408,-16321.9,-20472.982
1316947.497608959,-66684.66,-86177.45,-40918.254,-23673.992,-12707.683,-28117.352,-16319.825,-20469.523
1316947.501608954,-66696.125,-86192.875,-40919.92,-23679.77,-12707.438,-28117.148,-16320.639,-20473.918
1316947.505608949,-66691.77,-86177.695,-40915.895,-23662.883,-12696.208,-28119.508,-16323.935,-20480.713
1316947.509608944,-66682.09,-86155.16,-40912.438,-23644.857,-12690.268,-28119.346,-16325.725,-20484.498
1316947.513608939,-66682.7,-86155.93,-40918.418,-23651.816,-12700.399,-28119.385,-16324.952,-20482.87
1316947.5176089338,-66692.63,-86174.234,-40924.562,-23674.805,-12709.392,-28116.66,-16321.493,-20477.947
1316947.521608929,-66698.164,-86184.45,-40922.73,-23680.99,-12706.828,-28116.293,-16322.022,-20479.207
1316947.525608924,-66692.914,-86170.695,-40915.0,-23662.965,-12693.319,-28117.148,-16323.649,-20482.992
1316947.5296089188,-66684.98,-86151.164,-40912.64,-23646.24,-12690.837,-28119.06,-16324.26,-20484.01
1316947.533608914,-66689.66,-86156.25,-40918.54,-23653.932,-12702.475,-28119.752,-16321.371,-20477.906
1316947.5376089087,-66701.87,-86178.67,-40921.715,-23675.66,-12711.711,-28116.66,-16316.285,-20470.215
1316947.5416089038,-66708.26,-86188.44,-40921.184,-23680.46,-12708.659,-28115.602,-16314.413,-20467.123
1316947.5456088986,-66701.42,-86171.555,-40916.707,-23661.906,-12697.104,-28116.416,-16314.86,-20466.879
1316947.5496088937,-66694.79,-86154.625,-40915.69,-23646.81,-12689.982,-28117.637,-16317.099,-20472.86
1316947.5536088888,-66700.03,-86157.8,-40920.168,-23655.518,-12698.039,-28114.707,-16313.925,-20469.238
1316947.5576088836,-66713.7,-86181.69,-40927.734,-23678.63,-12711.833,-28112.225,-16311.198,-20467.205
1316947.5616088787,-66722.62,-86193.69,-40926.8,-23684.287,-12708.903,-28113.445,-16311.809,-20469.93
1316947.5656088735,-66715.45,-86176.44,-40918.66,-23665.121,-12694.336,-28116.008,-16317.912,-20473.674
1316947.5696088686,-66703.78,-86151.695,-40913.535,-23647.828,-12689.209,-28119.223,-16323.69,-20477.703
1316947.5736088636,-66709.35,-86155.03,-40922.406,-23658.447,-12700.725,-28119.955,-16321.737,-20476.4
1316947.5776088585,-66723.31,-86180.42,-40931.355,-23681.275,-12711.101,-28116.822,-16315.919,-20470.662
1316947.5816088535,-66728.805,-86191.49,-40928.71,-23689.17,-12709.188,-28114.87,-16313.07,-20469.85
1316947.5856088484,-66724.53,-86178.02,-40925.742,-23672.648,-12699.341,-28117.432,-16316.773,-20479.492
1316947.5896088434,-66713.016,-86157.07,-40921.023,-23652.71,-12693.034,-28119.182,-16318.319,-20480.998
1316947.5936088383,-66717.61,-86159.71,-40925.05,-23661.947,-12701.823,-28118.328,-16317.628,-20480.957
1316947.5976088333,-66737.1,-86186.08,-40933.39,-23687.785,-12715.739,-28115.113,-16313.029,-20476.033
1316947.6016088284,-66744.75,-86196.66,-40931.887,-23697.389,-12716.35,-28114.178,-16312.867,-20476.521
1316947.6056088232,-66742.27,-86183.31,-40926.395,-23681.031,-12706.421,-28116.62,-16316.8955,-20482.422
1316947.6096088183,-66734.945,-86168.17,-40923.746,-23660.238,-12699.219,-28117.025,-16318.522,-20485.107
1316947.6136088131,-66738.85,-86171.43,-40928.996,-23666.912,-12709.392,-28116.62,-16317.221,-20480.104
1316947.6176088082,-66750.86,-86192.586,-40936.035,-23689.209,-12718.344,-28117.596,-16316.977,-20478.068
1316947.6216088033,-66753.5,-86199.06,-40934.125,-23693.035,-12715.048,-28119.346,-16321.574,-20482.057
1316947.6256087981,-66743.414,-86180.09,-40926.598,-23671.836,-12702.148,-28121.014,-16324.83,-20483.398
1316947.6296087932,-66733.32,-86160.73,-40924.03,-23654.95,-12695.3125,-28123.008,-16326.051,-20480.795
1316947.633608788,-66736.414,-86163.25,-40930.42,-23662.965,-12703.451,-28122.926,-16322.714,-20474.691
1316947.637608783,-66750.53,-86183.64,-40939.293,-23687.46,-12716.269,-28121.664,-16317.709,-20473.47
1316947.641608778,-66757.086,-86196.54,-40940.188,-23693.28,-12713.501,-28123.21,-16317.018,-20473.186
1316947.645608773,-66752.2,-86180.87,-40932.78,-23672.283,-12702.475,-28124.635,-16316.488,-20475.262
1316947.649608768,-66744.34,-86161.38,-40928.59,-23653.605,-12698.853,-28125.285,-16314.169,-20473.797
1316947.653608763,-66748.7,-86162.64,-40933.27,-23660.93,-12704.631,-28124.268,-16311.28,-20472.82
1316947.657608758,-66764.125,-86188.07,-40941.53,-23684.938,-12716.513,-28122.031,-16309.042,-20472.088
1316947.6616087528,-66770.59,-86199.016,-40940.633,-23691.814,-12716.594,-28123.21,-16310.304,-20476.156
1316947.6656087479,-66764.2,-86185.836,-40934.613,-23678.467,-12708.09,-28126.914,-16316.569,-20484.172
1316947.669608743,-66752.445,-86162.234,-40928.305,-23658.326,-12699.097,-28125.652,-16317.424,-20483.928
1316947.6736087378,-66753.586,-86158.9,-40932.535,-23664.43,-12705.444,-28125.896,-16313.518,-20478.68
1316947.6776087328,-66767.336,-86181.93,-40940.715,-23689.17,-12718.018,-28125.082,-16311.402,-20474.732
1316947.6816087277,-66772.914,-86193.766,-40941.734,-23693.727,-12712.565,-28123.576,-16313.762,-20474.977
1316947.6856087227,-66764.04,-86175.74,-40936.65,-23674.643,-12697.836,-28124.432,-16321.33,-20484.213
1316947.6896087176,-66756.875,-86158.2,-40934.367,-23657.268,-12693.115,-28126.385,-16323.405,-20487.916
1316947.6936087126,-66759.69,-86163.05,-40938.477,-23663.86,-12703.735,-28124.838,-16320.028,-20483.113
1316947.6976087077,-66777.51,-86189.66,-40946.25,-23690.879,-12720.093,-28122.314,-16315.675,-20479.045
1316947.7016087025,-66784.586,-86199.83,-40944.5,-23699.627,-12718.994,-28120.973,-16314.291,-20480.348
1316947.7056086976,-66774.336,-86181.6,-40935.59,-23681.682,-12704.55,-28121.502,-16316.936,-20484.498
1316947.7096086924,-66763.59,-86160.32,-40930.46,-23660.564,-12702.2705,-28121.908,-16315.39,-20484.701
1316947.7136086875,-66763.875,-86162.27,-40934.125,-23663.9,-12712.118,-28121.908,-16312.785,-20480.184
1316947.7176086826,-66776.82,-86183.516,-40941.246,-23687.95,-12720.378,-28120.973,-16310.222,-20476.645
1316947.7216086774,-66783.695,-86195.07,-40941.53,-23698.975,-12717.448,-28121.46,-16309.367,-20473.592
1316947.7256086725,-66779.91,-86184.37,-40935.832,-23685.1,-12706.909,-28125.244,-16312.541,-20476.848
1316947.7296086673,-66772.3,-86163.29,-40932.047,-23664.633,-12697.388,-28125.814,-16313.314,-20476.604
1316947.7336086624,-66773.12,-86162.16,-40937.094,-23670.615,-12703.613,-28124.717,-16310.344,-20472.371
1316947.7376086572,-66784.14,-86184.37,-40943.484,-23693.441,-12715.414,-28122.723,-16307.455,-20468.629
1316947.7416086523,-66794.48,-86197.96,-40945.273,-23701.05,-12716.635,-28124.512,-16311.442,-20475.83
1316947.7456086474,-66792.03,-86186.77,-40940.145,-23683.473,-12707.153,-28127.035,-16317.506,-20484.54
1316947.7496086422,-66784.43,-86168.99,-40936.44,-23662.72,-12698.771,-28125.244,-16318.034,-20485.76
1316947.7536086373,-66787.68,-86172.484,-40942.87,-23673.34,-12710.612,-28123.902,-16316.285,-20486.492
1316947.757608632,-66805.586,-86199.38,-40954.836,-23704.266,-12727.946,-28123.902,-16314.128,-20487.63
1316947.7616086272,-66812.18,-86209.92,-40952.637,-23708.945,-12724.121,-28121.582,-16312.013,-20488.852
1316947.7656086222,-66800.17,-86190.02,-40944.5,-23685.71,-12708.049,-28121.379,-16313.355,-20491.7
1316947.769608617,-66787.6,-86166.34,-40941.45,-23666.22,-12697.307,-28122.967,-16314.576,-20491.496
1316947.7736086121,-66792.12,-86168.79,-40946.535,-23675.375,-12707.194,-28124.756,-16312.867,-20484.863
1316947.777608607,-66810.266,-86196.375,-40954.875,-23701.865,-12723.471,-28123.414,-16309.083,-20476.482
1316947.781608602,-66819.5,-86211.914,-40954.43,-23710.654,-12725.058,-28122.479,-16309.652,-20471.883
1316947.785608597,-66815.35,-86199.51,-40948.773,-23694.256,-12715.088,-28126.262,-16316.447,-20476.807
1316947.789608592,-66808.96,-86179.08,-40947.348,-23675.416,-12709.473,-28129.232,-16321.168,-20482.951
1316947.793608587,-66811.484,-86178.96,-40954.02,-23683.31,-12717.367,-28127.85,-16319.743,-20483.684
1316947.7976085818,-66826.055,-86199.18,-40963.992,-23708.984,-12728.923,-28125.57,-16316.936,-20482.87
1316947.801608577,-66830.94,-86206.22,-40963.38,-23714.64,-12726.726,-28124.35,-16315.593,-20483.807
1316947.8056085717,-66817.18,-86188.07,-40953.656,-23695.518,-12711.589,-28125.285,-16316.325,-20486.531
1316947.8096085668,-66804.81,-86165.2,-40947.023,-23677.613,-12701.823,-28126.426,-16315.634,-20488.363
1316947.8136085619,-66804.98,-86163.13,-40950.97,-23681.885,-12711.467,-28125.45,-16311.728,-20481.568
1316947.8176085567,-66814.25,-86183.02,-40959.188,-23704.957,-12722.331,-28124.268,-16307.211,-20472.738
1316947.8216085518,-66820.48,-86196.17,-40958.62,-23713.258,-12720.988,-28125.041,-16305.827,-20473.145
1316947.8256085466,-66813.4,-86181.27,-40949.79,-23692.303,-12708.415,-28125.57,-16307.414,-20476.4
1316947.8296085417,-66807.13,-86158.734,-40946.492,-23673.26,-12703.41,-28127.646,-16309.855,-20478.068
1316947.8336085367,-66814.21,-86161.99,-40952.395,-23678.71,-12713.339,-28127.727,-16308.839,-20474.08
1316947.8376085316,-66825.85,-86181.6,-40959.516,-23702.637,-12721.802,-28125.285,-16307.618,-20471.68
1316947.8416085267,-66833.945,-86193.766,-40960.574,-23710.938,-12721.151,-28124.023,-16310.344,-20476.115
1316947.8456085215,-66834.31,-86188.03,-40959.066,-23694.703,-12714.274,-28127.402,-16316.773,-20485.148
1316947.8496085166,-66827.27,-86170.695,-40956.46,-23677.734,-12710.165,-28130.82,-16321.452,-20490.967
1316947.8536085114,-66831.14,-86171.06,-40961.67,-23686.28,-12718.588,-28131.186,-16319.215,-20487.428
1316947.8576085065,-66846.766,-86194.42,-40969.2,-23709.799,-12728.72,-28127.85,-16312.745,-20479.492
1316947.8616085015,-66850.266,-86202.195,-40968.71,-23715.781,-12725.79,-28126.1,-16309.815,-20478.191
1316947.8656084964,-66839.48,-86184.33,-40960.734,-23697.145,-12712.851,-28127.402,-16309.489,-20480.633
1316947.8696084914,-66825.85,-86158.61,-40954.957,-23676.799,-12705.322,-28126.385,-16308.229,-20480.389
1316947.8736084863,-66828.58,-86159.95,-40961.71,-23684.979,-12715.088,-28125.57,-16305.095,-20477.986
1316947.8776084813,-66843.43,-86184.25,-40971.11,-23708.984,-12727.58,-28125.326,-16302.165,-20472.371
1316947.8816084764,-66850.75,-86195.84,-40970.094,-23715.008,-12726.4,-28125.082,-16301.759,-20471.15
1316947.8856084712,-66846.88,-86183.92,-40963.625,-23697.186,-12715.739,-28129.111,-16308.879,-20478.963
1316947.8896084663,-66840.45,-86164.31,-40958.742,-23678.916,-12712.769,-28135.01,-16316.977,-20487.02
1316947.8936084611,-66843.55,-86165.2,-40963.91,-23685.873,-12725.79,-28136.719,-16317.546,-20485.922
1316947.8976084562,-66857.22,-86193.73,-40973.676,-23712.607,-12737.061,-28133.18,-16310.263,-20477.783
1316947.901608451,-66866.5,-86206.914,-40975.586,-23721.559,-12732.707,-28128.541,-16304.647,-20472.576
1316947.905608446,-66861.25,-86187.95,-40970.215,-23701.254,-12717.57,-28129.436,-16306.764,-20472.656
1316947.9096084412,-66848.516,-86167.28,-40967.49,-23680.746,-12707.764,-28132.895,-16312.541,-20478.395
1316947.913608436,-66852.09,-86167.28,-40972.574,-23687.867,-12715.454,-28133.465,-16312.053,-20480.307
1316947.917608431,-66865.195,-86185.43,-40977.742,-23709.434,-12729.98,-28131.756,-16306.234,-20471.762
1316947.921608426,-66871.91,-86196.375,-40974.895,-23714.723,-12729.858,-28130.006,-16305.583,-20472.656
1316947.925608421,-66866.21,-86185.02,-40967.57,-23696.86,-12718.384,-28130.168,-16311.728,-20481.242
1316947.929608416,-66859.5,-86167.89,-40966.594,-23679.443,-12713.989,-28132.732,-16316.977,-20487.143
1316947.9336084109,-66866.414,-86174.97,-40975.18,-23689.982,-12723.674,-28132.568,-16315.959,-20488.16
1316947.937608406,-66883.1,-86199.914,-40986.94,-23715.21,-12736.9795,-28132.61,-16315.227,-20488.484
1316947.9416084008,-66890.664,-86209.48,-40986.492,-23719.646,-12734.05,-28134.033,-16317.302,-20490.56
1316947.9456083959,-66880.29,-86192.95,-40976.97,-23701.05,-12720.012,-28137.29,-16320.72,-20496.582
1316947.9496083907,-66864.26,-86166.99,-40971.723,-23681.602,-12709.921,-28137.98,-16321.737,-20499.39
1316947.9536083858,-66863.734,-86163.984,-40974.57,-23687.053,-12715.698,-28135.092,-16315.39,-20492.188
