timestamp,Fp1,Fp2,F3,Fz,F4,Cz,Pz,Oz
1316902.6616653292,-54163.086,-85373.375,-38230.062,-22410.768,-10899.333,-27987.59,-16606.527,-20762.492
1316902.6656653243,-54161.867,-85373.82,-38223.31,-22409.1,-10893.311,-27987.428,-16601.766,-20754.436
1316902.6696653191,-54149.457,-85349.57,-38214.113,-22386.436,-10881.104,-27988.525,-16598.512,-20748.21
1316902.6736653142,-54140.504,-85331.18,-38212.445,-22371.299,-10876.506,-27988.77,-16596.72,-20745.361
1316902.677665309,-54148.36,-85342.98,-38221.926,-22388.428,-10888.632,-27987.793,-16592.367,-20741.008
1316902.6816653041,-54160.93,-85370.164,-38227.824,-22413.33,-10897.705,-27985.922,-16589.52,-20737.225
1316902.6856652992,-54162.76,-85372.195,-38225.87,-22411.133,-10891.073,-27984.863,-16589.111,-20736.37
1316902.689665294,-54154.95,-85348.02,-38220.5,-22388.184,-10878.337,-27985.107,-16591.717,-20741.13
1316902.693665289,-54147.504,-85329.19,-38218.465,-22372.682,-10873.169,-27985.88,-16592.855,-20743.572
1316902.697665284,-54151.004,-85339.64,-38227.785,-22388.51,-10885.254,-27984.986,-16592.0,-20741.822
1316902.701665279,-54162.395,-85366.82,-38233.4,-22411.865,-10894.206,-27983.521,-16591.756,-20742.146
1316902.705665274,-54169.598,-85376.55,-38233.93,-22415.406,-10892.009,-27985.84,-16598.023,-20755.291
1316902.709665269,-54162.11,-85356.08,-38228.273,-22394.775,-10882.406,-27988.852,-16604.248,-20764.852
1316902.713665264,-54155.438,-85334.76,-38227.176,-22382.162,-10881.104,-27991.334,-16609.945,-20772.625
1316902.7176652588,-54161.703,-85346.52,-38231.49,-22398.357,-10894.369,-27989.055,-16607.666,-20770.996
1316902.7216652539,-54169.477,-85368.82,-38235.8,-22418.213,-10900.024,-27985.352,-16605.021,-20767.781
1316902.7256652487,-54171.51,-85372.07,-38230.754,-22415.324,-10891.806,-27984.904,-16607.748,-20775.432
1316902.7296652438,-54164.39,-85352.87,-38223.633,-22391.602,-10879.639,-27988.607,-16612.387,-20781.373
1316902.7336652388,-54149.254,-85325.56,-38219.363,-22376.059,-10872.966,-27989.34,-16612.834,-20781.291
1316902.7376652337,-54149.05,-85333.375,-38223.594,-22393.31,-10882.162,-27987.957,-16611.41,-20783.447
1316902.7416652287,-54159.26,-85362.914,-38230.51,-22414.145,-10892.294,-27987.672,-16611.287,-20781.738
1316902.7456652236,-54163.74,-85371.3,-38228.64,-22412.477,-10887.573,-27990.44,-16615.479,-20786.541
1316902.7496652186,-54161.01,-85351.85,-38224.855,-22393.76,-10878.744,-27993.328,-16620.24,-20787.312
1316902.7536652137,-54154.625,-85329.23,-38222.86,-22378.012,-10875.488,-27994.834,-16623.738,-20790.365
1316902.7576652085,-54158.367,-85340.45,-38230.184,-22393.76,-10885.783,-27994.14,-16624.512,-20793.213
1316902.7616652036,-54163.82,-85359.58,-38235.066,-22416.139,-10889.526,-27990.684,-16619.385,-20785.809
1316902.7656651984,-54165.12,-85363.77,-38231.69,-22412.395,-10885.986,-27988.975,-16616.09,-20781.006
1316902.7696651935,-54158.57,-85349.61,-38225.586,-22390.83,-10876.14,-27990.602,-16617.27,-20781.535
1316902.7736651883,-54152.426,-85328.375,-38220.01,-22373.291,-10868.9375,-27991.496,-16612.184,-20774.008
1316902.7776651834,-54155.844,-85334.27,-38223.715,-22387.127,-10880.493,-27988.607,-16602.05,-20762.29
1316902.7816651785,-54164.96,-85357.305,-38229.207,-22412.07,-10889.975,-27986.898,-16594.93,-20749.635
1316902.7856651733,-54162.355,-85354.125,-38223.55,-22408.326,-10881.43,-27986.857,-16593.629,-20745.076
1316902.7896651684,-54155.97,-85336.51,-38216.31,-22388.795,-10874.187,-27989.543,-16594.89,-20744.996
1316902.7936651632,-54150.434,-85318.61,-38216.023,-22376.059,-10868.856,-27990.275,-16595.418,-20743.246
1316902.7976651583,-54157.637,-85326.984,-38222.984,-22392.904,-10878.052,-27986.41,-16592.244,-20735.84
1316902.8016651534,-54170.695,-85354.86,-38226.156,-22418.621,-10885.295,-27983.115,-16589.275,-20731.201
1316902.8056651482,-54173.42,-85360.805,-38224.12,-22417.074,-10879.965,-27982.666,-16590.21,-20733.318
1316902.8096651433,-54165.082,-85340.45,-38218.14,-22394.328,-10872.478,-27985.719,-16596.232,-20738.078
1316902.813665138,-54155.76,-85320.88,-38213.582,-22377.809,-10867.88,-27989.666,-16602.01,-20743.49
1316902.8176651332,-54159.547,-85329.47,-38218.914,-22394.248,-10876.669,-27989.584,-16606.486,-20747.723
1316902.821665128,-54172.812,-85356.94,-38223.96,-22420.695,-10891.968,-27988.322,-16610.596,-20753.5
1316902.825665123,-54175.336,-85362.15,-38219.523,-22421.348,-10888.632,-27987.549,-16614.543,-20761.395
1316902.8296651181,-54165.57,-85337.484,-38212.89,-22397.584,-10875.937,-27988.12,-16619.426,-20771.12
1316902.833665113,-54161.46,-85318.08,-38213.38,-22380.535,-10870.646,-27988.934,-16623.088,-20779.582
1316902.837665108,-54172.812,-85333.87,-38223.227,-22395.996,-10883.871,-27988.525,-16621.338,-20780.396
1316902.8416651029,-54186.32,-85357.83,-38228.152,-22421.021,-10890.219,-27985.312,-16615.602,-20777.996
1316902.845665098,-54189.66,-85362.43,-38224.45,-22422.771,-10883.22,-27986.207,-16615.398,-20782.105
1316902.849665093,-54181.6,-85344.04,-38218.59,-22400.39,-10873.21,-27989.178,-16618.572,-20787.68
1316902.8536650878,-54174.93,-85324.95,-38217.9,-22384.889,-10870.85,-27992.717,-16619.508,-20789.307
1316902.857665083,-54181.723,-85340.01,-38226.89,-22401.775,-10885.254,-27992.229,-16616.008,-20783.773
1316902.8616650777,-54196.008,-85368.86,-38233.113,-22428.102,-10899.496,-27990.072,-16611.695,-20778.605
1316902.8656650728,-54194.785,-85371.38,-38226.074,-22426.84,-10895.346,-27987.63,-16608.602,-20774.17
1316902.8696650676,-54183.188,-85346.03,-38217.855,-22403.525,-10879.069,-27989.463,-16606.242,-20769.002
1316902.8736650627,-54173.707,-85323.24,-38215.17,-22388.389,-10869.507,-27989.707,-16603.639,-20761.8
1316902.8776650578,-54177.492,-85333.336,-38220.46,-22406.414,-10879.965,-27989.34,-16601.807,-20758.22
1316902.8816650526,-54188.234,-85356.37,-38226.277,-22432.373,-10887.167,-27987.51,-16597.82,-20750.57
1316902.8856650477,-54194.99,-85363.2,-38224.938,-22432.334,-10882.202,-27987.428,-16597.86,-20746.95
1316902.8896650425,-54192.18,-85349.086,-38220.297,-22410.4,-10872.111,-27991.496,-16600.465,-20751.629
1316902.8936650376,-54188.805,-85335.9,-38220.867,-22393.88,-10869.141,-27994.71,-16605.104,-20759.236
1316902.8976650327,-54192.547,-85345.38,-38225.547,-22408.082,-10881.592,-27993.043,-16603.557,-20753.865
1316902.9016650275,-54199.953,-85364.664,-38230.957,-22431.682,-10890.544,-27990.234,-16599.691,-20747.885
1316902.9056650226,-54203.613,-85368.82,-38227.785,-22434.123,-10884.888,-27990.52,-16597.9,-20747.518
1316902.9096650174,-54197.473,-85350.016,-38223.145,-22413.371,-10873.332,-27992.188,-16599.406,-20745.32
1316902.9136650125,-54186.77,-85326.58,-38221.844,-22397.87,-10871.42,-27991.62,-16598.877,-20745.932
1316902.9176650075,-54189.74,-85335.66,-38226.605,-22415.65,-10887.126,-27986.572,-16592.488,-20740.805
1316902.9216650024,-54204.957,-85365.484,-38231.812,-22439.82,-10901.489,-27982.463,-16588.014,-20735.027
1316902.9256649974,-54207.848,-85370.61,-38229.004,-22441.488,-10899.252,-27983.887,-16591.268,-20740.072
1316902.9296649923,-54196.535,-85346.68,-38220.055,-22418.213,-10885.905,-27984.66,-16597.127,-20751.22
1316902.9336649873,-54191.0,-85329.71,-38221.805,-22402.832,-10883.017,-27986.816,-16601.807,-20755.127
1316902.9376649822,-54199.3,-85346.27,-38231.57,-22421.021,-10897.746,-27987.021,-16600.994,-20751.22
1316902.9416649772,-54214.438,-85378.5,-38237.633,-22447.918,-10908.447,-27986.898,-16598.145,-20748.738
1316902.9456649723,-54212.934,-85378.3,-38231.363,-22445.639,-10897.665,-27986.045,-16597.86,-20753.377
1316902.9496649671,-54199.26,-85352.26,-38225.06,-22419.598,-10880.9,-27989.34,-16605.795,-20764.201
1316902.9536649622,-54191.53,-85330.33,-38225.586,-22402.955,-10875.732,-27992.637,-16611.613,-20774.496
1316902.957664957,-54200.117,-85346.93,-38233.727,-22420.004,-10890.341,-27991.822,-16609.742,-20778.28
1316902.961664952,-54216.39,-85379.4,-38239.91,-22445.15,-10903.198,-27989.38,-16607.098,-20777.303
1316902.9656649472,-54227.133,-85387.33,-38239.664,-22447.754,-10900.1875,-27989.666,-16607.342,-20777.629
1316902.969664942,-54224.69,-85367.31,-38235.84,-22426.393,-10887.533,-27992.393,-16610.516,-20784.383
1316902.973664937,-54211.47,-85343.38,-38230.062,-22409.262,-10882.772,-27995.77,-16611.775,-20783.488
1316902.977664932,-54208.336,-85347.82,-38234.133,-22426.025,-10895.102,-27993.734,-16605.104,-20769.531
1316902.981664927,-54215.617,-85367.88,-38237.67,-22448.61,-10902.344,-27988.242,-16597.412,-20760.986
1316902.9856649218,-54214.52,-85370.12,-38230.67,-22448.568,-10893.921,-27985.516,-16591.268,-20751.832
1316902.9896649169,-54207.24,-85353.516,-38222.086,-22427.816,-10885.864,-27986.084,-16591.35,-20749.39
1316902.993664912,-54199.18,-85334.72,-38221.19,-22413.371,-10880.087,-27986.613,-16592.938,-20746.826
1316902.9976649068,-54197.676,-85340.414,-38226.605,-22429.852,-10888.103,-27987.754,-16595.094,-20749.959
1316903.0016649019,-54207.805,-85363.484,-38231.527,-22453.818,-10901.164,-27984.457,-16593.22,-20747.803
1316903.0056648967,-54214.03,-85371.26,-38233.113,-22456.91,-10897.014,-27983.033,-16593.67,-20748.21
1316903.0096648918,-54204.957,-85347.25,-38229.332,-22435.344,-10883.057,-27984.783,-16598.268,-20755.168
1316903.0136648868,-54195.477,-85325.73,-38224.652,-22417.074,-10876.059,-27987.793,-16600.18,-20759.156
1316903.0176648817,-54198.082,-85337.77,-38230.47,-22429.688,-10883.017,-27987.305,-16597.78,-20756.268
1316903.0216648767,-54211.914,-85363.125,-38232.586,-22451.092,-10891.398,-27986.248,-16594.646,-20750.611
1316903.0256648716,-54219.89,-85370.85,-38231.285,-22453.654,-10891.439,-27986.613,-16594.28,-20746.42
1316903.0296648666,-54219.2,-85357.266,-38227.824,-22436.729,-10883.383,-27986.533,-16596.232,-20747.355
1316903.0336648615,-54216.676,-85340.45,-38227.785,-22421.713,-10879.069,-27986.084,-16595.174,-20748.25
1316903.0376648565,-54223.715,-85352.13,-38236.86,-22439.414,-10891.968,-27983.521,-16589.438,-20746.297
1316903.0416648516,-54234.297,-85377.2,-38243.246,-22464.275,-10902.995,-27980.266,-16585.164,-20744.67
1316903.0456648464,-54237.51,-85382.77,-38241.293,-22463.908,-10900.961,-27980.104,-16584.92,-20746.908
1316903.0496648415,-54231.855,-85365.36,-38234.54,-22442.588,-10893.596,-27984.498,-16589.6,-20752.197
1316903.0536648363,-54225.26,-85349.77,-38231.406,-22424.684,-10886.963,-27987.793,-16595.297,-20762.166
1316903.0576648314,-54227.99,-85360.6,-38239.22,-22438.314,-10892.741,-27987.346,-16596.639,-20764.648
1316903.0616648265,-54238.242,-85385.99,-38246.543,-22462.646,-10905.437,-27985.922,-16595.174,-20763.104
1316903.0656648213,-54240.684,-85392.78,-38241.54,-22461.793,-10898.926,-27986.94,-16594.523,-20762.86
1316903.0696648164,-54232.26,-85369.836,-38231.65,-22439.453,-10884.888,-27987.63,-16593.994,-20763.428
1316903.0736648112,-54222.332,-85344.89,-38227.215,-22420.127,-10880.168,-27987.713,-16591.473,-20758.424
1316903.0776648063,-54223.145,-85352.26,-38230.754,-22434.775,-10892.131,-27984.66,-16587.688,-20754.436
1316903.081664801,-54232.016,-85378.91,-38233.44,-22462.607,-10899.984,-27983.033,-16585.205,-20751.709
1316903.0856647962,-54234.945,-85385.5,-38229.574,-22466.879,-10896.566,-27981.04,-16584.27,-20750.447
1316903.0896647912,-54230.918,-85369.914,-38226.97,-22447.389,-10888.428,-27981.854,-16588.094,-20755.982
1316903.093664786,-54226.77,-85354.49,-38225.465,-22431.479,-10886.801,-27981.242,-16587.281,-20752.727
1316903.0976647811,-54233.645,-85372.6,-38233.523,-22448.203,-10902.263,-27979.818,-16583.13,-20749.432
1316903.101664776,-54244.426,-85398.6,-38238.242,-22472.291,-10912.639,-27975.627,-16575.195,-20736.451
1316903.105664771,-54249.88,-85396.89,-38238.2,-22475.953,-10905.029,-27976.768,-16575.074,-20733.113
1316903.1096647661,-54236.816,-85367.516,-38234.906,-22451.621,-10888.754,-27980.713,-16580.69,-20742.107
1316903.113664761,-54227.418,-85344.484,-38232.586,-22430.299,-10879.3545,-27982.26,-16581.258,-20742.352
1316903.117664756,-54234.457,-85353.15,-38238.61,-22447.877,-10885.986,-27980.957,-16576.58,-20732.625
1316903.1216647509,-54241.906,-85378.18,-38241.293,-22477.295,-10898.479,-27976.768,-16569.256,-20725.953
1316903.125664746,-54242.11,-85388.23,-38235.35,-22479.86,-10899.699,-27977.133,-16568.318,-20727.824
1316903.1296647408,-54229.617,-85367.76,-38224.855,-22455.201,-10887.492,-27980.592,-16573.121,-20735.88
1316903.1336647358,-54223.594,-85348.19,-38225.71,-22438.885,-10884.888,-27983.887,-16578.328,-20740.234
1316903.137664731,-54232.18,-85360.76,-38234.703,-22455.81,-10900.635,-27982.219,-16579.266,-20742.514
1316903.1416647257,-54246.664,-85386.56,-38237.996,-22479.453,-10909.14,-27979.697,-16575.36,-20739.178
1316903.1456647208,-54253.95,-85397.016,-38237.305,-22481.73,-10903.361,-27979.777,-16573.242,-20740.113
1316903.1496647156,-54245.605,-85379.805,-38231.85,-22460.49,-10890.219,-27984.213,-16577.027,-20747.559
1316903.1536647107,-54236.492,-85359.78,-38228.11,-22444.662,-10885.661,-27985.393,-16579.06,-20751.588
1316903.1576647058,-54238.566,-85367.11,-38234.99,-22456.096,-10893.718,-27981.324,-16575.195,-20742.432
1316903.1616647006,-54246.34,-85383.95,-38239.625,-22478.312,-10901.53,-27976.562,-16567.342,-20728.719
1316903.1656646957,-54245.934,-85385.17,-38234.01,-22479.127,-10900.351,-27975.912,-16564.982,-20731.893
1316903.1696646905,-54233.074,-85366.91,-38223.145,-22458.984,-10889.812,-27978.027,-16567.586,-20736.166
1316903.1736646856,-54223.188,-85346.84,-38217.53,-22440.674,-10888.835,-27976.97,-16566.162,-20732.79
1316903.1776646804,-54233.4,-85359.984,-38226.645,-22456.625,-10903.158,-27974.326,-16560.1,-20724.0
1316903.1816646755,-54253.625,-85389.57,-38237.062,-22483.195,-10911.865,-27971.64,-16555.014,-20717.652
1316903.1856646705,-54254.965,-85392.13,-38234.215,-22482.342,-10903.769,-27971.152,-16556.723,-20717.855
1316903.1896646654,-54236.125,-85366.26,-38224.527,-22458.822,-10884.97,-27974.285,-16562.053,-20721.68
1316903.1936646604,-54227.215,-85349.57,-38223.55,-22444.092,-10880.087,-27975.506,-16562.135,-20719.28
1316903.1976646553,-54231.855,-85358.65,-38229.207,-22457.275,-10888.591,-27973.47,-16556.275,-20710.693
1316903.2016646503,-54241.984,-85381.02,-38233.93,-22482.219,-10899.211,-27971.6,-16551.922,-20704.184
1316903.2056646454,-54242.188,-85384.4,-38227.01,-22482.951,-10896.566,-27970.012,-16552.205,-20700.318
1316903.2096646402,-54236.98,-85367.59,-38218.75,-22464.355,-10885.092,-27972.373,-16556.764,-20704.754
1316903.2136646353,-54240.074,-85359.46,-38220.055,-22452.068,-10886.76,-27977.256,-16562.623,-20707.846
1316903.2176646302,-54244.47,-85370.41,-38222.37,-22463.543,-10896.688,-27975.18,-16561.523,-20708.252
1316903.2216646252,-54252.28,-85392.7,-38222.902,-22484.945,-10907.1045,-27971.518,-16557.21,-20699.951
1316903.2256646203,-54257.246,-85403.04,-38217.53,-22486.98,-10905.884,-27971.03,-16559.041,-20701.66
1316903.2296646151,-54260.5,-85395.35,-38213.707,-22467.734,-10896.322,-27970.053,-16559.611,-20702.557
1316903.2336646102,-54261.516,-85384.93,-38213.055,-22451.904,-10891.765,-27970.094,-16559.49,-20704.549
1316903.237664605,-54272.95,-85400.59,-38223.594,-22469.482,-10902.751,-27968.914,-16558.514,-20703.248
1316903.2416646,-54292.117,-85436.04,-38233.93,-22495.688,-10916.504,-27965.088,-16554.443,-20698.08
1316903.245664595,-54304.445,-85455.164,-38233.523,-22500.285,-10914.348,-27963.176,-16552.002,-20696.697
1316903.24966459,-54300.54,-85438.195,-38229.29,-22481.324,-10900.31,-27963.096,-16552.693,-20701.13
1316903.253664585,-54295.492,-85415.94,-38225.668,-22461.914,-10892.497,-27960.734,-16548.463,-20693.4
1316903.25766458,-54305.79,-85430.95,-38232.098,-22475.994,-10903.809,-27956.992,-16541.586,-20683.553
1316903.261664575,-54319.543,-85457.805,-38237.996,-22500.896,-10912.639,-27952.637,-16533.162,-20673.951
1316903.2656645698,-54324.26,-85468.875,-38234.54,-22504.72,-10909.994,-27949.79,-16526.855,-20665.527
1316903.2696645649,-54323.285,-85457.64,-38228.11,-22486.41,-10905.3955,-27951.254,-16526.45,-20664.592
1316903.27366456,-54319.824,-85439.375,-38225.71,-22469.688,-10899.13,-27952.11,-16527.344,-20667.521
1316903.2776645548,-54325.277,-85451.78,-38231.773,-22482.26,-10907.023,-27950.36,-16524.537,-20663.941
1316903.2816645498,-54346.273,-85481.41,-38238.65,-22507.53,-10917.399,-27948.121,-16522.502,-20660.36
1316903.2856645447,-54363.812,-85498.5,-38237.996,-22511.76,-10920.858,-27947.021,-16523.275,-20662.03
1316903.2896645397,-54362.1,-85486.01,-38233.97,-22491.496,-10910.889,-27951.295,-16526.855,-20665.812
1316903.2936645346,-54360.07,-85473.76,-38232.992,-22475.627,-10907.471,-27951.377,-16526.002,-20661.906
1316903.2976645296,-54374.88,-85495.04,-38240.766,-22492.025,-10920.044,-27948.324,-16521.322,-20656.17
1316903.3016645247,-54388.43,-85521.734,-38246.625,-22516.766,-10929.037,-27943.482,-16513.55,-20649.252
1316903.3056645195,-54396.77,-85531.78,-38247.56,-22519.613,-10925.456,-27942.424,-16513.307,-20648.031
1316903.3096645146,-54394.29,-85517.055,-38241.863,-22498.535,-10914.47,-27944.621,-16515.422,-20650.31
1316903.3136645094,-54389.773,-85500.77,-38240.438,-22483.115,-10908.163,-27944.744,-16515.951,-20652.914
1316903.3176645045,-54394.74,-85508.14,-38245.523,-22495.2,-10918.457,-27940.756,-16509.033,-20650.188
1316903.3216644996,-54407.797,-85535.2,-38252.2,-22520.957,-10930.827,-27937.988,-16505.371,-20647.176
1316903.3256644944,-54412.926,-85543.87,-38250.613,-22523.926,-10926.147,-27937.664,-16506.104,-20648.52
1316903.3296644895,-54408.0,-85528.0,-38243.652,-22501.914,-10917.603,-27940.43,-16511.639,-20654.623
1316903.3336644843,-54403.77,-85513.555,-38239.79,-22484.904,-10914.348,-27942.059,-16517.66,-20660.93
1316903.3376644794,-54410.85,-85524.46,-38247.152,-22499.35,-10927.368,-27942.871,-16520.223,-20665.975
1316903.3416644742,-54424.195,-85551.84,-38252.645,-22523.357,-10938.192,-27940.186,-16517.375,-20665.162
1316903.3456644693,-54429.363,-85562.3,-38250.895,-22526.328,-10932.373,-27940.064,-16517.01,-20666.586
1316903.3496644644,-54422.977,-85542.89,-38244.996,-22502.035,-10916.22,-27942.18,-16519.043,-20670.125
1316903.3536644592,-54421.836,-85525.8,-38245.566,-22486.045,-10911.052,-27944.297,-16521.852,-20674.398
1316903.3576644543,-54440.758,-85557.3,-38259.277,-22505.738,-10932.78,-27944.377,-16518.637,-20669.88
1316903.361664449,-54464.152,-85600.43,-38269.656,-22532.553,-10948.08,-27940.146,-16512.574,-20663.209
1316903.3656644442,-54449.22,-85580.24,-38263.836,-22525.84,-10933.513,-27938.07,-16510.742,-20658.326
1316903.3696644392,-54429.12,-85544.88,-38253.215,-22498.74,-10916.342,-27940.959,-16509.277,-20651.246
1316903.373664434,-54430.504,-85533.0,-38251.832,-22483.521,-10913.696,-27940.227,-16502.727,-20646.078
1316903.3776644291,-54442.02,-85547.33,-38259.645,-22501.14,-10926.514,-27937.053,-16495.037,-20634.318
1316903.381664424,-54453.9,-85573.81,-38263.023,-22526.531,-10935.019,-27932.414,-16487.916,-20622.396
1316903.385664419,-54453.492,-85576.336,-38256.51,-22527.182,-10927.856,-27932.21,-16486.492,-20616.943
1316903.3896644139,-54448.082,-85560.75,-38251.59,-22506.674,-10915.976,-27936.28,-16492.596,-20626.588
1316903.393664409,-54450.848,-85550.09,-38250.082,-22490.684,-10914.104,-27936.035,-16496.42,-20631.062
1316903.397664404,-54460.004,-85562.83,-38256.39,-22504.111,-10923.096,-27934.205,-16496.176,-20632.771
1316903.4016643988,-54474.61,-85590.91,-38264.285,-22529.908,-10934.896,-27932.373,-16493.896,-20633.424
1316903.405664394,-54478.723,-85599.86,-38264.12,-22533.041,-10933.105,-27931.193,-16492.555,-20632.691
1316903.4096643887,-54470.38,-85579.1,-38260.54,-22510.947,-10921.265,-27933.838,-16497.559,-20643.475
1316903.4136643838,-54468.305,-85560.59,-38261.19,-22496.623,-10918.01,-27935.588,-16500.611,-20649.578
1316903.4176643789,-54476.523,-85572.76,-38270.1,-22508.953,-10927.694,-27933.105,-16496.826,-20644.734
1316903.4216643737,-54489.098,-85600.34,-38276.285,-22532.512,-10938.64,-27930.137,-16491.293,-20638.957
1316903.4256643688,-54495.605,-85610.4,-38274.17,-22536.459,-10935.425,-27930.258,-16489.91,-20637.574
1316903.4296643636,-54487.957,-85588.87,-38266.24,-22516.318,-10925.903,-27931.193,-16490.967,-20636.719
1316903.4336643587,-54481.285,-85565.76,-38263.348,-22497.52,-10920.898,-27933.635,-16494.1,-20638.266
1316903.4376643535,-54487.023,-85573.77,-38267.336,-22507.61,-10934.164,-27932.21,-16493.979,-20636.434
1316903.4416643486,-54498.375,-85605.02,-38272.3,-22534.629,-10948.405,-27930.99,-16491.943,-20631.674
1316903.4456643437,-54502.16,-85617.92,-38266.887,-22538.494,-10946.249,-27930.137,-16489.705,-20628.338
1316903.4496643385,-54501.1,-85606.65,-38262.086,-22519.004,-10937.948,-27933.635,-16492.799,-20629.842
1316903.4536643336,-54495.363,-85587.04,-38258.3,-22500.855,-10931.56,-27935.832,-16496.217,-20632.0
1316903.4576643284,-54498.17,-85588.95,-38263.266,-22513.713,-10938.965,-27933.473,-16496.541,-20632.771
1316903.4616643235,-54511.8,-85617.15,-38272.055,-22537.639,-10947.266,-27932.09,-16495.646,-20630.982
1316903.4656643185,-54519.004,-85627.04,-38275.39,-22540.162,-10942.953,-27933.92,-16497.762,-20633.953
1316903.4696643134,-54512.777,-85606.85,-38271.242,-22517.254,-10929.484,-27935.303,-16501.424,-20640.584
1316903.4736643084,-54506.96,-85587.61,-38269.53,-22500.488,-10927.734,-27936.768,-16502.117,-20640.219
1316903.4776643033,-54510.785,-85595.83,-38275.516,-22515.91,-10939.779,-27934.938,-16496.053,-20634.562
1316903.4816642983,-54520.02,-85622.73,-38280.52,-22544.11,-10953.654,-27932.658,-16491.943,-20629.924
1316903.4856642934,-54521.324,-85632.77,-38276.004,-22546.266,-10950.155,-27930.664,-16489.95,-20627.686
1316903.4896642882,-54511.8,-85610.84,-38267.703,-22522.543,-10933.472,-27930.625,-16490.316,-20629.639
1316903.4936642833,-54504.19,-85586.875,-38264.812,-22504.762,-10927.694,-27931.316,-16493.287,-20631.592
1316903.4976642781,-54510.742,-85596.4,-38272.664,-22518.88,-10939.291,-27928.996,-16491.62,-20626.668
1316903.5016642732,-54524.58,-85626.914,-38280.805,-22544.354,-10955.16,-27926.596,-16486.695,-20619.467
1316903.505664268,-54529.992,-85638.39,-38279.83,-22547.73,-10955.038,-27926.596,-16487.672,-20622.314
1316903.509664263,-54523.36,-85620.08,-38275.23,-22525.799,-10942.546,-27927.857,-16491.049,-20629.803
1316903.5136642582,-54518.76,-85601.445,-38274.414,-22509.4,-10937.134,-27928.71,-16492.352,-20633.586
1316903.517664253,-54524.375,-85609.42,-38280.926,-22523.357,-10949.341,-27927.207,-16489.502,-20627.156
1316903.521664248,-54532.105,-85632.445,-38283.938,-22547.771,-10962.199,-27926.352,-16488.322,-20624.146
1316903.525664243,-54534.387,-85640.22,-38278.605,-22551.31,-10955.485,-27925.945,-16487.225,-20622.803
1316903.529664238,-54527.914,-85622.56,-38271.812,-22530.355,-10944.784,-27929.322,-16489.87,-20623.738
1316903.533664233,-54520.348,-85601.32,-38266.48,-22511.068,-10938.965,-27931.152,-16491.578,-20628.133
1316903.537664228,-54520.633,-85605.1,-38271.688,-22520.305,-10947.673,-27931.52,-16490.805,-20628.582
1316903.541664223,-54530.48,-85631.19,-38279.664,-22545.207,-10955.322,-27931.234,-16489.746,-20625.285
1316903.5456642178,-54536.34,-85640.14,-38278.65,-22546.307,-10949.789,-27929.404,-16490.234,-20626.059
1316903.5496642129,-54529.297,-85622.6,-38273.562,-22524.09,-10936.117,-27931.682,-16491.252,-20630.818
1316903.5536642077,-54526.695,-85603.234,-38272.3,-22506.268,-10930.664,-27930.584,-16490.967,-20630.127
1316903.5576642028,-54543.297,-85623.82,-38285.156,-22522.178,-10949.545,-27926.107,-16486.248,-20626.385
1316903.5616641978,-54559.043,-85657.11,-38293.01,-22550.416,-10961.955,-27924.357,-16483.48,-20623.414
1316903.5656641927,-54543.54,-85651.49,-38282.51,-22552.451,-10951.701,-27925.945,-16485.88,-20619.752
1316903.5696641877,-54521.16,-85617.35,-38267.78,-22528.564,-10935.547,-27927.613,-16490.602,-20623.535
1316903.5736641826,-54517.703,-85601.36,-38263.51,-22507.812,-10935.303,-27928.63,-16493.367,-20628.256
1316903.5776641776,-54527.266,-85616.664,-38270.184,-22520.713,-10950.073,-27927.775,-16489.422,-20625.773
1316903.5816641727,-54544.19,-85647.87,-38276.816,-22544.719,-10962.565,-27925.701,-16488.281,-20623.129
1316903.5856641675,-54548.465,-85654.5,-38272.38,-22545.94,-10959.514,-27924.643,-16489.096,-20624.146
1316903.5896641626,-54541.668,-85635.26,-38268.27,-22527.426,-10948.853,-27926.719,-16493.328,-20635.01
1316903.5936641574,-54534.223,-85615.08,-38266.52,-22509.848,-10939.982,-27928.143,-16493.896,-20634.766
1316903.5976641525,-54536.906,-85621.22,-38274.21,-22520.508,-10946.289,-27926.107,-16489.95,-20625.611
1316903.6016641473,-54543.703,-85640.42,-38279.625,-22544.719,-10952.597,-27923.545,-16484.457,-20618.328
1316903.6056641424,-54545.617,-85648.64,-38274.58,-22545.818,-10948.446,-27923.463,-16483.236,-20614.46
1316903.6096641375,-54540.0,-85631.39,-38267.457,-22524.658,-10938.07,-27924.887,-16487.102,-20619.793
1316903.6136641323,-54534.26,-85610.15,-38265.87,-22508.424,-10935.059,-27929.12,-16492.717,-20628.094
1316903.6176641274,-54539.758,-85619.59,-38272.867,-22523.602,-10945.395,-27929.852,-16494.71,-20628.053
1316903.6216641222,-54551.15,-85647.75,-38278.484,-22549.643,-10958.456,-27928.346,-16492.758,-20619.06
1316903.6256641173,-54550.133,-85651.21,-38274.78,-22549.602,-10955.811,-27928.752,-16493.979,-20617.84
1316903.6296641123,-54540.164,-85629.03,-38268.027,-22527.832,-10942.627,-27931.357,-16500.408,-20630.86
1316903.6336641072,-54533.938,-85606.77,-38267.336,-22507.365,-10932.699,-27931.56,-16503.094,-20634.93
1316903.6376641023,-54535.89,-85613.37,-38275.105,-22520.875,-10943.604,-27931.275,-16502.809,-20633.22
1316903.641664097,-54544.355,-85640.305,-38280.887,-22544.883,-10959.351,-27929.24,-16496.746,-20623.291
1316903.6456640922,-54547.363,-85652.02,-38278.77,-22549.602,-10957.683,-27926.678,-16490.926,-20617.432
1316903.649664087,-54544.312,-85636.15,-38274.17,-22531.738,-10943.889,-27929.037,-16494.832,-20625.367
1316903.653664082,-54536.094,-85613.69,-38270.1,-22513.754,-10938.925,-27932.008,-16499.188,-20630.25
1316903.6576640771,-54538.086,-85620.69,-38270.957,-22521.201,-10947.714,-27928.02,-16493.775,-20620.281
1316903.661664072,-54552.453,-85650.35,-38275.594,-22546.428,-10963.501,-27926.27,-16490.52,-20616.496
1316903.665664067,-54555.625,-85658.2,-38273.355,-22551.637,-10960.531,-27927.002,-16491.863,-20620.402
1316903.6696640619,-54548.75,-85639.08,-38265.75,-22531.494,-10948.364,-27929.078,-16494.02,-20623.861
1316903.673664057,-54540.164,-85615.484,-38262.777,-22510.377,-10942.587,-27931.152,-16497.314,-20628.826
1316903.677664052,-54541.465,-85619.19,-38269.492,-22524.21,-10954.265,-27929.729,-16495.932,-20622.03
1316903.6816640468,-54552.613,-85644.01,-38276.492,-22547.893,-10963.623,-27926.352,-16491.414,-20613.484
1316903.685664042,-54552.777,-85649.945,-38275.39,-22549.033,-10956.015,-27925.213,-16489.096,-20611.816
1316903.6896640367,-54547.285,-85628.95,-38269.41,-22525.596,-10941.528,-27925.62,-16489.828,-20613.445
1316903.6936640318,-54539.633,-85605.35,-38264.934,-22505.332,-10935.425,-27925.781,-16490.723,-20615.438
1316903.6976640266,-54540.895,-85610.76,-38268.92,-22516.154,-10942.709,-27925.904,-16486.98,-20609.783
1316903.7016640217,-54554.324,-85639.33,-38275.516,-22543.986,-10959.555,-27926.963,-16485.76,-20609.701
1316903.7056640168,-54562.42,-85649.82,-38273.074,-22549.316,-10957.846,-27925.945,-16487.508,-20612.469
1316903.7096640116,-54559.207,-85633.1,-38267.215,-22526.855,-10943.481,-27928.184,-16490.398,-20617.31
1316903.7136640067,-54554.688,-85613.77,-38267.945,-22510.254,-10937.134,-27930.664,-16491.334,-20619.71
1316903.7176640015,-54559.207,-85625.41,-38273.887,-22523.52,-10948.446,-27930.137,-16487.713,-20613.16
1316903.7216639966,-54565.797,-85642.945,-38278.89,-22547.486,-10959.392,-27928.59,-16486.166,-20613.566
1316903.7256639916,-54566.938,-85646.61,-38279.297,-22552.043,-10954.224,-27929.932,-16488.77,-20616.578
1316903.7296639865,-54558.84,-85630.05,-38270.305,-22530.273,-10943.237,-27929.078,-16489.91,-20617.596
1316903.7336639815,-54548.3,-85607.625,-38264.65,-22508.18,-10940.227,-27928.71,-16493.693,-20620.402
1316903.7376639764,-54548.383,-85609.74,-38269.45,-22517.578,-10947.429,-27927.94,-16489.87,-20613.607
1316903.7416639715,-54555.746,-85629.56,-38272.992,-22543.174,-10956.625,-27926.922,-16486.572,-20612.752
1316903.7456639665,-54559.57,-85642.055,-38270.223,-22546.428,-10950.969,-27925.66,-16485.76,-20611.572
1316903.7496639614,-54555.34,-85628.055,-38265.016,-22526.408,-10942.017,-27926.514,-16484.783,-20609.783
1316903.7536639564,-54549.6,-85606.9,-38262.37,-22507.773,-10937.785,-27927.94,-16486.775,-20614.502
1316903.7576639513,-54553.633,-85612.39,-38267.293,-22519.084,-10946.493,-27925.701,-16486.084,-20614.584
1316903.7616639463,-54562.42,-85635.945,-38268.92,-22542.889,-10957.357,-27923.26,-16482.625,-20604.33
1316903.7656639412,-54567.547,-85644.086,-38267.863,-22549.887,-10953.207,-27923.584,-16483.195,-20602.865
1316903.7696639362,-54561.566,-85628.99,-38260.945,-22531.17,-10939.697,-27926.596,-16486.451,-20609.334
1316903.7736639313,-54549.4,-85605.31,-38257.977,-22510.947,-10931.804,-27926.678,-16487.793,-20609.457
1316903.7776639261,-54552.492,-85614.1,-38266.277,-22519.451,-10942.424,-27924.357,-16484.13,-20606.854
1316903.7816639212,-54563.273,-85640.625,-38272.707,-22545.574,-10953.044,-27921.998,-16480.062,-20600.83
1316903.785663916,-54564.902,-85646.61,-38270.062,-22549.357,-10949.667,-27922.607,-16480.266,-20601.848
1316903.789663911,-54556.562,-85627.24,-38263.918,-22526.205,-10936.401,-27924.805,-16483.807,-20608.44
1316903.7936639062,-54547.242,-85605.19,-38260.785,-22506.553,-10931.479,-27927.613,-16487.264,-20613.078
1316903.797663901,-54548.625,-85611.33,-38265.91,-22516.928,-10940.715,-27927.979,-16484.54,-20608.521
1316903.801663896,-54562.38,-85640.26,-38272.992,-22542.115,-10952.597,-27925.01,-16480.145,-20601.645
1316903.805663891,-54569.133,-85651.0,-38270.836,-22547.771,-10952.8,-27925.701,-16481.404,-20604.98
1316903.809663886,-54562.38,-85630.29,-38261.8,-22526.205,-10940.593,-27927.531,-16484.213,-20606.324
1316903.8136638808,-54556.113,-85611.49,-38258.383,-22507.0,-10934.814,-27928.834,-16485.23,-20604.004
1316903.8176638759,-54560.223,-85620.2,-38262.332,-22514.73,-10946.696,-27924.44,-16480.389,-20594.727
1316903.821663871,-54570.355,-85644.086,-38265.625,-22534.832,-10960.856,-27921.51,-16476.033,-20588.055
1316903.8256638658,-54572.348,-85650.19,-38262.047,-22542.48,-10961.182,-27922.242,-16475.83,-20589.885
1316903.8296638608,-54565.227,-85629.31,-38256.51,-22522.258,-10944.052,-27924.56,-16478.312,-20597.412
1316903.8336638557,-54560.14,-85607.95,-38256.676,-22506.227,-10937.053,-27927.94,-16482.3,-20606.283
1316903.8376638507,-54564.863,-85619.02,-38263.633,-22520.305,-10946.005,-27930.625,-16481.854,-20606.16
1316903.8416638458,-54572.797,-85641.52,-38270.426,-22544.598,-10956.95,-27929.973,-16478.719,-20600.994
1316903.8456638406,-54577.11,-85646.81,-38270.145,-22545.86,-10954.997,-27930.95,-16481.61,-20606.445
1316903.8496638357,-54568.645,-85625.57,-38261.965,-22522.217,-10940.878,-27932.617,-16485.637,-20611.328
1316903.8536638306,-54558.27,-85599.77,-38257.652,-22501.385,-10932.78,-27935.629,-16491.455,-20617.27
1316903.8576638256,-54561.605,-85604.21,-38263.51,-22510.459,-10940.593,-27935.303,-16489.625,-20611.451
1316903.8616638205,-54571.496,-85628.336,-38269.9,-22534.873,-10951.864,-27932.373,-16484.01,-20603.557
1316903.8656638155,-54579.023,-85639.65,-38269.207,-22541.22,-10946.086,-27931.396,-16482.422,-20605.55
1316903.8696638106,-54583.54,-85630.66,-38268.027,-22520.752,-10938.965,-27931.682,-16482.707,-20609.01
1316903.8736638054,-54586.223,-85622.4,-38265.79,-22506.145,-10939.779,-27930.299,-16482.178,-20608.398
1316903.8776638005,-54569.95,-85618.414,-38263.387,-22514.73,-10948.527,-27930.664,-16481.201,-20604.086
1316903.8816637953,-54562.297,-85627.04,-38260.094,-22535.4,-10961.467,-27928.467,-16475.709,-20596.883
1316903.8856637904,-54572.266,-85643.84,-38259.156,-22542.889,-10963.501,-27928.346,-16474.568,-20595.826
1316903.8896637855,-54571.086,-85629.73,-38253.746,-22525.799,-10948.324,-27927.572,-16475.912,-20598.633
1316903.8936637803,-54564.78,-85609.26,-38252.93,-22507.244,-10943.319,-27929.12,-16477.824,-20600.057
1316903.8976637754,-54566.652,-85611.695,-38259.195,-22517.13,-10952.434,-27928.59,-16477.662,-20600.018
1316903.9016637702,-54575.727,-85633.18,-38263.51,-22541.057,-10962.646,-27926.678,-16475.3,-20598.592
1316903.9056637653,-54578.86,-85645.43,-38260.785,-22544.8,-10963.095,-27927.002,-16477.459,-20600.506
1316903.90966376,-54572.88,-85627.98,-38253.824,-22522.87,-10948.73,-27929.77,-16483.318,-20609.09
1316903.9136637552,-54561.402,-85603.6,-38250.613,-22502.686,-10940.918,-27931.56,-16486.492,-20610.88
1316903.9176637502,-54566.734,-85609.5,-38257.855,-22514.893,-10956.421,-27929.729,-16483.074,-20606.527
1316903.921663745,-54580.242,-85636.6,-38263.797,-22540.691,-10966.879,-27924.928,-16476.604,-20599.324
1316903.9256637401,-54587.973,-85650.48,-38265.098,-22548.625,-10964.4375,-27925.904,-16478.354,-20600.871
1316903.929663735,-54585.043,-85637.78,-38261.637,-22531.332,-10954.265,-27929.404,-16483.928,-20606.404
1316903.93366373,-54575.402,-85616.62,-38255.902,-22510.947,-10947.754,-27929.484,-16483.44,-20604.818
1316903.937663725,-54577.72,-85616.62,-38258.465,-22520.346,-10955.363,-27928.467,-16479.371,-20600.057
1316903.94166372,-54586.71,-85636.64,-38264.285,-22544.719,-10966.431,-27925.904,-16476.604,-20595.744
1316903.945663715,-54588.586,-85648.234,-38263.797,-22549.928,-10965.617,-27925.213,-16476.686,-20598.43
1316903.9496637098,-54582.195,-85633.51,-38257.895,-22531.291,-10952.719,-27927.49,-16481.934,-20606.648
1316903.953663705,-54573.367,-85614.625,-38252.77,-22510.947,-10945.923,-27931.805,-16488.973,-20613.078
1316903.9576636998,-54576.418,-85619.06,-38256.88,-22518.066,-10957.072,-27930.87,-16488.322,-20611.248
1316903.9616636948,-54590.293,-85646.81,-38264.934,-22545.818,-10969.279,-27929.648,-16487.916,-20611.613
1316903.96566369,-54596.316,-85661.95,-38265.22,-22553.346,-10968.303,-27931.602,-16490.479,-20610.596
1316903.9696636847,-54588.867,-85642.055,-38258.344,-22531.658,-10952.841,-27931.152,-16491.658,-20613.729
1316903.9736636798,-54580.812,-85618.45,-38253.055,-22514.527,-10947.226,-27930.99,-16492.066,-20616.414
1316903.9776636746,-54582.36,-85622.805,-38259.562,-22524.658,-10958.049,-27928.467,-16489.502,-20613.729
1316903.9816636697,-54591.066,-85648.56,-38265.34,-22550.213,-10969.768,-27924.969,-16483.44,-20606.771
1316903.9856636648,-54598.51,-85661.7,-38260.457,-22558.514,-10971.558,-27925.293,-16481.527,-20602.254
1316903.9896636596,-54592.082,-85645.305,-38254.152,-22540.324,-10962.199,-27927.043,-16484.742,-20603.068
1316903.9936636547,-54585.41,-85626.875,-38252.08,-22523.154,-10956.462,-27928.264,-16486.572,-20600.994
1316903.9976636495,-54586.1,-85632.61,-38255.29,-22530.682,-10966.105,-27925.863,-16486.043,-20604.9
1316904.0016636446,-54596.965,-85658.49,-38261.76,-22555.258,-10977.905,-27922.812,-16485.19,-20611.287
1316904.0056636396,-54604.332,-85671.47,-38262.82,-22562.094,-10977.499,-27921.021,-16485.475,-20612.184
1316904.0096636345,-54595.46,-85656.91,-38256.473,-22544.23,-10965.129,-27922.04,-16487.508,-20612.713
1316904.0136636295,-54586.426,-85636.31,-38251.71,-22526.123,-10957.275,-27923.87,-16490.56,-20614.178
1316904.0176636244,-54586.02,-85637.86,-38254.598,-22534.465,-10965.17,-27921.836,-16489.746,-20613.648
1316904.0216636194,-54594.117,-85658.53,-38260.254,-22559.002,-10977.865,-27920.94,-16488.445,-20609.701
1316904.0256636143,-54601.36,-85671.266,-38259.44,-22566.773,-10975.668,-27920.98,-16488.934,-20611.857
1316904.0296636093,-54600.586,-85660.85,-38254.07,-22550.375,-10967.001,-27922.934,-16493.205,-20615.193
1316904.0336636044,-54591.84,-85641.16,-38250.45,-22532.023,-10961.996,-27925.09,-16500.082,-20623.455
1316904.0376635992,-54595.42,-85647.055,-38255.25,-22541.668,-10974.04,-27923.992,-16498.658,-20622.844
1316904.0416635943,-54607.18,-85673.305,-38261.477,-22567.22,-10983.439,-27920.492,-16494.14,-20617.352
1316904.0456635891,-54611.9,-85684.29,-38260.336,-22574.016,-10981.689,-27921.184,-16496.623,-20620.89
1316904.0496635842,-54606.57,-85669.88,-38253.703,-22554.893,-10971.029,-27921.428,-16500.326,-20625.652
1316904.0536635793,-54597.13,-85646.57,-38249.84,-22533.936,-10960.9375,-27922.568,-16504.314,-20630.738
1316904.057663574,-54595.785,-85645.8,-38254.56,-22541.18,-10965.658,-27921.957,-16501.547,-20627.32
1316904.0616635692,-54605.633,-85669.805,-38259.81,-22565.064,-10977.377,-27918.377,-16495.24,-20619.385
1316904.065663564,-54607.91,-85678.47,-38256.39,-22571.168,-10977.133,-27915.244,-16492.635,-20614.502
1316904.069663559,-54600.75,-85663.13,-38248.332,-22551.475,-10964.6,-27914.186,-16492.39,-20613.81
1316904.073663554,-54595.094,-85643.31,-38246.055,-22530.803,-10954.834,-27914.47,-16492.799,-20612.549
1316904.077663549,-54595.83,-85642.83,-38250.285,-22541.545,-10963.176,-27915.203,-16492.31,-20610.922
1316904.081663544,-54604.82,-85664.8,-38254.844,-22567.424,-10976.196,-27914.307,-16490.723,-20608.195
1316904.085663539,-54606.367,-85674.766,-38248.78,-22569.336,-10973.674,-27913.086,-16490.926,-20608.318
1316904.089663534,-54596.723,-85655.6,-38240.316,-22547.69,-10960.734,-27916.912,-16496.541,-20613.24
1316904.0936635288,-54588.38,-85634.24,-38235.15,-22528.158,-10952.841,-27920.166,-16502.97,-20623.17
1316904.0976635239,-54588.3,-85636.68,-38238.406,-22535.441,-10959.106,-27917.236,-16499.512,-20621.176
1316904.101663519,-54598.227,-85658.086,-38243.613,-22559.855,-10975.22,-27913.86,-16494.1,-20611.248
1316904.1056635138,-54604.94,-85669.766,-38242.8,-22566.0,-10972.656,-27913.78,-16493.205,-20610.434
1316904.1096635088,-54597.047,-85651.33,-38233.523,-22545.004,-10955.038,-27911.826,-16491.375,-20607.951
1316904.1136635037,-54587.77,-85627.0,-38229.86,-22525.92,-10948.649,-27911.012,-16490.072,-20606.445
1316904.1176634987,-54587.566,-85626.836,-38236.125,-22533.855,-10957.316,-27908.082,-16487.672,-20607.992
1316904.1216634936,-54598.96,-85651.77,-38242.39,-22560.467,-10971.11,-27905.844,-16483.44,-20600.953
1316904.1256634886,-54605.88,-85666.95,-38239.87,-22567.344,-10970.134,-27905.885,-16482.91,-20598.553
1316904.1296634837,-54597.617,-85648.766,-38230.633,-22544.557,-10956.381,-27906.861,-16487.875,-20607.79
1316904.1336634785,-54587.566,-85623.58,-38225.547,-22523.275,-10947.348,-27909.22,-16491.455,-20611.531
1316904.1376634736,-54590.17,-85627.484,-38230.957,-22533.652,-10956.503,-27909.018,-16492.555,-20611.613
1316904.1416634684,-54601.28,-85653.28,-38235.15,-22556.723,-10969.076,-27907.146,-16490.887,-20611.004
1316904.1456634635,-54606.12,-85665.57,-38232.504,-22561.809,-10970.093,-27907.676,-16491.496,-20611.287
1316904.1496634586,-54596.438,-85645.19,-38226.074,-22542.766,-10956.543,-27909.709,-16493.979,-20617.555
1316904.1536634534,-54584.19,-85618.37,-38222.293,-22521.893,-10947.714,-27908.652,-16493.164,-20617.025
1316904.1576634485,-54582.887,-85620.65,-38224.61,-22527.629,-10953.166,-27906.373,-16487.346,-20606.324
1316904.1616634433,-54591.555,-85644.01,-38228.395,-22551.719,-10964.315,-27902.549,-16482.26,-20597.168
1316904.1656634384,-54597.008,-85655.52,-38225.344,-22560.344,-10961.833,-27900.432,-16482.38,-20597.494
1316904.1696634332,-54594.28,-85638.23,-38217.816,-22542.318,-10952.393,-27901.084,-16486.775,-20604.412
1316904.1736634283,-54587.16,-85619.23,-38215.21,-22524.62,-10946.493,-27902.873,-16488.893,-20606.61
1316904.1776634234,-54589.887,-85622.6,-38221.07,-22533.123,-10953.247,-27902.588,-16486.695,-20606.201
1316904.1816634182,-54605.715,-85649.984,-38230.633,-22560.264,-10965.942,-27901.693,-16481.975,-20600.22
1316904.1856634133,-54613.445,-85665.086,-38231.977,-22567.994,-10968.832,-27901.652,-16481.69,-20602.703
1316904.189663408,-54607.91,-85647.26,-38225.465,-22548.545,-10958.537,-27901.043,-16485.637,-20607.26
1316904.1936634032,-54602.297,-85627.0,-38223.227,-22529.46,-10950.969,-27901.693,-16486.98,-20607.951
1316904.1976633982,-54602.5,-85628.91,-38224.938,-22536.174,-10958.293,-27898.846,-16481.283,-20601.848
1316904.201663393,-54610.23,-85650.11,-38229.13,-22559.938,-10967.285,-27896.893,-16475.871,-20596.559
1316904.2056633881,-54615.723,-85658.41,-38229.004,-22568.197,-10964.926,-27897.096,-16476.4,-20598.023
1316904.209663383,-54612.305,-85645.06,-38221.926,-22548.992,-10958.578,-27899.414,-16481.445,-20602.05
1316904.213663378,-54611.41,-85633.836,-38220.867,-22530.723,-10957.153,-27900.39,-16483.643,-20605.916
1316904.2176633729,-54619.957,-85639.94,-38227.133,-22539.633,-10964.03,-27898.764,-16481.201,-20605.348
1316904.221663368,-54622.234,-85648.28,-38231.082,-22561.076,-10972.372,-27895.875,-16479.412,-20600.83
1316904.225663363,-54621.34,-85650.11,-38224.938,-22563.559,-10969.931,-27895.346,-16479.94,-20599.447
1316904.2296633578,-54620.65,-85638.76,-38217.9,-22546.713,-10955.444,-27896.24,-16484.172,-20604.94
1316904.233663353,-54615.156,-85617.15,-38215.984,-22525.92,-10946.615,-27898.154,-16487.59,-20608.846
1316904.2376633477,-54618.45,-85619.43,-38222.008,-22537.354,-10959.636,-27900.146,-16488.484,-20612.713
1316904.2416633428,-54633.586,-85645.836,-38228.92,-22563.682,-10971.558,-27898.031,-16485.637,-20606.648
1316904.2456633379,-54638.633,-85652.71,-38227.094,-22569.703,-10964.56,-27897.543,-16485.352,-20604.94
1316904.2496633327,-54631.918,-85633.63,-38219.77,-22548.096,-10948.039,-27899.21,-16488.607,-20610.963
1316904.2536633278,-54628.785,-85612.02,-38216.15,-22527.752,-10942.79,-27901.775,-16490.479,-20612.549
1316904.2576633226,-54634.32,-85615.52,-38219.85,-22537.518,-10951.986,-27901.408,-16488.852,-20608.602
1316904.2616633177,-54646.73,-85640.38,-38226.402,-22562.135,-10967.978,-27898.234,-16485.027,-20602.174
1316904.2656633125,-54653.605,-85652.8,-38224.855,-22568.28,-10967.651,-27897.422,-16483.236,-20601.766
1316904.2696633076,-54648.684,-85640.625,-38217.125,-22549.195,-10957.031,-27898.846,-16486.043,-20604.127
1316904.2736633027,-54640.016,-85617.15,-38213.992,-22526.45,-10950.114,-27900.27,-16488.24,-20608.357
1316904.2776632975,-54644.613,-85621.625,-38220.176,-22531.82,-10956.706,-27900.146,-16486.248,-20603.842
1316904.2816632926,-54654.91,-85644.164,-38226.32,-22557.334,-10968.344,-27897.178,-16481.445,-20596.72
1316904.2856632874,-54660.727,-85654.75,-38223.758,-22566.203,-10967.448,-27897.666,-16482.26,-20598.104
1316904.2896632825,-54660.08,-85639.61,-38217.855,-22549.805,-10956.584,-27899.375,-16485.76,-20604.127
1316904.2936632775,-54655.48,-85620.12,-38216.758,-22530.03,-10953.044,-27901.246,-16487.996,-20609.09
1316904.2976632724,-54658.33,-85626.38,-38221.64,-22539.512,-10961.955,-27901.531,-16488.322,-20607.586
1316904.3016632674,-54670.207,-85650.64,-38227.297,-22567.383,-10975.627,-27898.846,-16485.352,-20605.184
1316904.3056632623,-54680.098,-85663.13,-38226.074,-22576.986,-10973.593,-27897.625,-16484.13,-20603.76
1316904.3096632573,-54677.53,-85649.09,-38220.297,-22559.164,-10963.664,-27898.479,-16485.84,-20607.504
1316904.3136632524,-54670.86,-85627.89,-38216.96,-22537.883,-10954.875,-27898.846,-16486.492,-20610.719
1316904.3176632472,-54671.797,-85626.67,-38221.52,-22542.033,-10962.769,-27898.234,-16486.287,-20610.84
1316904.3216632423,-54678.875,-85645.836,-38224.734,-22566.0,-10972.819,-27897.014,-16484.05,-20606.08
1316904.3256632371,-54685.426,-85657.27,-38223.105,-22575.521,-10971.029,-27897.014,-16483.807,-20605.021
1316904.3296632322,-54677.613,-85642.336,-38214.844,-22554.404,-10959.839,-27897.91,-16484.457,-20607.178
1316904.333663227,-54666.18,-85617.96,-38209.312,-22534.22,-10948.161,-27898.113,-16487.875,-20610.516
1316904.337663222,-54669.64,-85622.195,-38215.25,-22543.336,-10957.153,-27898.438,-16489.99,-20610.596
1316904.3416632172,-54680.664,-85647.14,-38223.31,-22569.988,-10968.384,-27895.875,-16487.346,-20605.104
1316904.345663212,-54682.902,-85656.414,-38219.2,-22575.848,-10967.001,-27892.863,-16485.027,-20603.11
1316904.349663207,-54674.36,-85638.47,-38210.29,-22554.607,-10954.184,-27894.613,-16487.549,-20608.277
1316904.353663202,-54668.418,-85618.125,-38207.645,-22535.809,-10946.127,-27897.217,-16486.492,-20609.578
1316904.357663197,-54675.78,-85625.45,-38212.28,-22545.248,-10955.688,-27896.078,-16483.807,-20608.277
1316904.361663192,-54687.867,-85650.68,-38219.28,-22571.494,-10967.937,-27894.736,-16482.26,-20605.55
1316904.3656631869,-54694.297,-85663.91,-38220.055,-22578.736,-10968.262,-27893.922,-16483.602,-20608.766
1316904.369663182,-54689.25,-85646.94,-38213.42,-22556.64,-10959.392,-27895.875,-16487.752,-20614.096
1316904.3736631768,-54682.17,-85620.164,-38209.516,-22538.818,-10952.353,-27897.99,-16493.205,-20618.45
1316904.3776631719,-54680.83,-85619.305,-38211.55,-22544.76,-10959.88,-27896.973,-16493.531,-20617.432
1316904.3816631667,-54688.844,-85643.96,-38215.293,-22569.215,-10972.128,-27893.84,-16489.666,-20614.178
1316904.3856631618,-54696.13,-85657.516,-38212.85,-22577.88,-10972.982,-27892.986,-16487.469,-20608.766
1316904.3896631568,-54688.438,-85640.83,-38202.273,-22560.914,-10958.984,-27893.107,-16488.404,-20611.531
1316904.3936631517,-54681.926,-85622.07,-38199.79,-22542.807,-10952.597,-27894.41,-16488.404,-20611.857
1316904.3976631467,-54688.07,-85625.33,-38209.72,-22551.23,-10960.897,-27896.12,-16487.428,-20609.295
1316904.4016631416,-54695.8,-85644.05,-38214.438,-22575.033,-10972.209,-27893.76,-16484.334,-20606.324
1316904.4056631366,-54699.832,-85655.44,-38214.07,-22581.422,-10972.128,-27893.31,-16483.074,-20606.16
1316904.4096631317,-54695.52,-85644.01,-38208.254,-22563.926,-10962.362,-27894.736,-16485.516,-20607.38
1316904.4136631265,-54689.008,-85624.07,-38204.793,-22545.533,-10957.235,-27896.729,-16489.502,-20611.531
1316904.4176631216,-54692.02,-85628.95,-38210.613,-22552.654,-10967.204,-27896.363,-16489.99,-20613.81
1316904.4216631164,-54702.72,-85654.38,-38217.0,-22580.16,-10980.713,-27893.23,-16485.19,-20608.807
1316904.4256631115,-54706.83,-85668.09,-38215.17,-22589.111,-10978.3125,-27892.66,-16481.812,-20606.73
1316904.4296631063,-54697.918,-85651.734,-38206.87,-22567.994,-10963.42,-27894.736,-16482.26,-20610.23
1316904.4336631014,-54686.566,-85624.02,-38199.87,-22547.975,-10954.468,-27895.996,-16482.79,-20609.375
1316904.4376630965,-54686.85,-85623.21,-38204.875,-22556.316,-10964.6,-27895.06,-16480.51,-20604.656
1316904.4416630913,-54699.383,-85652.43,-38215.375,-22584.717,-10980.225,-27894.451,-16478.312,-20601.93
1316904.4456630864,-54705.49,-85666.55,-38212.934,-22593.75,-10981.323,-27894.816,-16479.656,-20603.598
1316904.4496630812,-54699.586,-85649.664,-38204.918,-22576.133,-10971.151,-27896.445,-16483.684,-20608.277
1316904.4536630763,-54689.863,-85626.305,-38200.562,-22557.455,-10965.576,-27898.602,-16488.16,-20611.287
1316904.4576630713,-54691.613,-85629.44,-38205.566,-22561.688,-10971.558,-27898.113,-16487.02,-20610.596
1316904.4616630662,-54700.97,-85651.33,-38211.754,-22584.473,-10982.26,-27897.95,-16483.602,-20605.307
1316904.4656630612,-54702.395,-85658.734,-38209.473,-22593.223,-10978.231,-27898.764,-16483.357,-20603.354
1316904.469663056,-54694.867,-85643.88,-38203.37,-22578.166,-10963.013,-27899.537,-16487.184,-20606.324
1316904.4736630511,-54689.047,-85625.695,-38202.76,-22561.809,-10959.351,-27901.775,-16492.799,-20611.695
1316904.477663046,-54695.477,-85629.48,-38208.7,-22571.006,-10971.3955,-27902.67,-16492.514,-20610.23
1316904.481663041,-54708.742,-85654.3,-38215.78,-22594.688,-10981.486,-27897.91,-16487.793,-20602.418
1316904.4856630361,-54711.59,-85664.19,-38215.17,-22601.523,-10980.0625,-27896.24,-16486.043,-20600.994
1316904.489663031,-54702.883,-85645.76,-38208.863,-22584.678,-10966.391,-27897.828,-16487.469,-20605.225
1316904.493663026,-54695.312,-85626.586,-38207.316,-22566.977,-10960.653,-27900.676,-16491.984,-20612.63
1316904.4976630209,-54697.715,-85628.336,-38211.14,-22573.895,-10970.581,-27900.555,-16492.107,-20609.05
1316904.501663016,-54709.96,-85652.47,-38220.99,-22599.121,-10981.039,-27898.52,-16489.422,-20603.068
1316904.505663011,-54722.332,-85668.91,-38223.023,-22609.336,-10981.812,-27896.566,-16486.41,-20600.22
1316904.5096630058,-54719.523,-85657.02,-38217.977,-22592.326,-10973.022,-27896.973,-16487.305,-20604.615
1316904.513663001,-54707.887,-85637.58,-38211.344,-22572.062,-10969.768,-27900.352,-16491.049,-20609.09
1316904.5176629957,-54703.125,-85636.56,-38214.4,-22575.766,-10974.243,-27900.229,-16490.967,-20605.998
1316904.5216629908,-54713.055,-85660.04,-38220.95,-22599.773,-10985.8,-27897.705,-16488.934,-20605.428
1316904.5256629856,-54714.113,-85667.28,-38214.684,-22607.383,-10982.87,-27897.178,-16487.346,-20601.97
1316904.5296629807,-54705.363,-85644.58,-38206.668,-22587.566,-10970.093,-27898.234,-16492.066,-20609.09
1316904.5336629758,-54700.156,-85624.8,-38204.1,-22565.879,-10964.6,-27899.375,-16494.629,-20612.305
1316904.5376629706,-54703.86,-85629.56,-38208.293,-22573.365,-10973.552,-27899.62,-16492.799,-20605.713
1316904.5416629657,-54712.28,-85653.41,-38213.867,-22599.732,-10982.016,-27898.764,-16490.764,-20604.656
1316904.5456629605,-54720.137,-85671.06,-38212.934,-22608.604,-10983.847,-27900.27,-16492.066,-20608.766
1316904.5496629556,-54714.438,-85658.53,-38206.34,-22590.008,-10976.44,-27902.1,-16496.053,-20610.555
1316904.5536629506,-54701.336,-85632.9,-38201.703,-22568.727,-10967.041,-27904.014,-16498.7,-20612.752
1316904.5576629455,-54703.74,-85637.58,-38208.05,-22577.8,-10976.196,-27906.088,-16500.57,-20615.846
1316904.5616629405,-54709.883,-85657.59,-38213.016,-22599.406,-10985.759,-27901.938,-16495.402,-20609.09
1316904.5656629354,-54711.426,-85665.53,-38212.2,-22605.307,-10982.87,-27899.414,-16494.1,-20605.754
1316904.5696629304,-54704.67,-85647.016,-38206.42,-22587.037,-10974.365,-27900.96,-16494.14,-20604.127
1316904.5736629255,-54697.96,-85623.5,-38202.84,-22567.547,-10966.35,-27902.71,-16494.71,-20604.94
1316904.5776629203,-54694.582,-85621.38,-38204.754,-22574.016,-10971.843,-27901.572,-16491.049,-20599.53
1316904.5816629154,-54705.69,-85646.24,-38211.062,-22599.53,-10977.905,-27900.188,-16488.81,-20598.186
1316904.5856629102,-54711.145,-85660.0,-38209.676,-22609.62,-10975.993,-27900.635,-16489.746,-20602.01
1316904.5896629053,-54705.04,-85646.41,-38201.703,-22591.432,-10967.163,-27904.908,-16495.2,-20606.08
1316904.5936629002,-54698.406,-85628.91,-38198.285,-22574.424,-10964.844,-27909.1,-16500.53,-20607.748
1316904.5976628952,-54703.047,-85633.34,-38205.566,-22581.34,-10976.726,-27906.78,-16497.844,-20603.475
1316904.6016628903,-54715.008,-85656.336,-38214.6,-22604.98,-10989.624,-27901.775,-16489.502,-20588.867
1316904.6056628851,-54719.08,-85666.51,-38215.496,-22613.81,-10988.403,-27900.107,-16485.516,-20580.607
1316904.6096628802,-54708.703,-85648.766,-38208.254,-22596.396,-10975.098,-27902.182,-16487.916,-20582.684
1316904.613662875,-54693.77,-85619.51,-38200.277,-22573.527,-10963.176,-27902.71,-16490.643,-20589.031
1316904.61766287,-54693.32,-85617.35,-38203.695,-22578.818,-10965.536,-27902.426,-16489.705,-20586.549
1316904.6216628652,-54703.535,-85640.055,-38208.945,-22604.004,-10973.674,-27900.758,-16484.172,-20580.242
1316904.62566286,-54712.324,-85655.234,-38208.62,-22613.893,-10979.655,-27901.572,-16485.516,-20583.822
1316904.629662855,-54708.54,-85643.31,-38204.715,-22595.664,-10971.518,-27906.494,-16493.611,-20593.832
1316904.63366285,-54701.785,-85624.23,-38201.58,-22575.156,-10965.129,-27909.344,-16501.547,-20601.482
1316904.637662845,-54703.37,-85625.695,-38207.48,-22578.492,-10973.511,-27908.773,-16503.338,-20601.604
1316904.6416628398,-54712.28,-85646.94,-38211.344,-22602.621,-10985.678,-27905.926,-16498.738,-20596.395
1316904.6456628349,-54721.438,-85661.38,-38211.71,-22612.63,-10988.607,-27904.379,-16498.455,-20598.064
1316904.64966283,-54716.797,-85649.01,-38205.73,-22595.215,-10972.982,-27906.332,-16502.32,-20604.086
1316904.6536628248,-54707.887,-85626.18,-38203.453,-22574.463,-10967.285,-27910.32,-16503.785,-20605.916
1316904.6576628198,-54707.887,-85624.88,-38206.543,-22577.434,-10973.877,-27909.18,-16498.129,-20598.836
1316904.6616628147,-54714.4,-85643.76,-38210.9,-22600.383,-10985.474,-27905.723,-16491.7,-20592.0
1316904.6656628097,-54722.13,-85660.85,-38208.008,-22608.807,-10988.974,-27902.996,-16486.572,-20587.646
1316904.6696628048,-54726.605,-85651.29,-38201.906,-22593.182,-10975.302,-27903.525,-16488.12,-20591.39
1316904.6736627996,-54709.72,-85613.61,-38198.406,-22568.809,-10957.194,-27907.756,-16495.89,-20598.592
1316904.6776627947,-54710.37,-85610.88,-38206.258,-22574.83,-10965.82,-27910.564,-16500.408,-20603.312
1316904.6816627895,-54727.664,-85641.36,-38215.09,-22601.197,-10979.655,-27908.285,-16498.332,-20601.277
1316904.6856627846,-54732.504,-85655.195,-38215.17,-22611.492,-10979.37,-27909.059,-16499.676,-20600.586
1316904.6896627794,-54732.098,-85645.02,-38212.73,-22595.094,-10974.203,-27911.5,-16504.191,-20605.469
1316904.6936627745,-54722.74,-85620.69,-38209.15,-22574.26,-10967.978,-27913.535,-16508.748,-20610.922
1316904.6976627696,-54721.56,-85620.484,-38212.934,-22576.254,-10971.884,-27912.232,-16507.365,-20607.057
1316904.7016627644,-54728.152,-85639.24,-38216.637,-22597.617,-10982.219,-27909.465,-16501.18,-20598.756
1316904.7056627595,-54727.867,-85646.89,-38212.402,-22607.383,-10982.463,-27907.92,-16498.617,-20598.715
1316904.7096627543,-54720.91,-85628.99,-38204.02,-22587.322,-10967.692,-27908.203,-16497.314,-20597.535
1316904.7136627494,-54715.496,-85604.82,-38201.58,-22566.326,-10958.252,-27908.164,-16498.455,-20597.127
1316904.7176627445,-54722.863,-85609.42,-38210.9,-22575.645,-10969.076,-27909.709,-16499.594,-20597.371
1316904.7216627393,-54737.59,-85638.67,-38220.176,-22602.783,-10984.009,-27907.676,-16496.094,-20594.441
1316904.7256627344,-54744.508,-85654.625,-38219.89,-22612.793,-10984.213,-27909.424,-16496.785,-20593.426
1316904.7296627292,-54736.98,-85636.84,-38211.02,-22593.344,-10970.907,-27911.297,-16498.738,-20592.164
1316904.7336627243,-54729.492,-85613.81,-38209.23,-22572.592,-10965.088,-27916.22,-16503.988,-20595.582
1316904.737662719,-54727.582,-85610.234,-38213.055,-22577.8,-10972.575,-27917.441,-16506.307,-20594.32
1316904.7416627142,-54733.562,-85630.54,-38215.82,-22600.586,-10984.416,-27913.982,-16502.93,-20590.78
1316904.7456627092,-54739.586,-85647.34,-38214.273,-22610.596,-10984.172,-27912.273,-16500.896,-20593.709
1316904.749662704,-54736.33,-85636.68,-38209.676,-22596.07,-10974.936,-27914.104,-16503.377,-20598.389
1316904.7536626991,-54731.324,-85616.74,-38207.316,-22577.8,-10967.407,-27916.098,-16507.854,-20604.248
1316904.757662694,-54732.668,-85617.35,-38210.164,-22580.16,-10973.267,-27913.9,-16505.412,-20600.586
1316904.761662689,-54742.066,-85640.34,-38217.41,-22602.418,-10983.847,-27910.238,-16501.75,-20595.256
1316904.765662684,-54749.434,-85655.805,-38219.727,-22612.06,-10983.765,-27910.238,-16503.377,-20601.36
1316904.769662679,-54746.258,-85644.086,-38215.293,-22596.6,-10973.1045,-27912.191,-16508.22,-20607.586
1316904.773662674,-54739.87,-85623.3,-38211.344,-22575.236,-10966.919,-27912.924,-16511.516,-20608.074
1316904.7776626688,-54741.863,-85625.05,-38216.473,-22583.701,-10976.848,-27911.174,-16509.807,-20606.121
1316904.781662664,-54748.82,-85645.305,-38219.44,-22606.568,-10986.9795,-27906.738,-16501.344,-20598.145
1316904.7856626587,-54754.07,-85658.53,-38215.902,-22615.846,-10985.026,-27906.291,-16496.95,-20596.03
1316904.7896626538,-54747.355,-85644.49,-38207.316,-22598.633,-10974.406,-27910.32,-16504.15,-20602.58
1316904.7936626489,-54736.816,-85622.766,-38200.156,-22575.725,-10967.204,-27911.418,-16508.912,-20603.271
1316904.7976626437,-54736.777,-85625.125,-38204.59,-22580.12,-10973.349,-27910.441,-16507.65,-20599.203
1316904.8016626388,-54743.938,-85645.76,-38209.676,-22603.027,-10985.026,-27906.7,-16500.732,-20588.95
1316904.8056626336,-54750.285,-85653.81,-38208.457,-22610.434,-10986.45,-27903.605,-16496.014,-20581.625
1316904.8096626287,-54746.992,-85641.12,-38200.727,-22594.035,-10975.424,-27904.541,-16495.646,-20581.014
1316904.8136626238,-54736.9,-85617.27,-38193.117,-22573.04,-10965.495,-27906.455,-16497.234,-20585.816
1316904.8176626186,-54737.227,-85616.62,-38196.617,-22574.139,-10973.349,-27906.78,-16498.7,-20591.105
1316904.8216626137,-54749.31,-85643.555,-38203.086,-22598.268,-10987.346,-27904.705,-16496.135,-20588.867
1316904.8256626085,-54752.32,-85658.25,-38199.18,-22607.586,-10990.072,-27902.264,-16494.02,-20585.084
1316904.8296626036,-54748.17,-85645.47,-38192.3,-22587.566,-10979.086,-27902.305,-16497.438,-20590.658
1316904.8336625986,-54740.97,-85624.27,-38187.99,-22567.303,-10969.198,-27902.67,-16500.326,-20592.082
1316904.8376625935,-54741.133,-85622.56,-38192.426,-22572.795,-10973.999,-27902.508,-16500.164,-20591.756
1316904.8416625885,-54750.043,-85645.35,-38202.066,-22598.838,-10987.712,-27902.182,-16498.7,-20592.652
1316904.8456625834,-54754.926,-85658.81,-38202.027,-22608.969,-10988.241,-27900.555,-16495.77,-20591.064
1316904.8496625784,-54744.71,-85639.81,-38191.367,-22587.2,-10974.447,-27900.514,-16497.559,-20592.205
1316904.8536625733,-54732.91,-85615.36,-38185.508,-22565.959,-10962.036,-27902.264,-16502.117,-20594.93
1316904.8576625683,-54731.69,-85613.57,-38190.145,-22568.482,-10966.553,-27901.408,-16500.53,-20591.838
1316904.8616625634,-54743.41,-85634.65,-38198.16,-22591.025,-10978.435,-27899.62,-16497.885,-20586.59
1316904.8656625582,-54748.82,-85652.8,-38195.598,-22598.715,-10978.964,-27900.514,-16499.268,-20586.629
1316904.8696625533,-54743.246,-85643.03,-38187.137,-22578.613,-10970.459,-27901.45,-16505.33,-20593.994
1316904.8736625481,-54735.68,-85621.46,-38182.742,-22557.414,-10963.705,-27902.02,-16505.941,-20594.197
1316904.8776625432,-54733.562,-85617.68,-38183.15,-22559.367,-10969.36,-27899.943,-16501.344,-20594.238
1316904.8816625383,-54743.777,-85641.766,-38191.57,-22585.002,-10981.486,-27899.7,-16497.273,-20590.047
1316904.885662533,-54753.867,-85658.125,-38191.61,-22598.227,-10984.172,-27899.13,-16496.541,-20590.902
1316904.8896625282,-54750.652,-85646.85,-38185.67,-22581.299,-10974.365,-27898.887,-16495.402,-20593.018
1316904.893662523,-54745.402,-85630.945,-38184.695,-22564.941,-10970.459,-27899.334,-16494.793,-20593.506
1316904.897662518,-54750.082,-85634.93,-38189.21,-22568.93,-10978.964,-27897.178,-16491.17,-20588.867
1316904.901662513,-54762.414,-85657.516,-38197.105,-22592.814,-10990.845,-27895.59,-16488.525,-20583.172
1316904.905662508,-54757.246,-85653.52,-38196.574,-22598.797,-10983.236,-27895.549,-16489.828,-20582.643
1316904.909662503,-54742.516,-85627.81,-38187.34,-22579.225,-10965.942,-27897.543,-16491.375,-20583.943
1316904.913662498,-54732.504,-85599.45,-38181.805,-22556.64,-10954.672,-27898.723,-16492.676,-20584.148
1316904.917662493,-54739.953,-85603.68,-38187.543,-22560.303,-10965.414,-27900.146,-16493.611,-20586.914
1316904.9216624878,-54751.465,-85627.08,-38195.477,-22582.52,-10977.661,-27899.252,-16492.879,-20585.734
1316904.9256624829,-54752.484,-85636.48,-38194.05,-22593.67,-10976.848,-27900.432,-16495.076,-20591.188
1316904.929662478,-54755.94,-85629.73,-38190.555,-22579.307,-10969.849,-27901.043,-16497.682,-20597.576
1316904.9336624728,-54751.63,-85612.875,-38189.656,-22560.791,-10964.885,-27902.508,-16500.488,-20602.703
1316904.9376624678,-54748.78,-85608.69,-38193.973,-22564.576,-10969.687,-27901.775,-16498.332,-20597.697
1316904.9416624627,-54757.938,-85631.266,-38202.68,-22590.414,-10981.975,-27898.52,-16492.473,-20586.182
1316904.9456624577,-54764.0,-85649.13,-38204.67,-22601.28,-10982.951,-27895.672,-16486.857,-20583.13
1316904.9496624526,-54758.996,-85638.8,-38197.105,-22585.41,-10972.372,-27896.404,-16486.37,-20582.602
1316904.9536624476,-54748.863,-85614.586,-38191.043,-22563.438,-10965.617,-27898.805,-16488.729,-20583.74
1316904.9576624427,-54748.496,-85611.45,-38192.3,-22564.941,-10971.965,-27897.87,-16487.06,-20580.934
1316904.9616624375,-54757.734,-85632.0,-38196.902,-22588.258,-10983.439,-27896.078,-16481.975,-20573.486
1316904.9656624326,-54765.504,-85644.9,-38193.973,-22598.145,-10984.741,-27894.775,-16480.266,-20572.062
1316904.9696624274,-54762.168,-85634.4,-38187.785,-22581.422,-10976.359,-27896.12,-16483.602,-20577.148
1316904.9736624225,-54755.82,-85614.18,-38186.16,-22563.965,-10968.913,-27896.363,-16485.84,-20582.113
1316904.9776624176,-54757.773,-85615.73,-38190.758,-22569.256,-10973.999,-27896.281,-16483.766,-20581.87
1316904.9816624124,-54767.133,-85637.375,-38198.367,-22593.75,-10984.782,-27894.248,-16479.736,-20578.166
1316904.9856624075,-54773.926,-85654.055,-38199.26,-22603.598,-10987.793,-27892.54,-16478.395,-20578.451
1316904.9896624023,-54769.453,-85642.17,-38192.586,-22587.078,-10975.993,-27894.084,-16482.79,-20586.508
1316904.9936623974,-54759.89,-85614.75,-38187.703,-22565.797,-10967.204,-27898.643,-16487.752,-20591.92
1316904.9976623922,-54754.113,-85608.73,-38190.145,-22566.162,-10972.412,-27897.746,-16486.695,-20590.252
1316905.0016623873,-54764.0,-85632.04,-38196.047,-22589.355,-10986.735,-27895.428,-16484.01,-20585.979
1316905.0056623823,-54770.715,-85650.72,-38197.062,-22600.465,-10989.258,-27894.328,-16482.992,-20584.555
1316905.0096623772,-54771.203,-85644.62,-38190.51,-22586.426,-10980.021,-27895.143,-16485.516,-20587.729
1316905.0136623723,-54768.35,-85626.47,-38189.496,-22569.58,-10975.424,-27896.484,-16489.95,-20594.523
1316905.017662367,-54773.645,-85629.03,-38195.64,-22571.33,-10985.759,-27896.607,-16489.746,-20591.92
1316905.0216623622,-54785.93,-85652.914,-38201.703,-22591.309,-10997.763,-27892.742,-16483.074,-20583.984
1316905.0256623572,-54790.203,-85666.75,-38199.586,-22602.58,-10995.85,-27888.836,-16479.045,-20584.148
1316905.029662352,-54783.49,-85650.68,-38193.93,-22587.932,-10985.881,-27888.307,-16479.451,-20588.95
1316905.0336623471,-54776.086,-85628.664,-38191.812,-22567.18,-10976.807,-27890.3,-16483.643,-20591.268
1316905.037662342,-54773.562,-85629.16,-38192.914,-22567.383,-10984.253,-27891.074,-16482.951,-20586.914
1316905.041662337,-54780.438,-85650.48,-38197.836,-22589.64,-10998.576,-27890.707,-16480.754,-20583.578
1316905.0456623319,-54783.816,-85659.836,-38195.152,-22600.342,-10998.454,-27892.742,-16480.55,-20583.496
1316905.049662327,-54778.484,-85644.375,-38186.65,-22582.195,-10984.335,-27895.834,-16483.154,-20585.613
1316905.053662322,-54771.406,-85621.5,-38183.473,-22561.605,-10976.685,-27899.334,-16485.434,-20587.85
1316905.0576623168,-54770.145,-85619.305,-38187.746,-22565.594,-10980.591,-27898.926,-16483.195,-20585.002
1316905.061662312,-54781.13,-85644.62,-38197.51,-22591.717,-10997.152,-27895.387,-16479.818,-20578.451
1316905.0656623067,-54786.785,-85659.266,-38197.715,-22603.68,-10994.955,-27892.701,-16476.807,-20577.678
1316905.0696623018,-54785.117,-85651.49,-38194.38,-22587.89,-10984.375,-27895.02,-16480.184,-20581.219
1316905.0736622969,-54776.734,-85630.54,-38192.3,-22567.588,-10978.068,-27897.584,-16485.31,-20588.867
1316905.0776622917,-54776.246,-85626.266,-38194.582,-22570.842,-10985.474,-27897.014,-16484.742,-20587.2
1316905.0816622868,-54786.543,-85649.26,-38200.97,-22591.676,-10998.617,-27893.719,-16480.633,-20582.52
1316905.0856622816,-54788.168,-85657.92,-38199.383,-22601.889,-10998.576,-27891.725,-16477.986,-20578.004
1316905.0896622767,-54780.76,-85642.336,-38192.426,-22585.084,-10986.898,-27890.586,-16477.295,-20576.05
1316905.0936622717,-54773.926,-85618.86,-38189.25,-22565.674,-10979.452,-27893.027,-16479.127,-20577.434
1316905.0976622666,-54775.027,-85616.54,-38195.516,-22571.086,-10984.497,-27895.06,-16480.998,-20582.643
1316905.1016622616,-54785.566,-85639.445,-38200.645,-22594.85,-10995.28,-27893.88,-16481.771,-20583.943
1316905.1056622565,-54791.26,-85654.38,-38199.504,-22603.76,-10997.925,-27895.916,-16484.66,-20585.37
1316905.1096622515,-54787.68,-85644.164,-38193.36,-22588.908,-10988.037,-27899.984,-16491.334,-20590.576
1316905.1136622464,-54780.48,-85622.52,-38187.055,-22566.244,-10982.504,-27902.14,-16496.541,-20595.662
1316905.1176622414,-54781.74,-85622.07,-38191.285,-22571.127,-10992.514,-27902.832,-16496.582,-20598.959
1316905.1216622365,-54793.703,-85646.57,-38199.547,-22595.256,-11005.615,-27899.17,-16491.74,-20593.791
1316905.1256622314,-54800.01,-85661.18,-38199.668,-22604.248,-11007.243,-27896.404,-16487.793,-20588.543
1316905.1296622264,-54791.63,-85647.016,-38192.79,-22591.229,-10997.681,-27898.52,-16488.484,-20589.682
1316905.1336622213,-54782.797,-85623.78,-38189.047,-22569.988,-10986.654,-27901.572,-16489.95,-20591.188
1316905.1376622163,-54782.51,-85623.82,-38191.45,-22571.86,-10993.083,-27899.334,-16484.945,-20585.572
1316905.1416622114,-54793.54,-85642.375,-38198.12,-22594.89,-11006.348,-27896.934,-16478.68,-20577.271
1316905.1456622062,-54800.58,-85655.56,-38200.93,-22607.666,-11008.139,-27897.828,-16477.54,-20577.107
1316905.1496622013,-54797.242,-85644.53,-38197.918,-22594.076,-10999.634,-27899.74,-16482.83,-20584.88
1316905.1536621961,-54791.63,-85626.43,-38194.906,-22574.139,-10993.286,-27904.664,-16488.893,-20587.2
1316905.1576621912,-54789.188,-85625.57,-38200.36,-22576.172,-10998.454,-27907.47,-16494.223,-20591.879
1316905.161662186,-54797.445,-85647.55,-38204.715,-22598.838,-11010.946,-27905.723,-16491.049,-20585.37
1316905.165662181,-54801.8,-85658.45,-38201.05,-22608.725,-11010.864,-27905.518,-16490.113,-20585.531
1316905.1696621762,-54795.617,-85645.19,-38191.49,-22590.943,-10993.449,-27906.047,-16491.293,-20589.723
1316905.173662171,-54786.055,-85622.44,-38186.93,-22568.28,-10986.776,-27907.105,-16491.7,-20590.902
1316905.177662166,-54781.617,-85618.414,-38188.844,-22568.645,-10993.286,-27904.908,-16487.63,-20589.803
1316905.181662161,-54789.918,-85638.67,-38195.07,-22592.979,-11004.15,-27900.473,-16480.836,-20578.98
1316905.185662156,-54797.73,-85655.6,-38200.277,-22605.674,-11004.395,-27897.828,-16474.936,-20571.248
1316905.189662151,-54790.773,-85642.87,-38195.883,-22589.764,-10991.862,-27897.625,-16476.115,-20574.098
1316905.1936621459,-54787.68,-85624.84,-38193.44,-22571.412,-10983.562,-27898.764,-16478.068,-20573.975
1316905.197662141,-54791.63,-85623.78,-38198.69,-22574.912,-10992.717,-27900.27,-16480.184,-20577.312
1316905.2016621358,-54806.195,-85652.75,-38206.504,-22601.889,-11010.417,-27897.584,-16480.145,-20579.184
1316905.2056621308,-54814.535,-85672.37,-38206.137,-22613.81,-11015.463,-27895.996,-16481.61,-20579.754
1316905.2096621257,-54803.1,-85655.27,-38195.76,-22596.844,-11003.012,-27898.072,-16485.475,-20584.514
1316905.2136621207,-54793.05,-85631.35,-38192.18,-22576.58,-10994.345,-27901.408,-16492.352,-20593.018
1316905.2176621158,-54796.266,-85629.766,-38198.812,-22578.654,-11000.8955,-27903.117,-16495.484,-20591.676
1316905.2216621106,-54799.848,-85645.914,-38201.906,-22600.912,-11010.864,-27901.043,-16491.334,-20587.361
1316905.2256621057,-54800.78,-85655.766,-38198.773,-22609.498,-11009.399,-27899.334,-16485.555,-20580.242
1316905.2296621006,-54795.9,-85641.97,-38194.46,-22595.135,-10999.064,-27902.182,-16487.264,-20583.863
1316905.2336620956,-54791.3,-85621.42,-38191.406,-22575.4,-10988.2,-27902.305,-16487.713,-20584.596
1316905.2376620907,-54794.56,-85621.75,-38193.645,-22578.492,-11000.163,-27902.508,-16486.898,-20581.055
1316905.2416620855,-54804.77,-85647.22,-38201.336,-22604.29,-11014.567,-27900.676,-16485.76,-20576.457
1316905.2456620806,-54814.7,-85664.96,-38205.28,-22619.955,-11016.765,-27900.146,-16486.98,-20578.451
1316905.2496620754,-54812.01,-85654.586,-38201.58,-22605.266,-11007.854,-27903.443,-16493.896,-20582.52
1316905.2536620705,-54800.78,-85629.48,-38198.69,-22583.252,-10998.901,-27905.355,-16496.908,-20586.264
1316905.2576620653,-54796.184,-85619.875,-38201.66,-22585.002,-11003.378,-27905.559,-16496.785,-20586.873
1316905.2616620604,-54805.46,-85639.49,-38208.008,-22604.574,-11008.017,-27903.605,-16494.06,-20585.531
1316905.2656620555,-54812.746,-85655.97,-38206.95,-22616.74,-11010.742,-27902.588,-16493.164,-20582.357
1316905.2696620503,-54809.004,-85642.54,-38200.766,-22603.395,-11003.337,-27904.826,-16496.258,-20583.455
1316905.2736620454,-54801.11,-85622.234,-38197.105,-22582.357,-10997.233,-27905.967,-16501.018,-20589.438
1316905.2776620402,-54803.1,-85623.87,-38198.324,-22582.56,-11003.825,-27905.234,-16501.709,-20589.967
1316905.2816620353,-54811.85,-85644.21,-38204.59,-22604.045,-11015.056,-27903.281,-16499.879,-20588.664
1316905.2856620303,-54819.094,-85660.41,-38206.625,-22617.27,-11018.352,-27903.525,-16503.133,-20593.059
1316905.2896620252,-54816.855,-85650.88,-38200.645,-22602.336,-11007.935,-27904.541,-16506.227,-20594.97
1316905.2936620202,-54806.766,-85627.81,-38196.617,-22584.229,-11003.988,-27907.676,-16510.174,-20597.615
1316905.297662015,-54809.004,-85627.445,-38202.76,-22588.42,-11010.702,-27908.164,-16510.213,-20596.68
1316905.3016620101,-54819.38,-85650.555,-38210.367,-22611.695,-11023.601,-27905.314,-16505.86,-20593.75
1316905.305662005,-54826.336,-85668.016,-38208.414,-22623.455,-11021.729,-27904.582,-16504.11,-20590.74
1316905.309662,-54823.977,-85655.07,-38199.707,-22605.55,-11011.353,-27906.738,-16505.168,-20589.682
1316905.313661995,-54813.113,-85629.44,-38194.664,-22581.707,-11003.54,-27909.385,-16506.062,-20590.74
1316905.31766199,-54810.223,-85626.38,-38197.31,-22584.88,-11007.243,-27908.855,-16504.11,-20588.055
1316905.321661985,-54818.2,-85646.734,-38201.375,-22604.818,-11016.602,-27906.78,-16500.53,-20582.44
1316905.3256619798,-54824.18,-85660.16,-38200.93,-22615.031,-11017.944,-27905.193,-16499.39,-20582.44
1316905.329661975,-54823.49,-85653.484,-38197.43,-22604.33,-11011.597,-27908.691,-16505.941,-20590.861
1316905.33366197,-54819.094,-85637.82,-38195.312,-22585.613,-11009.318,-27911.621,-16512.695,-20599.324
1316905.3376619648,-54819.176,-85633.71,-38199.91,-22586.549,-11014.364,-27910.035,-16511.475,-20600.871
1316905.34166196,-54830.04,-85653.85,-38206.383,-22611.37,-11024.374,-27904.826,-16504.232,-20590.455
1316905.3456619547,-54833.496,-85665.53,-38205.85,-22622.355,-11023.682,-27901.979,-16500.652,-20586.834
1316905.3496619498,-54825.402,-85648.766,-38198.082,-22605.43,-11010.905,-27904.826,-16504.477,-20589.967
1316905.3536619446,-54815.758,-85625.49,-38190.96,-22585.45,-10996.989,-27905.518,-16504.598,-20590.7
1316905.3576619397,-54814.7,-85624.39,-38194.38,-22589.072,-11002.482,-27906.7,-16505.086,-20590.455
1316905.3616619348,-54822.31,-85646.77,-38201.254,-22611.777,-11018.352,-27905.438,-16501.506,-20586.385
1316905.3656619296,-54832.316,-85665.04,-38201.66,-22621.094,-11019.125,-27902.14,-16498.088,-20580.81
1316905.3696619247,-54833.66,-85659.06,-38200.24,-22610.312,-11012.004,-27905.518,-16501.832,-20581.87
1316905.3736619195,-54828.047,-85639.41,-38199.098,-22590.7,-11003.134,-27906.982,-16507.406,-20590.78
1316905.3776619146,-54839.03,-85642.26,-38206.42,-22592.49,-11008.667,-27903.402,-16503.459,-20583.172
1316905.3816619096,-54857.26,-85671.19,-38214.195,-22620.322,-11022.502,-27900.352,-16496.42,-20569.783
1316905.3856619045,-54850.383,-85678.266,-38208.7,-22631.553,-11020.752,-27902.14,-16497.438,-20570.557
1316905.3896618995,-54831.42,-85654.38,-38198.934,-22613.404,-11006.796,-27906.373,-16502.441,-20579.021
1316905.3936618944,-54825.81,-85634.445,-38195.883,-22591.676,-10999.594,-27907.797,-16503.215,-20582.44
1316905.3976618894,-54821.656,-85625.37,-38196.047,-22588.787,-11002.849,-27907.35,-16504.436,-20585.205
1316905.4016618845,-54832.848,-85645.305,-38202.395,-22613.078,-11015.869,-27906.658,-16504.883,-20587.158
1316905.4056618793,-54842.004,-85664.63,-38205.04,-22629.436,-11024.496,-27907.39,-16505.78,-20590.902
1316905.4096618744,-54836.387,-85652.95,-38199.098,-22615.805,-11010.946,-27910.4,-16511.76,-20597.82
1316905.4136618692,-54828.86,-85629.31,-38196.74,-22593.059,-11005.249,-27911.703,-16515.79,-20602.174
1316905.4176618643,-54831.992,-85628.3,-38201.336,-22594.076,-11008.993,-27910.197,-16514.16,-20600.139
1316905.4216618591,-54844.65,-85653.98,-38208.254,-22618.328,-11020.59,-27909.14,-16510.58,-20592.977
1316905.4256618542,-54849.61,-85669.27,-38207.848,-22629.883,-11023.642,-27909.18,-16510.783,-20586.996
1316905.4296618493,-54842.285,-85660.08,-38200.074,-22615.031,-11013.51,-27909.994,-16511.475,-20589.52
1316905.433661844,-54831.586,-85634.12,-38192.79,-22593.67,-11005.29,-27911.826,-16513.754,-20590.984
1316905.4376618392,-54827.68,-85625.41,-38195.355,-22594.646,-11008.627,-27909.547,-16511.8,-20586.06
1316905.441661834,-54835.53,-85648.69,-38201.215,-22618.857,-11018.2295,-27906.576,-16506.512,-20578.37
1316905.445661829,-54841.88,-85660.69,-38201.457,-22633.262,-11016.846,-27907.023,-16506.512,-20576.213
1316905.4496618242,-54838.137,-85648.64,-38196.086,-22621.42,-11010.214,-27910.4,-16509.889,-20578.451
1316905.453661819,-54830.285,-85630.86,-38194.176,-22599.65,-11001.628,-27911.906,-16512.004,-20579.184
1316905.457661814,-54829.184,-85625.33,-38197.55,-22601.36,-11007.609,-27913.738,-16512.736,-20579.428
1316905.461661809,-54842.45,-85652.34,-38204.266,-22624.676,-11022.624,-27912.07,-16510.621,-20579.51
1316905.465661804,-54850.793,-85670.17,-38201.742,-22636.557,-11023.886,-27909.506,-16508.668,-20578.207
1316905.4696617988,-54848.105,-85656.414,-38196.004,-22623.943,-11014.853,-27911.418,-16513.266,-20583.863
1316905.4736617939,-54841.23,-85632.164,-38193.117,-22604.127,-11005.697,-27912.436,-16513.957,-20583.455
1316905.477661789,-54840.54,-85624.15,-38196.535,-22602.621,-11009.888,-27910.85,-16513.021,-20584.432
1316905.4816617838,-54850.508,-85646.57,-38202.395,-22626.75,-11022.543,-27909.668,-16510.336,-20580.77
1316905.4856617788,-54855.47,-85662.805,-38200.6,-22639.854,-11025.595,-27909.994,-16507.04,-20572.918
1316905.4896617737,-54855.957,-85658.2,-38196.695,-22628.623,-11015.544,-27913.291,-16509.889,-20575.033
1316905.4936617687,-54851.28,-85639.65,-38193.93,-22608.195,-11011.557,-27916.545,-16513.51,-20578.898
1316905.4976617638,-54850.71,-85635.336,-38197.39,-22605.348,-11016.235,-27916.912,-16514.16,-20577.148
1316905.5016617586,-54859.457,-85654.79,-38204.266,-22628.947,-11025.554,-27913.291,-16510.945,-20574.586
1316905.5056617537,-54866.21,-85669.234,-38204.67,-22640.016,-11028.198,-27910.117,-16510.092,-20574.139
1316905.5096617485,-54862.836,-85657.39,-38199.344,-22622.885,-11020.752,-27912.883,-16513.428,-20580.525
1316905.5136617436,-54854.37,-85635.945,-38191.938,-22602.295,-11012.451,-27914.062,-16516.928,-20586.467
1316905.5176617384,-54852.176,-85629.03,-38192.18,-22602.133,-11019.084,-27913.9,-16519.043,-20587.402
1316905.5216617335,-54863.527,-85651.734,-38204.305,-22629.111,-11034.831,-27912.965,-16519.613,-20584.229
1316905.5256617286,-54873.7,-85671.76,-38207.438,-22645.387,-11038.086,-27913.494,-16522.664,-20587.77
1316905.5296617234,-54870.566,-85662.805,-38202.273,-22636.191,-11025.839,-27915.08,-16526.775,-20591.797
1316905.5336617185,-54860.56,-85639.125,-38196.695,-22612.957,-11017.741,-27916.83,-16529.988,-20594.402
1316905.5376617133,-54858.645,-85635.46,-38199.098,-22611.654,-11021.606,-27914.023,-16525.758,-20588.543
1316905.5416617084,-54869.14,-85661.586,-38205.445,-22636.475,-11038.737,-27911.215,-16521.443,-20585.613
1316905.5456617035,-54885.215,-85690.15,-38205.406,-22650.229,-11044.353,-27908.164,-16518.84,-20584.88
1316905.5496616983,-54883.223,-85680.79,-38198.65,-22636.027,-11033.61,-27909.344,-16522.055,-20586.59
1316905.5536616934,-54859.703,-85637.984,-38189.58,-22609.945,-11015.341,-27911.215,-16526.855,-20589.355
1316905.5576616882,-54853.56,-85626.47,-38193.973,-22610.107,-11014.282,-27911.947,-16526.287,-20587.322
1316905.5616616833,-54870.973,-85655.64,-38206.34,-22633.22,-11028.605,-27910.645,-16521.037,-20581.137
1316905.565661678,-54879.395,-85669.97,-38206.504,-22645.957,-11029.541,-27909.18,-16518.352,-20582.113
1316905.5696616732,-54870.566,-85656.414,-38198.977,-22630.453,-11018.759,-27909.75,-16520.06,-20584.84
1316905.5736616682,-54865.074,-85638.92,-38196.004,-22609.863,-11010.295,-27908.977,-16522.258,-20585.816
1316905.577661663,-54866.375,-85637.945,-38199.137,-22612.021,-11015.3,-27907.47,-16522.543,-20585.613
1316905.5816616581,-54873.863,-85655.93,-38204.47,-22635.865,-11026.205,-27905.64,-16520.305,-20583.13
1316905.585661653,-54875.207,-85666.586,-38200.766,-22648.154,-11028.85,-27902.71,-16518.23,-20577.434
1316905.589661648,-54870.08,-85655.36,-38195.027,-22632.977,-11020.183,-27903.281,-16521.81,-20579.63
1316905.593661643,-54860.637,-85631.68,-38190.555,-22610.148,-11011.516,-27905.723,-16528.402,-20588.055
1316905.597661638,-54861.535,-85628.26,-38195.273,-22607.178,-11017.009,-27906.576,-16531.535,-20589.682
1316905.601661633,-54873.414,-85653.28,-38204.227,-22627.523,-11027.263,-27904.053,-16527.059,-20584.393
1316905.6056616278,-54880.78,-85671.63,-38205.85,-22643.19,-11029.338,-27903.484,-16525.27,-20579.713
1316905.609661623,-54876.793,-85663.13,-38198.406,-22631.836,-11020.956,-27903.037,-16528.646,-20586.629
1316905.6136616177,-54866.05,-85639.61,-38193.36,-22607.871,-11009.237,-27903.117,-16530.07,-20587.24
1316905.6176616128,-54859.5,-85627.28,-38191.812,-22604.656,-11008.545,-27900.758,-16525.635,-20581.91
1316905.6216616079,-54867.72,-85645.39,-38196.656,-22627.076,-11018.311,-27897.584,-16518.88,-20572.754
1316905.6256616027,-54872.52,-85657.8,-38196.37,-22639.16,-11021.688,-27895.875,-16515.057,-20565.268
1316905.6296615978,-54869.754,-85647.664,-38192.63,-22625.977,-11010.417,-27895.346,-16515.38,-20566.895
1316905.6336615926,-54863.203,-85626.586,-38188.56,-22604.697,-11000.814,-27894.775,-16516.48,-20568.318
1316905.6376615877,-54861.086,-85619.47,-38190.31,-22602.621,-11008.383,-27894.736,-16517.375,-20568.074
1316905.6416615827,-54870.85,-85642.336,-38198.977,-22627.523,-11023.234,-27892.863,-16515.666,-20565.227
1316905.6456615776,-54879.52,-85662.48,-38200.848,-22641.236,-11028.158,-27891.318,-16513.348,-20560.629
1316905.6496615727,-54874.15,-85654.55,-38193.117,-22628.135,-11019.369,-27890.992,-16515.545,-20566.326
1316905.6536615675,-54863.77,-85632.164,-38186.44,-22605.674,-11007.976,-27890.87,-16513.998,-20566.285
1316905.6576615626,-54860.11,-85622.36,-38187.5,-22601.318,-11005.29,-27888.428,-16510.783,-20559.408
1316905.6616615576,-54869.957,-85643.4,-38195.883,-22625.938,-11014.16,-27885.459,-16508.016,-20554.24
1316905.6656615525,-54875.695,-85657.35,-38193.848,-22639.121,-11014.282,-27883.953,-16510.213,-20557.74
1316905.6696615475,-54869.266,-85644.375,-38184.367,-22621.826,-11002.441,-27881.715,-16511.922,-20558.838
1316905.6736615424,-54860.637,-85623.62,-38179.16,-22599.162,-10993.652,-27881.348,-16514.16,-20563.314
1316905.6776615374,-54858.36,-85616.46,-38180.42,-22596.477,-10995.239,-27878.947,-16510.254,-20558.92
1316905.6816615323,-54867.23,-85633.75,-38187.137,-22619.385,-11010.783,-27876.018,-16504.803,-20550.293
1316905.6856615273,-54873.742,-85648.07,-38186.85,-22633.465,-11016.113,-27873.088,-16502.523,-20549.072
1316905.6896615224,-54867.72,-85640.22,-38182.66,-22619.793,-11004.436,-27870.932,-16502.97,-20549.887
1316905.6936615172,-54861.004,-85620.164,-38177.53,-22600.18,-10996.989,-27872.682,-16508.668,-20554.24
1316905.6976615123,-54858.36,-85610.92,-38178.1,-22596.72,-10999.1455,-27873.414,-16512.492,-20556.682
1316905.7016615071,-54867.8,-85630.05,-38185.1,-22616.496,-11011.719,-27870.605,-16509.848,-20555.584
1316905.7056615022,-54874.758,-85644.695,-38183.88,-22625.977,-11012.492,-27868.734,-16508.424,-20552.205
1316905.7096614973,-54871.094,-85634.445,-38180.746,-22610.596,-11000.285,-27870.525,-16513.104,-20558.758
1316905.713661492,-54865.684,-85615.64,-38180.582,-22592.123,-10989.421,-27872.967,-16519.043,-20564.453
1316905.7176614872,-54865.562,-85611.25,-38183.84,-22593.018,-10992.514,-27870.85,-16518.799,-20562.42
1316905.721661482,-54874.39,-85632.086,-38191.812,-22616.863,-11005.534,-27866.904,-16515.666,-20556.805
1316905.725661477,-54878.785,-85646.734,-38188.723,-22632.285,-11008.22,-27863.69,-16513.754,-20553.549
1316905.729661472,-54871.543,-85638.1,-38179.65,-22618.572,-11000.041,-27863.648,-16517.09,-20556.438
1316905.733661467,-54862.1,-85615.484,-38176.637,-22596.924,-10993.002,-27865.072,-16522.34,-20560.018
1316905.737661462,-54858.36,-85603.92,-38179.08,-22592.855,-10995.524,-27866.455,-16525.105,-20564.9
1316905.7416614569,-54866.336,-85624.63,-38184.45,-22612.916,-11007.935,-27864.422,-16523.885,-20559.693
1316905.745661452,-54873.742,-85644.086,-38186.08,-22625.45,-11012.411,-27863.81,-16525.146,-20559.367
1316905.7496614468,-54873.008,-85638.67,-38182.66,-22613.322,-11005.209,-27866.21,-16529.5,-20562.947
1316905.7536614418,-54866.7,-85618.734,-38176.35,-22590.293,-10997.437,-27866.252,-16532.594,-20565.47
1316905.757661437,-54866.09,-85607.67,-38176.758,-22589.152,-10998.901,-27865.275,-16534.262,-20569.05
1316905.7616614318,-54875.977,-85630.54,-38187.215,-22613.648,-11013.144,-27861.898,-16527.059,-20559.693
1316905.7656614268,-54882.69,-85648.805,-38189.7,-22628.338,-11019.45,-27858.44,-16523.113,-20553.182
1316905.7696614217,-54878.258,-85642.26,-38183.15,-22619.508,-11011.271,-27860.596,-16526.855,-20558.514
1316905.7736614167,-54872.926,-85625.77,-38179.973,-22603.8,-11005.087,-27862.59,-16530.355,-20561.727
1316905.7776614116,-54871.867,-85618.125,-38182.945,-22599.57,-11005.819,-27861.207,-16530.803,-20560.223
1316905.7816614066,-54884.766,-85640.625,-38190.105,-22623.861,-11016.887,-27860.393,-16529.176,-20555.135
1316905.7856614017,-54893.11,-85660.28,-38191.977,-22638.348,-11020.915,-27858.318,-16529.053,-20554.77
1316905.7896613965,-54890.42,-85651.25,-38187.906,-22623.658,-11012.126,-27860.922,-16536.215,-20564.25
1316905.7936613916,-54885.094,-85630.45,-38185.223,-22600.424,-11004.191,-27864.666,-16544.963,-20575.604
1316905.7976613864,-54882.938,-85620.61,-38187.137,-22598.715,-11010.132,-27865.643,-16546.834,-20574.545
1316905.8016613815,-54891.44,-85639.695,-38192.508,-22623.943,-11025.229,-27864.096,-16543.742,-20565.674
1316905.8056613766,-54897.543,-85654.91,-38187.95,-22635.174,-11025.879,-27861.084,-16541.3,-20562.826
1316905.8096613714,-54893.395,-85645.96,-38184.855,-22622.559,-11016.195,-27864.014,-16547.16,-20569.418
1316905.8136613665,-54884.2,-85624.15,-38181.6,-22601.807,-11006.226,-27866.293,-16548.992,-20568.645
1316905.8176613613,-54878.95,-85615.28,-38180.016,-22597.291,-11007.609,-27865.275,-16547.893,-20564.78
1316905.8216613564,-54887.695,-85633.016,-38188.355,-22616.863,-11019.409,-27862.916,-16545.045,-20557.129
1316905.8256613512,-54898.848,-85654.18,-38194.133,-22633.953,-11027.792,-27862.387,-16542.604,-20551.107
1316905.8296613463,-54896.73,-85648.195,-38188.64,-22622.031,-11018.2705,-27862.06,-16542.48,-20550.457
1316905.8336613413,-54888.88,-85625.2,-38185.914,-22600.383,-11009.115,-27864.055,-16547.69,-20555.379
1316905.8376613362,-54891.44,-85623.66,-38191.12,-22601.035,-11016.113,-27864.99,-16551.596,-20559.53
1316905.8416613312,-54902.508,-85646.89,-38199.098,-22623.984,-11028.158,-27862.713,-16550.945,-20556.723
1316905.845661326,-54909.305,-85664.555,-38199.707,-22638.916,-11028.931,-27862.428,-16553.71,-20554.363
1316905.8496613211,-54904.46,-85651.734,-38192.223,-22626.426,-11016.357,-27864.502,-16559.285,-20567.059
1316905.8536613162,-54896.28,-85626.836,-38187.95,-22606.812,-11007.568,-27866.984,-16563.273,-20573.201
1316905.857661311,-54895.996,-85619.67,-38191.285,-22603.477,-11012.533,-27865.643,-16562.664,-20569.459
1316905.8616613061,-54905.48,-85640.67,-38195.152,-22625.408,-11027.385,-27861.695,-16561.32,-20565.594
1316905.865661301,-54910.77,-85658.29,-38193.44,-22639.812,-11031.982,-27861.084,-16561.28,-20565.105
1316905.869661296,-54906.617,-85650.516,-38189.25,-22625.205,-11023.601,-27866.09,-16566.326,-20569.459
1316905.8736612909,-54898.113,-85628.3,-38187.418,-22604.941,-11018.555,-27870.77,-16574.178,-20579.469
1316905.877661286,-54896.77,-85620.69,-38189.984,-22602.703,-11022.543,-27870.322,-16574.748,-20580.201
1316905.881661281,-54906.09,-85639.2,-38198.04,-22624.96,-11033.977,-27866.781,-16571.004,-20572.186
1316905.8856612758,-54911.582,-85653.52,-38197.023,-22640.057,-11034.953,-27862.713,-16566.57,-20564.047
1316905.889661271,-54908.367,-85642.74,-38191.977,-22629.6,-11024.414,-27863.404,-16568.645,-20567.709
1316905.8936612657,-54904.137,-85626.38,-38189.535,-22611.572,-11017.904,-27866.781,-16574.178,-20572.998
1316905.8976612608,-54905.438,-85622.805,-38191.164,-22610.88,-11018.596,-27866.578,-16574.666,-20571.453
1316905.9016612559,-54913.902,-85642.7,-38196.98,-22631.47,-11030.478,-27862.102,-16569.703,-20562.176
1316905.9056612507,-54919.355,-85664.06,-38197.715,-22645.875,-11034.506,-27860.475,-16566.936,-20558.797
1316905.9096612458,-54911.34,-85653.24,-38189.09,-22632.773,-11023.071,-27861.207,-16567.871,-20559.49
1316905.9136612406,-54896.73,-85621.79,-38183.84,-22610.352,-11011.23,-27862.59,-16573.61,-20564.129
1316905.9176612357,-54891.32,-85610.44,-38185.793,-22609.416,-11014.526,-27861.98,-16572.55,-20560.67
1316905.9216612307,-54900.758,-85627.93,-38189.94,-22630.982,-11024.943,-27858.928,-16567.22,-20552.857
1316905.9256612256,-54909.793,-85646.08,-38192.26,-22648.438,-11029.297,-27857.383,-16566.082,-20551.922
1316905.9296612206,-54907.676,-85639.53,-38188.316,-22638.348,-11020.63,-27858.236,-16569.174,-20553.346
1316905.9336612155,-54900.598,-85619.06,-38184.45,-22617.025,-11010.417,-27858.643,-16569.58,-20552.246
1316905.9376612105,-54897.42,-85609.375,-38185.06,-22614.584,-11013.672,-27860.19,-16570.395,-20552.043
1316905.9416612054,-54903.28,-85628.42,-38189.332,-22633.668,-11024.252,-27859.58,-16569.58,-20546.021
1316905.9456612004,-54911.664,-85647.55,-38188.723,-22648.602,-11027.832,-27860.475,-16573.486,-20548.26
1316905.9496611955,-54907.473,-85638.43,-38178.266,-22637.492,-11017.05,-27861.816,-16580.486,-20559.326
1316905.9536611903,-54900.84,-85620.04,-38173.91,-22616.496,-11012.573,-27863.404,-16586.223,-20563.191
1316905.9576611854,-54904.176,-85616.54,-38179.363,-22615.195,-11018.148,-27861.572,-16583.822,-20560.385
1316905.9616611802,-54915.977,-85634.85,-38188.844,-22639.445,-11029.541,-27858.969,-16580.77,-20554.525
1316905.9656611753,-54923.79,-85653.57,-38191.773,-22655.926,-11034.506,-27857.627,-16580.322,-20554.158
1316905.9696611704,-54920.9,-85644.9,-38186.28,-22643.31,-11024.821,-27858.318,-16582.316,-20558.229
1316905.9736611652,-54914.797,-85622.64,-38183.555,-22623.047,-11016.928,-27859.824,-16586.264,-20560.262
1316905.9776611603,-54910.035,-85613.28,-38185.184,-22620.078,-11017.009,-27859.172,-16588.014,-20558.96
1316905.9816611551,-54918.785,-85631.31,-38191.49,-22643.799,-11028.198,-27857.016,-16584.92,-20553.467
1316905.9856611502,-54929.77,-85652.836,-38193.605,-22660.564,-11032.756,-27856.08,-16582.723,-20553.02
1316905.989661145,-54927.246,-85643.88,-38186.89,-22650.066,-11024.252,-27857.992,-16586.834,-20557.902
1316905.99366114,-54920.453,-85623.45,-38180.176,-22628.053,-11018.066,-27858.766,-16588.094,-20559.773
1316905.9976611352,-54919.72,-85617.35,-38183.188,-22627.32,-11020.427,-27858.074,-16586.182,-20553.752
1316906.00166113,-54926.883,-85633.305,-38190.31,-22649.658,-11033.081,-27856.934,-16581.299,-20543.701
1316906.005661125,-54933.637,-85648.52,-38191.812,-22664.918,-11037.883,-27855.713,-16579.102,-20542.318
1316906.00966112,-54931.4,-85641.89,-38186.16,-22654.867,-11029.907,-27857.79,-16582.887,-20546.428
1316906.013661115,-54927.53,-85625.29,-38184.082,-22636.68,-11023.397,-27862.143,-16588.543,-20548.707
1316906.01766111,-54927.004,-85621.79,-38188.395,-22632.488,-11023.967,-27862.793,-16592.164,-20552.734
1316906.0216611049,-54936.523,-85641.12,-38195.64,-22653.484,-11035.808,-27861.492,-16591.879,-20552.41
1316906.0256611,-54944.746,-85658.734,-38197.715,-22670.492,-11041.83,-27862.428,-16594.441,-20555.787
1316906.0296610948,-54943.44,-85649.78,-38191.812,-22659.465,-11035.849,-27863.363,-16599.773,-20561.238
1316906.0336610898,-54936.566,-85625.57,-38185.793,-22640.057,-11027.1,-27865.275,-16603.598,-20565.512
1316906.0376610847,-54931.684,-85615.28,-38187.625,-22637.412,-11030.314,-27866.74,-16604.451,-20562.338
1316906.0416610797,-54937.01,-85631.11,-38194.254,-22659.344,-11040.283,-27865.764,-16600.709,-20557.332
1316906.0456610748,-54944.95,-85649.91,-38197.43,-22675.498,-11042.888,-27863.975,-16597.453,-20553.63
1316906.0496610696,-54947.062,-85647.99,-38196.168,-22667.562,-11034.302,-27864.951,-16604.248,-20560.262
1316906.0536610647,-54941.203,-85627.85,-38193.727,-22648.602,-11025.1875,-27867.92,-16612.875,-20567.465
1316906.0576610595,-54938.76,-85618.62,-38196.86,-22644.492,-11025.635,-27868.49,-16615.275,-20566.082
1316906.0616610546,-54948.082,-85638.76,-38205.85,-22665.977,-11040.161,-27865.887,-16612.549,-20559.693
1316906.0656610497,-54955.203,-85653.73,-38202.8,-22680.908,-11043.905,-27863.893,-16611.898,-20563.191
1316906.0696610445,-54952.883,-85647.79,-38195.273,-22671.754,-11036.947,-27866.66,-16615.357,-20566.854
1316906.0736610396,-54945.395,-85626.06,-38189.78,-22647.46,-11025.391,-27868.938,-16619.508,-20569.215
1316906.0776610344,-54946.777,-85621.18,-38192.71,-22646.445,-11026.652,-27870.402,-16621.135,-20567.586
1316906.0816610295,-54958.133,-85643.07,-38201.375,-22669.598,-11042.318,-27868.287,-16617.514,-20565.35
1316906.0856610243,-54963.543,-85657.31,-38203.25,-22684.49,-11044.8,-27866.252,-16615.113,-20562.785
1316906.0896610194,-54960.938,-85649.58,-38196.86,-22674.887,-11035.075,-27865.887,-16614.217,-20565.064
1316906.0936610145,-54956.137,-85631.35,-38194.01,-22652.426,-11027.263,-27866.62,-16616.658,-20566.854
1316906.0976610093,-54953.453,-85622.234,-38196.492,-22650.025,-11033.61,-27868.408,-16618.979,-20565.633
1316906.1016610044,-54958.863,-85637.9,-38202.598,-22674.113,-11047.689,-27865.846,-16615.438,-20562.541
1316906.1056609992,-54963.83,-85656.91,-38203.9,-22688.438,-11049.357,-27864.38,-16614.787,-20564.209
1316906.1096609943,-54959.27,-85648.28,-38198.406,-22675.62,-11033.081,-27866.7,-16619.223,-20568.482
1316906.1136609893,-54953.332,-85627.32,-38193.074,-22654.094,-11021.811,-27869.914,-16626.059,-20573.365
1316906.1176609842,-54951.215,-85621.95,-38195.152,-22651.45,-11027.629,-27869.873,-16628.865,-20571.248
1316906.1216609792,-54959.637,-85641.08,-38202.965,-22674.846,-11041.22,-27870.117,-16629.273,-20574.79
1316906.125660974,-54970.176,-85659.67,-38205.973,-22690.023,-11048.015,-27868.328,-16625.447,-20567.75
1316906.1296609691,-54975.63,-85660.445,-38206.95,-22684.49,-11043.335,-27867.758,-16623.129,-20562.867
1316906.133660964,-54970.83,-85640.875,-38203.98,-22664.307,-11033.081,-27868.652,-16625.285,-20561.402
1316906.137660959,-54968.14,-85631.63,-38205.04,-22659.303,-11034.831,-27868.652,-16625.203,-20561.605
1316906.141660954,-54974.45,-85646.85,-38210.98,-22680.705,-11042.847,-27865.887,-16620.932,-20558.514
1316906.145660949,-54979.414,-85661.18,-38210.45,-22695.191,-11045.939,-27864.91,-16619.14,-20556.723
1316906.149660944,-54976.77,-85653.28,-38204.508,-22686.32,-11040.121,-27866.496,-16623.78,-20564.209
1316906.1536609388,-54971.56,-85633.42,-38201.66,-22666.504,-11033.081,-27868.125,-16627.85,-20569.256
1316906.157660934,-54969.973,-85623.3,-38202.965,-22663.209,-11033.407,-27868.938,-16630.291,-20574.992
1316906.161660929,-54979.535,-85644.734,-38211.223,-22686.2,-11046.509,-27869.14,-16631.227,-20577.76
1316906.1656609238,-54990.848,-85667.08,-38213.582,-22702.475,-11054.443,-27866.66,-16628.906,-20575.277
1316906.1696609189,-55000.33,-85675.336,-38212.363,-22696.818,-11055.949,-27866.21,-16628.377,-20576.66
1316906.1736609137,-54997.316,-85655.84,-38208.414,-22676.066,-11044.597,-27867.758,-16631.633,-20579.51
1316906.1776609088,-54974.203,-85620.164,-38204.184,-22667.521,-11033.285,-27869.71,-16633.383,-20578.207
1316906.1816609039,-54967.695,-85622.03,-38205.812,-22685.223,-11041.545,-27868.205,-16631.145,-20573.445
1316906.1856608987,-54982.016,-85647.55,-38208.863,-22702.719,-11051.758,-27865.887,-16627.85,-20567.547
1316906.1896608938,-54978.312,-85640.38,-38202.273,-22693.93,-11041.22,-27866.7,-16627.523,-20567.098
1316906.1936608886,-54968.426,-85618.164,-38199.18,-22672.404,-11029.338,-27870.443,-16632.568,-20572.225
1316906.1976608837,-54968.914,-85610.805,-38203.74,-22666.18,-11031.169,-27870.85,-16633.912,-20570.436
1316906.2016608785,-54969.65,-85614.79,-38209.188,-22683.96,-11038.696,-27867.92,-16631.512,-20566.285
1316906.2056608736,-54974.367,-85628.3,-38210.53,-22697.104,-11040.283,-27866.984,-16629.191,-20566.691
1316906.2096608686,-54969.85,-85617.44,-38205.12,-22685.914,-11024.252,-27868.816,-16630.006,-20566.285
1316906.2136608635,-54958.78,-85592.29,-38200.32,-22664.186,-11013.876,-27870.117,-16632.732,-20569.295
1316906.2176608585,-54963.34,-85590.54,-38208.21,-22662.232,-11024.414,-27871.379,-16632.691,-20571.697
1316906.2216608534,-54965.58,-85603.36,-38211.71,-22681.152,-11035.116,-27869.629,-16633.668,-20571.127
1316906.2256608484,-54970.34,-85619.305,-38211.508,-22697.674,-11035.6045,-27871.502,-16637.166,-20572.062
1316906.2296608435,-54969.65,-85610.15,-38205.65,-22690.635,-11027.792,-27873.414,-16639.486,-20570.271
1316906.2336608383,-54964.03,-85588.99,-38199.137,-22669.639,-11016.398,-27876.303,-16643.352,-20575.684
1316906.2376608334,-54963.664,-85583.7,-38198.12,-22664.307,-11023.4375,-27876.182,-16644.328,-20579.63
1316906.2416608282,-54976.24,-85607.55,-38208.78,-22687.094,-11040.568,-27874.105,-16642.254,-20576.863
1316906.2456608233,-54985.598,-85630.945,-38214.926,-22703.898,-11042.318,-27873.047,-16640.504,-20576.416
1316906.2496608181,-54982.87,-85627.484,-38211.02,-22690.594,-11030.111,-27874.512,-16642.213,-20581.422
1316906.2536608132,-54978.152,-85605.92,-38207.645,-22672.527,-11021.159,-27877.28,-16645.305,-20584.88
1316906.2576608083,-54979.574,-85596.52,-38212.65,-22670.371,-11024.414,-27877.768,-16645.916,-20585.896
1316906.261660803,-54987.387,-85618.01,-38219.77,-22690.674,-11037.517,-27873.414,-16641.357,-20579.998
1316906.2656607982,-54996.137,-85637.05,-38220.906,-22706.463,-11041.626,-27872.764,-16641.928,-20579.06
1316906.269660793,-54994.14,-85628.91,-38214.6,-22697.104,-11029.053,-27874.92,-16644.816,-20583.496
1316906.273660788,-54984.297,-85608.28,-38208.863,-22673.545,-11018.718,-27876.873,-16647.258,-20583.13
1316906.2776607831,-54983.97,-85602.87,-38211.387,-22671.225,-11020.02,-27876.303,-16647.014,-20580.201
1316906.281660778,-54993.734,-85623.45,-38220.746,-22694.012,-11036.621,-27875.244,-16645.346,-20580.16
1316906.285660773,-55005.047,-85646.53,-38225.26,-22713.867,-11043.254,-27875.773,-16643.922,-20574.992
1316906.289660768,-55000.49,-85638.67,-38218.59,-22700.318,-11029.948,-27875.693,-16644.125,-20575.562
1316906.293660763,-54990.074,-85613.85,-38213.38,-22678.184,-11020.142,-27878.053,-16647.584,-20581.38
1316906.2976607578,-54989.465,-85608.4,-38217.0,-22675.498,-11024.292,-27879.314,-16646.648,-20580.73
1316906.3016607529,-54997.64,-85627.32,-38225.75,-22697.145,-11037.272,-27878.053,-16642.334,-20573.812
1316906.305660748,-55008.223,-85643.03,-38227.215,-22715.414,-11041.464,-27876.67,-16638.469,-20569.215
1316906.3096607428,-55006.797,-85638.875,-38220.99,-22708.781,-11038.412,-27877.117,-16641.684,-20570.027
1316906.3136607378,-54997.64,-85616.87,-38216.473,-22688.273,-11031.332,-27878.459,-16646.443,-20575.643
1316906.3176607327,-54994.348,-85608.16,-38218.547,-22683.066,-11029.094,-27875.896,-16643.434,-20571.656
1316906.3216607277,-55002.81,-85624.555,-38223.918,-22703.004,-11035.6045,-27871.99,-16638.55,-20565.145
1316906.3256607228,-55007.69,-85640.22,-38223.105,-22717.49,-11037.028,-27870.729,-16639.527,-20565.309
1316906.3296607176,-55003.83,-85637.17,-38218.832,-22705.12,-11027.71,-27872.885,-16645.223,-20571.248
1316906.3336607127,-54993.574,-85616.414,-38213.258,-22683.39,-11021.525,-27875.693,-16650.676,-20579.998
1316906.3376607075,-54989.91,-85608.65,-38215.78,-22678.467,-11027.1,-27876.059,-16651.287,-20580.525
1316906.3416607026,-54998.863,-85626.71,-38222.086,-22700.766,-11038.737,-27871.135,-16645.955,-20570.477
1316906.3456606974,-55006.758,-85645.59,-38223.918,-22718.14,-11044.312,-27869.102,-16645.143,-20570.312
1316906.3496606925,-55005.535,-85640.83,-38219.85,-22706.26,-11030.151,-27870.89,-16648.396,-20574.098
1316906.3536606876,-54998.008,-85620.52,-38214.844,-22684.123,-11018.921,-27873.902,-16651.45,-20576.375
1316906.3576606824,-54995.484,-85610.11,-38216.92,-22680.746,-11022.095,-27873.74,-16651.57,-20574.178
1316906.3616606775,-55001.06,-85623.45,-38222.168,-22700.195,-11031.657,-27871.299,-16648.52,-20569.744
1316906.3656606723,-55007.734,-85641.36,-38222.496,-22716.553,-11036.825,-27869.102,-16644.857,-20566.041
1316906.3696606674,-55002.77,-85637.9,-38217.53,-22709.025,-11028.931,-27869.996,-16649.21,-20572.877
1316906.3736606624,-54993.41,-85616.09,-38213.543,-22686.2,-11018.921,-27873.17,-16655.396,-20579.225
1316906.3776606573,-54993.125,-85609.09,-38217.0,-22683.31,-11022.136,-27874.635,-16659.018,-20581.91
1316906.3816606523,-55004.926,-85627.85,-38226.688,-22704.795,-11033.8545,-27872.926,-16655.438,-20576.13
1316906.3856606472,-55014.61,-85648.56,-38225.344,-22721.64,-11039.511,-27869.67,-16649.414,-20569.295
1316906.3896606422,-55015.016,-85646.81,-38218.02,-22713.787,-11032.349,-27867.676,-16645.428,-20565.633
1316906.393660637,-55009.156,-85626.18,-38215.008,-22692.424,-11018.474,-27869.834,-16649.334,-20569.5
1316906.3976606322,-54995.812,-85608.69,-38215.74,-22688.803,-11018.148,-27872.803,-16653.605,-20571.818
1316906.4016606272,-54999.797,-85617.48,-38221.723,-22709.066,-11031.291,-27872.07,-16652.385,-20570.883
1316906.405660622,-55007.61,-85635.26,-38221.883,-22723.227,-11035.522,-27868.572,-16649.414,-20567.18
1316906.4096606171,-55008.71,-85631.68,-38217.164,-22713.664,-11026.693,-27869.14,-16649.455,-20564.453
1316906.413660612,-55001.06,-85609.09,-38214.195,-22693.156,-11016.968,-27873.373,-16655.152,-20570.557
1316906.417660607,-54990.848,-85590.17,-38213.582,-22686.729,-11013.225,-27873.617,-16657.47,-20570.436
1316906.421660602,-54995.812,-85603.516,-38217.734,-22704.713,-11021.2,-27869.02,-16651.367,-20563.6
1316906.425660597,-55003.746,-85621.55,-38219.727,-22721.232,-11027.67,-27867.473,-16648.885,-20562.379
1316906.429660592,-54999.797,-85613.734,-38214.887,-22712.484,-11018.881,-27867.96,-16649.902,-20564.656
1316906.4336605868,-54996.094,-85596.64,-38210.938,-22691.732,-11011.597,-27867.514,-16651.164,-20566.365
1316906.437660582,-54999.473,-85592.98,-38215.58,-22689.17,-11015.991,-27867.596,-16652.385,-20568.441
1316906.441660577,-55010.215,-85613.125,-38223.227,-22710.734,-11027.06,-27866.904,-16653.402,-20567.465
1316906.4456605718,-55018.598,-85632.734,-38228.273,-22723.797,-11034.18,-27865.643,-16653.564,-20565.674
1316906.4496605669,-55014.69,-85623.66,-38222.902,-22711.71,-11025.351,-27867.432,-16655.762,-20569.5
1316906.4536605617,-55009.2,-85602.38,-38217.33,-22693.727,-11015.829,-27869.508,-16660.32,-20573.365
1316906.4576605568,-55006.918,-85594.93,-38217.125,-22693.848,-11018.921,-27868.938,-16658.691,-20568.889
1316906.4616605516,-55016.93,-85616.3,-38225.87,-22717.814,-11033.691,-27867.025,-16652.996,-20557.984
1316906.4656605467,-55022.137,-85637.086,-38226.36,-22734.498,-11039.47,-27866.21,-16649.617,-20556.234
1316906.4696605417,-55017.05,-85630.086,-38218.547,-22721.844,-11030.273,-27865.887,-16649.129,-20553.955
1316906.4736605366,-55010.05,-85607.586,-38214.684,-22699.912,-11019.857,-27868.49,-16654.541,-20556.072
1316906.4776605316,-55009.688,-85603.195,-38220.01,-22698.283,-11022.177,-27870.281,-16657.553,-20560.75
1316906.4816605265,-55019.086,-85622.93,-38230.633,-22719.646,-11033.569,-27868.408,-16653.564,-20558.594
1316906.4856605215,-55028.934,-85640.55,-38234.5,-22736.125,-11037.68,-27867.637,-16650.96,-20554.89
1316906.4896605166,-55026.695,-85634.52,-38228.72,-22726.197,-11029.745,-27867.473,-16655.477,-20562.785
1316906.4936605114,-55020.793,-85616.87,-38225.098,-22704.998,-11023.234,-27871.338,-16662.15,-20568.36
1316906.4976605065,-55017.703,-85610.88,-38225.79,-22701.824,-11027.71,-27871.787,-16660.604,-20567.18
1316906.5016605014,-55021.28,-85623.21,-38231.65,-22721.6,-11037.883,-27869.223,-16653.89,-20560.14
1316906.5056604964,-55028.566,-85639.61,-38234.5,-22738.69,-11045.98,-27867.758,-16650.35,-20556.234
1316906.5096604913,-55028.32,-85636.84,-38228.027,-22730.592,-11038.046,-27866.375,-16651.45,-20558.594
1316906.5136604863,-55021.895,-85615.69,-38224.61,-22708.74,-11024.902,-27866.984,-16654.744,-20562.826
1316906.5176604814,-55022.95,-85611.62,-38231.324,-22702.842,-11028.198,-27867.188,-16656.738,-20562.176
1316906.5216604762,-55032.594,-85631.06,-38241.09,-22722.006,-11040.609,-27865.275,-16653.24,-20557.088
1316906.5256604713,-55041.465,-85648.44,-38243.367,-22739.096,-11044.882,-27864.137,-16650.635,-20556.52
1316906.5296604661,-55041.586,-85642.3,-38237.43,-22733.562,-11035.238,-27866.62,-16655.682,-20562.785
1316906.5336604612,-55034.547,-85620.08,-38234.09,-22710.654,-11023.4375,-27872.314,-16662.436,-20571.371
1316906.5376604563,-55029.42,-85607.67,-38230.266,-22702.11,-11025.269,-27872.479,-16663.127,-20574.79
1316906.541660451,-55041.18,-85626.875,-38235.23,-22723.918,-11040.8125,-27869.996,-16661.541,-20571.615
1316906.5456604462,-55047.16,-85644.984,-38234.742,-22739.34,-11043.254,-27866.455,-16660.115,-20570.557
1316906.549660441,-55045.535,-85643.27,-38232.79,-22731.73,-11033.285,-27866.781,-16661.744,-20575.277
1316906.553660436,-55041.465,-85622.68,-38229.82,-22710.205,-11022.095,-27869.305,-16666.424,-20578.898
1316906.557660431,-55040.977,-85612.76,-38233.848,-22705.322,-11025.473,-27871.95,-16672.934,-20585.652
1316906.561660426,-55047.977,-85628.586,-38241.13,-22723.553,-11036.947,-27870.973,-16671.754,-20583.293
1316906.565660421,-55053.67,-85641.65,-38241.984,-22740.113,-11038.981,-27869.508,-16670.654,-20579.916
1316906.5696604159,-55053.918,-85637.49,-38237.59,-22732.26,-11030.722,-27870.973,-16672.934,-20583.578
1316906.573660411,-55045.9,-85617.555,-38232.465,-22711.955,-11023.193,-27870.932,-16674.764,-20583.781
1316906.5776604058,-55044.07,-85607.95,-38235.516,-22705.322,-11027.629,-27870.646,-16676.434,-20582.275
1316906.5816604008,-55053.266,-85623.21,-38242.27,-22725.383,-11038.493,-27870.117,-16673.87,-20577.148
1316906.585660396,-55060.71,-85640.51,-38243.777,-22742.31,-11040.771,-27867.066,-16668.742,-20571.656
1316906.5896603907,-55062.46,-85639.164,-38240.48,-22735.027,-11036.499,-27868.084,-16668.336,-20572.713
1316906.5936603858,-55058.434,-85620.2,-38235.72,-22713.096,-11028.28,-27870.402,-16672.934,-20577.963
1316906.5976603806,-55054.2,-85606.98,-38235.027,-22708.09,-11026.611,-27870.281,-16674.357,-20579.266
1316906.6016603757,-55063.152,-85624.43,-38243.45,-22731.69,-11042.644,-27869.508,-16672.04,-20574.178
1316906.6056603706,-55075.035,-85649.3,-38247.152,-22751.018,-11049.765,-27868.938,-16667.725,-20567.791
1316906.6096603656,-55075.156,-85644.78,-38243.734,-22742.88,-11041.342,-27870.037,-16667.236,-20565.918
1316906.6136603607,-55064.74,-85618.86,-38238.445,-22720.947,-11028.117,-27873.535,-16672.607,-20575.236
1316906.6176603555,-55059.082,-85606.125,-38236.574,-22713.867,-11027.466,-27871.664,-16671.021,-20574.992
1316906.6216603506,-55064.984,-85621.016,-38243.492,-22733.684,-11039.714,-27867.88,-16663.574,-20566.57
1316906.6256603454,-55071.496,-85636.234,-38242.676,-22747.926,-11038.452,-27864.99,-16660.523,-20563.518
1316906.6296603405,-55071.86,-85634.4,-38237.793,-22739.096,-11032.187,-27868.125,-16662.68,-20567.912
1316906.6336603356,-55064.82,-85613.08,-38233.805,-22718.914,-11021.037,-27869.508,-16664.998,-20572.266
1316906.6376603304,-55064.78,-85607.47,-38236.734,-22717.611,-11025.432,-27870.525,-16665.73,-20573.771
1316906.6416603255,-55073.895,-85627.04,-38244.832,-22739.055,-11037.436,-27868.531,-16661.621,-20572.266
1316906.6456603203,-55081.22,-85644.984,-38246.297,-22756.227,-11041.464,-27865.031,-16656.941,-20568.727
1316906.6496603154,-55080.85,-85639.28,-38243.53,-22747.803,-11030.314,-27865.52,-16658.162,-20571.736
1316906.6536603102,-55074.016,-85619.67,-38240.4,-22726.318,-11018.393,-27866.375,-16660.197,-20573.975
1316906.6576603053,-55069.664,-85609.13,-38242.066,-22720.256,-11019.775,-27866.863,-16658.936,-20577.434
1316906.6616603003,-55075.605,-85623.66,-38247.76,-22738.852,-11031.128,-27862.387,-16651.287,-20567.994
1316906.6656602952,-55083.78,-85644.984,-38248.984,-22756.389,-11037.354,-27862.143,-16648.723,-20567.668
1316906.6696602902,-55085.33,-85644.49,-38244.754,-22748.373,-11030.762,-27863.607,-16649.617,-20571.209
1316906.673660285,-55077.8,-85625.61,-38238.895,-22726.562,-11023.193,-27866.904,-16653.564,-20579.06
1316906.6776602801,-55073.45,-85614.1,-38237.996,-22718.182,-11023.112,-27866.172,-16650.676,-20578.248
1316906.6816602752,-55080.895,-85629.68,-38245.2,-22738.281,-11037.436,-27865.072,-16645.549,-20571.045
1316906.68566027,-55090.617,-85648.44,-38247.316,-22754.844,-11043.661,-27865.072,-16641.195,-20565.715
1316906.689660265,-55087.73,-85639.125,-38242.434,-22744.02,-11033.977,-27867.393,-16643.514,-20570.72
1316906.69366026,-55078.656,-85615.6,-38240.113,-22723.715,-11024.821,-27871.055,-16646.281,-20579.713
1316906.697660255,-55075.117,-85606.57,-38241.09,-22717.164,-11025.269,-27870.973,-16642.863,-20580.201
1316906.7016602498,-55087.12,-85627.0,-38249.105,-22736.492,-11037.272,-27867.27,-16634.236,-20574.016
1316906.705660245,-55098.51,-85646.24,-38254.395,-22755.006,-11046.631,-27865.398,-16625.732,-20569.662
1316906.70966024,-55092.855,-85637.125,-38247.113,-22746.582,-11040.771,-27863.12,-16621.867,-20568.28
1316906.7136602348,-55088.42,-85615.805,-38242.88,-22729.045,-11033.488,-27865.846,-16624.715,-20574.3
1316906.71766023,-55092.285,-85611.62,-38244.47,-22724.365,-11034.14,-27866.537,-16622.844,-20575.969
1316906.7216602247,-55104.82,-85633.47,-38252.117,-22747.152,-11045.695,-27863.81,-16614.46,-20566.977
1316906.7256602198,-55115.44,-85654.46,-38256.797,-22766.195,-11051.2295,-27863.242,-16613.445,-20571.248
1316906.7296602149,-55109.133,-85646.164,-38249.88,-22756.104,-11041.626,-27864.463,-16616.863,-20577.678
1316906.7336602097,-55100.465,-85621.586,-38246.258,-22734.58,-11029.094,-27866.781,-16618.693,-20579.184
1316906.7376602048,-55100.63,-85611.05,-38251.14,-22728.598,-11032.431,-27868.164,-16616.455,-20579.102
1316906.7416601996,-55109.418,-85626.305,-38259.848,-22746.867,-11044.271,-27864.951,-16611.004,-20575.48
1316906.7456601947,-55118.086,-85645.555,-38264.65,-22764.527,-11050.537,-27863.12,-16607.219,-20568.97
1316906.7496601897,-55116.742,-85642.21,-38260.05,-22757.365,-11043.051,-27861.94,-16602.621,-20565.877
1316906.7536601846,-55110.35,-85621.3,-38254.56,-22736.045,-11034.099,-27863.73,-16603.557,-20575.887
1316906.7576601796,-55109.133,-85613.69,-38256.473,-22731.365,-11035.319,-27865.234,-16604.127,-20582.764
1316906.7616601745,-55119.266,-85633.836,-38263.227,-22755.78,-11052.124,-27861.695,-16597.453,-20573.854
1316906.7656601695,-55128.34,-85653.12,-38262.9,-22771.852,-11056.152,-27856.895,-16588.42,-20564.535
1316906.7696601644,-55128.625,-85650.19,-38259.156,-22765.178,-11044.149,-27858.766,-16589.314,-20568.604
1316906.7736601594,-55123.984,-85631.88,-38256.105,-22745.117,-11036.825,-27865.234,-16596.355,-20577.312
1316906.7776601545,-55120.85,-85622.6,-38257.69,-22736.492,-11036.011,-27867.066,-16597.168,-20579.184
1316906.7816601493,-55128.176,-85638.19,-38265.465,-22751.182,-11043.295,-27864.951,-16590.129,-20572.469
1316906.7856601444,-55136.07,-85658.0,-38267.254,-22769.94,-11048.096,-27863.242,-16585.938,-20567.465
1316906.7896601392,-55134.36,-85654.91,-38261.68,-22765.545,-11043.661,-27865.275,-16588.176,-20569.459
1316906.7936601343,-55125.207,-85634.04,-38255.496,-22743.408,-11033.8955,-27866.252,-16589.803,-20572.795
1316906.7976601294,-55121.707,-85625.086,-38259.48,-22735.148,-11037.476,-27866.863,-16590.535,-20575.318
1316906.8016601242,-55125.9,-85638.06,-38264.85,-22752.605,-11051.066,-27863.69,-16584.717,-20569.012
1316906.8056601193,-55129.76,-85652.71,-38264.527,-22769.816,-11052.653,-27860.84,-16579.63,-20564.738
1316906.809660114,-55133.02,-85650.15,-38258.953,-22762.818,-11044.149,-27862.834,-16580.77,-20568.768
1316906.8136601092,-55127.32,-85629.766,-38252.81,-22740.56,-11034.953,-27864.625,-16583.455,-20575.604
1316906.817660104,-55123.78,-85618.21,-38256.145,-22734.213,-11034.831,-27864.707,-16583.863,-20575.195
1316906.821660099,-55135.133,-85638.19,-38264.406,-22755.615,-11048.95,-27863.81,-16579.225,-20570.027
1316906.8256600942,-55144.98,-85658.66,-38267.05,-22773.072,-11053.589,-27863.242,-16575.766,-20564.861
1316906.829660089,-55145.062,-85654.5,-38262.086,-22766.48,-11049.643,-27865.357,-16577.434,-20566.65
1316906.833660084,-55135.703,-85633.99,-38253.46,-22743.531,-11041.911,-27865.846,-16579.266,-20572.795
1316906.837660079,-55132.53,-85623.336,-38253.055,-22737.184,-11042.807,-27866.984,-16577.922,-20574.098
1316906.841660074,-55141.48,-85640.34,-38258.586,-22757.895,-11053.02,-27866.13,-16571.004,-20565.268
1316906.845660069,-55148.887,-85657.31,-38261.844,-22774.943,-11056.193,-27863.037,-16563.314,-20555.379
1316906.8496600639,-55143.84,-85650.19,-38257.203,-22765.87,-11045.207,-27862.225,-16561.727,-20555.95
1316906.853660059,-55134.766,-85625.164,-38251.832,-22743.938,-11036.011,-27864.258,-16564.047,-20562.379
1316906.8576600538,-55134.117,-85611.62,-38254.234,-22737.225,-11033.61,-27863.16,-16561.605,-20558.758
1316906.8616600488,-55143.395,-85627.61,-38263.797,-22756.877,-11046.916,-27862.021,-16561.523,-20557.74
1316906.8656600437,-55153.81,-85648.234,-38267.66,-22773.602,-11056.396,-27862.59,-16562.541,-20562.379
1316906.8696600387,-55154.055,-85646.33,-38262.086,-22766.48,-11045.776,-27863.893,-16566.814,-20571.656
1316906.8736600338,-55148.766,-85627.12,-38254.64,-22744.223,-11035.849,-27867.88,-16571.736,-20579.875
1316906.8776600286,-55145.43,-85617.11,-38254.03,-22736.004,-11036.296,-27871.135,-16571.697,-20583.049
1316906.8816600237,-55152.59,-85630.13,-38259.24,-22754.314,-11045.248,-27869.264,-16567.83,-20579.06
1316906.8856600185,-55160.89,-85648.805,-38262.94,-22769.531,-11052.328,-27867.88,-16564.617,-20577.678
1316906.8896600136,-55161.297,-85644.164,-38259.277,-22764.121,-11047.038,-27867.514,-16563.6,-20577.19
1316906.8936600087,-55153.566,-85621.09,-38254.883,-22742.148,-11031.128,-27867.84,-16565.227,-20578.94
1316906.8976600035,-55153.117,-85614.055,-38258.914,-22736.248,-11032.1045,-27868.45,-16564.006,-20573.771
1316906.9016599986,-55165.04,-85634.32,-38268.84,-22756.592,-11046.0205,-27866.09,-16555.584,-20557.7
1316906.9056599934,-55173.098,-85650.02,-38273.152,-22774.21,-11050.659,-27865.072,-16552.613,-20552.084
1316906.9096599885,-55172.324,-85646.94,-38270.1,-22769.451,-11043.376,-27866.904,-16554.852,-20557.943
1316906.9136599833,-55163.535,-85623.3,-38265.75,-22748.414,-11034.994,-27868.205,-16557.21,-20564.209
1316906.9176599784,-55161.38,-85608.65,-38265.465,-22742.066,-11035.808,-27868.572,-16559.002,-20568.36
1316906.9216599735,-55167.89,-85626.305,-38268.758,-22759.604,-11049.643,-27867.27,-16555.176,-20566.447
1316906.9256599683,-55175.62,-85644.58,-38270.305,-22777.793,-11051.514,-27866.496,-16552.166,-20568.074
1316906.9296599634,-55173.547,-85643.96,-38264.04,-22770.672,-11046.225,-27868.002,-16551.555,-20567.912
1316906.9336599582,-55165.246,-85625.125,-38258.707,-22747.314,-11038.493,-27871.46,-16554.2,-20569.783
1316906.9376599533,-55160.28,-85611.9,-38258.383,-22736.572,-11037.109,-27871.582,-16554.852,-20575.277
1316906.9416599483,-55169.273,-85623.87,-38265.42,-22752.97,-11045.939,-27868.043,-16548.504,-20570.557
1316906.9456599432,-55177.86,-85639.53,-38270.71,-22771.078,-11048.015,-27866.252,-16545.045,-20566.203
1316906.9496599382,-55177.816,-85637.66,-38266.156,-22767.986,-11041.016,-27867.799,-16546.307,-20565.43
1316906.953659933,-55166.63,-85617.72,-38257.812,-22746.42,-11031.088,-27870.484,-16549.154,-20566.854
1316906.9576599281,-55162.395,-85608.16,-38255.37,-22735.434,-11033.285,-27872.764,-16552.775,-20572.55
1316906.961659923,-55166.465,-85623.05,-38258.426,-22747.967,-11042.114,-27870.646,-16548.504,-20568.807
1316906.965659918,-55173.625,-85639.61,-38262.98,-22768.84,-11045.817,-27867.96,-16543.904,-20563.232
1316906.969659913,-55175.54,-85637.29,-38258.668,-22765.38,-11036.459,-27868.125,-16542.033,-20563.396
1316906.973659908,-55170.695,-85619.34,-38255.7,-22744.508,-11029.745,-27869.629,-16543.66,-20566.773
1316906.977659903,-55170.086,-85609.91,-38257.61,-22734.254,-11036.215,-27870.443,-16546.469,-20569.05
1316906.9816598978,-55178.996,-85624.96,-38263.348,-22753.174,-11048.788,-27869.955,-16543.01,-20569.947
1316906.985659893,-55186.605,-85640.22,-38262.9,-22771.24,-11050.985,-27865.234,-16535.686,-20562.053
1316906.989659888,-55183.105,-85634.12,-38256.797,-22765.707,-11042.358,-27863.852,-16533.814,-20559.979
1316906.9936598828,-55175.418,-85613.41,-38253.133,-22744.59,-11034.384,-27866.172,-16536.297,-20563.965
1316906.9976598779,-55175.17,-85601.56,-38256.754,-22738.73,-11036.337,-27868.164,-16535.076,-20564.535
1316907.0016598727,-55183.15,-85614.664,-38264.61,-22754.191,-11047.526,-27864.625,-16529.623,-20557.861
1316907.0056598678,-55191.125,-85635.13,-38268.19,-22769.287,-11050.497,-27861.98,-16526.164,-20552.938
1316907.0096598628,-55192.02,-85636.11,-38263.67,-22764.934,-11045.004,-27865.072,-16527.955,-20555.096
1316907.0136598577,-55184.41,-85616.54,-38257.812,-22744.996,-11035.116,-27867.596,-16532.146,-20558.717
1316907.0176598527,-55185.305,-85611.375,-38260.5,-22736.94,-11036.743,-27869.549,-16532.43,-20557.088
1316907.0216598476,-55193.89,-85625.9,-38264.85,-22752.441,-11045.898,-27866.334,-16529.012,-20553.955
1316907.0256598426,-55201.5,-85642.375,-38264.85,-22769.328,-11049.887,-27863.322,-16526.246,-20549.275
1316907.0296598375,-55199.426,-85634.52,-38260.254,-22762.94,-11041.301,-27863.363,-16527.832,-20552.572
1316907.0336598326,-55193.44,-85613.77,-38258.22,-22742.96,-11031.088,-27867.393,-16531.82,-20558.838
1316907.0376598276,-55191.164,-85604.695,-38261.434,-22738.242,-11036.255,-27870.322,-16533.691,-20561.768
1316907.0416598225,-55198.324,-85619.19,-38267.133,-22753.623,-11047.689,-27867.637,-16527.303,-20553.752
1316907.0456598175,-55201.99,-85635.664,-38266.887,-22768.475,-11045.288,-27865.031,-16522.664,-20551.514
1316907.0496598124,-55198.938,-85631.836,-38262.695,-22762.168,-11035.278,-27866.863,-16524.496,-20551.88
1316907.0536598074,-55193.727,-85612.02,-38260.133,-22742.352,-11030.233,-27869.223,-16528.2,-20560.75
1316907.0576598025,-55191.69,-85603.31,-38262.574,-22736.045,-11034.587,-27870.525,-16531.576,-20565.877
1316907.0616597973,-55199.14,-85617.35,-38267.66,-22752.28,-11045.126,-27868.613,-16527.344,-20559.57
1316907.0656597924,-55208.293,-85638.516,-38267.496,-22769.613,-11048.462,-27866.375,-16525.31,-20555.828
1316907.0696597872,-55209.027,-85640.26,-38263.184,-22766.602,-11046.0205,-27866.984,-16524.293,-20555.258
1316907.0736597823,-55201.785,-85623.01,-38259.117,-22743.002,-11036.337,-27868.652,-16526.693,-20559.164
1316907.0776597771,-55197.633,-85610.516,-38260.336,-22736.572,-11033.488,-27869.02,-16525.555,-20555.258
1316907.0816597722,-55199.016,-85617.8,-38263.918,-22752.564,-11039.673,-27864.299,-16519.125,-20546.957
1316907.0856597673,-55205.895,-85631.516,-38264.895,-22769.328,-11044.841,-27862.51,-16514.934,-20544.312
1316907.089659762,-55204.715,-85626.95,-38261.15,-22765.463,-11040.324,-27860.393,-16514.242,-20545.166
1316907.0936597572,-55196.086,-85611.01,-38255.086,-22745.85,-11031.86,-27861.125,-16516.643,-20552.205
1316907.097659752,-55194.133,-85603.27,-38254.926,-22736.492,-11034.018,-27862.346,-16517.742,-20552.125
1316907.101659747,-55201.254,-85618.94,-38261.07,-22751.791,-11041.586,-27860.719,-16515.992,-20550.049
1316907.1056597421,-55209.23,-85639.41,-38264.12,-22771.078,-11047.689,-27859.254,-16516.277,-20551.88
1316907.109659737,-55211.47,-85640.47,-38262.574,-22767.62,-11042.929,-27860.596,-16517.945,-20552.49
1316907.113659732,-55206.055,-85622.97,-38259.117,-22747.438,-11034.14,-27861.857,-16520.223,-20556.764
1316907.1176597269,-55202.23,-85611.58,-38259.523,-22741.496,-11034.79,-27862.102,-16520.06,-20558.025
1316907.121659722,-55207.684,-85623.62,-38268.312,-22759.033,-11048.056,-27863.445,-16522.299,-20564.9
1316907.1256597168,-55215.332,-85644.125,-38272.46,-22777.426,-11054.362,-27862.387,-16518.393,-20559.326
1316907.1296597118,-55213.38,-85646.734,-38266.156,-22772.705,-11049.887,-27861.248,-16517.863,-20560.75
1316907.133659707,-55202.68,-85622.73,-38258.547,-22750.205,-11039.0625,-27863.445,-16522.258,-20567.75
1316907.1376597018,-55196.777,-85608.89,-38254.844,-22739.178,-11036.052,-27863.81,-16523.072,-20566.162
1316907.1416596968,-55201.785,-85620.85,-38260.867,-22750.123,-11047.079,-27861.898,-16520.955,-20563.355
1316907.1456596917,-55212.89,-85643.92,-38266.887,-22770.996,-11054.159,-27861.166,-16518.678,-20562.582
1316907.1496596867,-55214.316,-85647.34,-38263.59,-22767.213,-11047.445,-27858.684,-16515.992,-20561.646
1316907.1536596818,-55212.973,-85629.97,-38261.355,-22748.7,-11037.395,-27857.504,-16515.828,-20561.158
1316907.1576596766,-55215.742,-85623.05,-38263.797,-22741.416,-11040.08,-27857.463,-16514.324,-20560.547
1316907.1616596717,-55215.332,-85636.84,-38267.78,-22754.639,-11052.002,-27857.504,-16509.969,-20551.637
1316907.1656596665,-55214.52,-85646.65,-38266.156,-22771.852,-11054.932,-27855.145,-16506.186,-20552.166
1316907.1696596616,-55211.754,-85642.91,-38260.785,-22770.428,-11049.276,-27854.33,-16506.959,-20555.95
1316907.1736596564,-55197.797,-85622.36,-38252.36,-22750.732,-11039.714,-27858.766,-16511.76,-20561.28
1316907.1776596515,-55191.734,-85609.5,-38250.69,-22742.473,-11038.9,-27861.004,-16513.55,-20558.432
1316907.1816596466,-55199.668,-85623.91,-38257.49,-22760.498,-11050.741,-27860.148,-16510.701,-20551.31
1316907.1856596414,-55208.418,-85642.375,-38260.17,-22778.688,-11056.071,-27858.725,-16507.61,-20550.984
1316907.1896596365,-55210.043,-85640.914,-38257.61,-22771.404,-11047.038,-27857.79,-16505.982,-20552.531
1316907.1936596313,-55206.465,-85627.12,-38255.25,-22751.1,-11037.313,-27861.045,-16508.504,-20558.025
1316907.1976596264,-55203.492,-85618.33,-38256.836,-22739.707,-11033.0,-27863.404,-16511.19,-20564.412
1316907.2016596214,-55205.85,-85625.05,-38261.395,-22752.97,-11042.358,-27859.457,-16508.057,-20558.35
1316907.2056596163,-55214.48,-85646.04,-38263.184,-22772.502,-11050.131,-27858.033,-16505.412,-20555.34
1316907.2096596113,-55214.152,-85646.12,-38257.69,-22770.469,-11045.573,-27858.277,-16505.818,-20558.553
1316907.2136596062,-55206.586,-85627.12,-38254.07,-22747.967,-11036.215,-27860.557,-16509.725,-20563.355
1316907.2176596012,-55202.68,-85615.766,-38254.68,-22739.91,-11036.987,-27862.387,-16512.248,-20565.633
1316907.221659596,-55211.305,-85631.11,-38261.11,-22757.812,-11048.706,-27860.719,-16510.783,-20563.07
1316907.2256595911,-55219.566,-85652.23,-38265.91,-22776.855,-11053.223,-27860.637,-16509.969,-20564.129
1316907.2296595862,-55221.03,-85655.195,-38263.31,-22773.602,-11048.544,-27863.525,-16512.574,-20566.691
1316907.233659581,-55216.516,-85639.04,-38259.402,-22753.215,-11039.877,-27867.025,-16516.236,-20571.412
1316907.237659576,-55209.066,-85624.516,-38259.645,-22743.125,-11038.29,-27868.613,-16517.701,-20580.12
1316907.241659571,-55210.734,-85629.234,-38264.65,-22758.912,-11048.137,-27866.7,-16512.371,-20574.707
1316907.245659566,-55220.83,-85648.4,-38267.863,-22777.793,-11053.467,-27863.893,-16506.959,-20563.68
1316907.249659561,-55219.89,-85648.07,-38262.168,-22773.113,-11045.654,-27864.014,-16508.057,-20568.562
1316907.253659556,-55213.258,-85627.32,-38258.63,-22753.662,-11037.231,-27866.334,-16511.475,-20574.422
1316907.257659551,-55210.9,-85617.88,-38258.426,-22745.2,-11034.343,-27866.252,-16510.783,-20575.115
1316907.2616595458,-55217.938,-85634.61,-38265.3,-22763.184,-11046.957,-27864.746,-16505.615,-20566.082
1316907.265659541,-55224.773,-85649.87,-38269.086,-22781.943,-11054.159,-27863.77,-16502.768,-20564.861
