timestamp,Fp1,Fp2,F3,Fz,F4,Cz,Pz,Oz
963345.0133713492,-90230.15,-105281.336,18668.05,-3972.29,-1791.5447,-45323.652,-42622.113,-5006.5107
963345.0173713467,-90227.336,-105274.5,18690.064,-3931.7627,-1783.0404,-45323.57,-42626.87,-5013.3467
963345.0213713442,-90224.66,-105268.84,18710.45,-3905.6804,-1780.599,-45324.016,-42627.44,-5011.76
963345.0253713417,-90222.66,-105267.5,18705.607,-3920.3289,-1784.3425,-45323.242,-42630.008,-5021.118
963345.0293713392,-90228.92,-105274.01,18674.48,-3965.5356,-1792.2771,-45324.75,-42631.918,-5026.7744
963345.0333713368,-90235.72,-105282.43,18665.406,-3968.9536,-1792.8467,-45322.023,-42633.26,-5024.089
963345.0373713343,-90231.695,-105277.875,18689.332,-3933.5532,-1786.377,-45319.54,-42637.41,-5021.9727
963345.0413713318,-90224.04,-105270.43,18714.234,-3909.1392,-1779.4597,-45321.453,-42642.336,-5024.1294
963345.0453713293,-90221.56,-105271.484,18711.385,-3926.88,-1778.0762,-45322.836,-42646.61,-5030.0703
963345.0493713267,-90228.72,-105274.984,18681.56,-3964.315,-1784.3832,-45330.445,-42650.84,-5035.7666
963345.0533713242,-90232.71,-105275.84,18683.432,-3955.5664,-1784.7494,-45332.52,-42657.633,-5044.6777
963345.0573713217,-90228.48,-105265.18,18712.484,-3912.8013,-1777.2625,-45329.348,-42660.727,-5042.562
963345.0613713192,-90221.11,-105256.8,18724.732,-3892.9038,-1772.5424,-45329.754,-42664.023,-5042.3584
963345.0653713167,-90219.85,-105257.33,18706.951,-3916.7888,-1776.2045,-45333.863,-42669.56,-5055.298
963345.0693713143,-90232.47,-105272.055,18680.258,-3967.163,-1783.488,-45335.043,-42673.625,-5064.779
963345.0733713118,-90239.51,-105283.9,18681.926,-3966.8376,-1780.2734,-45338.016,-42677.98,-5070.7603
963345.0773713093,-90232.42,-105274.09,18708.66,-3925.0896,-1773.5189,-45334.555,-42677.45,-5065.9995
963345.0813713068,-90225.67,-105265.266,18727.133,-3903.1577,-1770.7113,-45332.562,-42674.645,-5060.3843
963345.0853713043,-90219.28,-105260.99,18721.355,-3919.5151,-1773.1934,-45334.84,-42668.133,-5055.0537
963345.0893713018,-90227.74,-105269.53,18690.553,-3958.8623,-1781.2908,-45335.33,-42662.395,-5049.4795
963345.0933712992,-90239.305,-105279.75,18687.176,-3962.6465,-1782.308,-45333.824,-42658.855,-5044.5967
963345.0973712967,-90234.42,-105272.664,18712.646,-3920.3696,-1775.3093,-45331.34,-42656.7,-5035.9297
963345.1013712942,-90228.92,-105264.57,18731.04,-3898.1528,-1765.5844,-45329.51,-42652.63,-5026.6113
963345.1053712917,-90229.86,-105267.945,18715.373,-3917.684,-1768.6768,-45329.43,-42647.95,-5021.566
963345.1093712893,-90239.51,-105279.3,18680.543,-3958.4148,-1781.7383,-45330.895,-42645.996,-5020.9556
963345.1133712868,-90243.9,-105286.75,18675.09,-3959.7576,-1780.1107,-45329.43,-42645.305,-5021.3623
963345.1173712843,-90245.89,-105284.14,18703.777,-3922.567,-1770.0603,-45325.36,-42642.78,-5014.364
963345.1213712818,-90240.84,-105279.34,18718.994,-3903.5645,-1764.9333,-45324.465,-42639.65,-5006.958
963345.1253712793,-90241.58,-105283.29,18706.787,-3932.0068,-1765.5029,-45326.17,-42636.965,-5007.772
963345.1293712768,-90249.27,-105292.61,18686.443,-3967.2446,-1776.5707,-45327.516,-42638.43,-5018.3105
963345.1333712743,-90252.445,-105296.72,18678.955,-3964.1113,-1780.3955,-45326.54,-42640.26,-5020.508
963345.1373712717,-90247.97,-105288.49,18699.871,-3925.2117,-1769.7754,-45323.57,-42641.93,-5019.613
963345.1413712692,-90242.35,-105278.41,18725.139,-3898.9666,-1756.3477,-45323.324,-42641.52,-5020.7114
963345.1453712668,-90241.46,-105276.53,18718.22,-3918.7827,-1761.1084,-45321.82,-42640.016,-5020.996
963345.1493712643,-90247.27,-105285.65,18682.902,-3964.5183,-1774.9431,-45322.43,-42644.004,-5031.9014
963345.1533712618,-90253.42,-105294.92,18669.8,-3968.4653,-1779.2562,-45324.016,-42651.004,-5040.8936
963345.1573712593,-90249.68,-105290.0,18697.186,-3933.187,-1766.7236,-45324.79,-42652.426,-5040.5273
963345.1613712568,-90240.195,-105278.69,18720.623,-3908.4473,-1760.4574,-45323.977,-42654.867,-5042.2773
963345.1653712543,-90239.51,-105279.586,18708.943,-3924.8455,-1768.2292,-45326.375,-42654.38,-5046.1426
963345.1693712518,-90243.57,-105284.55,18680.543,-3963.4197,-1777.3031,-45328.86,-42656.13,-5051.6357
963345.1733712493,-90244.06,-105283.125,18684.123,-3956.421,-1775.7568,-45330.12,-42660.156,-5055.176
963345.1773712469,-90233.03,-105271.08,18709.066,-3912.5164,-1760.3353,-45330.61,-42663.617,-5056.6
963345.1813712443,-90226.16,-105262.05,18728.068,-3894.0024,-1754.7607,-45334.84,-42668.703,-5058.879
963345.1853712418,-90231.08,-105268.64,18714.764,-3917.6025,-1767.741,-45338.91,-42669.027,-5061.2793
963345.1893712393,-90244.59,-105285.56,18680.42,-3963.2163,-1777.5879,-45342.164,-42670.168,-5069.133
963345.1933712368,-90248.3,-105292.69,18677.979,-3963.0535,-1776.8555,-45341.23,-42668.99,-5065.1045
963345.1973712343,-90241.336,-105284.914,18702.84,-3921.4683,-1761.556,-45336.957,-42664.43,-5050.9443
963345.2013712318,-90236.29,-105278.57,18718.385,-3900.106,-1758.2195,-45333.78,-42657.84,-5039.5103
963345.2053712293,-90237.47,-105281.984,18707.887,-3914.8765,-1767.0085,-45332.48,-42651.816,-5033.0
963345.2093712268,-90246.95,-105296.76,18673.992,-3955.9734,-1787.3943,-45330.16,-42643.92,-5025.3906
963345.2133712244,-90253.336,-105304.484,18667.928,-3959.066,-1790.6088,-45327.598,-42637.574,-5017.253
963345.2173712219,-90243.164,-105295.25,18698.73,-3918.335,-1774.4548,-45321.82,-42628.824,-5003.296
963345.2213712194,-90231.164,-105286.75,18710.652,-3898.4783,-1766.3982,-45318.81,-42622.234,-4993.612
963345.2253712168,-90231.49,-105286.54,18703.98,-3919.7185,-1775.472,-45318.24,-42617.066,-4993.978
963345.2293712143,-90241.87,-105295.62,18681.193,-3963.745,-1784.79,-45318.89,-42616.945,-4995.8906
963345.2333712118,-90251.1,-105303.266,18668.336,-3965.617,-1785.0342,-45318.2,-42619.47,-4995.4023
963345.2373712093,-90249.19,-105297.53,18684.408,-3931.1118,-1778.1982,-45315.918,-42619.266,-4991.9844
963345.2413712068,-90248.05,-105293.664,18699.707,-3918.6199,-1775.5535,-45315.39,-42623.17,-4998.983
963345.2453712043,-90252.69,-105298.55,18693.4,-3939.901,-1781.2908,-45317.098,-42626.75,-5008.7485
963345.2493712018,-90262.54,-105308.19,18670.166,-3974.6501,-1792.033,-45319.094,-42627.2,-5008.5044
963345.2533711994,-90265.305,-105312.586,18658.936,-3975.2605,-1792.8875,-45319.785,-42630.168,-5013.5093
963345.2573711969,-90258.266,-105303.47,18681.072,-3933.5938,-1781.6976,-45317.508,-42632.61,-5015.91
963345.2613711944,-90247.84,-105289.19,18708.7,-3906.128,-1767.2527,-45317.18,-42636.15,-5017.09
963345.2653711919,-90248.3,-105289.06,18699.098,-3926.1475,-1769.3685,-45320.395,-42640.18,-5019.4907
963345.2693711893,-90256.35,-105303.51,18670.29,-3972.3308,-1782.308,-45323.324,-42646.402,-5032.5117
963345.2733711868,-90261.11,-105311.37,18664.307,-3978.1902,-1787.6791,-45325.97,-42656.332,-5047.16
963345.2773711843,-90259.08,-105311.04,18683.188,-3942.2202,-1777.3438,-45327.395,-42664.88,-5054.24
963345.2813711818,-90257.37,-105306.64,18704.957,-3918.1316,-1774.8617,-45332.156,-42672.445,-5061.8896
963345.2853711793,-90255.17,-105302.78,18702.516,-3934.7332,-1779.541,-45331.953,-42671.43,-5064.4126
963345.2893711769,-90263.35,-105310.95,18672.73,-3975.5454,-1786.7839,-45331.668,-42668.215,-5061.5234
963345.2933711744,-90268.805,-105313.27,18666.057,-3970.1335,-1785.6039,-45330.977,-42665.527,-5056.478
963345.2973711719,-90261.805,-105302.375,18700.398,-3926.7986,-1773.4375,-45330.28,-42664.266,-5049.6016
963345.3013711694,-90255.17,-105294.72,18719.686,-3904.9072,-1770.3044,-45330.16,-42663.86,-5040.283
963345.3053711669,-90256.92,-105297.81,18705.566,-3925.8628,-1775.8789,-45327.8,-42659.586,-5033.4067
963345.3093711644,-90268.516,-105314.5,18672.975,-3977.2136,-1787.5977,-45327.598,-42652.547,-5026.8555
963345.3133711618,-90270.47,-105323.49,18670.207,-3977.0916,-1787.3943,-45325.645,-42646.566,-5017.8633
963345.3173711593,-90263.63,-105314.91,18692.627,-3925.9849,-1770.7113,-45322.633,-42641.848,-5007.202
963345.3213711568,-90257.086,-105305.34,18715.861,-3903.6865,-1761.2305,-45319.664,-42637.332,-5003.825
963345.3253711544,-90261.03,-105305.625,18706.625,-3925.7812,-1765.625,-45317.71,-42631.88,-5003.54
963345.3293711519,-90272.664,-105319.91,18677.328,-3965.454,-1784.0576,-45317.344,-42628.62,-5005.5747
963345.3333711494,-90273.07,-105325.484,18670.492,-3968.872,-1786.3363,-45319.094,-42628.582,-5005.534
963345.3373711469,-90263.72,-105311.73,18697.674,-3931.0303,-1775.1873,-45316.816,-42631.31,-5007.406
963345.3413711444,-90256.31,-105300.13,18718.506,-3905.1921,-1769.6533,-45317.383,-42631.594,-5010.946
963345.3453711419,-90251.34,-105295.66,18709.84,-3924.8047,-1772.5017,-45320.11,-42633.098,-5016.317
963345.3493711394,-90258.22,-105302.21,18683.797,-3965.6982,-1781.4535,-45321.617,-42638.1,-5023.8853
963345.3533711369,-90264.77,-105311.12,18681.885,-3964.559,-1780.6804,-45326.215,-42644.574,-5032.959
963345.3573711343,-90256.31,-105305.016,18708.496,-3922.3228,-1765.8285,-45325.645,-42650.027,-5035.36
963345.3613711318,-90250.41,-105294.195,18726.848,-3902.059,-1760.5795,-45327.027,-42654.543,-5041.4634
963345.3653711294,-90251.18,-105293.375,18714.52,-3925.7,-1764.8926,-45328.98,-42656.617,-5050.7812
963345.3693711269,-90259.195,-105305.14,18682.617,-3966.2273,-1775.35,-45332.4,-42658.938,-5054.525
963345.3733711244,-90259.195,-105308.8,18682.049,-3961.019,-1775.5535,-45332.52,-42661.215,-5056.4375
963345.3773711219,-90251.23,-105299.12,18709.188,-3916.0972,-1766.7644,-45331.953,-42667.117,-5060.018
963345.3813711194,-90244.02,-105289.35,18722.82,-3893.2292,-1763.5092,-45333.254,-42669.598,-5062.7036
963345.3853711169,-90242.8,-105287.56,18715.984,-3917.1143,-1766.9271,-45332.848,-42667.645,-5062.7036
963345.3893711144,-90258.22,-105306.03,18685.873,-3969.1978,-1778.4424,-45339.4,-42672.49,-5075.155
963345.393371112,-90264.33,-105311.08,18679.2,-3972.453,-1774.7396,-45341.023,-42678.387,-5080.8516
963345.3973711095,-90254.766,-105299.03,18707.967,-3927.9785,-1763.1023,-45341.39,-42683.758,-5079.834
963345.4013711069,-90245.04,-105287.07,18732.666,-3901.937,-1760.905,-45342.977,-42685.832,-5078.369
963345.4053711044,-90244.51,-105287.6,18726.156,-3917.9282,-1763.0615,-45343.223,-42686.688,-5078.247
963345.4093711019,-90261.766,-105302.164,18694.377,-3961.019,-1772.0947,-45340.047,-42683.676,-5078.491
963345.4133710994,-90270.555,-105312.5,18678.59,-3966.3086,-1773.9666,-45339.56,-42680.95,-5071.6147
963345.4173710969,-90246.95,-105293.87,18697.469,-3927.8972,-1761.4746,-45338.016,-42677.613,-5060.588
963345.4213710944,-90235.88,-105275.31,18709.676,-3909.1392,-1751.3428,-45333.62,-42670.777,-5053.2637
963345.4253710919,-90243.62,-105281.45,18707.967,-3929.8096,-1757.0801,-45331.22,-42663.13,-5050.212
963345.4293710894,-90251.43,-105289.39,18689.617,-3967.5293,-1770.6707,-45331.543,-42658.285,-5048.259
963345.433371087,-90259.65,-105297.77,18674.52,-3975.0164,-1776.2045,-45331.016,-42655.6,-5043.6606
963345.4373710845,-90242.555,-105281.25,18705.566,-3930.0132,-1761.434,-45330.28,-42654.625,-5039.2256
963345.441371082,-90223.23,-105263.92,18732.057,-3903.8901,-1753.4994,-45329.875,-42653.77,-5037.8013
963345.4453710794,-90216.516,-105264.24,18723.836,-3924.8455,-1759.8064,-45328.86,-42650.72,-5032.7964
963345.4493710769,-90232.14,-105284.586,18696.248,-3969.279,-1776.3672,-45331.098,-42644.816,-5027.3438
963345.4533710744,-90235.48,-105290.445,18694.783,-3970.8252,-1777.6287,-45329.875,-42646.445,-5037.883
963345.4573710719,-90214.4,-105266.36,18728.15,-3928.5889,-1762.8582,-45331.668,-42651.938,-5042.0737
963345.4613710694,-90206.38,-105261.64,18748.291,-3908.244,-1758.4636,-45330.324,-42652.63,-5041.789
963345.4653710669,-90199.14,-105253.26,18738.16,-3927.9785,-1764.8926,-45333.58,-42654.137,-5046.4683
963345.4693710644,-90201.22,-105253.18,18709.637,-3968.2617,-1777.059,-45336.996,-42657.43,-5054.6064
963345.473371062,-90203.25,-105259.08,18698.69,-3969.442,-1775.1873,-45339.723,-42661.582,-5056.4375
963345.4773710595,-90201.7,-105256.06,18718.709,-3932.536,-1760.0505,-45338.625,-42666.668,-5058.2275
963345.481371057,-90194.18,-105244.836,18739.787,-3908.244,-1754.6794,-45341.023,-42671.023,-5059.4077
963345.4853710545,-90185.836,-105240.44,18734.66,-3922.689,-1757.8939,-45344.2,-42673.137,-5062.419
963345.4893710519,-90203.125,-105263.06,18707.928,-3965.739,-1773.8037,-45343.387,-42669.92,-5062.419
963345.4933710494,-90210.734,-105273.16,18700.928,-3965.7798,-1774.292,-45342.53,-42667.24,-5060.832
963345.4973710469,-90195.68,-105259.97,18727.01,-3922.16,-1761.6781,-45339.926,-42664.55,-5053.752
963345.5013710444,-90194.09,-105258.75,18747.479,-3900.5942,-1759.9285,-45336.957,-42658.043,-5044.393
963345.505371042,-90204.02,-105269.734,18736.492,-3928.9146,-1769.7754,-45334.27,-42651.285,-5037.9233
963345.5093710395,-90215.05,-105282.48,18706.014,-3980.1025,-1782.9183,-45333.906,-42647.176,-5029.704
963345.513371037,-90215.25,-105286.055,18697.062,-3983.3984,-1782.8777,-45334.92,-42646.445,-5022.054
963345.5173710345,-90214.4,-105281.13,18720.012,-3936.0352,-1772.5017,-45332.645,-42644.53,-5014.364
963345.521371032,-90218.875,-105277.914,18740.316,-3914.9578,-1770.4672,-45328.656,-42637.125,-5001.0986
963345.5253710295,-90216.07,-105274.58,18734.172,-3933.2683,-1774.699,-45327.883,-42629.11,-4990.3975
963345.529371027,-90222.336,-105285.41,18707.316,-3973.1853,-1779.7039,-45326.62,-42623.008,-4983.48
963345.5333710244,-90243.05,-105309.9,18700.398,-3979.3296,-1782.3894,-45322.266,-42616.254,-4976.9697
963345.5373710219,-90251.02,-105313.68,18719.32,-3945.272,-1773.8445,-45319.746,-42614.95,-4973.226
963345.5413710194,-90244.39,-105304.12,18727.174,-3931.9255,-1770.4265,-45320.273,-42615.805,-4967.5293
963345.545371017,-90247.48,-105313.07,18717.285,-3954.0203,-1778.2797,-45324.14,-42613.61,-4964.9253
963345.5493710145,-90267.54,-105330.9,18685.832,-3989.4207,-1794.1895,-45325.684,-42614.383,-4968.506
963345.553371012,-90276.62,-105339.234,18676.393,-3987.5896,-1794.1488,-45326.945,-42620.89,-4977.417
963345.5573710095,-90275.11,-105337.53,18702.963,-3941.8945,-1782.1859,-45324.06,-42623.25,-4977.58
963345.561371007,-90272.18,-105337.484,18725.342,-3919.6777,-1772.1355,-45321.94,-42624.473,-4984.3345
963345.5653710045,-90278.89,-105345.13,18720.135,-3945.6787,-1780.6804,-45322.105,-42622.723,-4986.003
963345.569371002,-90299.73,-105369.23,18683.188,-3996.7449,-1800.4965,-45321.29,-42625.203,-4991.5366
963345.5733709995,-90314.01,-105389.24,18669.842,-3999.9187,-1807.1289,-45322.754,-42632.61,-5002.401
963345.5773709969,-90311.2,-105384.61,18705.363,-3952.1892,-1798.584,-45321.492,-42640.543,-5012.1665
963345.5813709944,-90304.0,-105373.62,18729.656,-3926.3916,-1785.848,-45321.414,-42645.754,-5017.5376
963345.585370992,-90307.74,-105378.5,18715.617,-3947.9167,-1793.9047,-45323.164,-42650.637,-5030.355
963345.5893709895,-90318.52,-105392.375,18688.03,-3991.8213,-1807.4951,-45328.37,-42657.555,-5047.689
963345.593370987,-90331.38,-105408.37,18680.746,-4005.656,-1812.4594,-45329.184,-42659.586,-5050.537
963345.5973709845,-90331.18,-105410.81,18704.428,-3964.3555,-1803.2227,-45326.418,-42656.7,-5043.4165
963345.601370982,-90330.57,-105407.43,18716.594,-3938.8428,-1799.3978,-45323.61,-42649.902,-5032.959
963345.6053709795,-90334.68,-105410.61,18700.766,-3957.8452,-1805.6641,-45322.266,-42643.312,-5023.5596
963345.609370977,-90346.03,-105425.664,18669.475,-4002.36,-1818.3187,-45322.266,-42634.848,-5010.4575
963345.6133709745,-90352.22,-105436.0,18668.092,-4007.0396,-1821.3298,-45321.332,-42625.0,-4991.618
963345.6173709721,-90347.78,-105426.27,18697.918,-3956.2583,-1810.0586,-45315.227,-42616.902,-4972.3716
963345.6213709695,-90341.76,-105413.66,18719.402,-3925.3337,-1794.515,-45312.664,-42608.074,-4955.241
963345.625370967,-90344.93,-105415.086,18711.264,-3950.0732,-1796.6309,-45311.24,-42598.023,-4942.1797
963345.6293709645,-90356.49,-105428.02,18683.188,-3992.7166,-1808.7566,-45311.727,-42592.855,-4936.971
963345.633370962,-90367.11,-105443.0,18666.424,-4000.9768,-1813.5173,-45313.56,-42592.367,-4936.605
963345.6373709595,-90364.586,-105438.36,18686.97,-3959.7576,-1798.3806,-45310.793,-42590.332,-4933.1055
963345.641370957,-90356.57,-105425.21,18710.205,-3934.9773,-1788.2894,-45307.457,-42587.32,-4927.4497
963345.6453709545,-90361.29,-105427.375,18706.096,-3953.654,-1802.7344,-45307.7,-42585.652,-4927.816
963345.649370952,-90372.56,-105440.43,18682.21,-3993.4082,-1812.8256,-45307.7,-42587.117,-4936.483
963345.6533709496,-90378.5,-105447.47,18681.152,-3989.9497,-1803.8738,-45305.22,-42589.56,-4940.593
963345.6573709471,-90377.08,-105433.68,18706.99,-3947.7947,-1801.0254,-45304.812,-42590.984,-4940.145
963345.6613709446,-90371.95,-105425.7,18717.977,-3928.7517,-1797.1599,-45303.793,-42594.402,-4944.7837
963345.665370942,-90375.2,-105433.19,18709.473,-3955.3223,-1806.1117,-45305.3,-42596.723,-4949.178
963345.6693709395,-90387.66,-105450.4,18682.17,-4000.8953,-1823.283,-45307.902,-42602.01,-4964.559
963345.673370937,-90395.39,-105457.97,18672.607,-4001.0989,-1821.2078,-45310.63,-42608.766,-4978.0273
963345.6773709345,-90389.98,-105449.47,18699.83,-3957.6824,-1807.0476,-45308.188,-42612.875,-4978.0273
963345.681370932,-90384.16,-105442.914,18725.098,-3933.6753,-1795.6951,-45308.39,-42614.586,-4981.12
963345.6853709295,-90387.62,-105440.43,18711.834,-3946.7368,-1802.2461,-45310.547,-42616.945,-4989.502
963345.689370927,-90394.984,-105449.875,18677.125,-3988.5254,-1817.5457,-45310.02,-42618.043,-4996.379
963345.6933709246,-90404.18,-105464.03,18674.48,-3997.4773,-1821.5332,-45309.043,-42618.777,-5002.401
963345.6973709221,-90407.15,-105463.75,18703.004,-3950.7651,-1812.5814,-45306.562,-42623.17,-5007.9756
963345.7013709196,-90405.93,-105463.18,18714.234,-3931.3965,-1815.1449,-45306.64,-42627.727,-5014.608
963345.7053709171,-90407.23,-105469.28,18703.004,-3958.0894,-1817.7084,-45309.207,-42629.03,-5013.387
963345.7093709145,-90413.74,-105477.055,18683.064,-3995.6462,-1826.823,-45312.46,-42627.727,-5006.2666
963345.713370912,-90420.82,-105489.055,18673.787,-4003.947,-1827.1078,-45309.164,-42621.38,-4991.699
963345.7173709095,-90417.56,-105486.17,18700.725,-3964.0708,-1815.9587,-45304.04,-42609.5,-4967.489
963345.721370907,-90409.266,-105475.914,18724.936,-3935.1807,-1799.4792,-45302.246,-42599.652,-4950.643
963345.7253709045,-90411.055,-105476.36,18715.658,-3954.956,-1805.7048,-45301.395,-42595.664,-4942.627
963345.7293709021,-90420.086,-105484.945,18690.674,-3990.153,-1823.6084,-45303.02,-42590.902,-4934.326
963345.7333708996,-90426.88,-105491.78,18683.432,-3996.8262,-1820.8822,-45302.98,-42589.926,-4929.4844
963345.7373708971,-90422.0,-105482.914,18708.578,-3955.6072,-1803.4261,-45302.98,-42594.77,-4933.0244
963345.7413708946,-90414.31,-105474.125,18721.965,-3933.7158,-1795.8171,-45302.777,-42595.46,-4931.2744
963345.7453708921,-90418.055,-105480.23,18705.486,-3963.2976,-1805.9082,-45305.137,-42595.46,-4932.821
963345.7493708896,-90428.63,-105499.27,18680.787,-4002.767,-1816.1621,-45306.766,-42595.99,-4937.134
963345.753370887,-90433.96,-105502.12,18676.678,-4006.2258,-1815.7959,-45303.793,-42597.293,-4940.1045
963345.7573708845,-90426.35,-105492.234,18704.834,-3966.5527,-1807.6172,-45304.61,-42598.758,-4937.3374
963345.761370882,-90423.14,-105480.63,18725.75,-3932.2104,-1796.6716,-45307.863,-42601.89,-4935.588
963345.7653708796,-90428.34,-105477.46,18715.129,-3948.3237,-1800.7812,-45309.57,-42605.754,-4947.998
963345.7693708771,-90438.88,-105491.375,18683.39,-3991.2517,-1815.2263,-45310.793,-42606.12,-4957.235
963345.7733708746,-90451.78,-105501.55,18675.334,-3998.82,-1819.3359,-45310.1,-42607.668,-4958.74
963345.7773708721,-90449.266,-105498.945,18705.037,-3966.146,-1809.6517,-45310.832,-42608.156,-4956.014
963345.7813708696,-90440.836,-105491.09,18728.068,-3938.436,-1802.0834,-45307.457,-42605.918,-4949.992
963345.7853708671,-90438.6,-105488.33,18721.965,-3953.0437,-1805.542,-45307.66,-42603.64,-4955.1597
963345.7893708646,-90447.35,-105496.99,18692.791,-3992.92,-1815.389,-45306.074,-42601.645,-4959.4727
963345.7933708621,-90452.35,-105502.04,18686.158,-3990.9668,-1816.447,-45304.363,-42600.223,-4956.95
963345.7973708595,-90441.125,-105491.17,18716.879,-3951.9858,-1806.8848,-45300.05,-42598.43,-4952.1484
963345.801370857,-90433.88,-105487.76,18739.746,-3935.8726,-1804.6875,-45300.58,-42599.855,-4951.66
963345.8053708546,-90438.805,-105490.766,18730.145,-3959.7168,-1808.309,-45301.312,-42600.06,-4955.6885
963345.8093708521,-90444.336,-105496.055,18699.871,-3997.1519,-1819.6208,-45303.426,-42599.57,-4956.95
963345.8133708496,-90449.875,-105500.86,18686.238,-4000.6106,-1820.6381,-45303.71,-42597.21,-4952.2705
963345.8173708471,-90448.086,-105493.82,18708.293,-3959.0251,-1800.4558,-45300.05,-42594.156,-4944.743
963345.8213708446,-90442.71,-105485.84,18727.54,-3932.4138,-1792.5212,-45298.18,-42588.83,-4934.4893
963345.8253708421,-90445.195,-105487.63,18717.326,-3956.95,-1800.415,-45298.3,-42587.04,-4932.414
963345.8293708396,-90454.39,-105500.37,18680.95,-4006.185,-1813.2324,-45300.984,-42587.973,-4936.198
963345.8333708372,-90465.87,-105516.03,18675.213,-4025.3093,-1814.2498,-45304.04,-42591.51,-4938.3955
963345.8373708347,-90470.42,-105526.695,18702.922,-3983.4392,-1807.3324,-45299.684,-42590.82,-4930.9897
963345.8413708321,-90469.41,-105520.836,18717.123,-3960.8154,-1805.7048,-45299.887,-42592.41,-4928.833
963345.8453708296,-90456.38,-105498.984,18714.803,-3977.3357,-1807.4951,-45306.97,-42597.902,-4933.0244
963345.8493708271,-90448.49,-105490.69,18693.523,-4008.057,-1809.6111,-45309.41,-42600.87,-4937.663
963345.8533708246,-90462.81,-105508.18,18678.793,-4014.0789,-1813.029,-45307.293,-42600.3,-4940.1855
963345.8573708221,-90465.945,-105505.13,18698.242,-3976.6846,-1805.3386,-45305.746,-42602.05,-4939.9824
963345.8613708196,-90470.13,-105508.016,18710.164,-3954.7527,-1807.6986,-45304.402,-42601.277,-4935.0996
963345.8653708171,-90478.56,-105519.9,18698.242,-3982.666,-1811.2793,-45306.887,-42600.344,-4936.198
963345.8693708146,-90483.766,-105526.086,18672.04,-4023.0715,-1813.5173,-45308.23,-42602.094,-4938.8022
963345.8733708122,-90489.46,-105531.54,18668.621,-4024.2922,-1818.3187,-45310.1,-42606.082,-4943.2783
963345.8773708097,-90486.62,-105527.914,18700.033,-3981.771,-1815.9587,-45306.926,-42607.26,-4938.7207
963345.8813708072,-90472.945,-105511.64,18721.111,-3946.6147,-1800.9033,-45307.254,-42604.777,-4933.4717
963345.8853708046,-90470.055,-105505.945,18710.896,-3962.6873,-1802.4089,-45307.09,-42603.312,-4934.652
963345.8893708021,-90481.125,-105518.15,18688.191,-4010.905,-1808.7158,-45308.92,-42602.742,-4938.0293
963345.8933707996,-90489.586,-105528.89,18684.855,-4020.1824,-1809.3262,-45308.35,-42603.598,-4940.7554
963345.8973707971,-90488.24,-105527.43,18700.236,-3983.48,-1804.6469,-45308.066,-42606.49,-4942.302
963345.9013707946,-90481.734,-105517.984,18714.723,-3951.9858,-1798.4619,-45306.562,-42605.062,-4937.5815
963345.9053707921,-90478.31,-105515.1,18707.723,-3967.326,-1798.2585,-45305.95,-42599.49,-4933.7974
963345.9093707897,-90485.84,-105528.61,18679.037,-4008.5452,-1806.071,-45305.098,-42596.52,-4934.774
963345.9133707872,-90488.41,-105530.68,18670.898,-4010.1726,-1810.5469,-45302.574,-42594.484,-4927.7344
963345.9173707847,-90480.8,-105521.61,18701.092,-3968.1396,-1799.6826,-45300.215,-42591.84,-4915.202
963345.9213707822,-90473.72,-105511.31,18726.197,-3947.5913,-1792.2363,-45300.05,-42592.734,-4914.6323
963345.9253707797,-90473.06,-105513.15,18715.252,-3971.2322,-1793.9453,-45302.816,-42595.95,-4928.4263
963345.9293707771,-90482.016,-105526.37,18684.855,-4011.9631,-1806.0303,-45306.195,-42595.664,-4929.9727
963345.9333707746,-90488.04,-105534.914,18681.64,-4020.3452,-1812.3779,-45308.516,-42597.574,-4931.112
963345.9373707721,-90486.086,-105528.61,18711.71,-3982.8289,-1805.0131,-45307.457,-42597.74,-4926.0254
963345.9413707696,-90475.266,-105519.58,18725.586,-3954.834,-1799.3572,-45305.707,-42597.453,-4923.055
963345.9453707671,-90469.65,-105525.27,18714.314,-3970.3777,-1806.2744,-45306.355,-42596.316,-4922.241
963345.9493707647,-90479.05,-105536.625,18685.426,-4015.4216,-1817.5457,-45307.902,-42595.055,-4922.119
963345.9533707622,-90484.87,-105539.23,18678.102,-4022.7866,-1815.8367,-45307.58,-42595.543,-4925.7812
963345.9573707597,-90479.01,-105533.82,18701.254,-3987.2642,-1800.3744,-45305.504,-42599.285,-4926.799
963345.9613707572,-90469.52,-105528.04,18723.064,-3957.8452,-1795.5322,-45305.83,-42599.734,-4927.246
963345.9653707547,-90468.18,-105530.64,18726.156,-3973.7957,-1800.5779,-45306.887,-42599.57,-4929.6875
963345.9693707522,-90476.52,-105539.72,18702.84,-4012.492,-1809.8552,-45310.875,-42603.11,-4936.157
963345.9733707496,-90480.23,-105542.69,18691.53,-4014.6487,-1804.7689,-45312.38,-42607.098,-4936.7676
963345.9773707471,-90474.41,-105534.836,18721.68,-3969.157,-1793.6199,-45309.695,-42605.47,-4930.461
963345.9813707446,-90467.086,-105522.42,18745.484,-3948.283,-1789.9984,-45307.457,-42601.97,-4924.968
963345.9853707422,-90466.92,-105521.85,18729.086,-3972.2087,-1791.3005,-45309.004,-42600.79,-4924.4795
963345.9893707397,-90480.516,-105538.78,18693.074,-4022.095,-1799.5199,-45309.734,-42598.39,-4923.462
963345.9933707372,-90485.234,-105546.8,18690.553,-4023.7224,-1802.124,-45308.96,-42597.496,-4923.1772
963345.9973707347,-90475.14,-105534.95,18719.402,-3977.1323,-1783.5693,-45305.258,-42596.19,-4918.2944
963346.0013707322,-90468.02,-105523.805,18747.885,-3944.1326,-1778.0355,-45303.508,-42597.25,-4919.4746
963346.0053707297,-90467.695,-105517.945,18736.004,-3962.6873,-1784.5459,-45305.91,-42598.676,-4925.212
963346.0093707272,-90480.59,-105532.07,18703.533,-4007.487,-1796.9971,-45305.625,-42599.812,-4929.9727
963346.0133707247,-90486.29,-105541.55,18694.5,-4014.8113,-1805.0945,-45305.42,-42601.605,-4932.6987
963346.0173707221,-90481.65,-105537.97,18713.908,-3985.6772,-1790.6494,-45305.055,-42603.23,-4929.891
963346.0213707197,-90476.766,-105532.48,18732.83,-3956.3804,-1783.6914,-45305.867,-42605.957,-4931.885
963346.0253707172,-90472.945,-105526.62,18733.154,-3970.4185,-1786.2549,-45305.992,-42606.082,-4933.5127
963346.0293707147,-90479.29,-105535.36,18705.486,-4004.5168,-1796.5496,-45307.66,-42606.49,-4935.791
963346.0333707122,-90484.87,-105544.84,18697.633,-4006.9988,-1798.7875,-45306.6,-42609.742,-4935.9946
963346.0373707097,-90478.97,-105535.52,18721.883,-3966.8784,-1787.6791,-45306.887,-42613.484,-4936.361
963346.0413707072,-90473.63,-105529.34,18743.572,-3948.12,-1782.0232,-45307.496,-42613.895,-4936.8086
963346.0453707047,-90469.12,-105523.4,18739.87,-3968.3838,-1784.7494,-45308.473,-42610.27,-4929.1587
963346.0493707022,-90477.586,-105531.17,18707.234,-4003.4182,-1791.626,-45309.164,-42608.97,-4927.816
963346.0533706998,-90485.11,-105535.89,18696.412,-4010.783,-1793.5385,-45311.24,-42611.86,-4932.9023
963346.0573706973,-90474.2,-105526.984,18723.797,-3974.9756,-1782.959,-45311.035,-42615.926,-4933.7974
963346.0613706947,-90468.875,-105520.71,18745.564,-3949.4224,-1780.3142,-45309.938,-42615.195,-4930.2573
963346.0653706922,-90466.84,-105519.375,18734.172,-3969.3604,-1780.5583,-45310.832,-42614.95,-4934.5703
963346.0693706897,-90472.78,-105533.2,18700.887,-4014.6892,-1791.1377,-45312.867,-42614.258,-4935.14
963346.0733706872,-90476.52,-105540.125,18690.877,-4016.561,-1790.5273,-45312.176,-42617.84,-4940.3486
963346.0773706847,-90469.61,-105529.14,18716.309,-3971.7205,-1779.1342,-45310.387,-42620.08,-4938.965
963346.0813706822,-90463.71,-105515.99,18735.922,-3947.103,-1773.5189,-45311.16,-42616.336,-4929.3623
963346.0853706797,-90459.555,-105508.55,18730.672,-3959.5947,-1777.832,-45311.445,-42614.383,-4928.304
963346.0893706772,-90465.54,-105514.53,18704.916,-3995.158,-1785.848,-45309.082,-42609.742,-4925.659
963346.0933706748,-90474.37,-105525.48,18692.303,-4007.8127,-1791.626,-45308.555,-42605.957,-4918.01
963346.0973706723,-90472.375,-105521.33,18719.727,-3969.3604,-1780.5176,-45307.09,-42603.844,-4913.6963
963346.1013706698,-90467.77,-105515.79,18733.113,-3946.8994,-1774.2107,-45303.633,-42601.2,-4913.615
963346.1053706672,-90468.1,-105518.234,18722.291,-3965.9832,-1777.2217,-45302.613,-42598.797,-4914.592
963346.1093706647,-90475.99,-105528.484,18698.445,-4003.052,-1784.1797,-45303.914,-42597.086,-4913.371
963346.1133706622,-90481.04,-105536.38,18683.473,-4006.5105,-1787.7605,-45306.074,-42598.594,-4916.1787
963346.1173706597,-90473.11,-105527.1,18713.826,-3964.8032,-1781.2094,-45306.48,-42600.465,-4915.039
963346.1213706572,-90467.2,-105519.05,18733.033,-3943.7664,-1776.6113,-45302.37,-42599.527,-4911.0107
963346.1253706547,-90465.984,-105513.23,18722.576,-3965.9424,-1781.8604,-45302.938,-42597.617,-4912.3535
963346.1293706523,-90477.945,-105529.14,18689.209,-4011.5154,-1791.3005,-45304.566,-42598.31,-4914.551
963346.1333706498,-90491.82,-105542.52,18682.7,-4019.4094,-1794.4744,-45306.64,-42605.227,-4921.102
963346.1373706473,-90484.945,-105538.62,18706.014,-3976.6846,-1787.2722,-45306.316,-42609.863,-4923.828
963346.1413706448,-90476.89,-105533.49,18725.506,-3949.0562,-1784.3832,-45305.91,-42611.453,-4922.567
963346.1453706423,-90476.36,-105531.375,18724.162,-3958.781,-1791.097,-45305.543,-42610.965,-4922.689
963346.1493706397,-90477.46,-105534.38,18701.092,-3994.3848,-1798.3806,-45304.85,-42609.945,-4924.8047
963346.1533706372,-90485.07,-105540.86,18684.734,-4004.3948,-1799.1943,-45307.902,-42610.312,-4926.107
963346.1573706347,-90480.76,-105534.43,18705.525,-3965.5762,-1787.1501,-45306.277,-42611.9,-4924.276
963346.1613706322,-90475.63,-105522.14,18720.703,-3940.7554,-1784.8308,-45305.22,-42609.54,-4916.26
963346.1653706298,-90472.58,-105517.055,18712.932,-3958.8218,-1781.9824,-45309.816,-42608.93,-4914.388
963346.1693706273,-90477.74,-105525.88,18684.205,-4001.1394,-1786.4584,-45310.63,-42610.516,-4920.858
963346.1733706248,-90487.836,-105536.95,18667.074,-4007.5686,-1788.9812,-45310.344,-42609.5,-4921.753
963346.1773706223,-90486.125,-105536.336,18693.562,-3967.6108,-1779.1748,-45307.496,-42609.01,-4917.3584
963346.1813706198,-90479.21,-105525.15,18716.309,-3941.162,-1773.641,-45306.805,-42611.574,-4920.98
963346.1853706173,-90485.555,-105529.26,18708.7,-3964.9658,-1784.1797,-45309.613,-42614.87,-4927.368
963346.1893706148,-90497.6,-105545.74,18680.258,-4006.5105,-1794.1082,-45311.484,-42616.254,-4929.3213
963346.1933706122,-90499.02,-105548.99,18668.621,-4004.761,-1789.9984,-45309.367,-42614.586,-4929.5654
963346.1973706097,-90495.77,-105541.586,18692.059,-3966.2273,-1781.4535,-45306.64,-42613.484,-4928.06
963346.2013706072,-90492.72,-105526.164,18711.873,-3944.0105,-1776.5707,-45304.688,-42612.996,-4924.4795
963346.2053706048,-90492.44,-105524.82,18704.143,-3962.077,-1781.2908,-45305.46,-42611.168,-4921.753
963346.2093706023,-90499.63,-105536.09,18678.875,-3999.6746,-1790.6902,-45305.34,-42609.78,-4921.55
963346.2133705998,-90503.5,-105539.43,18668.133,-4016.683,-1790.8529,-45305.42,-42606.69,-4914.9985
963346.2173705973,-90499.76,-105534.95,18693.36,-3985.6365,-1785.9294,-45305.79,-42607.625,-4910.1157
963346.2213705948,-90494.34,-105527.23,18718.914,-3955.6072,-1778.7273,-45304.65,-42609.62,-4911.662
963346.2253705923,-90492.31,-105526.21,18716.064,-3967.5293,-1781.0466,-45305.664,-42608.562,-4913.33
963346.2293705898,-90499.19,-105537.03,18678.426,-4001.5464,-1792.033,-45308.105,-42608.113,-4911.743
963346.2333705873,-90503.7,-105545.695,18669.963,-4002.0754,-1789.8357,-45309.816,-42610.312,-4914.1035
963346.2373705847,-90497.03,-105534.914,18699.586,-3961.5479,-1781.6976,-45309.938,-42611.777,-4911.3364
963346.2413705823,-90491.3,-105525.27,18715.047,-3939.2498,-1774.4955,-45306.64,-42609.863,-4905.5586
963346.2453705798,-90491.336,-105525.8,18705.607,-3959.961,-1781.0873,-45306.97,-42606.977,-4904.1343
963346.2493705773,-90498.375,-105536.99,18677.41,-4002.3196,-1790.9343,-45308.676,-42606.812,-4909.7495
963346.2533705748,-90508.305,-105547.53,18666.748,-4009.4402,-1794.4744,-45308.15,-42606.49,-4908.4883
963346.2573705723,-90501.18,-105537.516,18695.354,-3964.6812,-1782.5928,-45305.543,-42605.594,-4904.338
963346.2613705698,-90493.414,-105519.086,18713.99,-3939.494,-1779.419,-45305.42,-42606.285,-4903.4424
963346.2653705673,-90495.77,-105518.72,18706.502,-3950.4395,-1780.1921,-45305.664,-42607.34,-4905.6396
963346.2693705648,-90496.42,-105524.26,18683.797,-3983.7646,-1786.4584,-45306.355,-42608.36,-4910.4414
963346.2733705624,-90504.73,-105535.24,18672.242,-3995.6055,-1789.1033,-45309.41,-42610.23,-4917.6436
963346.2773705599,-90503.91,-105529.75,18694.988,-3963.6638,-1777.8728,-45305.543,-42612.1,-4916.626
963346.2813705573,-90500.94,-105523.44,18704.875,-3948.0796,-1774.7803,-45306.03,-42612.754,-4913.778
963346.2853705548,-90503.586,-105528.32,18693.482,-3967.2446,-1779.7445,-45306.438,-42611.816,-4912.7197
963346.2893705523,-90514.41,-105539.35,18670.086,-4008.1382,-1786.0515,-45308.555,-42613.12,-4920.1255
963346.2933705498,-90520.06,-105547.94,18664.51,-4015.7878,-1788.208,-45306.926,-42612.145,-4921.9565
963346.2973705473,-90511.84,-105539.39,18688.518,-3980.6724,-1780.3549,-45305.055,-42611.816,-4915.4053
963346.3013705448,-90504.516,-105533.57,18704.346,-3961.67,-1773.641,-45306.074,-42611.734,-4911.052
963346.3053705423,-90505.45,-105533.695,18694.988,-3985.3516,-1784.5459,-45307.375,-42611.53,-4909.1797
963346.3093705398,-90510.22,-105539.836,18667.156,-4017.9038,-1793.0908,-45310.1,-42612.59,-4908.244
963346.3133705374,-90512.945,-105545.82,18654.541,-4027.3032,-1795.0033,-45312.543,-42614.383,-4914.388
963346.3173705349,-90508.305,-105542.04,18684.002,-3992.9607,-1792.6433,-45310.996,-42614.3,-4911.2144
963346.3213705324,-90502.89,-105536.586,18704.266,-3969.1978,-1787.5164,-45307.902,-42612.1,-4903.198
963346.3253705298,-90503.46,-105536.99,18688.518,-3986.8164,-1790.2832,-45309.41,-42609.945,-4903.5645
963346.3293705273,-90511.11,-105545.54,18658.855,-4028.4832,-1801.1068,-45310.75,-42608.44,-4907.6743
963346.3333705248,-90516.6,-105554.94,18647.258,-4047.8923,-1808.96,-45310.957,-42610.11,-4908.081
963346.3373705223,-90514.41,-105555.14,18667.318,-4028.6052,-1804.3213,-45309.734,-42610.92,-4904.948
963346.3413705198,-90512.01,-105549.56,18684.734,-4007.0396,-1795.7764,-45310.67,-42612.67,-4903.7275
963346.3453705173,-90513.47,-105550.945,18680.584,-4017.4155,-1795.5322,-45310.832,-42613.363,-4905.355
963346.3493705149,-90517.664,-105560.23,18649.17,-4059.489,-1803.182,-45311.85,-42616.05,-4910.7666
963346.3533705124,-90517.984,-105564.05,18636.11,-4065.7146,-1803.2634,-45310.305,-42617.35,-4913.615
963346.3573705099,-90517.055,-105564.25,18653.932,-4027.9136,-1794.4744,-45311.363,-42619.71,-4913.127
963346.3613705074,-90512.05,-105557.414,18675.863,-4003.9878,-1791.8295,-45312.176,-42621.5,-4913.2896
963346.3653705049,-90511.516,-105549.97,18676.88,-4021.688,-1793.335,-45312.01,-42618.45,-4910.6445
963346.3693705023,-90522.305,-105567.71,18651.531,-4059.3264,-1811.1572,-45313.844,-42620.28,-4914.714
963346.3733704998,-90529.99,-105577.35,18635.498,-4073.7307,-1812.3779,-45316.0,-42620.934,-4914.1035
963346.3773704973,-90528.73,-105569.625,18660.238,-4032.3489,-1800.5779,-45314.293,-42622.56,-4914.0625
963346.3813704948,-90519.984,-105562.46,18682.008,-4001.6277,-1793.6605,-45314.008,-42624.188,-4914.795
963346.3853704924,-90516.4,-105558.15,18677.775,-4013.2244,-1795.5322,-45314.58,-42622.684,-4911.4585
963346.3893704899,-90515.016,-105558.44,18656.78,-4043.091,-1794.3115,-45312.582,-42617.23,-4904.1343
963346.3933704874,-90517.625,-105563.84,18642.049,-4049.6829,-1795.4509,-45310.71,-42616.008,-4903.4424
963346.3973704849,-90517.13,-105564.336,18661.336,-4024.1294,-1788.4929,-45310.02,-42617.15,-4907.715
963346.4013704824,-90520.39,-105567.914,18672.04,-4023.519,-1793.4978,-45310.47,-42616.05,-4905.355
963346.4053704799,-90530.52,-105578.53,18662.354,-4038.5745,-1803.4261,-45311.117,-42615.6,-4908.6104
963346.4093704774,-90531.74,-105573.41,18651.775,-4051.6765,-1804.0771,-45312.785,-42619.223,-4916.301
963346.4133704748,-90518.234,-105555.305,18655.518,-4033.895,-1793.7826,-45314.7,-42624.594,-4918.4165
963346.4173704723,-90506.02,-105542.85,18680.176,-3980.0212,-1775.8789,-45314.453,-42625.164,-4912.3945
963346.4213704698,-90501.02,-105532.48,18700.604,-3953.2878,-1765.4623,-45312.46,-42621.95,-4906.8604
963346.4253704674,-90498.21,-105523.4,18695.965,-3967.163,-1768.5547,-45314.414,-42621.83,-4906.9014
963346.4293704649,-90507.086,-105531.91,18675.904,-3996.0125,-1777.3845,-45316.367,-42622.64,-4908.0405
963346.4333704624,-90509.445,-105530.766,18672.363,-3998.291,-1780.8431,-45318.402,-42625.082,-4908.2847
963346.4373704599,-90507.086,-105522.83,18694.295,-3960.0017,-1768.8802,-45317.832,-42629.07,-4906.291
963346.4413704574,-90500.2,-105512.375,18715.658,-3929.6062,-1764.2009,-45316.406,-42627.93,-4904.663
963346.4453704549,-90501.836,-105511.516,18712.646,-3944.5396,-1771.5251,-45314.293,-42625.285,-4906.6978
963346.4493704524,-90516.89,-105530.27,18687.256,-3985.067,-1777.4252,-45313.76,-42622.887,-4908.366
963346.45337045,-90526.164,-105536.79,18666.424,-4000.0815,-1777.5066,-45314.453,-42622.234,-4904.826
963346.4573704473,-90522.914,-105529.055,18682.414,-3974.2432,-1770.9148,-45312.543,-42622.4,-4903.6055
963346.4613704449,-90516.32,-105517.336,18707.643,-3948.4863,-1765.9912,-45313.6,-42623.7,-4904.8667
963346.4653704424,-90517.055,-105514.98,18702.76,-3959.5947,-1772.7865,-45314.58,-42623.25,-4902.629
963346.4693704399,-90524.984,-105525.516,18683.105,-4000.0815,-1779.7039,-45316.0,-42623.453,-4903.9307
963346.4733704374,-90527.19,-105530.44,18680.258,-4005.9001,-1777.2625,-45318.93,-42624.676,-4903.2393
963346.4773704349,-90525.68,-105525.8,18699.178,-3968.0583,-1766.8457,-45314.7,-42622.316,-4895.1416
963346.4813704324,-90522.914,-105516.445,18715.902,-3945.1904,-1756.9174,-45311.85,-42619.184,-4887.492
963346.4853704299,-90522.38,-105511.766,18706.34,-3962.606,-1763.3464,-45314.414,-42619.996,-4892.904
963346.4893704274,-90533.61,-105524.87,18675.375,-4008.057,-1776.53,-45317.953,-42621.746,-4897.38
963346.493370425,-90541.67,-105538.414,18656.697,-4015.8286,-1780.5176,-45317.426,-42622.316,-4894.409
963346.4973704225,-90536.5,-105529.664,18677.654,-3974.7722,-1774.8617,-45314.414,-42623.535,-4890.5845
963346.5013704199,-90529.42,-105522.55,18706.299,-3950.0327,-1773.1527,-45313.273,-42621.95,-4888.55
963346.5053704174,-90525.76,-105518.15,18706.502,-3963.0127,-1768.7582,-45312.46,-42619.47,-4887.0444
963346.5093704149,-90527.8,-105519.66,18682.17,-3998.0469,-1771.8099,-45311.973,-42617.637,-4888.1836
963346.5133704124,-90531.58,-105524.78,18665.242,-4009.074,-1778.7273,-45312.258,-42616.863,-4889.201
963346.5173704099,-90523.64,-105515.38,18692.22,-3973.9177,-1769.0837,-45311.89,-42614.91,-4880.615
963346.5213704074,-90513.92,-105505.62,18717.0,-3950.1953,-1760.498,-45313.56,-42615.766,-4881.4697
963346.5253704049,-90513.47,-105504.31,18711.305,-3963.908,-1766.8457,-45314.78,-42613.16,-4880.127
963346.5293704025,-90518.07,-105513.72,18681.764,-3997.396,-1772.1761,-45316.406,-42612.996,-4881.6733
963346.5333704,-90526.62,-105523.52,18665.203,-4006.714,-1772.2576,-45318.562,-42615.723,-4884.603
963346.5373703975,-90527.836,-105517.375,18690.877,-3969.564,-1766.4795,-45316.043,-42616.78,-4880.6562
963346.541370395,-90521.0,-105509.41,18705.445,-3952.1892,-1761.3119,-45313.152,-42615.926,-4876.058
963346.5453703924,-90520.47,-105514.77,18706.502,-3966.3086,-1763.3464,-45312.297,-42616.58,-4876.0986
963346.5493703899,-90526.164,-105521.125,18682.74,-4001.5464,-1766.1133,-45314.09,-42615.234,-4880.6562
963346.5533703874,-90528.77,-105523.84,18670.613,-4012.6956,-1771.4844,-45315.918,-42616.293,-4882.772
963346.5573703849,-90523.52,-105515.38,18698.771,-3974.284,-1762.6547,-45312.34,-42616.05,-4878.174
963346.5613703824,-90513.8,-105501.38,18726.115,-3937.7441,-1753.3773,-45311.727,-42616.336,-4878.337
963346.56537038,-90511.516,-105497.766,18726.4,-3946.4111,-1756.2256,-45315.227,-42617.39,-4880.127
963346.5693703775,-90519.01,-105507.0,18695.924,-3983.3984,-1765.1367,-45317.668,-42618.125,-4885.2134
963346.573370375,-90526.25,-105514.94,18678.102,-3998.576,-1766.032,-45318.28,-42619.914,-4887.248
963346.5773703725,-90522.34,-105511.07,18699.098,-3967.4072,-1758.3416,-45313.273,-42619.305,-4884.1147
963346.58137037,-90515.625,-105507.24,18723.227,-3938.8022,-1758.4636,-45313.19,-42621.5,-4888.957
963346.5853703675,-90515.34,-105510.016,18721.314,-3951.4568,-1769.5312,-45312.867,-42619.71,-4886.068
963346.5893703649,-90519.58,-105515.99,18702.719,-3989.3394,-1780.8431,-45314.496,-42617.23,-4885.5796
963346.5933703624,-90520.8,-105517.945,18693.318,-3992.8794,-1777.3031,-45313.355,-42616.617,-4885.376
963346.5973703599,-90516.195,-105513.06,18712.281,-3954.4272,-1764.2009,-45313.56,-42617.96,-4883.2197
963346.6013703574,-90510.7,-105506.836,18736.695,-3930.949,-1760.9457,-45313.56,-42620.402,-4886.068
963346.605370355,-90515.38,-105507.37,18725.342,-3953.532,-1766.9678,-45316.406,-42625.652,-4890.3403
963346.6093703525,-90525.27,-105517.7,18694.174,-4001.8313,-1773.6003,-45318.89,-42629.883,-4895.7114
963346.61337035,-90526.77,-105519.375,18687.297,-4005.0051,-1769.6127,-45321.414,-42631.676,-4896.688
963346.6173703475,-90523.805,-105512.125,18712.605,-3965.861,-1755.6152,-45319.703,-42632.773,-4895.3857
963346.621370345,-90522.625,-105503.26,18726.318,-3945.5974,-1749.8779,-45317.383,-42631.105,-4892.375
963346.6253703425,-90517.42,-105498.13,18719.197,-3954.0203,-1754.8828,-45319.867,-42628.703,-4888.957
963346.62937034,-90521.94,-105505.414,18694.58,-3988.037,-1766.7236,-45319.5,-42623.66,-4884.481
963346.6333703374,-90529.83,-105514.29,18679.363,-4006.185,-1770.9148,-45316.895,-42618.207,-4879.0283
963346.6373703349,-90527.914,-105512.9,18699.992,-3972.982,-1764.4043,-45314.375,-42616.457,-4875.6514
963346.6413703325,-90522.625,-105507.24,18721.883,-3953.8574,-1760.905,-45312.582,-42614.34,-4875.6514
963346.64537033,-90522.664,-105509.28,18718.344,-3973.8364,-1764.0789,-45313.438,-42613.2,-4877.8076
963346.6493703275,-90530.88,-105517.58,18692.098,-4014.5671,-1774.9838,-45314.7,-42612.71,-4875.9766
963346.653370325,-90534.71,-105522.46,18682.576,-4029.7446,-1777.3031,-45314.09,-42614.016,-4879.0283
963346.6573703225,-90536.016,-105520.266,18702.557,-3999.5525,-1770.1824,-45312.42,-42617.23,-4877.5635
963346.66137032,-90535.24,-105516.65,18718.791,-3980.713,-1761.3119,-45312.01,-42617.88,-4872.274
963346.6653703175,-90542.16,-105518.35,18711.102,-3991.2517,-1758.0974,-45314.25,-42615.234,-4871.1753
963346.669370315,-90559.33,-105534.34,18682.82,-4020.5486,-1770.9148,-45316.61,-42615.113,-4876.5464
963346.6733703126,-90547.98,-105540.81,18681.152,-4024.943,-1779.6631,-45319.418,-42621.5,-4880.0864
963346.67737031,-90526.77,-105514.61,18716.838,-3978.8413,-1765.0961,-45321.37,-42626.383,-4875.6514
963346.6813703075,-90527.02,-105503.79,18734.863,-3950.6023,-1762.3291,-45319.867,-42627.727,-4875.7734
963346.685370305,-90533.57,-105509.08,18723.674,-3972.8599,-1767.741,-45318.81,-42627.81,-4881.2666
963346.6893703025,-90538.17,-105517.625,18702.922,-4013.7126,-1779.5818,-45320.883,-42628.46,-4887.4106
963346.6933703,-90547.65,-105529.7,18688.396,-4032.2673,-1785.5225,-45325.24,-42631.266,-4890.0146
963346.6973702975,-90540.49,-105522.42,18714.031,-3988.2407,-1771.3217,-45322.594,-42634.035,-4887.004
963346.701370295,-90536.42,-105513.76,18736.816,-3952.5146,-1765.7471,-45319.867,-42631.633,-4881.2256
963346.7053702925,-90533.94,-105512.58,18735.475,-3967.855,-1769.8568,-45321.13,-42629.64,-4878.7437
963346.70937029,-90529.664,-105516.4,18714.234,-4000.0815,-1773.3154,-45323.285,-42631.55,-4880.2085
963346.7133702876,-90529.055,-105516.56,18704.06,-4007.4058,-1773.8037,-45323.69,-42632.324,-4878.418
963346.7173702851,-90524.26,-105508.06,18728.557,-3966.6343,-1760.5795,-45322.023,-42630.008,-4871.867
963346.7213702825,-90522.38,-105502.69,18745.688,-3944.2546,-1752.1973,-45322.676,-42630.984,-4870.4834
963346.72537028,-90524.82,-105508.06,18737.834,-3969.5232,-1763.4685,-45326.785,-42634.766,-4878.418
963346.7293702775,-90529.625,-105520.47,18714.926,-4006.2258,-1777.0183,-45326.62,-42635.99,-4878.825
963346.733370275,-90535.61,-105527.39,18706.584,-4015.4624,-1778.8494,-45324.465,-42635.133,-4877.767
963346.7373702725,-90532.8,-105523.73,18726.197,-3981.486,-1769.7347,-45323.164,-42636.07,-4877.767
963346.74137027,-90522.51,-105508.75,18750.53,-3953.2065,-1757.6091,-45321.25,-42636.8,-4876.831
963346.7453702675,-90522.51,-105506.15,18747.926,-3965.9832,-1762.9802,-45322.023,-42632.57,-4871.216
963346.749370265,-90527.59,-105515.586,18718.994,-4000.7327,-1774.0072,-45321.902,-42628.867,-4871.1753
963346.7533702626,-90532.88,-105521.89,18703.572,-4012.2073,-1776.9369,-45320.723,-42628.46,-4872.1924
963346.7573702601,-90526.05,-105514.77,18735.434,-3976.2778,-1763.6312,-45318.77,-42627.44,-4865.9263
963346.7613702576,-90518.234,-105505.86,18759.074,-3952.5146,-1753.2959,-45316.734,-42624.473,-4860.6772
963346.765370255,-90520.305,-105505.58,18745.729,-3965.9832,-1760.7015,-45316.734,-42621.297,-4860.1074
963346.7693702525,-90527.63,-105519.49,18713.826,-4004.0286,-1773.1527,-45318.28,-42619.71,-4861.8574
963346.77337025,-90530.88,-105523.6,18701.295,-4016.8052,-1775.7568,-45319.54,-42620.32,-4860.9214
963346.7773702475,-90527.55,-105517.83,18720.867,-3983.2358,-1769.4906,-45320.312,-42618.777,-4850.749
963346.781370245,-90519.86,-105509.28,18740.357,-3957.2349,-1761.1084,-45317.344,-42618.652,-4844.7676
963346.7853702425,-90517.01,-105505.78,18738.525,-3969.9302,-1762.2478,-45316.855,-42615.848,-4845.0117
963346.7893702401,-90525.31,-105515.914,18711.305,-4006.7546,-1772.9492,-45317.465,-42612.145,-4841.8784
963346.7933702376,-90527.95,-105522.42,18700.48,-4011.8003,-1775.2686,-45318.645,-42613.77,-4843.0176
963346.7973702351,-90520.1,-105513.47,18729.086,-3965.5762,-1763.0615,-45317.098,-42613.934,-4841.0645
963346.8013702326,-90511.97,-105502.28,18748.455,-3937.4595,-1757.6091,-45315.188,-42614.504,-4841.1055
963346.8053702301,-90511.516,-105501.914,18738.363,-3958.2114,-1759.9285,-45316.33,-42617.35,-4848.4297
963346.8093702275,-90519.05,-105515.625,18717.164,-4002.5637,-1766.7236,-45318.074,-42618.082,-4850.708
963346.813370225,-90525.68,-105522.79,18712.81,-4011.9224,-1768.2699,-45319.664,-42620.605,-4855.4688
963346.8173702225,-90517.055,-105511.11,18741.62,-3963.908,-1753.418,-45317.87,-42623.17,-4854.8584
963346.82137022,-90513.555,-105505.13,18755.941,-3938.3545,-1747.0703,-45318.562,-42624.96,-4854.6553
963346.8253702176,-90512.74,-105503.625,18755.127,-3948.4863,-1753.3773,-45318.688,-42625.125,-4856.405
963346.8293702151,-90514.81,-105506.8,18734.822,-3980.4688,-1768.2292,-45318.688,-42627.08,-4862.8745
963346.8333702126,-90524.945,-105515.55,18718.385,-3995.3613,-1776.8962,-45321.086,-42629.19,-4865.2754
963346.8373702101,-90519.58,-105512.17,18741.578,-3961.67,-1764.5671,-45321.086,-42631.594,-4863.7695
963346.8413702076,-90514.2,-105499.64,18753.703,-3941.447,-1759.9285,-45321.535,-42631.473,-4861.776
963346.8453702051,-90516.65,-105501.1,18740.764,-3959.6355,-1765.9912,-45322.55,-42631.266,-4862.7524
963346.8493702026,-90514.61,-105502.24,18721.72,-3994.3442,-1769.2871,-45323.773,-42631.105,-4864.9497
963346.8533702,-90519.94,-105510.3,18710.572,-4008.301,-1765.5844,-45323.855,-42633.383,-4868.1235
963346.8573701975,-90514.57,-105504.6,18741.21,-3967.326,-1755.127,-45322.676,-42635.906,-4868.327
963346.861370195,-90504.516,-105493.62,18761.963,-3942.5457,-1747.7214,-45322.715,-42636.844,-4868.3677
963346.8653701926,-90504.6,-105492.48,18753.621,-3956.0547,-1757.1615,-45324.832,-42635.785,-4869.1
963346.8693701901,-90508.47,-105498.5,18728.354,-3984.0088,-1765.4623,-45326.094,-42636.23,-4871.0938
963346.8733701876,-90510.016,-105499.96,18715.74,-3986.8164,-1761.7188,-45326.133,-42636.19,-4868.164
963346.8773701851,-90504.07,-105493.66,18743.734,-3945.5566,-1756.7953,-45325.766,-42637.047,-4864.299
963346.8813701826,-90492.11,-105481.164,18769.125,-3918.579,-1748.7793,-45323.855,-42635.336,-4859.497
963346.8853701801,-90486.29,-105476.16,18766.113,-3928.4668,-1749.4304,-45324.547,-42635.5,-4862.671
963346.8893701776,-90489.99,-105482.79,18741.008,-3967.6514,-1758.5449,-45327.273,-42639.12,-4870.7686
963346.8933701752,-90493.05,-105486.734,18724.61,-3983.7646,-1763.4277,-45331.098,-42643.23,-4875.6104
963346.8973701725,-90480.39,-105476.24,18749.512,-3943.2373,-1753.2959,-45328.74,-42644.043,-4870.9717
963346.9013701701,-90468.47,-105469.04,18761.15,-3923.0144,-1742.1062,-45325.684,-42641.848,-4867.513
963346.9053701676,-90460.53,-105465.78,18759.033,-3930.9897,-1744.3848,-45327.19,-42641.36,-4868.734
963346.9093701651,-90460.21,-105467.0,18740.643,-3960.7341,-1754.3945,-45330.28,-42645.266,-4875.407
963346.9133701626,-90460.25,-105472.3,18730.754,-3965.5356,-1754.1912,-45331.79,-42649.293,-4879.802
963346.9173701601,-90449.586,-105463.14,18760.418,-3920.3696,-1743.6117,-45332.684,-42648.355,-4876.587
963346.9213701576,-90432.62,-105444.3,18781.535,-3895.2231,-1735.8398,-45332.887,-42644.938,-4871.623
963346.9253701551,-90434.0,-105443.32,18768.88,-3922.4448,-1743.6523,-45331.258,-42642.496,-4869.9546
963346.9293701526,-90440.15,-105453.78,18730.836,-3985.1482,-1761.3119,-45333.133,-42638.55,-4865.967
963346.9333701502,-90442.875,-105462.41,18711.59,-4013.3464,-1762.7361,-45333.863,-42638.797,-4867.513
963346.9373701477,-90434.0,-105453.9,18734.375,-3977.2136,-1754.7607,-45332.074,-42640.504,-4869.792
963346.9413701451,-90426.92,-105445.44,18758.057,-3951.6602,-1745.7683,-45328.492,-42638.31,-4866.008
963346.9453701426,-90426.68,-105444.87,18762.654,-3963.2976,-1742.7979,-45326.66,-42637.9,-4869.2627
963346.9493701401,-90426.11,-105443.98,18739.014,-3992.269,-1748.6166,-45326.824,-42638.59,-4873.21
963346.9533701376,-90433.64,-105451.83,18721.314,-4004.5981,-1762.3699,-45331.543,-42644.98,-4881.5513
963346.9573701351,-90426.805,-105447.555,18749.268,-3968.75,-1757.1615,-45335.043,-42650.676,-4885.051
963346.9613701326,-90407.31,-105430.79,18772.664,-3951.1313,-1744.3848,-45334.555,-42652.426,-4883.789
963346.9653701301,-90403.12,-105424.234,18767.863,-3964.5183,-1741.7806,-45336.348,-42653.16,-4884.3994
963346.9693701277,-90407.516,-105427.125,18743.49,-3998.6572,-1751.5869,-45337.117,-42653.32,-4884.3994
963346.9733701252,-90405.36,-105422.81,18732.666,-4012.6956,-1756.5511,-45337.605,-42657.105,-4889.6895
963346.9773701227,-90389.695,-105407.96,18760.418,-3973.1445,-1746.5007,-45336.957,-42661.703,-4892.253
963346.9813701202,-90373.45,-105392.625,18781.658,-3947.4692,-1736.6943,-45337.605,-42662.926,-4887.7363
963346.9853701176,-90371.34,-105389.29,18774.373,-3961.1003,-1736.8978,-45342.9,-42663.332,-4891.1133
963346.9893701151,-90371.55,-105392.625,18745.89,-3996.0532,-1741.0889,-45345.582,-42664.188,-4894.0024
963346.9933701126,-90375.0,-105400.07,18730.795,-4001.7498,-1748.0062,-45345.664,-42664.836,-4894.4907
963346.9973701101,-90370.164,-105392.375,18754.924,-3964.0708,-1736.8164,-45340.414,-42664.55,-4892.5376
963347.0013701076,-90357.47,-105379.11,18781.494,-3938.3545,-1734.5378,-45341.27,-42662.723,-4892.1714
963347.0053701052,-90365.69,-105387.74,18767.578,-3955.0376,-1741.6992,-45339.355,-42658.855,-4889.201
963347.0093701027,-90381.23,-105401.9,18738.322,-3991.333,-1750.9766,-45338.867,-42653.2,-4884.9287
963347.0133701002,-90386.07,-105406.336,18729.9,-4012.492,-1757.2021,-45341.066,-42652.344,-4881.7954
963347.0173700977,-90384.36,-105404.34,18754.639,-3971.8018,-1747.9248,-45338.707,-42652.26,-4877.075
963347.0213700952,-90378.586,-105398.4,18775.879,-3939.3718,-1738.7289,-45336.47,-42650.105,-4873.047
963347.0253700927,-90380.21,-105400.8,18771.12,-3954.183,-1743.3269,-45335.33,-42647.176,-4868.978
963347.0293700901,-90391.69,-105411.5,18745.646,-3990.1123,-1755.6152,-45337.77,-42646.527,-4869.873
963347.0333700876,-90406.5,-105424.36,18724.041,-4004.3132,-1760.8643,-45336.957,-42644.33,-4865.7227
963347.0373700851,-90409.38,-105426.48,18743.043,-3965.3728,-1753.0925,-45334.312,-42641.36,-4856.242
963347.0413700826,-90409.266,-105421.35,18759.889,-3944.0513,-1744.7917,-45331.707,-42641.97,-4856.9746
963347.0453700802,-90421.72,-105427.86,18750.855,-3969.808,-1744.7917,-45332.48,-42642.375,-4860.7993
963347.0493700777,-90437.13,-105444.42,18723.918,-4006.9583,-1757.8125,-45334.516,-42643.395,-4862.712
963347.0533700752,-90448.33,-105459.07,18706.828,-4021.688,-1764.1602,-45336.348,-42645.223,-4863.7695
963347.0573700727,-90452.11,-105462.734,18731.73,-3976.237,-1752.4822,-45333.17,-42644.29,-4859.2124
963347.0613700702,-90448.61,-105456.99,18755.453,-3948.527,-1745.0765,-45329.633,-42641.562,-4852.539
963347.0653700677,-90446.984,-105455.445,18750.773,-3966.9597,-1752.6855,-45332.195,-42639.203,-4851.074
963347.0693700652,-90456.18,-105467.25,18722.78,-4012.4106,-1761.0677,-45337.77,-42642.824,-4855.0215
963347.0733700626,-90467.49,-105482.625,18697.998,-4041.138,-1766.7236,-45340.863,-42651.41,-4861.6133
963347.0773700601,-90474.04,-105484.99,18717.732,-4001.2615,-1762.8174,-45340.496,-42653.973,-4855.184
963347.0813700577,-90473.92,-105478.27,18739.95,-3965.8203,-1752.6042,-45341.15,-42654.176,-4853.0684
963347.0853700552,-90474.98,-105474.33,18740.52,-3980.5908,-1757.2429,-45341.96,-42652.547,-4854.37
963347.0893700527,-90481.164,-105480.47,18713.746,-4016.2761,-1764.7705,-45342.773,-42649.742,-4854.4517
963347.0933700502,-90488.164,-105489.14,18698.08,-4034.6682,-1766.4388,-45343.06,-42647.664,-4854.818
963347.0973700477,-90490.08,-105488.61,18717.408,-4003.7437,-1761.6375,-45338.867,-42645.223,-4848.226
963347.1013700452,-90484.3,-105484.664,18731.73,-3983.3171,-1756.1443,-45335.574,-42641.48,-4842.204
963347.1053700427,-90487.266,-105493.29,18718.018,-4008.2195,-1768.392,-45332.234,-42635.215,-4839.3965
963347.1093700402,-90496.3,-105510.42,18688.436,-4049.7234,-1781.5756,-45332.887,-42632.203,-4839.7217
963347.1133700378,-90505.45,-105518.234,18678.02,-4056.478,-1787.3535,-45332.6,-42631.31,-4836.9956
963347.1173700352,-90504.4,-105512.17,18702.922,-4018.0667,-1774.6176,-45330.16,-42632.812,-4834.7983
963347.1213700327,-90497.766,-105506.15,18717.896,-3988.4033,-1765.7878,-45329.754,-42632.406,-4836.263
963347.1253700302,-90499.35,-105507.53,18712.117,-4005.2898,-1770.5486,-45328.656,-42628.258,-4833.4556
963347.1293700277,-90510.91,-105520.1,18687.867,-4048.0144,-1781.3721,-45327.23,-42625.49,-4832.723
963347.1333700252,-90519.86,-105532.88,18675.74,-4056.885,-1779.8666,-45329.754,-42625.69,-4831.95
963347.1373700227,-90517.21,-105526.62,18703.045,-4011.5154,-1771.5251,-45330.28,-42626.223,-4825.6025
963347.1413700202,-90511.11,-105516.6,18727.418,-3979.8584,-1761.3119,-45328.29,-42626.547,-4821.086
963347.1453700177,-90507.41,-105514.0,18727.377,-3986.5723,-1757.6498,-45328.613,-42627.93,-4824.7886
963347.1493700152,-90509.56,-105515.38,18699.504,-4020.0603,-1762.6953,-45332.723,-42631.188,-4830.8105
963347.1533700128,-90519.695,-105523.44,18681.072,-4036.4993,-1768.8396,-45333.984,-42636.027,-4836.5073
963347.1573700103,-90515.47,-105519.66,18702.027,-3997.5586,-1761.1492,-45334.027,-42640.625,-4836.263
963347.1613700077,-90511.11,-105512.945,18721.965,-3977.0508,-1753.1738,-45333.945,-42645.305,-4838.4604
963347.1653700052,-90518.03,-105513.02,18719.646,-3988.5254,-1756.3884,-45336.996,-42645.55,-4837.6875
963347.1693700027,-90525.64,-105525.8,18694.295,-4021.0776,-1766.7644,-45339.56,-42648.355,-4843.5874
963347.1733700002,-90532.63,-105532.43,18673.137,-4042.3179,-1767.6595,-45340.742,-42649.7,-4847.3716
963347.1773699977,-90529.99,-105523.73,18701.904,-3999.5117,-1760.905,-45338.582,-42645.754,-4840.0474
963347.1813699952,-90523.484,-105514.49,18727.703,-3969.279,-1752.5635,-45336.184,-42642.254,-4833.7812
963347.1853699927,-90528.24,-105515.914,18710.49,-3993.8152,-1759.074,-45337.08,-42641.36,-4834.3506
963347.1893699903,-90539.72,-105527.59,18676.922,-4043.2131,-1772.9086,-45341.637,-42642.703,-4837.9316
963347.1933699878,-90547.85,-105536.09,18663.574,-4052.5718,-1771.0775,-45339.4,-42642.17,-4835.775
963347.1973699853,-90541.875,-105530.68,18691.53,-3997.1519,-1758.5857,-45334.516,-42641.848,-4831.584
963347.2013699828,-90535.98,-105522.055,18724.324,-3952.7183,-1749.3083,-45333.21,-42639.445,-4826.457
963347.2053699802,-90536.99,-105519.17,18728.068,-3959.4727,-1750.3256,-45331.258,-42632.812,-4820.923
963347.2093699777,-90543.5,-105526.01,18699.79,-4002.645,-1755.127,-45329.43,-42627.44,-4817.627
963347.2133699752,-90548.99,-105529.18,18691.082,-4011.597,-1758.5857,-45327.8,-42625.895,-4816.9355
963347.2173699727,-90543.945,-105520.59,18723.186,-3965.9424,-1748.8201,-45326.336,-42626.18,-4813.9243
963347.2213699702,-90534.75,-105513.31,18743.734,-3931.7627,-1752.6042,-45324.87,-42624.023,-4809.204
963347.2253699678,-90531.7,-105507.57,18739.137,-3942.0166,-1755.8187,-45322.715,-42621.22,-4808.7974
963347.2293699653,-90539.836,-105516.445,18716.309,-3983.602,-1767.0492,-45324.63,-42620.566,-4810.018
963347.2333699628,-90550.26,-105528.12,18696.453,-4005.0864,-1769.9789,-45325.684,-42621.34,-4807.5767
963347.2373699603,-90547.98,-105524.46,18714.234,-3967.9363,-1755.5746,-45322.51,-42620.89,-4805.298
963347.2413699578,-90537.84,-105512.74,18739.502,-3934.489,-1746.2566,-45321.74,-42620.934,-4808.187
963347.2453699553,-90539.516,-105511.766,18734.498,-3950.7651,-1747.3959,-45322.633,-42621.297,-4811.076
963347.2493699527,-90554.0,-105523.56,18704.184,-4003.5403,-1755.6152,-45325.81,-42625.082,-4818.197
963347.2533699502,-90557.945,-105534.75,18694.174,-4018.6362,-1761.9222,-45329.305,-42629.56,-4819.2954
963347.2573699477,-90548.71,-105526.164,18724.406,-3972.6562,-1752.889,-45330.85,-42635.54,-4817.912
963347.2613699452,-90536.74,-105513.516,18745.076,-3938.3953,-1739.1765,-45330.28,-42638.715,-4815.023
963347.2653699428,-90531.5,-105507.0,18736.613,-3949.0562,-1740.4379,-45329.47,-42636.355,-4809.9365
963347.2693699403,-90538.695,-105514.445,18715.129,-3989.0137,-1752.0345,-45331.79,-42636.68,-4814.1685
963347.2733699378,-90551.27,-105528.73,18706.746,-4009.6438,-1759.7656,-45332.887,-42638.43,-4817.1797
963347.2773699353,-90557.414,-105537.16,18734.904,-3971.395,-1753.947,-45330.566,-42637.613,-4811.2793
963347.2813699328,-90551.84,-105523.32,18748.738,-3943.3594,-1744.5476,-45329.55,-42636.516,-4808.716
963347.2853699303,-90534.51,-105496.99,18736.37,-3960.6528,-1737.9965,-45333.742,-42638.062,-4811.849
963347.2893699278,-90545.53,-105513.555,18705.242,-4002.7263,-1748.291,-45333.742,-42635.38,-4812.4595
963347.2933699252,-90560.55,-105535.04,18694.459,-4021.0776,-1757.4056,-45330.242,-42633.098,-4808.716
963347.2973699227,-90548.99,-105524.17,18727.783,-3974.0398,-1746.9482,-45329.67,-42631.594,-4802.043
963347.3013699203,-90541.99,-105512.9,18755.127,-3937.8257,-1737.8337,-45325.277,-42626.02,-4794.271
963347.3053699178,-90540.0,-105506.02,18753.703,-3954.956,-1738.5662,-45323.934,-42621.22,-4791.219
963347.3093699153,-90550.87,-105515.55,18717.732,-4000.285,-1750.4476,-45325.562,-42620.77,-4793.0503
963347.3133699128,-90560.55,-105529.22,18692.912,-4027.9543,-1758.4636,-45326.863,-42620.89,-4792.44
963347.3173699103,-90554.32,-105526.82,18725.139,-3984.0088,-1752.2787,-45323.082,-42620.035,-4788.574
963347.3213699078,-90548.016,-105518.4,18755.047,-3945.272,-1747.518,-45320.516,-42620.89,-4785.8887
963347.3253699053,-90547.98,-105519.25,18756.43,-3961.019,-1749.6338,-45320.598,-42622.52,-4788.1675
963347.3293699028,-90553.96,-105528.81,18733.846,-3998.6167,-1760.7422,-45324.953,-42624.88,-4795.9395
963347.3333699004,-90556.73,-105535.04,18711.305,-4012.5327,-1763.0615,-45326.5,-42626.71,-4797.445
963347.3373698978,-90550.21,-105531.91,18727.215,-3970.6626,-1750.8545,-45326.01,-42629.395,-4793.254
963347.3413698953,-90542.24,-105518.68,18747.803,-3945.394,-1743.0013,-45327.35,-42632.0,-4791.5854
963347.3453698928,-90543.7,-105513.266,18743.49,-3966.3494,-1748.698,-45327.312,-42632.0,-4794.4746
963347.3493698903,-90555.625,-105524.78,18720.867,-3999.7966,-1756.1035,-45327.027,-42630.086,-4795.085
963347.3533698878,-90562.625,-105534.47,18705.078,-4019.2466,-1761.3525,-45328.41,-42629.68,-4793.8643
963347.3573698853,-90558.48,-105531.01,18731.283,-3976.8474,-1752.9297,-45328.33,-42633.914,-4796.631
963347.3613698828,-90552.9,-105522.55,18759.156,-3948.161,-1746.5007,-45330.363,-42640.586,-4802.5312
963347.3653698803,-90554.37,-105524.78,18752.441,-3972.2495,-1752.116,-45336.348,-42644.33,-4805.786
963347.3693698779,-90560.875,-105536.664,18719.197,-4013.6313,-1763.916,-45339.766,-42646.934,-4810.425
963347.3733698754,-90567.1,-105546.555,18702.88,-4029.7854,-1771.3623,-45335.004,-42646.65,-4812.0933
963347.3773698729,-90560.95,-105541.266,18724.732,-3982.2185,-1758.5449,-45332.684,-42646.527,-4809.245
963347.3813698703,-90549.93,-105530.16,18750.244,-3952.5146,-1747.518,-45332.277,-42642.17,-4800.1304
963347.3853698678,-90548.14,-105525.31,18745.89,-3968.9536,-1751.3428,-45334.066,-42637.004,-4797.2007
963347.3893698653,-90553.266,-105532.23,18718.791,-4013.55,-1760.3353,-45335.86,-42633.504,-4798.381
963347.3933698628,-90563.44,-105548.38,18694.012,-4044.3523,-1768.9617,-45334.676,-42631.797,-4795.41
963347.3973698603,-90560.95,-105544.195,18721.03,-4004.9644,-1763.1023,-45331.504,-42629.355,-4790.161
963347.4013698578,-90556.484,-105534.586,18747.479,-3976.1558,-1754.8015,-45328.816,-42625.855,-4785.5635
963347.4053698553,-90554.77,-105533.125,18742.514,-3988.444,-1758.4229,-45327.23,-42621.582,-4781.047
963347.4093698529,-90560.39,-105540.734,18714.926,-4028.8901,-1766.3982,-45325.93,-42620.445,-4783.203
963347.4133698504,-90568.41,-105549.97,18692.791,-4046.9973,-1770.3044,-45326.17,-42620.523,-4783.1626
963347.4173698479,-90565.76,-105546.23,18714.396,-4012.899,-1761.0271,-45324.504,-42619.06,-4776.286
963347.4213698454,-90560.875,-105538.01,18738.24,-3986.898,-1753.0111,-45324.465,-42620.85,-4773.4375
963347.4253698428,-90563.88,-105538.414,18737.143,-4008.5044,-1756.2256,-45327.56,-42625.895,-4778.7275
963347.4293698403,-90573.9,-105547.37,18709.229,-4047.4448,-1763.2244,-45331.465,-42632.527,-4792.3584
963347.4333698378,-90580.24,-105552.01,18692.18,-4060.425,-1769.1244,-45334.27,-42634.848,-4794.922
963347.4373698353,-90572.875,-105540.53,18716.064,-4012.492,-1760.1318,-45335.37,-42640.87,-4799.2354
963347.4413698328,-90564.66,-105527.43,18741.537,-3978.353,-1755.7373,-45334.637,-42644.41,-4803.304
963347.4453698304,-90562.3,-105523.93,18738.77,-3993.6118,-1758.5043,-45333.824,-42642.703,-4802.3276
963347.4493698279,-90571.984,-105533.45,18702.637,-4032.5115,-1768.5547,-45333.906,-42641.36,-4802.3276
963347.4533698254,-90581.71,-105545.17,18675.293,-4059.2449,-1771.4844,-45336.02,-42644.86,-4805.176
963347.4573698229,-90577.68,-105540.77,18701.457,-4019.3687,-1763.3871,-45335.45,-42649.457,-4809.8555
963347.4613698204,-90572.02,-105530.07,18733.318,-3972.819,-1750.6511,-45335.004,-42651.043,-4808.0244
963347.4653698179,-90568.65,-105523.64,18735.555,-3981.2012,-1747.7621,-45337.2,-42648.113,-4803.752
963347.4693698153,-90570.92,-105529.664,18714.438,-4024.1294,-1755.6152,-45338.83,-42644.29,-4797.933
963347.4733698128,-90575.195,-105535.77,18689.697,-4043.6606,-1760.5388,-45338.625,-42643.84,-4801.0664
963347.4773698103,-90569.38,-105528.0,18707.967,-4003.4995,-1753.0925,-45337.85,-42647.34,-4806.1523
963347.4813698079,-90563.234,-105518.07,18730.916,-3971.273,-1744.6289,-45337.04,-42646.12,-4801.8394
963347.4853698054,-90564.54,-105520.914,18722.697,-3994.873,-1747.7621,-45336.875,-42642.78,-4797.689
963347.4893698029,-90567.14,-105526.984,18699.383,-4032.5522,-1758.3008,-45337.89,-42641.6,-4795.98
963347.4933698004,-90571.05,-105532.27,18687.988,-4046.1833,-1757.2836,-45339.97,-42642.293,-4798.869
963347.4973697979,-90563.6,-105522.46,18716.188,-3997.4773,-1743.8152,-45338.91,-42641.848,-4794.0674
963347.5013697954,-90553.14,-105504.27,18743.938,-3961.4666,-1734.0496,-45336.996,-42640.055,-4785.726
963347.5053697929,-90552.414,-105497.84,18745.361,-3970.337,-1740.0717,-45336.67,-42636.76,-4780.721
963347.5093697904,-90557.17,-105500.98,18717.652,-4010.3762,-1749.6746,-45334.516,-42633.87,-4779.419
963347.5133697878,-90561.69,-105508.43,18700.074,-4032.064,-1755.0049,-45333.008,-42633.668,-4779.46
963347.5173697853,-90561.41,-105508.67,18721.68,-3992.8794,-1743.4896,-45329.266,-42633.63,-4779.989
963347.5213697829,-90562.99,-105508.47,18741.7,-3968.7908,-1740.0717,-45325.562,-42634.035,-4781.5757
963347.5253697804,-90565.63,-105512.78,18738.404,-3984.3345,-1747.3145,-45327.72,-42635.05,-4783.651
963347.5293697779,-90567.836,-105518.555,18710.857,-4020.0198,-1753.5808,-45330.527,-42633.75,-4784.302
963347.5333697754,-90576.74,-105528.94,18690.145,-4036.0923,-1757.2429,-45333.54,-42634.074,-4784.79
963347.5373697729,-90571.375,-105521.37,18721.03,-3991.4958,-1745.2393,-45334.473,-42637.29,-4783.6914
963347.5413697704,-90565.06,-105509.93,18747.803,-3954.7935,-1735.1482,-45332.723,-42638.633,-4781.3315
963347.5453697679,-90565.39,-105508.47,18744.14,-3969.686,-1744.9138,-45333.05,-42637.25,-4778.646
963347.5493697654,-90569.83,-105515.14,18716.676,-4018.026,-1756.0222,-45335.246,-42635.336,-4776.937
963347.553369763,-90579.23,-105527.914,18700.195,-4042.3992,-1762.0443,-45338.83,-42637.29,-4781.25
963347.5573697604,-90579.63,-105524.414,18727.54,-3998.291,-1749.7559,-45338.582,-42639.445,-4778.9307
963347.5613697579,-90566.2,-105507.45,18757.488,-3957.9673,-1734.1716,-45338.094,-42640.34,-4778.198
963347.5653697554,-90561.484,-105501.34,18758.18,-3969.8894,-1733.8867,-45339.316,-42639.934,-4777.71
963347.5693697529,-90565.35,-105506.266,18726.645,-4003.5403,-1738.2406,-45338.992,-42638.836,-4778.7275
963347.5733697504,-90567.1,-105510.016,18706.299,-4021.3625,-1744.5476,-45340.58,-42640.26,-4782.5522
963347.5773697479,-90567.23,-105504.73,18730.633,-3978.8005,-1735.433,-45339.316,-42641.195,-4777.385
963347.5813697454,-90577.48,-105504.03,18749.35,-3949.0154,-1728.4343,-45337.324,-42639.61,-4778.4834
963347.5853697429,-90582.52,-105511.44,18741.375,-3973.5923,-1736.3689,-45337.605,-42640.137,-4785.7666
963347.5893697405,-90575.24,-105516.445,18715.373,-4016.3577,-1747.7214,-45341.434,-42643.395,-4791.626
963347.593369738,-90571.414,-105518.48,18703.045,-4031.5757,-1747.6807,-45342.367,-42646.566,-4794.6777
963347.5973697355,-90566.94,-105516.52,18726.97,-3988.8916,-1736.8572,-45339.03,-42644.45,-4786.052
963347.601369733,-90566.94,-105518.31,18744.549,-3960.4087,-1732.7474,-45338.3,-42640.18,-4776.7334
963347.6053697304,-90559.164,-105517.945,18741.008,-3982.3813,-1739.4207,-45339.4,-42638.023,-4773.967
963347.6093697279,-90561.69,-105527.59,18715.088,-4022.7866,-1750.6918,-45340.254,-42638.59,-4774.658
963347.6133697254,-90569.7,-105541.914,18700.48,-4038.5745,-1759.1553,-45340.293,-42639.65,-4776.164
963347.6173697229,-90566.04,-105538.945,18729.29,-3996.7856,-1749.5117,-45338.38,-42641.156,-4773.4785
963347.6213697204,-90563.03,-105533.77,18746.297,-3960.5308,-1743.8558,-45339.277,-42641.074,-4768.962
963347.625369718,-90561.57,-105533.49,18736.572,-3973.4294,-1746.6635,-45338.42,-42638.47,-4767.6597
963347.6293697155,-90567.1,-105544.11,18707.316,-4012.7769,-1759.3588,-45338.094,-42637.168,-4772.705
963347.633369713,-90570.16,-105553.96,18691.65,-4035.1565,-1765.4623,-45339.4,-42637.207,-4774.048
963347.6373697105,-90566.37,-105554.28,18718.426,-3999.0642,-1755.127,-45339.4,-42637.94,-4769.409
963347.641369708,-90563.44,-105547.2,18742.514,-3966.146,-1746.2972,-45339.316,-42639.812,-4769.165
963347.6453697055,-90561.57,-105543.79,18740.398,-3972.1274,-1752.7263,-45340.863,-42643.434,-4775.3096
963347.6493697029,-90567.55,-105552.82,18703.166,-4009.8472,-1767.5781,-45342.652,-42643.72,-4777.873
963347.6533697004,-90573.695,-105559.86,18684.938,-4031.2908,-1769.3685,-45343.953,-42643.72,-4777.5474
963347.6573696979,-90566.45,-105550.78,18714.438,-3992.1062,-1753.6215,-45342.695,-42644.938,-4773.519
963347.6613696954,-90556.12,-105538.086,18736.084,-3961.5479,-1743.0013,-45340.09,-42643.84,-4768.636
963347.665369693,-90555.586,-105535.98,18726.766,-3978.7598,-1744.222,-45342.9,-42643.19,-4772.2983
963347.6693696905,-90569.13,-105553.19,18695.924,-4023.8853,-1756.2256,-45344.2,-42645.02,-4780.0703
963347.673369688,-90574.22,-105561.73,18676.31,-4043.6606,-1760.4167,-45344.117,-42646.61,-4778.768
963347.6773696855,-90567.266,-105551.68,18703.572,-3995.7683,-1747.1111,-45340.13,-42645.266,-4771.688
963347.681369683,-90560.71,-105541.67,18733.074,-3964.0708,-1737.5896,-45340.047,-42642.703,-4767.0493
963347.6853696805,-90559.53,-105539.92,18729.29,-3971.8425,-1744.6289,-45341.51,-42643.516,-4770.996
963347.689369678,-90567.266,-105546.72,18701.498,-4008.6265,-1760.9457,-45342.695,-42642.496,-4776.245
963347.6933696754,-90574.38,-105557.05,18685.547,-4037.5164,-1766.2354,-45346.52,-42640.26,-4772.949
963347.6973696729,-90567.47,-105549.56,18716.756,-3993.7744,-1750.6511,-45343.547,-42640.504,-4767.741
963347.7013696705,-90561.57,-105536.664,18740.193,-3959.4321,-1748.9421,-45340.496,-42640.83,-4765.991
963347.705369668,-90558.8,-105535.98,18741.049,-3971.8018,-1756.0222,-45342.285,-42642.008,-4768.4326
963347.7093696655,-90565.48,-105549.52,18719.035,-4014.445,-1769.9789,-45341.88,-42643.434,-4770.63
963347.713369663,-90575.805,-105560.59,18704.754,-4029.0935,-1776.7742,-45343.67,-42641.887,-4770.0605
963347.7173696605,-90570.516,-105554.37,18735.637,-3984.3345,-1763.3464,-45342.367,-42641.03,-4764.974
963347.721369658,-90562.7,-105545.9,18762.94,-3960.3271,-1749.5931,-45340.047,-42640.83,-4763.2246
963347.7253696555,-90562.625,-105544.48,18758.18,-3974.7722,-1747.4773,-45340.457,-42638.836,-4763.9976
963347.729369653,-90564.74,-105547.77,18735.637,-4008.1382,-1755.4525,-45340.047,-42637.207,-4761.4746
963347.7333696506,-90574.14,-105556.6,18719.727,-4025.4722,-1761.7595,-45341.96,-42637.94,-4764.73
963347.737369648,-90571.45,-105549.805,18739.95,-3983.3171,-1755.6152,-45341.51,-42637.168,-4759.074
963347.7413696455,-90563.44,-105536.625,18754.354,-3954.6306,-1747.4365,-45341.88,-42637.86,-4755.249
963347.745369643,-90561.89,-105534.23,18747.479,-3977.9868,-1747.8027,-45343.387,-42637.207,-4756.3887
963347.7493696405,-90568.28,-105544.6,18716.188,-4030.8433,-1763.6312,-45346.113,-42636.15,-4757.772
963347.753369638,-90577.11,-105553.875,18694.012,-4056.9663,-1771.3623,-45344.117,-42637.574,-4759.033
963347.7573696355,-90576.17,-105551.64,18712.037,-4022.99,-1761.3525,-45345.055,-42642.78,-4760.62
963347.761369633,-90569.42,-105544.72,18740.682,-3989.3394,-1756.307,-45345.703,-42645.957,-4763.8755
963347.7653696305,-90565.43,-105537.56,18741.375,-4000.8547,-1756.5511,-45345.625,-42643.11,-4765.991
963347.769369628,-90570.516,-105545.25,18713.705,-4043.742,-1762.8988,-45345.99,-42641.277,-4765.544
963347.7733696256,-90577.07,-105553.06,18700.398,-4054.4028,-1771.1996,-45346.03,-42642.66,-4769.5312
963347.7773696231,-90574.016,-105544.516,18717.652,-4009.074,-1759.6843,-45342.613,-42642.945,-4767.8223
963347.7813696205,-90569.5,-105536.5,18729.695,-3980.9978,-1753.5808,-45340.496,-42642.375,-4764.1196
963347.785369618,-90572.875,-105540.77,18714.559,-4005.6968,-1755.8187,-45344.2,-42644.29,-4771.8916
963347.7893696155,-90583.74,-105559.25,18680.014,-4056.234,-1765.1367,-45347.535,-42643.84,-4774.292
963347.793369613,-90593.43,-105573.98,18656.617,-4074.7886,-1772.4203,-45348.473,-42644.004,-4771.5254
963347.7973696105,-90587.61,-105567.06,18680.135,-4032.3489,-1767.863,-45347.453,-42642.58,-4765.869
963347.801369608,-90576.26,-105554.484,18707.234,-3994.1,-1755.0049,-45347.047,-42643.11,-4766.439
963347.8053696055,-90570.27,-105545.086,18700.807,-4004.9644,-1755.8187,-45343.344,-42641.97,-4764.323
963347.809369603,-90577.72,-105555.586,18662.557,-4054.4841,-1770.2637,-45344.85,-42642.984,-4769.2466
963347.8133696006,-90586.02,-105564.74,18637.41,-4084.839,-1772.7051,-45349.082,-42644.53,-4769.9385
963347.8173695981,-90586.43,-105564.05,18661.418,-4053.7925,-1766.6423,-45350.3,-42646.688,-4768.5547
963347.8213695956,-90583.7,-105557.01,18683.27,-4016.3577,-1760.376,-45349.324,-42648.97,-4765.503
963347.825369593,-90578.734,-105551.19,18680.096,-4027.222,-1761.556,-45350.18,-42652.223,-4772.1763
963347.8293695905,-90584.88,-105559.66,18656.006,-4070.7603,-1776.4486,-45353.598,-42654.137,-4776.367
963347.833369588,-90590.336,-105561.37,18638.469,-4082.886,-1775.5941,-45354.004,-42654.01,-4773.519
963347.8373695855,-90586.1,-105553.06,18655.72,-4035.8074,-1758.5043,-45351.727,-42655.926,-4770.3857
963347.841369583,-90581.22,-105546.516,18677.938,-4002.6042,-1752.9705,-45351.605,-42656.13,-4768.148
963347.8453695806,-90576.74,-105540.61,18677.084,-4019.6128,-1756.4697,-45352.62,-42653.77,-4767.4155
963347.8493695781,-90585.62,-105548.586,18641.521,-4071.0044,-1764.6892,-45353.64,-42652.508,-4768.27
963347.8533695756,-90590.91,-105556.28,18618.652,-4080.4446,-1769.9382,-45351.973,-42649.617,-4764.608
963347.8573695731,-90583.83,-105544.68,18648.193,-4029.3784,-1755.2084,-45348.555,-42648.97,-4763.265
963347.8613695706,-90574.95,-105537.07,18673.34,-3994.3035,-1746.2972,-45347.94,-42647.992,-4759.969
963347.8653695681,-90570.84,-105531.45,18675.781,-3998.576,-1747.7214,-45349.324,-42646.2,-4758.667
963347.8693695655,-90576.016,-105537.234,18645.06,-4039.673,-1757.1615,-45350.508,-42645.426,-4760.661
963347.873369563,-90584.11,-105548.47,18619.71,-4064.5754,-1766.1133,-45351.402,-42644.98,-4758.83
963347.8773695605,-90584.19,-105543.54,18645.387,-4024.3328,-1757.4463,-45351.848,-42646.12,-4757.6904
963347.881369558,-90581.38,-105536.3,18667.928,-3998.9014,-1748.5352,-45350.63,-42647.504,-4757.365
963347.8853695556,-90578.9,-105531.984,18664.227,-4008.057,-1748.291,-45351.605,-42646.61,-4754.1504
963347.8893695531,-90582.73,-105536.75,18641.072,-4047.282,-1761.7188,-45354.574,-42645.223,-4753.703
963347.8933695506,-90589.03,-105544.97,18626.344,-4061.9712,-1767.8223,-45355.67,-42645.914,-4755.249
963347.8973695481,-90582.97,-105534.34,18651.082,-4008.0974,-1750.6511,-45353.07,-42646.688,-4751.058
963347.9013695456,-90572.06,-105519.66,18677.816,-3969.0757,-1738.0371,-45351.562,-42647.746,-4750.3257
963347.9053695431,-90572.67,-105526.82,18676.025,-3991.4958,-1743.5303,-45353.438,-42647.137,-4752.8486
963347.9093695406,-90589.03,-105549.89,18643.88,-4046.7937,-1765.3809,-45356.203,-42649.09,-4758.911
963347.913369538,-90593.95,-105555.625,18615.887,-4075.0735,-1771.3217,-45360.8,-42655.844,-4766.6016
963347.9173695355,-90576.42,-105539.43,18645.63,-4019.6128,-1754.0283,-45362.957,-42664.43,-4770.5894
963347.921369533,-90569.625,-105524.375,18680.99,-3974.8943,-1748.7386,-45360.68,-42667.727,-4771.4844
963347.9253695306,-90568.2,-105520.67,18683.188,-3984.8228,-1750.529,-45360.027,-42666.87,-4771.037
963347.9293695281,-90569.79,-105527.14,18670.166,-4023.5598,-1755.4525,-45359.215,-42664.88,-4770.793
963347.9333695256,-90570.36,-105530.84,18666.098,-4037.1501,-1761.3933,-45356.285,-42663.25,-4769.084
963347.9373695231,-90565.92,-105522.18,18687.379,-3989.746,-1749.1049,-45354.574,-42662.56,-4764.5264
963347.9413695206,-90559.164,-105511.15,18711.305,-3962.6873,-1736.6943,-45355.47,-42659.426,-4758.708
963347.9453695181,-90557.62,-105505.54,18711.346,-3974.9756,-1739.8682,-45353.027,-42656.21,-4755.371
963347.9493695156,-90566.695,-105517.46,18677.205,-4019.3687,-1752.5228,-45356.203,-42655.844,-4757.1616
963347.9533695132,-90577.76,-105530.36,18649.74,-4044.9626,-1760.6609,-45354.695,-42653.035,-4754.3135
963347.9573695106,-90574.71,-105526.77,18681.967,-4001.343,-1750.9766,-45351.44,-42652.14,-4744.751
963347.9613695081,-90568.32,-105518.516,18708.984,-3968.4653,-1741.4144,-45352.05,-42652.996,-4736.369
963347.9653695056,-90564.25,-105514.0,18710.49,-3980.9978,-1748.291,-45354.574,-42652.26,-4738.9326
963347.9693695031,-90572.875,-105523.16,18687.459,-4023.3157,-1761.556,-45356.65,-42652.426,-4741.74
963347.9733695006,-90582.52,-105532.19,18658.162,-4042.562,-1767.9443,-45358.32,-42654.5,-4741.252
963347.9773694981,-90573.695,-105523.69,18687.338,-3992.3503,-1753.7435,-45355.918,-42656.414,-4742.676
963347.9813694956,-90563.27,-105510.7,18723.674,-3952.108,-1744.751,-45354.414,-42653.89,-4739.543
963347.9853694931,-90563.27,-105507.53,18721.15,-3972.2087,-1741.74,-45355.67,-42650.555,-4737.7524
963347.9893694906,-90575.32,-105519.9,18684.205,-4023.4783,-1752.6042,-45354.29,-42649.293,-4738.078
963347.9933694882,-90589.234,-105535.77,18654.094,-4051.8801,-1761.434,-45357.3,-42651.125,-4736.084
963347.9973694857,-90588.55,-105535.77,18683.025,-4004.232,-1750.3256,-45358.848,-42652.02,-4729.248
963348.0013694831,-90579.8,-105528.12,18716.96,-3965.21,-1740.1531,-45358.074,-42652.26,-4729.8994
963348.0053694806,-90577.64,-105526.66,18718.344,-3981.2827,-1746.2972,-45359.05,-42654.746,-4733.9683
963348.0093694781,-90579.47,-105532.43,18694.988,-4020.5486,-1762.9802,-45359.133,-42653.727,-4734.0903
963348.0133694756,-90585.29,-105541.38,18676.514,-4040.568,-1756.307,-45359.785,-42652.832,-4734.4565
963348.0173694731,-90581.42,-105535.65,18709.637,-3997.9656,-1745.6869,-45358.6,-42652.875,-4729.0854
963348.0213694706,-90576.016,-105527.875,18734.295,-3968.75,-1739.1765,-45360.35,-42654.055,-4727.9463
963348.0253694681,-90579.06,-105527.43,18725.506,-3990.7227,-1742.3096,-45361.574,-42653.85,-4731.8115
963348.0293694657,-90585.125,-105535.32,18700.521,-4033.2847,-1751.8718,-45362.43,-42655.6,-4735.759
963348.0333694632,-90592.53,-105545.58,18685.059,-4049.642,-1754.5166,-45363.61,-42658.246,-4739.8276
963348.0373694607,-90589.89,-105538.7,18715.658,-3997.3145,-1741.6992,-45360.11,-42658.938,-4738.8916
963348.0413694582,-90581.14,-105526.82,18740.682,-3958.374,-1738.5254,-45360.312,-42660.484,-4738.159
963348.0453694556,-90575.16,-105523.36,18738.934,-3972.412,-1744.0186,-45359.742,-42657.145,-4736.9795
963348.0493694531,-90583.58,-105536.664,18708.293,-4020.3044,-1754.4353,-45360.68,-42656.293,-4740.3564
963348.0533694506,-90596.48,-105546.43,18679.688,-4051.2698,-1759.9691,-45358.848,-42655.07,-4736.4097
963348.0573694481,-90596.03,-105544.195,18707.928,-4009.5623,-1751.18,-45358.24,-42653.973,-4725.871
963348.0613694456,-90590.05,-105535.36,18737.346,-3975.5046,-1744.0593,-45359.742,-42656.414,-4735.1074
963348.0653694432,-90587.94,-105532.555,18730.592,-3988.4849,-1748.6166,-45360.15,-42654.99,-4736.491
963348.0693694407,-90590.984,-105537.11,18710.408,-4023.0715,-1753.1332,-45360.35,-42651.773,-4733.3174
963348.0733694382,-90596.68,-105548.38,18697.918,-4040.202,-1755.6967,-45360.8,-42655.273,-4736.5723
963348.0773694357,-90589.36,-105542.36,18720.012,-3997.8843,-1746.0531,-45360.312,-42658.938,-4733.3174
963348.0813694332,-90578.25,-105527.19,18743.938,-3967.163,-1735.4736,-45358.113,-42657.758,-4727.417
963348.0853694307,-90576.664,-105525.39,18748.21,-3988.8916,-1738.4441,-45359.336,-42656.82,-4727.8647
963348.0893694281,-90581.38,-105533.53,18723.918,-4030.1516,-1748.4945,-45361.94,-42655.07,-4726.3594
963348.0933694256,-90587.65,-105543.586,18709.758,-4046.265,-1757.8125,-45362.1,-42653.24,-4723.47
963348.0973694231,-90580.0,-105534.586,18747.273,-3998.1284,-1741.9841,-45362.1,-42653.973,-4721.965
963348.1013694206,-90568.28,-105518.516,18777.629,-3954.2644,-1732.1777,-45359.254,-42654.297,-4720.7847
963348.1053694182,-90564.91,-105515.42,18768.066,-3964.315,-1738.322,-45359.906,-42653.035,-4717.3667
963348.1093694157,-90573.086,-105527.51,18738.12,-4011.8003,-1750.4476,-45360.76,-42653.2,-4722.2495
963348.1133694132,-90583.74,-105537.93,18721.436,-4039.5916,-1759.1553,-45362.305,-42658.53,-4731.323
963348.1173694107,-90579.76,-105534.02,18744.832,-4002.238,-1754.8828,-45363.77,-42661.05,-4730.4688
963348.1213694082,-90576.016,-105528.65,18766.072,-3966.9597,-1747.1111,-45361.695,-42659.75,-4726.6035
963348.1253694057,-90573.94,-105529.83,18760.906,-3976.6846,-1745.0765,-45361.492,-42657.918,-4722.534
963348.1293694032,-90585.164,-105546.59,18733.928,-4021.1997,-1759.3181,-45361.207,-42656.25,-4723.1855
963348.1333694006,-90591.48,-105551.64,18716.064,-4039.1848,-1760.9457,-45363.406,-42658.33,-4729.0854
963348.1373693981,-90577.35,-105529.625,18750.53,-3990.316,-1739.3799,-45363.934,-42663.332,-4728.6787
963348.1413693957,-90569.79,-105517.3,18779.785,-3959.7576,-1724.5281,-45364.258,-42666.914,-4729.289
963348.1453693932,-90573.695,-105519.9,18771.037,-3972.453,-1732.8695,-45364.746,-42665.242,-4728.231
963348.1493693907,-90588.55,-105536.09,18732.342,-4027.466,-1750.2035,-45367.598,-42665.082,-4731.6084
963348.1533693882,-90598.43,-105550.01,18706.137,-4053.1821,-1758.9111,-45367.555,-42666.914,-4734.05
963348.1573693857,-90590.7,-105540.04,18738.852,-4003.9878,-1748.3318,-45363.242,-42665.04,-4725.9116
963348.1613693832,-90581.586,-105532.11,18766.236,-3969.035,-1739.9496,-45360.68,-42662.68,-4723.8364
963348.1653693807,-90587.0,-105530.27,18755.412,-3992.1875,-1745.1986,-45362.227,-42658.57,-4720.622
963348.1693693782,-90597.54,-105539.47,18728.883,-4034.3833,-1752.5635,-45362.1,-42657.35,-4718.0586
963348.1733693758,-90599.86,-105544.6,18718.426,-4052.2869,-1754.8015,-45361.125,-42657.633,-4719.1978
963348.1773693732,-90593.02,-105538.375,18744.467,-4013.143,-1742.5537,-45359.863,-42658.043,-4715.8613
963348.1813693707,-90586.59,-105530.36,18767.09,-3979.655,-1729.2074,-45360.68,-42660.28,-4720.2964
963348.1853693682,-90585.414,-105529.18,18760.418,-3993.3677,-1734.5785,-45362.957,-42661.703,-4724.813
963348.1893693657,-90594.32,-105545.984,18729.248,-4041.5042,-1749.6338,-45364.46,-42664.836,-4728.231
963348.1933693632,-90602.26,-105558.96,18706.055,-4072.103,-1758.3008,-45364.95,-42669.15,-4732.0967
963348.1973693607,-90597.984,-105552.164,18723.918,-4026.7742,-1745.5242,-45365.887,-42674.316,-4734.66
963348.2013693582,-90588.87,-105540.125,18742.635,-3983.2764,-1732.7474,-45365.562,-42673.137,-4729.7363
963348.2053693557,-90585.01,-105537.48,18741.17,-3994.7104,-1737.2234,-45366.984,-42670.86,-4729.126
963348.2093693533,-90586.39,-105543.09,18712.525,-4034.7903,-1748.4131,-45368.695,-42670.41,-4732.544
963348.2133693508,-90590.54,-105550.625,18686.646,-4057.6987,-1751.7904,-45367.23,-42669.11,-4730.6724
963348.2173693483,-90591.19,-105547.445,18715.252,-4016.6018,-1740.7634,-45362.836,-42667.97,-4723.918
963348.2213693457,-90586.23,-105543.586,18740.438,-3991.618,-1734.8633,-45359.945,-42665.652,-4717.041
963348.2253693432,-90585.414,-105544.84,18736.084,-4011.597,-1741.2517,-45362.184,-42665.285,-4722.9414
963348.2293693407,-90593.59,-105554.24,18708.13,-4051.5952,-1752.4008,-45363.65,-42664.023,-4723.1445
963348.2333693382,-90599.37,-105565.59,18684.938,-4069.3767,-1758.0566,-45363.812,-42664.062,-4722.2495
963348.2373693357,-90596.88,-105559.77,18714.844,-4025.1467,-1743.8558,-45360.76,-42662.11,-4713.9487
963348.2413693332,-90587.12,-105547.77,18742.188,-3984.4565,-1736.2875,-45361.94,-42660.074,-4710.246
963348.2453693307,-90587.94,-105543.79,18734.334,-3999.4304,-1736.7351,-45359.945,-42657.023,-4713.5825
963348.2493693283,-90596.44,-105550.375,18704.998,-4047.0378,-1744.222,-45360.637,-42655.723,-4713.135
963348.2533693258,-90602.7,-105556.73,18684.734,-4070.4753,-1747.6807,-45362.266,-42656.293,-4714.6406
963348.2573693233,-90602.09,-105559.164,18702.76,-4032.2268,-1739.1357,-45362.918,-42659.547,-4718.1807
963348.2613693208,-90595.7,-105550.58,18732.26,-3995.28,-1733.8461,-45362.715,-42662.273,-4714.9253
963348.2653693182,-90588.46,-105543.5,18735.678,-3999.7966,-1736.6943,-45362.145,-42660.074,-4714.0303
963348.2693693157,-90594.32,-105548.95,18707.275,-4040.975,-1744.222,-45363.895,-42659.18,-4715.9424
963348.2733693132,-90597.414,-105552.25,18691.447,-4056.4373,-1743.5303,-45365.277,-42663.535,-4719.32
963348.2773693107,-90596.44,-105543.09,18711.59,-4008.6265,-1734.375,-45363.73,-42667.605,-4720.866
963348.2813693082,-90590.664,-105537.516,18740.887,-3977.295,-1728.1494,-45362.754,-42668.418,-4721.029
963348.2853693058,-90593.305,-105536.54,18748.006,-4001.221,-1735.1888,-45363.203,-42668.824,-4723.1855
963348.2893693033,-90602.055,-105545.414,18721.273,-4051.5544,-1749.4711,-45367.92,-42672.73,-4731.0386
963348.2933693008,-90610.516,-105555.42,18697.836,-4069.214,-1754.8015,-45368.164,-42674.727,-4732.2593
963348.2973692983,-90608.16,-105550.78,18722.941,-4017.5784,-1737.3455,-45364.258,-42674.195,-4723.918
963348.3013692958,-90599.66,-105538.984,18748.7,-3981.486,-1723.7142,-45366.58,-42676.027,-4723.552
963348.3053692933,-90596.4,-105532.27,18754.436,-3989.8276,-1725.5859,-45365.438,-42674.52,-4722.534
963348.3093692907,-90602.13,-105536.38,18732.137,-4030.64,-1732.8289,-45364.746,-42670.9,-4723.5107
963348.3133692882,-90608.32,-105543.91,18712.646,-4055.8677,-1739.5834,-45365.723,-42671.918,-4724.4062
963348.3173692857,-90602.17,-105536.7,18733.766,-4010.661,-1731.7302,-45367.188,-42674.316,-4722.7783
963348.3213692833,-90594.73,-105528.0,18749.227,-3979.3296,-1722.575,-45368.207,-42671.59,-4719.6045
963348.3253692808,-90591.68,-105525.8,18753.133,-3988.2407,-1721.0287,-45365.926,-42666.79,-4715.129
963348.3293692783,-90601.89,-105535.41,18732.463,-4028.6052,-1730.5095,-45365.848,-42665.73,-4715.373
963348.3333692758,-90609.625,-105543.54,18710.979,-4050.049,-1733.724,-45366.7,-42664.47,-4712.077
963348.3373692733,-90598.59,-105534.8,18741.62,-4002.3196,-1721.4763,-45362.508,-42662.234,-4706.7466
963348.3413692708,-90590.336,-105524.336,18774.943,-3968.1396,-1717.8955,-45360.312,-42660.89,-4701.294
963348.3453692683,-90590.336,-105523.4,18768.719,-3985.433,-1724.0804,-45361.453,-42660.688,-4703.4507
963348.3493692658,-90596.97,-105533.33,18736.736,-4033.3254,-1735.3109,-45363.28,-42663.574,-4713.9893
963348.3533692632,-90602.7,-105541.266,18725.22,-4055.1353,-1738.7695,-45364.098,-42667.523,-4714.803
963348.3573692607,-90595.586,-105527.63,18754.518,-4001.343,-1727.1729,-45362.918,-42668.824,-4709.31
963348.3613692583,-90588.914,-105517.91,18776.164,-3964.7217,-1721.7205,-45363.566,-42669.027,-4705.77
963348.3653692558,-90591.39,-105526.695,18776.287,-3978.1902,-1722.0867,-45364.625,-42669.844,-4706.665
963348.3693692533,-90598.02,-105529.34,18751.344,-4015.3403,-1728.6785,-45365.36,-42671.023,-4713.7046
963348.3733692508,-90602.3,-105533.125,18731.324,-4039.307,-1731.7709,-45364.95,-42672.12,-4716.3496
963348.3773692483,-90597.336,-105528.08,18763.266,-3996.2566,-1718.9941,-45362.227,-42672.445,-4711.467
963348.3813692458,-90591.31,-105519.05,18786.621,-3965.617,-1713.623,-45361.086,-42670.332,-4705.241
963348.3853692433,-90590.87,-105518.88,18776.367,-3985.3516,-1721.9646,-45362.02,-42669.516,-4705.1597
963348.3893692408,-90595.83,-105528.61,18753.582,-4025.6755,-1726.8474,-45361.168,-42665.652,-4702.3926
963348.3933692384,-90601.12,-105535.41,18739.422,-4045.1255,-1731.9336,-45362.387,-42663.332,-4703.817
963348.3973692358,-90593.875,-105526.695,18766.846,-4001.5056,-1722.6562,-45359.66,-42662.273,-4696.8184
963348.4013692333,-90583.46,-105513.35,18798.26,-3960.368,-1714.4369,-45356.57,-42658.652,-4691.4473
963348.4053692308,-90579.836,-105507.29,18801.434,-3969.0757,-1716.7562,-45356.082,-42655.4,-4689.9414
963348.4093692283,-90583.87,-105513.59,18763.713,-4016.846,-1728.0273,-45359.133,-42655.52,-4691.325
963348.4133692258,-90591.23,-105525.84,18734.783,-4039.7952,-1731.4861,-45361.613,-42657.39,-4694.743
963348.4173692233,-90586.836,-105525.96,18758.953,-3992.92,-1721.8832,-45359.05,-42657.633,-4688.5986
963348.4213692208,-90582.4,-105519.78,18780.762,-3961.8328,-1712.4023,-45358.36,-42658.12,-4687.7036
963348.4253692183,-90582.16,-105516.89,18775.514,-3974.4873,-1718.4652,-45359.742,-42657.715,-4690.959
963348.4293692159,-90591.72,-105531.3,18750.408,-4021.566,-1736.1248,-45360.883,-42654.297,-4688.558
963348.4333692134,-90605.23,-105550.46,18724.691,-4054.0774,-1744.9545,-45360.273,-42653.727,-4687.866
963348.4373692109,-90601.04,-105546.63,18753.174,-4005.2493,-1727.9053,-45359.54,-42657.105,-4686.239
963348.4413692083,-90592.695,-105532.02,18784.994,-3964.559,-1720.2963,-45358.81,-42658.12,-4682.821
963348.4453692058,-90589.44,-105530.07,18780.885,-3976.766,-1725.1384,-45360.15,-42658.285,-4682.2104
963348.4493692033,-90595.75,-105537.234,18750.326,-4021.6067,-1736.1248,-45361.086,-42659.098,-4687.2153
963348.4533692008,-90607.875,-105552.01,18731.568,-4041.8296,-1745.2393,-45359.945,-42662.027,-4691.61
963348.4573691983,-90604.74,-105550.09,18762.94,-3993.0828,-1734.5785,-45357.504,-42664.797,-4692.79
963348.4613691958,-90587.734,-105527.39,18792.604,-3958.2927,-1713.908,-45358.562,-42666.504,-4690.959
963348.4653691933,-90580.08,-105514.57,18795.654,-3975.2197,-1716.5121,-45357.625,-42665.242,-4689.8604
963348.4693691909,-90592.9,-105532.27,18763.143,-4030.3142,-1732.3812,-45359.742,-42665.652,-4692.1387
963348.4733691884,-90599.57,-105546.19,18742.432,-4052.1648,-1736.6537,-45362.43,-42668.254,-4698.3237
963348.4773691859,-90595.91,-105537.68,18771.24,-4001.2615,-1723.8363,-45362.02,-42668.38,-4691.3657
963348.4813691834,-90583.83,-105517.13,18803.955,-3959.5947,-1712.6058,-45360.15,-42666.098,-4685.71
963348.4853691808,-90580.61,-105514.29,18801.84,-3978.4343,-1713.7045,-45361.168,-42662.926,-4685.547
963348.4893691783,-90591.27,-105531.01,18775.635,-4022.2983,-1725.1384,-45362.633,-42659.793,-4685.3027
963348.4933691758,-90600.14,-105541.22,18758.709,-4039.0627,-1729.2074,-45361.9,-42662.477,-4690.837
963348.4973691733,-90594.12,-105529.42,18784.262,-3989.2986,-1719.1162,-45357.18,-42665.242,-4689.9824
963348.5013691708,-90586.836,-105521.734,18805.46,-3958.0486,-1709.5134,-45357.547,-42662.723,-4684.4077
963348.5053691684,-90590.664,-105525.48,18800.09,-3974.9756,-1715.5762,-45362.715,-42662.027,-4691.61
963348.5093691659,-90596.88,-105536.016,18761.11,-4028.6052,-1727.3763,-45365.562,-42662.965,-4692.424
963348.5133691634,-90604.45,-105551.84,18733.48,-4051.8801,-1735.433,-45368.043,-42667.645,-4693.2373
963348.5173691609,-90599.734,-105544.97,18766.072,-4004.0286,-1725.8708,-45368.207,-42672.445,-4693.2783
963348.5213691584,-90592.0,-105527.71,18793.701,-3962.7686,-1715.6576,-45366.375,-42673.625,-4689.8193
963348.5253691559,-90593.1,-105527.59,18785.523,-3973.4294,-1718.9535,-45364.95,-42670.453,-4685.954
963348.5293691533,-90596.6,-105536.13,18765.38,-4016.1948,-1725.7488,-45365.562,-42666.75,-4684.774
963348.5333691508,-90604.01,-105544.195,18748.78,-4038.6558,-1733.4392,-45366.293,-42664.676,-4683.96
963348.5373691483,-90602.26,-105539.516,18770.102,-3991.0483,-1720.459,-45361.207,-42664.676,-4679.3213
963348.5413691459,-90596.03,-105528.57,18798.38,-3953.939,-1705.4851,-45362.387,-42667.074,-4677.7754
963348.5453691434,-90596.36,-105517.664,18800.172,-3971.11,-1712.7279,-45364.258,-42668.215,-4680.827
963348.5493691409,-90606.49,-105528.445,18767.945,-4028.0764,-1728.7598,-45364.746,-42668.418,-4680.339
963348.5533691384,-90611.734,-105540.125,18751.262,-4050.1304,-1734.1309,-45367.39,-42673.79,-4689.6973
963348.5573691359,-90602.91,-105534.38,18788.777,-3998.2505,-1722.7783,-45366.09,-42676.96,-4689.2905
963348.5613691334,-90588.914,-105521.0,18821.777,-3954.183,-1713.908,-45363.73,-42675.984,-4682.9023
963348.5653691309,-90583.17,-105517.625,18820.191,-3963.379,-1712.972,-45363.65,-42674.113,-4681.0713
963348.5693691284,-90589.97,-105526.45,18790.162,-4007.2024,-1725.7488,-45366.254,-42673.75,-4685.425
963348.5733691258,-90600.836,-105540.734,18769.166,-4037.842,-1727.946,-45368.125,-42671.754,-4684.2856
963348.5773691233,-90599.9,-105534.18,18788.777,-4000.0,-1717.4072,-45366.62,-42671.43,-4678.2227
963348.5813691209,-90595.83,-105525.15,18802.857,-3975.0977,-1713.8265,-45362.1,-42674.4,-4684.6113
963348.5853691184,-90595.55,-105531.984,18784.547,-3993.4082,-1715.6576,-45363.73,-42674.727,-4684.6924
963348.5893691159,-90597.78,-105541.1,18757.365,-4029.0122,-1726.8474,-45367.92,-42671.387,-4685.425
963348.5933691134,-90600.34,-105540.33,18740.602,-4057.4546,-1733.073,-45370.242,-42671.266,-4687.663
963348.5973691109,-90595.336,-105532.48,18773.926,-4011.1086,-1715.9017,-45367.676,-42668.094,-4676.3916
963348.6013691084,-90584.19,-105517.46,18798.463,-3978.0273,-1704.3865,-45365.438,-42666.06,-4670.98
963348.6053691059,-90581.625,-105513.15,18790.162,-3988.729,-1707.601,-45366.66,-42667.605,-4674.8457
963348.6093691034,-90591.84,-105521.41,18758.098,-4034.7087,-1717.5701,-45369.508,-42670.168,-4681.7627
963348.613369101,-90590.664,-105524.945,18734.375,-4059.9368,-1720.1335,-45373.617,-42674.97,-4689.8193
963348.6173690984,-90581.83,-105516.445,18763.998,-4015.7878,-1716.7562,-45372.76,-42679.65,-4692.22
963348.6213690959,-90568.73,-105501.02,18793.701,-3983.48,-1712.2803,-45372.76,-42678.71,-4685.71
963348.6253690934,-90565.96,-105493.45,18793.66,-3993.8965,-1714.4369,-45373.375,-42678.184,-4685.0996
963348.6293690909,-90566.49,-105493.49,18766.725,-4036.4177,-1719.5232,-45376.426,-42682.09,-4695.7603
963348.6333690884,-90564.62,-105490.195,18746.664,-4056.6814,-1717.8142,-45378.176,-42683.797,-4696.9404
963348.6373690859,-90538.66,-105462.445,18776.814,-4003.9878,-1701.0498,-45378.906,-42689.168,-4697.3066
963348.6413690834,-90516.28,-105440.63,18801.107,-3969.3604,-1686.1572,-45379.19,-42692.586,-4698.8936
963348.645369081,-90509.24,-105440.555,18792.684,-3984.4565,-1696.8181,-45376.59,-42692.098,-4704.468
963348.6493690785,-90509.766,-105443.89,18759.521,-4033.1626,-1712.0361,-45381.836,-42696.332,-4714.7217
963348.653369076,-90502.89,-105436.69,18740.357,-4061.727,-1715.9832,-45384.97,-42702.8,-4722.168
963348.6573690735,-90477.09,-105406.62,18766.846,-4008.8298,-1698.8525,-45387.207,-42709.312,-4724.6504
963348.6613690709,-90459.84,-105389.65,18795.086,-3974.3247,-1690.1449,-45387.82,-42712.16,-4728.6787
963348.6653690684,-90445.03,-105378.3,18797.04,-3992.1062,-1698.1201,-45388.227,-42712.04,-4730.998
963348.6693690659,-90435.266,-105368.45,18770.71,-4035.075,-1705.2816,-45391.074,-42710.45,-4730.835
963348.6733690634,-90433.59,-105366.46,18752.93,-4058.187,-1704.183,-45393.965,-42712.688,-4734.294
963348.6773690609,-90415.445,-105352.22,18781.291,-4010.2134,-1684.5703,-45391.4,-42715.09,-4733.5615
963348.6813690584,-90406.13,-105335.82,18807.74,-3967.855,-1674.0316,-45388.023,-42713.258,-4727.6206
963348.685369056,-90402.266,-105331.46,18797.363,-3974.935,-1681.3558,-45387.207,-42712.73,-4731.9336
963348.6893690535,-90412.805,-105340.58,18758.26,-4021.8914,-1701.0498,-45391.316,-42713.42,-4736.369
963348.693369051,-90431.44,-105358.195,18736.898,-4046.6716,-1707.1941,-45394.086,-42713.3,-4731.8115
963348.6973690485,-90429.77,-105355.516,18764.812,-4006.4292,-1692.3828,-45392.336,-42714.926,-4728.597
963348.701369046,-90422.2,-105350.23,18787.965,-3967.2446,-1686.0759,-45391.074,-42717.855,-4731.3643
963348.7053690434,-90428.8,-105354.49,18780.559,-3973.755,-1693.7664,-45390.87,-42717.773,-4730.591
963348.7093690409,-90439.62,-105369.96,18751.953,-4020.7114,-1700.3174,-45392.215,-42717.33,-4735.962
963348.7133690384,-90449.586,-105381.15,18737.63,-4041.0972,-1706.2175,-45392.5,-42717.246,-4735.6772
963348.7173690359,-90448.24,-105379.88,18763.998,-3993.571,-1697.347,-45386.312,-42714.64,-4726.1963
963348.7213690334,-90445.03,-105377.85,18787.354,-3963.5417,-1693.9697,-45383.75,-42711.55,-4722.412
963348.725369031,-90451.54,-105382.24,18782.47,-3984.253,-1701.6602,-45382.082,-42704.918,-4715.2915
963348.7293690285,-90466.31,-105396.484,18747.762,-4037.3538,-1715.4135,-45383.668,-42699.42,-4706.177
963348.733369026,-90478.88,-105410.98,18734.783,-4061.32,-1713.1348,-45383.586,-42695.234,-4702.1484
963348.7373690235,-90475.95,-105403.08,18764.445,-4012.8176,-1697.225,-45380.332,-42694.703,-4698.12
963348.741369021,-90472.17,-105396.0,18788.494,-3972.412,-1695.1091,-45378.34,-42693.28,-4690.796
963348.7453690185,-90473.19,-105394.33,18792.156,-3979.94,-1699.5037,-45379.723,-42691.816,-4689.779
963348.7493690159,-90483.56,-105404.55,18766.928,-4024.2922,-1706.665,-45381.96,-42693.117,-4698.9746
963348.7533690134,-90498.54,-105420.58,18738.729,-4057.902,-1711.9955,-45382.203,-42695.516,-4700.073
963348.757369011,-90499.76,-105418.055,18761.027,-4016.683,-1698.6898,-45380.74,-42695.76,-4694.0107
963348.7613690085,-90493.01,-105408.98,18794.88,-3976.9287,-1690.0228,-45378.785,-42690.145,-4683.6753
963348.765369006,-90492.234,-105410.0,18798.666,-3981.6895,-1697.7947,-45375.53,-42685.02,-4681.6406
963348.7693690035,-90501.75,-105419.84,18766.846,-4027.5881,-1712.0361,-45374.227,-42679.73,-4675.985
963348.773369001,-90514.125,-105434.05,18744.305,-4054.24,-1713.4197,-45374.51,-42680.992,-4675.293
963348.7773689985,-90515.51,-105429.65,18764.16,-4006.9583,-1704.6306,-45373.047,-42681.438,-4671.875
963348.781368996,-90509.52,-105419.11,18788.29,-3966.5122,-1696.4519,-45371.785,-42678.59,-4663.0454
963348.7853689935,-90511.03,-105423.99,18787.068,-3981.893,-1692.9932,-45376.02,-42680.625,-4666.1787
963348.789368991,-90524.87,-105443.445,18760.498,-4032.308,-1704.3865,-45377.28,-42678.875,-4666.626
963348.7933689884,-90536.99,-105453.74,18739.787,-4051.6765,-1710.8562,-45378.094,-42679.2,-4665.08
963348.797368986,-90537.07,-105449.875,18771.322,-4003.2146,-1698.7305,-45375.33,-42677.777,-4661.296
963348.8013689835,-90533.49,-105443.0,18802.572,-3968.4246,-1691.5283,-45373.375,-42675.824,-4657.878
963348.805368981,-90532.59,-105439.945,18802.084,-3974.5688,-1699.707,-45376.344,-42673.91,-4652.629
963348.8093689785,-90543.09,-105448.29,18775.025,-4020.9148,-1712.5652,-45375.773,-42673.586,-4655.3955
963348.813368976,-90552.01,-105462.41,18755.209,-4049.927,-1720.3369,-45375.53,-42676.027,-4661.2144
963348.8173689735,-90546.836,-105459.68,18775.188,-4009.6438,-1705.7699,-45373.617,-42674.848,-4653.5645
963348.821368971,-90544.48,-105454.06,18797.242,-3978.3123,-1700.0326,-45374.88,-42674.24,-4649.4956
963348.8253689685,-90548.34,-105452.6,18797.607,-3988.9324,-1704.7527,-45372.684,-42671.836,-4646.7695
963348.829368966,-90561.81,-105467.77,18768.19,-4033.9763,-1718.9128,-45375.33,-42670.492,-4647.5425
963348.8333689636,-90569.42,-105481.85,18739.87,-4055.4202,-1725.3826,-45375.043,-42668.297,-4642.9854
963348.837368961,-90566.695,-105481.2,18773.193,-4004.761,-1715.332,-45370.117,-42667.074,-4637.6953
963348.8413689585,-90563.4,-105475.34,18802.857,-3969.157,-1707.0312,-45367.676,-42668.297,-4638.794
963348.845368956,-90565.63,-105471.16,18798.625,-3984.8228,-1700.1953,-45369.55,-42666.668,-4634.969
963348.8493689535,-90561.37,-105468.02,18768.514,-4029.7854,-1710.6934,-45372.273,-42666.383,-4636.2715
963348.853368951,-90564.25,-105475.38,18738.525,-4064.9417,-1717.4072,-45371.867,-42667.44,-4641.561
963348.8573689485,-90564.54,-105471.64,18760.662,-4019.2466,-1702.1078,-45369.754,-42665.934,-4633.6265
963348.861368946,-90557.375,-105461.67,18798.992,-3979.6143,-1692.2607,-45369.02,-42664.47,-4627.523
963348.8653689435,-90551.6,-105455.24,18805.705,-3992.5945,-1698.5677,-45369.426,-42663.25,-4628.093
963348.869368941,-90560.06,-105468.63,18775.676,-4030.599,-1705.7292,-45371.094,-42662.152,-4629.9644
963348.8733689386,-90571.25,-105482.67,18748.25,-4058.065,-1713.623,-45370.73,-42660.89,-4631.3887
963348.8773689361,-90573.0,-105488.04,18782.186,-4012.9802,-1705.0781,-45368.004,-42660.32,-4627.3604
963348.8813689335,-90568.2,-105478.27,18818.4,-3973.1445,-1695.9229,-45366.945,-42661.418,-4627.4414
963348.885368931,-90566.61,-105470.625,18812.908,-3985.2295,-1701.0092,-45366.984,-42659.18,-4626.587
963348.8893689285,-90578.695,-105480.516,18777.955,-4031.4944,-1713.8265,-45369.02,-42659.63,-4628.8657
963348.893368926,-90591.07,-105490.52,18747.723,-4058.6753,-1723.6736,-45370.2,-42662.477,-4633.016
963348.8973689235,-90594.65,-105491.62,18771.688,-4017.2527,-1715.9017,-45367.473,-42664.715,-4633.3823
963348.901368921,-90587.445,-105482.625,18801.066,-3978.1494,-1705.363,-45364.543,-42666.547,-4639.7705
963348.9053689186,-90588.71,-105480.63,18794.11,-3993.7744,-1699.4222,-45365.438,-42668.742,-4646.4033
963348.9093689161,-90594.85,-105496.83,18767.904,-4033.2847,-1703.3691,-45366.133,-42666.547,-4645.0195
963348.9133689136,-90599.41,-105507.04,18755.818,-4060.4656,-1713.7859,-45369.344,-42669.8,-4649.455
963348.9173689111,-90591.23,-105500.29,18785.482,-4018.4734,-1708.0078,-45368.734,-42673.91,-4645.3047
963348.9213689086,-90582.12,-105479.414,18820.72,-3971.9238,-1697.5505,-45369.14,-42675.457,-4644.409
963348.925368906,-90583.375,-105478.56,18823.406,-3981.771,-1703.0029,-45367.598,-42672.285,-4638.3057
963348.9293689035,-90585.734,-105488.125,18788.738,-4029.5413,-1715.7797,-45369.875,-42674.97,-4645.3047
963348.933368901,-90595.664,-105502.89,18757.527,-4062.7444,-1722.4935,-45373.008,-42677.9,-4647.38
963348.9373688985,-90596.88,-105501.38,18780.885,-4021.5251,-1711.6699,-45368.855,-42678.71,-4643.921
963348.941368896,-90582.805,-105484.664,18808.309,-3981.2012,-1697.2656,-45369.508,-42678.1,-4637.9805
963348.9453688936,-90584.92,-105485.27,18803.387,-3989.9902,-1699.3816,-45371.34,-42672.08,-4633.342
963348.9493688911,-90590.7,-105494.305,18778.402,-4035.9294,-1712.0769,-45371.42,-42667.32,-4630.127
963348.9533688886,-90597.7,-105502.52,18767.945,-4055.5828,-1719.4418,-45370.445,-42665.242,-4628.988
963348.9573688861,-90591.88,-105493.62,18795.613,-4005.778,-1711.141,-45369.59,-42670.777,-4635.8237
963348.9613688836,-90579.92,-105483.484,18822.674,-3970.5405,-1700.8057,-45370.2,-42671.266,-4631.0225
963348.9653688811,-90580.94,-105482.14,18818.93,-3989.0544,-1703.532,-45370.04,-42668.5,-4624.9595
963348.9693688785,-90593.38,-105501.06,18788.412,-4040.0798,-1721.1101,-45370.65,-42664.43,-4621.623
963348.973368876,-90603.15,-105515.99,18770.264,-4064.8196,-1733.0322,-45371.34,-42664.266,-4623.1284
963348.9773688735,-90600.67,-105509.52,18802.125,-4015.5437,-1719.93,-45369.754,-42664.88,-4616.0483
963348.981368871,-90589.234,-105490.195,18834.107,-3971.4355,-1700.765,-45367.27,-42666.914,-4616.74
963348.9853688686,-90586.55,-105485.88,18828.37,-3984.8633,-1697.0215,-45368.613,-42669.76,-4622.396
963348.9893688661,-90595.46,-105498.414,18795.207,-4033.9763,-1710.5306,-45372.113,-42670.656,-4631.3887
963348.9933688636,-90603.4,-105508.51,18768.107,-4060.8318,-1720.4183,-45370.688,-42668.094,-4629.0283
963348.9973688611,-90601.28,-105501.95,18791.871,-4011.5154,-1706.0955,-45368.816,-42668.297,-4624.105
963349.0013688586,-90594.93,-105490.36,18816.365,-3976.4812,-1694.7021,-45368.125,-42668.824,-4622.64
963349.0053688561,-90593.95,-105488.65,18810.588,-3988.7695,-1700.7244,-45368.41,-42668.54,-4624.5117
963349.0093688536,-90602.016,-105499.84,18781.697,-4037.7605,-1712.8906,-45370.81,-42669.07,-4633.667
963349.013368851,-90607.305,-105512.25,18760.58,-4070.5974,-1720.5404,-45371.094,-42669.19,-4632.8125
963349.0173688486,-90606.57,-105513.39,18786.459,-4026.9778,-1711.9141,-45368.043,-42671.55,-4632.8125
963349.0213688461,-90604.05,-105501.875,18812.867,-3995.8496,-1703.2064,-45367.312,-42669.19,-4622.966
963349.0253688436,-90604.086,-105498.25,18809.734,-4007.0396,-1707.5603,-45370.08,-42670.453,-4628.1333
963349.0293688411,-90611.01,-105505.25,18774.17,-4048.9097,-1715.2507,-45370.85,-42668.418,-4624.878
963349.0333688386,-90623.58,-105516.195,18744.305,-4075.5618,-1721.1508,-45371.34,-42667.89,-4624.105
963349.0373688361,-90621.7,-105511.6,18769.37,-4030.0295,-1709.0658,-45369.344,-42670.453,-4620.036
963349.0413688336,-90609.625,-105498.336,18802.084,-3989.5427,-1697.225,-45372.844,-42671.51,-4618.6523
963349.0453688311,-90606.81,-105495.57,18809.53,-3993.1235,-1699.6257,-45372.07,-42671.47,-4626.5464
963349.0493688287,-90607.79,-105496.38,18783.936,-4037.7605,-1707.6824,-45370.363,-42669.965,-4623.9424
963349.0533688262,-90612.63,-105504.31,18755.371,-4065.7961,-1712.199,-45370.77,-42668.133,-4620.158
963349.0573688236,-90611.53,-105502.2,18778.688,-4022.2576,-1702.7588,-45369.14,-42667.277,-4616.333
963349.0613688211,-90608.805,-105494.47,18807.496,-3989.7869,-1691.6504,-45368.33,-42665.367,-4609.416
963349.0653688186,-90603.72,-105488.61,18805.258,-3996.7449,-1695.0277,-45369.508,-42665.773,-4610.2295
963349.0693688161,-90611.17,-105499.92,18776.611,-4041.9924,-1709.2693,-45369.426,-42663.535,-4609.8228
963349.0733688136,-90620.73,-105516.24,18754.273,-4073.5679,-1714.681,-45370.73,-42662.926,-4609.5786
963349.0773688111,-90611.05,-105511.07,18783.936,-4022.095,-1698.6898,-45370.363,-42666.504,-4611.084
963349.0813688086,-90596.07,-105491.5,18806.967,-3978.1494,-1684.6517,-45370.04,-42668.418,-4605.6724
963349.0853688061,-90593.75,-105488.08,18805.867,-3994.873,-1691.0808,-45369.71,-42666.3,-4604.94
963349.0893688037,-90603.68,-105501.95,18781.658,-4044.678,-1701.7416,-45369.305,-42663.574,-4608.073
963349.0933688012,-90616.3,-105518.68,18751.059,-4082.8044,-1711.2631,-45368.207,-42664.266,-4616.9844
963349.0973687987,-90615.89,-105513.19,18773.805,-4039.3474,-1701.3347,-45366.7,-42663.332,-4612.5083
963349.1013687961,-90607.914,-105503.42,18804.607,-3991.2925,-1687.2559,-45365.887,-42664.55,-4607.91
963349.1053687936,-90602.87,-105494.914,18800.822,-3995.6462,-1683.2275,-45367.39,-42666.832,-4611.1655
963349.1093687911,-90610.195,-105505.13,18774.658,-4039.3882,-1698.8933,-45369.67,-42666.26,-4612.2236
963349.1133687886,-90615.4,-105512.984,18760.295,-4061.727,-1706.9906,-45372.355,-42669.844,-4620.9717
963349.1173687861,-90606.33,-105500.29,18776.246,-4015.4216,-1692.4236,-45370.445,-42674.645,-4619.914
963349.1213687836,-90596.31,-105485.27,18802.613,-3978.0273,-1679.8503,-45367.84,-42675.945,-4617.798
963349.1253687812,-90597.375,-105479.414,18806.885,-3993.0828,-1682.4951,-45369.957,-42677.816,-4624.471
963349.1293687787,-90599.734,-105488.484,18778.85,-4037.5164,-1702.474,-45372.273,-42680.258,-4630.127
963349.1333687762,-90608.28,-105501.266,18755.047,-4066.1216,-1715.5762,-45372.48,-42676.883,-4624.5527
963349.1373687737,-90607.305,-105500.53,18782.023,-4026.0417,-1700.6023,-45369.426,-42673.586,-4614.095
963349.1413687712,-90598.72,-105492.03,18809.693,-3990.153,-1690.6738,-45372.684,-42678.387,-4616.9844
963349.1453687686,-90593.06,-105485.11,18805.787,-3996.8262,-1693.807,-45372.684,-42677.168,-4614.9497
963349.1493687661,-90599.53,-105491.83,18781.982,-4046.102,-1704.3865,-45371.38,-42669.844,-4606.649
963349.1533687636,-90607.14,-105501.95,18757.895,-4074.341,-1715.9832,-45370.65,-42665.445,-4602.9053
963349.1573687611,-90599.86,-105491.414,18779.46,-4019.7349,-1703.125,-45368.492,-42669.027,-4604.7363
963349.1613687587,-90588.34,-105478.84,18813.191,-3970.581,-1688.1918,-45367.8,-42669.72,-4602.295
963349.1653687562,-90594.0,-105481.445,18804.322,-3986.776,-1695.8008,-45368.53,-42666.3,-4598.999
963349.1693687537,-90607.51,-105498.09,18765.951,-4039.266,-1709.3506,-45369.957,-42666.098,-4602.702
963349.1733687512,-90607.55,-105496.83,18744.264,-4072.2659,-1708.9437,-45375.043,-42672.363,-4611.8574
963349.1773687487,-90599.2,-105482.266,18779.908,-4018.392,-1694.2953,-45373.902,-42676.066,-4610.2295
963349.1813687462,-90594.36,-105476.41,18812.744,-3968.5059,-1689.7787,-45371.746,-42674.03,-4604.004
963349.1853687437,-90590.17,-105468.95,18806.275,-3982.788,-1687.0931,-45374.105,-42673.707,-4603.1494
963349.1893687411,-90597.336,-105480.72,18774.658,-4039.9172,-1700.5209,-45376.547,-42672.363,-4603.353
963349.1933687386,-90608.16,-105495.2,18754.639,-4064.2905,-1711.5479,-45373.7,-42668.54,-4595.9067
963349.1973687361,-90602.79,-105489.75,18783.285,-4014.7708,-1702.2299,-45370.445,-42672.12,-4598.877
963349.2013687337,-90591.39,-105475.836,18815.023,-3978.5156,-1687.1746,-45372.273,-42673.992,-4601.6846
963349.2053687312,-90586.67,-105473.555,18813.03,-3994.873,-1690.4297,-45371.746,-42671.023,-4599.9756
963349.2093687287,-90596.16,-105488.08,18784.465,-4047.4448,-1705.8513,-45374.715,-42670.168,-4601.522
963349.2133687262,-90608.28,-105503.09,18758.79,-4075.806,-1710.2865,-45373.78,-42673.668,-4608.236
963349.2173687237,-90603.805,-105495.41,18783.57,-4023.926,-1698.0388,-45374.35,-42679.688,-4610.759
963349.2213687212,-90599.41,-105486.86,18808.676,-3985.0261,-1685.018,-45373.047,-42676.637,-4601.9287
963349.2253687187,-90599.29,-105483.24,18807.658,-3993.8965,-1691.976,-45369.55,-42673.34,-4598.47
963349.2293687162,-90604.945,-105490.16,18778.523,-4040.3647,-1700.0732,-45371.543,-42675.05,-4606.201
963349.2333687136,-90610.516,-105500.25,18755.453,-4069.214,-1705.4037,-45375.977,-42678.1,-4609.3345
963349.2373687112,-90610.92,-105499.11,18779.826,-4026.3674,-1700.765,-45373.17,-42676.434,-4600.383
963349.2413687087,-90605.23,-105488.53,18806.234,-3984.497,-1690.6332,-45371.95,-42675.133,-4595.459
963349.2453687062,-90600.34,-105481.85,18804.89,-3995.5242,-1691.8539,-45373.58,-42675.457,-4599.8535
963349.2493687037,-90603.68,-105487.15,18780.07,-4038.9,-1706.9092,-45376.344,-42678.996,-4610.189
963349.2533687012,-90614.79,-105501.38,18756.47,-4073.283,-1717.6921,-45376.387,-42679.85,-4611.776
963349.2573686987,-90618.25,-105504.11,18784.059,-4035.2786,-1703.125,-45375.57,-42677.86,-4603.6377
963349.2613686962,-90608.4,-105494.55,18817.383,-3999.9187,-1692.5049,-45374.88,-42678.1,-4597.453
963349.2653686937,-90604.74,-105490.89,18812.135,-4003.9878,-1692.098,-45373.902,-42675.863,-4598.2666
963349.2693686913,-90616.055,-105505.7,18780.396,-4046.5496,-1703.654,-45373.25,-42670.168,-4595.0117
963349.2733686888,-90617.31,-105509.195,18763.998,-4066.1216,-1712.4838,-45375.816,-42672.69,-4601.6846
963349.2773686862,-90607.79,-105496.016,18791.707,-4015.5437,-1702.3519,-45378.867,-42677.695,-4604.3296
963349.2813686837,-90603.92,-105486.33,18819.336,-3977.946,-1692.0574,-45377.44,-42679.242,-4599.6504
963349.2853686812,-90596.6,-105480.02,18820.639,-3988.2,-1695.3939,-45376.914,-42679.2,-4598.5923
963349.2893686787,-90601.484,-105490.36,18781.82,-4043.0095,-1709.3099,-45381.715,-42679.402,-4603.3936
963349.2933686762,-90606.164,-105494.71,18752.889,-4076.6196,-1713.4197,-45385.336,-42683.27,-4612.1826
963349.2973686737,-90599.125,-105485.88,18780.762,-4026.3267,-1702.3519,-45384.645,-42684.285,-4606.6895
963349.3013686712,-90590.945,-105473.68,18809.979,-3979.0447,-1689.9414,-45380.496,-42682.254,-4603.3936
963349.3053686687,-90582.56,-105466.15,18810.426,-3980.3467,-1688.8428,-45380.21,-42682.58,-4603.6787
963349.3093686663,-90593.75,-105481.77,18786.703,-4028.4832,-1702.474,-45381.023,-42678.957,-4601.6846
963349.3133686638,-90605.39,-105494.67,18763.63,-4069.0513,-1712.0769,-45381.105,-42679.28,-4603.4346
963349.3173686613,-90596.44,-105484.664,18785.848,-4030.3958,-1702.474,-45383.14,-42681.52,-4599.04
963349.3213686587,-90585.62,-105471.97,18814.006,-3995.2393,-1693.4814,-45382.977,-42680.91,-4593.669
963349.3253686562,-90580.57,-105467.57,18815.756,-3998.698,-1696.3298,-45384.48,-42682.496,-4597.534
963349.3293686537,-90585.66,-105474.45,18787.312,-4038.7778,-1703.9388,-45386.8,-42684.734,-4600.2607
963349.3333686512,-90591.07,-105482.22,18770.143,-4057.6987,-1707.1127,-45388.145,-42686.605,-4601.1963
963349.3373686487,-90589.16,-105474.9,18799.684,-4007.9348,-1695.0277,-45388.918,-42687.91,-4598.226
963349.3413686462,-90587.12,-105464.6,18827.068,-3974.406,-1688.6394,-45388.43,-42686.65,-4594.157
963349.3453686438,-90587.85,-105462.37,18823.283,-3987.8337,-1694.4988,-45386.72,-42682.293,-4589.2744
963349.3493686413,-90597.375,-105480.11,18786.336,-4042.3179,-1714.3555,-45384.523,-42677.574,-4585.653
963349.3533686388,-90593.71,-105482.95,18766.033,-4065.0637,-1718.5059,-45385.418,-42681.113,-4599.4873
963349.3573686363,-90590.45,-105474.695,18787.068,-4019.8162,-1703.1658,-45385.01,-42682.17,-4597.2495
963349.3613686338,-90582.64,-105460.45,18810.059,-3981.486,-1688.8835,-45383.668,-42681.64,-4591.268
963349.3653686312,-90573.49,-105448.65,18808.758,-3990.8042,-1684.5703,-45383.504,-42681.844,-4594.1978
963349.3693686287,-90586.836,-105462.81,18782.186,-4043.4573,-1696.3705,-45381.715,-42678.875,-4592.9365
963349.3733686262,-90592.9,-105473.39,18765.096,-4081.2583,-1705.5664,-45382.527,-42682.66,-4597.0054
963349.3773686237,-90581.79,-105461.1,18794.19,-4037.1096,-1696.2484,-45384.32,-42688.07,-4596.7207
963349.3813686213,-90567.914,-105441.86,18825.154,-3990.9668,-1684.8552,-45384.766,-42691.33,-4595.866
963349.3853686188,-90559.45,-105435.14,18827.596,-3995.7683,-1688.1511,-45385.38,-42692.63,-4597.738
963349.3893686163,-90551.11,-105433.39,18809.246,-4035.4006,-1698.6898,-45387.695,-42695.355,-4607.422
963349.3933686138,-90549.484,-105430.26,18783.447,-4063.4768,-1700.3988,-45388.348,-42694.785,-4607.2188
963349.3973686113,-90537.68,-105416.34,18803.996,-4019.1245,-1692.3828,-45387.617,-42694.703,-4600.505
963349.4013686088,-90518.48,-105393.516,18827.637,-3981.6895,-1683.5125,-45386.56,-42693.28,-4593.506
963349.4053686063,-90514.77,-105385.22,18823.121,-3997.0703,-1684.8552,-45386.72,-42691.53,-4593.0176
963349.4093686037,-90503.83,-105374.88,18796.346,-4039.673,-1692.7898,-45389.934,-42695.395,-4604.248
963349.4133686012,-90501.8,-105372.6,18773.846,-4067.4236,-1694.7429,-45392.62,-42696.086,-4605.591
963349.4173685987,-90486.125,-105354.01,18802.816,-4013.306,-1678.3447,-45391.523,-42697.836,-4601.9287
963349.4213685963,-90456.99,-105323.98,18835.938,-3967.448,-1667.0736,-45392.215,-42700.48,-4601.3594
963349.4253685938,-90437.18,-105302.414,18837.402,-3975.7896,-1666.7074,-45399.21,-42703.125,-4606.527
963349.4293685913,-90433.68,-105301.35,18805.664,-4027.222,-1674.642,-45402.67,-42706.87,-4615.0312
963349.4333685888,-90447.555,-105314.945,18770.916,-4067.5457,-1684.8552,-45401.695,-42706.34,-4611.8574
963349.4373685863,-90442.47,-105305.09,18798.178,-4019.45,-1672.4447,-45400.027,-42710.125,-4612.915
963349.4413685838,-90418.13,-105281.336,18839.967,-3971.2322,-1664.3474,-45400.473,-42712.324,-4613.4033
963349.4453685813,-90407.88,-105275.76,18846.72,-3978.5156,-1662.4349,-45400.473,-42710.613,-4616.2925
963349.4493685788,-90415.94,-105282.555,18818.848,-4019.857,-1671.7529,-45401.855,-42714.195,-4624.0645
963349.4533685762,-90419.6,-105282.68,18794.8,-4050.3337,-1674.2351,-45403.523,-42716.72,-4628.703
963349.4573685738,-90417.97,-105280.52,18819.256,-4008.952,-1662.4349,-45401.004,-42720.176,-4626.872
963349.4613685713,-90416.34,-105272.46,18845.174,-3970.7031,-1651.2045,-45400.676,-42721.438,-4622.03
963349.4653685688,-90407.02,-105260.13,18841.635,-3982.1777,-1654.0121,-45404.707,-42722.656,-4629.3945
963349.4693685663,-90411.54,-105267.22,18815.756,-4028.1985,-1669.3115,-45408.613,-42723.836,-4632.894
963349.4733685638,-90427.94,-105280.07,18790.365,-4053.7925,-1675.9033,-45408.613,-42721.234,-4628.052
963349.4773685613,-90421.02,-105270.35,18816.365,-4006.5105,-1662.7197,-45406.13,-42720.625,-4624.756
963349.4813685588,-90414.47,-105257.81,18847.006,-3964.152,-1655.2734,-45405.64,-42719.28,-4620.809
963349.4853685563,-90412.88,-105254.11,18846.803,-3974.3247,-1657.5521,-45407.27,-42720.543,-4622.5586
963349.4893685539,-90415.445,-105262.9,18813.68,-4027.7102,-1671.3054,-45409.832,-42722.902,-4624.3086
963349.4933685514,-90431.195,-105287.44,18786.988,-4065.023,-1681.8848,-45412.76,-42723.555,-4629.802
963349.4973685488,-90435.63,-105293.42,18813.232,-4017.619,-1661.8652,-45410.605,-42724.855,-4630.0864
963349.5013685463,-90425.58,-105273.89,18844.93,-3970.3777,-1647.9086,-45408.406,-42725.3,-4623.3726
963349.5053685438,-90421.47,-105264.9,18843.303,-3982.6255,-1648.6003,-45410.402,-42722.656,-4618.8965
963349.5093685413,-90433.11,-105278.85,18810.75,-4035.075,-1660.4004,-45412.07,-42721.844,-4624.5933
963349.5133685388,-90445.72,-105294.234,18781.17,-4062.134,-1672.6074,-45410.484,-42718.875,-4620.2393
963349.5173685363,-90442.06,-105285.93,18806.152,-4015.381,-1662.8826,-45408.816,-42718.996,-4610.5957
963349.5213685338,-90433.96,-105275.31,18840.496,-3973.1445,-1653.4832,-45408.49,-42721.805,-4613.4033
963349.5253685314,-90433.68,-105272.625,18836.629,-3983.3171,-1657.5521,-45411.094,-42723.43,-4620.443
963349.5293685289,-90447.76,-105292.85,18799.357,-4039.1033,-1674.1537,-45412.8,-42722.902,-4621.0938
963349.5333685264,-90461.71,-105312.14,18767.62,-4072.7134,-1682.4545,-45412.844,-42724.49,-4621.623
963349.5373685239,-90456.99,-105305.305,18792.074,-4020.8335,-1663.2894,-45410.566,-42724.652,-4619.1
963349.5413685213,-90449.71,-105294.48,18822.389,-3981.8115,-1648.641,-45408.816,-42723.473,-4615.4785
963349.5453685188,-90454.15,-105295.01,18823.854,-3989.2173,-1647.7865,-45406.17,-42716.72,-4606.405
963349.5493685163,-90467.9,-105312.38,18791.951,-4033.0405,-1657.5928,-45405.316,-42714.113,-4607.2188
963349.5533685138,-90482.47,-105326.83,18758.342,-4064.2092,-1670.044,-45405.273,-42715.21,-4615.6416
963349.5573685113,-90484.46,-105324.99,18779.541,-4024.2107,-1668.0908,-45402.06,-42717.125,-4614.3394
963349.5613685088,-90485.07,-105324.18,18812.012,-3988.5662,-1660.848,-45401.777,-42716.676,-4607.707
963349.5653685064,-90488.734,-105327.4,18818.562,-3995.6462,-1665.6902,-45401.45,-42714.195,-4605.713
963349.5693685039,-90500.0,-105342.45,18793.213,-4045.3696,-1678.3855,-45402.59,-42711.426,-4608.4395
963349.5733685014,-90512.58,-105359.375,18765.748,-4080.363,-1682.373,-45403.484,-42713.258,-4614.909
963349.5773684989,-90511.48,-105356.65,18793.498,-4027.5881,-1670.7764,-45403.688,-42716.92,-4616.455
963349.5813684964,-90502.77,-105347.05,18823.771,-3980.062,-1660.0342,-45400.84,-42714.52,-4608.5205
963349.5853684938,-90505.01,-105348.19,18824.627,-3993.2861,-1665.6088,-45399.13,-42710.492,-4604.3296
963349.5893684913,-90517.58,-105362.15,18788.818,-4042.6433,-1678.0193,-45399.008,-42711.426,-4611.6133
963349.5933684888,-90529.79,-105378.055,18758.424,-4074.8699,-1676.3916,-45400.27,-42713.707,-4614.502
963349.5973684863,-90530.32,-105377.484,18782.309,-4028.361,-1664.3066,-45398.36,-42714.844,-4608.7646
963349.6013684839,-90522.016,-105366.984,18816.691,-3983.8462,-1655.7617,-45397.83,-42716.188,-4607.788
963349.6053684814,-90520.71,-105368.01,18821.736,-3990.153,-1662.1501,-45397.098,-42714.316,-4604.045
963349.6093684789,-90533.49,-105384.85,18791.871,-4038.493,-1677.6123,-45398.03,-42710.33,-4601.4404
963349.6133684764,-90545.695,-105400.19,18769.246,-4075.928,-1686.6863,-45401.004,-42708.293,-4599.569
963349.6173684739,-90544.27,-105397.625,18790.203,-4039.5103,-1672.6482,-45399.008,-42707.277,-4591.1865
963349.6213684714,-90538.54,-105387.945,18820.354,-3995.402,-1659.5867,-45396.566,-42706.586,-4589.315
963349.6253684689,-90535.08,-105384.73,18814.861,-4001.343,-1657.5521,-45396.406,-42704.227,-4586.9956
963349.6293684663,-90541.38,-105393.07,18784.912,-4053.1414,-1674.4385,-45397.258,-42705.445,-4592.082
963349.6333684638,-90552.45,-105405.07,18766.725,-4078.4507,-1678.1414,-45399.09,-42708.254,-4598.5923
963349.6373684613,-90552.66,-105403.77,18789.021,-4026.1233,-1662.8826,-45397.22,-42711.754,-4597.331
963349.6413684589,-90546.59,-105395.47,18822.062,-3980.2654,-1652.9135,-45395.996,-42711.426,-4592.041
963349.6453684564,-90545.21,-105396.0,18822.348,-3995.8496,-1660.197,-45397.098,-42711.957,-4595.581
963349.6493684539,-90556.73,-105413.49,18784.1,-4051.758,-1677.8158,-45397.91,-42710.938,-4597.7783
963349.6533684514,-90564.086,-105427.82,18759.807,-4081.4617,-1681.3558,-45399.336,-42708.62,-4600.1387
963349.6573684489,-90559.86,-105420.9,18790.895,-4033.6917,-1667.9281,-45398.805,-42709.027,-4602.539
963349.6613684464,-90552.94,-105410.28,18826.945,-3990.5193,-1658.8542,-45397.504,-42707.277,-4597.9414
963349.6653684439,-90554.04,-105408.82,18829.672,-3991.5366,-1660.197,-45394.004,-42702.15,-4592.489
963349.6693684414,-90560.914,-105417.195,18804.77,-4034.3833,-1670.6543,-45396.77,-42699.42,-4590.21
963349.6733684388,-90566.81,-105428.23,18779.176,-4070.3127,-1681.3965,-45400.27,-42700.074,-4588.9487
963349.6773684364,-90564.86,-105424.69,18803.834,-4027.059,-1667.2771,-45398.438,-42698.934,-4582.0723
963349.6813684339,-90564.01,-105416.42,18830.078,-3992.7573,-1655.8025,-45394.9,-42697.145,-4578.369
963349.6853684314,-90564.984,-105416.63,18832.846,-4001.0173,-1654.948,-45394.574,-42693.402,-4573.4053
963349.6893684289,-90574.99,-105432.82,18803.71,-4042.969,-1666.4633,-45395.59,-42691.816,-4574.626
963349.6933684264,-90582.64,-105445.64,18776.814,-4071.7368,-1677.002,-45396.973,-42691.773,-4578.6543
963349.6973684239,-90576.016,-105440.35,18806.723,-4017.985,-1670.6136,-45395.02,-42691.895,-4570.7197
963349.7013684214,-90565.27,-105426.68,18847.006,-3974.528,-1664.1033,-45395.062,-42692.26,-4566.3657
