timestamp,Fp1,Fp2,F3,Fz,F4,Cz,Pz,Oz
963315.0133900852,-89791.47,-105623.13,16811.28,-4377.8486,-3621.867,-45823.934,-42836.387,-8227.621
963315.0173900827,-89788.49,-105625.734,16813.273,-4373.739,-3621.1345,-45819.867,-42832.48,-8220.581
963315.0213900802,-89785.61,-105622.32,16818.074,-4365.967,-3608.2764,-45817.832,-42830.895,-8217.367
963315.0253900777,-89783.734,-105615.12,16827.719,-4364.543,-3606.1199,-45820.395,-42830.895,-8219.157
963315.0293900752,-89782.555,-105611.82,16832.846,-4359.8228,-3602.8647,-45819.582,-42833.418,-8223.837
963315.0333900728,-89783.086,-105614.305,16825.44,-4376.872,-3611.4097,-45820.68,-42834.72,-8226.645
963315.0373900703,-89785.65,-105616.21,16831.422,-4377.889,-3612.6304,-45821.74,-42834.35,-8223.633
963315.0413900678,-89787.31,-105616.78,16833.62,-4372.7217,-3608.4392,-45820.438,-42833.293,-8219.727
963315.0453900653,-89785.445,-105615.6,16825.398,-4371.704,-3605.7944,-45819.133,-42833.984,-8220.134
963315.0493900627,-89783.695,-105616.5,16835.775,-4364.3394,-3612.3862,-45820.68,-42835.652,-8222.819
963315.0533900602,-89781.66,-105611.62,16836.67,-4369.873,-3607.788,-45820.273,-42838.504,-8229.655
963315.0573900577,-89782.39,-105609.22,16835.084,-4368.449,-3600.1384,-45819.785,-42838.83,-8227.987
963315.0613900552,-89781.86,-105608.85,16838.826,-4362.02,-3602.3765,-45819.258,-42837.77,-8221.68
963315.0653900527,-89785.445,-105610.68,16837.484,-4368.449,-3599.935,-45820.19,-42839.316,-8224.772
963315.0693900503,-89784.875,-105613.0,16830.16,-4371.9893,-3599.6501,-45822.145,-42840.984,-8228.354
963315.0733900478,-89786.26,-105615.08,16823.365,-4376.0986,-3607.951,-45825.36,-42842.41,-8229.126
963315.0773900453,-89792.32,-105621.46,16824.586,-4371.0938,-3606.2827,-45823.324,-42843.793,-8231.405
963315.0813900428,-89806.6,-105636.07,16824.79,-4368.3677,-3606.649,-45820.07,-42844.117,-8233.073
963315.0853900403,-89805.26,-105626.02,16827.475,-4366.699,-3600.1792,-45822.47,-42849.49,-8239.34
963315.0893900378,-89779.83,-105597.414,16839.64,-4356.7305,-3595.2148,-45824.63,-42854.902,-8243.286
963315.0933900352,-89778.0,-105593.55,16832.234,-4366.008,-3598.7957,-45822.023,-42852.418,-8240.601
963315.0973900327,-89770.266,-105583.336,16834.473,-4362.59,-3595.2148,-45822.145,-42850.832,-8235.84
963315.1013900302,-89769.05,-105581.305,16842.408,-4356.893,-3593.872,-45822.594,-42852.46,-8242.92
963315.1053900277,-89761.03,-105570.31,16841.473,-4356.7305,-3591.8784,-45824.87,-42857.465,-8250.529
963315.1093900253,-89754.73,-105554.89,16845.012,-4350.464,-3586.7515,-45828.125,-42862.43,-8252.279
963315.1133900228,-89753.26,-105545.62,16836.59,-4357.951,-3583.374,-45831.18,-42865.36,-8254.15
963315.1173900203,-89755.91,-105545.9,16827.352,-4360.5146,-3581.0547,-45830.77,-42864.87,-8254.191
963315.1213900178,-89749.84,-105536.7,16826.01,-4358.3174,-3571.3298,-45830.04,-42864.83,-8256.674
963315.1253900153,-89751.836,-105536.016,16819.54,-4361.328,-3568.4001,-45829.55,-42863.73,-8259.5625
963315.1293900128,-89760.7,-105551.6,16820.11,-4362.427,-3571.5332,-45830.527,-42862.062,-8259.318
963315.1333900103,-89757.04,-105548.67,16824.91,-4369.0596,-3572.0623,-45829.715,-42861.777,-8262.492
963315.1373900077,-89751.34,-105542.24,16833.293,-4362.264,-3572.998,-45824.63,-42855.918,-8251.75
963315.1413900052,-89755.49,-105544.64,16838.014,-4351.644,-3573.8525,-45819.54,-42849.57,-8245.117
963315.1453900028,-89762.375,-105552.375,16829.346,-4350.7896,-3570.5974,-45816.895,-42847.13,-8246.216
963315.1493900003,-89765.26,-105555.586,16826.58,-4352.8647,-3567.5457,-45816.164,-42847.37,-8244.995
963315.1533899978,-89769.45,-105556.44,16818.074,-4368.3677,-3572.998,-45817.426,-42850.02,-8248.535
963315.1573899953,-89771.94,-105554.81,16819.58,-4370.809,-3571.1265,-45819.582,-42850.223,-8244.467
963315.1613899928,-89771.484,-105559.98,16823.934,-4368.083,-3560.6284,-45822.105,-42850.383,-8240.194
963315.1653899903,-89770.555,-105557.58,16832.195,-4366.2925,-3564.7788,-45820.598,-42849.406,-8234.66
963315.1693899878,-89771.85,-105558.39,16840.129,-4360.759,-3567.4644,-45818.24,-42846.965,-8224.813
963315.1733899853,-89772.87,-105562.7,16838.42,-4360.2295,-3566.6504,-45816.816,-42846.926,-8222.534
963315.1773899829,-89771.08,-105561.52,16836.467,-4356.893,-3567.7085,-45816.57,-42849.203,-8234.091
963315.1813899803,-89769.734,-105557.13,16839.152,-4355.835,-3570.0684,-45815.39,-42852.094,-8247.111
963315.1853899778,-89772.99,-105561.164,16837.484,-4363.4033,-3571.574,-45814.656,-42851.44,-8245.199
963315.1893899753,-89775.96,-105566.125,16835.408,-4364.177,-3572.9575,-45815.715,-42850.914,-8240.031
963315.1933899728,-89776.086,-105562.22,16833.13,-4365.316,-3565.0635,-45818.117,-42850.383,-8237.59
963315.1973899703,-89772.83,-105558.07,16836.06,-4357.8696,-3558.96,-45818.32,-42848.88,-8232.219
963315.2013899678,-89766.89,-105556.4,16845.012,-4354.004,-3558.2275,-45818.44,-42847.047,-8227.702
963315.2053899653,-89765.38,-105553.96,16849.365,-4351.644,-3557.9429,-45817.098,-42847.453,-8226.645
963315.2093899628,-89765.26,-105551.72,16845.135,-4348.104,-3553.1006,-45816.652,-42847.047,-8222.331
963315.2133899604,-89768.48,-105552.734,16837.973,-4354.3296,-3557.5767,-45817.63,-42844.89,-8216.797
963315.2173899579,-89768.68,-105549.195,16845.379,-4354.492,-3557.8208,-45819.297,-42842.734,-8211.142
963315.2213899554,-89766.73,-105542.195,16850.018,-4354.0854,-3554.4434,-45816.895,-42834.35,-8203.085
963315.2253899528,-89765.305,-105540.81,16847.127,-4357.2593,-3556.9663,-45815.066,-42828.004,-8199.097
963315.2293899503,-89765.42,-105543.99,16844.402,-4352.417,-3556.9255,-45813.07,-42825.36,-8195.598
963315.2333899478,-89768.15,-105546.8,16844.117,-4362.956,-3561.4421,-45808.88,-42824.344,-8197.51
963315.2373899453,-89770.23,-105545.74,16847.78,-4361.898,-3558.6345,-45807.375,-42825.074,-8199.626
963315.2413899428,-89770.1,-105549.32,16843.018,-4359.0903,-3559.0415,-45807.496,-42825.4,-8204.224
963315.2453899403,-89771.08,-105552.33,16841.473,-4359.497,-3562.0933,-45806.234,-42825.81,-8205.933
963315.2493899378,-89770.96,-105552.21,16839.967,-4358.1543,-3560.018,-45807.58,-42830.28,-8207.4795
963315.2533899354,-89765.47,-105545.984,16841.064,-4360.84,-3555.0537,-45810.547,-42834.434,-8213.257
963315.2573899329,-89762.375,-105537.4,16849.08,-4350.9116,-3550.9033,-45810.59,-42835.043,-8213.786
963315.2613899304,-89766.97,-105535.12,16850.994,-4347.3716,-3551.2695,-45809.816,-42835.53,-8215.495
963315.2653899279,-89763.96,-105533.61,16846.639,-4356.1606,-3554.4841,-45810.47,-42840.414,-8230.347
963315.2693899253,-89765.914,-105535.89,16846.232,-4358.602,-3554.769,-45812.664,-42843.59,-8236.166
963315.2733899228,-89759.484,-105527.39,16846.803,-4362.142,-3553.3042,-45814.863,-42848.105,-8242.473
963315.2773899203,-89749.43,-105514.61,16853.354,-4354.37,-3546.4275,-45815.555,-42849.734,-8239.299
963315.2813899178,-89743.49,-105512.82,16855.389,-4348.3076,-3546.753,-45815.918,-42853.598,-8243.002
963315.2853899153,-89745.484,-105504.56,16855.51,-4348.633,-3543.864,-45815.715,-42859.01,-8253.418
963315.2893899129,-89740.69,-105500.94,16858.236,-4346.7207,-3545.8984,-45816.773,-42858.81,-8251.099
963315.2933899104,-89733.12,-105487.19,16842.693,-4353.0684,-3544.7593,-45818.156,-42860.15,-8251.791
963315.2973899079,-89749.63,-105481.445,16831.543,-4349.365,-3542.033,-45818.035,-42861.25,-8251.587
963315.3013899054,-89740.89,-105468.39,16838.217,-4351.4404,-3540.4868,-45821.086,-42863.69,-8249.187
963315.3053899029,-89701.3,-105451.3,16847.291,-4348.5107,-3534.3018,-45825.36,-42865.645,-8246.094
963315.3093899004,-89674.195,-105424.03,16852.986,-4334.758,-3527.6694,-45829.715,-42867.676,-8241.537
963315.3133898978,-89669.88,-105415.86,16856.445,-4338.2163,-3528.6052,-45831.137,-42867.27,-8240.031
963315.3173898953,-89678.51,-105411.87,16863.852,-4329.305,-3523.4375,-45828.29,-42864.3,-8236.735
963315.3213898928,-89654.055,-105399.09,16876.385,-4325.4395,-3522.6238,-45830.49,-42864.625,-8235.189
963315.3253898903,-89645.39,-105396.0,16879.598,-4333.496,-3525.8384,-45831.258,-42865.6,-8236.857
963315.3293898879,-89633.14,-105389.37,16884.848,-4332.5605,-3524.943,-45831.87,-42871.34,-8247.314
963315.3333898854,-89614.26,-105374.02,16891.887,-4330.119,-3518.7175,-45834.92,-42876.875,-8258.098
963315.3373898829,-89612.35,-105379.31,16891.928,-4322.9575,-3521.1997,-45833.09,-42875.613,-8259.5625
963315.3413898804,-89598.06,-105375.37,16896.078,-4317.871,-3521.0776,-45833.008,-42878.094,-8262.777
963315.3453898779,-89586.51,-105377.08,16895.06,-4325.399,-3516.9272,-45833.7,-42878.176,-8262.167
963315.3493898754,-89571.29,-105381.23,16896.322,-4321.737,-3515.9912,-45832.36,-42879.883,-8263.713
963315.3533898729,-89563.16,-105380.414,16891.846,-4328.532,-3517.741,-45834.637,-42888.47,-8282.227
963315.3573898703,-89551.19,-105380.74,16901.693,-4322.998,-3515.503,-45834.92,-42889.445,-8287.191
963315.3613898678,-89557.984,-105406.66,16906.697,-4320.1094,-3515.1775,-45831.746,-42885.094,-8281.942
963315.3653898654,-89553.02,-105417.89,16909.424,-4324.707,-3513.8755,-45832.887,-42888.918,-8286.133
963315.3693898629,-89534.875,-105416.1,16922.527,-4318.4004,-3505.9001,-45833.7,-42893.27,-8287.517
963315.3733898604,-89515.055,-105407.72,16923.543,-4315.837,-3503.7842,-45835.33,-42895.266,-8292.969
963315.3773898579,-89503.83,-105411.336,16925.416,-4305.705,-3504.069,-45837.688,-42896.484,-8293.905
963315.3813898554,-89507.49,-105435.836,16914.836,-4303.874,-3504.8423,-45834.72,-42896.85,-8289.348
963315.3853898529,-89507.695,-105456.79,16907.715,-4314.331,-3507.3242,-45834.188,-42896.85,-8290.568
963315.3893898504,-89513.305,-105468.39,16911.662,-4317.9526,-3509.318,-45834.15,-42896.324,-8285.36
963315.393389848,-89507.57,-105473.555,16909.832,-4318.319,-3503.8657,-45834.637,-42895.145,-8283.977
963315.3973898455,-89499.19,-105471.07,16910.93,-4312.5815,-3501.1802,-45835.53,-42892.58,-8282.553
963315.4013898429,-89487.555,-105468.63,16923.299,-4301.8394,-3496.5415,-45836.914,-42892.418,-8281.982
963315.4053898404,-89485.15,-105467.695,16920.33,-4301.107,-3496.8262,-45839.316,-42897.42,-8292.807
963315.4093898379,-89479.58,-105461.1,16921.713,-4298.055,-3490.2344,-45840.7,-42897.707,-8295.207
963315.4133898354,-89480.875,-105462.28,16915.406,-4307.17,-3483.8867,-45840.414,-42902.184,-8297.323
963315.4173898329,-89481.49,-105462.28,16911.418,-4313.884,-3476.0337,-45841.23,-42905.6,-8303.508
963315.4213898304,-89481.65,-105461.266,16905.111,-4310.913,-3476.6033,-45841.88,-42906.535,-8306.152
963315.4253898279,-89490.32,-105469.61,16896.078,-4311.1167,-3483.8462,-45840.008,-42902.387,-8307.536
963315.4293898254,-89483.73,-105465.78,16906.17,-4303.711,-3485.7585,-45840.17,-42901.98,-8307.048
963315.433389823,-89476.195,-105457.805,16911.133,-4304.3213,-3480.062,-45840.742,-42901.41,-8304.892
963315.4373898205,-89475.586,-105451.22,16915.854,-4298.34,-3474.3652,-45840.78,-42903.402,-8305.461
963315.441389818,-89479.414,-105448.37,16916.951,-4297.5264,-3473.4702,-45840.414,-42902.832,-8305.624
963315.4453898154,-89475.1,-105448.445,16914.227,-4306.1523,-3478.5156,-45840.742,-42906.375,-8308.432
963315.4493898129,-89474.77,-105453.78,16914.674,-4309.7334,-3478.5972,-45839.56,-42905.234,-8310.303
963315.4533898104,-89475.71,-105454.43,16909.344,-4314.25,-3478.7192,-45839.926,-42904.258,-8309.204
963315.4573898079,-89468.14,-105444.83,16920.125,-4298.991,-3473.7144,-45841.23,-42906.13,-8306.519
963315.4613898054,-89465.17,-105438.12,16928.346,-4290.324,-3465.9424,-45841.72,-42908.33,-8308.31
963315.4653898029,-89472.13,-105439.74,16918.54,-4299.886,-3466.1865,-45839.4,-42908.406,-8313.884
963315.4693898004,-89470.46,-105439.5,16911.256,-4295.8984,-3464.437,-45839.6,-42911.785,-8316.691
963315.473389798,-89468.8,-105448.24,16905.152,-4306.478,-3466.5527,-45841.35,-42909.793,-8317.424
963315.4773897955,-89472.91,-105452.97,16914.47,-4304.5654,-3465.4949,-45840.863,-42908.69,-8315.918
963315.481389793,-89467.125,-105444.09,16921.428,-4294.841,-3459.1064,-45838.582,-42908.816,-8324.748
963315.4853897905,-89457.69,-105435.836,16913.697,-4295.451,-3461.8735,-45838.42,-42910.24,-8326.376
963315.4893897879,-89454.19,-105431.766,16916.871,-4286.9873,-3461.67,-45838.992,-42909.914,-8324.057
963315.4933897854,-89453.984,-105430.87,16915.895,-4291.9517,-3461.3445,-45837.28,-42906.66,-8323.405
963315.4973897829,-89459.234,-105427.78,16920.29,-4292.033,-3459.4321,-45836.14,-42905.113,-8323.975
963315.5013897804,-89450.16,-105418.945,16923.38,-4290.8936,-3456.1768,-45836.305,-42908.773,-8332.357
963315.505389778,-89456.51,-105427.9,16911.174,-4303.996,-3460.2866,-45834.92,-42908.406,-8337.973
963315.5093897755,-89460.57,-105432.62,16921.55,-4299.764,-3461.141,-45831.504,-42903.363,-8325.439
963315.513389773,-89450.52,-105426.805,16926.434,-4298.0957,-3461.1003,-45831.79,-42904.258,-8322.917
963315.5173897705,-89440.19,-105411.42,16930.46,-4288.656,-3453.939,-45832.36,-42909.18,-8328.125
963315.521389768,-89430.016,-105402.1,16937.094,-4282.7964,-3449.1375,-45832.684,-42911.418,-8328.166
963315.5253897655,-89434.164,-105403.08,16924.805,-4290.039,-3450.3582,-45831.016,-42906.535,-8324.951
963315.529389763,-89439.91,-105410.484,16918.945,-4293.1724,-3451.701,-45829.836,-42903.08,-8321.371
963315.5333897604,-89436.81,-105410.2,16915.447,-4309.5703,-3453.4507,-45830.04,-42902.06,-8321.208
963315.5373897579,-89437.3,-105409.1,16916.992,-4303.467,-3451.823,-45830.934,-42905.805,-8325.399
963315.5413897554,-89441.53,-105409.586,16913.982,-4297.119,-3446.6553,-45830.242,-42906.863,-8321.655
963315.545389753,-89439.13,-105402.875,16911.5,-4298.0146,-3443.3594,-45829.836,-42906.74,-8321.167
963315.5493897505,-89434.53,-105401.66,16917.766,-4294.3115,-3443.1152,-45830.73,-42908.082,-8322.429
963315.553389748,-89435.18,-105406.17,16912.598,-4303.467,-3445.6787,-45831.87,-42908.938,-8326.457
963315.5573897455,-89429.24,-105398.6,16914.795,-4289.795,-3441.4878,-45832.195,-42910.645,-8330.444
963315.561389743,-89425.7,-105393.4,16917.684,-4281.291,-3440.918,-45832.277,-42910.36,-8328.288
963315.5653897405,-89425.17,-105392.01,16915.486,-4288.6963,-3439.209,-45832.36,-42908.938,-8327.148
963315.569389738,-89427.49,-105392.336,16917.236,-4288.8594,-3434.5298,-45830.16,-42909.996,-8331.381
963315.5733897355,-89434.37,-105396.98,16908.367,-4298.4214,-3436.32,-45829.023,-42909.63,-8331.584
963315.5773897329,-89430.83,-105391.766,16906.494,-4289.8765,-3431.193,-45829.184,-42908.816,-8328.491
963315.5813897304,-89424.6,-105389.445,16909.344,-4284.709,-3430.542,-45830.04,-42907.758,-8321.818
963315.585389728,-89419.234,-105385.055,16908.406,-4290.7715,-3430.0132,-45831.383,-42907.31,-8319.784
963315.5893897255,-89420.086,-105384.36,16908.855,-4293.2944,-3429.525,-45831.383,-42906.332,-8317.261
963315.593389723,-89432.46,-105394.984,16900.39,-4304.0366,-3435.4656,-45831.383,-42904.664,-8314.982
963315.5973897205,-89438.32,-105401.86,16911.256,-4294.1895,-3437.9478,-45829.633,-42905.6,-8315.349
963315.601389718,-89431.44,-105401.25,16918.865,-4286.9062,-3439.0056,-45832.766,-42909.383,-8316.895
963315.6053897155,-89416.34,-105383.55,16919.719,-4287.4756,-3431.8848,-45833.62,-42912.234,-8314.697
963315.609389713,-89413.62,-105379.52,16914.674,-4281.128,-3422.811,-45836.348,-42918.742,-8325.277
963315.6133897105,-89422.28,-105385.945,16903.85,-4285.5225,-3427.938,-45836.387,-42922.61,-8333.496
963315.6173897081,-89426.39,-105382.0,16905.355,-4278.646,-3425.7407,-45834.434,-42924.766,-8340.698
963315.6213897055,-89429.12,-105385.83,16906.697,-4284.2207,-3427.0835,-45832.277,-42920.613,-8338.095
963315.625389703,-89425.945,-105384.89,16897.746,-4293.01,-3432.4138,-45831.746,-42917.402,-8334.106
963315.6293897005,-89416.71,-105377.08,16901.734,-4287.069,-3431.1118,-45833.09,-42917.24,-8336.711
963315.633389698,-89415.29,-105375.41,16898.846,-4289.1035,-3425.944,-45831.79,-42914.188,-8336.589
963315.6373896955,-89412.31,-105368.01,16908.123,-4280.0293,-3425.2524,-45830.324,-42912.56,-8332.4795
963315.641389693,-89417.484,-105370.69,16907.635,-4273.4375,-3425.8628,-45829.184,-42909.14,-8327.2705
963315.6453896905,-89422.24,-105376.02,16893.107,-4284.6274,-3429.8503,-45827.8,-42909.59,-8326.782
963315.649389688,-89423.26,-105375.66,16890.096,-4283.9355,-3428.3855,-45828.613,-42915.367,-8338.705
963315.6533896856,-89422.85,-105376.51,16889.69,-4292.5215,-3429.362,-45829.227,-42917.848,-8341.635
963315.6573896831,-89429.77,-105383.51,16894.207,-4292.2773,-3433.7974,-45829.59,-42914.348,-8335.124
963315.6613896806,-89433.31,-105387.21,16899.943,-4292.033,-3435.5063,-45830.16,-42912.598,-8328.817
963315.665389678,-89433.23,-105386.84,16895.467,-4295.41,-3431.0303,-45828.613,-42909.426,-8323.039
963315.6693896755,-89432.05,-105387.945,16894.166,-4292.2773,-3430.664,-45827.68,-42908.367,-8322.021
963315.673389673,-89427.984,-105383.586,16899.252,-4289.022,-3431.2744,-45827.8,-42908.977,-8320.435
963315.6773896705,-89427.66,-105380.29,16908.611,-4281.25,-3430.0537,-45826.254,-42905.56,-8310.791
963315.681389668,-89428.59,-105380.54,16910.115,-4281.413,-3430.1353,-45825.727,-42906.375,-8309.001
963315.6853896655,-89425.78,-105384.85,16905.64,-4292.684,-3433.065,-45828.086,-42912.438,-8315.512
963315.689389663,-89427.62,-105385.586,16903.85,-4290.6494,-3427.816,-45829.918,-42919.72,-8326.457
963315.6933896606,-89427.164,-105384.41,16896.078,-4294.0674,-3427.0427,-45832.887,-42925.78,-8337.402
963315.6973896581,-89420.33,-105373.62,16898.357,-4285.4414,-3427.816,-45835.004,-42933.105,-8342.489
963315.7013896556,-89417.97,-105373.414,16901.367,-4283.325,-3429.2808,-45834.188,-42933.516,-8343.994
963315.7053896531,-89434.29,-105385.46,16888.916,-4293.2944,-3434.5298,-45832.277,-42931.887,-8351.44
963315.7093896506,-89447.67,-105392.664,16880.209,-4299.0317,-3435.7097,-45831.504,-42934.125,-8359.335
963315.713389648,-89449.22,-105396.89,16880.25,-4304.891,-3432.4138,-45830.12,-42936.727,-8367.025
963315.7173896455,-89438.97,-105382.33,16893.678,-4288.493,-3425.0488,-45827.72,-42938.6,-8370.728
963315.721389643,-89429.164,-105371.26,16905.885,-4284.0986,-3421.0613,-45828.492,-42935.63,-8363.281
963315.7253896405,-89426.88,-105366.3,16907.674,-4288.9404,-3420.044,-45829.754,-42932.7,-8362.753
963315.729389638,-89435.1,-105373.58,16906.047,-4285.1157,-3423.3398,-45827.273,-42931.64,-8373.088
963315.7333896356,-89443.12,-105383.18,16903.523,-4292.033,-3424.3572,-45825.074,-42927.9,-8374.472
963315.7373896331,-89439.414,-105376.266,16904.785,-4284.709,-3423.0552,-45824.75,-42923.953,-8365.479
963315.7413896306,-89432.54,-105372.97,16903.035,-4285.3193,-3424.113,-45824.586,-42921.43,-8355.917
963315.7453896281,-89427.33,-105374.39,16898.764,-4293.4165,-3421.7124,-45822.797,-42917.727,-8346.518
963315.7493896256,-89429.57,-105375.25,16903.809,-4289.551,-3426.5137,-45824.465,-42913.047,-8334.636
963315.7533896231,-89426.44,-105371.18,16906.291,-4289.4287,-3430.2166,-45824.79,-42909.1,-8322.47
963315.7573896205,-89423.1,-105363.53,16909.709,-4287.557,-3426.3916,-45822.594,-42906.25,-8320.068
963315.761389618,-89425.74,-105365.08,16909.832,-4288.4116,-3425.171,-45821.617,-42903.85,-8311.035
963315.7653896156,-89430.914,-105369.914,16904.541,-4299.8047,-3429.6062,-45821.37,-42901.652,-8305.258
963315.7693896131,-89430.51,-105366.62,16902.914,-4294.8813,-3432.251,-45818.156,-42902.996,-8303.752
963315.7733896106,-89429.484,-105365.03,16903.117,-4287.191,-3430.1353,-45818.727,-42903.973,-8302.043
963315.7773896081,-89417.445,-105349.66,16909.22,-4275.594,-3418.6606,-45822.754,-42907.715,-8303.833
963315.7813896056,-89418.7,-105346.195,16908.285,-4273.8037,-3417.155,-45822.88,-42908.895,-8303.589
963315.7853896031,-89427.45,-105349.66,16897.705,-4284.5054,-3422.5261,-45823.0,-42909.87,-8307.292
963315.7893896006,-89436.32,-105359.664,16897.87,-4292.5215,-3426.1475,-45824.344,-42911.215,-8313.884
963315.7933895981,-89438.234,-105368.66,16898.846,-4297.3228,-3424.9675,-45825.36,-42914.836,-8326.05
963315.7973895957,-89432.945,-105365.03,16904.012,-4286.255,-3425.171,-45824.18,-42921.227,-8335.205
963315.801389593,-89429.37,-105360.68,16907.635,-4280.355,-3432.373,-45824.14,-42924.316,-8337.769
963315.8053895906,-89433.31,-105361.984,16900.473,-4282.6743,-3433.8787,-45825.523,-42924.766,-8344.6045
963315.8093895881,-89436.61,-105365.73,16898.64,-4279.826,-3427.8972,-45822.836,-42924.97,-8356.079
963315.8133895856,-89437.42,-105368.086,16897.87,-4287.5166,-3423.2178,-45821.617,-42920.492,-8351.4
963315.8173895831,-89427.53,-105354.9,16908.082,-4281.0874,-3414.795,-45820.19,-42918.336,-8346.762
963315.8213895806,-89422.445,-105350.79,16910.482,-4283.203,-3416.626,-45818.848,-42916.3,-8347.86
963315.8253895781,-89430.79,-105362.305,16896.932,-4299.6826,-3419.1082,-45816.082,-42910.93,-8342.041
963315.8293895756,-89436.81,-105367.64,16896.973,-4300.8223,-3418.6199,-45814.047,-42909.832,-8339.6
963315.8333895731,-89436.0,-105367.805,16900.146,-4298.503,-3421.7124,-45814.617,-42908.69,-8340.292
963315.8373895707,-89434.37,-105367.44,16904.623,-4287.3535,-3418.0095,-45815.066,-42907.594,-8334.799
963315.8413895682,-89430.016,-105361.21,16904.053,-4286.377,-3418.2944,-45815.51,-42904.5,-8320.557
963315.8453895656,-89433.19,-105360.805,16902.264,-4290.4053,-3418.5386,-45818.24,-42900.27,-8315.512
963315.8493895631,-89431.73,-105360.76,16912.639,-4283.6914,-3416.1785,-45819.05,-42899.414,-8309.164
963315.8533895606,-89434.37,-105361.82,16908.406,-4289.1846,-3416.9517,-45819.46,-42901.45,-8306.763
963315.8573895581,-89438.68,-105357.99,16910.93,-4280.355,-3414.1033,-45820.56,-42903.402,-8306.234
963315.8613895556,-89434.086,-105355.92,16916.139,-4281.7793,-3411.5398,-45819.01,-42900.88,-8299.887
963315.8653895531,-89433.15,-105361.984,16908.936,-4295.736,-3416.504,-45819.01,-42899.17,-8293.335
963315.8693895506,-89433.64,-105365.56,16904.256,-4289.144,-3417.3992,-45822.43,-42900.96,-8294.516
963315.8733895482,-89428.8,-105359.87,16900.35,-4283.2847,-3412.028,-45820.64,-42902.508,-8296.713
963315.8773895457,-89420.21,-105347.21,16918.254,-4273.4375,-3408.1218,-45818.24,-42902.71,-8295.532
963315.8813895432,-89418.945,-105344.81,16923.422,-4274.9434,-3408.3252,-45816.082,-42901.45,-8300.537
963315.8853895407,-89419.44,-105343.914,16915.365,-4290.2427,-3412.5977,-45815.88,-42904.01,-8311.728
963315.8893895381,-89428.266,-105355.35,16909.506,-4300.293,-3419.7593,-45815.188,-42907.555,-8320.557
963315.8933895356,-89437.09,-105366.74,16903.32,-4303.63,-3423.7468,-45814.82,-42909.305,-8325.521
963315.8973895331,-89431.805,-105360.27,16910.93,-4285.36,-3416.0972,-45813.723,-42911.543,-8329.0205
963315.9013895306,-89431.6,-105352.09,16913.86,-4279.297,-3408.081,-45817.02,-42914.473,-8332.764
963315.9053895281,-89437.3,-105354.45,16911.297,-4283.4883,-3410.1157,-45816.977,-42914.797,-8335.734
963315.9093895257,-89438.805,-105356.49,16909.547,-4277.629,-3409.1797,-45814.82,-42915.57,-8338.217
963315.9133895232,-89432.09,-105351.04,16911.785,-4284.0576,-3408.2847,-45815.105,-42916.016,-8340.17
963315.9173895207,-89423.18,-105341.27,16923.504,-4279.7446,-3403.8901,-45815.96,-42918.54,-8342.855
963315.9213895182,-89421.47,-105341.92,16921.102,-4282.0234,-3403.1577,-45815.066,-42921.715,-8349.447
963315.9253895157,-89426.555,-105351.08,16911.947,-4288.086,-3409.912,-45813.76,-42920.98,-8354.289
963315.9293895132,-89430.95,-105358.04,16917.033,-4281.9014,-3413.3708,-45813.52,-42917.684,-8346.924
963315.9333895106,-89424.73,-105355.516,16917.766,-4286.743,-3412.7197,-45815.473,-42914.145,-8337.851
963315.9373895081,-89408.86,-105337.37,16925.416,-4279.2563,-3406.0059,-45817.383,-42912.477,-8327.922
963315.9413895056,-89405.195,-105332.89,16920.41,-4280.233,-3403.9307,-45818.645,-42908.53,-8310.629
963315.9453895031,-89410.36,-105338.55,16906.658,-4291.423,-3405.1108,-45818.605,-42903.65,-8292.766
963315.9493895007,-89423.055,-105346.805,16908.488,-4286.9062,-3406.942,-45817.547,-42901.164,-8282.715
963315.9533894982,-89427.58,-105346.11,16902.832,-4290.039,-3407.7556,-45815.918,-42898.03,-8279.175
963315.9573894957,-89413.49,-105326.17,16911.824,-4279.419,-3400.8384,-45813.438,-42894.53,-8270.63
963315.9613894932,-89408.66,-105315.72,16924.969,-4272.6646,-3394.7754,-45813.926,-42892.945,-8270.102
963315.9653894907,-89418.22,-105322.35,16924.725,-4282.7964,-3395.1416,-45811.523,-42892.5,-8270.02
963315.9693894882,-89420.984,-105328.62,16930.217,-4282.5117,-3395.752,-45814.414,-42899.336,-8285.36
963315.9733894857,-89414.31,-105330.24,16934.814,-4288.6963,-3398.5596,-45816.203,-42901.082,-8289.755
963315.9773894831,-89408.45,-105331.875,16937.5,-4285.97,-3398.3154,-45816.203,-42904.094,-8291.748
963315.9813894806,-89407.96,-105329.1,16943.686,-4281.2095,-3394.7754,-45814.58,-42907.555,-8301.758
963315.9853894782,-89411.09,-105334.68,16941.082,-4284.302,-3394.979,-45813.965,-42907.43,-8306.926
963315.9893894757,-89412.31,-105335.734,16942.262,-4279.8667,-3396.7285,-45813.438,-42906.17,-8301.636
963315.9933894732,-89412.4,-105327.27,16940.553,-4275.1465,-3388.916,-45813.965,-42908.613,-8308.92
963315.9973894707,-89409.06,-105314.375,16942.912,-4263.021,-3381.9175,-45814.617,-42909.59,-8312.378
963316.0013894682,-89405.36,-105311.77,16939.412,-4262.777,-3383.667,-45814.82,-42909.14,-8309.814
963316.0053894657,-89410.12,-105319.055,16930.176,-4281.372,-3389.2417,-45812.746,-42907.555,-8310.791
963316.0093894632,-89411.664,-105323.445,16933.432,-4285.238,-3393.392,-45811.117,-42908.855,-8314.453
963316.0133894607,-89412.44,-105324.47,16937.215,-4284.302,-3392.4155,-45813.03,-42912.68,-8316.081
963316.0173894583,-89412.805,-105324.75,16950.684,-4273.4375,-3389.5264,-45810.996,-42911.297,-8309.652
963316.0213894557,-89415.53,-105326.22,16957.684,-4269.735,-3389.9333,-45809.938,-42909.223,-8308.269
963316.0253894532,-89417.65,-105330.85,16954.266,-4275.3096,-3394.857,-45809.492,-42906.047,-8306.234
963316.0293894507,-89416.55,-105328.695,16958.172,-4270.9556,-3390.503,-45809.652,-42906.414,-8306.112
963316.0333894482,-89407.23,-105319.74,16956.38,-4269.7754,-3385.783,-45809.33,-42907.51,-8308.1875
963316.0373894457,-89400.92,-105313.52,16957.723,-4263.2246,-3380.1677,-45808.066,-42904.258,-8302.979
963316.0413894432,-89404.586,-105313.36,16952.922,-4266.5205,-3375.814,-45807.375,-42902.184,-8295.939
963316.0453894407,-89411.586,-105316.164,16940.838,-4280.3955,-3380.9814,-45805.176,-42897.176,-8287.313
963316.0493894382,-89418.91,-105323.41,16936.89,-4281.9014,-3387.1257,-45802.33,-42893.35,-8279.704
963316.0533894358,-89421.266,-105326.99,16940.877,-4284.6274,-3388.916,-45800.254,-42893.72,-8282.919
963316.0573894333,-89422.85,-105331.46,16952.352,-4273.967,-3387.329,-45801.11,-42894.41,-8286.093
963316.0613894308,-89415.94,-105323.445,16965.17,-4273.1123,-3381.5918,-45800.54,-42894.043,-8289.917
963316.0653894282,-89409.875,-105316.086,16958.008,-4289.1035,-3381.2664,-45800.17,-42894.33,-8295.451
963316.0693894257,-89415.41,-105317.63,16953.613,-4287.1094,-3383.6265,-45798.26,-42894.29,-8294.76
963316.0733894232,-89418.99,-105315.27,16951.62,-4279.2563,-3379.5574,-45799.4,-42894.246,-8292.603
963316.0773894207,-89424.4,-105315.23,16955.037,-4272.949,-3376.0986,-45799.93,-42893.027,-8285.156
963316.0813894182,-89435.266,-105326.3,16951.863,-4272.258,-3379.069,-45799.316,-42891.766,-8278.564
963316.0853894157,-89427.9,-105323.125,16945.68,-4278.8496,-3381.1035,-45801.434,-42893.758,-8278.442
963316.0893894132,-89425.414,-105321.54,16943.156,-4278.8086,-3377.116,-45802.168,-42893.555,-8278.483
963316.0933894108,-89426.84,-105320.4,16940.023,-4282.0234,-3377.0752,-45800.05,-42892.375,-8286.865
963316.0973894083,-89420.375,-105313.195,16950.521,-4268.3516,-3376.4648,-45797.566,-42891.4,-8292.685
963316.1013894058,-89420.74,-105312.99,16959.758,-4264.8115,-3375.3257,-45793.945,-42886.56,-8289.348
963316.1053894033,-89428.19,-105317.47,16951.05,-4283.0,-3373.6167,-45792.684,-42885.867,-8289.673
963316.1093894007,-89429.89,-105320.56,16946.736,-4285.4414,-3370.9312,-45793.336,-42886.434,-8288.94
963316.1133893982,-89435.8,-105324.14,16942.791,-4290.5684,-3371.0125,-45794.395,-42885.945,-8285.156
963316.1173893957,-89435.18,-105325.93,16959.352,-4277.0996,-3371.2158,-45793.336,-42884.766,-8279.867
963316.1213893932,-89435.59,-105328.05,16964.031,-4271.7695,-3372.4365,-45792.48,-42883.992,-8271.851
963316.1253893907,-89437.22,-105331.83,16954.875,-4284.5054,-3373.0469,-45792.848,-42882.367,-8263.55
963316.1293893883,-89439.336,-105332.234,16953.248,-4286.4585,-3369.9138,-45791.707,-42879.723,-8262.289
963316.1333893858,-89438.56,-105329.47,16950.033,-4280.6807,-3363.444,-45790.45,-42878.176,-8267.863
963316.1373893833,-89434.49,-105323.445,16954.346,-4267.741,-3359.5378,-45786.867,-42878.38,-8268.2705
963316.1413893808,-89434.49,-105320.88,16945.842,-4272.217,-3362.1013,-45786.867,-42876.793,-8266.643
963316.1453893783,-89437.13,-105321.01,16938.232,-4284.546,-3366.4958,-45786.582,-42873.945,-8261.679
963316.1493893758,-89441.49,-105324.55,16931.396,-4291.0566,-3367.147,-45783.773,-42873.984,-8260.742
963316.1533893732,-89443.484,-105327.44,16925.863,-4296.3057,-3367.5537,-45783.816,-42876.668,-8268.596
963316.1573893707,-89443.41,-105328.78,16938.03,-4277.9136,-3360.433,-45784.547,-42878.46,-8268.393
963316.1613893682,-89440.35,-105324.266,16943.074,-4272.4204,-3357.951,-45784.668,-42877.688,-8266.928
963316.1653893657,-89439.66,-105321.82,16940.756,-4281.169,-3366.2517,-45783.855,-42875.816,-8269.897
963316.1693893633,-89438.68,-105320.766,16948.568,-4282.5522,-3368.8152,-45784.344,-42876.06,-8270.264
963316.1733893608,-89434.45,-105319.38,16954.713,-4283.9355,-3367.391,-45785.484,-42872.887,-8269.653
963316.1773893583,-89434.25,-105316.9,16960.49,-4270.7114,-3365.2751,-45783.734,-42873.047,-8266.276
963316.1813893558,-89432.984,-105315.8,16957.154,-4267.6597,-3361.6538,-45783.246,-42871.625,-8273.071
963316.1853893533,-89433.72,-105317.43,16950.725,-4284.709,-3365.8855,-45784.793,-42871.055,-8272.461
963316.1893893508,-89434.29,-105317.875,16956.219,-4283.529,-3362.915,-45783.613,-42872.684,-8276.042
963316.1933893483,-89433.11,-105314.21,16964.031,-4281.3315,-3357.7068,-45784.508,-42874.105,-8276.042
963316.1973893457,-89429.08,-105311.77,16973.633,-4269.4907,-3353.353,-45785.36,-42876.875,-8273.642
963316.2013893432,-89425.414,-105307.58,16978.557,-4267.7,-3354.248,-45784.87,-42880.168,-8272.177
963316.2053893408,-89426.35,-105305.95,16975.668,-4273.763,-3357.3813,-45785.523,-42881.39,-8272.99
963316.2093893383,-89428.14,-105308.555,16977.05,-4271.81,-3361.898,-45787.07,-42884.156,-8278.483
963316.2133893358,-89427.086,-105306.93,16976.482,-4273.7227,-3360.3516,-45788.332,-42886.23,-8276.53
963316.2173893333,-89425.336,-105303.875,16982.586,-4266.195,-3355.3875,-45787.03,-42886.92,-8275.065
963316.2213893308,-89434.9,-105308.92,16979.656,-4276.4893,-3354.1667,-45786.46,-42886.72,-8278.646
963316.2253893283,-89446.336,-105319.664,16971.355,-4289.1846,-3359.8633,-45786.95,-42887.82,-8283.447
963316.2293893258,-89444.99,-105324.625,16970.703,-4284.1797,-3360.3516,-45786.176,-42889.65,-8286.174
963316.2333893233,-89429.81,-105316.125,16977.947,-4277.832,-3360.7585,-45785.89,-42890.22,-8286.784
963316.2373893209,-89422.65,-105305.09,16982.545,-4260.01,-3355.5095,-45784.06,-42891.316,-8285.36
963316.2413893183,-89421.39,-105301.4,16976.848,-4261.1494,-3354.3296,-45784.426,-42891.684,-8292.114
963316.2453893158,-89425.91,-105306.64,16969.197,-4276.164,-3360.4736,-45784.223,-42888.31,-8297.689
963316.2493893133,-89420.74,-105311.69,16971.803,-4282.2266,-3366.2925,-45787.19,-42894.777,-8304.118
963316.2533893108,-89419.84,-105319.38,16968.385,-4285.238,-3366.9434,-45789.633,-42897.83,-8307.251
963316.2573893083,-89425.13,-105326.625,16976.889,-4271.322,-3363.5254,-45788.21,-42897.664,-8310.1
963316.2613893058,-89425.984,-105331.625,16977.254,-4268.4326,-3363.322,-45787.965,-42895.836,-8309.814
963316.2653893033,-89427.984,-105336.1,16965.373,-4279.175,-3363.2,-45786.906,-42891.24,-8308.635
963316.2693893008,-89421.1,-105323.734,16964.64,-4273.3154,-3362.5896,-45786.703,-42888.348,-8302.856
963316.2733892984,-89416.99,-105321.984,16966.676,-4271.444,-3362.3455,-45786.258,-42883.75,-8296.387
963316.2773892959,-89419.84,-105329.15,16974.854,-4261.2305,-3362.915,-45783.406,-42876.02,-8285.278
963316.2813892934,-89409.914,-105322.15,16983.033,-4256.714,-3361.776,-45782.918,-42873.58,-8274.984
963316.2853892908,-89395.35,-105310.55,16980.104,-4263.1836,-3361.2468,-45784.75,-42876.305,-8274.78
963316.2893892883,-89398.28,-105314.54,16978.76,-4268.2295,-3359.253,-45784.87,-42877.523,-8274.984
963316.2933892858,-89403.12,-105319.5,16975.262,-4268.27,-3359.4565,-45785.24,-42880.25,-8274.252
963316.2973892833,-89406.09,-105320.48,16976.482,-4254.3135,-3356.1199,-45785.523,-42881.43,-8269.9795
963316.3013892808,-89406.5,-105324.67,16973.592,-4257.65,-3359.5786,-45785.2,-42881.676,-8267.578
963316.3053892783,-89402.02,-105326.375,16972.168,-4266.1133,-3363.2,-45785.81,-42886.8,-8277.466
963316.3093892758,-89401.29,-105322.92,16969.402,-4263.1836,-3361.2468,-45785.523,-42892.945,-8287.68
963316.3133892734,-89407.43,-105323.086,16965.78,-4263.672,-3360.6772,-45784.59,-42893.72,-8287.72
963316.3173892709,-89409.51,-105322.31,16976.97,-4248.7793,-3356.1199,-45783.57,-42896.85,-8296.591
963316.3213892684,-89404.34,-105317.266,16983.562,-4241.4146,-3354.3296,-45783.613,-42900.72,-8300.537
963316.3253892659,-89410.484,-105326.74,16979.94,-4258.138,-3360.5552,-45782.15,-42902.875,-8302.694
963316.3293892633,-89418.09,-105337.24,16980.55,-4262.9805,-3361.491,-45784.06,-42909.383,-8318.848
963316.3333892608,-89413.62,-105331.99,16975.83,-4270.1826,-3360.962,-45787.68,-42916.22,-8330.2
963316.3373892583,-89415.33,-105333.414,16980.633,-4258.3823,-3360.2295,-45786.99,-42916.953,-8329.428
963316.3413892558,-89417.28,-105341.96,16991.902,-4251.384,-3358.724,-45783.53,-42911.664,-8324.789
963316.3453892533,-89414.76,-105343.305,16981.975,-4264.4043,-3362.9966,-45782.15,-42905.56,-8323.608
963316.3493892509,-89420.21,-105348.02,16969.93,-4263.021,-3364.5835,-45779.42,-42900.188,-8324.463
963316.3533892484,-89417.16,-105333.83,16965.252,-4262.5327,-3361.206,-45779.38,-42898.926,-8334.555
963316.3573892459,-89410.69,-105322.02,16964.885,-4254.72,-3357.5847,-45780.152,-42898.64,-8336.874
963316.3613892434,-89423.055,-105332.89,16965.7,-4258.301,-3360.311,-45777.305,-42893.15,-8327.597
963316.3653892409,-89436.2,-105345.83,16954.346,-4276.6113,-3364.746,-45779.094,-42891.074,-8317.139
963316.3693892384,-89432.74,-105349.61,16960.775,-4275.3096,-3365.3564,-45780.805,-42892.293,-8314.575
963316.3733892358,-89424.234,-105339.195,16970.135,-4269.6943,-3361.776,-45781.293,-42890.26,-8304.892
963316.3773892333,-89416.1,-105329.63,16977.174,-4253.6216,-3353.9226,-45782.188,-42890.098,-8293.295
963316.3813892308,-89408.734,-105322.92,16981.527,-4247.518,-3347.1274,-45782.43,-42890.3,-8281.982
963316.3853892284,-89409.47,-105318.61,16979.412,-4260.62,-3350.5046,-45784.71,-42890.06,-8283.366
963316.3893892259,-89419.03,-105326.17,16971.191,-4268.026,-3357.0151,-45784.59,-42891.684,-8281.901
963316.3933892234,-89421.67,-105329.15,16962.402,-4278.402,-3360.7178,-45785.93,-42892.99,-8280.273
963316.3973892209,-89412.4,-105323.734,16977.58,-4260.417,-3353.8413,-45786.336,-42894.246,-8274.292
963316.4013892184,-89406.09,-105316.61,16985.596,-4252.401,-3350.4233,-45784.793,-42894.53,-8266.643
963316.4053892159,-89402.95,-105310.875,16981.08,-4259.8877,-3347.5342,-45782.51,-42894.94,-8267.904
963316.4093892134,-89396.445,-105302.78,16980.428,-4261.068,-3344.2383,-45787.395,-42904.543,-8290.365
963316.4133892109,-89397.14,-105303.1,16981.69,-4262.085,-3344.8486,-45790.855,-42911.62,-8298.991
963316.4173892083,-89406.01,-105307.78,16979.736,-4251.994,-3345.988,-45791.18,-42913.656,-8297.038
963316.4213892058,-89412.16,-105311.04,16973.512,-4253.3774,-3349.3652,-45789.39,-42917.766,-8306.804
963316.4253892034,-89411.79,-105318.16,16970.135,-4262.655,-3353.5156,-45790.57,-42918.336,-8312.907
963316.4293892009,-89409.63,-105313.27,16977.174,-4260.173,-3354.9805,-45790.977,-42921.797,-8317.261
963316.4333891984,-89406.62,-105309.33,16984.09,-4254.72,-3349.284,-45789.633,-42923.91,-8320.72
963316.4373891959,-89406.54,-105311.37,16985.516,-4242.025,-3343.0583,-45789.43,-42921.31,-8315.512
963316.4413891934,-89409.06,-105313.56,16981.854,-4244.629,-3343.872,-45788.086,-42919.598,-8315.268
963316.4453891909,-89408.86,-105315.516,16971.111,-4256.836,-3348.877,-45787.64,-42919.883,-8320.964
963316.4493891884,-89410.16,-105317.79,16966.797,-4269.165,-3352.8647,-45787.723,-42920.492,-8324.057
963316.453389186,-89410.484,-105318.36,16968.873,-4270.4673,-3352.4578,-45788.13,-42921.797,-8328.898
963316.4573891835,-89410.98,-105320.97,16984.295,-4246.623,-3343.7908,-45785.36,-42917.605,-8322.714
963316.4613891809,-89413.21,-105327.07,16988.69,-4242.839,-3343.7908,-45786.906,-42915.082,-8321.981
963316.4653891784,-89415.24,-105331.79,16985.352,-4259.359,-3352.8647,-45785.77,-42911.785,-8319.174
963316.4693891759,-89415.94,-105330.164,16981.771,-4261.556,-3350.3013,-45785.2,-42905.355,-8305.217
963316.4733891734,-89416.75,-105327.516,16979.98,-4261.2715,-3344.4011,-45784.547,-42897.383,-8292.399
963316.4773891709,-89413.82,-105321.05,16993.084,-4250.814,-3345.988,-45781.82,-42888.754,-8276.611
963316.4813891684,-89410.56,-105317.02,16991.943,-4257.202,-3349.4873,-45781.902,-42882.246,-8262.289
963316.4853891659,-89409.914,-105319.18,16982.137,-4265.422,-3351.0742,-45783.285,-42877.08,-8253.581
963316.4893891634,-89410.445,-105319.09,16973.145,-4265.3403,-3353.6785,-45786.01,-42878.664,-8250.57
963316.493389161,-89412.6,-105322.39,16971.477,-4260.0913,-3348.5107,-45785.2,-42881.43,-8252.238
963316.4973891585,-89411.91,-105317.47,16983.44,-4242.839,-3340.3728,-45782.15,-42882.45,-8254.15
963316.501389156,-89412.68,-105316.9,16990.398,-4243.408,-3344.9707,-45780.723,-42883.14,-8256.226
963316.5053891534,-89419.92,-105322.31,16984.172,-4261.068,-3356.4048,-45781.293,-42884.48,-8258.545
963316.5093891509,-89429.41,-105329.35,16975.139,-4274.862,-3361.0027,-45783.125,-42890.06,-8260.458
963316.5133891484,-89428.96,-105330.85,16973.674,-4275.879,-3355.6724,-45784.953,-42894.777,-8266.195
963316.5173891459,-89424.69,-105323.33,16989.217,-4255.2085,-3351.3591,-45786.336,-42897.22,-8271.647
963316.5213891434,-89421.02,-105318.69,16996.176,-4249.5933,-3351.9695,-45785.117,-42899.09,-8272.665
963316.5253891409,-89421.8,-105320.07,16989.87,-4260.132,-3355.9978,-45783.734,-42899.09,-8278.442
963316.5293891384,-89423.34,-105320.4,16986.207,-4260.7017,-3354.9805,-45784.996,-42902.875,-8286.825
963316.533389136,-89426.88,-105323.86,16986.37,-4269.084,-3351.8882,-45783.613,-42905.965,-8293.823
963316.5373891335,-89433.59,-105333.01,16995.646,-4263.0615,-3346.6392,-45781.496,-42909.59,-8298.178
963316.541389131,-89435.47,-105336.19,16994.549,-4254.354,-3345.988,-45785.645,-42913.902,-8307.495
963316.5453891285,-89433.96,-105337.57,16983.928,-4269.0024,-3347.819,-45788.25,-42917.727,-8316.122
963316.5493891259,-89435.1,-105334.516,16974.936,-4268.636,-3341.8376,-45786.62,-42915.527,-8318.237
963316.5533891234,-89437.38,-105330.65,16973.959,-4266.2764,-3345.1743,-45785.36,-42913.29,-8322.185
963316.5573891209,-89434.62,-105325.08,16984.986,-4251.994,-3341.5935,-45783.938,-42910.08,-8320.068
963316.5613891184,-89433.84,-105328.25,16986.004,-4257.365,-3345.0115,-45783.613,-42903.32,-8310.507
963316.565389116,-89438.68,-105338.055,16976.562,-4278.9717,-3348.0225,-45784.75,-42897.992,-8305.095
963316.5693891135,-89436.32,-105337.69,16972.576,-4279.1343,-3350.2197,-45782.43,-42890.668,-8291.22
963316.573389111,-89427.164,-105331.42,16984.375,-4271.688,-3347.6157,-45778.035,-42885.703,-8283.773
963316.5773891085,-89412.44,-105312.38,17005.656,-4252.9707,-3342.7734,-45778.08,-42882.246,-8276.855
963316.581389106,-89407.11,-105302.78,17009.236,-4250.4478,-3340.332,-45778.73,-42877.08,-8262.085
963316.5853891035,-89417.445,-105310.836,16990.193,-4265.3403,-3354.533,-45777.547,-42872.887,-8250.977
963316.589389101,-89424.805,-105314.7,16976.889,-4271.037,-3353.5156,-45779.46,-42876.63,-8252.238
963316.5933890984,-89428.8,-105318.69,16970.459,-4280.111,-3354.4922,-45780.684,-42881.918,-8255.493
963316.5973890959,-89418.83,-105312.7,16979.168,-4262.8584,-3350.3418,-45780.844,-42885.824,-8258.627
963316.6013890934,-89411.91,-105309.086,16989.99,-4249.3896,-3344.808,-45782.15,-42887.535,-8257.202
963316.605389091,-89413.91,-105308.88,16983.602,-4268.27,-3347.3716,-45785.24,-42889.363,-8261.068
963316.6093890885,-89420.49,-105311.37,16977.824,-4272.746,-3349.7722,-45783.816,-42894.246,-8269.897
963316.613389086,-89417.04,-105304.33,16984.822,-4264.7705,-3348.2666,-45784.383,-42899.375,-8277.466
963316.6173890835,-89413.62,-105301.6,16998.21,-4249.5117,-3341.7563,-45783.246,-42902.59,-8282.431
963316.621389081,-89415.57,-105304.81,16996.623,-4247.518,-3340.739,-45782.555,-42904.42,-8288.046
963316.6253890785,-89414.72,-105301.35,16992.146,-4260.051,-3343.6687,-45786.01,-42906.863,-8295.004
963316.629389076,-89418.375,-105305.14,16989.34,-4276.4893,-3344.0757,-45786.176,-42909.953,-8300.415
963316.6333890735,-89424.16,-105312.016,16987.957,-4274.862,-3343.1396,-45786.46,-42913.86,-8307.455
963316.6373890709,-89420.74,-105308.35,17000.896,-4245.7275,-3339.9658,-45786.258,-42917.035,-8311.239
963316.6413890684,-89411.74,-105300.83,17005.9,-4241.008,-3340.4136,-45786.176,-42918.17,-8312.622
963316.645389066,-89405.195,-105290.0,16995.89,-4257.08,-3339.2742,-45785.566,-42918.457,-8316.081
963316.6493890635,-89415.086,-105298.1,16985.596,-4268.4326,-3341.6343,-45785.28,-42919.19,-8329.428
963316.653389061,-89422.77,-105303.555,16983.154,-4273.763,-3337.85,-45786.824,-42921.47,-8334.636
963316.6573890585,-89412.97,-105296.47,16995.361,-4254.598,-3331.2583,-45788.414,-42922.527,-8334.188
963316.661389056,-89410.445,-105298.22,17001.465,-4247.518,-3332.4382,-45785.24,-42916.832,-8327.393
963316.6653890535,-89404.7,-105293.74,16995.564,-4258.301,-3335.775,-45787.926,-42911.95,-8317.017
963316.669389051,-89398.84,-105288.78,16994.06,-4253.1333,-3335.2458,-45789.96,-42909.06,-8308.594
963316.6733890485,-89409.305,-105293.99,16994.752,-4252.889,-3331.3396,-45785.973,-42901.29,-8299.276
963316.6773890461,-89413.54,-105292.32,17004.518,-4241.8213,-3327.7996,-45783.33,-42894.453,-8286.703
963316.6813890435,-89406.17,-105291.1,17010.418,-4242.8794,-3330.119,-45783.57,-42890.586,-8271.77
963316.685389041,-89400.02,-105290.41,16997.844,-4263.3467,-3330.119,-45783.773,-42885.99,-8256.958
963316.6893890385,-89399.5,-105288.29,16994.793,-4263.387,-3326.9043,-45785.156,-42886.273,-8253.256
963316.693389036,-89403.24,-105285.2,16998.902,-4257.6094,-3331.2175,-45786.746,-42886.883,-8252.401
963316.6973890335,-89411.99,-105289.15,17013.104,-4242.4316,-3331.5837,-45784.305,-42889.65,-8253.825
963316.701389031,-89412.805,-105298.1,17019.49,-4235.4736,-3321.818,-45784.18,-42890.06,-8255.371
963316.7053890285,-89410.61,-105297.445,17014.607,-4247.762,-3326.7822,-45784.06,-42889.363,-8252.482
963316.709389026,-89404.46,-105286.75,17012.695,-4255.046,-3325.4395,-45785.77,-42897.098,-8254.436
963316.7133890236,-89397.87,-105276.25,17016.113,-4257.1616,-3323.0388,-45787.723,-42906.58,-8265.056
963316.7173890211,-89395.96,-105273.28,17017.213,-4251.5464,-3323.3643,-45788.414,-42912.56,-8271.037
963316.7213890186,-89401.57,-105277.19,17015.34,-4249.675,-3324.992,-45788.574,-42914.918,-8276.855
963316.725389016,-89408.86,-105279.79,17003.826,-4257.406,-3331.3804,-45785.688,-42912.76,-8282.553
963316.7293890135,-89406.78,-105276.01,16996.95,-4257.8535,-3327.2705,-45784.18,-42910.81,-8282.268
963316.733389011,-89394.66,-105263.92,17005.86,-4250.936,-3319.1733,-45784.18,-42906.984,-8280.111
963316.7373890085,-89396.0,-105262.25,17014.852,-4233.2764,-3314.2905,-45780.6,-42899.414,-8269.857
963316.741389006,-89397.09,-105260.87,17017.13,-4236.369,-3316.732,-45778.688,-42894.492,-8269.287
963316.7453890035,-89398.64,-105259.04,17012.29,-4252.279,-3323.8933,-45778.77,-42895.305,-8282.309
963316.749389001,-89404.95,-105275.35,17002.482,-4261.556,-3334.3914,-45780.273,-42896.242,-8287.476
963316.7533889986,-89406.01,-105281.54,17007.365,-4257.4463,-3331.0955,-45780.152,-42895.754,-8289.185
963316.7573889961,-89403.65,-105277.14,17027.791,-4241.699,-3327.8809,-45778.363,-42889.16,-8277.873
963316.7613889936,-89395.555,-105268.72,17039.959,-4238.037,-3318.9292,-45777.67,-42883.63,-8263.916
963316.7653889911,-89388.39,-105263.72,17033.65,-4251.5464,-3320.3533,-45776.9,-42877.523,-8249.756
963316.7693889885,-89390.99,-105267.984,17022.096,-4256.877,-3319.9463,-45775.555,-42871.258,-8236.288
963316.773388986,-89399.17,-105271.57,17010.945,-4258.586,-3320.1904,-45777.754,-42869.14,-8228.923
963316.7773889835,-89399.13,-105269.734,17019.979,-4243.1235,-3314.616,-45776.816,-42865.6,-8215.007
963316.781388981,-89400.39,-105271.445,17025.758,-4241.699,-3307.1697,-45774.7,-42859.785,-8201.254
963316.7853889785,-89400.44,-105266.93,17012.29,-4255.046,-3308.2683,-45773.848,-42858.645,-8199.301
963316.7893889761,-89403.24,-105269.25,17006.55,-4258.9927,-3310.3027,-45774.008,-42867.027,-8215.78
963316.7933889736,-89414.35,-105277.51,17011.76,-4251.953,-3309.1636,-45774.17,-42874.31,-8223.308
963316.7973889711,-89420.66,-105279.09,17024.008,-4233.4395,-3308.1055,-45776.246,-42885.945,-8233.5205
963316.8013889686,-89412.516,-105268.07,17034.75,-4233.6836,-3299.7642,-45779.625,-42896.895,-8247.641
963316.8053889661,-89406.5,-105262.125,17027.873,-4254.354,-3298.9097,-45782.15,-42899.984,-8250.8955
963316.8093889636,-89417.69,-105276.05,17015.748,-4261.2715,-3302.8972,-45782.715,-42903.402,-8255.859
963316.813388961,-89427.01,-105288.375,17017.213,-4258.586,-3303.0193,-45783.53,-42908.203,-8264.486
963316.8173889585,-89415.125,-105279.14,17024.17,-4240.072,-3295.573,-45782.35,-42911.746,-8262.126
963316.821388956,-89406.984,-105265.83,17023.357,-4231.7305,-3289.5508,-45782.31,-42916.426,-8263.51
963316.8253889536,-89408.9,-105266.89,17016.766,-4241.2925,-3294.6777,-45782.27,-42918.5,-8274.008
963316.8293889511,-89420.125,-105277.47,17006.268,-4250.163,-3296.5496,-45778.85,-42914.594,-8276.083
963316.8333889486,-89427.58,-105287.11,17003.053,-4252.8076,-3299.9268,-45775.15,-42909.14,-8272.339
963316.8373889461,-89423.1,-105285.0,17015.545,-4238.9326,-3299.0317,-45774.984,-42906.09,-8273.315
963316.8413889436,-89422.125,-105286.3,17016.602,-4243.7744,-3307.536,-45774.336,-42901.29,-8271.403
963316.8453889411,-89418.7,-105287.766,17008.992,-4254.0283,-3308.8787,-45775.027,-42895.55,-8263.428
963316.8493889386,-89415.77,-105288.336,17011.19,-4252.1973,-3308.1055,-45773.97,-42891.6,-8262.004
963316.8533889361,-89417.65,-105283.53,17013.795,-4248.9014,-3302.0835,-45772.504,-42887.207,-8257.365
963316.8573889335,-89408.9,-105267.42,17020.955,-4230.591,-3293.7827,-45772.91,-42886.027,-8250.732
963316.861388931,-89406.945,-105266.195,17024.21,-4226.4814,-3293.742,-45773.805,-42882.527,-8238.525
963316.8653889286,-89408.05,-105270.15,17021.525,-4241.699,-3298.1772,-45774.375,-42878.34,-8227.824
963316.8693889261,-89403.24,-105267.09,17020.06,-4246.623,-3297.8923,-45774.902,-42876.75,-8224.04
963316.8733889236,-89409.95,-105274.17,17015.096,-4247.03,-3301.1882,-45774.945,-42878.582,-8221.477
963316.8773889211,-89416.586,-105276.05,17019.695,-4233.1953,-3298.9097,-45772.83,-42876.387,-8218.018
963316.8813889186,-89411.87,-105276.21,17026.205,-4226.766,-3296.4683,-45771.77,-42877.523,-8209.188
963316.8853889161,-89404.99,-105272.51,17021.648,-4241.089,-3298.0552,-45773.074,-42877.24,-8201.254
963316.8893889136,-89405.88,-105274.3,17009.604,-4252.0347,-3301.107,-45773.36,-42877.93,-8210.205
963316.8933889112,-89415.37,-105285.52,17006.55,-4256.6733,-3299.8047,-45773.48,-42879.438,-8214.641
963316.8973889087,-89414.47,-105283.164,17018.596,-4231.8115,-3294.4336,-45772.46,-42881.31,-8206.991
963316.9013889061,-89409.63,-105277.55,17021.932,-4223.1445,-3289.8357,-45774.008,-42887.207,-8216.024
963316.9053889036,-89409.55,-105285.2,17012.86,-4239.5835,-3295.4102,-45774.945,-42891.156,-8229.492
963316.9093889011,-89414.555,-105295.17,17010.01,-4250.407,-3298.2993,-45774.293,-42896.28,-8236.166
963316.9133888986,-89415.04,-105297.65,17010.377,-4243.5303,-3299.398,-45773.152,-42900.72,-8242.798
963316.9173888961,-89410.89,-105290.9,17017.172,-4227.7427,-3294.9219,-45769.98,-42899.293,-8249.553
963316.9213888936,-89411.46,-105293.26,17015.951,-4225.3013,-3297.6482,-45766.97,-42899.414,-8256.714
963316.9253888911,-89420.82,-105302.734,16997.926,-4245.9717,-3302.8972,-45766.035,-42901.29,-8260.254
963316.9293888886,-89429.57,-105311.77,16986.531,-4257.9756,-3306.9663,-45763.184,-42894.37,-8249.553
963316.9333888862,-89425.74,-105309.94,16989.178,-4250.122,-3304.769,-45762.004,-42889.363,-8244.833
963316.9373888837,-89423.95,-105305.83,17000.0,-4228.9634,-3293.8232,-45761.273,-42882.734,-8240.927
963316.9413888812,-89426.234,-105305.42,17009.197,-4223.5923,-3289.4695,-45759.117,-42874.31,-8229.533
963316.9453888786,-89423.016,-105303.59,17006.592,-4239.177,-3290.6494,-45758.914,-42868.492,-8223.145
963316.9493888761,-89425.3,-105305.83,17005.78,-4248.9014,-3292.8875,-45759.848,-42864.42,-8218.222
963316.9533888736,-89432.01,-105310.63,17009.033,-4247.2334,-3294.8406,-45759.035,-42861.33,-8211.752
963316.9573888711,-89440.88,-105310.836,17010.418,-4235.9214,-3293.335,-45757.12,-42857.137,-8207.153
963316.9613888686,-89449.016,-105319.46,17005.697,-4237.02,-3299.8047,-45757.367,-42859.133,-8205.7295
963316.9653888661,-89432.62,-105317.43,17008.627,-4244.873,-3302.1648,-45758.992,-42862.836,-8205.648
963316.9693888637,-89418.54,-105315.02,17010.418,-4246.867,-3300.9033,-45760.254,-42864.42,-8204.834
963316.9733888612,-89423.305,-105315.31,17009.318,-4239.8276,-3298.0957,-45758.832,-42861.37,-8199.707
963316.9773888587,-89421.15,-105308.234,17024.293,-4217.0005,-3291.87,-45759.32,-42856.324,-8193.115
963316.9813888562,-89412.03,-105304.94,17030.885,-4211.5073,-3289.9985,-45759.523,-42853.64,-8188.2734
963316.9853888537,-89416.95,-105310.34,17023.846,-4227.051,-3292.8062,-45759.562,-42853.11,-8187.9478
963316.9893888511,-89422.98,-105315.92,17017.701,-4241.4146,-3295.044,-45759.93,-42854.86,-8189.3315
963316.9933888486,-89419.4,-105311.73,17022.87,-4239.909,-3296.5088,-45761.8,-42866.7,-8190.6743
963316.9973888461,-89416.95,-105305.055,17043.416,-4217.082,-3288.0454,-45762.086,-42872.48,-8192.831
963317.0013888436,-89416.06,-105301.805,17050.537,-4211.833,-3286.784,-45762.29,-42872.273,-8196.208
963317.0053888411,-89419.234,-105307.87,17032.715,-4233.48,-3295.166,-45762.37,-42870.16,-8200.358
963317.0093888387,-89433.35,-105324.266,17015.422,-4252.4414,-3298.869,-45761.395,-42869.957,-8204.184
963317.0133888362,-89438.32,-105331.75,17014.527,-4249.8374,-3294.5557,-45760.785,-42873.17,-8211.752
963317.0173888337,-89439.945,-105331.51,17021.12,-4230.7944,-3293.579,-45760.945,-42875.652,-8220.622
963317.0213888312,-89437.5,-105329.39,17024.617,-4221.5576,-3288.4116,-45758.992,-42874.27,-8223.877
963317.0253888287,-89444.42,-105336.305,17013.184,-4237.5083,-3291.5854,-45757.0,-42872.355,-8224.447
963317.0293888262,-89457.03,-105348.68,17005.371,-4254.6387,-3298.4214,-45758.586,-42873.414,-8225.668
963317.0333888236,-89458.336,-105347.25,17011.271,-4244.751,-3300.2524,-45759.32,-42873.984,-8222.29
963317.0373888211,-89451.016,-105339.52,17030.762,-4221.273,-3294.5151,-45757.61,-42873.414,-8228.027
963317.0413888186,-89443.56,-105332.44,17036.744,-4222.575,-3291.3413,-45755.94,-42869.344,-8227.173
963317.0453888162,-89441.37,-105336.555,17033.732,-4239.868,-3294.9219,-45754.234,-42865.03,-8216.309
963317.0493888137,-89444.945,-105347.3,17021.12,-4255.8594,-3296.9565,-45754.07,-42859.215,-8209.595
963317.0533888112,-89447.11,-105344.16,17021.932,-4249.8374,-3293.2537,-45753.582,-42854.86,-8205.444
963317.0573888087,-89444.664,-105337.08,17034.465,-4226.278,-3291.7888,-45750.367,-42848.96,-8188.0293
963317.0613888062,-89443.61,-105330.164,17037.11,-4223.674,-3295.3696,-45748.535,-42844.727,-8180.9087
963317.0653888037,-89440.43,-105331.42,17032.227,-4231.7305,-3293.4978,-45747.273,-42839.316,-8174.0728
963317.0693888012,-89442.47,-105338.51,17028.035,-4237.0605,-3295.8984,-45747.113,-42837.04,-8166.9517
963317.0733887987,-89447.19,-105341.68,17031.658,-4238.037,-3294.7185,-45746.504,-42834.92,-8160.1973
963317.0773887961,-89447.92,-105339.03,17043.457,-4224.569,-3288.1267,-45749.023,-42840.047,-8168.0913
963317.0813887937,-89446.58,-105341.59,17038.941,-4229.492,-3286.621,-45751.875,-42846.844,-8181.356
963317.0853887912,-89447.63,-105342.164,17034.912,-4244.344,-3292.8062,-45755.332,-42850.87,-8180.3794
963317.0893887887,-89449.625,-105344.28,17039.266,-4247.64,-3295.288,-45756.88,-42859.17,-8186.524
963317.0933887862,-89441.53,-105338.22,17042.195,-4235.9214,-3289.0625,-45757.12,-42866.78,-8192.546
963317.0973887837,-89435.18,-105327.97,17047.566,-4215.617,-3285.482,-45756.27,-42870.117,-8194.54
963317.1013887812,-89433.23,-105323.24,17042.684,-4216.6343,-3283.651,-45756.145,-42873.945,-8202.881
963317.1053887787,-89435.23,-105320.72,17041.545,-4233.6426,-3285.8074,-45756.676,-42872.684,-8205.648
963317.1093887762,-89444.22,-105325.6,17041.139,-4243.2456,-3287.8013,-45756.145,-42868.734,-8208.334
963317.1133887738,-89448.29,-105329.875,17040.203,-4243.164,-3289.022,-45753.785,-42865.97,-8210.815
963317.1173887713,-89449.42,-105321.86,17043.336,-4224.935,-3283.8542,-45752.523,-42864.83,-8214.152
963317.1213887687,-89453.695,-105324.67,17044.148,-4218.669,-3284.5867,-45753.133,-42862.305,-8213.989
963317.1253887662,-89457.195,-105329.51,17036.621,-4235.3516,-3288.9404,-45753.906,-42864.42,-8212.565
963317.1293887637,-89465.3,-105338.75,17025.594,-4251.18,-3290.609,-45754.03,-42867.84,-8221.599
963317.1333887612,-89468.43,-105344.28,17025.066,-4246.9077,-3291.504,-45753.215,-42867.27,-8223.674
963317.1373887587,-89459.516,-105337.445,17041.3,-4224.6094,-3288.6963,-45750.043,-42863.12,-8225.098
963317.1413887562,-89455.37,-105336.06,17045.41,-4221.1104,-3288.615,-45747.113,-42853.23,-8219.849
963317.1453887537,-89455.28,-105341.27,17035.645,-4239.9497,-3295.1255,-45745.117,-42842.41,-8202.312
963317.1493887512,-89458.3,-105343.14,17033.326,-4243.6523,-3292.1958,-45743.574,-42837.08,-8190.5522
963317.1533887488,-89460.78,-105344.32,17041.383,-4237.1016,-3290.6902,-45742.96,-42833.62,-8181.844
963317.1573887463,-89462.37,-105343.34,17054.443,-4217.3667,-3287.5164,-45741.824,-42829.957,-8174.4795
963317.1613887438,-89471.16,-105350.47,17051.637,-4224.447,-3288.493,-45741.62,-42829.348,-8167.562
963317.1653887412,-89478.92,-105358.484,17035.441,-4246.745,-3298.5435,-45742.96,-42828.41,-8155.8433
963317.1693887387,-89462.61,-105346.97,17034.139,-4251.0986,-3297.8516,-45746.785,-42836.754,-8163.9
963317.1733887362,-89457.195,-105341.35,17033.855,-4242.8794,-3292.1143,-45746.91,-42842.695,-8169.637
963317.1773887337,-89459.35,-105336.71,17046.957,-4219.93,-3285.319,-45746.297,-42844.688,-8167.2773
963317.1813887312,-89450.32,-105328.82,17063.396,-4208.5776,-3281.942,-45747.723,-42845.34,-8162.679
963317.1853887287,-89449.55,-105329.96,17055.379,-4228.0273,-3284.9937,-45747.152,-42843.06,-8156.535
963317.1893887263,-89455.77,-105335.82,17046.021,-4245.931,-3287.9639,-45744.223,-42843.71,-8155.111
963317.1933887238,-89461.55,-105346.68,17046.266,-4246.9077,-3285.8481,-45741.824,-42850.344,-8165.65
963317.1973887213,-89465.62,-105349.164,17056.764,-4227.051,-3281.128,-45741.984,-42859.297,-8183.0244
963317.2013887188,-89462.04,-105340.05,17060.223,-4218.628,-3281.4941,-45743.29,-42866.375,-8196.167
963317.2053887163,-89475.99,-105356.24,17051.066,-4235.311,-3294.5151,-45740.4,-42869.71,-8209.717
963317.2093887137,-89491.91,-105376.06,17040.486,-4247.274,-3298.5027,-45742.96,-42872.07,-8215.902
963317.2133887112,-89493.86,-105378.95,17048.055,-4235.962,-3292.0737,-45741.742,-42871.95,-8217.245
963317.2173887087,-89495.89,-105376.47,17066.082,-4220.0522,-3285.5225,-45738.69,-42866.336,-8212.362
963317.2213887062,-89498.984,-105378.3,17070.72,-4221.029,-3281.8198,-45733.93,-42856.527,-8199.504
963317.2253887038,-89506.836,-105383.67,17057.74,-4238.973,-3285.1562,-45731.855,-42846.234,-8184.4487
963317.2293887013,-89517.83,-105397.016,17049.275,-4253.703,-3290.568,-45731.203,-42839.723,-8177.8975
963317.2333886988,-89514.41,-105397.18,17054.078,-4250.3257,-3292.1143,-45731.977,-42835.734,-8172.364
963317.2373886963,-89514.49,-105399.09,17070.557,-4232.3813,-3291.7888,-45729.74,-42828.535,-8159.709
963317.2413886938,-89537.27,-105418.46,17069.133,-4233.5205,-3300.0083,-45723.758,-42817.668,-8144.328
963317.2453886913,-89552.734,-105438.27,17051.31,-4262.5327,-3308.3496,-45720.867,-42809.53,-8138.387
963317.2493886888,-89560.875,-105446.62,17041.912,-4276.8965,-3308.1462,-45719.85,-42805.22,-8129.232
963317.2533886862,-89562.016,-105442.38,17045.125,-4265.3403,-3300.9849,-45720.46,-42805.625,-8124.4307
963317.2573886837,-89555.79,-105440.76,17058.188,-4243.2456,-3295.7358,-45723.188,-42805.46,-8116.6997
963317.2613886812,-89562.5,-105445.805,17056.355,-4237.793,-3295.858,-45722.656,-42805.95,-8113.6885
963317.2653886788,-89571.49,-105453.05,17045.451,-4248.8203,-3296.224,-45720.582,-42808.88,-8115.357
963317.2693886763,-89575.766,-105459.234,17045.125,-4255.941,-3294.8406,-45723.758,-42816.45,-8120.728
963317.2733886738,-89570.4,-105459.35,17047.404,-4251.2207,-3292.1958,-45725.832,-42821.492,-8119.548
963317.2773886713,-89563.6,-105457.805,17055.908,-4230.4688,-3285.8887,-45725.63,-42823.73,-8112.2236
963317.2813886688,-89570.6,-105469.445,17055.623,-4236.084,-3293.0503,-45725.426,-42821.453,-8106.527
963317.2853886663,-89577.48,-105477.54,17052.002,-4253.8657,-3294.7185,-45724.164,-42816.895,-8096.9243
963317.2893886638,-89578.62,-105479.78,17045.533,-4263.591,-3291.0564,-45726.24,-42818.074,-8091.146
963317.2933886613,-89583.414,-105481.41,17041.951,-4258.5044,-3284.017,-45727.703,-42823.527,-8103.109
963317.2973886587,-89586.23,-105483.97,17059.53,-4237.1016,-3277.832,-45729.86,-42828.86,-8110.9214
963317.3013886563,-89592.734,-105487.15,17065.797,-4233.358,-3278.0762,-45729.82,-42837.812,-8125.489
963317.3053886538,-89596.84,-105488.125,17059.49,-4249.919,-3285.075,-45729.086,-42848.188,-8150.798
963317.3093886513,-89608.73,-105501.75,17053.549,-4269.5723,-3293.6199,-45726.688,-42848.594,-8160.238
963317.3133886488,-89617.76,-105514.2,17046.184,-4270.915,-3292.8875,-45726.81,-42846.477,-8167.603
963317.3173886463,-89620.04,-105515.22,17056.52,-4249.227,-3285.2783,-45724.12,-42837.688,-8160.1567
963317.3213886438,-89618.695,-105514.2,17065.594,-4241.13,-3285.8887,-45718.875,-42829.43,-8163.2896
963317.3253886413,-89621.664,-105519.45,17059.123,-4255.005,-3298.1772,-45716.637,-42818.77,-8155.274
963317.3293886388,-89626.38,-105523.32,17047.486,-4265.91,-3298.7876,-45716.594,-42811.65,-8147.054
963317.3333886364,-89636.516,-105534.305,17045.736,-4259.7656,-3295.0847,-45715.17,-42807.496,-8141.7646
963317.3373886339,-89633.99,-105533.9,17062.826,-4235.759,-3298.0957,-45712.117,-42802.492,-8130.738
963317.3413886313,-89633.836,-105533.29,17067.627,-4238.2407,-3306.7627,-45711.47,-42797.69,-8120.931
963317.3453886288,-89632.98,-105534.586,17054.607,-4259.3994,-3309.6519,-45711.754,-42795.656,-8115.601
963317.3493886263,-89633.75,-105537.73,17037.518,-4271.932,-3312.4595,-45711.305,-42792.523,-8107.5444
963317.3533886238,-89636.72,-105537.97,17038.25,-4267.456,-3309.3262,-45709.84,-42789.797,-8101.3594
963317.3573886213,-89631.19,-105532.72,17054.363,-4250.163,-3294.8406,-45707.074,-42789.55,-8097.331
963317.3613886188,-89624.11,-105526.25,17060.506,-4246.46,-3288.8184,-45706.625,-42791.426,-8099.2437
963317.3653886163,-89630.01,-105533.37,17049.113,-4266.195,-3290.6494,-45706.055,-42795.047,-8103.516
963317.3693886138,-89634.12,-105535.89,17041.545,-4274.048,-3296.1833,-45711.957,-42803.67,-8103.719
963317.3733886114,-89632.29,-105533.05,17043.824,-4263.9976,-3298.1365,-45717.652,-42813.723,-8114.9907
963317.3773886089,-89620.85,-105525.15,17061.482,-4240.9263,-3286.7026,-45718.26,-42820.477,-8128.8657
963317.3813886064,-89618.25,-105523.766,17071.697,-4232.829,-3282.837,-45716.27,-42819.38,-8128.011
963317.3853886038,-89621.42,-105526.984,17068.441,-4248.9014,-3288.8591,-45714.03,-42819.703,-8129.761
963317.3893886013,-89624.88,-105533.66,17056.6,-4263.6313,-3298.3806,-45714.355,-42825.117,-8136.475
963317.3933885988,-89627.73,-105534.71,17050.781,-4259.2773,-3299.4385,-45714.152,-42829.43,-8143.514
963317.3973885963,-89622.89,-105529.664,17064.941,-4245.443,-3288.0454,-45713.746,-42834.96,-8153.4834
963317.4013885938,-89622.52,-105531.45,17071.86,-4244.995,-3287.5977,-45716.637,-42839.844,-8165.08
963317.4053885913,-89623.74,-105532.8,17063.885,-4252.3193,-3287.3943,-45717.652,-42840.66,-8174.154
963317.4093885889,-89630.984,-105542.16,17054.363,-4264.038,-3293.335,-45716.594,-42837.484,-8168.7017
963317.4133885864,-89630.086,-105538.58,17058.838,-4255.8594,-3285.6445,-45713.38,-42832.848,-8160.1973
963317.4173885839,-89624.72,-105529.75,17072.062,-4235.311,-3277.6694,-45710.816,-42826.418,-8148.153
963317.4213885814,-89622.44,-105522.79,17074.627,-4232.6255,-3278.9307,-45708.824,-42816.61,-8131.348
963317.4253885789,-89624.68,-105528.445,17061.482,-4256.592,-3281.3315,-45705.363,-42805.46,-8116.2114
963317.4293885763,-89630.17,-105536.055,17050.457,-4277.71,-3291.0972,-45704.51,-42795.492,-8104.045
963317.4333885738,-89629.31,-105534.875,17057.17,-4269.287,-3286.9873,-45705.28,-42789.633,-8089.1523
963317.4373885713,-89620.32,-105525.27,17076.01,-4245.931,-3276.652,-45702.84,-42785.605,-8082.235
963317.4413885688,-89619.19,-105520.875,17082.846,-4238.6475,-3277.6287,-45698.242,-42780.844,-8078.858
963317.4453885664,-89618.53,-105522.95,17067.506,-4258.708,-3281.942,-45699.22,-42780.438,-8078.939
963317.4493885639,-89625.77,-105541.63,17048.787,-4275.1875,-3282.2266,-45701.05,-42781.13,-8073.1206
963317.4533885614,-89620.52,-105534.02,17060.873,-4261.7188,-3275.0244,-45700.117,-42782.15,-8071.5337
963317.4573885589,-89614.55,-105520.63,17082.275,-4232.2188,-3270.0195,-45700.766,-42787.844,-8082.8047
963317.4613885564,-89616.17,-105520.1,17082.684,-4230.4688,-3271.566,-45704.023,-42792.97,-8094.849
963317.4653885539,-89618.86,-105523.64,17069.783,-4253.011,-3277.6287,-45705.65,-42796.51,-8102.092
963317.4693885514,-89627.36,-105528.12,17061.2,-4266.2354,-3280.6396,-45707.03,-42798.26,-8096.029
963317.4733885488,-89625.9,-105528.85,17068.645,-4254.8423,-3281.25,-45707.234,-42800.58,-8102.702
963317.4773885463,-89620.98,-105522.87,17082.887,-4229.6143,-3277.832,-45707.156,-42807.457,-8116.3335
963317.4813885438,-89618.21,-105520.02,17082.846,-4233.5615,-3275.6755,-45709.637,-42813.56,-8120.606
963317.4853885414,-89619.51,-105524.54,17076.986,-4253.215,-3278.646,-45714.152,-42817.02,-8121.094
963317.4893885389,-89623.87,-105526.164,17069.783,-4264.16,-3282.4302,-45715.78,-42820.68,-8127.401
963317.4933885364,-89624.43,-105530.56,17072.186,-4258.7485,-3278.8901,-45713.46,-42822.715,-8132.447
963317.4973885339,-89622.07,-105533.66,17082.684,-4238.9326,-3275.879,-45710.816,-42825.562,-8137.492
963317.5013885314,-89621.5,-105530.195,17090.861,-4230.062,-3273.0308,-45709.598,-42821.902,-8136.8413
963317.5053885289,-89621.42,-105534.06,17079.51,-4247.3555,-3277.8728,-45706.746,-42819.46,-8140.2183
963317.5093885264,-89627.73,-105545.125,17063.924,-4264.8115,-3280.1108,-45704.266,-42820.68,-8150.7163
963317.513388524,-89626.71,-105547.28,17066.895,-4257.9756,-3280.9246,-45704.1,-42822.43,-8159.017
963317.5173885213,-89628.91,-105548.18,17062.459,-4246.867,-3278.239,-45703.25,-42822.31,-8162.5166
963317.5213885189,-89629.4,-105548.34,17058.96,-4243.7744,-3280.07,-45702.15,-42817.344,-8158.244
963317.5253885164,-89629.88,-105549.73,17056.396,-4256.4697,-3285.1562,-45700.93,-42813.965,-8161.0923
963317.5293885139,-89632.04,-105558.02,17050.701,-4267.456,-3286.8652,-45695.8,-42810.508,-8165.1206
963317.5333885114,-89629.03,-105560.914,17054.443,-4255.3306,-3284.8308,-45693.156,-42802.45,-8151.4897
963317.5373885089,-89620.98,-105553.67,17068.115,-4232.2593,-3279.7039,-45692.305,-42797.812,-8138.387
963317.5413885064,-89614.586,-105548.34,17075.521,-4230.0215,-3277.8728,-45692.426,-42794.23,-8132.813
963317.5453885039,-89615.08,-105548.18,17068.686,-4250.7324,-3279.7852,-45690.35,-42788.29,-8125.8955
963317.5493885014,-89624.516,-105555.79,17057.74,-4273.1934,-3286.377,-45690.594,-42788.332,-8124.8374
963317.553388499,-89624.92,-105561.61,17060.873,-4264.1196,-3285.482,-45693.2,-42790.406,-8124.6343
963317.5573884965,-89617.11,-105555.51,17073.365,-4237.0605,-3277.4253,-45695.395,-42795.047,-8129.232
963317.5613884939,-89613.33,-105550.83,17073.08,-4225.464,-3276.6929,-45695.844,-42799.848,-8128.6626
963317.5653884914,-89612.305,-105548.79,17059.002,-4238.2407,-3277.7507,-45698.445,-42804.527,-8133.7896
963317.5693884889,-89620.61,-105567.18,17045.695,-4255.7373,-3280.7617,-45699.14,-42812.582,-8148.194
963317.5733884864,-89629.31,-105572.19,17051.555,-4250.7734,-3280.1108,-45700.195,-42821.25,-8157.0234
963317.5773884839,-89625.086,-105563.84,17062.012,-4235.067,-3271.3623,-45703.168,-42828.33,-8161.2554
963317.5813884814,-89623.7,-105559.125,17069.621,-4231.8525,-3264.8113,-45704.184,-42831.543,-8159.261
963317.5853884789,-89624.96,-105555.71,17063.924,-4247.7217,-3267.456,-45704.715,-42838.625,-8170.1255
963317.5893884765,-89626.02,-105556.28,17052.287,-4256.3887,-3274.943,-45708.254,-42845.297,-8182.3735
963317.593388474,-89631.88,-105563.195,17058.717,-4242.5947,-3277.6287,-45706.137,-42844.89,-8185.059
963317.5973884715,-89630.7,-105564.414,17077.678,-4222.6973,-3272.6646,-45701.945,-42841.676,-8182.3325
963317.601388469,-89628.26,-105563.4,17079.713,-4226.3594,-3271.8914,-45701.582,-42839.56,-8187.419
963317.6053884664,-89630.74,-105568.56,17064.412,-4252.4414,-3278.646,-45701.17,-42836.875,-8195.639
963317.6093884639,-89635.17,-105576.83,17045.898,-4274.658,-3288.0454,-45700.117,-42829.47,-8191.976
963317.6133884614,-89638.35,-105579.1,17051.922,-4263.0615,-3287.1501,-45696.21,-42817.75,-8181.397
963317.6173884589,-89638.76,-105579.39,17061.402,-4232.91,-3281.6978,-45693.523,-42806.562,-8161.7026
963317.6213884564,-89632.66,-105569.7,17062.42,-4232.2188,-3278.646,-45693.44,-42798.79,-8148.072
963317.625388454,-89631.31,-105571.78,17057.252,-4247.4775,-3282.2266,-45695.438,-42796.51,-8150.472
963317.6293884515,-89634.32,-105577.6,17049.316,-4259.1963,-3282.6335,-45695.926,-42796.184,-8150.798
963317.633388449,-89632.33,-105578.82,17048.422,-4249.105,-3279.541,-45693.24,-42791.06,-8142.619
963317.6373884465,-89628.95,-105573.61,17056.682,-4229.8994,-3276.53,-45691.367,-42789.473,-8133.9927
963317.641388444,-89627.04,-105570.44,17063.844,-4237.3047,-3276.8555,-45693.156,-42789.918,-8127.3604
963317.6453884415,-89629.88,-105571.414,17055.42,-4250.936,-3277.5474,-45693.93,-42787.64,-8124.6343
963317.6493884389,-89634.65,-105571.984,17045.98,-4258.423,-3277.6694,-45693.44,-42786.01,-8123.21
963317.6533884364,-89632.49,-105569.46,17048.787,-4257.08,-3276.937,-45693.44,-42787.52,-8123.861
963317.6573884339,-89628.95,-105562.3,17058.838,-4235.3926,-3263.2244,-45692.02,-42788.777,-8120.687
963317.6613884314,-89622.68,-105557.945,17065.064,-4225.057,-3261.2712,-45690.84,-42788.496,-8111.7354
963317.665388429,-89623.01,-105557.91,17065.797,-4241.089,-3263.4277,-45691.57,-42788.332,-8110.7183
963317.6693884265,-89625.33,-105559.29,17060.182,-4259.1147,-3267.0898,-45695.273,-42791.668,-8116.903
963317.673388424,-89621.664,-105554.445,17057.902,-4249.8374,-3267.7817,-45696.492,-42794.273,-8113.9326
963317.6773884215,-89617.96,-105552.58,17065.023,-4234.8228,-3266.8052,-45696.7,-42799.6,-8113.77
963317.681388419,-89612.914,-105545.78,17074.463,-4225.1387,-3261.19,-45697.266,-42805.46,-8123.6167
963317.6853884165,-89615.64,-105544.68,17066.0,-4239.787,-3261.4746,-45698.49,-42810.223,-8129.761
963317.689388414,-89623.21,-105553.23,17047.648,-4256.633,-3265.625,-45699.504,-42817.223,-8140.9507
963317.6933884114,-89625.086,-105553.8,17055.543,-4243.286,-3260.783,-45699.18,-42822.754,-8151.4897
963317.6973884089,-89616.055,-105544.07,17079.916,-4213.908,-3253.947,-45696.168,-42825.848,-8157.5522
963317.7013884065,-89612.43,-105536.26,17088.705,-4212.8096,-3257.65,-45693.848,-42827.92,-8161.662
963317.705388404,-89617.11,-105541.016,17068.97,-4231.12,-3262.492,-45694.824,-42825.684,-8164.7954
963317.7093884015,-89629.48,-105554.77,17048.87,-4253.4995,-3271.159,-45696.37,-42817.18,-8163.697
963317.713388399,-89633.266,-105557.58,17052.45,-4246.7856,-3268.921,-45694.5,-42806.64,-8160.645
963317.7173883965,-89632.734,-105553.35,17058.676,-4229.6553,-3261.2305,-45692.75,-42799.03,-8147.054
963317.721388394,-89632.24,-105549.65,17062.623,-4227.9053,-3254.9644,-45690.35,-42788.777,-8131.429
963317.7253883915,-89635.375,-105550.54,17056.6,-4240.6006,-3260.1318,-45688.477,-42780.152,-8121.9893
963317.729388389,-89640.18,-105556.6,17048.299,-4251.384,-3267.985,-45687.215,-42776.45,-8117.1064
963317.7333883866,-89640.71,-105558.35,17057.252,-4246.623,-3265.9507,-45688.234,-42777.47,-8112.468
963317.737388384,-89636.44,-105548.34,17079.225,-4228.2715,-3260.8237,-45687.785,-42779.625,-8106.8525
963317.7413883815,-89632.94,-105548.34,17079.754,-4229.004,-3261.8408,-45688.723,-42780.805,-8105.1436
963317.745388379,-89633.75,-105554.98,17067.424,-4249.349,-3261.19,-45690.188,-42782.31,-8109.4976
963317.7493883765,-89634.766,-105561.41,17059.367,-4258.708,-3268.27,-45692.18,-42782.676,-8110.9214
963317.753388374,-89629.68,-105556.6,17062.541,-4243.042,-3265.5437,-45691.69,-42783.45,-8106.8525
963317.7573883715,-89623.54,-105547.445,17074.707,-4216.7563,-3257.487,-45691.246,-42785.89,-8107.2593
963317.761388369,-89623.91,-105552.53,17078.695,-4221.4766,-3258.8706,-45693.645,-42790.406,-8112.142
963317.7653883665,-89627.41,-105555.26,17071.86,-4239.5835,-3268.392,-45694.176,-42791.504,-8109.6196
963317.769388364,-89633.14,-105560.06,17058.838,-4255.2085,-3275.7163,-45695.68,-42794.19,-8110.1484
963317.7733883616,-89629.56,-105550.26,17066.162,-4239.258,-3268.1072,-45696.902,-42800.133,-8119.141
963317.7773883591,-89624.39,-105545.695,17079.51,-4215.129,-3258.667,-45697.266,-42807.58,-8122.9253
963317.7813883565,-89621.22,-105541.67,17080.078,-4212.077,-3258.1382,-45697.754,-42816.12,-8136.475
963317.785388354,-89622.805,-105540.734,17069.256,-4231.527,-3257.4463,-45699.547,-42823.12,-8157.3896
963317.7893883515,-89629.84,-105550.01,17050.62,-4255.127,-3261.3933,-45702.598,-42827.477,-8166.8706
963317.793388349,-89628.586,-105548.79,17057.008,-4244.8325,-3261.0679,-45699.547,-42825.605,-8164.307
963317.7973883465,-89623.09,-105539.63,17078.777,-4219.32,-3257.2021,-45697.797,-42824.79,-8165.528
963317.801388344,-89619.02,-105535.24,17083.049,-4212.8096,-3257.8125,-45697.918,-42822.023,-8164.144
963317.8053883415,-89619.71,-105536.54,17074.91,-4224.7725,-3261.1084,-45696.617,-42815.43,-8158.651
963317.809388339,-89627.56,-105547.24,17064.82,-4242.5537,-3261.3933,-45694.54,-42809.207,-8158.0815
963317.8133883366,-89631.23,-105552.21,17067.098,-4239.99,-3260.0098,-45691.406,-42800.945,-8149.984
963317.8173883341,-89633.14,-105547.98,17076.783,-4222.412,-3254.0283,-45688.355,-42793.906,-8140.9507
963317.8213883316,-89635.625,-105543.74,17075.928,-4224.8945,-3250.7732,-45686.24,-42787.52,-8128.7847
963317.825388329,-89635.664,-105544.88,17064.617,-4241.699,-3253.825,-45685.47,-42776.777,-8116.5366
963317.8293883265,-89641.69,-105552.125,17046.469,-4256.0225,-3257.1208,-45684.164,-42764.49,-8109.3345
963317.833388324,-89645.836,-105553.1,17038.615,-4248.8203,-3260.1726,-45682.17,-42760.703,-8101.2373
963317.8373883215,-89639.53,-105546.516,17055.34,-4231.6084,-3262.1665,-45682.414,-42759.605,-8097.982
963317.841388319,-89633.14,-105539.63,17073.324,-4224.8535,-3259.5623,-45680.46,-42759.848,-8099.935
963317.8453883165,-89641.69,-105547.33,17064.738,-4240.5195,-3259.9285,-45680.016,-42761.11,-8100.993
963317.8493883141,-89645.14,-105560.02,17051.514,-4258.667,-3263.1836,-45683.434,-42767.05,-8103.638
963317.8533883116,-89643.234,-105560.95,17058.553,-4247.3555,-3262.5732,-45687.094,-42773.316,-8106.934
963317.8573883091,-89635.91,-105554.65,17076.824,-4223.348,-3258.1382,-45689.293,-42775.676,-8110.189
963317.8613883066,-89631.02,-105551.07,17084.717,-4223.552,-3256.1035,-45689.863,-42778.934,-8111.6133
963317.8653883041,-89629.88,-105550.58,17070.842,-4237.427,-3256.1035,-45690.555,-42783.895,-8112.7524
963317.8693883015,-89634.89,-105558.44,17048.299,-4259.725,-3262.5732,-45691.57,-42785.523,-8115.072
963317.873388299,-89632.53,-105553.47,17051.31,-4251.709,-3257.8533,-45691.082,-42790.45,-8126.8315
963317.8773882965,-89622.97,-105535.56,17076.336,-4221.8833,-3249.6746,-45692.098,-42798.586,-8135.661
963317.881388294,-89625.33,-105527.914,17081.91,-4215.617,-3244.1814,-45695.234,-42805.137,-8137.0444
963317.8853882916,-89626.23,-105527.43,17079.51,-4224.691,-3243.978,-45697.797,-42810.957,-8141.846
963317.8893882891,-89631.72,-105531.5,17067.586,-4238.159,-3244.9138,-45700.523,-42818.562,-8154.1753
963317.8933882866,-89640.34,-105538.414,17066.406,-4239.4614,-3247.8435,-45703.086,-42823.324,-8166.3413
963317.8973882841,-89642.74,-105538.414,17074.383,-4224.4873,-3242.92,-45701.863,-42820.64,-8163.3306
963317.9013882816,-89644.58,-105543.91,17082.846,-4226.6846,-3244.995,-45699.832,-42812.746,-8151.937
963317.9053882791,-89646.28,-105549.73,17073.934,-4243.408,-3251.3428,-45696.332,-42806.48,-8148.275
963317.9093882766,-89648.73,-105555.586,17063.965,-4258.0566,-3259.318,-45693.605,-42799.52,-8146.322
963317.913388274,-89648.84,-105554.89,17073.65,-4249.1865,-3257.4463,-45691.53,-42793.336,-8140.3403
963317.9173882715,-89646.41,-105545.945,17090.617,-4219.8486,-3250.0,-45688.723,-42787.52,-8130.3306
963317.921388269,-89643.6,-105542.16,17091.512,-4217.082,-3247.518,-45685.184,-42781.047,-8126.6685
963317.9253882666,-89648.69,-105547.65,17078.898,-4241.008,-3254.1912,-45683.434,-42776.734,-8129.924
963317.9293882641,-89657.63,-105554.85,17060.303,-4262.9805,-3261.8816,-45685.02,-42776.53,-8130.3306
963317.9333882616,-89658.57,-105554.445,17056.844,-4247.925,-3261.027,-45685.02,-42779.22,-8132.365
963317.9373882591,-89651.98,-105548.016,17070.883,-4222.738,-3255.4526,-45686.117,-42784.508,-8137.7363
963317.9413882566,-89648.56,-105541.47,17079.387,-4222.6973,-3252.9297,-45686.402,-42785.484,-8136.353
963317.9453882541,-89649.7,-105545.49,17067.668,-4243.9375,-3254.476,-45686.727,-42782.88,-8130.819
963317.9493882516,-89649.87,-105547.9,17058.838,-4259.5215,-3258.3416,-45687.01,-42784.508,-8134.8066
963317.9533882492,-89650.555,-105547.77,17070.068,-4258.8706,-3254.3945,-45686.566,-42786.336,-8134.481
963317.9573882465,-89647.586,-105541.875,17088.014,-4232.6255,-3243.0828,-45685.914,-42790.082,-8132.9756
963317.9613882441,-89643.4,-105537.88,17103.23,-4220.0117,-3242.6758,-45688.355,-42793.742,-8133.2197
963317.9653882416,-89643.64,-105537.16,17094.646,-4234.4565,-3250.0815,-45689.453,-42794.273,-8133.5044
963317.9693882391,-89652.47,-105548.42,17070.516,-4259.8066,-3256.9988,-45691.164,-42794.516,-8130.738
963317.9733882366,-89656.82,-105553.8,17067.912,-4254.0693,-3255.3306,-45690.715,-42795.9,-8128.4995
963317.9773882341,-89654.18,-105548.18,17078.613,-4225.3013,-3246.8262,-45691.203,-42800.05,-8132.447
963317.9813882316,-89649.17,-105540.164,17088.746,-4213.135,-3238.851,-45693.035,-42807.375,-8144.3687
963317.9853882291,-89647.914,-105537.56,17081.38,-4227.051,-3238.4033,-45697.227,-42813.965,-8156.942
963317.9893882266,-89649.414,-105539.31,17062.947,-4247.5586,-3239.7056,-45699.953,-42817.223,-8161.8657
963317.9933882242,-89649.414,-105541.14,17061.117,-4243.8154,-3236.898,-45698.61,-42816.61,-8157.7964
963317.9973882217,-89647.71,-105534.836,17077.068,-4220.5,-3235.5552,-45698.406,-42813.07,-8151.1235
963318.0013882191,-89642.83,-105528.2,17086.549,-4215.0474,-3228.1902,-45695.76,-42803.184,-8138.3467
963318.0053882166,-89640.55,-105531.336,17076.945,-4234.009,-3233.6833,-45689.58,-42792.93,-8127.889
963318.0093882141,-89646.69,-105541.55,17059.773,-4254.802,-3244.5884,-45686.117,-42787.76,-8120.4023
963318.0133882116,-89649.5,-105544.88,17066.61,-4242.6353,-3244.7104,-45687.91,-42787.11,-8125.0815
963318.0173882091,-89646.484,-105540.66,17089.355,-4211.467,-3233.073,-45686.16,-42787.312,-8124.4307
963318.0213882066,-89639.94,-105530.234,17099.773,-4201.4976,-3229.8179,-45687.094,-42785.08,-8123.088
963318.0253882041,-89651.25,-105536.18,17081.422,-4228.597,-3237.793,-45685.832,-42782.15,-8122.7217
963318.0293882017,-89659.06,-105545.82,17060.873,-4252.9707,-3245.5242,-45682.902,-42780.355,-8124.6343
963318.0333881992,-89659.23,-105545.86,17065.797,-4248.291,-3243.164,-45680.625,-42780.152,-8124.8374
963318.0373881967,-89657.63,-105543.055,17082.764,-4224.4873,-3233.1138,-45681.64,-42781.617,-8122.193
963318.0413881942,-89648.89,-105533.2,17084.88,-4213.9893,-3232.8289,-45686.24,-42782.35,-8123.739
963318.0453881916,-89648.93,-105532.92,17074.342,-4231.527,-3236.4502,-45683.758,-42780.76,-8124.5933
963318.0493881891,-89652.266,-105544.805,17061.035,-4245.7686,-3242.147,-45682.78,-42781.7,-8127.7266
963318.0533881866,-89651.29,-105540.86,17064.332,-4236.4097,-3237.9966,-45684.938,-42788.94,-8132.2026
963318.0573881841,-89648.4,-105532.8,17078.898,-4213.542,-3235.0261,-45686.402,-42795.37,-8132.447
963318.0613881816,-89647.95,-105525.31,17086.223,-4211.1006,-3232.1777,-45686.65,-42799.24,-8133.708
963318.0653881792,-89648.4,-105525.68,17087.85,-4228.0684,-3234.3345,-45686.566,-42801.72,-8139.079
963318.0693881767,-89653.61,-105531.375,17068.604,-4247.6807,-3242.5537,-45689.74,-42809.33,-8154.216
963318.0733881742,-89656.336,-105530.44,17071.209,-4239.909,-3238.1592,-45691.855,-42815.594,-8158.814
963318.0773881717,-89654.38,-105524.26,17089.559,-4219.157,-3229.0447,-45692.832,-42818.89,-8158.122
963318.0813881692,-89652.06,-105521.125,17098.918,-4215.576,-3228.9634,-45693.402,-42817.465,-8154.1343
963318.0853881667,-89650.35,-105522.22,17089.438,-4231.527,-3233.073,-45692.383,-42815.676,-8154.46
963318.0893881641,-89656.3,-105533.164,17075.033,-4251.587,-3238.2,-45692.098,-42813.52,-8151.612
963318.0933881616,-89656.54,-105535.56,17076.986,-4236.8574,-3234.9448,-45692.87,-42806.438,-8138.4688
963318.0973881591,-89649.5,-105526.086,17088.135,-4208.13,-3229.94,-45690.145,-42800.457,-8134.156
963318.1013881566,-89650.92,-105525.555,17092.041,-4207.113,-3232.5847,-45687.5,-42794.07,-8135.4575
963318.1053881542,-89656.01,-105531.87,17086.02,-4231.527,-3239.0544,-45685.184,-42784.87,-8125.041
963318.1093881517,-89667.73,-105543.055,17071.086,-4256.836,-3249.1863,-45684.45,-42776.57,-8113.607
963318.1133881492,-89669.68,-105541.75,17072.674,-4250.3257,-3246.2158,-45682.17,-42770.305,-8103.4346
963318.1173881467,-89663.54,-105534.67,17088.99,-4221.2324,-3234.0088,-45678.387,-42764.363,-8095.9883
963318.1213881442,-89652.34,-105523.73,17099.936,-4212.728,-3232.6255,-45676.96,-42758.668,-8092.6924
963318.1253881417,-89654.664,-105521.484,17088.338,-4227.8647,-3235.962,-45678.062,-42756.188,-8090.2915
963318.1293881392,-89665.81,-105532.27,17074.83,-4247.3145,-3239.38,-45679.28,-42757.45,-8090.6987
963318.1333881366,-89662.64,-105533.49,17080.73,-4237.2236,-3235.962,-45678.957,-42760.05,-8092.326
963318.1373881341,-89657.31,-105525.39,17094.441,-4214.315,-3232.0964,-45679.484,-42767.09,-8101.115
963318.1413881317,-89658.086,-105525.31,17096.191,-4218.628,-3231.0386,-45679.242,-42773.52,-8111.5317
963318.1453881292,-89658.98,-105528.69,17084.799,-4232.666,-3228.7192,-45682.66,-42778.973,-8114.5024
963318.1493881267,-89659.14,-105531.984,17071.209,-4248.088,-3229.411,-45685.387,-42784.223,-8117.5947
963318.1533881242,-89655.44,-105522.34,17076.54,-4232.951,-3225.3418,-45686.727,-42792.645,-8128.337
963318.1573881217,-89647.83,-105512.125,17091.309,-4204.5493,-3215.9424,-45685.71,-42799.805,-8134.603
963318.1613881192,-89646.164,-105508.99,17101.848,-4204.3867,-3216.7156,-45687.543,-42806.766,-8140.2593
963318.1653881167,-89645.875,-105509.61,17093.994,-4220.866,-3225.3418,-45691.043,-42811.973,-8143.189
963318.1693881142,-89648.6,-105515.625,17073.486,-4241.4146,-3231.079,-45693.2,-42818.562,-8152.0186
963318.1733881118,-89650.19,-105513.19,17081.014,-4232.422,-3227.2544,-45695.64,-42827.477,-8173.9097
963318.1773881092,-89643.84,-105501.55,17105.104,-4207.5195,-3218.0176,-45695.76,-42833.21,-8183.2686
963318.1813881067,-89640.055,-105502.32,17115.234,-4201.864,-3215.2507,-45695.844,-42833.457,-8181.234
963318.1853881042,-89640.625,-105500.33,17112.996,-4223.674,-3217.855,-45696.82,-42831.586,-8178.752
963318.1893881017,-89649.336,-105511.15,17090.17,-4253.3774,-3227.7832,-45697.266,-42825.605,-8170.858
963318.1933880992,-89653.52,-105515.79,17087.566,-4247.274,-3229.4922,-45696.98,-42820.273,-8160.848
963318.1973880967,-89649.984,-105512.17,17100.424,-4213.9893,-3218.4653,-45688.477,-42813.4,-8148.8853
963318.2013880942,-89647.586,-105507.086,17101.482,-4201.701,-3205.7292,-45683.88,-42804.73,-8135.946
963318.2053880917,-89646.53,-105510.586,17099.977,-4214.2334,-3213.6638,-45683.637,-42795.086,-8124.39
963318.2093880892,-89653.85,-105518.35,17087.117,-4236.1655,-3229.411,-45680.79,-42785.36,-8112.7524
963318.2133880868,-89650.96,-105512.86,17087.973,-4230.591,-3224.121,-45677.574,-42775.23,-8096.3545
963318.2173880843,-89649.82,-105506.02,17105.348,-4209.717,-3217.5293,-45676.473,-42767.863,-8092.5703
963318.2213880817,-89657.23,-105511.195,17111.531,-4209.4727,-3219.3604,-45675.906,-42765.668,-8094.849
963318.2253880792,-89659.67,-105513.39,17096.314,-4229.5737,-3222.3308,-45679.77,-42767.05,-8098.1855
963318.2293880767,-89666.016,-105520.39,17075.48,-4248.088,-3222.3716,-45682.254,-42770.43,-8101.3594
963318.2333880742,-89664.72,-105514.695,17085.572,-4231.5674,-3218.0176,-45679.445,-42773.4,-8105.428
963318.2373880717,-89655.52,-105502.36,17103.516,-4198.2017,-3208.374,-45678.387,-42774.54,-8104.167
963318.2413880692,-89646.69,-105493.82,17115.357,-4193.9697,-3209.7983,-45677.86,-42776.125,-8105.998
963318.2453880667,-89646.65,-105496.99,17105.672,-4218.994,-3217.1226,-45678.47,-42777.508,-8108.277
963318.2493880643,-89659.34,-105510.5,17081.219,-4253.215,-3224.691,-45680.137,-42781.414,-8111.3286
963318.2533880618,-89662.48,-105512.78,17080.648,-4239.787,-3224.3247,-45682.66,-42788.82,-8118.9375
963318.2573880593,-89657.39,-105507.41,17101.197,-4209.2285,-3224.0398,-45684.082,-42795.492,-8120.158
963318.2613880568,-89653.445,-105497.69,17113.12,-4197.9575,-3216.5122,-45685.184,-42804.12,-8132.8535
963318.2653880542,-89655.64,-105495.65,17107.748,-4210.449,-3213.3384,-45689.453,-42809.98,-8147.258
963318.2693880517,-89658.66,-105501.8,17091.512,-4229.8994,-3216.3901,-45691.203,-42814.984,-8154.46
963318.2733880492,-89656.54,-105500.53,17094.686,-4222.9004,-3213.4604,-45691.977,-42820.07,-8158.529
963318.2773880467,-89651.45,-105493.49,17106.486,-4202.7183,-3204.9155,-45692.305,-42823.12,-8158.651
963318.2813880442,-89646.65,-105491.3,17110.516,-4202.5557,-3200.7244,-45690.39,-42821.656,-8157.227
963318.2853880418,-89643.11,-105487.96,17098.756,-4212.6875,-3197.7134,-45689.656,-42821.86,-8157.186
963318.2893880393,-89646.98,-105496.18,17076.375,-4233.5615,-3210.1646,-45688.56,-42823.527,-8161.0923
963318.2933880368,-89650.516,-105497.12,17079.59,-4224.4062,-3214.559,-45685.875,-42820.64,-8159.709
963318.2973880343,-89644.86,-105488.125,17093.547,-4196.9404,-3207.357,-45682.82,-42813.438,-8155.3145
963318.3013880318,-89642.78,-105486.086,17093.832,-4193.8887,-3205.4443,-45680.176,-42802.574,-8143.3516
963318.3053880293,-89646.37,-105494.14,17078.41,-4221.1104,-3212.1177,-45678.223,-42790.57,-8136.19
963318.3093880267,-89657.96,-105510.13,17054.363,-4250.9766,-3222.5342,-45676.8,-42780.805,-8132.935
963318.3133880242,-89661.586,-105516.195,17053.508,-4238.078,-3221.395,-45672.363,-42773.4,-8124.4307
963318.3173880217,-89659.914,-105515.1,17065.35,-4211.263,-3216.5935,-45668.906,-42768.027,-8116.4146
963318.3213880192,-89658.57,-105516.195,17077.312,-4200.4395,-3215.2915,-45668.906,-42764.0,-8110.189
963318.3253880168,-89650.35,-105510.42,17073.527,-4221.151,-3220.459,-45671.266,-42765.26,-8108.9683
963318.3293880143,-89649.62,-105516.445,17066.65,-4239.787,-3224.121,-45672.566,-42767.78,-8110.311
963318.3333880118,-89647.305,-105518.96,17077.8,-4227.417,-3219.6453,-45673.79,-42771.12,-8111.3286
963318.3373880093,-89647.09,-105520.8,17090.496,-4212.077,-3212.6465,-45672.04,-42773.926,-8112.834
963318.3413880068,-89647.87,-105520.76,17098.023,-4202.8,-3212.1582,-45671.633,-42774.984,-8109.0903
963318.3453880043,-89650.555,-105524.664,17094.402,-4212.3213,-3214.1929,-45673.098,-42776.367,-8114.5835
963318.3493880018,-89657.92,-105535.69,17078.695,-4236.084,-3213.623,-45673.383,-42780.56,-8129.11
963318.3533879992,-89653.57,-105533.37,17088.217,-4223.2666,-3213.623,-45676.23,-42780.926,-8122.559
963318.3573879967,-89647.586,-105525.516,17102.986,-4198.6084,-3206.543,-45676.555,-42782.15,-8111.0435
963318.3613879943,-89640.79,-105518.35,17109.498,-4191.2437,-3203.2878,-45677.492,-42790.773,-8123.8203
963318.3653879918,-89641.484,-105519.53,17090.047,-4209.432,-3208.252,-45680.664,-42800.58,-8141.236
963318.3693879893,-89653.24,-105536.38,17062.135,-4240.7637,-3216.8376,-45684.082,-42805.664,-8144.084
963318.3733879868,-89656.74,-105543.375,17073.771,-4227.783,-3214.3555,-45680.707,-42808.473,-8147.4204
963318.3773879843,-89651.77,-105538.17,17092.814,-4199.178,-3199.9512,-45680.055,-42808.27,-8148.763
963318.3813879818,-89642.09,-105529.664,17101.156,-4191.2437,-3196.8994,-45679.484,-42801.72,-8138.143
963318.3853879793,-89642.5,-105528.41,17097.738,-4208.374,-3204.2236,-45676.35,-42795.37,-8133.0977
963318.3893879768,-89650.31,-105538.78,17074.098,-4237.1016,-3215.0474,-45676.15,-42792.195,-8132.365
963318.3933879744,-89643.555,-105537.48,17071.29,-4223.8364,-3212.5652,-45676.92,-42790.324,-8128.703
963318.3973879718,-89635.99,-105522.75,17096.883,-4189.779,-3199.7886,-45674.727,-42787.234,-8120.565
963318.4013879693,-89634.445,-105519.01,17109.701,-4179.9316,-3200.7651,-45673.26,-42783.855,-8117.554
963318.4053879668,-89631.836,-105517.83,17096.03,-4202.596,-3210.3271,-45674.93,-42783.49,-8119.1
963318.4093879643,-89643.11,-105528.98,17068.848,-4233.114,-3218.8315,-45675.62,-42782.066,-8120.2803
963318.4133879618,-89651.33,-105531.87,17064.209,-4227.417,-3216.6343,-45673.465,-42777.996,-8115.8857
963318.4173879593,-89645.02,-105518.64,17085.734,-4196.6553,-3204.8748,-45669.434,-42776.33,-8112.3457
963318.4213879568,-89639.81,-105512.05,17098.227,-4190.8774,-3198.0796,-45667.277,-42774.293,-8113.5664
963318.4253879543,-89638.72,-105511.6,17079.021,-4214.2334,-3204.183,-45667.727,-42770.67,-8111.0435
963318.4293879519,-89643.805,-105516.4,17058.432,-4244.4663,-3212.1582,-45669.11,-42769.246,-8106.0796
963318.4333879494,-89643.6,-105517.13,17070.68,-4229.5737,-3208.0894,-45667.402,-42768.15,-8099.569
963318.4373879469,-89633.47,-105511.36,17095.826,-4200.8057,-3199.8699,-45669.434,-42769.168,-8096.5986
963318.4413879443,-89627.32,-105508.67,17107.016,-4191.081,-3197.754,-45669.395,-42770.836,-8096.8022
963318.4453879418,-89631.39,-105514.04,17096.559,-4210.368,-3202.3926,-45670.004,-42772.137,-8094.2793
963318.4493879393,-89636.72,-105522.914,17073.568,-4231.8525,-3208.496,-45671.227,-42776.695,-8103.3125
963318.4533879368,-89635.586,-105521.484,17073.283,-4220.622,-3207.2754,-45671.43,-42782.39,-8114.7056
963318.4573879343,-89632.66,-105510.42,17090.414,-4199.178,-3201.538,-45672.363,-42789.55,-8121.867
963318.4613879318,-89628.18,-105505.086,17099.65,-4192.4644,-3199.2188,-45675.008,-42795.29,-8126.2617
963318.4653879293,-89631.31,-105508.1,17093.914,-4216.39,-3204.6306,-45679.77,-42799.277,-8131.063
963318.4693879269,-89636.805,-105515.42,17081.219,-4237.549,-3206.828,-45683.188,-42803.793,-8142.375
963318.4733879244,-89639.04,-105515.914,17080.242,-4222.209,-3204.834,-45680.625,-42806.355,-8149.577
963318.4773879219,-89637.414,-105507.86,17099.406,-4195.394,-3201.8638,-45678.67,-42805.46,-8151.3267
963318.4813879194,-89632.734,-105501.06,17109.09,-4182.2104,-3201.4976,-45678.266,-42803.02,-8152.7104
963318.4853879168,-89636.805,-105507.2,17099.365,-4203.532,-3208.903,-45676.637,-42798.3,-8152.0186
963318.4893879143,-89644.01,-105512.45,17073.527,-4229.37,-3214.1929,-45675.62,-42793.336,-8149.5366
963318.4933879118,-89643.31,-105514.2,17073.445,-4223.918,-3210.4087,-45673.992,-42788.74,-8141.114
963318.4973879093,-89638.47,-105506.19,17094.564,-4195.5977,-3204.183,-45671.184,-42780.477,-8118.4087
963318.5013879068,-89631.23,-105498.7,17111.736,-4188.2324,-3195.3125,-45669.395,-42773.887,-8104.289
963318.5053879044,-89636.516,-105502.16,17099.041,-4210.897,-3203.4912,-45669.11,-42768.11,-8096.273
963318.5093879019,-89642.83,-105506.02,17075.928,-4231.1606,-3209.0251,-45670.086,-42766.887,-8096.151
963318.5133878994,-89642.46,-105505.82,17078.898,-4219.6045,-3203.6133,-45670.086,-42766.113,-8091.716
963318.5173878969,-89641.484,-105499.31,17098.227,-4194.1733,-3198.3643,-45670.98,-42765.625,-8087.525
963318.5213878944,-89638.02,-105493.734,17106.445,-4189.4126,-3194.8242,-45673.098,-42772.87,-8095.0933
963318.5253878919,-89640.055,-105493.01,17095.867,-4208.171,-3195.4753,-45673.586,-42773.805,-8096.029
963318.5293878893,-89649.7,-105498.91,17071.453,-4234.131,-3200.3174,-45673.465,-42771.28,-8097.1685
963318.5333878868,-89649.414,-105501.71,17075.236,-4220.9473,-3199.0154,-45673.098,-42772.543,-8103.272
963318.5373878843,-89644.9,-105494.59,17089.152,-4190.9995,-3194.9463,-45672.527,-42778.16,-8105.754
963318.5413878819,-89640.47,-105493.05,17095.785,-4187.5815,-3194.336,-45671.266,-42777.266,-8110.5146
963318.5453878794,-89639.37,-105494.34,17087.81,-4216.797,-3199.2188,-45672.285,-42779.5,-8119.263
963318.5493878769,-89643.03,-105500.164,17069.947,-4244.2627,-3209.4727,-45673.098,-42782.39,-8118.2866
963318.5533878744,-89643.84,-105498.09,17074.219,-4229.37,-3208.252,-45671.957,-42783.49,-8119.3037
963318.5573878719,-89643.92,-105490.89,17097.9,-4202.9624,-3198.527,-45670.535,-42785.688,-8125.2446
963318.5613878694,-89641.12,-105484.3,17112.957,-4196.6553,-3195.272,-45669.72,-42789.023,-8126.099
963318.5653878669,-89640.016,-105484.055,17104.818,-4208.8623,-3197.0623,-45669.516,-42789.754,-8127.767
963318.5693878644,-89643.64,-105487.92,17080.607,-4229.8994,-3199.0967,-45670.777,-42794.883,-8134.0337
963318.5733878618,-89641.69,-105486.9,17080.12,-4221.2324,-3189.8193,-45672.08,-42802.574,-8136.312
963318.5773878593,-89634.766,-105472.91,17093.344,-4195.5977,-3181.3152,-45672.445,-42803.1,-8127.9707
963318.5813878569,-89632.086,-105470.5,17097.332,-4193.1562,-3178.5889,-45672.977,-42798.91,-8123.6167
963318.5853878544,-89631.92,-105470.18,17090.496,-4213.7046,-3178.4263,-45673.18,-42791.79,-8113.5664
963318.5893878519,-89637.21,-105470.46,17077.068,-4234.5786,-3183.3496,-45672.285,-42786.824,-8109.5786
963318.5933878494,-89632.24,-105466.27,17088.95,-4221.273,-3183.3904,-45669.8,-42781.66,-8100.993
963318.5973878469,-89627.52,-105463.83,17106.08,-4189.331,-3180.2979,-45667.81,-42775.35,-8093.9536
963318.6013878444,-89619.914,-105455.81,17116.537,-4184.6113,-3178.1414,-45664.51,-42765.75,-8085.6123
963318.6053878419,-89619.914,-105456.18,17109.334,-4209.839,-3184.896,-45662.598,-42761.598,-8074.8296
963318.6093878394,-89637.58,-105470.22,17083.904,-4241.333,-3197.7947,-45664.473,-42763.105,-8072.5913
963318.613387837,-89642.7,-105471.805,17085.775,-4228.6787,-3191.6099,-45663.7,-42764.242,-8070.191
963318.6173878344,-89635.055,-105469.445,17107.992,-4193.197,-3181.1118,-45662.8,-42763.715,-8066.081
963318.6213878319,-89634.65,-105465.91,17111.816,-4182.4546,-3180.42,-45662.598,-42764.203,-8069.8247
963318.6253878294,-89638.35,-105464.56,17102.498,-4197.9575,-3184.489,-45662.438,-42763.67,-8077.149
963318.6293878269,-89640.305,-105468.305,17081.584,-4225.2197,-3193.3188,-45662.19,-42765.91,-8085.246
963318.6333878244,-89640.75,-105471.88,17086.02,-4218.0586,-3190.8774,-45662.152,-42770.47,-8087.728
963318.6373878219,-89636.88,-105466.8,17111.125,-4192.5864,-3185.1807,-45658.652,-42769.004,-8087.2397
963318.6413878194,-89636.88,-105464.03,17120.402,-4185.262,-3185.791,-45658.45,-42768.23,-8093.099
963318.6453878169,-89639.94,-105469.04,17116.252,-4206.421,-3193.4814,-45662.395,-42770.59,-8105.754
963318.6493878145,-89646.41,-105480.11,17096.965,-4233.358,-3200.5615,-45665.57,-42780.316,-8111.247
963318.653387812,-89647.75,-105482.83,17095.785,-4219.1978,-3197.3877,-45667.684,-42789.676,-8114.8276
963318.6573878095,-89641.89,-105471.97,17112.469,-4188.2734,-3190.4705,-45668.703,-42795.86,-8122.5996
963318.6613878069,-89641.6,-105474.57,17113.525,-4187.419,-3186.8083,-45669.477,-42799.074,-8126.5874
963318.6653878044,-89647.51,-105479.54,17095.623,-4211.467,-3188.9648,-45671.145,-42801.555,-8131.999
963318.6693878019,-89652.305,-105489.586,17076.01,-4235.759,-3190.918,-45673.504,-42807.414,-8140.137
963318.6733877994,-89649.26,-105490.93,17080.322,-4221.273,-3191.447,-45674.195,-42811.363,-8144.735
963318.6773877969,-89640.055,-105474.25,17102.295,-4185.3438,-3184.2856,-45675.133,-42812.99,-8140.015
963318.6813877944,-89633.016,-105465.78,17113.77,-4173.503,-3182.2104,-45673.83,-42812.95,-8138.1025
963318.685387792,-89632.81,-105465.17,17107.951,-4192.22,-3180.2166,-45673.383,-42809.043,-8133.179
963318.6893877895,-89631.516,-105472.7,17093.75,-4220.9067,-3178.9958,-45673.3,-42800.254,-8117.3506
963318.693387787,-89623.5,-105473.39,17107.178,-4210.246,-3172.1191,-45672.285,-42792.605,-8100.4644
963318.6973877845,-89615.36,-105463.71,17121.014,-4186.6455,-3162.7197,-45670.94,-42787.477,-8085.49
963318.701387782,-89613.2,-105459.44,17122.396,-4184.8555,-3164.4287,-45670.656,-42781.13,-8068.7666
963318.7053877794,-89613.89,-105465.25,17109.62,-4202.3926,-3166.626,-45670.74,-42776.57,-8060.14
963318.7093877769,-89620.0,-105475.99,17090.129,-4223.918,-3173.2178,-45667.074,-42768.434,-8048.5435
963318.7133877744,-89617.76,-105472.17,17094.727,-4211.589,-3171.1426,-45664.145,-42764.895,-8046.8345
963318.7173877719,-89605.76,-105462.28,17116.658,-4178.955,-3165.446,-45661.176,-42760.176,-8044.1084
963318.7213877694,-89604.984,-105460.695,17130.615,-4173.706,-3162.7605,-45657.797,-42751.953,-8034.139
963318.725387767,-89606.61,-105461.47,17127.32,-4197.2656,-3168.7827,-45657.84,-42745.2,-8023.6006
963318.7293877645,-89615.73,-105470.22,17100.79,-4228.801,-3177.409,-45658.69,-42744.14,-8030.477
963318.733387762,-89620.85,-105473.72,17097.088,-4220.744,-3175.822,-45656.66,-42749.92,-8051.595
963318.7373877595,-89617.07,-105468.63,17120.89,-4193.9697,-3171.2646,-45657.35,-42759.688,-8066.5693
963318.741387757,-89617.59,-105467.9,17134.4,-4185.14,-3166.2598,-45658.49,-42757.773,-8047.933
963318.7453877545,-89622.73,-105472.7,17118.693,-4198.812,-3168.8232,-45660.035,-42763.836,-8063.233
963318.7493877519,-89626.63,-105477.09,17095.012,-4217.8955,-3171.224,-45664.023,-42776.41,-8106.0386
963318.7533877494,-89626.1,-105475.14,17100.3,-4209.066,-3168.5386,-45664.51,-42782.84,-8122.315
963318.7573877469,-89629.73,-105473.96,17118.938,-4184.6924,-3164.7136,-45662.723,-42783.977,-8118.734
963318.7613877445,-89624.15,-105469.93,17131.512,-4178.6704,-3162.6792,-45661.38,-42782.676,-8106.2017
963318.765387742,-89624.31,-105470.83,17122.396,-4201.416,-3171.5088,-45662.395,-42784.223,-8101.9697
963318.7693877395,-89635.7,-105483.24,17095.012,-4230.957,-3181.1118,-45663.13,-42790.285,-8114.8687
963318.773387737,-89639.2,-105490.97,17096.111,-4218.1807,-3179.6875,-45664.31,-42798.87,-8126.4653
963318.7773877345,-89636.195,-105484.87,17115.398,-4188.1104,-3176.2695,-45667.156,-42807.09,-8134.0337
963318.781387732,-89635.99,-105479.086,17119.305,-4186.157,-3176.7578,-45667.277,-42808.188,-8131.877
963318.7853877295,-89634.89,-105480.11,17105.55,-4208.252,-3181.193,-45669.15,-42807.254,-8125.163
963318.789387727,-89641.484,-105489.83,17091.797,-4231.242,-3183.7566,-45669.637,-42805.22,-8120.0767
963318.7933877244,-89641.36,-105489.71,17091.879,-4221.761,-3173.991,-45670.574,-42801.96,-8109.986
963318.797387722,-89635.336,-105477.22,17114.38,-4190.715,-3167.7654,-45666.79,-42794.23,-8088.013
963318.8013877195,-89624.516,-105464.44,17135.58,-4176.921,-3160.1562,-45662.273,-42786.703,-8072.7544
963318.805387717,-89619.914,-105455.04,17128.215,-4195.842,-3162.8418,-45663.332,-42785.117,-8073.283
963318.8093877145,-89626.836,-105462.65,17099.732,-4226.9697,-3168.864,-45663.535,-42779.42,-8065.511
963318.813387712,-89633.71,-105468.914,17098.309,-4217.0005,-3165.8123,-45662.926,-42772.79,-8049.1133
963318.8173877095,-89635.79,-105464.89,17118.572,-4195.2314,-3161.621,-45659.87,-42767.62,-8031.0063
963318.821387707,-89633.14,-105460.66,17134.115,-4186.157,-3156.535,-45657.797,-42764.12,-8022.9087
963318.8253877045,-89631.11,-105461.76,17122.355,-4204.6714,-3154.0527,-45658.125,-42767.62,-8048.3403
963318.829387702,-89635.586,-105467.33,17100.057,-4233.6426,-3170.0847,-45659.547,-42769.695,-8056.1934
963318.8333876996,-89637.125,-105469.77,17106.16,-4220.134,-3167.6433,-45659.02,-42767.99,-8052.1245
963318.837387697,-89632.734,-105464.89,17125.0,-4191.081,-3159.3018,-45656.617,-42767.78,-8055.5015
963318.8413876945,-89630.414,-105457.65,17134.441,-4183.5127,-3155.8838,-45656.375,-42766.36,-8056.5596
963318.845387692,-89632.66,-105463.38,17124.023,-4206.34,-3164.7544,-45657.51,-42769.207,-8062.419
963318.8493876895,-89646.445,-105480.555,17096.15,-4240.3975,-3172.933,-45660.973,-42770.836,-8057.6177
963318.853387687,-89648.195,-105479.9,17103.15,-4225.586,-3164.3066,-45661.176,-42770.918,-8049.764
963318.8573876845,-89643.03,-105472.82,17121.95,-4189.9414,-3152.1404,-45658.816,-42774.05,-8058.309
963318.861387682,-89639.04,-105468.39,17127.809,-4171.997,-3149.984,-45657.27,-42781.74,-8089.9663
963318.8653876795,-89640.51,-105470.13,17123.21,-4191.284,-3159.912,-45656.535,-42781.21,-8086.263
963318.869387677,-89650.07,-105480.8,17103.312,-4224.7314,-3170.451,-45657.96,-42784.1,-8090.373
963318.8733876746,-89647.38,-105482.79,17108.562,-4218.506,-3167.3992,-45660.117,-42789.062,-8093.0586
963318.8773876721,-89644.86,-105477.016,17125.936,-4183.187,-3159.017,-45660.688,-42794.477,-8100.871
963318.8813876695,-89637.9,-105464.195,17140.422,-4169.393,-3157.5928,-45661.95,-42801.598,-8109.3345
963318.885387667,-89638.76,-105468.71,17133.992,-4194.4175,-3169.1082,-45664.55,-42803.426,-8106.1606
963318.8893876645,-89646.69,-105482.06,17104.207,-4226.9697,-3178.955,-45665.324,-42803.793,-8108.846
963318.893387662,-89649.414,-105483.89,17107.3,-4216.4717,-3172.3633,-45664.633,-42800.863,-8106.893
963318.8973876595,-89643.4,-105475.75,17123.82,-4188.9243,-3167.033,-45665.082,-42797.285,-8093.425
963318.901387657,-89644.86,-105475.71,17120.77,-4185.547,-3167.44,-45665.203,-42788.86,-8077.352
963318.9053876546,-89650.11,-105479.29,17114.46,-4202.1484,-3169.5151,-45661.785,-42781.74,-8064.0464
963318.9093876521,-89659.266,-105486.9,17100.953,-4234.3345,-3176.0662,-45658.895,-42774.66,-8051.351
963318.9133876496,-89666.79,-105494.8,17100.83,-4229.492,-3170.0034,-45658.406,-42766.156,-8034.5054
963318.9173876471,-89660.81,-105492.234,17121.541,-4191.4473,-3163.33,-45656.496,-42759.89,-8023.9263
963318.9213876446,-89646.164,-105465.25,17137.207,-4173.747,-3156.779,-45654.785,-42754.19,-8015.2183
963318.925387642,-89641.85,-105461.06,17125.367,-4197.795,-3160.0342,-45653.85,-42748.09,-8005.819
963318.9293876395,-89651.33,-105475.71,17099.691,-4232.9917,-3169.1082,-45652.305,-42744.957,-8006.429
963318.933387637,-89649.945,-105476.73,17105.469,-4225.1387,-3166.9922,-45652.305,-42748.293,-8021.688
963318.9373876345,-89646.445,-105470.46,17124.188,-4192.3423,-3160.2378,-45652.59,-42751.75,-8023.56
963318.941387632,-89642.58,-105463.38,17137.29,-4177.124,-3152.4253,-45655.07,-42757.324,-8035.6855
963318.9453876296,-89644.82,-105461.19,17127.645,-4196.086,-3155.9653,-45654.625,-42764.85,-8057.414
963318.9493876271,-89654.14,-105470.91,17106.445,-4226.8477,-3164.4695,-45654.99,-42769.086,-8064.25
963318.9533876246,-89658.164,-105476.56,17106.445,-4219.686,-3162.8826,-45656.94,-42773.074,-8064.4126
963318.9573876221,-89652.39,-105470.87,17131.389,-4186.971,-3156.7383,-45656.58,-42776.367,-8069.2954
963318.9613876196,-89647.914,-105466.15,17141.887,-4183.5938,-3155.9653,-45657.023,-42777.387,-8068.2783
963318.9653876171,-89650.07,-105472.086,17129.72,-4213.0537,-3160.604,-45660.08,-42781.453,-8076.1313
963318.9693876145,-89653.61,-105482.83,17112.469,-4239.177,-3174.0317,-45660.484,-42784.18,-8081.9097
963318.973387612,-89653.28,-105482.875,17121.582,-4224.447,-3175.415,-45659.02,-42790.164,-8085.897
963318.9773876095,-89648.93,-105478.6,17143.922,-4191.4062,-3158.081,-45661.703,-42799.887,-8099.5283
963318.981387607,-89645.47,-105469.445,17150.473,-4173.869,-3151.001,-45663.047,-42805.707,-8103.3125
963318.9853876046,-89647.99,-105472.62,17135.824,-4193.5225,-3157.5115,-45665.45,-42809.613,-8108.9683
963318.9893876021,-89658.45,-105485.72,17106.73,-4224.813,-3167.1958,-45664.348,-42809.043,-8111.6133
963318.9933875996,-89659.47,-105486.375,17106.121,-4218.099,-3158.081,-45663.047,-42803.184,-8097.6157
963318.9973875971,-89653.37,-105476.61,17125.326,-4190.511,-3148.397,-45661.582,-42794.844,-8078.7764
963319.0013875946,-89646.57,-105465.336,17143.84,-4182.373,-3145.4673,-45658.45,-42785.523,-8057.6987
963319.0053875921,-89647.22,-105463.75,17132.936,-4200.1953,-3152.5066,-45657.637,-42778.2,-8044.9224
963319.0093875896,-89655.97,-105476.16,17108.684,-4234.2124,-3162.191,-45657.715,-42773.195,-8042.196
963319.013387587,-89654.016,-105480.516,17120.361,-4225.0977,-3164.144,-45657.594,-42770.47,-8033.9766
963319.0173875846,-89650.8,-105477.586,17144.125,-4200.3174,-3156.9824,-45653.445,-42762.535,-8011.6377
963319.0213875821,-89650.555,-105474.0,17153.768,-4191.4473,-3158.2031,-45648.684,-42753.664,-7998.291
963319.0253875796,-89651.0,-105468.914,17141.357,-4204.468,-3156.6978,-45648.684,-42746.785,-7994.751
963319.0293875771,-89659.914,-105484.83,17120.32,-4233.3174,-3164.7136,-45644.98,-42740.36,-7987.468
963319.0333875746,-89658.86,-105477.26,17129.639,-4217.8145,-3162.8013,-45643.395,-42739.707,-7986.003
963319.0373875721,-89652.875,-105468.43,17148.56,-4181.1523,-3146.8914,-45643.11,-42741.7,-7985.718
963319.0413875696,-89647.99,-105462.53,17153.24,-4170.3696,-3141.561,-45646.363,-42747.355,-7994.1406
963319.0453875671,-89646.89,-105463.26,17133.586,-4190.837,-3147.99,-45649.336,-42749.88,-8001.9126
963319.0493875646,-89653.484,-105471.88,17108.928,-4223.5107,-3160.075,-45651.695,-42752.645,-8006.185
963319.0533875622,-89657.43,-105475.95,17110.555,-4225.0166,-3163.9812,-45653.32,-42760.094,-8018.7993
963319.0573875596,-89657.88,-105474.81,17126.994,-4192.8306,-3153.8494,-45654.34,-42767.375,-8027.344
963319.0613875571,-89652.875,-105468.875,17134.645,-4173.95,-3147.1763,-45656.78,-42773.48,-8031.3315
963319.0653875546,-89657.31,-105473.43,17122.03,-4193.7666,-3150.6755,-45659.832,-42778.81,-8038.615
963319.0693875521,-89666.305,-105483.04,17100.709,-4219.157,-3157.6335,-45658.53,-42785.566,-8045.6953
963319.0733875496,-89666.51,-105481.41,17101.197,-4212.2397,-3154.1748,-45656.496,-42791.504,-8051.229
963319.0773875471,-89664.88,-105481.125,17119.264,-4183.553,-3148.9258,-45655.805,-42798.625,-8057.943
963319.0813875446,-89659.305,-105475.875,17140.463,-4170.614,-3149.2515,-45656.66,-42803.836,-8064.0464
963319.0853875421,-89658.86,-105476.36,17128.541,-4191.3657,-3155.599,-45660.645,-42806.316,-8064.82
963319.0893875397,-89665.77,-105486.25,17098.512,-4221.924,-3158.1218,-45663.617,-42807.66,-8063.314
963319.0933875372,-89664.59,-105485.805,17100.994,-4206.5024,-3150.4722,-45663.332,-42808.15,-8059.3267
963319.0973875347,-89655.805,-105476.93,17121.541,-4174.927,-3141.6016,-45663.984,-42807.05,-8057.3325
963319.1013875321,-89652.59,-105473.27,17129.477,-4169.1895,-3140.91,-45662.152,-42803.67,-8054.0366
963319.1053875296,-89654.42,-105473.72,17121.135,-4186.6455,-3146.81,-45658.33,-42796.67,-8044.841
963319.1093875271,-89659.38,-105480.836,17096.924,-4217.7734,-3153.524,-45657.35,-42786.62,-8030.0703
963319.1133875246,-89656.74,-105482.22,17099.65,-4210.8564,-3151.123,-45654.95,-42778.2,-8016.6426
963319.1173875221,-89647.14,-105473.516,17123.129,-4180.786,-3147.5425,-45649.293,-42766.277,-8000.2036
963319.1213875196,-89641.36,-105463.51,17142.66,-4170.329,-3146.1997,-45646.688,-42753.83,-7986.003
963319.1253875172,-89640.875,-105466.96,17137.29,-4191.5283,-3148.5596,-45646.688,-42747.234,-7979.9805
963319.1293875147,-89648.32,-105477.7,17108.969,-4221.151,-3152.832,-45646.242,-42740.723,-7966.146
963319.1333875122,-89647.99,-105474.49,17103.027,-4208.293,-3150.0652,-45646.61,-42740.848,-7959.4727
963319.1373875097,-89644.25,-105468.06,17113.363,-4182.17,-3145.996,-45650.516,-42746.625,-7969.4014
963319.1413875072,-89645.39,-105464.93,17128.621,-4166.748,-3136.434,-45648.684,-42748.902,-7973.674
963319.1453875046,-89645.63,-105465.54,17119.67,-4187.378,-3141.3574,-45650.676,-42750.41,-7972.86
963319.1493875021,-89651.77,-105475.586,17099.365,-4217.7734,-3153.524,-45651.652,-42752.77,-7980.998
963319.1533874996,-89652.14,-105477.945,17105.836,-4202.9624,-3153.768,-45652.02,-42758.547,-7989.543
963319.1573874971,-89645.39,-105466.19,17121.541,-4173.625,-3144.4092,-45651.246,-42765.26,-7998.169
963319.1613874946,-89643.6,-105459.07,17129.232,-4166.382,-3141.9678,-45652.14,-42770.43,-8008.138
963319.1653874922,-89645.43,-105459.92,17111.37,-4189.8604,-3146.81,-45655.64,-42776.246,-8015.9917
963319.1693874897,-89657.72,-105472.78,17085.693,-4224.935,-3154.663,-45659.547,-42781.09,-8019.4907
963319.1733874872,-89655.03,-105469.04,17094.32,-4209.6763,-3150.7568,-45659.18,-42785.93,-8019.6943
963319.1773874847,-89646.61,-105457.16,17119.06,-4174.1133,-3139.73,-45658.49,-42791.3,-8020.142
963319.1813874822,-89638.63,-105450.6,17132.691,-4162.3535,-3134.1147,-45657.918,-42796.387,-8028.565
963319.1853874797,-89637.62,-105450.93,17126.994,-4174.886,-3141.1133,-45660.89,-42802.574,-8038.2896
963319.1893874771,-89645.836,-105461.555,17101.156,-4205.404,-3154.948,-45661.785,-42804.934,-8038.697
963319.1933874746,-89646.2,-105464.97,17107.137,-4199.626,-3155.7212,-45660.848,-42807.58,-8042.033
963319.1973874721,-89642.58,-105462.57,17131.795,-4171.1836,-3143.6362,-45660.645,-42809.246,-8043.498
963319.2013874697,-89638.72,-105462.32,17138.184,-4163.9,-3138.1836,-45659.75,-42806.234,-8033.814
963319.2053874672,-89637.375,-105455.24,17128.459,-4182.007,-3144.043,-45661.703,-42802.125,-8026.2456
963319.2093874647,-89642.7,-105463.51,17101.766,-4212.6875,-3153.5645,-45659.832,-42796.145,-8018.7583
963319.2133874622,-89645.51,-105463.95,17102.58,-4202.6777,-3148.7632,-45656.902,-42790.406,-8010.6206
963319.2173874597,-89639.41,-105448.77,17127.361,-4170.0034,-3138.1023,-45654.46,-42783.285,-7996.0938
963319.2213874572,-89636.31,-105440.555,17144.084,-4154.7446,-3134.318,-45651.33,-42773.438,-7979.5737
963319.2253874547,-89655.234,-105452.35,17133.627,-4177.3276,-3140.0146,-45647.707,-42763.348,-7967.6924
963319.2293874522,-89657.836,-105460.37,17113.281,-4211.3037,-3147.5425,-45648.03,-42759.117,-7960.49
963319.2333874496,-89633.836,-105453.17,17123.576,-4202.108,-3142.1714,-45650.473,-42758.26,-7946.411
963319.2373874472,-89630.05,-105451.22,17149.902,-4167.8467,-3137.7769,-45648.97,-42754.355,-7943.6035
963319.2413874447,-89632.445,-105449.34,17162.762,-4153.3613,-3134.8064,-45646.527,-42751.305,-7938.7207
963319.2453874422,-89644.62,-105464.27,17143.514,-4175.4966,-3140.2183,-45646.85,-42749.27,-7932.9023
963319.2493874397,-89661.055,-105485.195,17113.484,-4216.8784,-3148.4375,-45649.254,-42750.41,-7935.425
963319.2533874372,-89660.56,-105486.414,17117.596,-4211.914,-3143.5955,-45650.027,-42757.246,-7942.79
963319.2573874347,-89649.414,-105475.34,17144.41,-4177.165,-3137.7769,-45653.28,-42767.62,-7952.5146
963319.2613874322,-89652.914,-105477.46,17155.314,-4164.3477,-3143.4326,-45652.914,-42772.543,-7960.1646
963319.2653874297,-89669.88,-105497.4,17139.73,-4187.256,-3154.541,-45651.734,-42774.66,-7962.199
963319.2693874273,-89681.36,-105515.016,17111.41,-4219.8896,-3161.784,-45651.53,-42779.38,-7970.5405
963319.2733874248,-89670.695,-105512.125,17121.582,-4203.166,-3160.8887,-45654.297,-42787.844,-7975.83
963319.2773874223,-89664.72,-105503.016,17147.176,-4164.551,-3152.5066,-45655.07,-42791.504,-7979.696
963319.2813874197,-89676.48,-105509.73,17150.146,-4160.3193,-3154.663,-45650.027,-42791.504,-7978.5156
963319.2853874172,-89682.74,-105516.32,17136.068,-4188.558,-3163.4116,-45648.766,-42790.61,-7978.882
963319.2893874147,-89686.445,-105525.03,17119.467,-4227.051,-3169.8813,-45652.832,-42796.67,-7998.576
963319.2933874122,-89690.59,-105535.04,17130.982,-4214.1523,-3173.0552,-45653.402,-42799.074,-8001.3022
963319.2973874097,-89689.91,-105529.26,17154.42,-4174.5605,-3172.5261,-45651.816,-42797.61,-7992.391
963319.3013874072,-89678.23,-105515.71,17165.854,-4161.54,-3167.562,-45652.47,-42797.895,-7988.159
963319.3053874047,-89677.734,-105514.29,17159.344,-4174.154,-3160.9294,-45651.207,-42794.434,-7977.58
963319.3093874023,-89682.78,-105521.2,17132.324,-4209.961,-3164.6323,-45651.082,-42789.39,-7969.2383
963319.3133873998,-89687.79,-105528.445,17122.64,-4206.9907,-3162.6792,-45650.516,-42783.33,-7965.9834
963319.3173873973,-89682.74,-105522.586,17140.625,-4176.5547,-3161.499,-45646.85,-42777.06,-7957.927
963319.3213873948,-89675.13,-105513.96,17153.28,-4168.6606,-3161.0515,-45646.242,-42774.336,-7945.516
963319.3253873922,-89682.5,-105519.734,17144.816,-4191.854,-3165.8123,-45644.734,-42766.156,-7937.8257
963319.3293873897,-89687.586,-105524.336,17122.518,-4221.924,-3172.16,-45645.508,-42757.57,-7932.007
963319.3333873872,-89682.58,-105520.59,17130.982,-4204.753,-3170.2068,-45645.184,-42752.973,-7924.4795
963319.3373873847,-89675.336,-105512.21,17152.508,-4166.301,-3155.1921,-45644.695,-42749.023,-7917.7246
963319.3413873822,-89673.71,-105505.29,17161.703,-4157.837,-3152.6694,-45644.98,-42744.508,-7914.266
963319.3453873798,-89670.33,-105503.83,17153.932,-4176.677,-3154.948,-45646.2,-42744.67,-7915.8936
963319.3493873773,-89675.336,-105514.29,17134.48,-4209.4727,-3163.6963,-45647.746,-42748.008,-7919.922
963319.3533873748,-89683.59,-105516.805,17135.174,-4204.1426,-3165.6494,-45647.46,-42755.453,-7927.694
963319.3573873723,-89677.125,-105508.47,17152.426,-4170.4917,-3156.779,-45647.22,-42760.297,-7924.6826
963319.3613873698,-89669.234,-105508.38,17163.006,-4157.878,-3157.308,-45647.46,-42760.664,-7926.3916
963319.3653873673,-89667.73,-105508.71,17153.89,-4181.8037,-3161.499,-45647.42,-42760.38,-7927.6533
963319.3693873647,-89668.42,-105514.81,17128.215,-4222.9414,-3166.3818,-45647.87,-42764.85,-7934.4077
963319.3733873622,-89678.875,-105524.54,17121.908,-4217.5703,-3164.7544,-45648.6,-42770.223,-7947.4287
963319.3773873597,-89676.555,-105521.164,17146.443,-4178.833,-3155.9246,-45648.234,-42776.45,-7943.8887
963319.3813873573,-89669.234,-105516.195,17165.365,-4162.0283,-3149.0073,-45647.34,-42782.15,-7944.9463
963319.3853873548,-89669.07,-105512.58,17155.762,-4179.9316,-3149.2107,-45649.742,-42789.473,-7969.4014
963319.3893873523,-89674.28,-105513.02,17137.166,-4212.199,-3164.3066,-45652.832,-42794.19,-7980.713
963319.3933873498,-89676.48,-105516.32,17148.234,-4194.0513,-3164.3882,-45652.67,-42796.55,-7976.8477
963319.3973873473,-89677.164,-105511.97,17159.506,-4166.9517,-3159.3018,-45650.473,-42795.86,-7970.9473
963319.4013873448,-89674.65,-105506.836,17172.73,-4153.3203,-3159.668,-45648.074,-42789.88,-7960.2866
963319.4053873423,-89675.13,-105503.18,17171.143,-4169.922,-3160.8887,-45647.42,-42781.13,-7941.04
963319.4093873398,-89684.45,-105516.93,17145.143,-4205.078,-3169.393,-45646.363,-42773.926,-7932.007
963319.4133873372,-89684.33,-105525.11,17136.354,-4199.9106,-3168.2537,-45645.223,-42769.453,-7928.508
963319.4173873347,-89683.59,-105522.34,17149.008,-4174.398,-3163.5742,-45644.043,-42764.04,-7925.09
963319.4213873323,-89680.625,-105519.86,17159.465,-4162.069,-3157.4302,-45641.523,-42751.344,-7907.959
963319.4253873298,-89677.66,-105520.19,17157.105,-4180.1353,-3160.5632,-45641.277,-42741.984,-7890.1777
963319.4293873273,-89682.7,-105528.24,17138.225,-4216.3086,-3176.4731,-45642.418,-42737.875,-7886.76
963319.4333873248,-89678.14,-105521.69,17147.87,-4198.039,-3173.5027,-45640.22,-42733.81,-7879.72
963319.4373873223,-89665.77,-105510.13,17173.87,-4163.8594,-3161.0107,-45637.656,-42729.94,-7868.449
963319.4413873198,-89666.95,-105513.8,17185.914,-4154.989,-3155.1514,-45635.867,-42729.086,-7866.8623
963319.4453873173,-89674.36,-105517.83,17168.295,-4179.7285,-3165.3647,-45636.23,-42731.977,-7877.5635
963319.4493873148,-89694.3,-105535.16,17127.482,-4223.104,-3179.891,-45637.535,-42731.69,-7885.376
963319.4533873124,-89703.62,-105540.66,17127.441,-4214.0303,-3176.5952,-45639.12,-42739.18,-7896.7695
963319.4573873098,-89704.266,-105542.24,17150.799,-4177.8975,-3162.9639,-45638.266,-42744.71,-7901.937
963319.4613873073,-89693.93,-105520.35,17163.453,-4159.261,-3147.868,-45639.12,-42747.07,-7895.793
963319.4653873048,-89695.88,-105518.48,17156.414,-4175.7,-3148.4783,-45639.895,-42753.543,-7908.9355
963319.4693873023,-89705.33,-105532.96,17136.23,-4212.606,-3158.244,-45640.42,-42757.57,-7917.7656
963319.4733872998,-89705.734,-105535.04,17141.033,-4203.125,-3158.61,-45641.24,-42760.05,-7916.3413
963319.4773872973,-89701.91,-105528.69,17165.447,-4173.7876,-3148.8853,-45640.26,-42766.887,-7914.2256
963319.4813872948,-89698.445,-105523.69,17173.584,-4162.2725,-3149.0479,-45637.98,-42768.68,-7915.202
963319.4853872923,-89700.12,-105527.43,17160.604,-4181.885,-3157.8777,-45638.797,-42773.926,-7924.8457
963319.4893872899,-89711.875,-105540.695,17131.062,-4219.035,-3163.9404,-45642.906,-42781.13,-7942.0166
963319.4933872874,-89714.4,-105544.92,17132.488,-4209.88,-3160.6853,-45642.945,-42784.59,-7947.754
963319.4973872849,-89709.76,-105542.36,17152.385,-4184.7334,-3157.308,-45642.742,-42786.543,-7943.9697
963319.5013872823,-89699.22,-105529.95,17174.275,-4164.144,-3149.414,-45643.027,-42784.668,-7928.9146
963319.5053872798,-89698.24,-105532.72,17168.01,-4176.677,-3149.2515,-45641.44,-42780.07,-7920.166
963319.5093872773,-89704.02,-105544.4,17145.428,-4210.124,-3158.6914,-45642.215,-42773.805,-7908.366
963319.5133872748,-89699.75,-105541.914,17151.123,-4199.707,-3159.8716,-45642.05,-42767.17,-7894.4907
963319.5173872723,-89690.43,-105524.26,17170.857,-4165.202,-3149.4956,-45639.324,-42756.715,-7870.117
963319.5213872698,-89687.3,-105514.37,17184.082,-4148.5596,-3148.3562,-45637.656,-42744.305,-7851.0337
963319.5253872673,-89686.65,-105513.8,17182.252,-4172.2007,-3154.7852,-45635.254,-42734.66,-7847.453
963319.5293872649,-89705.65,-105535.12,17155.803,-4221.924,-3162.8013,-45634.848,-42729.047,-7850.383
963319.5333872624,-89707.28,-105536.95,17155.193,-4213.623,-3158.4067,-45636.152,-42727.703,-7847.6562
963319.5373872599,-89698.53,-105526.77,17177.979,-4177.0835,-3147.5425,-45636.19,-42725.465,-7845.0117
963319.5413872574,-89692.016,-105520.19,17191.65,-4156.3315,-3142.5376,-45634.035,-42723.594,-7842.6924
963319.5453872548,-89692.95,-105524.91,17179.402,-4172.8926,-3145.4265,-45634.645,-42724.043,-7848.1445
963319.5493872523,-89698.98,-105527.836,17151.814,-4205.6074,-3152.71,-45637.086,-42727.785,-7855.7944
963319.5533872498,-89702.31,-105532.59,17153.646,-4193.807,-3150.7163,-45637.453,-42734.418,-7863.4443
963319.5573872473,-89702.4,-105526.984,17168.54,-4163.9814,-3143.1885,-45638.47,-42742.11,-7871.2974
963319.5613872448,-89691.164,-105513.59,17178.102,-4148.3564,-3139.8113,-45639.895,-42748.375,-7872.1924
963319.5653872424,-89691.98,-105516.195,17159.383,-4168.376,-3150.7568,-45640.383,-42751.1,-7878.2554
963319.5693872399,-89699.51,-105527.71,17136.068,-4208.7812,-3156.372,-45642.215,-42753.703,-7875.5293
963319.5733872374,-89701.17,-105531.66,17147.258,-4199.748,-3153.0762,-45642.133,-42756.27,-7871.257
963319.5773872349,-89701.016,-105527.71,17170.574,-4165.161,-3146.6472,-45637.492,-42757.61,-7866.6587
963319.5813872324,-89693.97,-105514.164,17189.861,-4154.175,-3138.5093,-45637.98,-42762.695,-7872.6807
963319.5853872299,-89688.97,-105510.625,17188.72,-4168.6606,-3140.2588,-45639.082,-42775.637,-7915.4463
963319.5893872273,-89700.805,-105524.87,17160.727,-4204.509,-3153.2798,-45639.73,-42781.293,-7924.398
963319.5933872248,-89706.914,-105530.73,17158.326,-4199.6665,-3152.7507,-45641.523,-42781.984,-7901.693
963319.5973872223,-89699.95,-105520.59,17179.443,-4165.4463,-3141.3574,-45640.06,-42778.65,-7880.412
963319.6013872199,-89689.336,-105510.42,17194.418,-4147.054,-3137.6548,-45638.31,-42772.707,-7875.4478
963319.6053872174,-89686.37,-105507.04,17187.664,-4172.689,-3140.0146,-45639.61,-42768.434,-7878.4995
963319.6093872149,-89691.695,-105516.85,17163.25,-4216.919,-3152.0996,-45642.01,-42762.94,-7883.7485
963319.6133872124,-89690.39,-105518.68,17161.824,-4204.183,-3150.4314,-45643.68,-42753.582,-7871.135
963319.6173872099,-89688.68,-105515.14,17179.322,-4166.301,-3140.2183,-45639.0,-42739.42,-7837.6465
963319.6213872074,-89683.39,-105503.95,17203.207,-4147.4204,-3130.0457,-45633.426,-42724.082,-7807.658
963319.6253872049,-89683.68,-105501.63,17199.057,-4165.731,-3136.4746,-45632.164,-42715.58,-7794.5967
963319.6293872024,-89694.42,-105514.0,17169.922,-4203.044,-3153.768,-45631.758,-42712.04,-7797.4043
963319.6333871998,-89697.63,-105521.69,17163.127,-4199.504,-3152.0183,-45630.13,-42709.188,-7795.044
963319.6373871973,-89692.586,-105513.59,17186.28,-4167.033,-3142.1714,-45628.133,-42706.137,-7787.0283
963319.6413871949,-89690.48,-105503.87,17196.29,-4162.4756,-3140.2996,-45628.297,-42708.7,-7798.9097
963319.6453871924,-89692.67,-105509.445,17189.982,-4183.5938,-3147.705,-45630.13,-42711.754,-7809.6113
963319.6493871899,-89707.36,-105525.92,17163.738,-4214.6406,-3155.599,-45632.49,-42714.113,-7812.5
963319.6533871874,-89707.4,-105522.914,17162.8,-4196.411,-3147.0542,-45632.367,-42719.523,-7807.292
963319.6573871849,-89698.125,-105506.02,17190.715,-4158.244,-3134.4402,-45631.758,-42724.895,-7815.511
963319.6613871824,-89695.07,-105495.164,17202.516,-4147.0947,-3133.9927,-45633.016,-42731.12,-7821.981
963319.6653871799,-89698.2,-105502.98,17188.232,-4174.8457,-3140.747,-45635.05,-42733.4,-7810.913
963319.6693871774,-89704.76,-105520.51,17152.67,-4220.703,-3151.53,-45638.67,-42740.926,-7818.2783
963319.673387175,-89715.21,-105530.52,17151.408,-4216.2275,-3143.7583,-45640.18,-42751.953,-7851.3184
963319.6773871724,-89710.66,-105519.375,17181.64,-4175.537,-3130.127,-45641.44,-42760.418,-7864.258
963319.6813871699,-89710.78,-105521.08,17193.441,-4158.6914,-3130.2085,-45643.027,-42767.5,-7867.025
963319.6853871674,-89716.43,-105526.01,17180.95,-4178.304,-3142.456,-45641.156,-42772.586,-7869.1816
963319.6893871649,-89720.99,-105535.484,17151.531,-4213.0537,-3152.71,-45641.766,-42774.008,-7869.3037
963319.6933871624,-89725.18,-105546.8,17148.234,-4213.4604,-3154.0527,-45640.83,-42775.312,-7874.105
963319.6973871599,-89718.38,-105541.875,17174.643,-4176.107,-3145.9556,-45639.445,-42772.34,-7868.9375
963319.7013871574,-89708.945,-105531.5,17188.03,-4156.7793,-3142.5376,-45639.69,-42766.195,-7854.533
963319.705387155,-89704.67,-105527.8,17185.873,-4167.318,-3145.3452,-45639.445,-42756.51,-7837.3213
963319.7093871525,-89708.87,-105533.41,17168.092,-4202.4336,-3149.292,-45638.31,-42749.27,-7820.923
963319.71338715,-89706.18,-105530.84,17174.195,-4201.416,-3144.2466,-45640.504,-42748.902,-7809.1636
963319.7173871475,-89698.57,-105523.73,17195.557,-4167.3994,-3135.3354,-45639.57,-42744.71,-7798.1772
963319.7213871449,-89695.6,-105523.73,17205.525,-4149.17,-3130.7373,-45637.41,-42737.266,-7785.9297
963319.7253871424,-89696.29,-105524.17,17194.295,-4174.8047,-3132.243,-45636.19,-42729.414,-7776.042
963319.7293871399,-89703.984,-105534.63,17174.031,-4213.623,-3142.741,-45637.168,-42722.21,-7771.8916
963319.7333871374,-89703.82,-105538.86,17183.146,-4198.12,-3142.5376,-45632.0,-42720.258,-7775.3906
963319.7373871349,-89700.766,-105543.87,17201.13,-4166.301,-3138.7534,-45628.5,-42717.855,-7769.979
