timestamp,Fp1,Fp2,F3,Fz,F4,Cz,Pz,Oz
881059.4895847606,8169.393,-126754.56,-46800.62,-39675.254,-68525.27,-39928.793,-82091.43,7715.576
881059.4935847585,8170.207,-126752.12,-46798.383,-39672.934,-68517.984,-39928.793,-82092.57,7713.3384
881059.4975847563,8168.742,-126753.99,-46787.8,-39668.133,-68505.62,-39926.84,-82088.664,7723.877
881059.5015847542,8163.778,-126760.09,-46779.707,-39669.19,-68503.016,-39927.043,-82087.12,7729.7363
881059.5055847521,8165.324,-126762.86,-46790.324,-39676.758,-68514.65,-39930.055,-82092.77,7721.924
881059.5095847499,8165.528,-126763.15,-46802.86,-39679.16,-68521.98,-39934.41,-82097.7,7708.008
881059.5135847478,8162.679,-126760.54,-46800.62,-39674.93,-68515.51,-39935.184,-82096.6,7702.759
881059.5175847457,8162.11,-126755.78,-46788.535,-39670.656,-68504.31,-39933.96,-82091.96,7716.797
881059.5215847435,8168.2134,-126752.85,-46779.34,-39670.816,-68506.76,-39934.652,-82088.95,7727.417
881059.5255847414,8171.7124,-126765.305,-46790.203,-39681.07,-68526.05,-39937.785,-82091.11,7724.243
881059.5295847392,8167.359,-126768.48,-46807.05,-39686.566,-68537.84,-39940.43,-82095.664,7717.9365
881059.5335847371,8162.9644,-126763.02,-46804.484,-39682.008,-68526.57,-39939.74,-82095.26,7722.2495
881059.537584735,8163.7373,-126766.56,-46792.727,-39676.188,-68515.51,-39937.418,-82093.51,7726.074
881059.5415847328,8168.905,-126762.66,-46782.188,-39672.895,-68512.58,-39936.89,-82092.125,7729.411
881059.5455847307,8169.027,-126758.95,-46790.49,-39679.73,-68522.22,-39940.27,-82094.52,7725.2607
881059.5495847285,8167.44,-126765.18,-46810.1,-39685.71,-68533.29,-39944.215,-82098.02,7714.9253
881059.5535847264,8164.8765,-126764.98,-46808.555,-39684.773,-68526.66,-39942.996,-82098.76,7711.589
881059.5575847243,8167.928,-126758.95,-46795.207,-39680.176,-68516.08,-39940.918,-82095.95,7716.96
881059.5615847221,8168.5386,-126761.516,-46791.18,-39679.73,-68511.6,-39939.617,-82092.53,7724.4873
881059.56558472,8161.9062,-126769.45,-46800.62,-39685.426,-68523.73,-39941.043,-82088.664,7731.8525
881059.5695847179,8165.609,-126768.68,-46809.695,-39689.09,-68533.45,-39944.62,-82091.02,7722.412
881059.5735847157,8170.329,-126757.37,-46803.67,-39682.902,-68521.164,-39944.38,-82089.84,7712.8906
881059.5775847136,8175.4966,-126749.96,-46790.0,-39675.293,-68511.64,-39940.51,-82080.37,7733.8057
881059.5815847116,8174.154,-126744.47,-46784.793,-39676.11,-68512.375,-39938.19,-82075.766,7744.0596
881059.5855847094,8171.9565,-126746.99,-46796.957,-39684.41,-68520.02,-39939.332,-82077.68,7736.654
881059.5895847073,8174.683,-126752.89,-46810.344,-39692.14,-68533.9,-39945.395,-82084.59,7726.3184
881059.5935847051,8171.672,-126754.4,-46807.254,-39687.46,-68536.09,-39943.81,-82084.96,7732.6255
881059.597584703,8169.4746,-126747.12,-46794.434,-39679.973,-68524.09,-39940.43,-82081.51,7749.4307
881059.6015847009,8175.863,-126741.336,-46786.824,-39680.992,-68520.836,-39940.918,-82082.08,7747.7217
881059.6055846987,8179.8506,-126745.164,-46795.25,-39686.32,-68529.46,-39943.81,-82084.76,7745.8906
881059.6095846966,8175.3745,-126748.414,-46811.973,-39689.82,-68534.71,-39944.95,-82086.96,7732.463
881059.6135846945,8169.1084,-126746.22,-46808.72,-39685.344,-68530.11,-39944.418,-82085.49,7731.4863
881059.6175846923,8172.73,-126738.734,-46798.953,-39680.992,-68518.27,-39942.668,-82084.19,7731.201
881059.6215846902,8173.7876,-126736.82,-46795.74,-39682.254,-68513.67,-39940.676,-82084.44,7732.2593
881059.625584688,8169.8813,-126751.02,-46806.195,-39690.797,-68524.01,-39943.484,-82088.22,7727.702
881059.6295846859,8168.5796,-126750.086,-46819.62,-39695.23,-68532.63,-39946.13,-82090.01,7720.0117
881059.6335846838,8170.5327,-126748.664,-46811.85,-39689.414,-68524.3,-39945.027,-82085.94,7724.3247
881059.6375846816,8170.4106,-126754.07,-46794.273,-39681.64,-68510.46,-39941.938,-82078.66,7730.957
881059.6415846795,8171.387,-126760.055,-46790.938,-39682.17,-68508.875,-39939.414,-82073.24,7745.2803
881059.6455846773,8172.567,-126769.945,-46797.08,-39690.51,-68522.18,-39943.605,-82077.48,7737.427
881059.6495846752,8171.8345,-126772.83,-46810.63,-39696.414,-68533.164,-39947.55,-82085.53,7727.1323
881059.6535846731,8167.237,-126767.945,-46813.113,-39691.734,-68523.52,-39945.965,-82084.27,7735.718
881059.6575846709,8168.905,-126759.766,-46799.684,-39684.53,-68508.79,-39942.71,-82077.88,7749.2676
881059.6615846688,8173.869,-126756.07,-46791.098,-39683.105,-68501.34,-39941.406,-82074.266,7752.4824
881059.6655846667,8174.276,-126753.664,-46802.207,-39687.95,-68508.22,-39943.2,-82076.375,7748.047
881059.6695846645,8179.6064,-126749.72,-46814.7,-39691.734,-68520.836,-39944.336,-82082.03,7734.9854
881059.6735846624,8179.891,-126740.03,-46812.297,-39687.625,-68515.625,-39941.734,-82079.555,7736.8574
881059.6775846602,8173.9097,-126733.766,-46798.992,-39683.96,-68504.07,-39939.25,-82076.055,7741.496
881059.6815846581,8175.6597,-126733.28,-46793.094,-39686.566,-68511.516,-39939.047,-82075.73,7748.576
881059.685584656,8178.345,-126735.516,-46807.496,-39691.773,-68519.164,-39943.766,-82082.28,7742.6353
881059.6895846538,8174.398,-126740.28,-46822.47,-39696.207,-68522.71,-39945.152,-82089.03,7728.3936
881059.6935846517,8171.102,-126735.07,-46817.305,-39692.3,-68514.2,-39943.89,-82089.93,7729.2075
881059.6975846495,8170.1665,-126724.2,-46802.734,-39686.44,-68501.63,-39941.043,-82086.266,7739.38
881059.7015846474,8173.381,-126724.695,-46795.613,-39685.387,-68498.3,-39940.066,-82080.98,7748.576
881059.7055846453,8171.387,-126730.8,-46807.21,-39693.44,-68512.125,-39943.074,-82081.55,7743.042
881059.7095846431,8173.625,-126733.69,-46823.367,-39697.227,-68520.39,-39946.82,-82087.94,7727.702
881059.713584641,8180.2983,-126729.49,-46819.54,-39690.348,-68516.56,-39945.23,-82085.29,7733.1953
881059.7175846389,8185.059,-126720.46,-46803.223,-39681.48,-68500.77,-39940.96,-82076.945,7750.8955
881059.7215846367,8182.4956,-126717.77,-46797.73,-39680.543,-68495.16,-39939.617,-82072.8,7764.16
881059.7255846346,8182.0884,-126719.94,-46804.527,-39684.938,-68498.414,-39942.914,-82072.72,7761.8003
881059.7295846324,8187.7036,-126728.88,-46819.01,-39689.008,-68503.664,-39945.355,-82076.58,7751.587
881059.7335846303,8186.198,-126730.76,-46817.26,-39684.125,-68495.77,-39943.36,-82076.625,7745.4834
881059.7375846282,8182.414,-126724.0,-46807.375,-39678.305,-68492.07,-39941.164,-82073.695,7756.633
881059.741584626,8185.059,-126725.914,-46804.04,-39681.438,-68500.94,-39939.82,-82071.82,7765.7065
881059.745584624,8185.832,-126733.16,-46814.535,-39688.56,-68509.93,-39941.773,-82071.25,7761.068
881059.7495846219,8185.262,-126736.01,-46828.168,-39689.984,-68511.84,-39942.18,-82072.59,7747.8027
881059.7535846197,8184.123,-126728.766,-46821.74,-39684.043,-68498.62,-39937.418,-82064.375,7758.911
881059.7575846176,8187.3374,-126722.3,-46808.555,-39678.1,-68482.95,-39933.23,-82057.414,7772.38
881059.7615846155,8190.959,-126724.086,-46799.074,-39679.605,-68479.66,-39931.926,-82054.69,7774.4956
881059.7655846133,8191.854,-126732.586,-46811.688,-39687.46,-68492.8,-39932.742,-82060.266,7765.9507
881059.7695846112,8193.4,-126739.75,-46828.29,-39694.215,-68500.81,-39934.938,-82069.3,7747.762
881059.773584609,8200.969,-126732.914,-46819.746,-39688.965,-68493.98,-39933.84,-82073.65,7741.1704
881059.7775846069,8204.306,-126727.54,-46802.656,-39682.457,-68481.695,-39927.41,-82067.95,7762.7363
881059.7815846048,8200.277,-126729.58,-46794.637,-39682.09,-68472.29,-39921.348,-82065.02,7776.7334
881059.7855846026,8205.648,-126732.016,-46801.68,-39689.13,-68474.61,-39920.74,-82070.88,7765.666
881059.7895846005,8213.501,-126734.46,-46815.84,-39691.45,-68471.72,-39918.742,-82073.41,7758.545
881059.7935845983,8210.287,-126729.414,-46812.5,-39687.176,-68463.7,-39911.336,-82069.945,7762.655
881059.7975845962,8208.862,-126725.23,-46797.85,-39684.734,-68455.61,-39906.332,-82066.49,7771.322
881059.8015845941,8210.693,-126722.66,-46791.547,-39685.547,-68456.22,-39901.613,-82066.0,7781.657
881059.8055845919,8212.077,-126719.73,-46801.516,-39691.855,-68464.12,-39902.996,-82072.43,7767.4155
881059.8095845898,8215.292,-126717.984,-46813.76,-39694.297,-68468.02,-39902.875,-82074.875,7752.9297
881059.8135845877,8209.636,-126721.16,-46811.24,-39692.02,-68462.85,-39897.79,-82070.15,7759.5625
881059.8175845855,8207.4795,-126718.59,-46797.65,-39687.055,-68452.44,-39890.18,-82060.38,7776.367
881059.8215845834,8211.833,-126722.984,-46789.105,-39687.137,-68447.43,-39885.582,-82057.54,7782.5117
881059.8255845812,8212.036,-126738.98,-46805.3,-39698.12,-68456.95,-39887.004,-82064.05,7775.92
881059.8295845791,8203.329,-126744.8,-46823.934,-39706.18,-68468.914,-39888.348,-82066.61,7768.84
881059.833584577,8205.688,-126736.82,-46817.793,-39698.895,-68454.67,-39885.01,-82064.25,7772.217
881059.8375845748,8208.334,-126722.25,-46800.984,-39692.383,-68438.766,-39879.926,-82058.555,7777.0996
881059.8415845727,8211.996,-126722.58,-46793.99,-39691.406,-68434.734,-39876.508,-82054.2,7786.4585
881059.8455845705,8215.861,-126729.086,-46801.84,-39697.918,-68443.36,-39878.99,-82059.53,7777.629
881059.8495845684,8211.63,-126733.81,-46814.863,-39700.887,-68445.56,-39881.51,-82066.164,7760.4575
881059.8535845663,8214.844,-126729.13,-46808.594,-39694.582,-68437.95,-39878.46,-82063.234,7767.741
881059.8575845641,8221.3545,-126723.8,-46794.11,-39687.258,-68425.82,-39875.125,-82057.13,7784.6274
881059.861584562,8219.238,-126721.56,-46788.21,-39687.01,-68422.98,-39874.473,-82056.07,7789.1846
881059.8655845599,8221.558,-126722.414,-46797.406,-39694.906,-68437.46,-39878.418,-82061.61,7778.646
881059.8695845577,8222.941,-126725.914,-46807.008,-39699.465,-68443.85,-39880.86,-82066.81,7770.101
881059.8735845556,8224.976,-126724.61,-46803.387,-39692.63,-68432.78,-39876.18,-82060.95,7773.0713
881059.8775845534,8220.5,-126715.17,-46789.797,-39685.305,-68421.43,-39870.89,-82054.164,7786.418
881059.8815845513,8221.599,-126714.08,-46782.31,-39685.75,-68421.266,-39869.06,-82056.16,7788.574
881059.8855845492,8220.459,-126722.62,-46794.273,-39694.336,-68429.12,-39871.46,-82062.016,7781.291
881059.889584547,8220.012,-126727.79,-46808.027,-39698.527,-68438.88,-39873.535,-82066.24,7777.873
881059.8935845449,8222.697,-126726.08,-46804.77,-39694.582,-68438.4,-39874.637,-82066.61,7775.4316
881059.8975845427,8219.36,-126722.7,-46788.535,-39686.566,-68424.16,-39870.973,-82064.17,7775.92
881059.9015845406,8218.466,-126723.72,-46780.887,-39685.75,-68423.14,-39869.71,-82064.66,7780.2734
881059.9055845385,8217.082,-126733.484,-46793.703,-39693.89,-68439.13,-39873.17,-82070.766,7773.6006
881059.9095845364,8214.56,-126737.875,-46806.805,-39698.242,-68450.89,-39877.484,-82079.555,7759.2773
881059.9135845343,8209.066,-126738.24,-46802.777,-39691.977,-68444.586,-39876.26,-82078.125,7763.3467
881059.9175845322,8208.537,-126736.62,-46792.684,-39686.77,-68430.83,-39870.65,-82071.25,7770.1826
881059.92158453,8212.891,-126736.01,-46787.355,-39688.883,-68429.77,-39868.53,-82066.24,7779.541
881059.9255845279,8220.541,-126734.3,-46791.426,-39692.75,-68437.3,-39868.938,-82067.38,7774.862
881059.9295845258,8216.146,-126731.0,-46802.816,-39698.977,-68441.33,-39871.258,-82069.87,7759.8066
881059.9335845236,8210.815,-126731.94,-46798.34,-39695.438,-68433.19,-39869.47,-82067.67,7763.713
881059.9375845215,8211.996,-126726.89,-46788.25,-39689.82,-68425.414,-39866.17,-82062.7,7773.1934
881059.9415845193,8213.867,-126726.98,-46785.28,-39689.168,-68429.77,-39865.6,-82060.18,7778.4834
881059.9455845172,8207.52,-126742.64,-46797.773,-39698.324,-68442.99,-39870.89,-82066.734,7770.5894
881059.9495845151,8210.49,-126741.3,-46808.92,-39700.195,-68448.445,-39875.246,-82074.055,7755.412
881059.9535845129,8215.007,-126731.086,-46800.496,-39693.117,-68435.914,-39873.375,-82072.43,7756.9175
881059.9575845108,8217.285,-126729.49,-46790.12,-39688.6,-68427.82,-39871.707,-82066.9,7770.63
881059.9615845087,8213.745,-126730.31,-46781.17,-39687.867,-68428.875,-39871.867,-82065.92,7782.837
881059.9655845065,8212.24,-126737.305,-46790.04,-39695.477,-68437.26,-39876.465,-82072.19,7772.5425
881059.9695845044,8212.077,-126744.836,-46802.734,-39698.082,-68441.49,-39880.332,-82077.44,7759.725
881059.9735845022,8215.739,-126743.58,-46803.71,-39695.395,-68435.14,-39876.465,-82072.1,7771.7695
881059.9775845001,8216.228,-126736.54,-46795.453,-39691.812,-68425.055,-39874.637,-82070.766,7771.2812
881059.981584498,8211.101,-126739.586,-46792.645,-39690.594,-68418.83,-39873.414,-82069.945,7772.949
881059.9855844958,8214.966,-126744.43,-46799.48,-39696.82,-68426.07,-39876.26,-82071.82,7778.2393
881059.9895844937,8216.96,-126746.51,-46810.71,-39700.195,-68430.3,-39880.414,-82072.836,7777.0186
881059.9935844915,8215.576,-126745.2,-46805.46,-39691.855,-68418.87,-39879.273,-82071.86,7765.747
881059.9975844894,8211.67,-126745.484,-46788.656,-39686.08,-68409.18,-39875.57,-82067.79,7777.2627
881060.0015844873,8217.407,-126743.82,-46780.887,-39685.832,-68401.82,-39874.43,-82065.92,7788.33
881060.0055844851,8213.745,-126749.234,-46794.07,-39695.8,-68418.46,-39878.95,-82070.36,7778.5645
881060.009584483,8217.204,-126748.21,-46809.004,-39702.8,-68437.46,-39884.605,-82076.58,7760.295
881060.0135844809,8220.663,-126741.21,-46801.312,-39696.902,-68433.27,-39885.133,-82076.664,7759.481
881060.0175844787,8220.419,-126739.47,-46786.582,-39688.723,-68425.87,-39880.617,-82071.62,7774.9023
881060.0215844766,8219.116,-126748.58,-46782.473,-39687.785,-68423.42,-39878.055,-82069.945,7788.1675
881060.0255844744,8216.146,-126756.15,-46793.05,-39694.582,-68427.86,-39880.414,-82071.17,7786.377
881060.0295844723,8216.064,-126759.28,-46805.79,-39698.242,-68432.66,-39883.14,-82073.445,7777.385
881060.0335844702,8216.594,-126755.21,-46802.246,-39696.207,-68427.62,-39881.473,-82072.72,7779.297
881060.037584468,8218.994,-126748.21,-46787.883,-39690.31,-68417.32,-39880.25,-82069.5,7790.8936
881060.0415844659,8215.861,-126748.58,-46782.31,-39689.047,-68419.805,-39880.617,-82068.81,7796.7124
881060.0455844637,8217.367,-126754.195,-46792.074,-39693.727,-68417.805,-39883.18,-82074.79,7783.9766
881060.0495844616,8225.342,-126751.67,-46801.434,-39697.918,-68415.24,-39886.23,-82074.14,7778.6055
881060.0535844595,8223.918,-126744.76,-46793.336,-39693.074,-68414.35,-39885.582,-82072.06,7782.756
881060.0575844573,8220.988,-126740.6,-46783.0,-39687.99,-68408.33,-39885.133,-82069.74,7791.097
881060.0615844552,8222.494,-126744.02,-46782.797,-39689.78,-68408.66,-39887.777,-82068.56,7795.98
881060.065584453,8225.22,-126750.086,-46791.016,-39699.547,-68423.14,-39892.418,-82069.54,7796.753
881060.0695844509,8226.074,-126745.2,-46800.215,-39702.19,-68428.55,-39892.05,-82071.375,7787.069
881060.0735844489,8224.243,-126738.125,-46796.227,-39698.04,-68420.58,-39891.156,-82070.4,7789.1846
881060.0775844468,8226.848,-126727.95,-46784.14,-39691.855,-68406.74,-39889.49,-82064.7,7805.298
881060.0815844446,8225.261,-126732.63,-46782.88,-39694.254,-68404.22,-39890.3,-82066.61,7803.874
881060.0855844425,8224.162,-126748.62,-46791.953,-39701.58,-68410.61,-39893.84,-82073.57,7793.0503
881060.0895844403,8226.359,-126753.586,-46804.08,-39706.098,-68413.01,-39897.504,-82077.92,7789.6323
881060.0935844382,8225.708,-126753.22,-46805.38,-39703.168,-68410.93,-39896.484,-82074.51,7796.346
881060.0975844361,8220.541,-126747.16,-46793.094,-39697.145,-68404.016,-39893.68,-82071.984,7799.886
881060.1015844339,8219.809,-126742.88,-46786.46,-39696.004,-68402.1,-39894.37,-82071.49,7806.4375
881060.1055844318,8225.098,-126740.36,-46793.703,-39702.312,-68413.49,-39899.457,-82075.28,7800.2524
881060.1095844297,8222.29,-126742.88,-46805.055,-39708.336,-68421.71,-39902.305,-82076.3,7794.5967
881060.1135844275,8219.727,-126737.67,-46800.215,-39702.72,-68413.336,-39901.207,-82076.5,7789.2256
881060.1175844254,8219.931,-126734.46,-46788.777,-39696.617,-68398.766,-39898.195,-82072.266,7801.229
881060.1215844232,8220.703,-126735.195,-46783.406,-39697.633,-68396.24,-39899.82,-82071.17,7802.6123
881060.1255844211,8220.337,-126740.03,-46797.04,-39706.383,-68411.664,-39905.113,-82078.82,7790.039
881060.129584419,8218.954,-126754.73,-46809.33,-39712.688,-68429.69,-39908.895,-82085.05,7777.6694
881060.1335844168,8216.187,-126759.2,-46801.516,-39708.336,-68426.19,-39908.406,-82082.195,7783.651
881060.1375844147,8213.135,-126762.336,-46790.855,-39704.062,-68417.03,-39907.227,-82079.39,7794.149
881060.1415844125,8214.763,-126759.2,-46789.836,-39703.33,-68408.61,-39907.88,-82079.63,7799.8047
881060.1455844104,8215.17,-126759.93,-46800.984,-39710.855,-68419.96,-39911.094,-82085.33,7791.626
881060.1495844083,8212.6875,-126764.94,-46814.332,-39714.684,-68430.914,-39913.7,-82086.1,7783.773
881060.1535844061,8215.21,-126758.43,-46806.723,-39709.312,-68419.88,-39911.867,-82084.19,7783.9766
881060.157584404,8216.472,-126751.47,-46789.348,-39702.598,-68419.44,-39909.547,-82081.305,7791.26
881060.1615844019,8213.176,-126754.93,-46786.95,-39703.41,-68426.19,-39910.32,-82081.42,7795.98
881060.1655843997,8211.63,-126761.64,-46799.52,-39711.67,-68426.15,-39914.145,-82086.96,7787.8013
881060.1695843976,8210.531,-126763.555,-46811.16,-39715.457,-68434.29,-39918.582,-82092.33,7772.1763
881060.1735843954,8207.968,-126760.055,-46805.746,-39711.47,-68431.73,-39916.586,-82091.63,7776.286
881060.1775843933,8207.846,-126765.38,-46798.26,-39705.77,-68421.305,-39914.51,-82088.09,7788.9814
881060.1815843912,8210.002,-126770.47,-46796.43,-39707.316,-68418.87,-39914.023,-82086.39,7795.166
881060.185584389,8206.015,-126776.62,-46803.145,-39715.66,-68434.37,-39917.848,-82090.66,7786.4585
881060.1895843869,8207.194,-126781.336,-46813.52,-39718.996,-68437.75,-39921.43,-82092.695,7778.28
881060.1935843847,8210.531,-126773.56,-46806.074,-39712.89,-68422.734,-39919.07,-82089.32,7781.616
881060.1975843826,8211.792,-126765.79,-46793.297,-39705.61,-68408.49,-39915.61,-82083.21,7792.8877
881060.2015843805,8210.612,-126755.5,-46785.24,-39706.504,-68399.91,-39915.445,-82084.19,7788.615
881060.2055843783,8213.623,-126753.83,-46796.59,-39711.59,-68414.39,-39921.715,-82090.7,7779.419
881060.2095843762,8213.867,-126759.08,-46808.31,-39715.332,-68429.65,-39924.316,-82095.54,7770.0195
881060.213584374,8214.355,-126759.98,-46802.207,-39710.9,-68428.51,-39921.836,-82092.66,7776.164
881060.2175843719,8214.193,-126758.51,-46789.105,-39703.29,-68417.12,-39918.297,-82088.38,7786.296
881060.2215843698,8212.973,-126756.43,-46786.95,-39702.72,-68416.42,-39919.72,-82087.85,7792.5215
881060.2255843676,8211.508,-126764.37,-46795.98,-39709.516,-68422.61,-39923.383,-82091.92,7786.9062
881060.2295843655,8214.4375,-126769.9,-46802.613,-39709.434,-68429.32,-39922.77,-82091.8,7782.2676
881060.2335843634,8218.384,-126762.01,-46796.754,-39705.77,-68428.67,-39921.754,-82090.336,7781.494
881060.2375843613,8220.541,-126753.34,-46788.37,-39701.17,-68419.07,-39919.516,-82085.984,7790.8125
881060.2415843592,8221.599,-126745.37,-46782.715,-39701.62,-68408.57,-39919.434,-82084.555,7793.01
881060.2455843571,8218.466,-126753.99,-46796.633,-39711.266,-68421.266,-39922.77,-82088.055,7790.3647
881060.2495843549,8217.733,-126767.055,-46809.45,-39714.6,-68428.75,-39923.79,-82090.25,7781.413
881060.2535843528,8217.8955,-126761.516,-46802.734,-39706.91,-68414.47,-39921.387,-82086.39,7777.954
881060.2575843506,8211.386,-126756.48,-46788.82,-39700.684,-68403.77,-39915.61,-82081.26,7790.8936
881060.2615843485,8211.914,-126748.87,-46780.355,-39701.254,-68405.6,-39914.188,-82080.81,7794.2305
881060.2655843464,8217.57,-126751.305,-46788.047,-39708.496,-68416.51,-39920.004,-82085.01,7787.2314
881060.2695843442,8218.954,-126747.69,-46799.156,-39710.043,-68424.56,-39922.73,-82087.24,7781.7383
881060.2735843421,8218.1,-126740.36,-46799.887,-39706.383,-68426.07,-39922.977,-82085.33,7783.203
881060.27758434,8217.204,-126745.94,-46789.227,-39699.26,-68421.1,-39919.883,-82080.77,7795.0034
881060.2815843378,8220.459,-126743.01,-46779.094,-39697.145,-68415.53,-39918.863,-82076.664,7806.112
881060.2855843357,8225.83,-126743.86,-46788.008,-39704.754,-68420.45,-39921.67,-82079.1,7805.298
881060.2895843335,8220.337,-126745.164,-46799.766,-39708.62,-68422.125,-39925.293,-82080.734,7794.841
881060.2935843314,8219.36,-126738.2,-46794.11,-39703.656,-68419.68,-39924.723,-82078.82,7789.388
881060.2975843293,8226.807,-126730.59,-46780.07,-39699.504,-68415.57,-39922.324,-82074.266,7803.304
881060.3015843271,8226.889,-126733.4,-46773.64,-39700.277,-68413.336,-39922.73,-82072.15,7812.622
881060.305584325,8223.755,-126743.734,-46783.53,-39708.54,-68424.64,-39926.598,-82076.58,7806.1523
881060.3095843229,8221.68,-126746.79,-46795.695,-39711.63,-68429.61,-39928.1,-82078.86,7802.287
881060.3135843207,8220.134,-126745.08,-46786.176,-39703.777,-68418.42,-39924.6,-82075.445,7804.891
881060.3175843186,8217.448,-126752.12,-46774.902,-39697.797,-68406.7,-39921.754,-82071.86,7816.2437
881060.3215843164,8223.674,-126750.414,-46775.594,-39698.04,-68410.12,-39921.957,-82069.46,7825.277
881060.3255843143,8224.284,-126755.945,-46787.598,-39706.83,-68423.83,-39926.188,-82074.016,7816.488
881060.3295843122,8216.757,-126758.51,-46802.613,-39713.707,-68431.89,-39931.316,-82081.83,7799.642
881060.33358431,8219.442,-126755.13,-46799.074,-39708.008,-68423.42,-39930.664,-82080.85,7796.794
881060.3375843079,8218.018,-126752.0,-46784.1,-39702.027,-68409.06,-39926.598,-82080.37,7797.282
881060.3415843057,8218.1,-126754.64,-46778.035,-39705.484,-68411.3,-39927.492,-82081.95,7797.5264
881060.3455843036,8218.75,-126757.695,-46786.543,-39711.957,-68417.16,-39931.6,-82085.01,7791.667
881060.3495843015,8219.89,-126755.414,-46793.785,-39711.67,-68421.51,-39934.33,-82088.09,7784.0986
881060.3535842993,8219.931,-126755.58,-46787.965,-39706.586,-68418.945,-39932.984,-82084.59,7788.33
881060.3575842972,8218.1,-126755.66,-46779.95,-39702.92,-68413.17,-39930.95,-82081.1,7800.8223
881060.361584295,8219.727,-126754.805,-46775.72,-39706.42,-68412.234,-39930.504,-82079.02,7809.326
881060.3655842929,8220.175,-126754.03,-46778.973,-39712.32,-68421.305,-39933.105,-82079.43,7802.7344
881060.3695842908,8215.454,-126761.766,-46791.465,-39715.414,-68425.945,-39932.945,-82079.305,7798.584
881060.3735842886,8209.799,-126763.39,-46787.355,-39712.28,-68417.195,-39931.684,-82074.47,7799.398
881060.3775842865,8216.105,-126757.164,-46772.625,-39704.836,-68406.45,-39928.508,-82069.13,7813.0293
881060.3815842844,8218.628,-126752.52,-46767.01,-39705.895,-68409.47,-39927.652,-82066.66,7821.859
881060.3855842822,8219.198,-126748.05,-46777.47,-39711.67,-68421.23,-39932.535,-82074.42,7810.1807
881060.3895842801,8223.837,-126746.09,-46790.977,-39712.89,-68433.48,-39936.77,-82082.44,7790.8936
881060.393584278,8226.115,-126741.01,-46788.656,-39708.09,-68423.99,-39935.305,-82077.48,7797.8516
881060.3975842758,8229.248,-126729.17,-46768.027,-39699.137,-68403.61,-39931.07,-82071.21,7812.0527
881060.4015842737,8228.231,-126722.5,-46761.07,-39698.65,-68403.61,-39930.258,-82068.89,7811.198
881060.4055842716,8226.848,-126731.2,-46774.13,-39706.79,-68415.08,-39934.367,-82072.67,7806.926
881060.4095842695,8226.645,-126732.34,-46786.418,-39711.062,-68418.664,-39938.355,-82076.3,7797.689
881060.4135842674,8227.458,-126729.58,-46777.71,-39705.242,-68407.88,-39936.363,-82070.805,7798.2993
881060.4175842652,8226.807,-126734.055,-46766.645,-39701.17,-68397.914,-39932.984,-82066.2,7810.5063
881060.4215842631,8222.982,-126729.375,-46765.22,-39703.043,-68397.664,-39933.31,-82066.0,7820.4346
881060.425584261,8226.359,-126724.33,-46768.8,-39708.66,-68405.93,-39937.95,-82068.41,7811.5234
881060.4295842588,8229.614,-126722.66,-46777.59,-39710.695,-68411.38,-39940.227,-82071.82,7801.0664
881060.4335842567,8226.604,-126714.97,-46772.137,-39705.65,-68401.164,-39938.844,-82070.56,7801.5137
881060.4375842545,8226.034,-126708.87,-46762.94,-39698.57,-68393.516,-39935.67,-82063.56,7816.325
881060.4415842524,8226.034,-126711.1,-46758.63,-39699.137,-68396.89,-39936.16,-82061.41,7820.8823
881060.4455842503,8227.214,-126717.82,-46763.348,-39706.504,-68411.22,-39939.168,-82066.2,7813.6396
881060.4495842481,8229.33,-126720.26,-46774.66,-39712.28,-68418.74,-39942.18,-82068.56,7801.3105
881060.453584246,8229.533,-126720.18,-46770.918,-39706.137,-68407.15,-39941.49,-82067.55,7798.869
881060.4575842438,8230.307,-126717.695,-46757.57,-39701.01,-68396.65,-39938.234,-82062.87,7814.4126
881060.4615842417,8232.585,-126717.21,-46755.414,-39704.55,-68396.57,-39938.805,-82062.46,7824.2188
881060.4655842396,8230.998,-126722.54,-46767.906,-39709.473,-68402.59,-39939.656,-82064.25,7824.4224
881060.4695842374,8231.567,-126720.38,-46777.832,-39708.984,-68405.73,-39940.758,-82066.9,7814.0464
881060.4735842353,8232.992,-126705.125,-46770.875,-39699.79,-68392.3,-39936.402,-82064.336,7816.6504
881060.4775842332,8235.759,-126697.8,-46754.03,-39695.965,-68384.56,-39932.21,-82061.12,7824.748
881060.481584231,8236.288,-126695.4,-46749.39,-39698.324,-68386.6,-39931.316,-82060.305,7832.845
881060.4855842289,8242.27,-126699.99,-46760.5,-39705.69,-68397.87,-39933.92,-82067.34,7812.744
881060.4895842267,8246.176,-126699.79,-46772.098,-39710.164,-68406.336,-39932.58,-82072.02,7803.508
881060.4935842246,8240.601,-126698.57,-46767.66,-39704.996,-68395.96,-39926.434,-82069.625,7809.326
881060.4975842225,8239.502,-126699.914,-46756.715,-39700.195,-68380.086,-39918.254,-82062.22,7827.1484
881060.5015842203,8245.81,-126694.83,-46753.83,-39702.312,-68372.36,-39913.617,-82061.2,7830.2
881060.5055842182,8246.42,-126695.805,-46759.2,-39705.934,-68383.22,-39912.477,-82063.56,7825.0327
881060.509584216,8247.192,-126694.83,-46770.1,-39708.05,-68386.07,-39910.77,-82064.82,7810.018
881060.5135842139,8246.257,-126695.234,-46768.27,-39707.6,-68379.56,-39905.64,-82059.77,7819.7837
881060.5175842118,8246.989,-126691.2,-46754.19,-39702.11,-68371.09,-39898.562,-82056.16,7828.491
881060.5215842096,8247.519,-126689.13,-46750.613,-39701.945,-68368.49,-39894.574,-82055.625,7830.526
881060.5255842075,8248.007,-126696.984,-46763.836,-39710.29,-68380.82,-39894.656,-82060.51,7817.912
881060.5295842054,8248.657,-126701.13,-46775.188,-39712.28,-68385.7,-39893.434,-82062.22,7808.4717
881060.5335842032,8248.901,-126705.37,-46774.54,-39706.91,-68373.45,-39888.875,-82062.09,7807.048
881060.5375842011,8245.036,-126709.68,-46766.766,-39703.125,-68366.21,-39886.07,-82061.0,7815.4707
881060.541584199,8243.042,-126704.266,-46759.523,-39704.67,-68369.43,-39885.5,-82062.55,7819.9873
881060.5455841968,8245.565,-126695.805,-46767.336,-39707.562,-68374.19,-39888.023,-82067.266,7813.314
881060.5495841947,8251.669,-126694.5,-46775.96,-39709.88,-68374.8,-39889.08,-82071.336,7807.251
881060.5535841925,8248.983,-126693.445,-46769.086,-39705.363,-68366.62,-39885.05,-82067.47,7810.14
881060.5575841904,8245.972,-126692.63,-46762.86,-39701.09,-68352.54,-39880.496,-82063.11,7821.208
881060.5615841883,8248.413,-126702.234,-46759.727,-39703.777,-68347.66,-39879.844,-82062.55,7826.457
881060.5655841861,8250.448,-126707.56,-46770.305,-39711.996,-68361.86,-39882.69,-82068.69,7814.9414
881060.5695841841,8253.174,-126712.81,-46783.367,-39715.535,-68368.86,-39885.094,-82075.65,7799.642
881060.573584182,8253.378,-126712.04,-46776.367,-39708.21,-68363.98,-39882.773,-82074.42,7797.16
881060.5775841798,8249.105,-126703.58,-46763.387,-39700.562,-68355.15,-39879.56,-82069.99,7807.8613
881060.5815841777,8252.36,-126696.29,-46760.62,-39700.645,-68349.04,-39877.89,-82066.164,7815.1855
881060.5855841755,8250.082,-126697.555,-46767.215,-39704.754,-68357.75,-39880.414,-82064.86,7812.4595
881060.5895841734,8247.192,-126700.16,-46776.207,-39709.473,-68362.96,-39882.938,-82067.51,7803.9146
881060.5935841713,8247.314,-126697.43,-46771.812,-39705.16,-68351.08,-39880.332,-82063.4,7805.705
881060.5975841691,8248.861,-126695.27,-46760.703,-39701.742,-68344.16,-39876.508,-82058.35,7817.383
881060.601584167,8249.512,-126695.52,-46760.297,-39706.055,-68348.555,-39878.664,-82061.89,7820.1094
881060.6055841648,8246.298,-126694.55,-46773.316,-39711.914,-68355.67,-39882.49,-82069.54,7807.4546
881060.6095841627,8247.763,-126692.75,-46777.71,-39711.55,-68358.16,-39883.79,-82071.62,7796.4683
881060.6135841606,8251.506,-126677.21,-46767.336,-39702.066,-68349.37,-39881.31,-82068.484,7794.027
881060.6175841584,8252.075,-126667.52,-46750.734,-39697.145,-68337.77,-39879.64,-82063.234,7809.5703
881060.6215841563,8251.994,-126672.85,-46749.227,-39701.215,-68337.32,-39881.145,-82064.25,7812.0527
881060.6255841542,8254.721,-126680.26,-46765.79,-39710.855,-68352.09,-39885.05,-82070.48,7797.241
881060.629584152,8256.186,-126685.59,-46780.07,-39715.375,-68363.08,-39888.51,-82075.03,7787.191
881060.6335841499,8251.384,-126682.91,-46771.484,-39709.188,-68349.86,-39886.965,-82072.1,7797.6074
881060.6375841477,8252.116,-126673.47,-46760.906,-39704.02,-68337.445,-39882.977,-82065.11,7812.7036
881060.6415841456,8250.977,-126675.83,-46760.5,-39704.47,-68337.89,-39884.035,-82065.48,7812.5
881060.6455841435,8248.495,-126686.81,-46771.28,-39711.387,-68350.1,-39887.86,-82071.29,7798.9097
881060.6495841413,8249.878,-126687.18,-46779.867,-39714.195,-68354.74,-39890.586,-82075.73,7791.1377
881060.6535841392,8251.018,-126682.91,-46774.66,-39710.41,-68354.05,-39889.566,-82076.87,7789.958
881060.657584137,8248.82,-126679.98,-46764.406,-39708.008,-68348.88,-39886.56,-82073.37,7797.8516
881060.6615841349,8245.85,-126672.04,-46759.89,-39709.11,-68342.57,-39884.074,-82067.95,7805.013
881060.6655841328,8246.501,-126674.24,-46768.066,-39714.316,-68347.74,-39885.703,-82069.09,7800.8223
881060.6695841306,8245.361,-126682.336,-46777.957,-39717.69,-68355.72,-39888.387,-82073.0,7792.7246
881060.6735841285,8246.989,-126672.445,-46774.375,-39710.246,-68347.91,-39888.387,-82072.8,7799.276
881060.6775841264,8247.233,-126663.336,-46760.703,-39703.125,-68341.23,-39887.332,-82070.56,7799.927
881060.6815841242,8247.763,-126670.74,-46752.89,-39704.348,-68344.484,-39886.273,-82065.48,7807.17
881060.6855841221,8248.129,-126679.94,-46765.137,-39711.55,-68351.36,-39889.0,-82069.13,7799.4385
881060.68958412,8243.042,-126682.26,-46777.305,-39714.844,-68359.945,-39890.18,-82072.516,7791.0566
881060.6935841178,8243.9375,-126680.625,-46770.387,-39712.2,-68355.555,-39889.08,-82069.91,7786.743
881060.6975841157,8246.786,-126677.05,-46763.145,-39709.637,-68347.49,-39887.574,-82064.05,7794.963
881060.7015841135,8246.948,-126676.6,-46758.504,-39706.668,-68343.1,-39889.04,-82059.164,7813.436
881060.7055841114,8251.872,-126678.06,-46762.777,-39712.402,-68353.03,-39893.68,-82064.25,7802.043
881060.7095841093,8251.831,-126683.72,-46772.95,-39715.414,-68359.26,-39895.71,-82070.234,7783.0405
881060.7135841071,8250.163,-126687.3,-46767.945,-39708.293,-68351.65,-39893.27,-82065.23,7791.423
881060.717584105,8249.878,-126684.53,-46752.605,-39703.207,-68343.18,-39890.586,-82060.63,7805.461
881060.7215841028,8244.955,-126695.48,-46751.223,-39706.87,-68349.734,-39892.215,-82060.305,7809.367
881060.7255841007,8246.826,-126701.09,-46765.016,-39714.52,-68361.58,-39895.59,-82064.25,7805.1353
881060.7295840986,8256.186,-126695.52,-46772.34,-39715.414,-68360.15,-39898.316,-82068.56,7791.5854
881060.7335840965,8249.228,-126690.64,-46768.434,-39709.598,-68353.31,-39896.08,-82065.72,7788.656
881060.7375840944,8253.906,-126682.78,-46756.023,-39706.3,-68343.55,-39891.97,-82059.086,7801.351
881060.7415840923,8261.963,-126677.49,-46750.203,-39706.18,-68341.11,-39889.49,-82056.93,7807.536
881060.7455840901,8261.475,-126683.31,-46758.71,-39710.164,-68346.36,-39891.887,-82058.72,7804.5654
881060.749584088,8262.533,-126683.96,-46765.91,-39711.996,-68354.125,-39894.574,-82061.24,7795.451
881060.7535840858,8255.087,-126689.01,-46762.617,-39708.54,-68348.8,-39892.496,-82058.11,7800.985
881060.7575840837,8255.941,-126691.9,-46752.77,-39701.863,-68342.29,-39890.137,-82054.08,7814.1685
881060.7615840816,8259.359,-126694.016,-46752.484,-39702.066,-68347.54,-39889.12,-82052.984,7809.082
881060.7655840794,8255.453,-126700.52,-46766.645,-39710.367,-68359.945,-39892.945,-82057.54,7800.415
881060.7695840773,8250.366,-126708.664,-46779.34,-39715.7,-68362.8,-39896.28,-82059.37,7793.335
881060.7735840752,8255.615,-126707.445,-46773.438,-39711.996,-68357.34,-39896.08,-82059.29,7791.26
881060.777584073,8259.359,-126697.48,-46759.89,-39703.86,-68353.516,-39892.62,-82057.13,7797.4854
881060.7815840709,8254.639,-126699.18,-46752.08,-39707.234,-68357.055,-39894.043,-82057.05,7807.495
881060.7855840687,8256.145,-126705.734,-46760.297,-39712.85,-68364.71,-39895.996,-82058.27,7800.456
881060.7895840666,8264.12,-126697.19,-46765.953,-39709.598,-68362.266,-39897.91,-82061.61,7787.313
881060.7935840645,8266.846,-126686.89,-46760.01,-39703.816,-68349.49,-39894.98,-82058.19,7791.9517
881060.7975840623,8267.375,-126683.15,-46747.805,-39698.773,-68334.76,-39893.92,-82056.56,7796.55
881060.8015840602,8269.206,-126683.03,-46739.95,-39697.918,-68333.01,-39895.348,-82057.664,7800.863
881060.805584058,8268.637,-126688.805,-46747.64,-39704.715,-68346.16,-39899.17,-82061.65,7793.701
881060.8095840559,8267.456,-126694.5,-46762.047,-39707.4,-68350.47,-39900.676,-82061.0,7791.0566
881060.8135840538,8269.735,-126701.26,-46760.945,-39706.707,-68347.945,-39899.945,-82059.45,7789.4287
881060.8175840516,8269.572,-126695.73,-46747.03,-39699.016,-68339.36,-39896.12,-82058.8,7791.219
881060.8215840495,8264.853,-126684.86,-46739.746,-39699.992,-68335.62,-39895.1,-82058.19,7797.7705
881060.8255840474,8265.097,-126687.5,-46750.57,-39708.984,-68347.414,-39899.457,-82060.8,7798.9097
881060.8295840452,8269.491,-126687.34,-46755.86,-39708.902,-68346.31,-39900.188,-82059.94,7794.7188
881060.8335840431,8269.125,-126684.53,-46753.543,-39703.656,-68338.664,-39899.254,-82058.35,7790.2427
881060.837584041,8265.585,-126683.72,-46745.08,-39702.434,-68327.48,-39898.152,-82055.83,7795.98
881060.8415840388,8262.777,-126684.734,-46741.09,-39706.22,-68328.62,-39898.234,-82053.59,7806.3154
881060.8455840367,8266.113,-126690.43,-46754.52,-39714.723,-68347.54,-39899.984,-82055.914,7803.3857
881060.8495840345,8269.613,-126683.92,-46766.316,-39714.4,-68355.76,-39900.555,-82054.32,7798.869
881060.8535840324,8268.188,-126679.65,-46759.36,-39707.316,-68348.47,-39896.89,-82048.46,7800.537
881060.8575840303,8264.893,-126685.14,-46745.28,-39705.934,-68339.195,-39894.246,-82043.46,7804.281
881060.8615840281,8266.154,-126688.69,-46739.46,-39705.406,-68341.72,-39895.1,-82041.51,7814.453
881060.865584026,8268.148,-126695.766,-46750.69,-39710.652,-68355.39,-39898.926,-82044.44,7813.314
881060.8695840238,8257.8125,-126703.54,-46760.094,-39715.414,-68358.16,-39902.71,-82048.22,7796.9565
881060.8735840217,8256.063,-126699.55,-46758.504,-39712.527,-68347.62,-39900.066,-82046.06,7794.637
881060.8775840196,8258.83,-126694.95,-46750.773,-39708.496,-68330.484,-39897.83,-82039.516,7802.6123
881060.8815840174,8260.214,-126701.38,-46748.09,-39710.695,-68335.086,-39898.562,-82039.23,7808.3906
881060.8855840153,8260.254,-126713.75,-46760.215,-39718.06,-68357.18,-39903.65,-82043.5,7801.595
881060.8895840131,8260.742,-126717.77,-46773.113,-39719.2,-68366.414,-39905.64,-82048.51,7790.1206
881060.893584011,8255.981,-126714.03,-46775.676,-39716.066,-68357.38,-39907.27,-82051.07,7792.196
881060.897584009,8256.348,-126708.945,-46757.082,-39709.11,-68346.64,-39906.168,-82046.96,7802.043
881060.9015840068,8259.115,-126707.97,-46749.227,-39707.4,-68345.46,-39909.63,-82048.51,7803.874
881060.9055840047,8260.417,-126712.98,-46760.742,-39712.89,-68354.984,-39913.168,-82053.02,7800.1304
881060.9095840026,8260.58,-126714.52,-46769.246,-39715.66,-68364.95,-39914.594,-82054.89,7795.736
881060.9135840004,8262.939,-126706.51,-46761.92,-39710.652,-68359.375,-39912.883,-82053.63,7790.283
881060.9175839983,8262.899,-126692.8,-46751.465,-39704.836,-68343.586,-39910.24,-82050.83,7792.3994
881060.9215839962,8255.737,-126691.53,-46751.305,-39710.125,-68339.73,-39910.848,-82051.15,7795.9395
881060.925583994,8253.906,-126706.625,-46764.324,-39723.31,-68360.44,-39915.61,-82057.664,7783.325
881060.9295839919,8255.737,-126720.14,-46775.88,-39726.44,-68369.8,-39918.785,-82064.74,7768.148
881060.9335839897,8256.389,-126717.37,-46768.92,-39717.9,-68361.86,-39917.562,-82061.484,7777.059
881060.9375839876,8251.628,-126717.62,-46755.21,-39713.707,-68353.72,-39916.18,-82056.766,7786.4585
881060.9415839855,8249.919,-126716.59,-46754.316,-39712.85,-68356.53,-39916.504,-82052.086,7797.6074
881060.9455839833,8250.366,-126720.22,-46766.97,-39718.18,-68368.086,-39919.598,-82056.52,7784.139
881060.9495839812,8252.157,-126726.98,-46774.414,-39720.215,-68371.34,-39922.65,-82065.39,7761.963
881060.953583979,8251.587,-126730.11,-46769.98,-39716.555,-68372.234,-39921.754,-82063.84,7765.747
881060.9575839769,8249.838,-126725.836,-46762.74,-39715.21,-68368.66,-39918.418,-82059.0,7774.7803
881060.9615839748,8253.906,-126725.75,-46761.23,-39714.844,-68366.945,-39919.516,-82060.71,7779.0527
881060.9655839726,8251.913,-126728.03,-46771.73,-39718.547,-68374.02,-39925.496,-82066.125,7774.292
881060.9695839705,8248.535,-126736.21,-46784.344,-39721.19,-68379.48,-39926.92,-82069.87,7764.4043
881060.9735839684,8248.82,-126725.836,-46780.195,-39719.28,-68369.1,-39925.863,-82070.07,7761.5967
881060.9775839662,8246.013,-126720.34,-46765.79,-39714.4,-68363.65,-39922.49,-82064.7,7769.206
881060.9815839641,8236.613,-126733.93,-46764.285,-39717.69,-68365.44,-39924.03,-82064.58,7773.967
881060.9855839619,8233.765,-126751.06,-46778.035,-39725.06,-68372.73,-39929.484,-82070.15,7764.4453
881060.9895839598,8236.125,-126752.37,-46789.51,-39726.24,-68382.086,-39930.83,-82071.82,7756.592
881060.9935839577,8236.003,-126756.72,-46783.33,-39719.973,-68379.234,-39929.484,-82069.79,7757.324
881060.9975839555,8237.875,-126756.43,-46772.137,-39714.805,-68364.51,-39929.2,-82067.43,7764.7705
881061.0015839534,8241.781,-126751.67,-46767.215,-39716.066,-68357.22,-39930.258,-82066.37,7770.345
881061.0055839512,8245.036,-126755.74,-46774.617,-39722.37,-68359.945,-39934.57,-82070.195,7759.359
881061.0095839491,8245.565,-126760.18,-46788.008,-39727.133,-68365.44,-39937.176,-82071.9,7754.6387
881061.013583947,8245.6875,-126757.2,-46783.203,-39722.168,-68361.01,-39934.938,-82068.24,7763.1025
881061.0175839448,8243.002,-126754.6,-46767.457,-39716.066,-68351.08,-39932.008,-82064.91,7773.3564
881061.0215839427,8240.52,-126755.58,-46766.113,-39716.227,-68353.27,-39932.332,-82065.8,7780.3145
881061.0255839406,8241.577,-126760.95,-46776.777,-39721.598,-68364.22,-39934.57,-82068.52,7776.3267
881061.0295839384,8239.665,-126759.41,-46782.715,-39721.965,-68363.89,-39936.117,-82068.24,7775.798
881061.0335839363,8238.607,-126752.37,-46777.59,-39718.387,-68359.46,-39934.57,-82063.73,7775.879
881061.0375839341,8238.892,-126743.53,-46767.05,-39714.234,-68355.35,-39931.723,-82058.555,7784.465
881061.041583932,8238.037,-126736.82,-46765.547,-39715.375,-68350.914,-39934.125,-82059.98,7784.9937
881061.0455839299,8239.421,-126746.14,-46778.32,-39723.918,-68365.89,-39937.582,-82064.05,7774.3735
881061.0495839277,8241.74,-126746.22,-46786.258,-39724.324,-68370.16,-39936.605,-82062.18,7772.6646
881061.0535839256,8242.717,-126743.05,-46778.934,-39716.594,-68365.64,-39933.35,-82057.74,7777.303
881061.0575839235,8239.95,-126737.35,-46766.523,-39709.027,-68349.57,-39930.91,-82052.086,7783.529
881061.0615839214,8239.706,-126740.97,-46765.707,-39708.902,-68346.03,-39931.684,-82052.57,7784.8716
881061.0655839193,8242.106,-126750.98,-46776.98,-39715.863,-68361.86,-39935.387,-82057.54,7779.989
881061.0695839172,8241.943,-126752.164,-46785.117,-39718.668,-68369.67,-39937.01,-82059.62,7779.8667
881061.073583915,8241.903,-126750.66,-46784.426,-39715.25,-68360.234,-39938.316,-82063.36,7772.6646
881061.0775839129,8241.821,-126751.55,-46772.992,-39709.758,-68344.36,-39936.89,-82060.1,7777.466
881061.0815839107,8244.507,-126750.21,-46765.137,-39709.72,-68342.164,-39935.953,-82057.87,7782.5117
881061.0855839086,8245.605,-126759.16,-46774.008,-39714.64,-68354.45,-39938.723,-82061.52,7777.6694
881061.0895839065,8241.903,-126757.9,-46782.066,-39714.4,-68358.85,-39939.453,-82062.75,7771.159
881061.0935839043,8240.112,-126749.11,-46780.03,-39710.9,-68356.28,-39938.965,-82061.445,7774.658
881061.0975839022,8244.019,-126744.43,-46765.383,-39704.633,-68351.24,-39936.65,-82058.19,7780.111
881061.1015839,8246.054,-126742.805,-46759.688,-39703.94,-68348.11,-39937.297,-82058.27,7781.535
881061.1055838979,8246.623,-126746.914,-46769.574,-39713.094,-68356.445,-39939.86,-82062.87,7771.159
881061.1095838958,8247.396,-126745.89,-46780.926,-39715.008,-68360.15,-39942.87,-82066.33,7761.1494
881061.1135838936,8246.704,-126738.125,-46776.492,-39709.758,-68350.79,-39940.96,-82065.19,7763.265
881061.1175838915,8246.582,-126733.69,-46763.227,-39706.055,-68345.586,-39939.414,-82061.52,7770.3047
881061.1215838894,8247.03,-126737.15,-46761.92,-39708.824,-68349.695,-39940.27,-82061.0,7772.2983
881061.1255838872,8244.955,-126748.46,-46779.01,-39717.652,-68362.06,-39942.87,-82061.08,7774.9023
881061.1295838851,8243.246,-126753.42,-46790.406,-39720.34,-68372.27,-39944.62,-82061.61,7769.165
881061.1335838829,8242.351,-126747.64,-46782.96,-39713.582,-68362.305,-39943.32,-82061.16,7772.258
881061.1375838808,8244.914,-126746.99,-46768.434,-39706.098,-68350.71,-39941.895,-82059.49,7775.757
881061.1415838787,8243.856,-126749.76,-46766.156,-39709.15,-68348.39,-39942.832,-82061.32,7781.413
881061.1455838765,8242.432,-126755.945,-46781.535,-39716.023,-68362.8,-39947.062,-82067.266,7767.456
881061.1495838744,8245.158,-126758.875,-46786.785,-39715.047,-68370.85,-39948.934,-82072.19,7753.6216
881061.1535838722,8245.402,-126757.61,-46780.03,-39710.207,-68361.94,-39946.74,-82071.17,7751.628
881061.1575838701,8240.479,-126758.71,-46771.28,-39705.406,-68357.34,-39945.027,-82065.43,7758.83
881061.161583868,8233.114,-126766.6,-46774.945,-39708.7,-68361.66,-39944.094,-82063.56,7767.8223
881061.1655838658,8235.637,-126762.78,-46781.7,-39715.332,-68366.09,-39945.23,-82063.766,7771.932
881061.1695838637,8244.141,-126756.27,-46788.29,-39714.723,-68367.35,-39947.145,-82066.2,7760.661
881061.1735838616,8249.553,-126758.71,-46782.637,-39708.742,-68354.17,-39945.965,-82063.97,7762.2886
881061.1775838594,8245.483,-126754.93,-46769.613,-39703.453,-68338.38,-39943.605,-82059.57,7766.2354
881061.1815838573,8249.064,-126751.95,-46767.863,-39703.656,-68337.24,-39943.688,-82059.62,7771.24
881061.1855838551,8250.977,-126752.37,-46774.824,-39711.387,-68351.4,-39946.332,-82061.69,7766.8457
881061.189583853,8250.651,-126761.64,-46785.848,-39713.504,-68358.234,-39948.16,-82064.58,7756.3477
881061.1935838509,8249.105,-126762.45,-46781.78,-39708.293,-68348.06,-39945.152,-82063.88,7759.847
881061.1975838487,8247.519,-126746.625,-46767.418,-39701.54,-68336.59,-39940.473,-82060.59,7770.5894
881061.2015838466,8251.14,-126738.77,-46764.773,-39704.43,-68340.336,-39938.6,-82060.55,7771.932
881061.2055838445,8255.534,-126740.766,-46777.71,-39710.043,-68349.57,-39938.805,-82062.22,7762.248
881061.2095838423,8256.267,-126746.914,-46784.305,-39711.1,-68351.12,-39936.484,-82062.336,7760.254
881061.2135838402,8258.017,-126743.33,-46778.28,-39703.41,-68337.65,-39930.707,-82058.07,7766.1543
881061.217583838,8258.423,-126743.01,-46768.15,-39697.51,-68328.33,-39925.66,-82053.76,7775.7163
881061.2215838359,8261.801,-126745.37,-46766.684,-39698.367,-68330.12,-39924.93,-82052.49,7780.233
881061.2255838339,8262.899,-126746.09,-46774.617,-39706.504,-68337.93,-39925.58,-82059.53,7768.0664
881061.2295838317,8265.503,-126745.81,-46784.71,-39706.992,-68337.28,-39925.17,-82065.35,7752.8486
881061.2335838296,8262.37,-126745.77,-46784.305,-39703.695,-68330.98,-39919.92,-82068.04,7750.6104
881061.2375838275,8261.027,-126741.984,-46776.45,-39699.992,-68323.2,-39913.617,-82065.11,7758.667
881061.2415838253,8263.998,-126735.88,-46775.473,-39700.97,-68320.64,-39909.832,-82065.266,7766.032
881061.2455838232,8268.555,-126738.08,-46783.0,-39708.54,-68331.34,-39907.676,-82066.29,7766.1133
881061.249583821,8269.043,-126742.76,-46793.867,-39711.266,-68330.0,-39903.32,-82065.836,7762.899
881061.2535838189,8271.933,-126744.1,-46787.926,-39705.04,-68322.1,-39897.83,-82061.04,7766.195
881061.2575838168,8275.146,-126745.164,-46772.34,-39700.97,-68315.68,-39892.133,-82057.984,7772.5425
881061.2615838146,8277.629,-126746.18,-46770.062,-39703.168,-68316.66,-39889.61,-82054.484,7775.472
881061.2655838125,8277.629,-126748.09,-46779.055,-39709.312,-68327.72,-39892.254,-82056.36,7770.427
881061.2695838104,8273.967,-126745.24,-46783.734,-39708.824,-68327.64,-39891.316,-82058.8,7763.3057
881061.2735838082,8273.071,-126749.96,-46777.59,-39705.406,-68319.22,-39885.133,-82056.4,7772.949
881061.2775838061,8273.031,-126741.984,-46768.72,-39700.24,-68312.016,-39879.8,-82052.57,7780.6807
881061.2815838039,8276.733,-126736.375,-46767.62,-39700.727,-68315.35,-39879.234,-82055.99,7771.24
881061.2855838018,8273.52,-126745.77,-46781.332,-39710.652,-68328.695,-39882.895,-82064.05,7757.8125
881061.2895837997,8273.682,-126752.0,-46791.06,-39712.363,-68328.62,-39884.035,-82071.29,7746.135
881061.2935837975,8272.461,-126749.44,-46790.895,-39708.293,-68322.06,-39883.098,-82071.17,7750.4883
881061.2975837954,8271.851,-126748.3,-46776.734,-39703.33,-68315.19,-39878.746,-82068.766,7757.9756
881061.3015837932,8267.456,-126745.69,-46773.152,-39704.793,-68313.03,-39875.246,-82065.11,7762.573
881061.3055837911,8271.647,-126739.79,-46785.28,-39712.77,-68322.39,-39876.18,-82064.01,7764.4453
881061.309583789,8272.339,-126739.38,-46792.035,-39712.81,-68326.945,-39875.977,-82062.7,7761.841
881061.3135837868,8271.118,-126742.6,-46786.785,-39709.8,-68322.06,-39872.234,-82059.53,7767.6597
881061.3175837847,8272.299,-126740.234,-46775.066,-39707.645,-68314.414,-39869.06,-82056.195,7776.7744
881061.3215837826,8276.53,-126731.734,-46770.793,-39708.54,-68311.52,-39868.367,-82056.6,7769.206
881061.3255837804,8274.78,-126734.5,-46780.723,-39713.094,-68319.54,-39872.273,-82063.6,7752.1567
881061.3295837783,8274.414,-126738.125,-46790.895,-39715.74,-68322.19,-39874.473,-82068.56,7743.8965
881061.3335837761,8273.52,-126733.12,-46786.133,-39710.652,-68311.08,-39872.195,-82065.96,7747.8027
881061.337583774,8267.497,-126729.82,-46777.547,-39707.4,-68301.19,-39869.754,-82063.52,7754.6797
881061.3415837719,8265.341,-126732.14,-46772.098,-39709.637,-68304.41,-39870.242,-82065.516,7754.5576
881061.3455837697,8268.718,-126733.766,-46779.91,-39716.15,-68318.65,-39874.188,-82068.56,7750.7324
881061.3495837676,8271.2,-126736.21,-46790.406,-39716.023,-68325.65,-39875.043,-82071.984,7745.321
881061.3535837654,8272.136,-126736.49,-46786.867,-39712.527,-68318.56,-39872.52,-82072.43,7750.5293
881061.3575837633,8273.031,-126736.86,-46774.66,-39706.83,-68305.7,-39867.516,-82064.984,7765.3403
881061.3615837612,8276.611,-126735.68,-46773.316,-39707.195,-68310.51,-39866.58,-82061.93,7772.1763
881061.365583759,8274.536,-126744.266,-46786.176,-39716.84,-68329.35,-39872.195,-82069.54,7767.7817
881061.3695837569,8271.851,-126745.28,-46795.82,-39718.06,-68331.87,-39874.84,-82073.37,7753.988
881061.3735837548,8273.071,-126747.89,-46791.016,-39711.875,-68322.39,-39875.406,-82078.734,7747.2334
881061.3775837526,8271.647,-126746.55,-46777.793,-39710.613,-68318.16,-39873.7,-82078.01,7759.1147
881061.3815837505,8272.177,-126744.555,-46776.164,-39713.176,-68322.1,-39873.74,-82078.984,7754.2725
881061.3855837483,8270.305,-126740.97,-46787.152,-39719.402,-68329.836,-39876.75,-82082.234,7745.8906
881061.3895837463,8271.403,-126736.82,-46793.742,-39719.32,-68333.664,-39876.02,-82081.664,7739.38
881061.3935837442,8269.653,-126736.414,-46788.29,-39715.82,-68332.07,-39874.43,-82075.32,7747.274
881061.397583742,8273.56,-126727.13,-46778.85,-39711.344,-68326.3,-39872.273,-82070.805,7757.6904
881061.4015837399,8271.2,-126728.56,-46776.004,-39714.195,-68327.11,-39871.297,-82068.36,7762.37
881061.4055837378,8268.474,-126732.38,-46789.43,-39720.703,-68333.3,-39873.94,-82066.695,7765.422
881061.4095837356,8273.642,-126729.58,-46797.363,-39722.984,-68344.0,-39876.465,-82069.22,7760.946
881061.4135837335,8277.832,-126717.21,-46790.938,-39716.023,-68340.21,-39874.84,-82069.055,7751.872
881061.4175837314,8276.978,-126720.22,-46773.438,-39708.414,-68321.62,-39870.65,-82067.06,7759.969
881061.4215837292,8268.026,-126728.48,-46772.543,-39710.164,-68321.984,-39869.426,-82066.0,7769.4907
881061.4255837271,8266.317,-126734.7,-46786.746,-39719.117,-68339.6,-39873.94,-82074.75,7759.7656
881061.4295837249,8270.834,-126742.27,-46792.562,-39721.477,-68346.48,-39875.977,-82081.1,7742.961
881061.4335837228,8276.286,-126741.83,-46787.965,-39718.59,-68339.36,-39874.84,-82079.914,7748.413
881061.4375837207,8276.001,-126730.43,-46775.35,-39712.688,-68326.055,-39871.01,-82076.09,7759.5215
881061.4415837185,8278.809,-126728.766,-46771.406,-39712.402,-68328.29,-39870.16,-82071.58,7765.625
881061.4455837164,8278.036,-126734.5,-46783.164,-39720.297,-68342.125,-39871.785,-82074.47,7762.899
881061.4495837142,8275.513,-126735.44,-46790.242,-39722.086,-68346.48,-39871.46,-82076.625,7754.11
881061.4535837121,8274.455,-126731.445,-46784.426,-39717.45,-68333.82,-39868.938,-82075.445,7751.628
881061.45758371,8274.211,-126726.2,-46774.09,-39712.65,-68320.07,-39865.4,-82068.89,7762.899
881061.4615837078,8271.118,-126722.58,-46774.21,-39716.023,-68319.99,-39866.742,-82067.63,7774.9434
881061.4655837057,8272.014,-126732.1,-46784.06,-39723.715,-68334.88,-39871.5,-82073.41,7763.3057
881061.4695837036,8276.449,-126733.61,-46791.668,-39723.836,-68339.12,-39874.39,-82080.484,7745.6055
881061.4735837014,8273.234,-126729.984,-46788.902,-39720.176,-68327.4,-39873.902,-82078.125,7748.2505
881061.4775836993,8271.362,-126728.805,-46775.758,-39716.797,-68322.63,-39870.566,-82071.17,7764.364
881061.4815836971,8277.67,-126735.97,-46774.617,-39718.344,-68325.234,-39870.32,-82069.46,7766.2764
881061.485583695,8279.379,-126748.3,-46787.598,-39727.582,-68337.0,-39874.43,-82076.5,7758.016
881061.4895836929,8278.076,-126745.24,-46796.51,-39728.76,-68337.89,-39875.33,-82080.81,7751.506
881061.4935836907,8275.798,-126733.484,-46790.812,-39723.797,-68325.89,-39871.91,-82077.64,7757.4463
881061.4975836886,8276.449,-126722.25,-46779.95,-39720.5,-68315.516,-39871.5,-82079.02,7754.5576
881061.5015836864,8279.013,-126713.1,-46773.805,-39719.402,-68318.16,-39869.67,-82076.46,7760.7017
881061.5055836843,8278.036,-126713.95,-46784.953,-39724.69,-68325.6,-39871.42,-82076.13,7758.911
881061.5095836822,8276.53,-126721.03,-46795.207,-39727.418,-68329.35,-39874.51,-82079.43,7751.587
881061.51358368,8277.954,-126721.805,-46794.477,-39726.156,-68326.58,-39874.51,-82080.734,7754.7607
881061.5175836779,8276.489,-126722.945,-46786.133,-39725.426,-68320.07,-39872.152,-82080.69,7755.046
881061.5215836758,8275.961,-126723.516,-46781.09,-39726.44,-68318.32,-39871.176,-82076.625,7764.8115
881061.5255836736,8275.31,-126728.11,-46791.06,-39731.812,-68322.836,-39873.78,-82079.43,7759.3184
881061.5295836715,8276.53,-126728.84,-46801.35,-39733.113,-68329.305,-39875.734,-82082.16,7749.7153
881061.5335836693,8275.839,-126728.07,-46794.637,-39729.13,-68328.33,-39873.82,-82080.2,7749.5527
881061.5375836672,8274.292,-126726.24,-46785.156,-39724.61,-68319.664,-39871.094,-82074.266,7761.9224
881061.5415836651,8276.205,-126728.48,-46781.984,-39726.44,-68317.14,-39871.176,-82071.984,7768.7583
881061.5455836629,8278.524,-126731.53,-46789.633,-39733.6,-68322.43,-39874.105,-82073.65,7767.9854
881061.5495836608,8279.46,-126730.8,-46799.36,-39738.12,-68328.78,-39876.344,-82078.375,7761.0273
881061.5535836588,8278.32,-126722.82,-46791.22,-39734.78,-68324.875,-39875.285,-82077.11,7769.4907
881061.5575836566,8277.304,-126717.25,-46778.32,-39729.41,-68311.32,-39873.332,-82077.555,7767.9443
881061.5615836545,8281.291,-126715.91,-46771.688,-39727.5,-68313.56,-39872.684,-82078.05,7766.968
881061.5655836524,8283.122,-126716.44,-46781.17,-39733.766,-68322.02,-39873.82,-82077.44,7765.9507
881061.5695836502,8281.698,-126715.17,-46790.812,-39735.8,-68327.07,-39875.977,-82079.35,7758.138
881061.5735836481,8278.117,-126719.61,-46785.77,-39735.598,-68325.56,-39874.227,-82078.01,7757.9756
881061.5775836459,8282.512,-126718.14,-46771.566,-39730.227,-68316.445,-39871.785,-82075.89,7762.0444
881061.5815836438,8285.889,-126712.65,-46772.3,-39732.016,-68314.945,-39871.176,-82073.445,7767.253
881061.5855836417,8280.6,-126728.48,-46784.02,-39739.34,-68327.68,-39874.918,-82077.48,7758.545
881061.5895836395,8282.512,-126731.37,-46791.06,-39740.562,-68335.164,-39876.344,-82078.9,7753.784
881061.5935836374,8281.088,-126727.99,-46786.62,-39737.836,-68330.0,-39877.2,-82078.21,7755.4526
881061.5975836352,8278.158,-126729.984,-46776.33,-39735.8,-68318.56,-39876.14,-82073.734,7769.2466
881061.6015836331,8277.67,-126734.46,-46776.53,-39738.934,-68321.58,-39876.59,-82074.875,7778.3203
881061.605583631,8276.855,-126738.57,-46790.61,-39744.957,-68332.89,-39880.008,-82079.71,7766.683
881061.6095836288,8273.886,-126741.17,-46799.848,-39745.117,-68334.48,-39883.87,-82084.555,7754.1914
881061.6135836267,8277.588,-126740.08,-46795.695,-39739.055,-68327.6,-39882.406,-82083.945,7750.8955
881061.6175836246,8279.989,-126728.805,-46783.53,-39733.727,-68315.15,-39880.94,-82082.484,7753.784
881061.6215836224,8280.3955,-126726.36,-46781.984,-39735.477,-68313.36,-39882.367,-82081.71,7758.708
881061.6255836203,8278.931,-126735.68,-46791.87,-39743.004,-68327.96,-39886.516,-82083.984,7757.121
881061.6295836181,8275.106,-126743.82,-46799.97,-39746.582,-68339.36,-39887.125,-82087.2,7745.6465
881061.633583616,8270.63,-126751.55,-46797.324,-39746.625,-68343.43,-39886.76,-82088.664,7747.5586
881061.6375836139,8270.549,-126747.89,-46786.01,-39744.793,-68342.2,-39884.645,-82082.4,7767.9854
881061.6415836117,8275.31,-126738.57,-46784.668,-39744.508,-68339.88,-39884.645,-82079.35,7767.9854
881061.6455836096,8278.158,-126743.414,-46793.38,-39749.594,-68346.93,-39887.168,-82078.375,7767.7817
881061.6495836074,8275.106,-126738.33,-46796.31,-39748.293,-68340.74,-39887.37,-82078.414,7761.19
881061.6535836053,8277.466,-126728.84,-46794.844,-39743.613,-68326.5,-39886.15,-82080.445,7751.587
881061.6575836032,8280.803,-126724.53,-46788.984,-39739.258,-68320.27,-39884.727,-82076.87,7760.0913
881061.661583601,8278.036,-126731.33,-46788.574,-39742.637,-68329.1,-39886.516,-82078.66,7762.492
881061.6655835989,8275.432,-126738.04,-46799.6,-39750.938,-68342.125,-39889.73,-82085.984,7754.1504
881061.6695835968,8279.867,-126733.81,-46807.945,-39751.793,-68338.34,-39891.277,-82087.12,7749.5527
881061.6735835946,8280.192,-126728.88,-46800.824,-39749.637,-68328.695,-39892.54,-82089.52,7747.8843
881061.6775835925,8278.687,-126728.48,-46791.953,-39749.594,-68328.164,-39893.27,-82088.42,7754.802
881061.6815835903,8279.623,-126729.58,-46787.598,-39752.44,-68327.92,-39892.05,-82083.414,7763.8755
881061.6855835882,8276.042,-126730.516,-46794.72,-39756.633,-68338.75,-39894.168,-82084.68,7763.5093
881061.6895835861,8273.764,-126732.99,-46806.152,-39758.06,-68348.47,-39899.008,-82092.53,7746.704
881061.6935835839,8275.024,-126725.95,-46804.2,-39755.29,-68342.9,-39897.83,-82092.37,7742.147
881061.6975835818,8279.216,-126720.87,-46792.156,-39751.832,-68337.28,-39895.266,-82089.16,7751.75
881061.7015835796,8273.275,-126727.7,-46792.562,-39754.68,-68340.82,-39895.633,-82091.23,7754.598
881061.7055835775,8273.601,-126730.96,-46807.09,-39761.19,-68349.445,-39898.64,-82094.0,7750.2036
881061.7095835754,8273.275,-126728.64,-46817.508,-39763.227,-68357.51,-39900.31,-82093.8,7746.4194
881061.7135835732,8268.596,-126728.11,-46811.28,-39760.215,-68351.04,-39898.562,-82090.3,7747.7217
881061.7175835711,8269.938,-126726.28,-46800.418,-39755.74,-68335.695,-39895.836,-82088.18,7758.586
881061.7215835691,8274.414,-126722.7,-46800.418,-39758.992,-68337.2,-39895.875,-82087.28,7765.3403
881061.7255835669,8274.536,-126722.66,-46809.734,-39765.91,-68350.305,-39899.293,-82087.28,7769.4907
881061.7295835648,8273.926,-126720.055,-46819.664,-39768.15,-68352.09,-39903.402,-82092.86,7751.7905
881061.7335835627,8273.642,-126716.59,-46813.76,-39765.465,-68343.67,-39900.96,-82090.82,7749.3896
881061.7375835605,8275.717,-126711.59,-46799.6,-39759.81,-68333.58,-39898.438,-82084.31,7764.6484
881061.7415835584,8274.902,-126715.945,-46794.76,-39759.24,-68331.87,-39899.375,-82081.586,7770.996
881061.7455835562,8272.136,-126726.93,-46809.734,-39766.277,-68345.055,-39904.83,-82087.98,7756.633
881061.7495835541,8272.339,-126726.52,-46818.562,-39765.79,-68346.195,-39907.27,-82091.23,7748.6167
881061.753583552,8272.461,-126719.0,-46812.83,-39763.145,-68337.65,-39905.234,-82090.336,7749.349
881061.7575835498,8268.066,-126724.41,-46806.723,-39764.65,-68334.516,-39904.83,-82089.805,7759.074
881061.7615835477,8270.142,-126719.37,-46804.973,-39765.625,-68335.66,-39904.95,-82087.61,7759.7656
881061.7655835456,8274.17,-126717.62,-46813.316,-39771.28,-68344.28,-39908.49,-82089.89,7757.65
881061.7695835434,8271.444,-126723.48,-46819.094,-39773.64,-68344.98,-39908.61,-82089.195,7757.121
881061.7735835413,8273.153,-126720.586,-46804.28,-39766.805,-68333.54,-39905.07,-82084.35,7765.259
881061.7775835391,8274.17,-126717.33,-46794.516,-39760.5,-68321.375,-39904.137,-82082.6,7772.4204
881061.781583537,8276.652,-126719.28,-46795.207,-39764.65,-68328.086,-39904.95,-82082.805,7774.577
881061.7855835349,8277.06,-126725.305,-46808.23,-39774.21,-68340.3,-39908.406,-82088.7,7763.835
881061.7895835327,8272.705,-126730.23,-46815.758,-39778.24,-68347.25,-39910.77,-82092.45,7755.2085
881061.7935835306,8269.003,-126729.25,-46812.95,-39775.188,-68344.12,-39910.727,-82092.53,7748.7793
881061.7975835284,8268.759,-126719.85,-46803.387,-39772.34,-68335.86,-39908.69,-82089.195,7752.401
881061.8015835263,8271.403,-126711.71,-46798.383,-39775.066,-68336.1,-39906.008,-82087.04,7758.911
881061.8055835242,8273.4375,-126718.02,-46806.355,-39778.28,-68344.61,-39909.71,-82088.914,7756.2666
881061.809583522,8273.275,-126720.95,-46816.855,-39776.53,-68343.23,-39911.703,-82091.02,7750.285
881061.8135835199,8271.811,-126724.98,-46811.24,-39772.867,-68338.664,-39911.582,-82092.37,7747.0703
881061.8175835178,8271.811,-126725.71,-46801.19,-39768.84,-68330.04,-39910.81,-82090.58,7751.953
881061.8215835156,8275.31,-126724.61,-46802.086,-39769.734,-68332.69,-39912.07,-82090.74,7754.476
881061.8255835135,8278.891,-126727.91,-46811.117,-39775.27,-68342.81,-39916.504,-82095.83,7752.8486
881061.8295835113,8272.827,-126725.8,-46814.617,-39778.484,-68344.04,-39917.93,-82095.3,7751.465
881061.8335835092,8269.775,-126719.445,-46810.875,-39777.63,-68338.18,-39916.06,-82094.0,7749.634
881061.8375835071,8270.183,-126722.87,-46803.47,-39773.113,-68334.516,-39914.836,-82089.27,7762.0444
881061.8415835049,8272.665,-126727.586,-46801.15,-39773.438,-68338.99,-39915.69,-82088.79,7770.63
881061.8455835028,8278.076,-126728.195,-46808.797,-39777.832,-68348.15,-39917.562,-82092.086,7766.317
881061.8495835006,8276.408,-126723.59,-46820.273,-39779.746,-68352.7,-39920.41,-82093.875,7751.7905
881061.8535834985,8276.896,-126718.914,-46815.066,-39775.84,-68345.625,-39917.766,-82091.11,7749.797
881061.8575834964,8271.159,-126713.14,-46804.85,-39768.434,-68333.74,-39913.7,-82085.45,7759.969
881061.8615834942,8272.217,-126712.734,-46803.875,-39771.65,-68335.94,-39914.594,-82080.98,7770.549
881061.8655834921,8276.286,-126712.41,-46808.758,-39778.28,-68352.99,-39916.504,-82081.664,7771.8506
881061.86958349,8278.809,-126714.36,-46817.06,-39780.113,-68353.84,-39917.562,-82086.59,7760.4575
881061.8735834878,8279.379,-126719.0,-46812.83,-39777.387,-68348.555,-39916.504,-82087.89,7756.3477
881061.8775834857,8278.85,-126713.55,-46802.734,-39773.844,-68343.06,-39911.664,-82082.6,7775.106
881061.8815834835,8280.273,-126709.92,-46805.016,-39776.45,-68340.13,-39912.64,-82081.75,7781.2095
881061.8855834815,8279.907,-126714.234,-46812.215,-39783.773,-68346.36,-39914.188,-82081.26,7777.1406
881061.8895834794,8275.879,-126716.39,-46813.64,-39784.508,-68354.05,-39916.504,-82082.84,7765.666
881061.8935834772,8273.56,-126713.055,-46811.035,-39780.844,-68349.81,-39916.707,-82084.07,7761.4746
881061.8975834751,8279.46,-126711.67,-46798.87,-39775.555,-68346.84,-39913.574,-82081.34,7768.5957
881061.901583473,8282.187,-126713.71,-46801.027,-39779.91,-68351.16,-39916.26,-82082.69,7764.4453
881061.9055834708,8284.262,-126716.19,-46810.59,-39785.117,-68356.94,-39919.434,-82086.06,7763.713
881061.9095834687,8283.773,-126716.555,-46813.965,-39782.676,-68356.65,-39922.363,-82088.87,7754.354
881061.9135834666,8278.32,-126718.34,-46812.34,-39781.617,-68350.586,-39922.324,-82089.6,7755.046
881061.9175834644,8279.338,-126713.83,-46804.973,-39777.26,-68337.81,-39920.98,-82088.7,7756.1445
881061.9215834623,8277.71,-126717.984,-46803.348,-39778.445,-68334.39,-39922.445,-82091.23,7757.8125
881061.9255834601,8275.92,-126731.086,-46810.59,-39784.832,-68345.09,-39924.36,-82093.305,7757.08
881061.929583458,8273.845,-126734.336,-46817.75,-39784.26,-68349.65,-39924.277,-82094.61,7745.158
881061.9335834559,8273.845,-126730.266,-46814.656,-39780.438,-68339.4,-39923.258,-82092.05,7750.8955
881061.9375834537,8272.299,-126728.68,-46803.062,-39777.47,-68330.89,-39920.207,-82086.39,7760.8643
881061.9415834516,8275.473,-126731.49,-46802.938,-39778.688,-68335.25,-39920.37,-82085.01,7765.625
881061.9455834494,8278.85,-126731.24,-46811.2,-39785.605,-68342.57,-39920.453,-82086.14,7769.328
881061.9495834473,8280.884,-126731.94,-46816.246,-39788.617,-68342.86,-39916.42,-82084.35,7769.5312
881061.9535834452,8278.076,-126731.66,-46817.06,-39787.027,-68337.484,-39913.047,-82083.13,7761.1084
881061.957583443,8279.013,-126727.95,-46809.45,-39783.938,-68328.164,-39908.895,-82081.586,7766.8867
881061.9615834409,8280.966,-126724.9,-46805.46,-39785.32,-68330.89,-39906.453,-82082.484,7772.705
881061.9655834388,8279.867,-126725.38,-46814.414,-39791.26,-68335.45,-39906.535,-82085.45,7766.3574
881061.9695834366,8280.844,-126729.375,-46818.688,-39791.42,-68332.36,-39903.445,-82085.9,7760.946
881061.9735834345,8279.989,-126722.09,-46812.38,-39786.62,-68324.83,-39898.355,-82084.76,7766.7646
881061.9775834323,8280.3955,-126716.96,-46803.47,-39782.797,-68316.125,-39895.71,-82085.94,7769.206
881061.9815834302,8277.304,-126723.07,-46804.08,-39787.312,-68317.95,-39891.727,-82081.87,7777.751
881061.9855834281,8277.06,-126728.84,-46815.676,-39795.656,-68328.49,-39889.934,-82083.46,7771.037
881061.9895834259,8283.041,-126731.49,-46823.324,-39796.754,-68326.91,-39887.574,-82085.37,7758.2197
881061.9935834238,8278.85,-126727.83,-46819.336,-39791.42,-68311.32,-39881.96,-82078.375,7768.718
881061.9975834216,8282.878,-126722.66,-46812.91,-39788.047,-68301.72,-39875.613,-82069.586,7783.4883
881062.0015834195,8280.151,-126722.45,-46809.53,-39791.016,-68301.555,-39875.0,-82072.39,7776.6113
881062.0055834174,8275.473,-126721.84,-46815.88,-39795.777,-68307.13,-39877.156,-82079.836,7766.032
881062.0095834152,8275.513,-126717.29,-46824.79,-39794.35,-68311.2,-39878.215,-82085.01,7758.545
881062.0135834131,8273.601,-126716.31,-46822.55,-39791.832,-68310.14,-39877.32,-82085.33,7756.307
881062.017583411,8277.222,-126709.516,-46813.03,-39787.8,-68302.66,-39874.27,-82083.09,7765.747
881062.0215834088,8282.023,-126711.51,-46812.38,-39787.883,-68306.27,-39873.66,-82083.54,7767.9854
881062.0255834067,8278.931,-126715.984,-46822.188,-39794.965,-68317.22,-39877.156,-82088.79,7764.852
881062.0295834045,8279.175,-126718.1,-46827.273,-39795.29,-68315.35,-39876.87,-82088.42,7761.882
881062.0335834024,8280.803,-126718.02,-46821.414,-39789.39,-68306.4,-39872.6,-82083.5,7763.591
881062.0375834003,8279.785,-126715.17,-46810.344,-39786.746,-68297.89,-39868.938,-82079.266,7769.9385
881062.0415833981,8274.862,-126715.17,-46810.957,-39789.31,-68298.83,-39869.305,-82075.195,7774.292
881062.045583396,8275.229,-126726.69,-46824.832,-39795.492,-68309.9,-39870.566,-82076.83,7769.45
881062.049583394,8268.677,-126739.016,-46831.953,-39796.793,-68316.81,-39872.684,-82082.6,7761.3525
881062.0535833918,8265.625,-126742.68,-46821.94,-39792.766,-68313.84,-39871.094,-82082.89,7760.9053
881062.0575833897,8269.165,-126736.66,-46814.617,-39789.023,-68309.61,-39869.67,-82082.32,7765.666
881062.0615833875,8266.317,-126733.4,-46816.69,-39791.63,-68314.74,-39869.223,-82081.99,7762.4106
881062.0655833854,8263.632,-126735.64,-46829.67,-39799.848,-68326.78,-39870.85,-82084.92,7757.2837
881062.0695833833,8264.12,-126738.53,-46838.3,-39802.45,-68332.805,-39872.316,-82086.55,7746.948
881062.0735833811,8259.033,-126741.87,-46837.812,-39803.508,-68327.11,-39872.195,-82088.3,7744.0186
881062.077583379,8257.8125,-126736.125,-46826.215,-39796.836,-68315.8,-39868.613,-82081.18,7761.3525
881062.0815833769,8263.916,-126728.6,-46820.56,-39794.19,-68312.91,-39869.426,-82075.97,7769.409
881062.0855833747,8265.422,-126729.82,-46822.957,-39800.09,-68319.016,-39872.4,-82076.17,7762.004
881062.0895833726,8263.591,-126733.24,-46831.098,-39801.84,-68316.29,-39871.01,-82072.516,7763.9976
881062.0935833704,8264.404,-126717.29,-46826.215,-39796.793,-68306.89,-39868.004,-82068.32,7762.5327
881062.0975833683,8266.928,-126710.62,-46812.38,-39792.848,-68298.18,-39865.4,-82066.695,7763.591
881062.1015833662,8264.323,-126718.19,-46812.625,-39796.43,-68301.35,-39865.766,-82065.19,7777.3438
881062.105583364,8266.154,-126735.35,-46829.51,-39803.305,-68312.5,-39869.957,-82073.29,7769.1245
881062.1095833619,8263.306,-126740.56,-46838.137,-39801.758,-68316.9,-39873.66,-82082.28,7748.9424
881062.1135833598,8260.946,-126735.234,-46835.207,-39797.49,-68311.32,-39872.76,-82084.11,7746.501
881062.1175833576,8260.092,-126738.37,-46827.477,-39795.37,-68303.71,-39871.055,-82080.2,7754.2725
881062.1215833555,8252.768,-126751.67,-46828.574,-39798.746,-68307.7,-39869.223,-82075.89,7768.8804
881062.1255833533,8254.069,-126755.945,-46838.91,-39803.305,-68315.63,-39869.754,-82074.14,7767.7817
881062.1295833512,8258.627,-126746.71,-46839.887,-39802.816,-68309.41,-39871.22,-82076.13,7756.592
881062.1335833491,8254.843,-126738.98,-46832.156,-39798.465,-68302.49,-39870.77,-82079.836,7750.163
881062.1375833469,8258.423,-126732.875,-46823.61,-39796.957,-68299.32,-39869.266,-82077.6,7757.324
881062.1415833448,8256.755,-126736.945,-46824.832,-39802.29,-68306.12,-39871.094,-82076.3,7763.2246
881062.1455833426,8250.326,-126742.72,-46838.83,-39809.41,-68318.24,-39873.902,-82080.734,7751.709
881062.1495833405,8250.163,-126744.555,-46846.113,-39808.676,-68326.46,-39873.902,-82084.03,7739.177
881062.1535833384,8251.913,-126742.805,-46838.258,-39803.754,-68319.586,-39870.688,-82077.195,7745.321
881062.1575833362,8251.303,-126740.69,-46826.824,-39798.83,-68308.48,-39867.39,-82069.7,7759.074
881062.1615833341,8247.07,-126744.67,-46828.492,-39799.4,-68306.56,-39868.246,-82069.74,7759.6436
881062.165583332,8249.716,-126749.11,-46838.664,-39806.887,-68318.12,-39872.844,-82078.62,7745.4023
881062.1695833298,8254.11,-126749.35,-46846.234,-39807.7,-68320.07,-39874.023,-82080.53,7743.2456
881062.1735833277,8249.472,-126742.11,-46839.355,-39803.996,-68313.48,-39870.445,-82075.69,7749.227
881062.1775833255,8250.732,-126737.836,-46824.707,-39801.23,-68309.41,-39867.35,-82072.23,7761.882
881062.1815833234,8250.692,-126741.625,-46825.97,-39803.67,-68315.06,-39868.53,-82072.31,7768.3105
881062.1855833213,8247.396,-126746.83,-46842.695,-39811.117,-68329.96,-39871.746,-82074.266,7763.8755
881062.1895833191,8244.06,-126748.82,-46848.39,-39813.926,-68333.58,-39874.023,-82075.28,7759.5215
881062.193583317,8241.293,-126748.82,-46842.695,-39813.64,-68330.98,-39874.676,-82078.05,7758.952
881062.1975833148,8245.605,-126749.555,-46832.36,-39807.17,-68328.78,-39873.535,-82075.16,7764.852
881062.2015833127,8243.327,-126755.09,-46833.742,-39806.887,-68332.97,-39875.613,-82078.05,7764.9336
881062.2055833106,8233.48,-126765.016,-46846.07,-39814.535,-68343.75,-39879.19,-82086.914,7754.3945
881062.2095833084,8234.66,-126762.25,-46852.824,-39815.227,-68346.64,-39879.152,-82087.94,7749.8374
881062.2135833064,8233.073,-126755.78,-46846.844,-39812.01,-68338.87,-39879.11,-82085.82,7744.995
881062.2175833043,8234.619,-126753.99,-46840.047,-39808.35,-68330.04,-39875.938,-82082.56,7747.6807
881062.2215833021,8230.103,-126756.31,-46842.816,-39810.832,-68334.44,-39876.793,-82081.18,7755.9004
881062.2255833,8229.533,-126757.66,-46856.285,-39818.81,-68345.18,-39881.43,-82083.91,7748.7793
881062.2295832979,8233.154,-126764.445,-46860.8,-39816.977,-68339.93,-39880.82,-82080.125,7751.0986
881062.2335832957,8232.748,-126763.96,-46853.19,-39812.297,-68331.14,-39879.03,-82076.87,7754.0693
881062.2375832936,8231.242,-126756.07,-46845.867,-39810.223,-68326.055,-39878.215,-82075.08,7753.1333
881062.2415832914,8227.458,-126759.56,-46847.168,-39809.734,-68328.53,-39878.01,-82072.43,7763.7534
881062.2455832893,8226.97,-126767.09,-46858.727,-39816.938,-68336.836,-39881.105,-82076.3,7760.3354
881062.2495832872,8225.302,-126763.59,-46865.156,-39817.79,-68343.06,-39881.633,-82078.94,7754.2725
881062.253583285,8225.668,-126755.375,-46857.22,-39815.023,-68338.7,-39880.777,-82080.24,7756.999
881062.2575832829,8228.394,-126751.23,-46848.145,-39809.043,-68321.66,-39877.973,-82078.695,7759.5625
881062.2615832807,8228.72,-126749.68,-46846.395,-39809.938,-68319.46,-39877.08,-82076.83,7768.514
881062.2655832786,8232.544,-126746.22,-46855.023,-39818.2,-68326.7,-39879.926,-82078.414,7761.068
881062.2695832765,8233.317,-126750.25,-46861.29,-39817.586,-68329.836,-39880.047,-82079.02,7755.941
881062.2735832743,8227.214,-126746.09,-46863.895,-39815.797,-68325.73,-39879.52,-82078.375,7757.5684
881062.2775832722,8230.185,-126745.484,-46853.76,-39811.85,-68322.59,-39878.133,-82077.68,7763.3057
881062.28158327,8231.445,-126753.83,-46850.63,-39812.176,-68318.32,-39878.01,-82077.555,7762.492
881062.2855832679,8228.882,-126747.16,-46859.99,-39817.79,-68325.03,-39880.29,-82078.21,7761.76
881062.2895832658,8230.347,-126738.77,-46866.336,-39816.164,-68322.59,-39881.227,-82077.27,7762.451
881062.2935832636,8223.674,-126741.984,-46864.992,-39814.047,-68317.914,-39879.64,-82077.35,7762.4106
881062.2975832615,8219.727,-126743.86,-46857.22,-39812.543,-68318.766,-39877.973,-82075.28,7772.339
881062.3015832594,8222.209,-126735.44,-46852.785,-39813.07,-68321.086,-39879.355,-82075.65,7772.1763
881062.3055832572,8225.464,-126737.76,-46859.5,-39818.688,-68336.75,-39882.082,-82078.53,7773.763
881062.3095832551,8226.074,-126742.4,-46868.45,-39820.273,-68342.45,-39883.79,-82078.49,7777.4253
881062.313583253,8228.394,-126737.43,-46861.94,-39815.473,-68333.7,-39883.87,-82079.19,7767.131
881062.3175832508,8225.383,-126739.016,-46849.49,-39811.44,-68324.99,-39882.45,-82082.4,7758.301
881062.3215832487,8226.318,-126745.12,-46851.688,-39812.746,-68326.664,-39882.57,-82084.72,7758.545
881062.3255832465,8224.936,-126744.06,-46864.42,-39819.38,-68339.93,-39886.027,-82087.81,7756.755
881062.3295832444,8223.999,-126730.8,-46866.58,-39818.89,-68341.31,-39884.195,-82082.32,7758.6265
881062.3335832423,8225.627,-126712.37,-46859.336,-39812.38,-68329.43,-39881.023,-82074.586,7769.6533
881062.3375832401,8231.771,-126708.26,-46848.145,-39807.984,-68320.195,-39879.926,-82068.766,7783.325
881062.341583238,8229.94,-126715.336,-46848.145,-39809.816,-68326.01,-39881.51,-82073.0,7777.507
881062.3455832358,8225.871,-126720.055,-46861.043,-39813.883,-68335.125,-39885.01,-82080.33,7766.9272
881062.3495832337,8226.481,-126721.766,-46861.94,-39815.105,-68335.695,-39885.254,-82081.46,7766.7236
881062.3535832316,8225.668,-126719.04,-46857.832,-39811.605,-68331.99,-39884.402,-82080.77,7767.2935
881062.3575832294,8227.987,-126718.914,-46849.45,-39806.684,-68322.8,-39881.51,-82077.15,7775.798
881062.3615832273,8228.801,-126726.2,-46845.703,-39809.773,-68325.93,-39881.145,-82076.78,7783.529
881062.3655832252,8231.567,-126725.1,-46854.535,-39811.65,-68332.36,-39884.36,-82080.57,7773.153
881062.369583223,8236.816,-126721.64,-46859.254,-39809.652,-68329.02,-39883.992,-82079.51,7769.328
881062.3735832209,8233.073,-126718.34,-46854.94,-39807.82,-68316.164,-39882.12,-82077.68,7772.583
881062.3775832189,8230.835,-126723.59,-46844.035,-39803.55,-68308.72,-39879.03,-82072.31,7782.837
881062.3815832167,8232.544,-126729.01,-46846.03,-39803.996,-68312.336,-39878.703,-82066.61,7792.4805
881062.3855832146,8237.0205,-126727.38,-46854.535,-39809.043,-68326.375,-39883.707,-82069.87,7780.6807
881062.3895832124,8233.195,-126729.78,-46861.53,-39810.465,-68324.14,-39886.355,-82073.53,7773.153
881062.3935832103,8230.103,-126736.78,-46860.23,-39809.49,-68317.75,-39884.727,-82073.08,7775.5127
881062.3975832082,8233.073,-126732.836,-46848.88,-39806.684,-68310.23,-39882.855,-82071.984,7784.0986
881062.401583206,8234.619,-126729.58,-46845.34,-39807.863,-68316.2,-39883.79,-82072.23,7790.6494
881062.4055832039,8228.394,-126736.125,-46856.65,-39814.496,-68329.555,-39886.76,-82076.13,7778.646
881062.4095832017,8227.295,-126731.2,-46856.73,-39811.24,-68329.19,-39885.297,-82075.56,7771.444
881062.4135831996,8226.359,-126720.664,-46854.617,-39805.625,-68315.92,-39884.035,-82074.67,7772.461
881062.4175831975,8226.97,-126719.77,-46849.0,-39802.53,-68304.57,-39882.527,-82072.23,7777.0996
881062.4215831953,8226.196,-126729.086,-46849.12,-39805.46,-68309.37,-39883.87,-82072.19,7778.076
881062.4255831932,8225.058,-126732.305,-46859.703,-39812.297,-68322.555,-39885.824,-82076.09,7770.101
881062.429583191,8227.173,-126732.06,-46866.008,-39812.664,-68322.47,-39884.035,-82075.56,7766.032
881062.4335831889,8228.068,-126729.336,-46860.637,-39807.414,-68310.63,-39882.082,-82074.914,7761.556
881062.4375831868,8225.058,-126726.484,-46850.914,-39804.117,-68304.484,-39882.0,-82076.42,7769.084
881062.4415831846,8223.633,-126728.07,-46849.0,-39805.34,-68310.43,-39882.367,-82078.94,7776.4893
881062.4455831825,8217.489,-126736.25,-46855.31,-39808.188,-68318.12,-39885.785,-82080.734,7772.9087
881062.4495831804,8216.797,-126741.78,-46860.555,-39807.09,-68320.07,-39886.56,-82082.805,7765.503
881062.4535831782,8220.907,-126740.6,-46862.145,-39804.605,-68316.81,-39884.93,-82079.71,7768.677
881062.4575831761,8222.616,-126738.53,-46851.973,-39803.223,-68312.055,-39883.87,-82078.05,7764.4453
881062.461583174,8221.64,-126740.65,-46850.426,-39808.637,-68318.73,-39885.906,-82077.805,7768.5957
881062.4655831718,8217.733,-126744.23,-46861.86,-39812.785,-68327.4,-39887.94,-82081.75,7763.4277
881062.4695831697,8220.378,-126738.734,-46865.52,-39809.652,-68324.47,-39888.55,-82085.49,7758.2603
881062.4735831675,8218.303,-126737.266,-46862.348,-39806.6,-68312.664,-39887.86,-82082.32,7763.4688
881062.4775831654,8214.152,-126735.56,-46851.973,-39802.37,-68307.414,-39884.684,-82077.555,7775.106
881062.4815831633,8218.506,-126733.97,-46849.855,-39804.363,-68313.195,-39885.297,-82073.65,7781.942
881062.4855831611,8209.106,-126738.164,-46864.87,-39813.723,-68321.21,-39888.51,-82077.07,7768.1885
881062.489583159,8211.426,-126737.06,-46873.414,-39815.145,-68322.23,-39889.08,-82081.586,7754.5166
881062.4935831568,8211.589,-126736.17,-46869.71,-39811.605,-68315.92,-39887.574,-82083.26,7758.5044
881062.4975831547,8208.496,-126736.01,-46856.445,-39804.77,-68317.266,-39883.953,-82077.76,7767.09
881062.5015831526,8210.897,-126732.63,-46855.145,-39805.707,-68322.96,-39884.766,-82072.15,7775.1465
881062.5055831504,8216.187,-126731.125,-46867.312,-39813.07,-68329.71,-39888.797,-82075.195,7768.921
881062.5095831483,8218.954,-126733.24,-46870.402,-39812.055,-68320.97,-39887.656,-82074.22,7772.746
881062.5135831462,8215.292,-126734.7,-46865.684,-39808.797,-68310.18,-39884.44,-82071.17,7772.746
881062.517583144,8217.123,-126730.19,-46855.957,-39806.152,-68298.75,-39881.145,-82068.41,7776.4487
881062.5215831419,8219.32,-126728.48,-46853.598,-39807.008,-68304.37,-39883.668,-82065.31,7785.848
881062.5255831397,8221.436,-126737.266,-46861.656,-39811.77,-68320.92,-39885.17,-82062.83,7788.2896
881062.5295831376,8215.251,-126737.23,-46865.887,-39811.24,-68322.19,-39885.54,-82061.445,7784.343
881062.5335831355,8217.529,-126728.11,-46856.73,-39806.6,-68318.52,-39883.383,-82059.86,7785.726
881062.5375831333,8220.378,-126719.37,-46844.16,-39802.41,-68318.89,-39880.902,-82056.234,7796.875
881062.5415831313,8222.29,-126718.71,-46844.77,-39804.566,-68324.625,-39881.145,-82056.93,7807.251
881062.5455831292,8219.482,-126717.37,-46859.418,-39810.875,-68329.555,-39886.56,-82065.88,7791.0156
881062.549583127,8218.954,-126711.76,-46865.195,-39808.797,-68326.984,-39886.92,-82067.836,7780.0703
881062.5535831249,8219.279,-126709.68,-46857.344,-39805.746,-68322.516,-39886.598,-82065.68,7783.4067
881062.5575831227,8220.947,-126709.03,-46846.805,-39802.043,-68312.055,-39884.523,-82060.305,7794.4336
881062.5615831206,8220.581,-126708.46,-46846.355,-39803.836,-68312.7,-39884.523,-82058.8,7795.2476
881062.5655831185,8221.273,-126710.49,-46853.72,-39808.23,-68321.49,-39886.434,-82062.336,7784.668
881062.5695831163,8222.982,-126711.914,-46852.254,-39803.957,-68318.24,-39886.355,-82059.57,7785.1562
881062.5735831142,8226.034,-126709.234,-46844.363,-39800.742,-68312.99,-39884.684,-82057.74,7790.1206
881062.577583112,8227.661,-126700.08,-46836.996,-39796.43,-68308.48,-39882.367,-82057.74,7787.1504
881062.5815831099,8232.748,-126700.28,-46837.04,-39795.816,-68305.5,-39883.707,-82058.15,7790.731
881062.5855831078,8233.603,-126707.195,-46844.93,-39802.816,-68315.39,-39887.207,-82060.59,7792.928
881062.5895831056,8230.469,-126712.57,-46848.39,-39803.836,-68322.1,-39886.027,-82060.914,7788.574
881062.5935831035,8231.853,-126715.984,-46845.625,-39801.35,-68313.73,-39883.3,-82060.02,7786.7026
881062.5975831014,8229.289,-126709.48,-46836.793,-39796.145,-68298.71,-39881.51,-82056.766,7787.6387
881062.6015830992,8229.736,-126711.02,-46835.207,-39794.11,-68295.734,-39880.86,-82055.34,7792.2773
881062.6055830971,8231.364,-126715.54,-46842.613,-39800.336,-68307.45,-39883.914,-82055.87,7790.975
881062.609583095,8233.562,-126708.46,-46845.703,-39800.293,-68306.4,-39882.773,-82054.32,7793.5386
881062.6135830928,8234.009,-126709.07,-46842.53,-39797.73,-68304.0,-39880.37,-82052.49,7796.346
881062.6175830907,8237.102,-126709.07,-46833.254,-39794.84,-68301.555,-39879.598,-82049.64,7794.5557
881062.6215830885,8237.997,-126707.56,-46828.086,-39793.99,-68301.516,-39879.52,-82048.22,7801.5547
881062.6255830864,8239.868,-126705.24,-46835.98,-39797.61,-68308.516,-39880.008,-82050.664,7796.346
881062.6295830843,8238.607,-126696.91,-46836.793,-39795.695,-68304.65,-39878.62,-82046.67,7796.1426
881062.6335830821,8240.031,-126694.7,-46829.47,-39792.645,-68298.38,-39876.832,-82043.055,7798.34
881062.63758308,8241.537,-126697.72,-46823.49,-39792.074,-68294.76,-39875.0,-82041.22,7803.06
881062.6415830778,8238.485,-126693.41,-46827.516,-39792.93,-68297.98,-39875.773,-82040.24,7805.42
881062.6455830757,8234.497,-126692.75,-46835.98,-39798.746,-68307.62,-39879.52,-82042.89,7794.8
881062.6495830736,8237.143,-126691.82,-46837.04,-39798.543,-68305.95,-39879.926,-82041.18,7796.916
881062.6535830714,8239.177,-126694.7,-46836.184,-39797.85,-68298.99,-39876.59,-82038.78,7801.5547
881062.6575830693,8236.45,-126688.4,-46826.5,-39795.574,-68289.06,-39874.51,-82034.586,7811.4424
881062.6615830672,8238.811,-126685.63,-46822.88,-39795.004,-68292.85,-39874.31,-82031.5,7821.1265
881062.665583065,8241.781,-126694.055,-46835.41,-39801.473,-68307.336,-39878.99,-82036.5,7809.8145
881062.6695830629,8243.246,-126692.55,-46834.96,-39799.887,-68309.2,-39880.82,-82037.4,7807.373
881062.6735830607,8242.147,-126688.44,-46827.19,-39796.957,-68299.6,-39879.03,-82036.7,7804.3623
881062.6775830586,8241.13,-126685.19,-46821.453,-39794.516,-68288.78,-39879.234,-82037.11,7805.1353
881062.6815830565,8245.402,-126680.75,-46817.793,-39793.457,-68284.875,-39878.5,-82033.695,7817.912
881062.6855830543,8249.634,-126678.35,-46824.465,-39799.074,-68290.85,-39880.496,-82034.67,7818.563
881062.6895830522,8246.867,-126682.945,-46827.76,-39799.97,-68290.77,-39880.86,-82035.56,7814.575
881062.69358305,8243.571,-126678.555,-46826.01,-39796.836,-68279.13,-39879.03,-82035.484,7819.865
881062.6975830479,8247.6,-126674.65,-46820.926,-39796.387,-68271.32,-39877.24,-82036.3,7818.8887
881062.7015830458,8251.628,-126685.23,-46820.68,-39797.445,-68271.89,-39876.18,-82035.97,7818.319
881062.7055830437,8248.047,-126699.79,-46828.74,-39802.734,-68279.91,-39875.895,-82038.414,7815.1855
881062.7095830416,8247.233,-126699.38,-46831.465,-39802.574,-68278.52,-39872.887,-82036.91,7810.832
881062.7135830395,8249.878,-126691.45,-46825.605,-39798.79,-68269.21,-39867.188,-82034.23,7809.7334
881062.7175830373,8251.343,-126689.945,-46816.938,-39795.816,-68265.055,-39860.15,-82029.22,7819.458
881062.7215830352,8254.232,-126694.625,-46816.45,-39798.87,-68266.28,-39856.977,-82029.016,7825.7246
881062.725583033,8251.303,-126703.45,-46829.633,-39808.023,-68277.67,-39856.324,-82031.945,7819.9873
881062.7295830309,8248.169,-126708.336,-46838.055,-39809.9,-68278.89,-39854.13,-82036.38,7808.7974
881062.7335830288,8252.89,-126709.03,-46832.723,-39808.066,-68272.055,-39849.69,-82036.18,7803.7925
881062.7375830266,8256.755,-126697.35,-46819.176,-39802.45,-68262.9,-39842.246,-82031.086,7814.7383
881062.7415830245,8254.924,-126692.06,-46818.32,-39802.574,-68256.8,-39837.363,-82025.11,7829.468
881062.7455830224,8257.772,-126694.13,-46825.24,-39807.375,-68254.07,-39836.426,-82025.84,7824.056
881062.7495830202,8258.789,-126692.59,-46824.098,-39805.992,-68255.086,-39831.992,-82025.23,7818.929
881062.7535830181,8258.261,-126696.54,-46816.855,-39804.527,-68254.36,-39827.027,-82021.94,7822.3877
881062.757583016,8261.597,-126695.27,-46807.66,-39803.836,-68247.97,-39822.51,-82017.46,7834.0254
881062.7615830138,8264.079,-126696.62,-46811.81,-39806.48,-68251.99,-39820.926,-82018.516,7832.3975
881062.7655830117,8264.812,-126699.016,-46824.3,-39812.38,-68258.83,-39820.926,-82023.07,7826.3755
881062.7695830095,8265.097,-126694.79,-46824.3,-39810.63,-68250.98,-39818.605,-82019.82,7831.34
881062.7735830074,8262.492,-126693.12,-46820.68,-39806.56,-68244.14,-39817.18,-82024.09,7827.8403
881062.7775830053,8262.695,-126694.22,-46812.625,-39806.195,-68238.734,-39814.496,-82024.21,7829.509
881062.7815830031,8264.893,-126703.49,-46814.293,-39810.875,-68246.055,-39814.21,-82024.375,7831.0547
881062.785583001,8261.557,-126717.414,-46826.418,-39818.074,-68256.47,-39814.047,-82025.64,7828.7354
881062.7895829988,8260.539,-126718.67,-46828.168,-39815.918,-68248.45,-39811.77,-82023.73,7826.335
881062.7935829967,8258.22,-126712.04,-46824.22,-39812.906,-68246.22,-39811.402,-82024.375,7822.103
881062.7975829946,8261.353,-126704.31,-46815.676,-39808.31,-68243.53,-39810.14,-82023.89,7825.8057
881062.8015829924,8262.37,-126702.27,-46811.65,-39809.652,-68250.61,-39810.02,-82022.46,7830.0376
881062.8055829903,8259.399,-126706.18,-46828.168,-39816.773,-68257.086,-39811.93,-82024.336,7828.939
881062.8095829881,8259.44,-126707.08,-46832.316,-39815.715,-68252.61,-39810.875,-82024.17,7832.2754
881062.813582986,8262.085,-126703.17,-46824.953,-39812.137,-68244.59,-39810.14,-82025.64,7820.7197
881062.8175829839,8265.056,-126706.305,-46815.555,-39811.89,-68242.92,-39807.78,-82024.74,7822.3877
881062.8215829817,8258.83,-126715.055,-46816.69,-39813.316,-68239.14,-39805.46,-82020.8,7833.2114
881062.8255829796,8259.155,-126718.67,-46825.684,-39817.75,-68246.75,-39809.207,-82026.49,7827.0264
881062.8295829775,8261.271,-126712.484,-46830.28,-39817.18,-68247.03,-39810.914,-82028.98,7820.15
881062.8335829753,8256.999,-126707.766,-46823.895,-39814.047,-68233.89,-39808.51,-82023.89,7829.7935
881062.8375829732,8254.477,-126704.76,-46811.16,-39812.46,-68228.195,-39807.457,-82022.71,7833.252
881062.841582971,8254.272,-126700.484,-46810.75,-39813.883,-68232.38,-39809.082,-82027.63,7821.533
881062.8455829689,8255.941,-126701.91,-46823.61,-39823.242,-68243.37,-39811.32,-82032.23,7817.993
881062.8495829668,8257.284,-126702.03,-46831.34,-39825.93,-68244.305,-39810.71,-82030.234,7817.098
881062.8535829646,8257.202,-126696.82,-46823.69,-39819.867,-68239.38,-39809.246,-82027.836,7813.9243
881062.8575829625,8253.662,-126693.445,-46816.12,-39814.496,-68230.72,-39805.95,-82021.04,7826.864
881062.8615829604,8258.708,-126686.164,-46814.008,-39814.902,-68234.21,-39804.89,-82020.14,7833.0894
881062.8655829582,8257.65,-126687.09,-46820.312,-39819.62,-68242.96,-39807.254,-82024.82,7822.8354
881062.8695829561,8250.57,-126691.37,-46822.715,-39820.027,-68240.234,-39805.664,-82025.31,7811.5234
881062.873582954,8250.082,-126696.62,-46823.57,-39817.953,-68237.59,-39802.938,-82023.766,7813.965
881062.8775829519,8259.644,-126693.08,-46813.64,-39814.09,-68233.805,-39801.434,-82022.79,7816.2437
881062.8815829498,8262.411,-126692.43,-46812.176,-39814.168,-68222.414,-39800.54,-82020.14,7823.446
881062.8855829476,8261.027,-126699.51,-46819.703,-39818.605,-68224.29,-39800.906,-82019.45,7824.382
881062.8895829455,8259.196,-126701.3,-46819.01,-39818.766,-68228.6,-39800.21,-82018.84,7822.2656
881062.8935829434,8258.383,-126702.48,-46814.902,-39817.914,-68226.89,-39799.44,-82019.21,7820.0684
881062.8975829412,8260.742,-126703.984,-46809.855,-39817.383,-68223.43,-39799.44,-82019.9,7820.964
881062.9015829391,8267.212,-126700.69,-46810.957,-39817.14,-68227.91,-39800.66,-82021.94,7824.0967
881062.905582937,8266.195,-126706.625,-46815.39,-39821.168,-68239.664,-39804.242,-82026.086,7822.3877
881062.9095829348,8267.334,-126708.58,-46817.87,-39818.81,-68237.836,-39802.207,-82023.97,7823.242
881062.9135829327,8269.247,-126708.17,-46812.215,-39811.77,-68224.29,-39799.113,-82020.914,7818.9697
881062.9175829305,8270.752,-126706.99,-46801.473,-39808.797,-68219.12,-39798.504,-82019.25,7829.753
881062.9215829284,8268.107,-126702.6,-46804.324,-39810.1,-68222.695,-39798.383,-82015.46,7840.332
881062.9255829263,8271.444,-126707.195,-46815.31,-39817.223,-68229.62,-39800.457,-82014.94,7834.3916
881062.9295829241,8270.549,-126717.01,-46822.227,-39817.71,-68231.61,-39800.008,-82014.41,7831.177
881062.933582922,8265.219,-126723.11,-46818.688,-39815.96,-68232.99,-39796.67,-82010.7,7833.6997
881062.9375829198,8261.841,-126721.805,-46806.113,-39815.105,-68225.38,-39794.273,-82009.484,7835.246
881062.9415829177,8263.469,-126717.37,-46809.734,-39817.14,-68216.92,-39796.43,-82011.6,7834.188
881062.9455829156,8264.445,-126706.914,-46815.43,-39817.87,-68216.31,-39797.61,-82013.63,7827.108
881062.9495829134,8264.12,-126700.89,-46815.797,-39815.31,-68214.52,-39796.715,-82009.484,7832.0723
881062.9535829113,8265.991,-126700.73,-46809.855,-39811.973,-68215.984,-39793.742,-82010.46,7829.3867
881062.9575829091,8266.154,-126702.07,-46803.55,-39812.867,-68214.4,-39791.707,-82011.766,7828.125
881062.961582907,8269.206,-126703.25,-46804.89,-39816.734,-68212.12,-39793.703,-82012.86,7829.468
881062.9655829049,8269.572,-126706.625,-46813.723,-39824.016,-68219.56,-39797.895,-82015.055,7830.5664
881062.9695829027,8258.993,-126709.44,-46815.188,-39824.22,-68220.09,-39797.203,-82014.445,7829.2646
881062.9735829006,8256.999,-126711.71,-46809.855,-39821.617,-68215.17,-39793.945,-82012.45,7830.5664
881062.9775828985,8259.196,-126715.87,-46800.17,-39818.035,-68210.086,-39792.766,-82007.81,7838.9487
881062.9815828963,8261.027,-126713.586,-46798.992,-39819.785,-68210.77,-39794.23,-82009.24,7836.548
881062.9855828942,8255.575,-126714.234,-46811.605,-39827.72,-68220.055,-39797.324,-82012.17,7828.695
881062.989582892,8254.3545,-126712.37,-46815.555,-39828.453,-68223.11,-39796.836,-82011.97,7828.044
881062.9935828899,8258.301,-126710.984,-46810.59,-39823.65,-68217.086,-39793.824,-82011.48,7828.8984
881062.9975828878,8263.062,-126709.76,-46802.45,-39818.562,-68205.2,-39791.953,-82009.16,7834.1064
881063.0015828856,8265.381,-126704.19,-46802.45,-39818.156,-68205.41,-39791.547,-82007.49,7842.977
881063.0055828835,8259.929,-126712.69,-46811.363,-39823.895,-68217.125,-39793.863,-82011.766,7834.758
881063.0095828814,8257.243,-126717.37,-46814.09,-39824.06,-68216.8,-39793.05,-82013.43,7821.045
881063.0135828792,8258.545,-126715.87,-46808.88,-39820.516,-68208.17,-39793.906,-82016.97,7822.103
881063.0175828771,8258.586,-126713.34,-46802.45,-39820.8,-68206.99,-39793.62,-82014.61,7836.67
881063.0215828749,8255.656,-126714.73,-46803.426,-39823.445,-68214.93,-39793.824,-82009.445,7845.9883
881063.0255828728,8261.394,-126714.16,-46813.273,-39827.312,-68222.74,-39797.61,-82018.19,7819.133
881063.0295828707,8263.876,-126713.51,-46812.215,-39826.99,-68226.56,-39799.113,-82023.32,7811.3203
881063.0335828685,8258.789,-126705.61,-46807.863,-39823.73,-68218.18,-39798.383,-82022.22,7813.884
881063.0375828665,8254.558,-126706.875,-46806.926,-39820.8,-68208.91,-39796.184,-82016.234,7822.3877
881063.0415828644,8253.54,-126706.914,-46808.473,-39823.61,-68214.27,-39796.43,-82013.305,7826.538
881063.0455828622,8259.318,-126707.97,-46816.082,-39827.92,-68225.18,-39797.16,-82013.305,7825.9277
881063.0495828601,8260.417,-126714.44,-46817.75,-39828.613,-68229.45,-39797.812,-82015.51,7822.917
881063.053582858,8262.533,-126709.44,-46812.297,-39824.668,-68220.42,-39796.51,-82013.06,7821.6553
881063.0575828558,8261.108,-126704.23,-46808.027,-39821.168,-68219.36,-39795.574,-82011.4,7827.5146
881063.0615828537,8254.924,-126712.77,-46808.594,-39822.715,-68222.29,-39796.348,-82010.13,7831.665
881063.0655828515,8254.924,-126717.57,-46816.652,-39827.8,-68227.336,-39798.3,-82011.11,7824.341
881063.0695828494,8255.859,-126716.72,-46818.523,-39825.6,-68228.4,-39797.527,-82010.99,7821.8994
881063.0735828473,8250.082,-126718.43,-46813.52,-39823.61,-68222.01,-39796.875,-82009.484,7820.5977
881063.0775828451,8245.28,-126714.84,-46804.242,-39821.86,-68217.41,-39796.918,-82005.49,7827.23
881063.081582843,8251.994,-126712.125,-46805.867,-39824.098,-68221.56,-39799.074,-82006.02,7829.3457
881063.0855828408,8254.517,-126723.76,-46819.746,-39830.203,-68231.08,-39802.86,-82011.07,7828.288
881063.0895828387,8253.703,-126720.26,-46822.39,-39828.25,-68227.42,-39803.062,-82011.68,7825.3584
881063.0935828366,8249.431,-126710.82,-46822.227,-39824.91,-68217.81,-39801.11,-82010.17,7824.748
881063.0975828344,8247.641,-126710.82,-46818.074,-39823.57,-68217.86,-39800.418,-82005.25,7837.6465
881063.1015828323,8252.6045,-126703.01,-46816.043,-39823.285,-68216.8,-39801.72,-82006.11,7834.432
881063.1055828301,8257.406,-126702.68,-46823.203,-39828.25,-68222.695,-39802.492,-82008.875,7832.1943
881063.109582828,8250.57,-126707.195,-46821.98,-39827.19,-68222.29,-39801.11,-82006.67,7849.365
881063.1135828259,8249.064,-126715.055,-46821.25,-39828.453,-68218.914,-39803.02,-82010.54,7859.538
881063.1175828237,8250.8955,-126717.125,-46813.926,-39826.418,-68215.5,-39802.29,-82009.24,7860.759
881063.1215828216,8254.11,-126717.82,-46812.625,-39827.23,-68217.61,-39802.613,-82008.38,7869.995
881063.1255828195,8254.761,-126720.26,-46820.477,-39831.586,-68230.35,-39805.176,-82010.13,7874.5933
881063.1295828173,8251.343,-126721.56,-46827.8,-39829.996,-68229.86,-39805.867,-82012.21,7869.792
881063.1335828152,8246.42,-126725.836,-46825.97,-39829.957,-68224.445,-39805.46,-82012.58,7873.291
881063.137582813,8245.28,-126733.445,-46820.516,-39828.94,-68223.11,-39805.016,-82011.516,7888.835
881063.1415828109,8247.314,-126739.016,-46820.027,-39827.516,-68222.695,-39807.414,-82013.836,7884.2773
881063.1455828088,8242.839,-126745.77,-46829.387,-39831.83,-68230.92,-39810.67,-82020.71,7872.762
881063.1495828066,8238.974,-126741.91,-46831.543,-39832.887,-68232.55,-39810.875,-82021.08,7869.1
881063.1535828045,8232.87,-126744.14,-46825.195,-39827.92,-68224.49,-39808.84,-82016.4,7875.8545
881063.1575828023,8235.474,-126745.164,-46815.715,-39823.16,-68216.92,-39805.543,-82009.12,7890.259
881063.1615828002,8241.903,-126738.37,-46815.555,-39825.4,-68216.23,-39806.97,-82007.0,7905.1924
881063.1655827981,8245.077,-126734.91,-46829.754,-39830.324,-68223.31,-39811.484,-82015.055,7890.4624
881063.1695827959,8242.147,-126742.555,-46834.883,-39833.09,-68227.016,-39811.363,-82018.19,7889.079
881063.1735827938,8239.868,-126745.53,-46827.56,-39829.793,-68227.625,-39810.26,-82014.734,7901.3267
881063.1775827917,8244.182,-126738.164,-46820.234,-39825.684,-68219.04,-39808.84,-82011.64,7915.08
881063.1815827895,8248.129,-126735.31,-46821.13,-39827.23,-68220.3,-39809.816,-82015.51,7924.0723
881063.1855827874,8242.31,-126736.414,-46825.93,-39829.875,-68226.195,-39813.395,-82017.375,7927.124
881063.1895827852,8240.397,-126734.7,-46829.918,-39829.062,-68226.445,-39815.105,-82017.13,7923.7876
881063.1935827831,8247.274,-126722.82,-46825.605,-39824.383,-68224.57,-39813.68,-82016.805,7916.1787
881063.197582781,8245.199,-126712.81,-46819.582,-39821.37,-68221.516,-39809.977,-82014.2,7926.107
881063.201582779,8247.966,-126710.21,-46824.63,-39823.49,-68224.37,-39807.902,-82012.414,7939.372
881063.2055827768,8248.657,-126716.8,-46833.66,-39827.19,-68232.305,-39811.89,-82015.42,7940.389
881063.2095827747,8240.112,-126719.94,-46835.37,-39826.66,-68224.9,-39812.746,-82017.17,7942.0576
881063.2135827725,8237.346,-126716.8,-46831.258,-39822.957,-68217.37,-39810.06,-82013.305,7948.4863
881063.2175827704,8243.327,-126710.05,-46823.61,-39820.56,-68211.47,-39809.0,-82009.36,7962.7686
881063.2215827683,8246.786,-126708.01,-46821.332,-39822.184,-68216.92,-39811.08,-82013.305,7958.9033
881063.2255827661,8247.844,-126707.89,-46829.51,-39826.703,-68228.195,-39814.535,-82018.07,7947.225
881063.229582764,8247.6,-126712.0,-46831.707,-39828.086,-68227.79,-39812.297,-82013.72,7951.091
881063.2335827618,8248.007,-126710.375,-46826.945,-39824.3,-68220.42,-39811.28,-82010.46,7955.6885
881063.2375827597,8251.099,-126705.37,-46822.957,-39821.332,-68212.85,-39808.92,-82006.43,7967.733
881063.2415827576,8252.6045,-126704.39,-46822.676,-39822.88,-68216.19,-39809.734,-82005.25,7971.965
881063.2455827554,8252.197,-126706.51,-46827.15,-39828.453,-68223.88,-39813.926,-82011.44,7956.584
881063.2495827533,8254.436,-126702.48,-46824.91,-39827.23,-68226.766,-39813.234,-82009.12,7962.4434
881063.2535827511,8250.977,-126702.68,-46826.62,-39824.668,-68219.56,-39813.68,-82007.29,7958.9033
881063.257582749,8252.686,-126696.13,-46821.047,-39819.99,-68213.99,-39814.09,-82007.0,7949.056
881063.2615827469,8255.453,-126700.56,-46819.95,-39819.742,-68218.75,-39811.89,-82004.48,7954.0205
881063.2655827447,8253.174,-126704.72,-46831.746,-39826.5,-68229.45,-39812.906,-82005.086,7955.648
881063.2695827426,8253.337,-126693.77,-46833.05,-39825.4,-68224.98,-39811.24,-82003.016,7957.601
881063.2735827405,8249.838,-126685.67,-46828.86,-39821.656,-68217.86,-39810.06,-82001.18,7956.5024
881063.2775827383,8249.228,-126685.14,-46820.723,-39821.414,-68213.664,-39809.53,-81996.14,7967.2446
881063.2815827362,8254.761,-126689.13,-46820.965,-39821.82,-68217.61,-39808.594,-81994.914,7971.761
881063.285582734,8257.568,-126692.34,-46827.965,-39825.6,-68229.53,-39809.33,-81996.79,7973.1855
881063.2895827319,8257.731,-126689.62,-46826.254,-39826.418,-68224.734,-39810.26,-81997.44,7972.331
881063.2935827298,8255.9,-126683.84,-46821.168,-39822.88,-68218.836,-39809.773,-81998.09,7971.639
881063.2975827276,8261.149,-126679.484,-46812.176,-39818.93,-68207.69,-39807.496,-81992.35,7978.801
881063.3015827255,8265.788,-126673.51,-46806.074,-39818.89,-68202.805,-39806.6,-81989.79,7982.8696
881063.3055827233,8267.009,-126670.66,-46812.5,-39820.11,-68209.88,-39807.82,-81993.086,7970.7847
881063.3095827212,8266.317,-126668.46,-46820.68,-39819.418,-68209.07,-39809.41,-81996.26,7963.176
881063.3135827191,8258.586,-126671.23,-46819.906,-39818.035,-68208.375,-39808.27,-81997.56,7966.146
881063.3175827169,8259.196,-126669.97,-46812.83,-39816.367,-68202.84,-39807.78,-81996.38,7968.7095
881063.3215827148,8262.573,-126670.17,-46811.81,-39815.836,-68206.83,-39808.434,-81997.32,7965.78
881063.3255827127,8260.376,-126674.16,-46818.562,-39819.46,-68213.14,-39811.28,-82003.664,7964.6406
881063.3295827105,8261.353,-126670.01,-46817.26,-39814.7,-68204.8,-39810.875,-82003.42,7963.8267
881063.3335827084,8260.783,-126667.73,-46810.547,-39811.117,-68196.414,-39809.816,-81999.72,7963.9893
881063.3375827062,8260.661,-126666.1,-46800.62,-39808.434,-68195.35,-39808.35,-81994.914,7969.6455
881063.3415827041,8266.562,-126664.02,-46803.957,-39811.402,-68200.445,-39809.207,-81994.914,7973.226
881063.345582702,8264.689,-126672.734,-46820.312,-39818.81,-68214.4,-39811.16,-81998.09,7971.0693
881063.3495826998,8256.633,-126674.16,-46821.332,-39817.383,-68211.02,-39810.305,-81992.8,7976.3594
881063.3535826977,8255.737,-126667.52,-46812.785,-39811.363,-68197.555,-39807.78,-81991.01,7971.4355
881063.3575826955,8255.575,-126671.63,-46808.15,-39808.594,-68191.2,-39807.21,-81992.11,7970.866
881063.3615826934,8258.423,-126675.3,-46809.53,-39810.426,-68192.71,-39809.816,-81991.54,7976.6035
881063.3655826914,8258.708,-126671.02,-46814.94,-39813.07,-68201.336,-39812.01,-81990.6,7979.94
881063.3695826893,8258.261,-126666.79,-46820.76,-39812.38,-68202.35,-39812.625,-81990.56,7979.6553
881063.3735826871,8255.168,-126668.625,-46819.258,-39813.273,-68199.34,-39812.746,-81991.21,7985.0264
881063.377582685,8255.941,-126669.68,-46812.46,-39812.297,-68194.625,-39810.914,-81986.9,7993.408
881063.3815826828,8260.458,-126670.86,-46811.81,-39811.85,-68191.49,-39809.285,-81985.516,7996.379
881063.3855826807,8258.017,-126670.984,-46819.215,-39817.63,-68196.49,-39812.176,-81985.96,7994.507
881063.3895826786,8262.492,-126670.54,-46817.465,-39815.96,-68199.75,-39810.875,-81983.32,7995.4834
881063.3935826764,8265.219,-126668.79,-46814.617,-39811.89,-68196.58,-39810.1,-81981.98,7993.8965
881063.3975826743,8258.789,-126669.44,-46808.92,-39809.816,-68191.125,-39808.676,-81981.94,7990.1533
881063.4015826721,8255.9,-126671.59,-46807.293,-39811.605,-68191.2,-39810.547,-81984.01,7991.374
881063.40558267,8261.841,-126671.555,-46813.234,-39813.68,-68204.305,-39813.805,-81988.08,7989.0547
881063.4095826679,8263.794,-126668.586,-46812.215,-39812.83,-68206.09,-39813.76,-81988.0,7989.502
881063.4135826657,8262.289,-126661.46,-46805.42,-39808.023,-68200.85,-39812.46,-81985.76,7988.6475
881063.4175826636,8266.602,-126652.1,-46802.53,-39803.223,-68198.08,-39811.688,-81985.4,7987.1826
881063.4215826615,8270.386,-126647.1,-46801.637,-39803.426,-68203.414,-39812.01,-81986.86,7986.369
881063.4255826593,8267.375,-126647.79,-46807.82,-39806.64,-68204.39,-39815.715,-81989.625,7978.882
881063.4295826572,8267.66,-126645.63,-46810.75,-39805.664,-68200.89,-39815.836,-81990.44,7976.3184
881063.433582655,8264.689,-126649.21,-46814.13,-39804.117,-68196.984,-39813.152,-81989.46,7976.4404
881063.4375826529,8263.754,-126654.55,-46809.734,-39805.707,-68199.55,-39812.664,-81988.37,7980.1436
881063.4415826508,8265.015,-126655.64,-46808.027,-39808.84,-68207.56,-39812.906,-81987.35,7989.665
881063.4455826486,8266.765,-126657.92,-46815.633,-39811.77,-68214.36,-39814.7,-81989.51,7987.834
881063.4495826465,8268.066,-126661.016,-46817.02,-39808.434,-68213.34,-39814.496,-81990.195,7986.084
881063.4535826443,8266.765,-126664.516,-46810.996,-39804.566,-68205.04,-39812.703,-81989.016,7987.02
881063.4575826422,8265.544,-126660.65,-46806.277,-39801.883,-68200.65,-39812.46,-81987.71,7995.8496
881063.4615826401,8265.381,-126652.96,-46804.73,-39801.598,-68198.28,-39811.727,-81986.49,7994.914
881063.4655826379,8264.486,-126653.445,-46812.01,-39803.914,-68198.98,-39811.93,-81988.28,7985.189
881063.4695826358,8268.2705,-126642.5,-46812.582,-39802.37,-68194.74,-39813.477,-81991.414,7977.3765
881063.4735826337,8264.648,-126643.11,-46806.03,-39801.188,-68192.99,-39811.973,-81992.68,7972.331
881063.4775826315,8269.165,-126648.89,-46796.715,-39798.668,-68193.56,-39809.613,-81989.83,7978.5566
881063.4815826294,8267.497,-126654.09,-46799.52,-39798.625,-68203.375,-39809.53,-81987.555,7984.2124
881063.4855826272,8266.643,-126660.61,-46807.332,-39800.17,-68212.28,-39810.465,-81987.8,7978.6377
881063.4895826251,8271.362,-126666.71,-46807.902,-39801.434,-68211.75,-39812.664,-81987.67,7975.627
881063.493582623,8270.915,-126665.81,-46804.566,-39798.34,-68209.72,-39812.297,-81988.12,7979.9805
881063.4975826208,8271.322,-126662.48,-46797.445,-39792.156,-68207.36,-39810.875,-81988.484,7979.3296
881063.5015826187,8271.811,-126664.02,-46799.113,-39796.1,-68211.305,-39813.68,-81990.12,7983.8867
881063.5055826165,8269.084,-126668.09,-46808.84,-39801.312,-68224.98,-39817.586,-81994.34,7979.167
881063.5095826144,8269.165,-126673.016,-46807.902,-39797.527,-68226.6,-39814.7,-81989.586,7982.341
881063.5135826123,8263.794,-126680.055,-46808.758,-39798.098,-68217.81,-39810.793,-81985.03,7981.6084
881063.5175826101,8265.178,-126680.305,-46804.445,-39794.477,-68211.34,-39809.207,-81984.055,7982.137
881063.521582608,8272.38,-126681.89,-46801.92,-39793.418,-68213.18,-39810.875,-81984.09,7986.084
881063.5255826059,8273.479,-126691.45,-46813.438,-39800.945,-68223.39,-39815.188,-81985.92,7987.549
881063.5295826038,8268.393,-126688.195,-46814.21,-39799.766,-68218.06,-39815.676,-81987.71,7983.1953
881063.5335826017,8270.793,-126685.43,-46808.92,-39799.234,-68205.57,-39814.902,-81990.28,7977.214
881063.5375825996,8276.652,-126683.84,-46801.15,-39797.04,-68198.94,-39812.664,-81986.82,7984.4565
881063.5415825974,8274.455,-126686.69,-46802.777,-39797.242,-68199.99,-39811.44,-81983.484,7990.56
881063.5455825953,8275.595,-126699.63,-46810.793,-39802.33,-68203.695,-39812.5,-81986.086,7990.2344
881063.5495825931,8277.629,-126698.57,-46811.402,-39801.188,-68198.125,-39810.184,-81990.89,7976.522
881063.553582591,8275.473,-126701.74,-46809.125,-39800.133,-68195.31,-39808.676,-81995.37,7965.4136
881063.5575825889,8278.891,-126707.4,-46802.29,-39797.61,-68197.23,-39805.34,-81993.45,7977.824
881063.5615825867,8282.715,-126709.15,-46803.55,-39798.543,-68202.92,-39802.086,-81991.01,7987.712
881063.5655825846,8284.424,-126709.516,-46813.234,-39801.598,-68202.84,-39799.4,-81992.02,7981.8525
881063.5695825825,8290.202,-126706.42,-46812.137,-39799.93,-68192.38,-39795.004,-81992.27,7980.998
881063.5735825803,8291.952,-126704.76,-46808.516,-39795.74,-68177.9,-39789.105,-81988.04,7990.8447
881063.5775825782,8293.701,-126694.38,-46806.562,-39793.254,-68169.6,-39785.605,-81988.0,7988.1187
881063.581582576,8291.138,-126689.5,-46807.09,-39793.094,-68171.875,-39780.64,-81987.51,7985.555
881063.5855825739,8289.348,-126693.484,-46815.676,-39798.258,-68180.14,-39780.926,-81991.46,7974.9756
881063.5895825718,8293.823,-126687.87,-46815.758,-39796.184,-68174.69,-39776.082,-81991.74,7977.336
881063.5935825696,8296.875,-126684.25,-46810.06,-39792.523,-68165.125,-39770.59,-81989.26,7979.3296
881063.5975825675,8303.793,-126672.37,-46805.664,-39790.977,-68154.664,-39766.4,-81986.53,7980.184
881063.6015825653,8305.868,-126667.445,-46811.24,-39793.99,-68154.09,-39764.812,-81984.78,7988.2407
881063.6055825632,8305.583,-126675.46,-46820.844,-39800.293,-68162.36,-39766.074,-81986.414,7987.59
881063.6095825611,8303.467,-126674.195,-46821.004,-39800.457,-68163.29,-39765.26,-81987.39,7991.4146
881063.6135825589,8301.2295,-126669.72,-46818.28,-39798.3,-68153.98,-39761.8,-81990.12,7979.248
881063.6175825568,8305.705,-126663.58,-46811.973,-39796.227,-68148.56,-39758.3,-81990.84,7973.877
881063.6215825547,8309.367,-126666.55,-46807.7,-39797.445,-68160.52,-39757.324,-81990.44,7982.5034
881063.6255825525,8305.624,-126678.19,-46818.848,-39800.906,-68168.375,-39758.26,-81992.44,7981.8525
881063.6295825504,8301.962,-126675.78,-46821.617,-39798.504,-68162.11,-39755.82,-81991.05,7979.289
881063.6335825482,8301.514,-126674.32,-46816.285,-39796.918,-68159.914,-39754.273,-81988.81,7975.83
881063.6375825461,8301.718,-126672.94,-46810.875,-39795.695,-68155.16,-39753.867,-81986.94,7980.3877
881063.641582544,8302.531,-126670.375,-46810.1,-39796.836,-68156.25,-39754.273,-81988.484,7984.009
881063.6455825418,8300.009,-126678.47,-46817.996,-39800.984,-68166.305,-39755.984,-81992.96,7981.12
881063.6495825397,8299.602,-126681.28,-46820.965,-39800.21,-68170.53,-39754.273,-81995.93,7974.813
881063.6535825375,8297.119,-126675.336,-46814.13,-39795.453,-68165.65,-39752.32,-81995.69,7972.046
881063.6575825354,8298.381,-126667.85,-46805.46,-39793.254,-68158.734,-39750.082,-81989.79,7979.289
881063.6615825333,8301.636,-126674.97,-46806.195,-39793.5,-68154.38,-39750.53,-81986.695,7984.416
881063.6655825311,8297.485,-126684.82,-46812.703,-39796.51,-68157.43,-39750.367,-81985.555,7986.1655
881063.669582529,8300.944,-126685.875,-46813.355,-39795.9,-68158.24,-39750.53,-81987.43,7988.607
881063.6735825269,8300.903,-126697.06,-46814.617,-39795.656,-68158.125,-39752.77,-81992.555,7974.6094
881063.6775825247,8297.7705,-126693.77,-46805.22,-39790.895,-68161.38,-39748.94,-81993.37,7973.4297
881063.6815825226,8297.7295,-126694.79,-46805.098,-39791.3,-68165.164,-39747.273,-81990.69,7987.915
881063.6855825204,8295.288,-126700.52,-46811.81,-39794.598,-68172.89,-39747.965,-81992.64,7980.3877
881063.6895825183,8301.27,-126697.88,-46805.91,-39791.504,-68169.15,-39748.375,-81991.01,7975.464
881063.6935825163,8302.775,-126690.76,-46803.875,-39787.68,-68159.18,-39746.094,-81985.96,7979.045
881063.6975825141,8297.974,-126684.94,-46800.008,-39787.723,-68158.66,-39742.312,-81979.74,7985.1484
881063.701582512,8300.09,-126689.21,-46797.16,-39791.26,-68164.35,-39741.09,-81975.99,7992.798
881063.7055825099,8297.7705,-126691.77,-46804.85,-39795.574,-68171.875,-39742.594,-81981.49,7989.543
881063.7095825077,8294.516,-126695.6,-46808.92,-39796.1,-68172.65,-39741.66,-81984.83,7984.0903
881063.7135825056,8293.173,-126695.16,-46805.83,-39793.254,-68167.445,-39740.64,-81984.945,7975.83
881063.7175825035,8289.307,-126692.55,-46803.387,-39791.098,-68165.125,-39740.6,-81981.65,7983.724
881063.7215825013,8293.173,-126695.6,-46803.836,-39794.027,-68168.87,-39740.438,-81984.91,7985.7993
881063.7255824992,8296.0205,-126701.7,-46813.234,-39799.44,-68177.414,-39743.043,-81989.71,7976.8477
881063.729582497,8296.957,-126697.8,-46816.285,-39798.586,-68174.08,-39744.508,-81992.96,7975.993
881063.7335824949,8297.812,-126691.125,-46806.805,-39793.66,-68162.805,-39745.16,-81992.48,7979.696
881063.7375824928,8300.944,-126686.164,-46802.53,-39788.37,-68158.695,-39740.723,-81985.11,7990.3975
881063.7415824906,8301.025,-126692.1,-46803.184,-39788.902,-68163.21,-39738.566,-81982.67,7999.105
881063.7455824885,8297.934,-126707.12,-46807.54,-39794.56,-68168.625,-39740.438,-81986.33,7990.8857
881063.7495824863,8300.131,-126707.6,-46802.33,-39791.91,-68163.45,-39738.363,-81983.85,7991.781
881063.7535824842,8300.415,-126695.234,-46801.92,-39788.82,-68155.766,-39735.066,-81980.23,7988.851
881063.7575824821,8296.347,-126700.16,-46801.35,-39789.105,-68157.8,-39736.656,-81981.41,7990.3564
881063.7615824799,8297.201,-126694.22,-46800.254,-39790.934,-68165.445,-39736.574,-81985.11,7992.798
881063.7655824778,8293.254,-126700.85,-46808.72,-39795.777,-68179.41,-39737.793,-81986.66,7994.426
881063.7695824757,8294.312,-126708.3,-46811.28,-39794.883,-68178.43,-39738.73,-81988.89,7986.776
881063.7735824735,8301.188,-126701.22,-46805.664,-39788.13,-68167.484,-39737.223,-81991.46,7979.411
881063.7775824714,8303.874,-126693.73,-46798.055,-39785.36,-68165.41,-39736.734,-81990.805,7987.264
881063.7815824692,8305.624,-126693.16,-46792.48,-39784.14,-68162.92,-39737.633,-81991.3,7987.3047
881063.7855824671,8306.03,-126690.96,-46802.613,-39786.62,-68167.12,-39740.195,-81990.32,7988.8105
881063.789582465,8302.612,-126692.55,-46806.316,-39784.832,-68164.02,-39741.17,-81987.836,7985.555
881063.7935824628,8303.955,-126695.6,-46800.418,-39781.78,-68159.18,-39741.293,-81988.81,7979.4517
881063.7975824607,8297.445,-126700.36,-46795.332,-39782.39,-68161.54,-39742.758,-81993.77,7982.707
881063.8015824585,8301.474,-126698.2,-46792.277,-39780.4,-68161.055,-39742.96,-81995.93,7991.5366
881063.8055824564,8304.037,-126695.44,-46799.766,-39781.984,-68166.38,-39741.17,-81993.086,7994.344
881063.8095824543,8307.373,-126691.66,-46798.75,-39782.797,-68159.875,-39739.34,-81991.13,7984.2124
881063.8135824521,8304.81,-126690.02,-46795.695,-39778.85,-68154.3,-39738.12,-81988.53,7987.671
881063.81758245,8304.403,-126689.74,-46788.984,-39772.91,-68153.73,-39736.695,-81987.39,7995.0767
881063.8215824479,8308.1875,-126691.66,-46790.12,-39773.152,-68157.02,-39737.305,-81984.7,8002.564
881063.8255824457,8310.669,-126691.125,-46797.445,-39776.9,-68163.414,-39739.055,-81986.49,7994.8325
881063.8295824436,8303.793,-126688.32,-46798.3,-39773.64,-68160.484,-39736.695,-81984.984,8000.2446
881063.8335824414,8304.973,-126690.31,-46793.703,-39771.89,-68156.984,-39734.54,-81982.38,8002.889
881063.8375824393,8310.629,-126684.734,-46785.402,-39772.098,-68155.44,-39734.863,-81983.32,8000.611
881063.8415824372,8310.385,-126677.53,-46781.82,-39772.992,-68155.805,-39735.395,-81982.95,8002.1978
881063.845582435,8311.361,-126681.56,-46790.938,-39777.1,-68158.45,-39736.004,-81981.164,8005.0864
881063.8495824329,8309.489,-126683.234,-46793.582,-39776.492,-68158.41,-39734.58,-81979.21,8004.0693
881063.8535824307,8312.948,-126682.62,-46787.68,-39773.48,-68148.93,-39731.895,-81976.32,8005.819
881063.8575824287,8311.809,-126686.65,-46780.805,-39771.89,-68143.72,-39732.26,-81974.734,8009.0337
881063.8615824266,8311.809,-126679.61,-46781.66,-39772.504,-68149.13,-39732.504,-81974.086,8012.0444
881063.8655824244,8312.948,-126676.35,-46787.723,-39773.6,-68153.445,-39732.625,-81974.24,8009.888
881063.8695824223,8308.594,-126672.24,-46790.164,-39772.137,-68145.39,-39730.754,-81972.58,8010.6206
881063.8735824202,8313.232,-126670.9,-46792.48,-39770.67,-68141.16,-39730.062,-81975.95,8006.3887
881063.877582418,8312.216,-126680.055,-46791.547,-39773.03,-68143.35,-39730.797,-81977.09,8010.417
881063.8815824159,8307.333,-126685.67,-46792.36,-39775.555,-68149.336,-39731.65,-81976.81,8013.6724
881063.8855824138,8310.059,-126689.336,-46796.633,-39778.445,-68152.14,-39732.098,-81979.984,8010.0913
881063.8895824116,8313.151,-126684.734,-46796.836,-39775.066,-68142.78,-39731.363,-81983.805,7996.582
881063.8935824095,8313.884,-126687.18,-46795.086,-39771.04,-68138.19,-39732.016,-81985.64,7992.3506
881063.8975824073,8308.757,-126693.04,-46792.035,-39770.875,-68138.555,-39731.12,-81984.3,7997.2334
881063.9015824052,8299.887,-126699.875,-46794.312,-39772.91,-68142.09,-39732.06,-81983.16,7999.797
881063.9055824031,8303.467,-126707.4,-46798.504,-39776.53,-68149.82,-39735.11,-81985.92,7998.088
881063.9095824009,8306.396,-126709.88,-46798.504,-39776.207,-68148.73,-39734.54,-81985.11,8002.645
881063.9135823988,8308.716,-126710.45,-46791.06,-39773.234,-68143.72,-39731.895,-81982.51,8002.889
881063.9175823967,8311.483,-126710.01,-46780.4,-39770.508,-68144.695,-39729.047,-81982.38,8000.855
881063.9215823945,8310.669,-126709.92,-46783.895,-39773.97,-68147.18,-39728.68,-81982.75,8000.814
881063.9255823924,8305.298,-126708.54,-46787.477,-39779.094,-68157.19,-39731.324,-81984.42,7997.8027
881063.9295823902,8306.601,-126706.875,-46787.477,-39775.31,-68156.375,-39730.43,-81983.69,7996.745
881063.9335823881,8304.484,-126702.11,-46790.406,-39772.098,-68153.61,-39730.47,-81981.81,8003.1743
881063.937582386,8306.193,-126700.52,-46785.605,-39768.598,-68150.39,-39728.965,-81977.09,8006.0225
881063.9415823838,8308.432,-126702.03,-46785.402,-39769.695,-68149.7,-39727.664,-81974.2,8011.8003
881063.9455823817,8307.414,-126701.016,-46795.98,-39772.746,-68153.98,-39726.848,-81972.945,8012.9805
881063.9495823795,8307.821,-126697.92,-46795.695,-39771.484,-68155.195,-39725.75,-81973.555,8013.5503
881063.9535823774,8305.136,-126695.805,-46791.832,-39768.27,-68154.55,-39727.094,-81977.625,8010.4985
881063.9575823753,8301.474,-126690.35,-46790.652,-39766.805,-68147.87,-39725.992,-81978.07,8009.481
881063.9615823731,8304.159,-126695.195,-46788.7,-39768.84,-68154.99,-39726.156,-81976.97,8013.3467
881063.965582371,8308.065,-126700.195,-46794.72,-39770.875,-68166.016,-39727.336,-81977.016,8011.8003
881063.9695823689,8304.362,-126697.92,-46796.51,-39769.41,-68162.68,-39727.54,-81976.52,8013.835
881063.9735823667,8304.362,-126694.586,-46791.914,-39767.133,-68161.17,-39726.36,-81975.34,8013.4688
881063.9775823646,8310.751,-126688.16,-46787.844,-39766.684,-68160.65,-39728.027,-81979.01,8005.86
881063.9815823624,8313.803,-126688.52,-46787.56,-39767.17,-68160.08,-39729.332,-81981.37,8006.6733
881063.9855823603,8312.5,-126690.555,-46791.668,-39769.043,-68159.95,-39730.105,-81979.125,8013.591
881063.9895823582,8314.047,-126693.65,-46791.75,-39766.6,-68158.04,-39728.273,-81977.79,8016.317
881063.993582356,8311.117,-126694.7,-46789.473,-39765.137,-68151.53,-39727.742,-81977.945,8009.278
881063.9975823539,8312.175,-126691.77,-46783.043,-39763.227,-68146.2,-39726.766,-81973.63,8015.3403
881064.0015823517,8312.094,-126690.516,-46787.395,-39764.73,-68151.49,-39726.97,-81970.664,8025.0654
881064.0055823496,8308.269,-126688.52,-46794.92,-39768.23,-68160.24,-39729.332,-81972.91,8019.45
881064.0095823475,8309.286,-126691.164,-46793.457,-39766.6,-68158.61,-39729.74,-81973.63,8017.4565
881064.0135823453,8314.047,-126694.99,-46796.227,-39764.445,-68155.48,-39728.844,-81975.914,8011.231
881064.0175823432,8312.256,-126691.49,-46790.812,-39763.633,-68159.266,-39729.168,-81977.17,8012.8584
881064.021582341,8316.569,-126693.36,-46787.07,-39764.08,-68161.664,-39731.324,-81979.9,8011.353
881064.025582339,8320.557,-126697.555,-46795.492,-39764.69,-68168.01,-39734.62,-81984.5,8006.8364
881064.0295823369,8315.349,-126685.19,-46794.11,-39758.87,-68157.23,-39732.3,-81979.375,8009.156
881064.0335823348,8314.413,-126680.055,-46788.984,-39757.855,-68150.84,-39728.965,-81975.75,8011.9224
881064.0375823326,8315.308,-126680.18,-46786.01,-39757.895,-68147.3,-39727.664,-81973.72,8016.8867
881064.0415823305,8314.453,-126677.53,-46790.0,-39759.97,-68153.2,-39727.867,-81970.75,8023.031
881064.0455823283,8313.721,-126683.88,-46797.242,-39763.67,-68166.586,-39730.31,-81974.164,8018.718
881064.0495823262,8316.895,-126683.39,-46798.383,-39760.457,-68164.72,-39731.406,-81978.234,8007.1616
881064.0535823241,8313.843,-126683.19,-46793.457,-39757.367,-68156.62,-39732.137,-81979.74,8001.0176
881064.0575823219,8310.303,-126681.195,-46789.754,-39754.152,-68151.125,-39729.9,-81974.94,8014.323
881064.0615823198,8311.483,-126677.21,-46792.117,-39752.89,-68148.07,-39730.105,-81974.57,8020.7114
881064.0655823176,8310.507,-126682.375,-46799.48,-39756.023,-68156.91,-39733.93,-81979.05,8016.114
881064.0695823155,8310.181,-126679.08,-46796.43,-39753.906,-68157.72,-39733.6,-81977.7,8018.514
881064.0735823134,8312.297,-126676.4,-46788.496,-39751.223,-68152.55,-39732.707,-81976.04,8019.4907
881064.0775823112,8315.023,-126668.664,-46782.35,-39748.7,-68147.26,-39730.633,-81973.88,8025.1875
881064.0815823091,8317.668,-126671.11,-46786.176,-39753.176,-68154.55,-39734.09,-81976.61,8027.059
881064.085582307,8317.546,-126670.25,-46793.99,-39755.414,-68161.055,-39735.395,-81978.03,8020.264
881064.0895823048,8318.522,-126658.57,-46790.895,-39753.01,-68157.23,-39734.01,-81976.69,8019.328
881064.0935823027,8315.471,-126661.055,-46786.703,-39752.117,-68150.88,-39733.97,-81975.34,8019.3687
881064.0975823005,8312.704,-126662.6,-46785.645,-39751.668,-68146.2,-39734.945,-81975.586,8020.386
881064.1015822984,8319.58,-126664.68,-46789.188,-39753.785,-68147.22,-39737.305,-81977.664,8025.8384
881064.1055822963,8321.615,-126664.06,-46789.797,-39754.598,-68150.48,-39738.12,-81980.43,8020.5894
881064.1095822941,8316.936,-126662.27,-46787.152,-39752.566,-68150.48,-39738.04,-81981.164,8014.893
881064.113582292,8318.848,-126659.51,-46784.914,-39749.51,-68148.03,-39736.695,-81978.72,8017.5786
881064.1175822899,8321.777,-126652.555,-46784.344,-39747.887,-68140.625,-39737.43,-81979.984,8019.45
881064.1215822877,8320.15,-126654.18,-46785.848,-39749.918,-68151.2,-39737.996,-81984.5,8020.0605
881064.1255822856,8316.244,-126662.84,-46793.336,-39753.785,-68160.766,-39736.29,-81982.38,8025.0654
881064.1295822834,8320.598,-126667.12,-46789.633,-39750.285,-68152.43,-39735.066,-81977.664,8026.734
881064.1335822813,8318.726,-126668.79,-46785.848,-39746.582,-68148.64,-39735.598,-81977.3,8014.893
881064.1375822792,8318.197,-126664.19,-46782.88,-39744.426,-68144.45,-39735.35,-81973.96,8018.2295
881064.141582277,8322.0625,-126658.49,-46777.914,-39743.9,-68143.72,-39734.5,-81971.36,8027.7104
881064.1455822749,8319.499,-126667.12,-46786.055,-39746.625,-68157.19,-39736.168,-81970.87,8030.5586
881064.1495822727,8320.354,-126670.62,-46788.25,-39747.684,-68165.08,-39736.695,-81971.73,8023.804
881064.1535822706,8322.185,-126672.61,-46784.914,-39747.684,-68159.43,-39740.074,-81975.95,8016.9683
881064.1575822685,8320.842,-126668.79,-46780.355,-39745.445,-68151.82,-39739.625,-81976.69,8016.5205
881064.1615822663,8315.878,-126664.836,-46784.02,-39746.137,-68148.48,-39740.438,-81977.336,8021.2407
881064.1655822642,8310.588,-126667.56,-46792.645,-39749.39,-68151.29,-39742.105,-81977.3,8022.5835
881064.169582262,8315.023,-126657.516,-46791.992,-39744.508,-68150.64,-39741.254,-81974.24,8027.059
881064.1735822599,8321.655,-126649.21,-46783.69,-39738.65,-68140.95,-39740.152,-81972.62,8026.571
881064.1775822578,8322.47,-126652.02,-46780.438,-39736.33,-68133.625,-39740.6,-81972.74,8024.6177
881064.1815822556,8322.388,-126654.46,-46784.383,-39738.12,-68135.26,-39741.984,-81972.66,8027.5884
881064.1855822535,8322.104,-126659.67,-46789.51,-39740.195,-68141.234,-39742.555,-81971.73,8026.734
881064.1895822515,8328.288,-126653.24,-46785.484,-39737.266,-68139.57,-39740.234,-81969.28,8027.059
881064.1935822493,8322.876,-126649.78,-46786.746,-39738.04,-68137.45,-39739.746,-81965.13,8033.895
881064.1975822472,8318.686,-126651.37,-46782.715,-39741.13,-68141.6,-39739.016,-81960.984,8042.928
881064.2015822451,8324.341,-126650.64,-46781.78,-39740.848,-68145.43,-39738.28,-81961.19,8035.6855
881064.2055822429,8325.766,-126650.84,-46787.438,-39742.105,-68143.555,-39738.16,-81956.42,8041.9927
881064.2095822408,8324.423,-126650.88,-46784.63,-39740.03,-68139.77,-39736.734,-81953.01,8050.3745
881064.2135822386,8325.358,-126647.586,-46781.7,-39737.223,-68135.58,-39736.734,-81954.39,8046.224
881064.2175822365,8329.387,-126654.46,-46775.8,-39732.707,-68134.195,-39737.43,-81955.61,8046.5093
881064.2215822344,8330.038,-126655.12,-46773.438,-39732.22,-68137.21,-39739.258,-81957.36,8053.345
881064.2255822322,8331.991,-126653.98,-46781.09,-39734.945,-68146.57,-39738.934,-81957.16,8060.9136
881064.2295822301,8326.742,-126661.664,-46784.832,-39736.777,-68148.56,-39738.527,-81955.0,8063.5176
881064.233582228,8330.7295,-126663.86,-46778.28,-39734.254,-68143.07,-39739.34,-81957.56,8053.0195
881064.2375822258,8335.49,-126661.26,-46769.29,-39731.04,-68139.81,-39738.12,-81958.055,8052.2056
881064.2415822237,8337.036,-126665.734,-46773.438,-39732.137,-68142.984,-39739.746,-81958.3,8052.0835
881064.2455822215,8337.158,-126669.16,-46778.688,-39735.395,-68145.914,-39743.53,-81963.09,8047.3228
881064.2495822194,8329.916,-126664.59,-46774.13,-39733.645,-68138.51,-39742.676,-81963.18,8042.033
881064.2535822173,8323.08,-126670.984,-46777.387,-39732.586,-68133.016,-39741.457,-81962.89,8038.493
881064.2575822151,8325.277,-126668.79,-46774.336,-39734.418,-68130.45,-39739.91,-81961.75,8040.487
881064.261582213,8330.282,-126667.65,-46773.438,-39735.598,-68134.32,-39740.36,-81961.39,8043.0503
881064.2655822108,8322.185,-126677.62,-46783.53,-39739.42,-68142.7,-39742.72,-81963.5,8041.423
881064.2695822087,8320.476,-126677.45,-46780.03,-39739.83,-68145.305,-39743.164,-81965.78,8041.7075
881064.2735822066,8327.597,-126675.945,-46777.47,-39735.92,-68142.78,-39741.21,-81966.11,8035.1157
881064.2775822044,8328.695,-126682.414,-46775.676,-39734.336,-68139.61,-39741.375,-81964.16,8032.227
881064.2815822023,8326.66,-126685.76,-46773.152,-39736.168,-68140.1,-39741.457,-81962.73,8038.656
881064.2855822002,8326.945,-126682.91,-46775.555,-39740.36,-68139.0,-39742.312,-81962.2,8037.8423
881064.289582198,8325.358,-126682.375,-46779.543,-39740.277,-68137.78,-39740.97,-81959.68,8036.296
881064.2935821959,8324.016,-126677.49,-46779.22,-39740.36,-68138.71,-39740.848,-81962.0,8033.366
881064.2975821937,8322.388,-126667.36,-46773.234,-39738.484,-68137.58,-39741.984,-81962.24,8037.8423
881064.3015821916,8319.458,-126667.32,-46773.074,-39738.445,-68141.16,-39742.92,-81958.91,8046.4683
881064.3055821895,8318.4,-126668.945,-46781.09,-39740.562,-68146.12,-39745.08,-81961.51,8037.9644
881064.3095821873,8317.668,-126671.19,-46785.32,-39741.66,-68142.62,-39744.914,-81964.16,8039.307
881064.3135821852,8313.925,-126667.97,-46790.69,-39740.277,-68140.34,-39745.566,-81965.7,8037.557
