timestamp,Fp1,Fp2,F3,Fz,F4,Cz,Pz,Oz
880987.6096231353,7300.7407,-121551.72,-39033.203,-34845.215,-65468.59,-38050.375,-77606.49,10926.2295
880987.6136231332,7299.7236,-121553.23,-39033.895,-34845.258,-65471.113,-38050.21,-77606.445,10924.113
880987.617623131,7299.642,-121559.01,-39036.215,-34847.086,-65473.51,-38051.23,-77609.58,10919.23
880987.6216231289,7301.2695,-121564.01,-39036.867,-34849.69,-65481.406,-38051.92,-77610.27,10918.823
880987.6256231267,7303.9146,-121564.54,-39036.824,-34849.324,-65484.05,-38051.8,-77606.08,10926.107
880987.6296231246,7304.7285,-121564.91,-39037.438,-34848.227,-65486.41,-38051.92,-77605.8,10923.137
880987.6336231225,7303.996,-121563.766,-39035.32,-34848.105,-65485.19,-38051.72,-77606.445,10915.446
880987.6376231203,7308.838,-121557.375,-39033.652,-34846.68,-65478.438,-38050.58,-77602.586,10921.0205
880987.6416231182,7309.7334,-121553.836,-39035.32,-34845.582,-65478.395,-38047.77,-77597.375,10931.315
880987.645623116,7307.4546,-121560.1,-39041.14,-34848.473,-65479.7,-38047.16,-77595.3,10932.902
880987.6496231139,7305.2573,-121560.23,-39036.54,-34848.31,-65475.465,-38047.77,-77595.46,10933.798
880987.6536231118,7304.769,-121556.64,-39035.81,-34846.965,-65461.266,-38049.684,-77597.62,10924.5205
880987.6576231096,7303.2227,-121560.96,-39039.31,-34848.51,-65465.945,-38051.11,-77600.71,10922.7705
880987.6616231075,7303.2227,-121565.19,-39045.37,-34849.164,-65477.336,-38050.05,-77600.42,10929.24
880987.6656231054,7304.6875,-121560.1,-39044.434,-34848.27,-65479.94,-38049.887,-77598.836,10933.676
880987.6696231032,7303.9146,-121557.21,-39042.32,-34849.367,-65480.633,-38051.598,-77599.66,10932.129
880987.6736231012,7304.7285,-121554.0,-39039.957,-34847.94,-65484.05,-38052.41,-77603.68,10915.731
880987.6776230991,7306.6816,-121552.78,-39038.535,-34848.676,-65481.45,-38053.63,-77603.6,10917.603
880987.6816230969,7307.007,-121561.164,-39045.613,-34851.44,-65487.715,-38055.176,-77604.984,10922.934
880987.6856230948,7307.9023,-121560.305,-39046.227,-34850.504,-65487.918,-38054.89,-77602.91,10929.118
880987.6896230927,7306.9663,-121553.836,-39044.19,-34848.715,-65484.99,-38053.67,-77598.516,10934.978
880987.6936230905,7306.8037,-121559.695,-39043.863,-34849.938,-65487.348,-38054.566,-77600.14,10926.677
880987.6976230884,7306.844,-121563.69,-39044.35,-34850.668,-65486.168,-38053.836,-77596.16,10925.7
880987.7016230862,7307.6987,-121560.59,-39044.273,-34849.977,-65488.445,-38052.53,-77595.79,10919.516
880987.7056230841,7305.8677,-121556.73,-39042.81,-34848.88,-65494.426,-38052.734,-77596.27,10911.093
880987.709623082,7303.996,-121559.49,-39041.22,-34848.918,-65490.113,-38053.223,-77594.36,10909.668
880987.7136230798,7305.013,-121558.234,-39043.824,-34847.86,-65487.1,-38055.137,-77599.164,10900.391
880987.7176230777,7305.176,-121559.94,-39046.1,-34848.715,-65492.11,-38056.316,-77603.64,10894.735
880987.7216230755,7304.7285,-121561.61,-39046.1,-34851.523,-65500.57,-38057.293,-77605.35,10896.811
880987.7256230734,7305.786,-121561.85,-39043.094,-34850.914,-65506.023,-38054.934,-77600.95,10901.001
880987.7296230713,7303.955,-121562.75,-39044.56,-34850.098,-65505.453,-38053.02,-77597.74,10899.414
880987.7336230691,7303.1006,-121560.59,-39044.76,-34848.188,-65496.543,-38052.086,-77595.46,10889.608
880987.737623067,7304.7285,-121559.94,-39043.906,-34848.023,-65488.49,-38050.58,-77592.0,10887.573
880987.7416230649,7308.9194,-121560.305,-39046.348,-34849.082,-65492.23,-38050.293,-77588.14,10892.334
880987.7456230627,7308.5127,-121557.17,-39045.086,-34849.69,-65498.13,-38049.074,-77584.19,10898.601
880987.7496230606,7303.7925,-121564.414,-39044.965,-34852.457,-65504.926,-38050.7,-77583.46,10902.466
880987.7536230584,7306.2744,-121562.5,-39043.906,-34850.71,-65510.664,-38052.33,-77586.1,10903.036
880987.7576230563,7311.2793,-121557.7,-39043.54,-34848.51,-65514.977,-38053.348,-77587.77,10905.681
880987.7616230542,7312.9883,-121559.37,-39045.94,-34849.61,-65523.97,-38054.973,-77585.695,10908.773
880987.765623052,7311.2793,-121556.6,-39041.707,-34849.246,-65527.67,-38054.566,-77584.31,10914.185
880987.7696230499,7310.791,-121552.82,-39039.957,-34846.152,-65516.645,-38055.867,-77587.77,10908.61
880987.7736230477,7310.547,-121558.48,-39039.797,-34845.01,-65521.61,-38054.973,-77592.05,10899.78
880987.7776230456,7314.616,-121558.07,-39042.277,-34847.984,-65520.387,-38054.85,-77593.02,10904.338
880987.7816230435,7316.7725,-121548.47,-39045.9,-34848.023,-65525.598,-38054.65,-77592.0,10908.813
880987.7856230413,7325.6025,-121539.59,-39044.395,-34847.7,-65526.9,-38054.117,-77588.95,10914.226
880987.7896230392,7327.3115,-121537.03,-39044.35,-34848.105,-65527.387,-38054.688,-77589.6,10912.272
880987.793623037,7338.0127,-121523.805,-39044.11,-34847.13,-65525.188,-38057.863,-77597.086,10898.479
880987.7976230349,7347.6562,-121516.16,-39045.25,-34847.047,-65527.47,-38059.45,-77600.79,10890.869
880987.8016230328,7350.952,-121522.71,-39050.375,-34849.49,-65533.53,-38059.57,-77600.95,10891.032
880987.8056230306,7366.008,-121510.586,-39049.766,-34848.676,-65527.59,-38058.88,-77601.4,10886.475
880987.8096230285,7384.5625,-121489.1,-39044.15,-34844.93,-65517.215,-38061.688,-77605.06,10883.667
880987.8136230264,7403.89,-121478.07,-39035.484,-34841.27,-65517.99,-38062.95,-77604.82,10887.085
880987.8176230242,7422.241,-121463.914,-39030.76,-34836.914,-65512.98,-38064.332,-77604.21,10895.468
880987.8216230221,7437.5,-121436.61,-39031.535,-34834.35,-65505.78,-38064.656,-77602.625,10897.461
880987.82562302,7446.9404,-121421.11,-39034.508,-34832.156,-65510.336,-38065.555,-77608.52,10877.686
880987.8296230178,7467.611,-121411.83,-39031.332,-34828.33,-65513.266,-38067.3,-77611.01,10867.92
880987.8336230157,7484.8633,-121400.11,-39025.15,-34824.992,-65516.195,-38069.418,-77611.78,10865.072
880987.8376230136,7504.3945,-121382.61,-39019.168,-34821.617,-65513.88,-38070.72,-77614.42,10867.065
880987.8416230115,7507.9756,-121376.19,-39021.973,-34821.86,-65515.91,-38071.207,-77613.41,10873.088
880987.8456230094,7505.127,-121374.516,-39025.84,-34823.812,-65516.117,-38071.535,-77611.695,10883.342
880987.8496230072,7520.0605,-121362.96,-39017.945,-34820.598,-65505.58,-38070.883,-77614.95,10878.256
880987.8536230051,7544.149,-121350.38,-39008.465,-34817.586,-65508.508,-38070.56,-77617.555,10871.623
880987.857623003,7549.3574,-121347.01,-39009.645,-34816.855,-65515.016,-38071.168,-77616.58,10872.03
880987.8616230008,7542.3584,-121358.32,-39012.492,-34818.727,-65525.676,-38069.133,-77614.71,10873.251
880987.8656229987,7536.621,-121367.44,-39014.0,-34822.633,-65533.082,-38068.402,-77614.87,10875.366
880987.8696229965,7543.498,-121360.48,-39009.074,-34821.004,-65527.996,-38068.117,-77613.53,10874.634
880987.8736229944,7539.592,-121355.47,-39010.582,-34821.332,-65526.734,-38068.645,-77613.89,10869.751
880987.8776229923,7550.0083,-121337.734,-39008.016,-34820.395,-65519.9,-38068.484,-77613.69,10874.472
880987.8816229901,7554.7285,-121332.36,-39007.203,-34819.824,-65516.44,-38070.72,-77613.2,10874.512
880987.885622988,7552.2056,-121335.45,-39011.598,-34821.617,-65519.29,-38071.535,-77612.39,10877.971
880987.8896229859,7552.9785,-121333.625,-39014.242,-34823.285,-65514.0,-38070.965,-77611.86,10883.952
880987.8936229837,7558.3496,-121328.05,-39014.0,-34823.445,-65512.13,-38072.67,-77615.52,10878.906
880987.8976229816,7566.6914,-121327.44,-39007.773,-34820.965,-65518.56,-38071.86,-77613.484,10881.674
880987.9016229794,7576.091,-121319.55,-39006.473,-34819.418,-65522.707,-38072.594,-77611.25,10885.58
880987.9056229773,7573.69,-121317.38,-39008.63,-34820.598,-65519.98,-38072.184,-77608.85,10892.66
880987.9096229752,7565.959,-121330.695,-39001.02,-34824.992,-65524.78,-38075.156,-77613.69,10884.399
880987.913622973,7569.214,-121324.016,-38999.43,-34822.754,-65524.742,-38076.5,-77619.14,10861.938
880987.9176229709,7576.091,-121323.125,-39006.062,-34822.957,-65527.387,-38078.004,-77621.664,10861.816
880987.9216229687,7578.0845,-121320.68,-39005.008,-34824.91,-65530.07,-38077.35,-77624.48,10861.572
880987.9256229666,7577.1895,-121317.14,-39004.312,-34823.527,-65536.09,-38076.863,-77623.66,10864.584
880987.9296229645,7577.7183,-121317.8,-39001.26,-34822.633,-65536.625,-38077.76,-77625.49,10859.091
880987.9336229623,7579.997,-121320.766,-38999.51,-34822.39,-65529.055,-38079.02,-77630.336,10845.988
880987.9376229602,7578.8574,-121320.36,-39001.75,-34823.242,-65526.9,-38079.508,-77633.1,10840.454
880987.941622958,7573.4863,-121327.07,-39009.523,-34824.465,-65526.777,-38076.254,-77631.35,10847.697
880987.9456229559,7576.457,-121321.82,-39005.94,-34823.977,-65522.707,-38077.027,-77631.15,10854.126
880987.9496229538,7586.711,-121312.586,-39001.953,-34822.594,-65516.36,-38077.312,-77634.28,10854.167
880987.9536229516,7593.547,-121314.21,-38997.03,-34820.926,-65505.535,-38075.6,-77637.17,10845.093
880987.9576229495,7598.5107,-121310.875,-38994.14,-34818.766,-65495.04,-38073.324,-77637.414,10840.78
880987.9616229474,7599.2026,-121308.555,-38994.875,-34819.094,-65490.766,-38069.54,-77635.664,10847.697
880987.9656229452,7599.813,-121305.305,-38992.676,-34820.23,-65482.668,-38066.45,-77635.5,10847.9
880987.9696229431,7599.6094,-121307.54,-38990.438,-34819.95,-65468.547,-38062.582,-77634.73,10846.68
880987.973622941,7604.004,-121310.71,-38991.13,-34819.664,-65453.656,-38060.387,-77635.54,10843.954
880987.9776229388,7613.078,-121306.97,-38990.766,-34817.953,-65441.855,-38057.902,-77634.484,10849.162
880987.9816229367,7609.416,-121315.27,-38990.562,-34820.273,-65435.55,-38055.137,-77631.39,10861.776
880987.9856229345,7602.824,-121322.06,-38995.117,-34823.04,-65436.445,-38053.754,-77634.445,10865.927
880987.9896229324,7599.7725,-121329.516,-38994.832,-34823.49,-65433.15,-38051.598,-77641.69,10853.598
880987.9936229303,7611.45,-121321.78,-38992.027,-34822.184,-65423.547,-38050.824,-77648.6,10843.791
880987.9976229281,7607.6255,-121317.43,-38993.938,-34824.586,-65419.19,-38047.85,-77651.66,10843.628
880988.0016229261,7603.923,-121317.23,-38994.793,-34826.297,-65422.203,-38044.965,-77652.836,10845.337
880988.005622924,7605.6724,-121315.02,-38994.305,-34826.01,-65417.562,-38042.24,-77652.75,10843.954
880988.0096229218,7605.51,-121318.77,-38996.95,-34826.945,-65417.562,-38040.242,-77654.55,10836.467
880988.0136229197,7610.3926,-121316.49,-38989.91,-34825.562,-65417.156,-38039.676,-77658.81,10827.556
880988.0176229175,7608.602,-121316.53,-38987.47,-34825.523,-65413.25,-38039.715,-77661.38,10823.202
880988.0216229154,7607.137,-121320.766,-38988.04,-34825.523,-65410.484,-38035.727,-77656.66,10834.392
880988.0256229133,7607.137,-121317.59,-38992.35,-34825.277,-65414.27,-38034.02,-77655.195,10842.041
880988.0296229111,7605.876,-121321.91,-38989.543,-34826.215,-65413.74,-38033.33,-77658.41,10841.187
880988.033622909,7616.13,-121315.64,-38987.918,-34823.242,-65411.664,-38032.633,-77663.58,10828.085
880988.0376229068,7618.734,-121316.49,-38987.223,-34824.3,-65411.215,-38031.414,-77664.02,10828.695
880988.0416229047,7609.66,-121328.9,-38990.684,-34826.457,-65410.402,-38030.438,-77663.21,10825.521
880988.0456229026,7608.5615,-121335.086,-38991.863,-34826.133,-65410.484,-38029.297,-77661.22,10824.707
880988.0496229004,7613.5254,-121325.73,-38991.78,-34824.465,-65407.27,-38026.164,-77660.89,10820.883
880988.0536228983,7615.3975,-121325.12,-38992.676,-34822.594,-65406.66,-38025.23,-77661.38,10821.045
880988.0576228962,7606.6084,-121325.36,-38994.47,-34820.76,-65412.68,-38020.793,-77654.3,10835.653
880988.061622894,7612.468,-121321.7,-38999.27,-34820.19,-65407.637,-38018.883,-77651.164,10840.414
880988.0656228919,7627.1973,-121314.05,-38994.387,-34818.688,-65400.883,-38018.555,-77653.24,10834.27
880988.0696228897,7622.7217,-121318.24,-38991.254,-34820.07,-65400.027,-38018.27,-77654.016,10834.514
880988.0736228876,7615.3564,-121325.61,-38992.758,-34821.86,-65401.53,-38018.27,-77658.77,10826.05
880988.0776228855,7619.1406,-121323.45,-38997.152,-34821.086,-65400.188,-38018.434,-77658.25,10829.306
880988.0816228833,7624.3086,-121328.375,-38998.7,-34818.117,-65401.816,-38017.05,-77656.62,10833.862
880988.0856228812,7617.7573,-121334.6,-39000.082,-34818.2,-65403.402,-38015.016,-77656.5,10833.659
880988.089622879,7615.072,-121326.42,-38998.94,-34818.156,-65397.543,-38014.61,-77658.0,10828.654
880988.0936228769,7617.7573,-121319.83,-38998.984,-34816.406,-65393.76,-38014.08,-77658.86,10827.067
880988.0976228748,7626.709,-121324.1,-38991.902,-34815.473,-65393.84,-38012.613,-77657.76,10826.782
880988.1016228726,7627.9297,-121326.13,-39002.2,-34816.57,-65395.67,-38011.72,-77659.06,10821.859
880988.1056228705,7619.1,-121331.47,-39007.938,-34819.176,-65401.777,-38010.945,-77660.28,10824.138
880988.1096228684,7628.459,-121324.63,-38998.17,-34815.39,-65401.207,-38011.027,-77662.234,10820.842
880988.1136228662,7635.8237,-121315.96,-38991.09,-34812.83,-65401.37,-38010.01,-77663.78,10819.499
880988.1176228641,7630.249,-121320.31,-38995.65,-34812.46,-65401.043,-38008.18,-77662.6,10821.086
880988.121622862,7626.4243,-121323.164,-39001.996,-34813.234,-65401.53,-38005.496,-77661.5,10823.894
880988.1256228598,7635.3354,-121320.44,-38997.03,-34809.613,-65399.78,-38004.8,-77662.4,10828.654
880988.1296228577,7646.118,-121306.52,-38991.824,-34807.496,-65397.668,-38005.453,-77663.74,10825.766
880988.1336228555,7648.4375,-121297.695,-38992.8,-34806.07,-65393.23,-38003.824,-77663.58,10824.138
880988.1376228534,7644.613,-121304.69,-39003.62,-34808.066,-65395.957,-38001.383,-77658.86,10830.893
880988.1416228513,7633.3823,-121320.11,-39002.32,-34812.094,-65400.23,-38000.69,-77654.38,10834.677
880988.1456228491,7631.3887,-121317.38,-39003.46,-34810.547,-65393.8,-37999.758,-77651.94,10848.633
880988.149622847,7635.2134,-121300.3,-39002.36,-34807.13,-65390.3,-37998.94,-77656.25,10835.856
880988.1536228448,7649.3735,-121290.94,-39004.477,-34805.38,-65393.516,-37998.496,-77660.73,10831.34
880988.1576228427,7650.92,-121298.14,-39003.867,-34806.195,-65406.535,-37998.617,-77665.0,10831.625
880988.1616228406,7642.4155,-121308.39,-39005.496,-34804.77,-65412.64,-37998.74,-77664.43,10837.199
880988.1656228385,7636.963,-121309.695,-39005.82,-34805.625,-65416.63,-37999.51,-77663.945,10840.902
880988.1696228364,7640.625,-121306.69,-39004.76,-34804.688,-65424.277,-37999.023,-77664.06,10840.617
880988.1736228343,7647.339,-121297.04,-39003.543,-34800.375,-65422.61,-37999.27,-77666.266,10829.672
880988.1776228321,7651.937,-121285.24,-39008.75,-34797.324,-65421.184,-38000.0,-77669.03,10827.8
880988.18162283,7648.1934,-121293.586,-39002.24,-34797.812,-65422.895,-37997.844,-77668.54,10828.085
880988.1856228278,7644.206,-121298.67,-38998.984,-34797.363,-65421.51,-37997.07,-77666.1,10837.199
880988.1896228257,7650.472,-121296.836,-39001.14,-34797.12,-65422.324,-37996.785,-77668.91,10836.833
880988.1936228236,7650.879,-121297.61,-39007.0,-34795.816,-65420.13,-37997.52,-77673.38,10832.316
880988.1976228214,7653.9307,-121290.04,-39008.87,-34793.54,-65422.65,-37997.07,-77674.89,10829.834
880988.2016228193,7659.6274,-121286.664,-39006.633,-34791.26,-65424.727,-37997.887,-77671.875,10836.589
880988.2056228172,7659.2207,-121285.93,-39009.684,-34790.61,-65423.832,-37997.477,-77671.35,10839.519
880988.209622815,7649.984,-121294.195,-39012.9,-34791.75,-65422.203,-37994.754,-77669.195,10840.617
880988.2136228129,7645.1416,-121299.4,-39010.742,-34792.48,-65422.406,-37994.184,-77672.0,10832.52
880988.2176228107,7649.1294,-121303.76,-39014.04,-34792.93,-65433.555,-37995.117,-77674.85,10831.869
880988.2216228086,7649.6177,-121298.38,-39013.387,-34792.195,-65435.14,-37995.32,-77676.84,10831.625
880988.2256228065,7646.7695,-121295.375,-39014.406,-34789.39,-65427.613,-37995.08,-77678.914,10829.916
880988.2296228043,7645.915,-121294.84,-39017.66,-34787.723,-65426.92,-37993.652,-77680.14,10822.104
880988.2336228022,7651.9775,-121291.34,-39019.004,-34788.37,-65426.19,-37992.434,-77682.78,10817.099
880988.2376228,7654.785,-121281.984,-39022.42,-34787.477,-65417.688,-37991.58,-77681.766,10818.197
880988.2416227979,7657.308,-121274.58,-39020.875,-34786.01,-65417.93,-37988.973,-77675.664,10826.05
880988.2456227958,7655.0293,-121271.9,-39007.895,-34785.24,-65415.406,-37985.92,-77669.72,10835.897
880988.2496227936,7651.8555,-121279.18,-39006.023,-34785.32,-65411.5,-37984.863,-77671.71,10833.456
880988.2536227915,7655.9653,-121277.34,-39012.41,-34784.098,-65407.35,-37983.36,-77673.18,10830.933
880988.2576227894,7659.343,-121273.69,-39021.973,-34782.918,-65403.605,-37980.184,-77669.97,10841.431
880988.2616227872,7662.7197,-121276.58,-39021.402,-34781.496,-65411.176,-37979.695,-77664.43,10858.48
880988.2656227851,7664.3477,-121267.664,-39021.85,-34778.934,-65407.066,-37978.92,-77665.04,10861.369
880988.269622783,7663.086,-121264.41,-39022.46,-34780.64,-65406.457,-37979.168,-77674.195,10846.802
880988.2736227808,7658.0405,-121270.67,-39025.84,-34783.773,-65414.27,-37980.023,-77681.03,10835.287
880988.2776227787,7651.937,-121277.555,-39030.234,-34783.45,-65414.473,-37980.67,-77684.734,10833.903
880988.2816227765,7653.9717,-121276.49,-39032.145,-34782.594,-65415.0,-37981.73,-77685.55,10835.205
880988.2856227744,7659.8716,-121275.68,-39028.523,-34782.188,-65413.25,-37982.42,-77686.52,10831.503
880988.2896227723,7649.862,-121290.86,-39031.984,-34782.96,-65414.594,-37981.773,-77690.11,10819.946
880988.2936227701,7645.874,-121286.18,-39036.54,-34781.09,-65414.51,-37983.97,-77696.086,10806.03
880988.297622768,7651.8965,-121279.71,-39040.895,-34780.113,-65409.59,-37983.645,-77693.56,10806.315
880988.3016227658,7654.663,-121281.3,-39043.375,-34781.332,-65412.19,-37982.016,-77689.66,10810.385
880988.3056227637,7648.6816,-121286.18,-39045.453,-34780.56,-65412.273,-37980.387,-77687.91,10815.186
880988.3096227616,7647.38,-121287.234,-39046.43,-34780.76,-65412.68,-37981.0,-77690.48,10810.181
880988.3136227594,7648.7227,-121289.15,-39047.445,-34781.58,-65411.625,-37982.707,-77695.56,10791.626
880988.3176227573,7646.0776,-121293.13,-39048.953,-34781.25,-65415.69,-37983.887,-77694.46,10794.312
880988.3216227551,7649.048,-121288.5,-39048.83,-34780.56,-65422.812,-37984.863,-77690.88,10803.223
880988.325622753,7649.9023,-121287.52,-39044.35,-34777.67,-65419.395,-37983.277,-77685.1,10816.691
880988.329622751,7646.6064,-121288.7,-39046.023,-34776.855,-65420.492,-37982.137,-77684.125,10816.528
880988.3336227488,7649.4956,-121286.664,-39049.645,-34776.695,-65416.223,-37982.504,-77686.73,10805.786
880988.3376227467,7655.1514,-121283.82,-39052.207,-34777.67,-65421.51,-37982.26,-77685.18,10812.46
880988.3416227446,7650.1875,-121292.61,-39053.836,-34779.703,-65439.535,-37983.766,-77687.87,10814.169
880988.3456227424,7652.466,-121288.74,-39048.258,-34774.863,-65433.23,-37984.375,-77690.15,10819.418
880988.3496227403,7652.466,-121282.72,-39046.918,-34771.363,-65421.715,-37984.418,-77692.95,10821.452
880988.3536227382,7653.198,-121285.28,-39047.406,-34770.996,-65423.465,-37985.11,-77697.43,10816.0
880988.357622736,7656.4536,-121282.39,-39044.84,-34769.168,-65420.37,-37985.312,-77699.34,10815.268
880988.3616227339,7658.529,-121281.82,-39043.66,-34770.184,-65417.645,-37988.527,-77702.4,10809.408
880988.3656227317,7655.884,-121281.3,-39043.457,-34770.67,-65417.81,-37987.71,-77700.16,10807.251
880988.3696227296,7659.0576,-121277.555,-39042.035,-34768.758,-65416.223,-37986.41,-77698.37,10809.652
880988.3736227275,7666.5854,-121275.64,-39039.062,-34767.008,-65418.297,-37986.207,-77700.89,10800.863
880988.3776227253,7663.1675,-121281.91,-39046.062,-34769.37,-65422.57,-37985.72,-77697.8,10801.758
880988.3816227232,7656.291,-121287.88,-39049.97,-34771.484,-65424.562,-37984.293,-77695.15,10805.38
880988.385622721,7656.7383,-121286.26,-39050.58,-34770.387,-65422.812,-37982.383,-77692.63,10806.56
880988.3896227189,7652.629,-121283.414,-39055.055,-34772.22,-65423.22,-37981.73,-77694.336,10807.251
880988.3936227168,7660.7666,-121278.98,-39051.395,-34771.61,-65425.58,-37984.863,-77700.65,10799.398
880988.3976227146,7666.3413,-121274.984,-39049.562,-34769.168,-65426.84,-37987.305,-77700.03,10798.869
880988.4016227125,7656.9014,-121281.09,-39056.07,-34771.85,-65432.21,-37986.695,-77697.96,10798.706
880988.4056227104,7648.4375,-121288.984,-39054.402,-34773.926,-65435.793,-37984.824,-77697.8,10803.427
880988.4096227082,7651.408,-121286.55,-39053.63,-34771.04,-65432.05,-37985.312,-77699.22,10799.316
880988.4136227061,7652.2627,-121287.88,-39050.375,-34769.574,-65427.613,-37986.695,-77698.81,10794.638
880988.417622704,7652.588,-121290.33,-39047.324,-34771.445,-65427.86,-37985.395,-77695.64,10800.903
880988.4216227018,7659.343,-121289.72,-39046.918,-34772.95,-65432.824,-37983.887,-77697.72,10794.922
880988.4256226997,7661.133,-121285.73,-39044.027,-34773.113,-65428.715,-37981.73,-77694.09,10805.095
880988.4296226975,7658.7324,-121282.59,-39041.832,-34772.586,-65431.766,-37984.418,-77698.24,10803.752
880988.4336226954,7657.837,-121278.484,-39043.785,-34773.195,-65432.902,-37988.363,-77704.96,10789.226
880988.4376226933,7658.325,-121282.19,-39049.44,-34773.926,-65436.973,-37989.707,-77708.17,10792.277
880988.4416226911,7660.4004,-121282.19,-39049.36,-34772.83,-65433.312,-37989.83,-77707.28,10800.049
880988.445622689,7660.97,-121281.7,-39047.445,-34771.89,-65429.16,-37991.863,-77707.69,10804.606
880988.4496226868,7666.992,-121285.77,-39043.742,-34770.793,-65429.527,-37992.434,-77708.58,10804.565
880988.4536226847,7663.2896,-121292.69,-39045.29,-34772.3,-65436.89,-37993.043,-77711.75,10797.445
880988.4576226826,7662.8013,-121286.46,-39050.336,-34774.54,-65440.066,-37995.28,-77717.0,10798.666
880988.4616226804,7656.291,-121288.336,-39055.016,-34775.637,-65441.49,-37995.363,-77718.47,10799.927
880988.4656226783,7655.4365,-121295.13,-39050.293,-34773.64,-65443.688,-37992.8,-77714.27,10801.514
880988.4696226761,7663.9,-121292.08,-39047.406,-34772.586,-65443.08,-37992.434,-77711.266,10797.16
880988.473622674,7661.0923,-121290.37,-39051.883,-34772.867,-65449.14,-37991.008,-77708.74,10792.888
880988.4776226719,7650.3096,-121297.164,-39056.887,-34776.53,-65466.88,-37990.195,-77705.445,10794.597
880988.4816226697,7654.663,-121293.91,-39052.29,-34775.88,-65477.582,-37990.52,-77701.42,10804.6875
880988.4856226676,7658.0405,-121290.94,-39047.85,-34773.355,-65478.152,-37990.03,-77694.54,10819.133
880988.4896226655,7653.646,-121297.086,-39048.91,-34774.58,-65488.445,-37989.83,-77690.39,10822.876
880988.4936226634,7653.1577,-121298.914,-39047.0,-34775.23,-65495.688,-37991.336,-77691.695,10816.081
880988.4976226613,7651.042,-121305.18,-39045.695,-34776.734,-65499.797,-37992.516,-77694.22,10819.865
880988.5016226592,7649.7397,-121309.86,-39049.03,-34779.46,-65499.797,-37992.434,-77696.62,10825.684
880988.505622657,7654.1343,-121299.52,-39048.625,-34776.207,-65497.684,-37992.516,-77699.914,10827.8
880988.5096226549,7659.953,-121293.055,-39047.77,-34777.26,-65495.973,-37994.63,-77708.09,10818.115
880988.5136226527,7658.529,-121297.734,-39045.29,-34775.35,-65494.996,-37996.22,-77716.39,10805.908
880988.5176226506,7656.0874,-121302.66,-39045.656,-34774.742,-65491.824,-37998.09,-77721.97,10798.584
880988.5216226485,7662.4756,-121295.945,-39050.254,-34775.96,-65487.51,-37999.96,-77723.15,10796.265
880988.5256226463,7665.3647,-121284.06,-39049.97,-34774.21,-65486.168,-37998.617,-77720.055,10802.084
880988.5296226442,7661.54,-121283.125,-39048.258,-34772.46,-65487.51,-37997.4,-77717.0,10804.403
880988.533622642,7656.128,-121294.234,-39049.316,-34771.28,-65495.2,-37998.047,-77718.38,10800.334
880988.5376226399,7666.0566,-121294.6,-39050.09,-34771.16,-65483.48,-38002.566,-77721.73,10792.725
880988.5416226378,7668.6606,-121291.43,-39053.71,-34771.16,-65488.445,-38003.582,-77718.38,10801.311
880988.5456226356,7661.662,-121298.14,-39055.22,-34774.984,-65494.02,-38000.33,-77711.96,10812.622
880988.5496226335,7661.9062,-121299.805,-39056.03,-34774.66,-65493.41,-37997.316,-77703.9,10823.527
880988.5536226314,7659.831,-121303.63,-39062.664,-34776.773,-65495.484,-37997.273,-77698.734,10825.236
880988.5576226292,7655.7617,-121308.234,-39064.656,-34779.137,-65498.742,-37996.707,-77692.71,10831.909
880988.5616226271,7655.355,-121306.16,-39063.316,-34778.402,-65501.793,-37998.21,-77690.59,10838.257
880988.5656226249,7656.413,-121298.83,-39059.855,-34776.695,-65498.742,-37997.56,-77687.586,10844.238
880988.5696226228,7654.663,-121295.54,-39061.32,-34776.45,-65491.78,-37997.723,-77685.914,10844.849
880988.5736226207,7659.2207,-121296.43,-39060.508,-34776.246,-65492.15,-37997.926,-77690.15,10830.933
880988.5776226185,7659.139,-121295.78,-39064.7,-34777.793,-65492.72,-37999.715,-77696.82,10814.25
880988.5816226164,7663.2896,-121298.14,-39067.996,-34778.65,-65499.39,-38003.297,-77701.46,10816.04
880988.5856226142,7669.393,-121301.15,-39061.44,-34776.043,-65501.793,-38004.598,-77704.8,10823.568
880988.5896226121,7664.4287,-121302.62,-39062.625,-34777.344,-65504.6,-38006.55,-77711.51,10815.1045
880988.59362261,7659.2207,-121301.555,-39069.867,-34779.543,-65503.42,-38008.016,-77715.82,10806.4375
880988.5976226078,7664.266,-121295.336,-39068.727,-34778.523,-65502.484,-38008.914,-77719.69,10797.812
880988.6016226057,7665.5273,-121292.97,-39066.367,-34777.875,-65508.87,-38008.87,-77720.83,10796.184
880988.6056226036,7661.865,-121292.93,-39064.13,-34776.367,-65508.383,-38008.016,-77717.77,10804.729
880988.6096226014,7668.457,-121294.03,-39060.59,-34775.88,-65498.902,-38008.016,-77718.51,10803.142
880988.6136225993,7678.752,-121291.75,-39060.14,-34775.96,-65495.566,-38010.54,-77720.22,10800.131
880988.6176225971,7673.9097,-121296.836,-39061.605,-34777.387,-65504.273,-38010.215,-77717.086,10808.838
880988.621622595,7664.714,-121305.38,-39066.367,-34778.89,-65513.594,-38008.504,-77708.984,10823.364
880988.6256225929,7661.784,-121312.586,-39069.215,-34780.68,-65520.67,-38006.797,-77701.3,10835.815
880988.6296225907,7668.579,-121311.0,-39072.51,-34782.676,-65526.98,-38007.367,-77698.125,10838.989
880988.6336225886,7669.7188,-121306.93,-39073.367,-34782.758,-65526.41,-38006.062,-77696.58,10839.152
880988.6376225865,7659.7495,-121318.16,-39080.65,-34787.355,-65530.195,-38005.535,-77693.04,10842.733
880988.6416225843,7650.3906,-121329.19,-39088.785,-34789.188,-65527.71,-38005.656,-77692.18,10840.617
880988.6456225822,7651.042,-121323.695,-39086.02,-34787.027,-65522.91,-38006.43,-77694.13,10840.617
880988.64962258,7654.0527,-121316.62,-39079.67,-34787.19,-65520.305,-38008.3,-77700.89,10832.194
880988.6536225779,7652.71,-121319.42,-39076.375,-34789.47,-65523.766,-38010.824,-77709.11,10814.25
880988.6576225758,7651.164,-121326.586,-39080.04,-34792.035,-65527.996,-38011.434,-77717.25,10796.55
880988.6616225737,7651.408,-121326.87,-39082.805,-34791.707,-65528.73,-38008.668,-77718.34,10800.7
880988.6656225716,7653.8496,-121322.92,-39079.47,-34787.926,-65518.15,-38007.895,-77719.28,10804.159
880988.6696225695,7653.524,-121323.41,-39077.965,-34788.168,-65509.035,-38008.63,-77721.36,10802.084
880988.6736225673,7655.884,-121319.99,-39077.312,-34788.7,-65498.78,-38009.605,-77727.586,10785.238
880988.6776225652,7667.033,-121313.36,-39074.87,-34787.723,-65482.707,-38010.254,-77734.74,10771.851
880988.681622563,7668.2944,-121312.18,-39077.23,-34787.19,-65471.52,-38009.074,-77736.45,10773.356
880988.6856225609,7663.2896,-121318.24,-39075.562,-34786.664,-65455.285,-38004.598,-77732.67,10777.914
880988.6896225588,7659.3833,-121327.44,-39080.484,-34788.98,-65447.348,-38001.793,-77732.016,10779.867
880988.6936225566,7661.174,-121323.0,-39083.58,-34791.016,-65439.13,-37997.64,-77731.695,10780.722
880988.6976225545,7663.4116,-121324.63,-39086.426,-34792.117,-65432.66,-37993.816,-77728.97,10783.529
880988.7016225524,7669.963,-121322.96,-39088.094,-34790.324,-65427.453,-37988.2,-77722.13,10798.706
880988.7056225502,7678.1416,-121313.97,-39081.992,-34787.598,-65416.14,-37981.895,-77715.54,10813.232
880988.7096225481,7677.9785,-121312.18,-39080.04,-34788.656,-65410.605,-37979.004,-77713.87,10818.237
880988.7136225459,7670.8174,-121320.48,-39084.555,-34792.766,-65412.64,-37977.094,-77715.7,10812.216
880988.7176225438,7668.091,-121331.75,-39091.96,-34795.453,-65421.105,-37974.812,-77719.12,10808.96
880988.7216225417,7670.2476,-121330.81,-39091.96,-34793.99,-65420.574,-37972.086,-77719.41,10812.338
880988.7256225395,7673.7876,-121323.164,-39087.484,-34790.082,-65415.12,-37967.164,-77715.5,10817.139
880988.7296225374,7673.706,-121323.45,-39086.02,-34790.977,-65421.227,-37964.273,-77717.98,10809.489
880988.7336225352,7675.8223,-121322.266,-39089.113,-34793.785,-65421.227,-37961.996,-77724.734,10797.363
880988.7376225331,7675.578,-121319.38,-39093.1,-34795.656,-65416.098,-37963.83,-77729.984,10792.644
880988.741622531,7675.4966,-121326.336,-39093.18,-34797.04,-65418.54,-37964.07,-77732.016,10791.911
880988.7456225288,7680.908,-121327.97,-39085.33,-34794.8,-65418.742,-37960.492,-77730.43,10796.794
880988.7496225267,7685.8726,-121327.64,-39082.926,-34794.395,-65419.355,-37958.17,-77730.63,10797.7705
880988.7536225246,7685.425,-121328.29,-39091.31,-34796.227,-65422.406,-37959.27,-77733.56,10790.324
880988.7576225224,7681.5186,-121333.13,-39093.18,-34795.168,-65415.043,-37958.133,-77731.65,10792.766
880988.7616225203,7683.838,-121331.625,-39091.555,-34794.434,-65412.19,-37955.363,-77729.05,10797.485
880988.7656225181,7684.0415,-121331.055,-39091.51,-34792.44,-65415.082,-37952.434,-77729.78,10797.241
880988.769622516,7685.3843,-121331.625,-39093.305,-34793.5,-65416.63,-37952.555,-77730.8,10794.8
880988.7736225139,7686.5645,-121339.32,-39094.156,-34796.836,-65415.938,-37953.53,-77734.21,10794.23
880988.7776225117,7688.314,-121336.67,-39095.418,-34795.207,-65413.293,-37951.215,-77730.555,10800.578
880988.7816225096,7688.1104,-121336.02,-39098.836,-34793.17,-65412.152,-37951.336,-77726.36,10806.845
880988.7856225075,7685.5063,-121332.56,-39098.96,-34791.63,-65413.09,-37947.594,-77721.6,10815.1455
880988.7896225053,7688.5176,-121327.88,-39097.047,-34788.574,-65416.426,-37943.973,-77718.75,10815.756
880988.7936225032,7691.1216,-121329.02,-39096.11,-34788.777,-65415.49,-37944.215,-77715.91,10820.761
880988.797622501,7696.0044,-121330.2,-39091.473,-34788.25,-65412.965,-37946.574,-77721.03,10805.908
880988.8016224989,7702.881,-121327.31,-39091.51,-34788.004,-65414.145,-37948.855,-77726.08,10792.888
880988.8056224968,7691.2437,-121341.44,-39094.93,-34789.918,-65423.79,-37947.227,-77724.695,10801.147
880988.8096224946,7681.6816,-121347.82,-39099.895,-34792.44,-65418.582,-37947.348,-77727.016,10794.719
880988.8136224925,7689.1685,-121338.18,-39100.63,-34789.594,-65415.12,-37948.242,-77732.75,10782.1045
880988.8176224903,7694.6616,-121332.93,-39102.906,-34785.645,-65411.543,-37948.12,-77732.99,10780.803
880988.8216224882,7696.574,-121329.67,-39101.605,-34786.01,-65412.68,-37948.04,-77731.24,10778.972
880988.8256224862,7693.197,-121325.93,-39095.62,-34785.117,-65407.188,-37945.844,-77726.32,10784.953
880988.829622484,7693.807,-121327.766,-39099.04,-34784.63,-65399.336,-37943.44,-77723.96,10786.093
880988.8336224819,7696.2485,-121333.5,-39103.516,-34785.24,-65407.15,-37942.79,-77728.234,10781.372
880988.8376224798,7695.801,-121332.36,-39106.0,-34786.62,-65409.71,-37941.246,-77728.84,10787.842
880988.8416224776,7691.4473,-121327.195,-39110.72,-34789.105,-65404.746,-37938.438,-77723.63,10802.775
880988.8456224755,7695.842,-121317.06,-39103.395,-34787.273,-65404.34,-37936.89,-77717.66,10819.418
880988.8496224734,7697.998,-121314.13,-39105.67,-34784.793,-65399.21,-37935.547,-77714.36,10826.05
880988.8536224712,7692.749,-121319.42,-39108.93,-34786.703,-65403.08,-37934.613,-77710.94,10822.917
880988.8576224691,7697.4287,-121322.39,-39106.812,-34788.7,-65406.66,-37935.67,-77710.66,10823.975
880988.8616224669,7704.3867,-121320.48,-39114.098,-34790.082,-65409.59,-37935.875,-77710.94,10827.475
880988.8656224648,7697.5913,-121322.92,-39111.656,-34790.977,-65400.473,-37935.875,-77713.586,10828.573
880988.8696224627,7692.912,-121321.7,-39107.137,-34788.29,-65398.52,-37935.793,-77718.67,10818.645
880988.8736224605,7692.993,-121316.53,-39108.074,-34789.188,-65399.418,-37936.363,-77724.57,10804.037
880988.8776224584,7701.579,-121312.95,-39108.44,-34787.027,-65403.527,-37935.223,-77723.35,10799.4795
880988.8816224562,7706.2583,-121307.62,-39113.406,-34783.977,-65408.938,-37934.207,-77722.945,10799.724
880988.8856224541,7699.0156,-121315.59,-39113.242,-34782.35,-65411.46,-37932.82,-77719.52,10808.635
880988.889622452,7689.453,-121326.586,-39105.062,-34785.402,-65417.562,-37934.41,-77721.64,10805.095
880988.8936224498,7689.779,-121326.7,-39105.51,-34788.777,-65427.816,-37937.258,-77729.984,10789.307
880988.8976224477,7694.824,-121318.65,-39109.133,-34788.086,-65432.457,-37936.2,-77730.8,10795.451
880988.9016224456,7702.7183,-121314.54,-39104.617,-34784.87,-65426.312,-37933.637,-77725.266,10808.1875
880988.9056224434,7708.9033,-121312.38,-39096.273,-34781.863,-65418.54,-37930.83,-77720.09,10819.377
880988.9096224413,7704.2646,-121313.6,-39098.88,-34780.52,-65422.16,-37927.816,-77718.55,10819.621
880988.9136224391,7699.382,-121315.39,-39119.14,-34783.53,-65419.76,-37928.02,-77718.18,10819.255
880988.917622437,7697.3066,-121317.51,-39120.973,-34784.668,-65416.18,-37929.08,-77714.89,10827.189
880988.9216224349,7713.5825,-121307.414,-39101.81,-34782.27,-65413.332,-37929.85,-77713.38,10825.399
880988.9256224327,7725.2607,-121300.3,-39093.18,-34780.805,-65409.184,-37929.934,-77711.914,10823.283
880988.9296224306,7712.85,-121314.74,-39099.406,-34784.18,-65413.984,-37928.59,-77711.1,10822.266
880988.9336224284,7706.299,-121316.29,-39105.67,-34784.14,-65414.836,-37927.125,-77711.63,10820.679
880988.9376224263,7710.653,-121307.78,-39103.64,-34781.94,-65411.137,-37927.695,-77713.87,10814.087
880988.9416224242,7716.3496,-121310.59,-39100.586,-34780.76,-65408.9,-37927.695,-77711.63,10812.012
880988.945622422,7713.501,-121312.22,-39099.203,-34779.867,-65408.695,-37924.52,-77707.08,10824.097
880988.9496224199,7705.648,-121317.1,-39102.01,-34784.668,-65409.184,-37923.137,-77706.51,10824.545
880988.9536224178,7701.782,-121322.516,-39105.633,-34788.492,-65414.758,-37925.17,-77707.97,10822.998
880988.9576224156,7701.9453,-121323.41,-39112.875,-34789.797,-65419.07,-37926.883,-77710.62,10821.127
880988.9616224135,7706.6245,-121315.15,-39112.223,-34787.883,-65418.742,-37926.96,-77709.555,10824.301
880988.9656224113,7717.0005,-121298.914,-39103.477,-34783.12,-65411.258,-37925.05,-77706.83,10833.456
880988.9696224092,7718.0586,-121299.56,-39106.934,-34782.88,-65421.348,-37923.707,-77706.14,10837.729
880988.9736224071,7715.495,-121302.734,-39111.9,-34785.402,-65418.176,-37925.375,-77709.555,10829.509
880988.9776224049,7716.2275,-121299.24,-39111.613,-34783.977,-65415.895,-37924.766,-77711.63,10828.857
880988.9816224028,7716.3086,-121298.266,-39110.598,-34781.902,-65419.07,-37925.66,-77712.85,10828.654
880988.9856224007,7719.808,-121297.734,-39106.773,-34781.7,-65405.97,-37927.33,-77716.15,10824.179
880988.9896223986,7714.559,-121306.195,-39108.035,-34782.473,-65404.867,-37926.188,-77719.484,10819.621
880988.9936223965,7708.6997,-121311.08,-39122.113,-34785.688,-65409.996,-37925.66,-77723.92,10808.879
880988.9976223944,7709.7983,-121302.58,-39127.566,-34786.133,-65415.12,-37927.777,-77727.7,10790.487
880989.0016223922,7721.029,-121296.35,-39120.16,-34784.586,-65413.86,-37928.348,-77726.4,10793.498
880989.0056223901,7728.923,-121285.93,-39113.04,-34781.375,-65405.723,-37926.15,-77719.28,10807.007
880989.0096223879,7723.5107,-121284.43,-39117.473,-34782.105,-65398.848,-37924.645,-77716.63,10806.926
880989.0136223858,7720.9067,-121292.93,-39117.8,-34781.984,-65399.54,-37923.543,-77718.8,10798.869
880989.0176223837,7714.803,-121308.96,-39120.445,-34784.71,-65408.164,-37924.562,-77716.8,10804.565
880989.0216223815,7715.8613,-121308.07,-39118.855,-34786.01,-65413.047,-37926.883,-77714.07,10812.216
880989.0256223794,7720.4185,-121301.92,-39114.707,-34785.035,-65415.082,-37924.766,-77710.66,10816.732
880989.0296223772,7724.935,-121298.71,-39116.496,-34784.87,-65414.066,-37923.746,-77707.16,10822.714
880989.0336223751,7725.0166,-121302.21,-39117.555,-34786.05,-65409.914,-37923.83,-77705.0,10825.195
880989.037622373,7721.395,-121307.945,-39122.684,-34788.492,-65409.832,-37923.055,-77703.125,10824.748
880989.0416223708,7718.994,-121302.33,-39128.297,-34787.64,-65408.977,-37923.34,-77701.3,10825.317
880989.0456223687,7724.121,-121287.11,-39116.78,-34784.098,-65402.71,-37924.03,-77701.83,10826.986
880989.0496223666,7723.5107,-121291.79,-39114.016,-34785.44,-65405.887,-37925.906,-77707.56,10819.824
880989.0536223644,7713.379,-121305.22,-39125.816,-34790.73,-65417.156,-37927.125,-77709.92,10810.913
880989.0576223623,7719.1978,-121302.78,-39129.152,-34790.934,-65422.65,-37928.062,-77710.33,10813.151
880989.0616223601,7723.226,-121298.914,-39130.37,-34788.777,-65419.883,-37927.086,-77708.62,10818.93
880989.065622358,7719.5234,-121302.45,-39127.523,-34786.01,-65412.805,-37924.52,-77705.08,10829.59
880989.0696223559,7725.871,-121298.71,-39123.863,-34786.746,-65407.31,-37922.0,-77703.62,10827.637
880989.0736223537,7729.4517,-121293.54,-39127.156,-34788.13,-65403.812,-37923.465,-77708.09,10813.3955
880989.0776223516,7726.074,-121297.98,-39129.64,-34790.773,-65407.84,-37924.234,-77707.766,10817.383
880989.0816223494,7727.987,-121305.1,-39128.297,-34792.035,-65415.082,-37925.09,-77707.08,10821.574
880989.0856223473,7729.7363,-121310.06,-39122.07,-34790.773,-65415.406,-37922.566,-77703.05,10826.213
880989.0896223452,7725.4233,-121313.64,-39121.746,-34791.832,-65421.023,-37921.836,-77704.51,10821.249
880989.093622343,7727.173,-121308.88,-39127.727,-34792.727,-65409.914,-37924.645,-77709.516,10812.46
880989.0976223409,7733.9277,-121307.17,-39128.664,-34792.24,-65405.52,-37928.305,-77711.67,10804.77
880989.1016223388,7736.247,-121306.56,-39127.28,-34791.3,-65418.54,-37929.566,-77715.414,10801.433
880989.1056223366,7732.137,-121303.35,-39123.496,-34789.836,-65416.06,-37927.816,-77712.164,10811.687
880989.1096223345,7732.9917,-121300.91,-39123.17,-34791.344,-65413.535,-37927.734,-77711.67,10809.286
880989.1136223323,7741.089,-121288.58,-39121.38,-34791.098,-65412.438,-37930.38,-77720.18,10789.755
880989.1176223302,7738.4443,-121286.38,-39123.496,-34790.57,-65407.105,-37930.992,-77719.2,10791.748
880989.1216223281,7721.517,-121302.734,-39132.203,-34794.56,-65412.477,-37931.234,-77716.516,10794.312
880989.1256223259,7728.4346,-121302.734,-39128.176,-34795.41,-65406.457,-37931.316,-77712.85,10796.672
880989.1296223238,7737.59,-121298.18,-39119.71,-34796.227,-65396.73,-37932.742,-77711.19,10796.753
880989.1336223216,7733.3984,-121301.15,-39123.008,-34799.156,-65409.71,-37935.547,-77714.27,10794.516
880989.1376223195,7734.8228,-121302.29,-39126.465,-34798.22,-65419.8,-37936.688,-77713.26,10795.98
880989.1416223174,7735.311,-121302.21,-39122.152,-34797.28,-65421.633,-37934.207,-77708.13,10803.589
880989.1456223152,7734.2124,-121301.64,-39115.97,-34796.43,-65416.3,-37930.707,-77702.92,10812.094
880989.1496223131,7737.427,-121300.016,-39118.41,-34795.574,-65409.547,-37932.293,-77707.4,10804.6875
880989.1536223111,7741.74,-121296.836,-39123.58,-34795.86,-65409.26,-37934.938,-77713.5,10790.243
880989.1576223089,7731.12,-121307.984,-39131.348,-34797.812,-65418.582,-37934.57,-77713.22,10788.534
880989.1616223068,7722.9004,-121321.414,-39138.875,-34800.66,-65427.492,-37934.0,-77710.53,10795.329
880989.1656223047,7726.2373,-121317.02,-39137.086,-34802.004,-65426.598,-37933.92,-77708.74,10805.176
880989.1696223025,7728.2715,-121310.19,-39134.89,-34801.676,-65433.473,-37933.23,-77706.34,10810.629
880989.1736223004,7726.0337,-121309.37,-39140.383,-34800.78,-65438.684,-37935.465,-77709.96,10806.519
880989.1776222982,7732.341,-121304.445,-39142.62,-34798.22,-65441.41,-37937.34,-77711.266,10808.146
880989.1816222961,7736.45,-121301.92,-39136.15,-34798.746,-65439.17,-37937.703,-77708.336,10811.523
880989.185622294,7733.114,-121306.4,-39125.33,-34800.09,-65430.992,-37935.67,-77704.76,10821.899
880989.1896222918,7733.1543,-121301.516,-39124.84,-34801.676,-65434.855,-37936.65,-77707.484,10818.115
880989.1936222897,7742.4316,-121290.695,-39127.89,-34801.84,-65439.21,-37938.68,-77712.85,10804.362
880989.1976222876,7738.6885,-121297.61,-39131.227,-34801.188,-65449.016,-37938.438,-77710.734,10801.025
880989.2016222854,7741.089,-121298.06,-39130.617,-34798.258,-65462.2,-37939.332,-77709.96,10803.427
880989.2056222833,7741.9434,-121291.95,-39127.727,-34795.33,-65466.27,-37938.76,-77706.51,10810.385
880989.2096222811,7738.973,-121298.22,-39129.07,-34797.812,-65474.125,-37939.617,-77708.664,10806.479
880989.213622279,7740.8857,-121300.91,-39131.105,-34798.098,-65476.035,-37937.785,-77708.3,10803.874
880989.2176222769,7743.6523,-121301.48,-39136.312,-34800.824,-65481.45,-37939.21,-77709.39,10799.724
880989.2216222747,7740.967,-121302.414,-39139.203,-34801.312,-65488.527,-37939.984,-77709.15,10800.456
880989.2256222726,7734.8633,-121301.805,-39136.516,-34799.645,-65485.19,-37941.12,-77705.94,10812.094
880989.2296222704,7732.585,-121304.2,-39132.652,-34801.27,-65480.797,-37940.105,-77705.0,10814.575
880989.2336222683,7737.793,-121305.586,-39131.43,-34803.71,-65487.062,-37940.188,-77705.37,10812.826
880989.2376222662,7733.3174,-121311.61,-39136.312,-34805.258,-65494.836,-37940.555,-77701.91,10817.017
880989.241622264,7731.771,-121312.055,-39137.9,-34803.63,-65497.113,-37939.09,-77698.81,10818.93
880989.2456222619,7729.004,-121306.766,-39133.18,-34801.637,-65497.277,-37936.24,-77694.42,10823.12
880989.2496222598,7728.3936,-121304.61,-39135.38,-34805.707,-65496.504,-37936.24,-77696.05,10816.65
880989.2536222576,7729.818,-121301.555,-39143.92,-34808.188,-65495.242,-37939.414,-77700.16,10800.497
880989.2576222555,7729.4517,-121302.58,-39147.176,-34809.613,-65502.32,-37942.098,-77699.95,10802.084
880989.2616222533,7730.0215,-121302.01,-39145.67,-34811.605,-65504.805,-37943.484,-77698.81,10809.001
880989.2656222512,7735.3926,-121291.79,-39143.312,-34807.414,-65496.016,-37941.734,-77693.97,10822.307
880989.2696222491,7736.776,-121286.26,-39142.05,-34805.91,-65493.125,-37941.652,-77693.65,10823.405
880989.2736222469,7732.422,-121292.41,-39144.656,-34805.176,-65492.027,-37943.156,-77698.29,10814.372
880989.2776222448,7732.3813,-121297.734,-39145.957,-34804.363,-65495.28,-37943.81,-77700.36,10811.442
880989.2816222426,7745.565,-121292.61,-39143.27,-34802.33,-65500.45,-37946.37,-77701.984,10812.704
880989.2856222405,7751.0986,-121286.87,-39138.918,-34800.906,-65497.4,-37945.844,-77698.24,10822.836
880989.2896222384,7751.994,-121292.36,-39137.574,-34803.062,-65501.832,-37945.027,-77697.23,10826.01
880989.2936222362,7751.5464,-121299.28,-39138.67,-34806.56,-65502.035,-37945.64,-77700.24,10814.209
880989.2976222341,7749.919,-121300.46,-39142.09,-34806.48,-65499.758,-37945.027,-77695.64,10817.099
880989.301622232,7748.657,-121299.73,-39144.574,-34804.484,-65495.566,-37943.32,-77690.31,10827.759
880989.3056222298,7750.407,-121293.79,-39136.312,-34800.336,-65485.07,-37939.902,-77685.836,10832.886
880989.3096222277,7754.7607,-121287.32,-39134.727,-34802.004,-65489.3,-37939.21,-77686.93,10824.138
880989.3136222255,7754.883,-121290.81,-39142.906,-34804.605,-65498.414,-37940.633,-77690.23,10812.46
880989.3176222235,7752.8076,-121297.9,-39147.83,-34806.234,-65488.934,-37939.617,-77686.85,10815.1455
880989.3216222214,7749.756,-121303.67,-39147.586,-34807.617,-65491.496,-37940.31,-77683.27,10821.167
880989.3256222192,7744.792,-121304.734,-39143.758,-34806.48,-65498.09,-37941.043,-77680.14,10829.916
880989.3296222171,7747.1113,-121297.65,-39143.027,-34806.07,-65496.746,-37941.53,-77680.14,10829.916
880989.333622215,7756.9175,-121292.484,-39144.695,-34806.195,-65493.613,-37942.426,-77680.95,10824.301
880989.3376222128,7757.6094,-121298.75,-39149.332,-34809.855,-65499.188,-37941.938,-77684.77,10823.446
880989.3416222107,7751.0176,-121301.64,-39150.84,-34808.72,-65496.016,-37940.96,-77685.71,10824.707
880989.3456222086,7749.1865,-121300.17,-39150.35,-34807.008,-65496.016,-37941.324,-77687.18,10829.509
880989.3496222064,7748.0063,-121294.72,-39147.95,-34808.51,-65506.918,-37943.973,-77693.28,10823.08
880989.3536222043,7745.809,-121296.43,-39152.26,-34810.1,-65514.082,-37946.617,-77701.375,10808.513
880989.3576222021,7749.1865,-121296.836,-39156.047,-34808.31,-65507.57,-37948.367,-77705.77,10802.328
880989.3616222,7750.814,-121293.22,-39158.977,-34807.78,-65499.35,-37950.562,-77707.28,10794.027
880989.3656221979,7746.867,-121293.22,-39157.88,-34810.547,-65509.605,-37949.18,-77701.7,10805.176
880989.3696221957,7746.2974,-121294.84,-39156.13,-34815.96,-65516.727,-37948.855,-77697.35,10811.076
880989.3736221936,7753.1333,-121292.89,-39155.926,-34815.105,-65521.77,-37947.754,-77692.22,10815.1455
880989.3776221914,7760.0913,-121281.25,-39153.484,-34810.875,-65518.312,-37946.25,-77687.38,10820.639
880989.3816221893,7758.0566,-121276.29,-39152.914,-34812.5,-65510.906,-37944.38,-77681.03,10831.055
880989.3856221872,7752.2383,-121280.56,-39148.195,-34815.836,-65508.26,-37943.24,-77677.57,10830.526
880989.389622185,7756.5107,-121280.56,-39144.45,-34813.6,-65501.305,-37939.94,-77676.27,10824.667
880989.3936221829,7758.5044,-121277.96,-39146.65,-34815.348,-65498.902,-37938.844,-77674.56,10824.504
880989.3976221808,7755.371,-121280.44,-39151.125,-34818.402,-65500.33,-37937.664,-77673.83,10825.277
880989.4016221786,7755.127,-121279.55,-39154.01,-34820.11,-65482.707,-37936.81,-77673.46,10832.113
880989.4056221765,7760.7017,-121280.56,-39153.363,-34819.824,-65456.22,-37934.246,-77671.92,10838.339
880989.4096221743,7770.8335,-121279.34,-39149.66,-34818.973,-65434.777,-37932.09,-77673.22,10838.013
880989.4136221722,7776.7334,-121278.94,-39147.42,-34817.465,-65427.492,-37929.688,-77678.19,10827.678
880989.4176221701,7774.455,-121283.98,-39152.914,-34817.87,-65429.934,-37927.492,-77679.98,10826.213
880989.4216221679,7766.1543,-121291.99,-39155.355,-34819.176,-65427.29,-37921.633,-77678.76,10834.677
880989.4256221658,7771.118,-121282.516,-39149.54,-34817.098,-65421.594,-37917.32,-77678.51,10832.602
880989.4296221636,7780.0703,-121273.97,-39146.04,-34817.75,-65410.605,-37916.14,-77683.59,10822.51
880989.4336221615,7778.5645,-121278.81,-39150.758,-34821.535,-65410.44,-37913.492,-77688.97,10807.333
880989.4376221594,7778.5645,-121283.45,-39151.164,-34819.582,-65408.45,-37909.953,-77688.73,10807.333
880989.4416221572,7781.494,-121285.69,-39150.188,-34816.53,-65410.2,-37907.31,-77688.88,10808.838
880989.4456221551,7776.4487,-121297.9,-39143.23,-34813.76,-65404.46,-37903.117,-77688.93,10816.325
880989.449622153,7771.9727,-121286.7,-39141.805,-34815.88,-65404.3,-37901.57,-77690.63,10815.1455
880989.4536221508,7782.2676,-121284.67,-39142.66,-34817.586,-65407.88,-37902.996,-77696.375,10805.38
880989.4576221487,7788.656,-121282.44,-39147.34,-34815.555,-65404.582,-37901.004,-77696.414,10807.007
880989.4616221465,7783.9355,-121282.48,-39147.098,-34815.227,-65402.71,-37896.04,-77687.55,10816.04
880989.4656221444,7779.0527,-121286.26,-39141.887,-34816.53,-65396.65,-37890.42,-77678.47,10830.974
880989.4696221423,7778.402,-121286.99,-39142.09,-34816.285,-65389.934,-37888.227,-77676.805,10832.846
880989.4736221401,7780.6807,-121292.766,-39145.59,-34815.918,-65381.84,-37888.062,-77677.45,10828.085
880989.477622138,7784.0576,-121296.06,-39145.508,-34816.406,-65388.55,-37885.906,-77673.55,10829.59
880989.481622136,7784.79,-121292.97,-39142.17,-34816.043,-65387.86,-37883.87,-77668.42,10832.4795
880989.4856221338,7786.865,-121282.68,-39137.41,-34812.746,-65380.94,-37880.37,-77662.07,10844.482
880989.4896221317,7788.33,-121285.32,-39137.94,-34816.12,-65386.438,-37878.99,-77663.17,10839.478
880989.4936221296,7790.975,-121288.91,-39141.684,-34819.05,-65393.92,-37878.746,-77667.4,10826.132
880989.4976221274,7795.614,-121285.0,-39141.074,-34819.54,-65393.56,-37879.477,-77668.99,10822.51
880989.5016221253,7790.1206,-121290.734,-39140.383,-34820.965,-65393.07,-37880.453,-77668.83,10824.016
880989.5056221231,7784.1797,-121292.484,-39136.477,-34818.277,-65384.688,-37876.668,-77663.05,10835.287
880989.509622121,7782.43,-121289.516,-39137.207,-34818.2,-65383.87,-37876.668,-77666.1,10830.444
880989.5136221189,7787.9233,-121288.13,-39135.01,-34818.402,-65386.64,-37877.36,-77669.64,10826.213
880989.5176221167,7796.997,-121283.414,-39133.26,-34817.586,-65383.953,-37876.63,-77670.82,10826.782
880989.5216221146,7799.927,-121285.37,-39131.836,-34817.344,-65384.2,-37878.01,-77672.28,10833.09
880989.5256221124,7797.4043,-121283.77,-39124.555,-34813.723,-65380.047,-37874.227,-77666.83,10844.279
880989.5296221103,7799.8047,-121283.05,-39120.523,-34814.008,-65378.258,-37870.77,-77662.234,10846.68
880989.5336221082,7806.885,-121280.36,-39120.934,-34815.023,-65385.297,-37869.344,-77661.91,10837.565
880989.537622106,7802.816,-121288.5,-39125.406,-34814.617,-65393.84,-37867.27,-77658.9,10839.478
880989.5416221039,7799.4385,-121289.72,-39126.71,-34816.406,-65394.94,-37865.113,-77654.18,10841.553
880989.5456221018,7801.677,-121285.41,-39114.22,-34816.246,-65386.234,-37863.77,-77647.51,10845.663
880989.5496220996,7797.4854,-121291.23,-39118.9,-34817.832,-65384.44,-37864.055,-77647.79,10840.007
880989.5536220975,7796.794,-121295.74,-39121.867,-34820.883,-65389.164,-37863.73,-77652.51,10829.997
880989.5576220953,7798.0146,-121298.18,-39124.797,-34821.695,-65389.242,-37864.79,-77654.5,10825.277
880989.5616220932,7800.537,-121295.86,-39124.758,-34821.047,-65390.3,-37865.36,-77654.625,10826.498
880989.5656220911,7797.5264,-121293.5,-39119.914,-34818.848,-65385.094,-37862.793,-77653.81,10831.991
880989.5696220889,7794.922,-121297.164,-39122.684,-34819.906,-65390.06,-37863.65,-77652.75,10831.259
880989.5736220868,7796.224,-121299.28,-39126.02,-34824.383,-65402.793,-37864.176,-77655.11,10827.597
880989.5776220846,7799.4795,-121295.25,-39123.17,-34823.977,-65400.15,-37863.445,-77652.836,10833.293
880989.5816220825,7799.2354,-121294.44,-39117.555,-34822.266,-65398.887,-37860.434,-77645.63,10844.076
880989.5856220804,7797.4854,-121296.63,-39109.336,-34821.25,-65397.3,-37859.05,-77640.34,10851.44
880989.5896220782,7795.044,-121296.31,-39110.965,-34823.285,-65402.223,-37859.906,-77644.94,10840.292
880989.5936220761,7792.6025,-121303.71,-39117.8,-34827.027,-65412.844,-37860.066,-77652.8,10826.132
880989.597622074,7797.445,-121299.4,-39115.684,-34826.906,-65411.625,-37860.27,-77656.3,10817.709
880989.6016220718,7797.282,-121296.43,-39114.83,-34825.766,-65403.73,-37861.086,-77655.93,10821.371
880989.6056220697,7791.301,-121300.83,-39109.58,-34825.81,-65391.887,-37859.66,-77652.47,10830.7295
880989.6096220675,7789.4697,-121304.37,-39109.742,-34828.74,-65399.62,-37861.086,-77659.016,10814.128
880989.6136220654,7801.9614,-121297.9,-39109.17,-34828.453,-65408.9,-37863.12,-77667.6,10801.514
880989.6176220633,7807.5767,-121294.4,-39107.83,-34829.145,-65409.305,-37864.504,-77668.945,10802.938
880989.6216220611,7798.9097,-121294.27,-39112.02,-34831.055,-65415.367,-37863.73,-77667.89,10809.326
880989.625622059,7790.2427,-121293.83,-39112.875,-34830.28,-65415.203,-37861.41,-77664.06,10820.028
880989.6296220568,7789.144,-121284.67,-39112.875,-34831.586,-65408.49,-37861.207,-77660.445,10821.777
880989.6336220547,7793.213,-121284.95,-39116.05,-34836.344,-65409.793,-37860.883,-77655.93,10827.393
880989.6376220526,7797.3228,-121284.55,-39118.816,-34838.137,-65409.426,-37861.492,-77655.48,10829.468
880989.6416220504,7797.7705,-121281.3,-39116.742,-34836.71,-65416.02,-37862.305,-77657.516,10820.761
880989.6456220484,7797.2007,-121288.5,-39112.1,-34835.613,-65414.555,-37860.477,-77652.63,10833.659
880989.6496220463,7795.573,-121293.586,-39111.168,-34837.242,-65413.047,-37860.758,-77653.445,10829.346
880989.6536220441,7801.799,-121288.5,-39113.2,-34838.504,-65417.523,-37862.793,-77655.68,10823.324
880989.657622042,7806.926,-121282.19,-39114.707,-34836.266,-65417.24,-37864.46,-77657.35,10820.395
880989.6616220399,7803.5483,-121286.26,-39109.457,-34833.414,-65416.098,-37863.812,-77655.03,10825.114
880989.6656220377,7796.55,-121291.67,-39104.453,-34831.016,-65415.203,-37863.406,-77649.25,10836.264
880989.6696220356,7794.7188,-121291.14,-39115.562,-34832.887,-65410.484,-37865.03,-77652.06,10827.026
880989.6736220334,7799.642,-121280.805,-39114.055,-34832.316,-65407.555,-37865.97,-77654.5,10816.813
880989.6776220313,7801.921,-121278.08,-39114.95,-34830.69,-65408.285,-37865.562,-77653.445,10813.64
880989.6816220292,7799.2354,-121283.05,-39117.105,-34828.574,-65408.816,-37863.934,-77650.555,10817.79
880989.685622027,7796.1426,-121285.52,-39114.543,-34827.312,-65402.59,-37859.742,-77644.62,10829.916
880989.6896220249,7799.968,-121285.69,-39103.844,-34826.418,-65401.41,-37858.074,-77644.414,10824.87
880989.6936220228,7804.5654,-121286.34,-39098.758,-34826.742,-65405.234,-37861.004,-77649.74,10814.982
880989.6976220206,7811.239,-121286.664,-39108.24,-34827.8,-65405.52,-37863.12,-77654.99,10811.6455
880989.7016220185,7806.4375,-121290.41,-39110.758,-34826.62,-65408.938,-37863.04,-77654.46,10815.349
880989.7056220163,7798.462,-121294.92,-39107.707,-34825.113,-65408.938,-37861.125,-77653.65,10810.832
880989.7096220142,7801.595,-121284.18,-39106.61,-34823.812,-65401.9,-37862.71,-77657.76,10807.617
880989.7136220121,7809.367,-121277.39,-39104.25,-34823.082,-65402.266,-37865.64,-77663.66,10800.456
880989.7176220099,7815.4297,-121277.875,-39108.684,-34822.633,-65406.17,-37866.58,-77664.06,10805.136
880989.7216220078,7817.1387,-121274.78,-39117.27,-34823.324,-65402.305,-37867.516,-77664.43,10806.763
880989.7256220056,7816.488,-121270.266,-39110.758,-34824.137,-65393.84,-37865.152,-77661.5,10815.063
880989.7296220035,7813.6396,-121277.63,-39105.633,-34826.01,-65397.707,-37863.527,-77656.91,10821.493
880989.7336220014,7815.511,-121288.21,-39105.594,-34825.32,-65405.64,-37863.324,-77657.92,10813.599
880989.7376219992,7813.2734,-121293.38,-39111.29,-34826.62,-65410.93,-37864.42,-77658.37,10812.948
880989.7416219971,7811.1167,-121288.01,-39111.777,-34825.887,-65405.926,-37864.137,-77654.38,10824.87
880989.745621995,7813.5986,-121276.66,-39101.727,-34822.145,-65397.34,-37863.85,-77651.98,10830.852
880989.7496219928,7815.4707,-121279.625,-39105.715,-34823.934,-65398.97,-37864.258,-77650.516,10831.015
880989.7536219907,7815.674,-121282.27,-39109.05,-34827.76,-65402.14,-37866.293,-77657.15,10809.489
880989.7576219885,7818.197,-121276.29,-39114.87,-34828.94,-65402.1,-37867.72,-77659.55,10804.77
880989.7616219864,7815.918,-121282.64,-39116.375,-34826.742,-65402.1,-37866.824,-77655.234,10809.896
880989.7656219843,7811.6865,-121289.39,-39107.383,-34823.04,-65404.582,-37862.02,-77647.38,10824.504
880989.7696219821,7812.175,-121285.32,-39105.875,-34822.145,-65402.266,-37862.918,-77646.734,10816.691
880989.77362198,7812.9883,-121288.086,-39108.035,-34823.16,-65401.9,-37864.42,-77650.02,10807.251
880989.7776219778,7818.034,-121285.69,-39108.645,-34822.145,-65402.266,-37862.875,-77648.16,10813.314
880989.7816219757,7822.3877,-121278.24,-39112.305,-34818.562,-65394.41,-37860.84,-77645.63,10822.0625
880989.7856219736,7819.336,-121275.03,-39095.5,-34816.895,-65396.203,-37859.336,-77645.875,10824.382
880989.7896219714,7817.302,-121278.81,-39095.094,-34818.973,-65401.574,-37861.613,-77649.984,10814.453
880989.7936219693,7815.267,-121284.75,-39102.785,-34820.8,-65408.613,-37863.934,-77653.89,10809.57
880989.7976219672,7823.9746,-121276.33,-39114.34,-34820.8,-65406.742,-37865.97,-77655.73,10811.279
880989.801621965,7826.4976,-121270.59,-39124.39,-34818.81,-65402.71,-37863.484,-77648.73,10827.067
880989.8056219629,7825.887,-121271.08,-39117.473,-34816.938,-65399.008,-37861.613,-77644.25,10837.81
880989.8096219609,7826.457,-121278.164,-39110.8,-34821.656,-65401.98,-37866.21,-77650.96,10822.998
880989.8136219587,7825.4805,-121282.31,-39109.78,-34822.67,-65406.617,-37868.695,-77653.85,10815.43
880989.8176219566,7822.876,-121281.3,-39111.53,-34822.39,-65410.402,-37866.66,-77648.52,10819.418
880989.8216219544,7821.3706,-121282.8,-39111.168,-34823.895,-65412.844,-37865.074,-77644.53,10821.249
880989.8256219523,7820.801,-121290.164,-39104.004,-34823.082,-65408.207,-37864.42,-77642.055,10830.444
880989.8296219502,7824.2188,-121288.91,-39101.44,-34824.137,-65404.582,-37865.64,-77642.46,10833.862
880989.833621948,7825.4805,-121286.18,-39107.383,-34825.523,-65407.31,-37868.695,-77642.58,10827.8
880989.8376219459,7824.87,-121287.11,-39112.59,-34824.016,-65414.31,-37868.53,-77640.305,10822.307
880989.8416219437,7816.203,-121290.695,-39118.53,-34825.277,-65418.38,-37871.5,-77643.88,10817.587
880989.8456219416,7816.8945,-121282.8,-39114.707,-34823.895,-65413.7,-37872.4,-77644.33,10816.895
880989.8496219395,7820.6787,-121285.28,-39116.58,-34823.285,-65412.152,-37872.887,-77646.04,10813.151
880989.8536219373,7826.701,-121279.83,-39119.344,-34826.254,-65412.07,-37874.023,-77649.25,10799.561
880989.8576219352,7828.5728,-121276.01,-39119.14,-34825.113,-65421.062,-37875.45,-77649.09,10800.293
880989.861621933,7825.073,-121275.03,-39115.562,-34819.01,-65423.547,-37874.51,-77643.19,10812.012
880989.8656219309,7824.056,-121274.17,-39106.49,-34817.465,-65417.605,-37875.043,-77638.43,10824.545
880989.8696219288,7826.2534,-121275.234,-39107.586,-34819.418,-65416.832,-37875.203,-77638.92,10825.155
880989.8736219266,7826.4976,-121282.84,-39112.43,-34822.266,-65423.75,-37875.45,-77642.3,10810.873
880989.8776219245,7827.8,-121280.64,-39113.28,-34821.453,-65428.715,-37875.125,-77641.85,10807.292
880989.8816219224,7830.6074,-121266.16,-39112.836,-34820.64,-65429.73,-37876.06,-77640.875,10810.995
880989.8856219202,7830.404,-121259.85,-39111.777,-34820.07,-65428.59,-37876.223,-77638.836,10821.859
880989.8896219181,7829.509,-121264.695,-39109.215,-34821.453,-65429.73,-37875.125,-77637.53,10820.842
880989.893621916,7831.95,-121265.22,-39110.516,-34822.836,-65432.05,-37874.39,-77633.95,10820.354
880989.8976219138,7832.1943,-121266.24,-39112.305,-34823.69,-65428.793,-37875.246,-77634.12,10815.349
880989.9016219117,7833.374,-121269.01,-39111.613,-34822.918,-65421.836,-37874.797,-77631.266,10818.278
880989.9056219095,7834.1064,-121266.65,-39102.418,-34819.99,-65423.137,-37873.82,-77626.79,10822.226
880989.9096219074,7828.8984,-121263.8,-39102.5,-34819.62,-65423.832,-37873.008,-77626.34,10820.923
880989.9136219053,7830.9736,-121261.4,-39109.58,-34822.145,-65425.99,-37875.977,-77631.59,10808.635
880989.9176219031,7834.31,-121259.65,-39110.027,-34822.594,-65435.957,-37877.36,-77630.58,10812.541
880989.921621901,7833.496,-121257.695,-39114.176,-34821.13,-65446.293,-37878.664,-77626.586,10824.301
880989.9256218988,7830.8516,-121257.81,-39110.027,-34822.754,-65449.016,-37878.95,-77621.586,10835.612
880989.9296218967,7828.817,-121263.516,-39109.375,-34826.133,-65448.69,-37880.086,-77625.77,10821.777
880989.9336218946,7827.474,-121264.41,-39114.664,-34825.562,-65458.457,-37881.227,-77629.07,10809.937
880989.9376218924,7828.0845,-121263.19,-39122.723,-34826.01,-65471.07,-37882.855,-77627.24,10815.959
880989.9416218903,7828.7354,-121259.08,-39122.56,-34823.324,-65465.13,-37881.754,-77622.03,10820.354
880989.9456218882,7824.9106,-121264.04,-39114.91,-34823.12,-65453.86,-37880.656,-77619.75,10818.808
880989.949621886,7821.0044,-121270.35,-39112.875,-34825.93,-65449.914,-37880.535,-77621.42,10818.115
880989.9536218839,7821.289,-121270.67,-39119.508,-34829.55,-65459.477,-37882.61,-77627.445,10810.059
880989.9576218817,7821.289,-121273.28,-39127.605,-34832.234,-65471.684,-37883.586,-77630.945,10808.879
880989.9616218796,7818.563,-121278.04,-39127.156,-34831.383,-65469.242,-37882.57,-77626.02,10823.12
880989.9656218775,7823.812,-121274.664,-39118.938,-34828.656,-65460.086,-37881.105,-77620.32,10836.955
880989.9696218753,7824.0967,-121276.82,-39121.34,-34828.94,-65464.438,-37880.332,-77619.59,10837.158
880989.9736218732,7823.039,-121272.625,-39127.44,-34831.383,-65469.85,-37881.31,-77621.83,10827.067
880989.9776218712,7827.5146,-121271.24,-39129.477,-34830.61,-65473.51,-37882.242,-77622.36,10818.686
880989.981621869,7832.8857,-121265.18,-39125.895,-34830.65,-65472.58,-37883.383,-77622.766,10817.058
880989.9856218669,7831.95,-121262.25,-39121.99,-34829.633,-65467.043,-37883.383,-77619.47,10826.701
880989.9896218647,7833.7812,-121265.42,-39125.57,-34830.85,-65476.566,-37882.812,-77617.516,10825.439
880989.9936218626,7837.8906,-121264.086,-39128.906,-34833.133,-65482.26,-37884.402,-77617.84,10818.93
880989.9976218605,7832.9673,-121274.78,-39134.848,-34835.938,-65486.332,-37885.215,-77616.82,10820.801
880990.0016218583,7823.8525,-121283.695,-39140.22,-34837.16,-65484.54,-37883.26,-77613.33,10825.439
880990.0056218562,7819.4175,-121279.95,-39138.062,-34837.527,-65479.453,-37882.73,-77610.03,10830.078
880990.009621854,7822.8354,-121273.73,-39136.434,-34839.152,-65476.727,-37884.195,-77612.06,10822.307
880990.0136218519,7823.7715,-121274.09,-39141.316,-34841.27,-65483.645,-37887.656,-77616.46,10814.087
880990.0176218498,7824.0156,-121278.37,-39149.21,-34841.39,-65490.316,-37888.1,-77616.09,10818.197
880990.0216218476,7822.3877,-121279.51,-39150.27,-34837.2,-65479.7,-37887.332,-77611.58,10828.532
880990.0256218455,7821.8184,-121275.15,-39141.805,-34835.246,-65464.36,-37885.66,-77606.57,10835.815
880990.0296218434,7826.05,-121272.42,-39140.055,-34836.47,-65470.137,-37886.15,-77607.51,10828.369
880990.0336218412,7826.091,-121270.43,-39151.246,-34840.047,-65479.902,-37889.08,-77615.03,10808.432
880990.0376218391,7824.6665,-121273.69,-39156.293,-34841.15,-65481.082,-37889.934,-77616.87,10803.955
880990.041621837,7823.4053,-121278.41,-39154.95,-34840.332,-65469.242,-37890.22,-77615.234,10809.978
880990.0456218348,7819.906,-121276.66,-39149.863,-34841.39,-65465.742,-37891.766,-77614.664,10818.4
880990.0496218327,7819.824,-121274.01,-39151.246,-34841.27,-65469.85,-37893.11,-77618.49,10814.413
880990.0536218305,7819.6616,-121279.55,-39154.34,-34841.758,-65477.094,-37892.906,-77622.12,10807.577
880990.0576218284,7816.976,-121287.11,-39160.81,-34841.88,-65478.152,-37894.938,-77625.086,10799.113
880990.0616218263,7814.2905,-121287.234,-39162.07,-34839.723,-65477.46,-37893.637,-77619.51,10813.07
880990.0656218241,7817.912,-121279.38,-39152.996,-34834.555,-65461.47,-37892.17,-77615.234,10813.029
880990.069621822,7827.108,-121271.08,-39150.35,-34837.65,-65457.727,-37893.84,-77616.91,10794.108
880990.0736218198,7824.626,-121275.27,-39157.105,-34843.71,-65483.766,-37894.574,-77616.87,10788.9
880990.0776218177,7823.3643,-121278.85,-39164.715,-34844.523,-65496.137,-37894.125,-77617.31,10787.109
880990.0816218156,7823.039,-121277.34,-39165.855,-34841.227,-65497.074,-37895.145,-77616.78,10787.354
880990.0856218134,7821.574,-121275.6,-39161.95,-34838.258,-65488.285,-37894.125,-77610.96,10793.986
880990.0896218113,7819.499,-121276.05,-39163.37,-34839.355,-65492.066,-37893.8,-77611.05,10791.748
880990.0936218092,7817.098,-121273.73,-39173.953,-34842.938,-65497.562,-37895.348,-77615.73,10776.123
880990.097621807,7818.7666,-121275.07,-39180.055,-34844.117,-65497.113,-37895.266,-77614.18,10776.693
880990.1016218049,7823.5273,-121272.055,-39178.348,-34843.18,-65506.27,-37894.86,-77610.15,10789.307
880990.1056218027,7820.923,-121269.086,-39178.14,-34843.18,-65498.945,-37894.33,-77605.836,10797.974
880990.1096218006,7820.15,-121276.125,-39180.992,-34844.566,-65499.434,-37894.41,-77604.05,10800.497
880990.1136217985,7826.986,-121271.734,-39182.535,-34845.62,-65501.793,-37894.777,-77606.9,10792.521
880990.1176217963,7831.462,-121271.164,-39185.06,-34846.438,-65503.055,-37896.484,-77608.08,10798.137
880990.1216217942,7831.9907,-121271.484,-39184.043,-34844.93,-65493.656,-37895.47,-77600.586,10812.297
880990.125621792,7835.8154,-121259.04,-39174.44,-34841.96,-65475.508,-37893.23,-77592.94,10829.509
880990.1296217899,7835.7344,-121258.1,-39175.336,-34845.176,-65469.445,-37893.96,-77595.18,10833.293
880990.1336217878,7842.163,-121258.02,-39180.95,-34848.31,-65458.01,-37895.145,-77603.195,10816.162
880990.1376217856,7844.1978,-121259.93,-39186.32,-34846.152,-65457.6,-37893.637,-77608.766,10810.588
880990.1416217836,7839.2744,-121261.72,-39186.89,-34844.2,-65436.32,-37889.566,-77613.0,10812.378
880990.1456217815,7838.0537,-121260.74,-39184.207,-34845.83,-65411.38,-37887.168,-77617.72,10811.972
880990.1496217793,7838.542,-121262.66,-39188.723,-34846.68,-65414.27,-37884.277,-77624.88,10796.509
880990.1536217772,7838.0537,-121266.766,-39198.324,-34849.527,-65420.453,-37881.43,-77631.516,10777.344
880990.157621775,7837.036,-121276.9,-39204.305,-34854.98,-65410.605,-37879.03,-77632.94,10771.566
880990.1616217729,7835.205,-121282.31,-39203.613,-34854.86,-65413.332,-37874.43,-77628.79,10779.989
880990.1656217708,7830.078,-121286.3,-39198.73,-34854.13,-65412.477,-37868.613,-77623.945,10793.905
880990.1696217686,7832.723,-121278.94,-39198.895,-34853.273,-65413.25,-37862.348,-77621.09,10790.039
880990.1736217665,7841.716,-121279.99,-39205.566,-34855.715,-65412.883,-37858.848,-77618.29,10781.21
880990.1776217644,7845.703,-121282.11,-39209.8,-34856.12,-65418.785,-37856.812,-77614.016,10780.029
880990.1816217622,7840.332,-121287.234,-39211.71,-34853.477,-65407.758,-37851.688,-77608.73,10783.936
880990.1856217601,7839.803,-121283.94,-39205.69,-34850.914,-65401.043,-37846.316,-77604.33,10790.935
880990.189621758,7839.3965,-121283.734,-39208.457,-34853.152,-65395.184,-37842.9,-77606.37,10783.8545
880990.1936217558,7840.2915,-121291.06,-39214.6,-34856.445,-65393.76,-37841.105,-77610.805,10775.391
880990.1976217537,7851.3184,-121293.42,-39214.926,-34856.934,-65404.42,-37839.6,-77614.99,10773.56
880990.2016217515,7856.12,-121289.836,-39213.664,-34855.105,-65392.742,-37838.176,-77616.336,10772.99
880990.2056217494,7853.9634,-121290.41,-39209.11,-34851.727,-65387.98,-37835.043,-77610.31,10790.039
880990.2096217473,7850.993,-121295.21,-39209.473,-34851.93,-65386.68,-37835.125,-77609.83,10791.057
880990.2136217451,7854.7363,-121295.01,-39217.816,-34854.207,-65387.414,-37835.652,-77612.914,10787.842
880990.217621743,7863.485,-121289.96,-39222.008,-34851.117,-65389.164,-37835.043,-77611.62,10792.074
880990.2216217408,7869.507,-121281.01,-39216.473,-34845.5,-65386.234,-37832.316,-77606.445,10806.315
880990.2256217387,7868.083,-121276.05,-39208.008,-34841.676,-65378.703,-37829.793,-77600.34,10821.371
880990.2296217366,7862.3457,-121278.98,-39213.83,-34843.06,-65386.027,-37830.08,-77600.266,10818.808
880990.2336217344,7862.9966,-121280.56,-39220.62,-34845.5,-65401.41,-37830.65,-77603.4,10809.652
880990.2376217323,7867.391,-121276.62,-39223.594,-34847.574,-65403.402,-37832.684,-77607.055,10802.246
880990.2416217302,7864.9497,-121277.02,-39228.68,-34846.64,-65402.062,-37834.88,-77609.375,10803.264
880990.245621728,7861.2876,-121276.01,-39225.3,-34845.664,-65391.727,-37834.555,-77607.71,10807.251
880990.2496217259,7861.5723,-121275.555,-39222.496,-34846.355,-65386.844,-37834.88,-77608.195,10802.775
880990.2536217237,7856.323,-121282.76,-39227.945,-34851.36,-65389.367,-37837.605,-77611.375,10789.551
880990.2576217216,7855.591,-121278.04,-39233.848,-34852.582,-65383.914,-37837.402,-77608.6,10793.01
880990.2616217195,7861.6133,-121266.195,-39232.137,-34849.082,-65372.152,-37835.734,-77602.016,10808.716
880990.2656217173,7864.543,-121264.695,-39226.48,-34847.574,-65371.055,-37834.066,-77593.8,10825.155
880990.2696217152,7862.5083,-121264.695,-39228.152,-34851.97,-65370.85,-37832.277,-77589.766,10827.067
880990.273621713,7862.793,-121264.33,-39234.99,-34853.152,-65371.586,-37832.4,-77592.05,10813.192
880990.2776217109,7863.607,-121265.75,-39238.08,-34853.76,-65374.027,-37832.6,-77592.33,10810.1
880990.2816217088,7861.491,-121268.805,-39238.12,-34854.207,-65380.09,-37833.05,-77594.61,10810.466
880990.2856217066,7861.6133,-121271.77,-39230.348,-34850.504,-65369.223,-37830.566,-77593.02,10812.785
880990.2896217045,7864.177,-121274.78,-39229.086,-34851.277,-65372.438,-37831.18,-77596.07,10803.752
880990.2936217024,7865.6416,-121280.97,-39234.375,-34853.312,-65379.07,-37831.746,-77602.91,10791.464
880990.2976217002,7863.485,-121280.16,-39238.527,-34854.453,-65381.918,-37831.258,-77606.77,10785.971
880990.3016216981,7860.2705,-121279.38,-39240.152,-34850.953,-65382.203,-37828.453,-77604.414,10787.517
880990.305621696,7863.6885,-121279.55,-39235.027,-34849.203,-65385.54,-37825.645,-77602.17,10788.859
880990.3096216939,7862.915,-121279.79,-39238.65,-34851.523,-65383.953,-37826.375,-77602.54,10786.296
880990.3136216918,7857.788,-121287.88,-39247.477,-34855.348,-65393.395,-37827.477,-77603.31,10781.698
880990.3176216896,7858.5615,-121290.66,-39252.402,-34856.363,-65393.8,-37827.273,-77602.42,10784.628
880990.3216216875,7861.8574,-121284.47,-39252.44,-34854.777,-65389.652,-37828.86,-77600.06,10794.108
880990.3256216854,7865.1123,-121278.85,-39245.402,-34852.01,-65384.28,-37830.28,-77594.93,10802.572
880990.3296216832,7868.3677,-121278.53,-39239.87,-34850.63,-65382.285,-37828.74,-77591.96,10808.757
880990.3336216811,7864.2173,-121286.016,-39243.9,-34853.477,-65385.62,-37829.59,-77592.49,10808.105
880990.337621679,7862.712,-121286.46,-39251.793,-34854.656,-65393.76,-37829.227,-77589.4,10819.092
880990.3416216768,7866.577,-121286.22,-39252.36,-34853.477,-65400.027,-37829.062,-77587.32,10825.48
880990.3456216747,7866.1704,-121286.34,-39247.234,-34853.355,-65395.062,-37828.33,-77587.484,10822.47
880990.3496216725,7861.2876,-121296.19,-39250.57,-34857.34,-65403.04,-37829.633,-77589.4,10820.19
880990.3536216704,7861.6133,-121299.6,-39257.49,-34858.727,-65412.64,-37833.133,-77594.12,10808.269
880990.3576216683,7863.851,-121296.35,-39261.395,-34858.645,-65412.477,-37833.984,-77594.81,10808.635
880990.3616216661,7864.258,-121292.69,-39261.76,-34857.137,-65409.508,-37833.66,-77592.61,10822.266
880990.365621664,7866.699,-121285.93,-39256.918,-34852.99,-65396.934,-37833.984,-77594.08,10823.935
880990.3696216618,7865.9263,-121285.24,-39260.05,-34854.086,-65394.574,-37835.492,-77599.04,10810.873
880990.3736216597,7865.316,-121288.54,-39263.062,-34857.547,-65406.984,-37838.707,-77602.5,10799.683
880990.3776216576,7867.1875,-121289.516,-39263.59,-34856.73,-65414.473,-37838.504,-77604.74,10792.48
880990.3816216554,7868.7744,-121283.94,-39254.07,-34852.785,-65411.055,-37835.652,-77605.06,10788.696
880990.3856216533,7868.408,-121281.09,-39246.582,-34851.727,-65401.734,-37835.652,-77604.125,10791.748
880990.3896216511,7868.6934,-121282.76,-39244.14,-34851.89,-65404.094,-37837.242,-77608.69,10781.169
880990.393621649,7878.174,-121278.734,-39246.5,-34851.848,-65412.03,-37839.113,-77613.61,10768.637
880990.3976216469,7880.6562,-121276.82,-39252.566,-34853.965,-65420.695,-37840.863,-77617.15,10763.306
880990.4016216447,7872.5996,-121286.79,-39261.434,-34854.695,-65422.367,-37841.637,-77618.086,10760.417
880990.4056216426,7869.3037,-121284.75,-39256.266,-34852.54,-65407.105,-37838.094,-77614.18,10761.638
880990.4096216405,7867.0654,-121286.3,-39259.32,-34855.023,-65405.766,-37838.094,-77613.61,10753.866
880990.4136216383,7863.2812,-121294.11,-39269.207,-34858.156,-65414.105,-37836.996,-77612.875,10746.582
880990.4176216362,7859.66,-121300.54,-39275.758,-34858.93,-65417.36,-37834.312,-77608.89,10754.558
880990.421621634,7857.1777,-121295.66,-39271.566,-34859.5,-65418.133,-37834.434,-77601.484,10764.934
880990.4256216319,7855.6724,-121295.66,-39267.336,-34859.05,-65413.37,-37831.34,-77594.484,10778.158
880990.4296216298,7853.1494,-121302.01,-39274.414,-34861.98,-65409.832,-37829.633,-77591.516,10780.3955
880990.4336216276,7857.1777,-121301.31,-39277.957,-34863.934,-65412.883,-37832.316,-77593.51,10773.193
880990.4376216255,7865.1533,-121292.89,-39273.113,-34861.9,-65411.297,-37833.336,-77594.2,10777.507
880990.4416216234,7868.408,-121285.445,-39269.9,-34857.06,-65405.6,-37833.293,-77590.21,10800.578
880990.4456216212,7866.9844,-121282.39,-39261.76,-34851.688,-65395.305,-37831.543,-77583.3,10822.104
880990.4496216191,7871.5415,-121279.22,-39255.74,-34851.97,-65388.55,-37834.676,-77585.9,10818.848
880990.4536216169,7876.9126,-121276.58,-39262.168,-34855.105,-65397.992,-37838.176,-77593.34,10804.525
880990.4576216148,7876.3022,-121278.164,-39277.14,-34856.16,-65405.64,-37840.332,-77594.56,10803.223
880990.4616216127,7872.152,-121279.95,-39277.914,-34855.836,-65403.324,-37839.52,-77588.914,10818.4
880990.4656216105,7878.2554,-121270.305,-39267.62,-34852.582,-65393.84,-37839.316,-77588.09,10816.081
880990.4696216085,7884.074,-121267.17,-39263.836,-34854.207,-65392.906,-37840.66,-77592.45,10806.763
880990.4736216064,7881.3887,-121269.086,-39265.992,-34855.31,-65395.184,-37840.21,-77594.65,10797.567
880990.4776216042,7876.9126,-121272.22,-39264.406,-34855.633,-65400.15,-37838.258,-77591.31,10793.823
880990.4816216021,7880.168,-121275.11,-39260.742,-34853.477,-65401.695,-37837.445,-77587.77,10799.438
880990.4856216,7880.941,-121276.78,-39267.824,-34851.32,-65402.062,-37836.914,-77589.03,10796.469
880990.4896215978,7873.454,-121284.67,-39276.41,-34855.918,-65413.13,-37837.2,-77592.05,10784.831
880990.4936215957,7871.4194,-121277.43,-39281.453,-34858.074,-65412.723,-37839.805,-77595.336,10772.787
880990.4976215935,7875.9766,-121271.41,-39286.867,-34856.527,-65408.082,-37840.82,-77597.54,10768.962
880990.5016215914,7873.9014,-121271.484,-39279.38,-34853.07,-65405.6,-37841.227,-77595.54,10769.613
880990.5056215893,7866.8213,-121268.03,-39271.484,-34853.598,-65407.39,-37840.984,-77592.86,10772.868
880990.5096215871,7869.5884,-121271.37,-39273.844,-34856.203,-65413.535,-37840.13,-77592.33,10769.775
880990.513621585,7866.903,-121279.22,-39283.043,-34860.598,-65418.742,-37840.008,-77594.56,10763.428
880990.5176215828,7865.438,-121277.14,-39286.99,-34863.445,-65419.516,-37840.74,-77596.31,10761.882
880990.5216215807,7868.7744,-121269.05,-39281.656,-34859.66,-65407.066,-37839.6,-77591.8,10773.4375
880990.5256215786,7862.834,-121271.65,-39278.566,-34859.5,-65396.895,-37839.195,-77587.65,10779.663
880990.5296215764,7858.8057,-121278.53,-39281.78,-34863.688,-65398.316,-37840.74,-77589.03,10776.774
880990.5336215743,7860.4736,-121283.49,-39292.44,-34868.125,-65408.57,-37844.28,-77596.36,10763.428
880990.5376215721,7861.45,-121286.664,-39294.68,-34866.78,-65409.793,-37845.01,-77598.63,10759.277
880990.54162157,7861.898,-121287.805,-39290.406,-34862.836,-65406.13,-37843.426,-77595.26,10772.055
880990.5456215679,7859.8228,-121282.35,-39276.9,-34859.824,-65400.637,-37842.938,-77592.2,10782.268
880990.5496215657,7865.1533,-121279.664,-39270.387,-34861.004,-65406.902,-37844.566,-77597.375,10768.881
880990.5536215636,7870.036,-121277.51,-39276.285,-34863.527,-65420.902,-37848.105,-77601.4,10764.079
880990.5576215615,7871.6636,-121274.09,-39286.664,-34864.34,-65430.543,-37849.406,-77604.45,10772.014
880990.5616215593,7870.931,-121271.33,-39284.953,-34862.43,-65428.02,-37847.37,-77602.586,10779.053
880990.5656215572,7868.449,-121272.625,-39276.004,-34859.66,-65416.63,-37847.008,-77600.266,10780.559
880990.569621555,7874.471,-121274.3,-39274.17,-34861.33,-65413.496,-37848.062,-77596.36,10781.332
880990.5736215529,7881.2666,-121269.21,-39277.957,-34862.348,-65416.586,-37848.676,-77589.195,10786.825
880990.5776215508,7882.365,-121266.73,-39276.246,-34862.875,-65415.367,-37848.676,-77583.26,10794.963
880990.5816215486,7878.662,-121270.92,-39270.996,-34861.168,-65410.16,-37846.68,-77578.414,10805.42
880990.5856215465,7874.878,-121265.51,-39276.613,-34860.11,-65402.47,-37845.746,-77577.516,10808.594
880990.5896215443,7879.1914,-121259.766,-39280.273,-34862.836,-65411.746,-37848.473,-77582.16,10797.038
880990.5936215422,7878.459,-121261.48,-39285.035,-34865.277,-65422.082,-37850.06,-77585.25,10787.517
880990.5976215401,7874.3086,-121265.55,-39288.492,-34866.375,-65428.348,-37849.895,-77584.92,10784.912
880990.6016215379,7872.2334,-121263.31,-39284.14,-34863.363,-65427.37,-37849.57,-77585.62,10786.784
880990.6056215358,7876.3022,-121253.46,-39279.34,-34858.562,-65423.42,-37850.63,-77586.51,10784.546
880990.6096215337,7880.127,-121248.82,-39274.863,-34858.44,-65420.414,-37852.094,-77593.34,10770.102
880990.6136215315,7879.11,-121257.66,-39288.086,-34861.53,-65422.57,-37855.023,-77601.56,10753.744
880990.6176215294,7875.5293,-121261.07,-39295.492,-34863.85,-65426.92,-37856.69,-77606.33,10741.618
880990.6216215272,7876.4243,-121258.71,-39284.06,-34863.324,-65421.67,-37856.49,-77605.875,10742.961
880990.6256215251,7877.1567,-121259.52,-39283.734,-34863.85,-65424.523,-37855.105,-77602.09,10754.599
880990.629621523,7871.948,-121263.19,-39296.023,-34865.36,-65424.93,-37856.0,-77601.93,10747.681
880990.633621521,7869.548,-121270.555,-39305.176,-34870.65,-65433.23,-37857.707,-77604.125,10743.083
880990.6376215188,7865.56,-121284.55,-39305.625,-34873.535,-65450.605,-37858.156,-77602.055,10748.983
880990.6416215167,7859.9854,-121290.61,-39300.58,-34871.46,-65461.996,-37856.73,-77594.445,10763.266
880990.6456215145,7863.2812,-121281.46,-39292.195,-34870.363,-65459.312,-37854.492,-77586.914,10773.723
880990.6496215124,7868.4897,-121276.695,-39292.074,-34870.65,-65468.387,-37855.31,-77584.92,10762.695
880990.6536215103,7867.269,-121275.516,-39293.54,-34873.78,-65478.355,-37856.812,-77583.87,10755.819
880990.6576215081,7863.4033,-121275.07,-39281.332,-34874.676,-65484.99,-37858.035,-77582.6,10760.539
880990.661621506,7862.59,-121273.195,-39267.863,-34870.605,-65482.547,-37857.547,-77577.96,10773.967
880990.6656215038,7861.1655,-121276.086,-39268.598,-34868.45,-65484.785,-37854.777,-77573.94,10783.447
880990.6696215017,7863.729,-121279.75,-39284.26,-34872.316,-65493.41,-37858.24,-77578.9,10779.907
880990.6736214996,7866.333,-121281.414,-39292.766,-34878.01,-65490.44,-37861.168,-77584.35,10771.037
880990.6776214974,7867.147,-121284.47,-39297.895,-34875.49,-65491.906,-37862.836,-77584.07,10773.356
880990.6816214953,7865.316,-121284.06,-39295.98,-34871.46,-65484.99,-37864.42,-77583.3,10773.642
880990.6856214931,7868.286,-121275.44,-39289.633,-34869.184,-65469.445,-37863.324,-77578.78,10785.034
880990.689621491,7868.0015,-121276.414,-39292.887,-34871.91,-65473.715,-37863.688,-77578.984,10786.093
880990.6936214889,7867.025,-121285.445,-39303.426,-34876.02,-65484.66,-37865.277,-77582.03,10776.408
880990.6976214867,7868.449,-121285.89,-39311.32,-34876.59,-65489.87,-37866.375,-77582.03,10770.549
880990.7016214846,7876.7905,-121269.01,-39304.89,-34871.625,-65483.36,-37865.36,-77579.305,10778.605
880990.7056214825,7880.29,-121258.71,-39293.094,-34869.832,-65473.473,-37864.22,-77574.586,10790.69
880990.7096214803,7876.6685,-121260.26,-39292.074,-34870.89,-65471.805,-37865.848,-77575.484,10786.662
880990.7136214782,7873.4946,-121264.734,-39298.87,-34873.414,-65476.28,-37867.758,-77578.58,10781.291
880990.717621476,7880.5747,-121263.555,-39303.63,-34873.414,-65478.598,-37868.695,-77579.23,10781.169
880990.7216214739,7882.324,-121266.89,-39290.203,-34870.484,-65480.715,-37868.367,-77577.234,10787.354
880990.7256214718,7875.936,-121271.2,-39292.36,-34870.73,-65481.203,-37868.29,-77576.5,10790.894
880990.7296214696,7871.826,-121274.91,-39299.887,-34874.96,-65485.516,-37868.53,-77578.62,10781.413
880990.7336214675,7869.7104,-121281.09,-39307.496,-34877.484,-65495.04,-37869.914,-77577.68,10773.967
880990.7376214653,7874.5117,-121283.414,-39302.86,-34876.383,-65493.53,-37869.02,-77574.1,10776.489
880990.7416214632,7876.2207,-121280.89,-39295.574,-34875.652,-65494.348,-37868.734,-77571.695,10786.459
880990.7456214611,7873.413,-121283.29,-39292.766,-34874.84,-65495.73,-37867.066,-77569.3,10787.354
880990.7496214589,7870.8496,-121284.23,-39296.51,-34878.5,-65495.812,-37867.92,-77574.51,10773.112
880990.7536214568,7876.9126,-121277.47,-39299.562,-34882.04,-65495.65,-37871.258,-77578.29,10760.254
880990.7576214547,7877.4414,-121275.84,-39303.02,-34880.617,-65485.516,-37870.445,-77573.33,10770.468
880990.7616214525,7875.0815,-121273.6,-39300.66,-34878.543,-65469.08,-37868.207,-77565.76,10791.22
880990.7656214504,7877.8486,-121270.51,-39294.8,-34877.645,-65477.258,-37866.7,-77564.05,10797.201
880990.7696214482,7878.215,-121271.0,-39297.895,-34882.12,-65489.79,-37868.41,-77568.16,10788.9
880990.7736214461,7876.709,-121275.72,-39304.77,-34885.17,-65507.043,-37870.85,-77573.04,10776.449
880990.777621444,7878.2554,-121274.7,-39305.83,-34884.195,-65507.406,-37870.242,-77573.04,10778.32
880990.7816214418,7881.063,-121272.914,-39299.93,-34881.145,-65496.38,-37871.46,-77572.875,10785.686
880990.7856214397,7879.883,-121272.38,-39294.883,-34877.688,-65490.4,-37871.785,-77569.99,10798.503
880990.7896214376,7874.7153,-121271.24,-39296.227,-34877.77,-65495.363,-37873.13,-77572.92,10784.872
880990.7936214354,7873.739,-121272.34,-39299.766,-34881.43,-65507.367,-37876.953,-77579.76,10769.775
880990.7976214334,7874.634,-121275.48,-39303.508,-34880.82,-65512.25,-37879.234,-77580.445,10764.486
880990.8016214313,7875.163,-121275.68,-39305.258,-34881.105,-65497.195,-37878.906,-77577.27,10777.507
880990.8056214291,7873.9014,-121279.34,-39300.742,-34881.145,-65497.03,-37877.08,-77572.06,10791.586
880990.809621427,7872.8027,-121278.37,-39302.043,-34881.96,-65499.23,-37877.848,-77573.695,10787.598
880990.8136214248,7871.7856,-121277.02,-39310.06,-34885.336,-65500.246,-37879.52,-77574.83,10780.803
880990.8176214227,7873.413,-121281.336,-39312.582,-34883.586,-65505.74,-37878.867,-77571.29,10788.005
880990.8216214206,7878.011,-121273.12,-39303.387,-34877.77,-65495.85,-37877.77,-77567.43,10790.568
880990.8256214184,7875.6104,-121268.805,-39296.633,-34875.734,-65488.65,-37876.668,-77562.5,10799.846
880990.8296214163,7873.0063,-121272.14,-39304.324,-34881.023,-65484.945,-37877.727,-77563.73,10793.579
880990.8336214141,7878.296,-121273.52,-39314.58,-34884.81,-65480.023,-37880.332,-77572.39,10778.198
880990.837621412,7878.2554,-121280.64,-39317.18,-34885.703,-65488.08,-37882.242,-77576.87,10774.292
880990.8416214099,7874.3086,-121279.46,-39313.64,-34884.44,-65491.008,-37878.703,-77572.8,10784.424
880990.8456214077,7872.1924,-121278.41,-39305.34,-34881.88,-65487.348,-37873.82,-77568.195,10796.428
880990.8496214056,7876.384,-121277.23,-39303.508,-34883.504,-65477.133,-37873.984,-77571.9,10781.901
880990.8536214035,7881.958,-121279.79,-39308.023,-34886.68,-65467.9,-37874.758,-77579.39,10761.76
880990.8576214013,7882.528,-121283.086,-39309.33,-34887.656,-65457.035,-37873.375,-77579.63,10766.724
880990.8616213992,7882.7314,-121277.1,-39307.13,-34884.074,-65432.824,-37868.613,-77577.27,10773.682
880990.865621397,7880.29,-121270.59,-39304.08,-34882.773,-65423.18,-37863.934,-77574.625,10778.564
880990.8696213949,7886.19,-121269.74,-39301.11,-34886.027,-65429.12,-37861.37,-77578.734,10772.868
880990.8736213928,7894.043,-121272.1,-39305.582,-34890.3,-65432.62,-37859.418,-77583.78,10763.021
880990.8776213906,7893.5547,-121272.016,-39309.977,-34887.613,-65429.445,-37854.25,-77582.32,10762.817
880990.8816213885,7888.4277,-121279.79,-39308.758,-34884.93,-65424.645,-37847.574,-77575.766,10778.728
880990.8856213863,7885.9863,-121280.36,-39302.652,-34884.727,-65420.004,-37844.688,-77570.56,10786.865
880990.8896213842,7886.8003,-121281.664,-39301.92,-34884.605,-65418.38,-37841.715,-77569.91,10781.006
880990.8936213821,7886.963,-121289.92,-39310.793,-34888.387,-65420.777,-37840.17,-77571.78,10772.421
880990.8976213799,7886.8003,-121288.336,-39314.21,-34888.47,-65411.34,-37836.63,-77567.18,10783.041
880990.9016213778,7887.4106,-121283.695,-39308.105,-34885.133,-65396.566,-37833.945,-77564.74,10792.358
880990.9056213757,7887.492,-121281.375,-39302.41,-34886.637,-65395.957,-37832.4,-77565.76,10788.94
880990.9096213735,7891.805,-121278.0,-39304.527,-34887.37,-65399.254,-37831.098,-77567.875,10786.784
880990.9136213714,7895.549,-121283.33,-39308.434,-34886.355,-65403.77,-37831.383,-77568.85,10780.3955
880990.9176213692,7896.7285,-121284.06,-39305.258,-34885.824,-65403.2,-37830.445,-77569.26,10784.872
880990.9216213671,7897.461,-121272.26,-39297.812,-34882.855,-65395.957,-37827.883,-77567.1,10789.836
880990.925621365,7899.089,-121270.43,-39291.953,-34883.3,-65388.88,-37827.027,-77567.34,10791.626
880990.9296213628,7900.1875,-121278.445,-39293.254,-34884.117,-65392.457,-37825.684,-77568.08,10792.603
880990.9336213607,7903.3203,-121284.63,-39298.258,-34887.332,-65399.62,-37825.562,-77572.67,10783.244
880990.9376213585,7909.302,-121279.79,-39298.383,-34886.15,-65401.734,-37825.4,-77576.055,10779.948
880990.9416213564,7908.0,-121275.96,-39293.906,-34881.348,-65397.055,-37824.3,-77575.36,10785.197
880990.9456213543,7900.635,-121280.484,-39286.258,-34880.25,-65394.74,-37822.227,-77573.734,10791.83
880990.9496213521,7899.8213,-121274.984,-39284.426,-34881.348,-65393.637,-37821.535,-77578.01,10779.704
880990.95362135,7902.303,-121275.27,-39293.5,-34884.277,-65393.84,-37822.594,-77583.13,10757.895
880990.9576213479,7903.28,-121275.76,-39297.977,-34885.133,-65400.188,-37823.773,-77581.1,10758.545
880990.9616213458,7906.0874,-121271.33,-39295.41,-34880.984,-65391.195,-37823.367,-77574.055,10770.224
880990.9656213437,7904.2563,-121271.57,-39290.773,-34879.883,-65394.9,-37820.76,-77567.586,10779.501
880990.9696213416,7900.5537,-121278.24,-39290.324,-34881.633,-65407.72,-37819.95,-77564.58,10779.135
880990.9736213394,7899.4956,-121282.76,-39298.91,-34885.5,-65433.758,-37822.47,-77569.22,10766.357
880990.9776213373,7903.4834,-121279.87,-39303.062,-34884.81,-65443.156,-37824.87,-77573.33,10763.225
880990.9816213351,7902.954,-121276.94,-39301.11,-34882.652,-65430.87,-37824.383,-77571.49,10774.74
880990.985621333,7897.38,-121282.19,-39297.61,-34884.117,-65415.855,-37825.562,-77567.63,10784.506
880990.9896213309,7897.258,-121286.13,-39303.305,-34888.67,-65422.12,-37829.02,-77571.125,10777.751
880990.9936213287,7899.6177,-121285.98,-39309.285,-34891.887,-65427.9,-37831.95,-77575.195,10765.829
880990.9976213266,7902.2627,-121282.23,-39309.53,-34891.848,-65431.52,-37830.934,-77570.805,10773.356
880991.0016213245,7901.8555,-121275.805,-39304.65,-34887.656,-65425.906,-37828.98,-77562.79,10791.464
880991.0056213223,7900.798,-121268.64,-39294.92,-34881.633,-65416.547,-37825.6,-77553.55,10804.565
880991.0096213202,7905.1924,-121269.21,-39293.297,-34882.285,-65416.344,-37825.24,-77551.15,10801.188
880991.013621318,7911.54,-121272.46,-39299.277,-34883.914,-65414.633,-37826.375,-77551.516,10793.376
880991.0176213159,7911.743,-121272.75,-39299.4,-34885.418,-65413.656,-37827.555,-77551.31,10797.812
880991.0216213138,7910.1973,-121271.85,-39294.35,-34884.277,-65421.43,-37828.613,-77551.516,10800.659
880991.0256213116,7907.0234,-121272.67,-39290.082,-34882.938,-65430.258,-37829.715,-77551.68,10805.014
880991.0296213095,7903.076,-121278.77,-39292.727,-34887.047,-65431.316,-37828.656,-77554.12,10799.032
880991.0336213073,7900.757,-121285.28,-39303.67,-34891.562,-65436.85,-37831.42,-77563.93,10771.851
880991.0376213052,7903.0356,-121286.016,-39306.438,-34890.18,-65444.133,-37832.97,-77565.39,10769.206
880991.0416213031,7902.181,-121278.57,-39302.938,-34886.883,-65439.617,-37832.723,-77560.38,10782.878
880991.0456213009,7898.6006,-121271.9,-39298.18,-34884.605,-65434.855,-37832.36,-77558.02,10791.057
880991.0496212988,7903.076,-121268.805,-39297.895,-34885.703,-65434.613,-37835.164,-77561.65,10776.327
880991.0536212967,7898.926,-121275.84,-39308.96,-34892.54,-65441.57,-37837.16,-77564.336,10768.066
880991.0576212945,7894.1245,-121278.41,-39315.88,-34892.62,-65446.168,-37836.344,-77563.68,10767.538
880991.0616212924,7893.636,-121275.92,-39311.93,-34887.86,-65443.32,-37835.652,-77563.88,10769.45
880991.0656212902,7892.375,-121274.664,-39305.3,-34885.01,-65438.273,-37836.305,-77563.07,10773.193
880991.0696212881,7890.625,-121275.15,-39304.77,-34886.434,-65436.242,-37838.297,-77564.21,10767.131
880991.073621286,7890.991,-121274.055,-39310.387,-34890.055,-65436.934,-37840.617,-77567.43,10757.487
880991.0776212838,7895.0195,-121270.875,-39311.363,-34887.656,-65440.637,-37840.74,-77564.01,10762.451
880991.0816212817,7897.258,-121271.37,-39304.688,-34886.23,-65439.008,-37840.82,-77560.67,10775.024
880991.0856212795,7892.8223,-121275.805,-39297.12,-34887.29,-65437.867,-37839.684,-77555.586,10786.825
880991.0896212774,7890.1777,-121279.95,-39298.137,-34888.062,-65438.273,-37839.113,-77552.25,10788.778
880991.0936212753,7898.031,-121272.305,-39303.55,-34889.04,-65440.797,-37841.434,-77553.47,10779.135
880991.0976212731,7906.291,-121265.836,-39301.598,-34886.8,-65439.293,-37840.414,-77547.9,10782.1045
880991.101621271,7908.203,-121265.51,-39290.49,-34884.277,-65438.926,-37838.785,-77541.34,10791.586
880991.1056212689,7906.047,-121272.38,-39284.344,-34886.477,-65439.332,-37837.89,-77538.086,10796.469
880991.1096212667,7899.211,-121282.8,-39289.715,-34890.586,-65441.285,-37837.402,-77540.37,10787.761
880991.1136212646,7901.042,-121285.77,-39298.22,-34894.246,-65454.145,-37839.52,-77543.3,10780.925
880991.1176212624,7907.959,-121274.83,-39300.457,-34889.0,-65447.227,-37840.25,-77541.71,10787.558
880991.1216212603,7906.535,-121268.4,-39297.61,-34887.332,-65443.035,-37838.38,-77539.875,10795.492
880991.1256212582,7899.292,-121275.39,-39295.047,-34888.348,-65441.652,-37836.59,-77535.97,10801.758
880991.1296212561,7892.009,-121283.45,-39298.87,-34891.48,-65445.76,-37837.32,-77533.77,10800.293
880991.133621254,7890.1777,-121290.25,-39304.65,-34898.562,-65454.957,-37840.617,-77538.58,10792.48
880991.1376212519,7899.211,-121285.08,-39308.105,-34897.3,-65453.004,-37841.758,-77540.695,10786.947
880991.1416212497,7899.7397,-121280.64,-39306.07,-34893.637,-65445.03,-37841.15,-77539.11,10793.62
880991.1456212476,7896.5254,-121278.85,-39299.562,-34891.24,-65434.043,-37837.363,-77537.48,10799.4795
880991.1496212455,7897.258,-121277.43,-39297.16,-34891.766,-65440.105,-37836.957,-77539.76,10792.196
880991.1536212433,7896.0776,-121277.14,-39304.973,-34894.29,-65452.11,-37837.242,-77544.11,10774.252
880991.1576212412,7897.705,-121277.1,-39306.07,-34893.27,-65452.76,-37836.996,-77544.234,10768.352
880991.161621239,7899.7397,-121275.35,-39296.43,-34889.527,-65445.19,-37837.08,-77542.85,10775.473
880991.1656212369,7899.6177,-121277.1,-39289.188,-34889.566,-65436.73,-37836.508,-77541.38,10780.151
880991.1696212348,7898.397,-121283.86,-39296.266,-34894.246,-65442.06,-37839.438,-77545.86,10766.5205
880991.1736212326,7896.6064,-121290.81,-39306.6,-34896.28,-65451.01,-37842.33,-77550.01,10755.046
880991.1776212305,7895.0195,-121291.79,-39312.99,-34895.1,-65448.895,-37843.71,-77550.3,10756.755
880991.1816212283,7891.195,-121291.38,-39306.4,-34890.83,-65437.42,-37841.594,-77545.53,10768.393
880991.1856212262,7890.9507,-121286.586,-39296.47,-34888.754,-65430.137,-37838.785,-77540.04,10776.896
880991.1896212241,7892.131,-121283.45,-39289.918,-34892.008,-65433.84,-37839.56,-77539.516,10776.489
880991.1936212219,7891.805,-121289.836,-39304.85,-34897.016,-65446.453,-37841.88,-77543.09,10770.915
880991.1976212198,7895.3047,-121292.24,-39320.516,-34896.324,-65449.71,-37841.473,-77538.695,10779.46
880991.2016212177,7896.3623,-121289.02,-39309.734,-34891.562,-65438.887,-37839.316,-77531.414,10796.184
880991.2056212155,7893.4326,-121284.95,-39298.34,-34890.83,-65432.902,-37837.688,-77527.305,10805.298
880991.2096212134,7897.868,-121283.29,-39297.77,-34891.36,-65437.707,-37839.113,-77530.4,10794.312
880991.2136212112,7899.1294,-121289.23,-39301.637,-34894.043,-65444.62,-37842.977,-77535.484,10782.715
880991.2176212091,7900.635,-121286.5,-39296.305,-34891.156,-65445.316,-37843.18,-77534.63,10781.901
880991.221621207,7896.7695,-121284.51,-39295.98,-34888.387,-65441.977,-37845.38,-77533.98,10785.563
880991.2256212048,7893.8804,-121292.08,-39295.125,-34889.895,-65442.508,-37847.008,-77535.36,10787.72
880991.2296212027,7895.1416,-121304.08,-39293.375,-34891.03,-65445.11,-37847.617,-77534.47,10788.412
880991.2336212005,7899.9434,-121302.49,-39302.816,-34893.312,-65453.656,-37849.082,-77536.18,10777.507
880991.2376211984,7901.6523,-121294.516,-39306.805,-34893.23,-65452.76,-37849.164,-77534.38,10782.675
880991.2416211963,7894.4907,-121293.46,-39297.566,-34889.285,-65446.332,-37845.543,-77527.75,10802.653
880991.2456211941,7893.921,-121291.75,-39291.75,-34888.31,-65441.53,-37844.44,-77526.734,10804.892
880991.249621192,7899.089,-121289.76,-39293.05,-34889.566,-65445.355,-37845.5,-77528.65,10797.7705
880991.2536211899,7902.3438,-121291.75,-39300.7,-34891.727,-65456.992,-37848.188,-77534.016,10783.569
880991.2576211877,7904.297,-121297.98,-39304.527,-34894.29,-65464.805,-37851.848,-77541.55,10773.031
880991.2616211856,7902.629,-121295.66,-39301.883,-34890.504,-65457.6,-37850.992,-77539.875,10778.442
880991.2656211834,7898.8853,-121289.35,-39296.43,-34888.754,-65452.434,-37849.734,-77540.53,10776.53
880991.2696211813,7893.5957,-121291.305,-39296.348,-34893.434,-65458.336,-37851.117,-77545.82,10757.609
880991.2736211792,7895.427,-121294.92,-39300.58,-34893.598,-65469.566,-37854.207,-77550.375,10744.223
880991.277621177,7899.0073,-121291.67,-39306.48,-34892.008,-65476.44,-37857.26,-77547.98,10745.81
880991.2816211749,7895.671,-121293.13,-39297.527,-34888.59,-65468.914,-37856.812,-77540.61,10758.342
880991.2856211727,7895.1826,-121290.77,-39294.477,-34887.74,-65465.13,-37856.0,-77536.54,10775.595
880991.2896211706,7900.35,-121288.54,-39298.504,-34892.05,-65474.53,-37858.277,-77536.99,10778.564
880991.2936211686,7903.28,-121292.56,-39304.08,-34896.484,-65483.44,-37859.863,-77538.82,10768.474
880991.2976211664,7907.715,-121288.91,-39306.438,-34895.266,-65483.32,-37862.305,-77540.2,10768.799
880991.3016211643,7906.3315,-121283.414,-39300.66,-34890.83,-65478.52,-37860.758,-77533.164,10793.579
880991.3056211622,7899.3735,-121287.195,-39294.68,-34891.48,-65472.82,-37859.01,-77528.484,10801.514
880991.30962116,7899.7803,-121289.63,-39295.086,-34891.44,-65477.867,-37859.99,-77533.2,10789.226
880991.3136211579,7904.704,-121284.47,-39301.72,-34892.05,-65484.5,-37862.71,-77536.42,10780.6
880991.3176211558,7906.5757,-121284.43,-39306.03,-34896.04,-65485.8,-37866.66,-77542.16,10768.2705
880991.3216211536,7907.756,-121283.125,-39297.28,-34892.457,-65478.477,-37867.88,-77546.23,10772.583
880991.3256211515,7905.925,-121278.77,-39296.957,-34889.895,-65473.188,-37868.695,-77547.08,10773.356
880991.3296211493,7901.8555,-121277.305,-39302.33,-34891.44,-65476.973,-37870.65,-77548.79,10763.51
880991.3336211472,7905.6396,-121279.26,-39304.08,-34894.492,-65488.895,-37870.77,-77549.484,10754.232
880991.3376211451,7906.9824,-121283.66,-39297.65,-34893.758,-65498.332,-37868.734,-77543.22,10761.76
880991.3416211429,7902.832,-121288.086,-39294.312,-34892.78,-65504.316,-37865.113,-77537.31,10776.9375
880991.3456211408,7899.4956,-121293.26,-39293.582,-34894.043,-65510.336,-37865.805,-77536.26,10774.333
880991.3496211387,7901.5303,-121291.875,-39297.363,-34895.348,-65512.25,-37865.64,-77537.6,10766.439
880991.3536211365,7900.2686,-121294.4,-39308.92,-34897.34,-65521.527,-37866.902,-77538.25,10754.232
880991.3576211344,7898.4375,-121299.28,-39313.805,-34897.42,-65524.58,-37866.58,-77533.695,10753.744
880991.3616211322,7895.7114,-121298.47,-39307.7,-34895.426,-65516.727,-37863.61,-77524.7,10771.647
880991.3656211301,7892.497,-121297.125,-39299.36,-34895.914,-65511.844,-37861.777,-77519.695,10783.732
880991.369621128,7892.212,-121300.26,-39297.04,-34899.742,-65517.215,-37862.02,-77522.625,10777.466
880991.3736211258,7885.946,-121312.75,-39308.434,-34904.625,-65527.508,-37863.445,-77528.52,10761.882
880991.3776211237,7884.6846,-121312.914,-39312.625,-34901.285,-65527.67,-37863.527,-77529.5,10763.794
880991.3816211215,7888.4688,-121304.98,-39305.707,-34894.29,-65516.277,-37861.086,-77525.72,10776.611
880991.3856211194,7890.3403,-121301.03,-39302.246,-34894.695,-65514.57,-37862.918,-77524.375,10787.069
880991.3896211173,7895.9556,-121296.02,-39304.08,-34896.527,-65518.19,-37865.074,-77528.0,10776.001
880991.3936211151,7902.954,-121299.32,-39312.46,-34900.96,-65526.734,-37867.473,-77533.125,10769.369
880991.397621113,7902.751,-121297.65,-39309.53,-34900.066,-65524.54,-37868.9,-77534.14,10767.578
880991.4016211109,7898.967,-121293.945,-39300.78,-34895.062,-65515.016,-37865.64,-77528.12,10777.507
880991.4056211087,7898.397,-121291.1,-39295.574,-34894.53,-65509.36,-37864.016,-77524.7,10790.649
880991.4096211066,7901.042,-121285.24,-39300.496,-34896.324,-65508.914,-37867.8,-77529.586,10781.698
880991.4136211044,7901.8555,-121289.23,-39311.566,-34898.234,-65517.215,-37870.16,-77533.9,10770.549
880991.4176211023,7901.123,-121296.35,-39307.496,-34898.277,-65521.527,-37871.46,-77537.68,10761.475
880991.4216211002,7903.9717,-121291.266,-39297.445,-34895.305,-65514.69,-37870.73,-77536.09,10764.934
880991.425621098,7901.6523,-121293.22,-39298.625,-34897.016,-65519.25,-37870.242,-77535.28,10763.591
880991.4296210959,7897.5425,-121298.38,-39303.508,-34900.555,-65524.254,-37872.195,-77539.63,10749.064
880991.4336210937,7894.165,-121300.42,-39311.32,-34903.402,-65530.684,-37874.51,-77541.305,10741.252
880991.4376210916,7899.536,-121301.07,-39309.0,-34901.492,-65533.816,-37874.96,-77538.49,10744.426
880991.4416210895,7901.693,-121300.74,-39303.914,-34895.996,-65527.754,-37874.39,-77533.41,10757.406
880991.4456210873,7899.9023,-121305.46,-39308.88,-34895.305,-65523.723,-37874.637,-77534.14,10755.087
880991.4496210852,7895.101,-121313.84,-39315.188,-34899.7,-65528.812,-37875.203,-77536.74,10742.88
880991.453621083,7887.492,-121324.1,-39320.11,-34906.375,-65541.55,-37875.406,-77537.84,10739.502
880991.457621081,7880.941,-121330.77,-39313.113,-34909.344,-65545.25,-37876.383,-77536.7,10744.792
880991.4616210789,7880.534,-121324.875,-39313.273,-34906.25,-65537.64,-37876.1,-77533.164,10749.675
880991.4656210768,7885.3354,-121312.55,-39310.75,-34905.887,-65531.332,-37875.285,-77530.805,10757.568
880991.4696210746,7889.2417,-121311.81,-39310.14,-34907.473,-65534.508,-37877.848,-77532.836,10749.064
880991.4736210725,7888.957,-121316.45,-39317.02,-34909.953,-65538.86,-37880.21,-77536.79,10736.288
880991.4776210703,7887.5327,-121322.8,-39319.664,-34909.426,-65544.64,-37880.574,-77534.875,10741.089
880991.4816210682,7890.544,-121314.25,-39310.59,-34902.305,-65534.832,-37880.7,-77532.35,10751.791
880991.4856210661,7887.9805,-121311.52,-39303.223,-34901.367,-65529.504,-37880.535,-77532.88,10758.179
880991.4896210639,7887.004,-121310.1,-39303.754,-34904.215,-65531.863,-37881.96,-77539.63,10743.327
880991.4936210618,7888.2246,-121308.44,-39318.117,-34907.715,-65537.84,-37884.81,-77546.35,10730.225
880991.4976210597,7889.6895,-121309.37,-39319.62,-34907.145,-65542.65,-37885.297,-77544.44,10732.382
880991.5016210575,7889.974,-121312.625,-39306.844,-34903.566,-65533.33,-37884.277,-77538.21,10749.96
880991.5056210554,7891.7646,-121311.69,-39300.418,-34901.004,-65526.574,-37883.504,-77535.36,10761.353
880991.5096210532,7893.026,-121306.44,-39298.22,-34904.543,-65532.797,-37884.36,-77539.39,10759.399
880991.5136210511,7895.3857,-121304.77,-39308.51,-34908.285,-65540.734,-37886.92,-77545.49,10749.35
880991.517621049,7898.275,-121306.85,-39313.723,-34906.21,-65546.15,-37889.566,-77547.24,10749.1455
880991.5216210468,7897.38,-121306.93,-39305.094,-34899.496,-65535.566,-37887.125,-77540.24,10766.317
880991.5256210447,7897.7866,-121308.31,-39297.324,-34896.12,-65526.98,-37885.906,-77534.47,10775.554
880991.5296210425,7896.159,-121315.68,-39302.37,-34900.88,-65538.375,-37887.695,-77539.06,10751.059
880991.5336210404,7893.799,-121321.29,-39316.285,-34905.273,-65552.25,-37891.48,-77543.99,10731.283
880991.5376210383,7893.636,-121323.734,-39320.312,-34907.105,-65560.95,-37892.17,-77545.33,10727.946
880991.5416210361,7892.009,-121322.11,-39307.945,-34904.34,-65545.29,-37888.715,-77537.97,10744.711
880991.545621034,7898.275,-121317.51,-39298.79,-34903.117,-65532.27,-37885.01,-77532.63,10749.919
880991.5496210319,7898.6816,-121318.77,-39304.688,-34907.96,-65536.54,-37886.312,-77538.414,10733.643
880991.5536210297,7896.159,-121318.65,-39316.45,-34912.234,-65539.67,-37885.703,-77543.22,10715.576
880991.5576210276,7896.7285,-121322.516,-39319.297,-34910.44,-65523.4,-37885.99,-77544.11,10711.833
880991.5616210254,7896.2812,-121323.53,-39312.99,-34905.887,-65514.0,-37883.06,-77538.984,10723.918
880991.5656210233,7895.0195,-121321.45,-39307.008,-34905.355,-65486.125,-37879.844,-77534.75,10739.38
880991.5696210212,7898.031,-121320.36,-39305.91,-34910.402,-65475.832,-37879.07,-77539.06,10730.632
880991.573621019,7907.186,-121314.58,-39309.33,-34910.562,-65480.227,-37878.258,-77545.695,10716.391
880991.5776210169,7909.79,-121316.82,-39314.94,-34909.26,-65484.824,-37875.043,-77545.945,10721.802
880991.5816210147,7907.186,-121319.55,-39315.88,-34908.285,-65481.324,-37869.508,-77543.945,10733.073
880991.5856210126,7907.756,-121315.555,-39309.734,-34907.105,-65475.953,-37865.234,-77544.48,10735.84
880991.5896210105,7910.8076,-121311.85,-39310.06,-34908.285,-65473.31,-37863.08,-77547.33,10725.18
880991.5936210083,7917.6436,-121315.68,-39314.453,-34910.562,-65475.14,-37861.613,-77551.516,10710.815
880991.5976210062,7919.3115,-121314.3,-39314.94,-34910.156,-65469.035,-37858.645,-77549.4,10716.146
880991.601621004,7918.8643,-121311.734,-39310.387,-34905.234,-65463.46,-37854.86,-77545.375,10731.894
880991.6056210019,7915.5273,-121311.52,-39307.7,-34904.01,-65465.336,-37850.504,-77546.06,10735.718
880991.6096209998,7911.947,-121317.8,-39307.58,-34908.12,-65453.492,-37849.977,-77553.67,10720.175
880991.6136209976,7912.435,-121324.99,-39318.36,-34913.37,-65466.066,-37851.605,-77562.75,10704.997
880991.6176209955,7914.8765,-121325.65,-39322.594,-34911.746,-65469.605,-37849.812,-77560.63,10709.025
880991.6216209935,7908.529,-121326.664,-39315.473,-34907.51,-65461.71,-37846.64,-77553.8,10730.347
880991.6256209913,7906.5757,-121329.31,-39313.52,-34907.918,-65447.918,-37844.727,-77551.27,10740.927
880991.6296209892,7907.837,-121325.97,-39320.23,-34909.223,-65444.297,-37842.53,-77551.555,10732.138
880991.6336209871,7905.477,-121329.15,-39332.277,-34912.477,-65451.336,-37841.758,-77551.64,10724.081
880991.6376209849,7904.541,-121333.09,-39334.473,-34910.77,-65456.098,-37840.17,-77551.03,10723.267
880991.6416209828,7903.4424,-121332.28,-39329.793,-34908.285,-65442.426,-37839.234,-77548.42,10728.3125
880991.6456209806,7902.2217,-121333.54,-39327.555,-34914.023,-65447.633,-37837.566,-77549.69,10726.889
880991.6496209785,7901.123,-121335.734,-39331.137,-34918.906,-65458.457,-37839.684,-77556.805,10713.745
880991.6536209764,7893.1885,-121349.45,-39345.543,-34922.85,-65464.723,-37842.69,-77560.266,10695.19
880991.6576209742,7891.0728,-121353.234,-39351.035,-34922.04,-65467.004,-37841.84,-77557.01,10699.504
880991.6616209721,7897.2983,-121336.875,-39337.527,-34913.86,-65449.223,-37838.297,-77548.664,10713.135
880991.66562097,7901.8965,-121328.414,-39329.996,-34909.383,-65437.504,-37836.832,-77543.26,10723.633
880991.6696209678,7907.5522,-121324.914,-39332.723,-34912.07,-65450.645,-37839.355,-77546.96,10715.048
880991.6736209657,7912.7607,-121327.4,-39339.684,-34916.465,-65465.13,-37842.082,-77551.03,10705.526
880991.6776209635,7912.7607,-121324.75,-39344.156,-34915.406,-65459.883,-37844.402,-77551.234,10705.893
880991.6816209614,7908.2847,-121324.836,-39337.32,-34911.176,-65456.098,-37843.465,-77547.484,10721.029
880991.6856209593,7905.5586,-121330.734,-39332.316,-34910.562,-65447.27,-37841.066,-77543.91,10729.899
880991.6896209571,7906.0874,-121336.59,-39332.438,-34912.68,-65460.086,-37841.96,-77546.67,10722.819
880991.693620955,7911.7026,-121335.82,-39341.105,-34915.895,-65477.176,-37845.34,-77556.195,10707.968
880991.6976209529,7912.964,-121335.414,-39348.105,-34916.63,-65486.86,-37849.652,-77562.87,10697.592
880991.7016209507,7908.244,-121336.266,-39340.414,-34913.98,-65479.74,-37849.0,-77559.49,10704.143
880991.7056209486,7901.3267,-121338.1,-39333.457,-34916.668,-65474.406,-37847.13,-77555.625,10713.501
880991.7096209464,7899.3735,-121342.62,-39336.793,-34919.516,-65478.64,-37848.836,-77558.76,10701.213
880991.7136209443,7901.4487,-121342.086,-39347.7,-34920.9,-65477.46,-37853.07,-77565.06,10687.582
880991.7176209422,7902.1406,-121336.63,-39351.81,-34919.395,-65482.344,-37855.266,-77568.04,10687.256
880991.72162094,7903.768,-121328.984,-39344.363,-34913.902,-65468.71,-37853.965,-77564.336,10706.259
880991.7256209379,7906.82,-121325.85,-39333.984,-34911.582,-65461.633,-37852.05,-77563.03,10715.82
880991.7296209357,7906.372,-121330.94,-39334.39,-34915.73,-65470.867,-37852.5,-77565.15,10713.135
880991.7336209336,7907.959,-121340.74,-39344.402,-34921.957,-65488.566,-37855.918,-77571.01,10702.148
880991.7376209315,7912.191,-121341.15,-39344.523,-34921.715,-65492.066,-37854.98,-77572.35,10702.189
880991.7416209293,7915.161,-121335.734,-39334.676,-34914.55,-65480.918,-37850.992,-77566.98,10711.752
880991.7456209272,7912.5977,-121334.555,-39331.098,-34913.086,-65472.008,-37848.676,-77564.82,10712.077
880991.749620925,7907.593,-121336.15,-39335.492,-34915.406,-65468.71,-37848.062,-77568.195,10699.463
880991.7536209229,7908.4067,-121338.42,-39340.25,-34915.812,-65479.574,-37849.45,-77571.17,10684.814
880991.7576209208,7906.128,-121338.22,-39341.27,-34916.016,-65486.613,-37849.61,-77571.54,10682.861
880991.7616209186,7901.6113,-121335.82,-39338.258,-34915.0,-65473.15,-37848.145,-77567.914,10691.691
880991.7656209165,7900.35,-121336.836,-39335.734,-34916.504,-65466.84,-37847.168,-77564.05,10698.8125
880991.7696209144,7905.0703,-121335.49,-39335.367,-34917.766,-65464.195,-37847.25,-77564.91,10693.278
880991.7736209122,7907.634,-121335.62,-39344.566,-34921.59,-65477.5,-37850.75,-77570.68,10680.827
880991.7776209101,7902.1406,-121336.96,-39349.895,-34920.29,-65488.363,-37850.016,-77563.11,10693.278
880991.781620908,7899.8213,-121331.95,-39343.71,-34916.547,-65475.508,-37847.25,-77553.39,10709.636
880991.7856209059,7897.99,-121327.92,-39335.125,-34916.14,-65469.484,-37844.727,-77546.67,10718.303
880991.7896209038,7898.4785,-121331.1,-39338.95,-34918.094,-65478.152,-37844.484,-77544.64,10718.222
880991.7936209016,7901.6113,-121342.77,-39351.89,-34921.51,-65492.72,-37847.25,-77550.62,10705.7295
880991.7976208995,7905.5586,-121340.09,-39354.574,-34919.56,-65486.695,-37848.55,-77554.28,10701.579
880991.8016208974,7902.2627,-121337.28,-39344.645,-34913.168,-65469.242,-37848.348,-77554.77,10708.496
880991.8056208952,7900.594,-121334.07,-39339.4,-34911.258,-65450.2,-37846.438,-77554.41,10708.578
880991.8096208931,7900.757,-121335.05,-39343.71,-34913.777,-65456.3,-37848.39,-77557.74,10701.742
880991.813620891,7902.6694,-121339.64,-39351.848,-34916.953,-65465.336,-37850.87,-77560.71,10692.993
880991.8176208888,7907.43,-121338.79,-39353.395,-34914.39,-65473.066,-37849.895,-77559.66,10688.559
880991.8216208867,7907.4707,-121337.24,-39347.496,-34911.99,-65469.32,-37848.758,-77557.54,10704.265
880991.8256208845,7907.0234,-121336.555,-39338.22,-34911.906,-65465.375,-37846.926,-77552.125,10719.116
880991.8296208824,7907.878,-121339.03,-39340.008,-34914.39,-65461.266,-37846.273,-77555.14,10705.038
880991.8336208803,7906.9014,-121345.26,-39350.3,-34918.742,-65463.504,-37848.55,-77559.695,10694.255
880991.8376208781,7903.768,-121346.12,-39356.65,-34919.273,-65472.902,-37849.855,-77558.555,10694.54
880991.841620876,7901.5303,-121342.086,-39345.176,-34915.934,-65464.316,-37847.25,-77549.73,10714.641
880991.8456208738,7901.8555,-121344.65,-39336.71,-34916.18,-65461.918,-37846.56,-77547.08,10723.796
880991.8496208717,7901.571,-121349.94,-39345.133,-34923.465,-65472.66,-37850.26,-77554.28,10712.81
880991.8536208696,7900.2686,-121353.84,-39359.09,-34928.184,-65482.504,-37854.9,-77562.55,10700.562
880991.8576208674,7899.8213,-121350.586,-39361.53,-34925.09,-65475.547,-37854.98,-77566.164,10694.824
880991.8616208653,7897.502,-121349.05,-39350.344,-34917.645,-65465.457,-37851.848,-77562.016,10704.55
880991.8656208632,7894.857,-121347.87,-39344.484,-34915.242,-65466.188,-37849.367,-77558.07,10710.531
880991.869620861,7892.2935,-121351.98,-39348.758,-34916.465,-65470.42,-37849.57,-77560.305,10698.08
880991.8736208589,7892.741,-121359.91,-39360.598,-34920.94,-65480.105,-37852.703,-77565.72,10679.729
880991.8776208567,7887.492,-121370.65,-39364.383,-34925.375,-65481.73,-37854.574,-77567.1,10670.085
880991.8816208546,7882.6094,-121373.05,-39360.598,-34921.51,-65478.76,-37853.273,-77560.836,10684.733
880991.8856208525,7885.498,-121355.92,-39352.785,-34916.42,-65468.996,-37850.953,-77554.98,10699.301
880991.8896208503,7899.7397,-121343.266,-39352.867,-34918.99,-65470.543,-37853.395,-77559.25,10691.65
880991.8936208482,7895.0195,-121356.04,-39366.293,-34924.766,-65483.195,-37856.895,-77565.35,10677.45
880991.897620846,7892.5376,-121357.47,-39372.113,-34924.562,-65490.97,-37858.113,-77566.41,10672.974
880991.9016208439,7897.054,-121345.5,-39358.523,-34914.88,-65476.848,-37854.656,-77557.25,10687.175
880991.9056208418,7895.0195,-121337.04,-39350.87,-34913.7,-65475.465,-37851.93,-77551.234,10701.864
880991.9096208396,7894.735,-121335.734,-39355.55,-34918.215,-65484.17,-37852.742,-77552.82,10694.906
880991.9136208375,7897.1763,-121340.17,-39365.805,-34922.65,-65480.836,-37853.92,-77555.664,10683.757
880991.9176208354,7901.937,-121345.09,-39369.344,-34921.47,-65480.594,-37854.492,-77554.32,10686.605
880991.9216208332,7898.641,-121342.57,-39365.4,-34915.445,-65471.52,-37851.605,-77549.03,10703.491
880991.9256208311,7898.7227,-121338.055,-39350.953,-34912.883,-65463.91,-37850.016,-77542.69,10718.1
880991.929620829,7900.5537,-121340.984,-39354.74,-34917.277,-65468.754,-37850.504,-77543.87,10712.81
880991.9336208268,7899.0073,-121354.414,-39370.28,-34924.156,-65488.406,-37853.844,-77547.98,10702.108
880991.9376208247,7902.385,-121356.04,-39375.406,-34924.195,-65489.83,-37856.0,-77549.4,10702.963
880991.9416208225,7905.0293,-121344.89,-39362.836,-34917.645,-65478.883,-37852.742,-77543.7,10715.332
880991.9456208204,7903.28,-121341.15,-39357.137,-34917.81,-65470.46,-37851.97,-77542.16,10722.656
880991.9496208184,7902.3438,-121340.21,-39359.5,-34920.207,-65471.152,-37853.56,-77543.336,10716.635
880991.9536208162,7902.873,-121343.875,-39365.52,-34922.73,-65475.71,-37855.957,-77546.23,10705.7295
880991.9576208141,7905.111,-121340.17,-39365.723,-34921.957,-65482.14,-37857.34,-77546.39,10701.213
880991.961620812,7908.8545,-121332.85,-39356.895,-34916.42,-65474.406,-37857.137,-77543.22,10709.555
880991.9656208098,7909.7495,-121335.695,-39351.97,-34918.17,-65475.344,-37857.953,-77543.17,10717.326
880991.9696208077,7914.3477,-121329.31,-39353.312,-34917.727,-65479.008,-37859.58,-77546.23,10712.973
880991.9736208055,7914.551,-121327.97,-39364.3,-34919.76,-65486.086,-37864.055,-77552.414,10698.527
880991.9776208034,7915.609,-121326.54,-39365.6,-34919.07,-65490.277,-37864.055,-77551.516,10698.446
880991.9816208013,7913.9,-121322.88,-39359.375,-34913.86,-65477.336,-37861.94,-77544.72,10712.321
880991.9856207991,7910.9297,-121325.36,-39355.918,-34913.414,-65471.76,-37858.316,-77541.914,10715.983
880991.989620797,7911.7026,-121328.086,-39354.656,-34917.48,-65481.527,-37856.12,-77548.586,10696.045
880991.9936207948,7912.9233,-121336.63,-39365.562,-34922.85,-65504.438,-37857.016,-77553.914,10680.258
880991.9976207927,7912.5977,-121339.64,-39368.855,-34920.086,-65511.11,-37856.363,-77551.72,10682.536
880992.0016207906,7912.7197,-121337.57,-39358.44,-34915.773,-65494.957,-37852.01,-77543.91,10696.167
880992.0056207884,7910.6855,-121338.055,-39350.63,-34916.953,-65487.145,-37849.652,-77538.49,10711.386
880992.0096207863,7912.1094,-121340.46,-39356.773,-34916.63,-65486.695,-37849.855,-77538.01,10703.044
880992.0136207842,7913.005,-121339.195,-39366.945,-34919.598,-65490.97,-37851.81,-77540.37,10686.687
880992.017620782,7912.1094,-121336.59,-39373.94,-34919.477,-65493.043,-37852.703,-77537.07,10690.43
880992.0216207799,7911.865,-121332.65,-39363.566,-34913.37,-65493.816,-37847.94,-77528.04,10712.158
880992.0256207777,7914.1035,-121330.445,-39357.504,-34912.844,-65489.137,-37846.477,-77525.27,10726.237
880992.0296207756,7916.382,-121328.62,-39356.0,-34916.344,-65489.668,-37848.145,-77526.734,10725.871
880992.0336207735,7916.748,-121326.42,-39360.23,-34918.99,-65496.176,-37850.586,-77530.234,10715.373
880992.0376207713,7921.3867,-121321.375,-39354.332,-34916.79,-65496.42,-37853.355,-77532.19,10712.565
880992.0416207692,7922.5264,-121317.23,-39341.066,-34910.44,-65487.51,-37853.395,-77530.03,10720.337
880992.045620767,7920.451,-121317.875,-39340.863,-34908.895,-65483.32,-37852.297,-77528.24,10733.154
880992.0496207649,7923.1772,-121319.38,-39349.527,-34913.86,-65495.363,-37855.31,-77533.695,10722.046
880992.0536207628,7920.2476,-121325.65,-39362.223,-34919.68,-65517.863,-37859.375,-77541.016,10707.072
880992.0576207606,7918.742,-121325.56,-39369.63,-34919.72,-65529.867,-37857.91,-77538.62,10710.49
880992.0616207585,7923.503,-121316.0,-39360.066,-34912.64,-65516.766,-37854.695,-77532.555,10718.1
880992.0656207564,7917.2363,-121322.8,-39352.54,-34913.414,-65511.8,-37852.5,-77528.61,10725.993
880992.0696207542,7918.4165,-121325.766,-39354.29,-34917.93,-65515.383,-37852.742,-77531.13,10714.56
880992.0736207521,7920.7764,-121326.336,-39364.504,-34920.33,-65526.125,-37853.76,-77534.23,10703.044
880992.07762075,7918.01,-121329.836,-39366.254,-34921.266,-65536.17,-37855.51,-77533.61,10703.125
880992.0816207478,7914.266,-121329.31,-39357.83,-34918.5,-65530.438,-37853.92,-77528.16,10721.3545
880992.0856207457,7906.2095,-121337.445,-39356.242,-34920.086,-65529.992,-37852.01,-77523.805,10730.225
880992.0896207435,7904.419,-121345.42,-39359.824,-34921.67,-65536.99,-37852.906,-77526.49,10726.685
880992.0936207414,7916.8296,-121342.33,-39365.316,-34920.574,-65538.945,-37854.535,-77531.62,10712.932
880992.0976207393,7919.5557,-121341.72,-39363.445,-34920.004,-65542.195,-37856.49,-77531.74,10710.043
880992.1016207371,7912.679,-121343.67,-39359.5,-34918.703,-65537.805,-37854.492,-77525.516,10726.97
880992.105620735,7909.587,-121340.055,-39357.79,-34918.215,-65530.766,-37854.29,-77524.25,10730.185
880992.1096207328,7913.8594,-121336.63,-39364.992,-34918.824,-65528.402,-37854.492,-77529.46,10718.506
880992.1136207308,7919.963,-121340.414,-39374.96,-34920.535,-65535.65,-37855.43,-77532.92,10708.903
880992.1176207287,7912.7197,-121343.63,-39375.164,-34919.883,-65537.6,-37854.25,-77528.08,10709.229
880992.1216207265,7909.8716,-121336.51,-39358.6,-34916.06,-65525.11,-37852.05,-77521.85,10722.25
880992.1256207244,7923.5435,-121320.84,-39344.688,-34914.47,-65516.523,-37852.54,-77521.484,10721.151
880992.1296207223,7922.16,-121326.87,-39365.52,-34916.832,-65529.34,-37853.312,-77524.58,10711.996
880992.1336207201,7914.551,-121341.72,-39376.914,-34920.98,-65538.29,-37858.113,-77528.32,10705.119
880992.137620718,7922.5264,-121338.38,-39374.066,-34920.086,-65538.414,-37859.457,-77526.29,10713.461
880992.1416207158,7923.218,-121328.58,-39362.47,-34914.062,-65518.15,-37857.42,-77519.984,10730.103
880992.1456207137,7921.509,-121326.87,-39357.625,-34914.43,-65506.023,-37856.895,-77517.87,10734.05
880992.1496207116,7921.0205,-121332.08,-39355.715,-34917.727,-65507.61,-37856.406,-77518.68,10721.558
880992.1536207094,7926.9614,-121330.24,-39361.98,-34921.227,-65518.516,-37856.85,-77522.83,10716.309
880992.1576207073,7932.0884,-121325.08,-39363.973,-34918.785,-65521.527,-37857.79,-77521.734,10718.954
880992.1616207052,7927.8564,-121326.54,-39347.086,-34913.574,-65513.51,-37854.94,-77514.61,10731.039
880992.165620703,7925.863,-121327.48,-39334.72,-34915.12,-65518.15,-37853.273,-77509.04,10745.769
880992.1696207009,7925.985,-121335.78,-39351.89,-34920.816,-65535.035,-37856.285,-77515.18,10740.234
880992.1736206987,7929.7285,-121336.43,-39367.84,-34923.465,-65545.86,-37860.027,-77525.31,10712.199
880992.1776206966,7931.0713,-121335.375,-39370.65,-34920.535,-65540.57,-37861.33,-77530.97,10702.475
880992.1816206945,7930.461,-121329.92,-39363.688,-34915.324,-65525.395,-37860.19,-77528.93,10715.658
880992.1856206923,7927.165,-121328.78,-39359.742,-34915.895,-65520.67,-37860.19,-77526.414,10725.139
880992.1896206902,7927.938,-121329.39,-39364.586,-34918.17,-65519.9,-37860.11,-77528.77,10710.124
880992.193620688,7926.8394,-121332.56,-39379.355,-34922.934,-65531.496,-37862.793,-77533.9,10690.349
880992.1976206859,7920.8984,-121333.78,-39391.24,-34924.684,-65538.82,-37865.316,-77532.11,10692.668
880992.2016206838,7915.3647,-121324.914,-39385.457,-34920.004,-65530.195,-37863.242,-77523.484,10705.688
880992.2056206816,7915.487,-121319.87,-39365.805,-34918.99,-65529.016,-37860.066,-77517.7,10713.217
880992.2096206795,7923.2993,-121320.84,-39363.242,-34923.34,-65541.14,-37862.266,-77520.555,10704.59
880992.2136206774,7928.1416,-121319.95,-39372.152,-34926.555,-65552.695,-37864.46,-77524.87,10691.691
880992.2176206752,7920.3696,-121330.24,-39379.07,-34927.98,-65557.25,-37863.08,-77525.11,10686.687
880992.2216206731,7911.174,-121344.81,-39372.64,-34923.34,-65551.88,-37859.945,-77518.555,10698.08
880992.225620671,7917.44,-121336.02,-39360.598,-34921.918,-65551.07,-37858.24,-77511.35,10714.682
880992.2296206688,7923.625,-121330.0,-39360.312,-34926.473,-65554.445,-37860.19,-77512.375,10716.269
880992.2336206667,7927.4497,-121327.15,-39368.734,-34930.79,-65559.66,-37864.625,-77519.414,10697.185
880992.2376206645,7932.821,-121324.016,-39368.004,-34929.566,-65558.8,-37865.36,-77520.836,10702.637
880992.2416206624,7931.0303,-121321.17,-39358.36,-34927.652,-65549.36,-37863.73,-77517.54,10720.581
880992.2456206603,7922.567,-121324.71,-39356.65,-34929.688,-65547.77,-37862.836,-77516.44,10729.37
880992.2496206581,7922.6484,-121324.305,-39362.71,-34932.66,-65549.28,-37864.992,-77520.02,10719.971
880992.253620656,7933.6753,-121319.625,-39366.09,-34932.13,-65550.945,-37866.824,-77522.42,10708.74
880992.2576206538,7938.7617,-121314.664,-39364.664,-34927.86,-65539.02,-37865.684,-77520.96,10706.787
880992.2616206517,7930.298,-121319.625,-39359.99,-34925.863,-65526.004,-37861.574,-77514.08,10720.744
880992.2656206496,7921.631,-121330.81,-39355.062,-34930.258,-65515.87,-37857.87,-77509.93,10731.771
880992.2696206474,7923.503,-121330.734,-39359.58,-34935.914,-65501.832,-37856.773,-77513.266,10715.902
880992.2736206453,7928.2227,-121331.266,-39371.707,-34940.758,-65503.38,-37856.773,-77519.695,10702.515
880992.2776206431,7927.2056,-121339.56,-39376.26,-34945.19,-65511.68,-37855.55,-77521.12,10702.759
880992.2816206411,7934.896,-121333.375,-39366.496,-34942.02,-65494.836,-37850.547,-77518.72,10715.292
880992.285620639,7935.5063,-121332.97,-39364.258,-34943.848,-65485.23,-37847.13,-77520.305,10713.786
880992.2896206368,7928.9146,-121347.45,-39371.707,-34952.555,-65490.36,-37844.402,-77527.1,10695.639
880992.2936206347,7930.7456,-121354.25,-39377.81,-34959.23,-65491.293,-37842.367,-77532.43,10684.652
880992.2976206326,7938.68,-121349.66,-39378.133,-34958.375,-65480.023,-37838.094,-77533.66,10687.134
880992.3016206304,7939.8193,-121342.01,-39366.7,-34951.5,-65465.7,-37830.85,-77527.55,10701.864
880992.3056206283,7940.3076,-121337.77,-39361.125,-34949.42,-65455.69,-37828.25,-77526.0,10708.374
880992.3096206262,7943.9697,-121342.21,-39364.34,-34951.457,-65455.895,-37826.17,-77530.48,10698.202
880992.313620624,7941.732,-121347.336,-39373.7,-34955.895,-65463.625,-37824.625,-77534.23,10679.037
880992.3176206219,7936.4424,-121352.26,-39381.676,-34956.625,-65463.34,-37822.836,-77534.266,10674.194
880992.3216206197,7934.4893,-121354.54,-39373.535,-34953.086,-65450.605,-37819.785,-77529.87,10683.838
880992.3256206176,7934.53,-121358.36,-39368.492,-34953.656,-65443.645,-37815.31,-77529.055,10684.53
880992.3296206155,7930.6235,-121365.484,-39373.617,-34959.188,-65451.5,-37814.94,-77533.086,10671.631
880992.3336206133,7929.647,-121367.805,-39381.062,-34961.996,-65465.742,-37814.535,-77537.72,10660.93
880992.3376206112,7927.572,-121368.125,-39381.348,-34961.223,-65467.98,-37813.07,-77533.164,10668.905
880992.341620609,7929.3213,-121354.82,-39369.59,-34952.434,-65449.832,-37809.773,-77525.27,10684.774
880992.3456206069,7938.68,-121341.92,-39364.055,-34950.44,-65441.203,-37807.863,-77524.17,10697.104
880992.3496206048,7938.5176,-121347.62,-39372.56,-34955.445,-65447.676,-37810.344,-77529.75,10693.197
880992.3536206026,7934.6113,-121362.35,-39384.195,-34960.816,-65459.555,-37811.973,-77533.49,10687.704
880992.3576206005,7934.7334,-121359.945,-39383.63,-34957.723,-65460.53,-37812.258,-77531.05,10695.435
880992.3616205984,7938.1514,-121351.77,-39369.59,-34950.48,-65445.11,-37810.14,-77526.66,10716.309
