timestamp,Fp1,Fp2,F3,Fz,F4,Cz,Pz,Oz
801744.3334020107,-49829.957,-57427.29,-29611.045,-9197.0625,-35535.848,-39006.754,-52518.883,-18846.965
801744.337402006,-49832.4,-57428.387,-29612.305,-9199.667,-35533.53,-39004.395,-52508.18,-18836.223
801744.3414020014,-49836.266,-57430.586,-29612.387,-9202.026,-35532.35,-38999.51,-52502.24,-18828.98
801744.3454019967,-49845.055,-57438.926,-29617.066,-9205.7705,-35538.902,-38999.637,-52504.52,-18833.7
801744.3494019922,-49848.31,-57442.305,-29617.96,-9205.7295,-35540.324,-38997.844,-52502.605,-18834.27
801744.3534019875,-49845.746,-57440.27,-29615.846,-9204.468,-35535.89,-38998.21,-52499.066,-18834.27
801744.3574019829,-49839.887,-57435.996,-29613.12,-9203.125,-35534.832,-38998.414,-52498.863,-18832.154
801744.3614019782,-49838.582,-57435.344,-29612.346,-9202.475,-35536.785,-38998.375,-52503.5,-18835.084
801744.3654019736,-49841.27,-57439.535,-29614.096,-9204.59,-35540.934,-39000.49,-52513.062,-18844.402
801744.3694019689,-49841.23,-57439.66,-29613.852,-9204.143,-35542.727,-39003.95,-52519.9,-18850.506
801744.3734019643,-49834.27,-57432.824,-29608.44,-9201.945,-35540.69,-39003.176,-52520.633,-18848.512
801744.3774019596,-49829.145,-57428.47,-29605.389,-9200.48,-35536.785,-39003.746,-52523.195,-18854.818
801744.381401955,-49832.805,-57430.91,-29608.928,-9202.312,-35535.727,-39007.04,-52527.02,-18856.324
801744.3854019503,-49837.89,-57433.188,-29612.713,-9202.23,-35538.332,-39010.05,-52530.6,-18858.236
801744.3894019458,-49838.34,-57433.88,-29616.334,-9200.277,-35538.74,-39011.516,-52532.715,-18865.602
801744.393401941,-49833.54,-57428.062,-29614.625,-9198.73,-35533.53,-39012.492,-52529.99,-18866.537
801744.3974019364,-49832.074,-57424.766,-29613.81,-9198.649,-35529.38,-39012.86,-52527.71,-18862.06
801744.4014019318,-49835.492,-57425.78,-29616.252,-9200.155,-35527.996,-39011.883,-52530.355,-18861.125
801744.4054019271,-49842.45,-57432.008,-29623.576,-9203.857,-35533.043,-39013.023,-52539.918,-18874.227
801744.4094019225,-49842.45,-57432.54,-29623.496,-9203.451,-35534.305,-39012.777,-52546.918,-18885.824
801744.4134019178,-49838.016,-57428.59,-29619.467,-9202.148,-35529.258,-39012.535,-52549.24,-18889.527
801744.4174019132,-49833.66,-57425.09,-29615.44,-9200.684,-35526.164,-39011.92,-52548.79,-18889.69
801744.4214019085,-49833.17,-57424.6,-29615.357,-9197.836,-35526.164,-39010.99,-52548.668,-18883.098
801744.4254019039,-49838.055,-57429.363,-29618.002,-9199.545,-35529.625,-39012.37,-52552.125,-18880.453
801744.4294018992,-49837.934,-57430.055,-29616.416,-9196.981,-35529.625,-39013.023,-52551.027,-18879.477
801744.4334018946,-49833.008,-57428.223,-29612.266,-9196.452,-35527.832,-39012.29,-52543.62,-18870.729
801744.4374018899,-49829.266,-57425.336,-29607.3,-9195.801,-35524.66,-39010.785,-52533.0,-18858.643
801744.4414018854,-49828.33,-57424.074,-29605.754,-9195.598,-35522.625,-39007.324,-52525.516,-18844.238
801744.4454018807,-49832.195,-57427.004,-29609.295,-9198.039,-35526.41,-39007.527,-52526.207,-18840.82
801744.4494018761,-49836.63,-57433.312,-29613.242,-9202.759,-35532.84,-39007.527,-52524.54,-18840.21
801744.4534018714,-49833.863,-57433.105,-29609.863,-9202.556,-35532.145,-39006.51,-52518.395,-18836.305
801744.4574018668,-49831.055,-57430.055,-29605.062,-9200.114,-35528.24,-39002.89,-52511.8,-18829.998
801744.4614018621,-49832.113,-57430.016,-29605.389,-9202.026,-35529.543,-39000.45,-52510.297,-18828.94
801744.4654018575,-49831.34,-57429.363,-29605.754,-9201.986,-35528.89,-39000.49,-52512.29,-18829.63
801744.4694018528,-49832.97,-57433.027,-29606.568,-9200.806,-35529.543,-39004.56,-52516.645,-18835.49
801744.4734018481,-49829.67,-57430.504,-29606.201,-9200.847,-35529.42,-39006.062,-52516.6,-18837.484
801744.4774018435,-49825.81,-57427.246,-29603.76,-9199.301,-35525.39,-39006.836,-52516.97,-18837.646
801744.4814018388,-49824.992,-57427.734,-29603.639,-9198.12,-35525.188,-39007.406,-52521.77,-18837.322
801744.4854018342,-49829.836,-57432.457,-29607.627,-9200.644,-35528.81,-39009.402,-52528.08,-18842.285
801744.4894018295,-49833.008,-57433.27,-29611.29,-9202.475,-35531.25,-39010.38,-52532.188,-18845.582
801744.493401825,-49829.59,-57430.098,-29609.457,-9201.904,-35529.38,-39012.207,-52534.668,-18846.111
801744.4974018203,-49829.145,-57428.387,-29607.26,-9201.213,-35526.082,-39012.168,-52532.43,-18845.135
801744.5014018157,-49829.062,-57428.508,-29607.3,-9201.091,-35523.723,-39010.54,-52533.45,-18842.45
801744.505401811,-49829.387,-57430.137,-29608.521,-9201.01,-35524.742,-39012.613,-52538.37,-18849.324
801744.5094018064,-49830.49,-57431.195,-29610.516,-9200.48,-35525.473,-39017.008,-52542.156,-18853.11
801744.5134018017,-49825.156,-57427.37,-29606.486,-9197.348,-35520.875,-39017.66,-52540.203,-18844.076
801744.5174017971,-49823.527,-57426.965,-29605.145,-9196.818,-35517.824,-39015.79,-52537.76,-18835.613
801744.5214017924,-49827.92,-57431.684,-29607.627,-9200.603,-35519.86,-39013.023,-52536.176,-18832.113
801744.5254017878,-49832.234,-57436.484,-29611.777,-9201.213,-35522.258,-39009.93,-52536.867,-18829.672
801744.5294017831,-49834.23,-57439.535,-29612.102,-9200.684,-35525.35,-39008.14,-52535.848,-18824.871
801744.5334017785,-49831.79,-57440.35,-29609.62,-9198.935,-35527.02,-39009.684,-52535.727,-18830.934
801744.5374017739,-49831.504,-57439.25,-29608.236,-9198.608,-35525.27,-39010.094,-52535.89,-18832.928
801744.5414017693,-49836.184,-57445.11,-29610.596,-9199.789,-35528.117,-39011.477,-52539.96,-18838.176
801744.5454017646,-49839.844,-57449.504,-29612.834,-9199.667,-35532.31,-39013.145,-52542.684,-18843.506
801744.5494017599,-49842.695,-57448.57,-29615.357,-9199.179,-35533.652,-39013.875,-52544.965,-18847.9
801744.5534017553,-49841.797,-57446.984,-29614.746,-9197.47,-35528.605,-39012.74,-52540.242,-18850.424
801744.5574017506,-49840.902,-57445.598,-29613.12,-9198.039,-35523.113,-39011.68,-52533.406,-18847.088
801744.561401746,-49844.93,-57448.57,-29614.137,-9201.416,-35525.594,-39009.36,-52533.125,-18845.744
801744.5654017413,-49851.44,-57453.86,-29617.799,-9204.143,-35533.0,-39010.867,-52537.19,-18854.615
801744.5694017367,-49854.492,-57458.254,-29618.613,-9203.451,-35538.617,-39011.516,-52537.883,-18855.633
801744.573401732,-49851.24,-57453.695,-29616.984,-9201.335,-35533.938,-39011.07,-52535.36,-18855.836
801744.5774017274,-49848.758,-57450.035,-29615.967,-9201.416,-35531.74,-39009.848,-52531.82,-18854.248
801744.5814017227,-49849.734,-57451.62,-29618.287,-9200.684,-35532.105,-39009.156,-52532.227,-18850.953
801744.5854017182,-49852.05,-57451.336,-29622.193,-9202.067,-35529.582,-39009.24,-52535.36,-18851.889
801744.5894017135,-49851.32,-57450.44,-29624.635,-9200.725,-35528.605,-39011.883,-52539.676,-18850.465
801744.5934017089,-49845.418,-57443.402,-29621.176,-9198.975,-35524.13,-39011.11,-52539.062,-18851.686
801744.5974017042,-49840.13,-57435.875,-29616.984,-9197.876,-35523.355,-39011.477,-52535.402,-18847.127
801744.6014016996,-49838.22,-57433.434,-29615.764,-9197.0625,-35521.566,-39012.207,-52532.715,-18836.14
801744.6054016949,-49836.55,-57433.35,-29617.84,-9197.958,-35522.22,-39011.883,-52531.293,-18827.271
801744.6094016903,-49833.09,-57430.098,-29615.887,-9195.923,-35519.168,-39009.848,-52527.547,-18826.457
801744.6134016856,-49830.406,-57425.418,-29612.102,-9196.045,-35514.242,-39008.26,-52521.85,-18821.818
801744.617401681,-49823.895,-57420.13,-29607.057,-9195.72,-35510.703,-39005.37,-52513.918,-18813.64
801744.6214016763,-49822.062,-57418.99,-29603.924,-9193.686,-35508.26,-39002.848,-52512.695,-18814.291
801744.6254016716,-49828.9,-57423.75,-29608.195,-9195.395,-35513.145,-39005.82,-52520.223,-18821.574
801744.629401667,-49833.418,-57431.074,-29609.66,-9197.266,-35515.91,-39006.633,-52528.89,-18827.922
801744.6334016623,-49824.3,-57428.1,-29604.941,-9195.598,-35514.16,-39009.195,-52534.18,-18832.723
801744.6374016578,-49817.793,-57424.6,-29602.215,-9194.784,-35513.023,-39011.19,-52534.06,-18832.072
801744.6414016531,-49821.21,-57425.17,-29601.28,-9195.068,-35510.66,-39010.254,-52534.63,-18827.922
801744.6454016485,-49823.367,-57429.406,-29603.76,-9196.086,-35513.145,-39011.355,-52539.88,-18833.7
801744.6494016438,-49824.098,-57433.676,-29604.127,-9196.533,-35516.6,-39012.004,-52543.38,-18838.055
801744.6534016392,-49820.965,-57429.566,-29602.092,-9194.011,-35516.52,-39011.76,-52539.348,-18834.88
801744.6574016345,-49816.043,-57424.195,-29601.807,-9194.092,-35511.883,-39012.535,-52535.156,-18828.451
801744.6614016299,-49817.996,-57425.5,-29601.807,-9194.58,-35511.637,-39010.742,-52532.35,-18826.62
801744.6654016252,-49823.895,-57429.73,-29605.55,-9196.167,-35515.26,-39011.477,-52534.996,-18829.51
801744.6694016206,-49826.54,-57434.492,-29607.3,-9197.592,-35518.883,-39010.824,-52536.867,-18826.254
801744.6734016159,-49822.715,-57430.87,-29605.877,-9195.231,-35515.83,-39010.582,-52535.848,-18823.527
801744.6774016113,-49820.273,-57428.145,-29606.04,-9195.72,-35513.387,-39010.66,-52533.69,-18818.074
801744.6814016066,-49821.617,-57429.04,-29606.201,-9197.348,-35513.59,-39009.36,-52535.973,-18816.61
801744.6854016021,-49827.395,-57436.363,-29607.504,-9197.551,-35519.53,-39008.504,-52541.3,-18819.744
801744.6894015974,-49832.52,-57444.99,-29612.021,-9199.219,-35526.734,-39011.15,-52544.598,-18825.604
801744.6934015927,-49828.86,-57443.727,-29610.23,-9199.341,-35525.96,-39012.82,-52543.582,-18829.63
801744.6974015881,-49823.527,-57437.01,-29607.871,-9196.452,-35521.73,-39012.125,-52540.652,-18826.01
801744.7014015834,-49824.75,-57438.6,-29607.219,-9196.127,-35521.688,-39013.062,-52543.62,-18824.992
801744.7054015788,-49831.625,-57447.473,-29610.23,-9199.016,-35527.508,-39014.285,-52548.668,-18832.275
801744.7094015741,-49835.938,-57450.727,-29612.06,-9200.439,-35530.152,-39013.918,-52551.19,-18835.531
801744.7134015695,-49831.258,-57446.25,-29609.986,-9199.057,-35527.71,-39012.98,-52551.066,-18842.57
801744.7174015648,-49830.203,-57446.82,-29606.365,-9198.242,-35525.23,-39010.824,-52546.715,-18842.123
801744.7214015602,-49834.473,-57449.18,-29606.08,-9198.69,-35528.484,-39009.156,-52545.047,-18841.064
801744.7254015555,-49837.688,-57453.656,-29609.213,-9201.05,-35532.473,-39008.953,-52547.65,-18846.314
801744.729401551,-49835.574,-57449.79,-29611.37,-9200.725,-35531.332,-39009.48,-52549.645,-18850.18
801744.7334015463,-49829.957,-57443.523,-29610.068,-9199.341,-35529.094,-39008.992,-52545.41,-18849.568
801744.7374015417,-49830.406,-57442.793,-29610.23,-9199.097,-35527.957,-39009.32,-52540.73,-18847.291
801744.741401537,-49832.848,-57443.605,-29611.29,-9200.195,-35526.41,-39007.938,-52541.586,-18848.145
801744.7454015324,-49832.562,-57445.312,-29610.596,-9201.213,-35528.16,-39006.023,-52544.23,-18853.191
801744.7494015277,-49833.457,-57448.49,-29610.475,-9200.562,-35530.68,-39004.8,-52540.406,-18849.365
801744.7534015231,-49828.535,-57445.355,-29607.178,-9198.446,-35527.184,-39005.617,-52531.047,-18842.244
801744.7574015184,-49823.406,-57440.105,-29605.186,-9195.639,-35524.05,-39003.746,-52522.543,-18832.398
801744.7614015138,-49823.04,-57438.887,-29606.283,-9196.127,-35522.098,-39001.223,-52520.918,-18829.59
801744.7654015091,-49826.133,-57443.89,-29607.992,-9197.429,-35524.05,-39002.973,-52523.438,-18830.566
801744.7694015044,-49824.098,-57444.664,-29609.863,-9197.144,-35524.82,-39004.234,-52522.91,-18828.654
801744.7734014998,-49817.996,-57437.867,-29607.666,-9195.068,-35520.305,-39005.574,-52517.62,-18820.72
801744.7774014951,-49814.94,-57433.516,-29607.3,-9195.557,-35518.883,-39005.29,-52513.875,-18811.89
801744.7814014906,-49818.89,-57437.38,-29610.352,-9197.226,-35520.387,-39004.68,-52516.562,-18811.768
801744.7854014859,-49825.48,-57442.832,-29612.63,-9198.08,-35522.22,-39005.047,-52521.65,-18813.924
801744.7894014813,-49828.047,-57445.234,-29614.584,-9200.073,-35526.773,-39004.19,-52525.35,-18815.268
801744.7934014766,-49823.652,-57440.555,-29614.096,-9198.486,-35524.7,-39003.703,-52526.33,-18816.082
801744.797401472,-49819.297,-57435.14,-29611.613,-9195.517,-35518.27,-39003.746,-52526.492,-18812.867
801744.8014014673,-49817.465,-57432.742,-29608.969,-9194.987,-35516.6,-39006.266,-52529.5,-18807.781
801744.8054014627,-49819.99,-57435.957,-29611.533,-9195.801,-35519.246,-39010.094,-52535.973,-18808.838
801744.809401458,-49821.047,-57437.137,-29613.69,-9198.283,-35521.73,-39012.125,-52541.668,-18814.941
801744.8134014534,-49821.414,-57438.438,-29614.543,-9198.608,-35522.42,-39012.41,-52540.855,-18814.25
801744.8174014487,-49824.504,-57441.164,-29614.422,-9198.405,-35524.742,-39010.582,-52539.754,-18814.168
801744.8214014441,-49826.66,-57445.76,-29614.99,-9199.707,-35531.047,-39010.133,-52543.38,-18815.47
801744.8254014394,-49830.406,-57452.11,-29615.764,-9200.277,-35535.89,-39008.953,-52548.87,-18826.66
801744.8294014349,-49833.17,-57454.266,-29618.125,-9198.446,-35536.176,-39007.895,-52549.805,-18830.486
801744.8334014302,-49829.918,-57449.992,-29615.928,-9197.47,-35530.234,-39008.953,-52550.824,-18838.379
801744.8374014256,-49825.645,-57445.64,-29612.469,-9194.987,-35525.066,-39010.336,-52547.895,-18839.682
801744.8414014209,-49826.703,-57448.0,-29610.393,-9196.127,-35525.434,-39009.48,-52548.383,-18840.78
801744.8454014162,-49831.3,-57452.23,-29612.102,-9196.777,-35529.867,-39011.11,-52554.363,-18845.785
801744.8494014116,-49827.23,-57451.457,-29611.695,-9195.639,-35530.844,-39011.516,-52555.83,-18850.262
801744.8534014069,-49817.344,-57443.77,-29603.232,-9193.115,-35523.723,-39010.094,-52550.945,-18848.836
801744.8574014023,-49817.383,-57443.484,-29602.824,-9195.231,-35525.473,-39009.48,-52547.977,-18847.982
801744.8614013976,-49827.11,-57448.242,-29603.842,-9196.615,-35527.996,-39007.45,-52545.41,-18844.97
801744.865401393,-49830.566,-57451.62,-29606.568,-9197.429,-35526.695,-39007.45,-52547.04,-18846.273
801744.8694013883,-49823.285,-57451.01,-29606.121,-9195.557,-35523.562,-39006.715,-52541.79,-18839.967
801744.8734013838,-49821.535,-57450.523,-29602.215,-9193.645,-35520.633,-39005.574,-52531.58,-18827.8
801744.877401379,-49816.69,-57449.63,-29596.885,-9190.918,-35518.15,-39003.055,-52521.406,-18814.25
801744.8814013745,-49813.273,-57455.16,-29595.053,-9191.8545,-35518.96,-39001.914,-52515.91,-18802.857
801744.8854013698,-49820.64,-57457.97,-29597.656,-9193.97,-35520.426,-39003.746,-52519.207,-18798.584
801744.8894013652,-49824.79,-57461.223,-29597.291,-9194.499,-35526.695,-39003.336,-52523.074,-18798.096
801744.8934013605,-49828.777,-57462.566,-29594.688,-9194.458,-35523.562,-39002.523,-52519.492,-18792.48
801744.8974013559,-49833.742,-57456.504,-29593.303,-9195.598,-35521.61,-39002.24,-52515.91,-18788.941
801744.9014013512,-49822.715,-57461.59,-29595.215,-9197.51,-35524.13,-39001.63,-52515.504,-18782.512
801744.9054013466,-49822.348,-57473.797,-29597.373,-9199.87,-35531.535,-39002.566,-52521.527,-18782.023
801744.9094013419,-49832.97,-57493.086,-29599.488,-9200.358,-35533.367,-38999.39,-52521.85,-18786.336
801744.9134013373,-49831.586,-57489.22,-29596.518,-9201.213,-35533.938,-38997.113,-52517.99,-18782.39
801744.9174013326,-49836.14,-57482.547,-29595.379,-9203.451,-35535.035,-38994.63,-52514.49,-18778.932
801744.9214013279,-49852.824,-57492.72,-29601.768,-9205.974,-35538.98,-38993.613,-52515.098,-18776.49
801744.9254013234,-49874.51,-57511.027,-29610.922,-9211.548,-35549.887,-38993.41,-52518.598,-18777.832
801744.9294013187,-49876.02,-57527.67,-29613.893,-9214.152,-35556.887,-38991.54,-52515.87,-18778.158
801744.9334013141,-49880.453,-57535.645,-29612.59,-9213.949,-35554.242,-38989.707,-52510.906,-18776.49
801744.9374013094,-49896.61,-57535.89,-29609.092,-9213.827,-35554.324,-38988.28,-52505.535,-18771.81
801744.9414013048,-49904.297,-57547.812,-29607.992,-9216.35,-35555.79,-38984.863,-52501.793,-18765.422
801744.9454013001,-49911.582,-57565.88,-29609.66,-9218.384,-35564.047,-38982.383,-52501.793,-18764.242
801744.9494012955,-49908.125,-57572.39,-29612.021,-9218.75,-35566.406,-38983.44,-52499.473,-18761.8
801744.9534012908,-49910.156,-57570.07,-29611.572,-9218.832,-35558.31,-38981.242,-52490.03,-18749.959
801744.9574012862,-49910.848,-57571.453,-29610.678,-9219.727,-35557.375,-38980.633,-52483.24,-18739.625
801744.9614012815,-49918.62,-57577.844,-29610.027,-9221.313,-35559.57,-38979.94,-52480.67,-18731.16
801744.965401277,-49932.863,-57591.35,-29614.258,-9224.569,-35561.2,-38978.56,-52481.527,-18729.615
801744.9694012722,-49949.098,-57606.773,-29617.555,-9227.987,-35568.727,-38979.168,-52481.57,-18731.812
801744.9734012677,-49955.406,-57611.29,-29618.125,-9227.539,-35566.652,-38977.906,-52473.633,-18723.023
801744.977401263,-49962.445,-57616.05,-29618.043,-9228.394,-35565.145,-38977.133,-52466.434,-18720.582
801744.9814012584,-49974.53,-57629.113,-29619.102,-9230.429,-35568.277,-38975.914,-52460.574,-18714.885
801744.9854012537,-49991.008,-57645.47,-29624.188,-9235.8,-35577.066,-38978.8,-52461.67,-18707.234
801744.9894012491,-50001.18,-57655.4,-29623.617,-9234.863,-35580.895,-38978.355,-52459.27,-18702.76
801744.9934012444,-50003.215,-57655.273,-29621.176,-9232.422,-35578.125,-38976.605,-52454.387,-18697.592
801744.9974012397,-50002.81,-57653.08,-29618.613,-9230.51,-35571.25,-38975.79,-52451.254,-18691.814
801745.0014012351,-50011.965,-57662.805,-29620.037,-9229.492,-35571.29,-38974.527,-52450.035,-18688.6
801745.0054012304,-50026.938,-57677.574,-29626.14,-9233.032,-35577.84,-38974.977,-52457.848,-18694.824
801745.0094012258,-50030.887,-57683.027,-29627.361,-9233.276,-35584.27,-38976.645,-52466.88,-18702.352
801745.0134012211,-50033.652,-57684.613,-29627.727,-9233.887,-35583.58,-38978.027,-52467.207,-18702.8
801745.0174012166,-50034.71,-57687.01,-29625.896,-9233.154,-35580.61,-38977.094,-52463.625,-18702.637
801745.0214012119,-50037.883,-57693.848,-29625.732,-9234.131,-35583.133,-38975.26,-52463.137,-18703.613
801745.0254012073,-50045.574,-57700.684,-29628.297,-9236.247,-35587.484,-38974.895,-52466.676,-18706.137
801745.0294012026,-50050.984,-57707.562,-29632.732,-9239.38,-35593.305,-38975.18,-52469.566,-18713.867
801745.033401198,-50050.008,-57709.35,-29631.389,-9240.886,-35591.555,-38973.27,-52467.613,-18715.047
801745.0374011933,-50047.242,-57707.887,-29629.111,-9238.607,-35586.71,-38971.11,-52464.07,-18714.479
801745.0414011887,-50049.277,-57710.492,-29626.832,-9237.997,-35588.83,-38969.688,-52463.543,-18715.658
801745.045401184,-50054.73,-57716.88,-29629.111,-9239.828,-35593.426,-38970.215,-52470.38,-18721.191
801745.0494011794,-50058.594,-57718.957,-29634.766,-9243.205,-35597.656,-38973.51,-52473.836,-18726.97
801745.0534011747,-50054.2,-57715.008,-29633.139,-9241.293,-35592.41,-38972.332,-52464.438,-18722.412
801745.0574011701,-50047.49,-57708.215,-29628.297,-9237.427,-35584.8,-38969.035,-52452.35,-18703.328
801745.0614011654,-50046.47,-57706.18,-29626.629,-9237.549,-35582.4,-38968.14,-52450.074,-18692.465
801745.0654011607,-50051.758,-57710.734,-29629.273,-9239.868,-35585.613,-38970.5,-52453.86,-18694.744
801745.0694011562,-50055.22,-57715.09,-29631.633,-9241.089,-35587.32,-38973.105,-52453.656,-18684.734
801745.0734011515,-50049.074,-57710.45,-29626.547,-9237.834,-35583.78,-38970.99,-52446.656,-18671.754
801745.0774011469,-50046.023,-57709.19,-29622.682,-9236.328,-35580.406,-38970.867,-52441.57,-18661.541
801745.0814011422,-50047.406,-57712.445,-29619.629,-9236.328,-35579.67,-38970.62,-52440.88,-18649.861
801745.0854011376,-50050.54,-57715.945,-29621.46,-9238.322,-35583.375,-38973.348,-52444.05,-18647.95
801745.0894011329,-50050.78,-57717.938,-29623.088,-9237.468,-35585.938,-38973.96,-52448.69,-18652.873
801745.0934011283,-50048.586,-57717.45,-29622.967,-9235.678,-35582.805,-38975.016,-52451.17,-18658.57
801745.0974011236,-50047.16,-57717.367,-29621.379,-9234.782,-35581.91,-38976.645,-52451.742,-18661.865
801745.101401119,-50048.465,-57719.89,-29620.281,-9235.84,-35582.156,-38974.977,-52453.74,-18659.383
801745.1054011143,-50052.9,-57726.484,-29624.717,-9237.468,-35585.855,-38976.645,-52460.652,-18664.104
801745.1094011097,-50053.55,-57728.56,-29626.832,-9237.224,-35588.055,-38975.586,-52462.117,-18667.44
801745.113401105,-50052.98,-57728.027,-29627.441,-9238.322,-35587.402,-38976.81,-52462.65,-18667.807
801745.1174011005,-50052.656,-57724.57,-29624.676,-9236.938,-35584.23,-38974.12,-52460.9,-18669.393
801745.1214010958,-50055.22,-57725.793,-29624.553,-9237.834,-35583.17,-38973.227,-52460.86,-18671.63
801745.1254010912,-50060.508,-57733.195,-29629.436,-9238.974,-35587.484,-38974.938,-52465.09,-18676.025
801745.1294010865,-50064.13,-57737.1,-29634.318,-9239.706,-35590.09,-38976.074,-52469.28,-18683.27
801745.1334010819,-50065.145,-57737.875,-29634.521,-9239.584,-35587.527,-38975.426,-52464.355,-18682.496
801745.1374010772,-50062.95,-57736.37,-29631.389,-9239.462,-35585.33,-38975.26,-52459.676,-18682.617
801745.1414010725,-50065.51,-57739.34,-29630.371,-9240.845,-35587.484,-38972.13,-52457.44,-18678.264
801745.1454010679,-50075.93,-57749.555,-29636.8,-9245.443,-35593.63,-38971.76,-52461.59,-18681.56
801745.1494010632,-50078.86,-57754.273,-29637.656,-9246.582,-35596.395,-38975.426,-52464.52,-18681.438
801745.1534010586,-50076.336,-57752.402,-29635.783,-9245.239,-35592.816,-38974.082,-52460.125,-18683.105
801745.1574010539,-50076.945,-57751.508,-29633.871,-9246.176,-35591.31,-38974.57,-52456.625,-18679.322
801745.1614010494,-50080.527,-57754.6,-29633.871,-9246.623,-35592.164,-38973.145,-52453.37,-18673.38
801745.1654010447,-50087.89,-57760.703,-29636.76,-9247.396,-35595.38,-38971.234,-52455.812,-18674.154
801745.1694010401,-50090.863,-57762.902,-29640.342,-9247.844,-35597.008,-38972.168,-52459.35,-18676.555
801745.1734010354,-50090.58,-57761.027,-29641.602,-9246.582,-35595.785,-38973.145,-52456.87,-18676.229
801745.1774010308,-50089.48,-57759.848,-29642.05,-9247.6,-35593.75,-38974.246,-52452.76,-18672.893
801745.1814010261,-50089.887,-57762.453,-29642.375,-9247.07,-35593.996,-38973.023,-52449.22,-18668.865
801745.1854010215,-50092.367,-57765.547,-29641.48,-9247.641,-35598.227,-38974.04,-52451.133,-18668.295
801745.1894010168,-50092.816,-57767.375,-29642.783,-9248.495,-35600.547,-38976.36,-52452.35,-18667.889
801745.1934010122,-50089.48,-57765.26,-29641.643,-9247.437,-35599.246,-38976.562,-52448.895,-18669.271
801745.1974010075,-50084.72,-57761.844,-29638.469,-9245.891,-35596.64,-38974.367,-52445.438,-18662.191
801745.2014010029,-50083.05,-57759.2,-29636.516,-9245.524,-35594.156,-38973.594,-52445.844,-18655.152
801745.2054009982,-50087.04,-57762.574,-29638.592,-9246.542,-35594.44,-38973.758,-52448.773,-18656.332
801745.2094009937,-50084.92,-57761.312,-29638.145,-9244.589,-35592.49,-38972.168,-52448.855,-18655.682
801745.213400989,-50078.816,-57753.094,-29637.492,-9242.595,-35585.086,-38971.234,-52446.453,-18654.541
801745.2174009843,-50074.79,-57748.58,-29635.906,-9242.92,-35579.59,-38971.598,-52444.5,-18651.611
801745.2214009797,-50076.863,-57751.344,-29636.68,-9245.6875,-35578.695,-38971.56,-52444.336,-18649.373
801745.225400975,-50084.23,-57758.06,-29639.771,-9247.478,-35583.336,-38972.656,-52449.63,-18653.24
801745.2294009704,-50085.9,-57758.87,-29640.26,-9245.6875,-35584.188,-38973.594,-52451.824,-18652.1
801745.2334009657,-50083.824,-57757.57,-29639.121,-9245.6875,-35580.12,-38973.88,-52450.277,-18650.635
801745.2374009611,-50083.293,-57754.113,-29638.428,-9246.054,-35577.92,-38974.164,-52445.312,-18643.963
801745.2414009564,-50085.98,-57756.348,-29638.672,-9244.426,-35578.98,-38975.383,-52446.94,-18646.852
801745.2454009518,-50091.797,-57763.023,-29643.352,-9245.158,-35585.086,-38977.01,-52453.656,-18651.45
801745.2494009471,-50091.23,-57763.55,-29645.102,-9246.176,-35587.605,-38978.72,-52457.766,-18651.367
801745.2534009425,-50085.125,-57757.043,-29641.887,-9245.605,-35584.15,-38980.31,-52454.062,-18644.49
801745.2574009378,-50080.28,-57753.38,-29639.771,-9246.664,-35579.1,-38980.715,-52451.54,-18643.352
801745.2614009333,-50076.785,-57749.39,-29636.516,-9246.664,-35576.254,-38979.207,-52449.79,-18641.277
801745.2654009286,-50079.1,-57751.953,-29637.9,-9247.966,-35579.793,-38978.11,-52454.266,-18642.578
801745.269400924,-50082.97,-57757.812,-29639.73,-9248.129,-35581.79,-38978.64,-52456.953,-18650.432
801745.2734009193,-50081.055,-57757.0,-29638.021,-9247.355,-35580.934,-38977.54,-52452.68,-18648.357
801745.2774009147,-50079.918,-57757.45,-29638.592,-9247.844,-35579.59,-38978.19,-52450.117,-18646.484
801745.28140091,-50083.375,-57759.973,-29640.422,-9249.756,-35580.484,-38978.92,-52451.215,-18639.04
801745.2854009054,-50086.223,-57762.332,-29640.3,-9249.716,-35579.918,-38979.13,-52454.633,-18638.387
801745.2894009007,-50086.14,-57760.664,-29641.643,-9248.861,-35581.016,-38979.004,-52455.203,-18637.818
801745.293400896,-50081.258,-57755.09,-29638.633,-9247.722,-35576.863,-38977.5,-52450.81,-18632.691
801745.2974008914,-50078.29,-57751.875,-29636.598,-9247.192,-35571.98,-38976.035,-52446.82,-18628.5
801745.3014008867,-50078.168,-57750.53,-29635.865,-9245.158,-35572.715,-38975.18,-52444.703,-18623.129
801745.3054008821,-50084.516,-57757.043,-29638.754,-9247.07,-35578.125,-38976.277,-52448.61,-18625.57
801745.3094008774,-50087.242,-57761.844,-29642.295,-9248.251,-35581.504,-38978.23,-52452.56,-18630.615
801745.3134008729,-50081.83,-57757.895,-29636.924,-9245.81,-35579.1,-38977.5,-52449.79,-18629.232
801745.3174008682,-50079.59,-57755.617,-29633.262,-9244.141,-35576.945,-38977.99,-52446.902,-18628.418
801745.3214008636,-50078.777,-57755.656,-29632.732,-9247.192,-35575.684,-38979.29,-52448.164,-18626.588
801745.3254008589,-50083.66,-57758.75,-29635.01,-9248.169,-35576.58,-38979.656,-52453.613,-18633.465
801745.3294008543,-50086.223,-57759.848,-29638.592,-9248.861,-35579.184,-38980.023,-52458.78,-18640.828
801745.3334008496,-50083.05,-57757.043,-29637.98,-9249.431,-35576.54,-38980.594,-52457.52,-18640.992
801745.337400845,-50078.086,-57753.297,-29634.97,-9246.501,-35570.598,-38978.23,-52452.477,-18634.645
801745.3414008403,-50078.574,-57753.055,-29634.318,-9244.223,-35569.99,-38978.07,-52452.965,-18632.488
801745.3454008357,-50079.918,-57758.87,-29634.889,-9244.06,-35574.586,-38980.633,-52458.254,-18636.354
801745.349400831,-50082.234,-57763.43,-29638.225,-9244.751,-35578.777,-38982.504,-52461.836,-18636.8
801745.3534008265,-50078.168,-57759.277,-29634.766,-9244.019,-35577.23,-38980.062,-52458.336,-18632.203
801745.3574008218,-50076.99,-57758.14,-29633.22,-9243.408,-35574.586,-38978.516,-52453.574,-18632.244
801745.3614008172,-50083.17,-57760.54,-29634.318,-9245.361,-35576.336,-38977.094,-52450.727,-18629.883
801745.3654008125,-50091.92,-57766.523,-29638.225,-9249.228,-35579.793,-38977.824,-52452.965,-18629.924
801745.3694008078,-50087.65,-57767.62,-29641.44,-9249.023,-35581.992,-38979.453,-52455.324,-18637.533
801745.3734008032,-50080.49,-57762.37,-29637.492,-9245.85,-35578.98,-38977.215,-52449.42,-18632.324
801745.3774007985,-50078.37,-57758.75,-29635.336,-9246.298,-35574.3,-38977.215,-52443.484,-18624.512
801745.3814007939,-50080.566,-57761.844,-29635.254,-9244.467,-35573.61,-38975.14,-52442.26,-18622.07
801745.3854007892,-50087.28,-57767.297,-29641.113,-9247.274,-35578.29,-38974.895,-52445.516,-18620.77
801745.3894007846,-50088.707,-57768.598,-29641.807,-9246.582,-35579.387,-38975.992,-52446.004,-18618.043
801745.3934007799,-50086.305,-57767.5,-29640.057,-9245.605,-35577.027,-38976.2,-52443.2,-18612.63
801745.3974007753,-50083.133,-57763.266,-29637.94,-9243.327,-35574.42,-38977.05,-52441.938,-18607.951
801745.4014007706,-50082.36,-57759.766,-29633.79,-9242.106,-35569.01,-38973.918,-52439.94,-18603.76
801745.4054007661,-50088.094,-57764.65,-29638.916,-9243.205,-35572.43,-38974.0,-52442.465,-18606.445
801745.4094007614,-50094.65,-57768.72,-29643.066,-9244.629,-35577.76,-38975.75,-52445.883,-18610.799
801745.4134007568,-50093.26,-57765.016,-29641.562,-9244.345,-35575.44,-38976.89,-52445.234,-18613.973
801745.4174007521,-50087.08,-57757.69,-29637.492,-9243.002,-35570.56,-38976.402,-52441.855,-18611.736
801745.4214007475,-50086.836,-57757.734,-29637.207,-9243.002,-35568.766,-38975.18,-52442.996,-18605.633
801745.4254007428,-50088.582,-57761.07,-29639.73,-9245.891,-35567.223,-38975.668,-52445.844,-18606.812
801745.4294007382,-50091.758,-57763.715,-29645.428,-9248.617,-35571.207,-38976.89,-52448.285,-18608.48
801745.4334007335,-50089.355,-57761.11,-29642.54,-9247.6,-35570.965,-38974.406,-52446.777,-18613.77
801745.4374007289,-50086.508,-57759.44,-29639.975,-9247.274,-35571.535,-38974.0,-52446.168,-18615.56
801745.4414007242,-50090.254,-57764.12,-29640.992,-9249.1455,-35574.06,-38973.88,-52448.285,-18617.27
801745.4454007195,-50093.793,-57768.84,-29642.62,-9249.105,-35577.555,-38974.49,-52452.395,-18620.443
801745.449400715,-50093.953,-57770.227,-29642.254,-9248.495,-35578.25,-38973.473,-52451.99,-18617.92
801745.4534007102,-50086.348,-57761.312,-29638.225,-9246.826,-35572.348,-38972.13,-52445.438,-18610.475
801745.4574007057,-50081.87,-57757.12,-29635.865,-9247.396,-35570.72,-38971.598,-52439.94,-18602.58
801745.461400701,-50082.48,-57757.61,-29638.469,-9248.413,-35572.31,-38972.332,-52441.57,-18602.05
801745.4654006964,-50088.79,-57763.715,-29644.613,-9249.797,-35578.086,-38972.13,-52444.094,-18604.412
801745.4694006917,-50090.58,-57766.848,-29647.014,-9250.163,-35577.883,-38973.023,-52444.824,-18607.422
801745.4734006871,-50086.957,-57765.465,-29645.143,-9249.1455,-35574.016,-38972.574,-52440.676,-18604.086
801745.4774006824,-50086.348,-57764.04,-29643.19,-9250.732,-35572.918,-38972.21,-52437.38,-18601.766
801745.4814006778,-50087.527,-57765.22,-29641.48,-9250.407,-35572.43,-38971.598,-52439.453,-18601.115
801745.4854006731,-50094.973,-57772.46,-29644.287,-9252.36,-35576.01,-38973.96,-52447.39,-18606.975
801745.4894006685,-50101.727,-57779.016,-29650.025,-9253.703,-35581.746,-38976.523,-52452.35,-18614.38
801745.4934006638,-50098.51,-57779.297,-29649.943,-9252.197,-35581.42,-38978.56,-52451.418,-18613.078
801745.4974006593,-50095.99,-57774.902,-29648.682,-9252.157,-35574.87,-38977.54,-52449.098,-18609.498
801745.5014006546,-50097.74,-57775.96,-29650.146,-9253.54,-35574.383,-38978.273,-52451.094,-18610.516
801745.50540065,-50103.844,-57783.773,-29654.135,-9255.412,-35581.055,-38980.957,-52458.254,-18618.855
801745.5094006453,-50105.836,-57785.973,-29654.785,-9253.012,-35584.758,-38981.977,-52461.836,-18628.094
801745.5134006406,-50103.68,-57783.773,-29652.426,-9250.244,-35580.484,-38983.44,-52461.914,-18626.262
801745.517400636,-50102.38,-57779.297,-29648.764,-9248.291,-35576.215,-38981.977,-52459.188,-18623.943
801745.5214006313,-50103.312,-57779.91,-29647.625,-9248.739,-35576.05,-38981.285,-52461.426,-18627.156
801745.5254006267,-50103.027,-57785.93,-29648.072,-9249.716,-35579.387,-38980.918,-52468.508,-18633.953
801745.529400622,-50104.535,-57788.25,-29648.52,-9250.285,-35580.28,-38980.145,-52472.902,-18640.422
801745.5334006174,-50103.312,-57784.953,-29650.146,-9249.919,-35577.273,-38980.633,-52472.008,-18641.277
801745.5374006127,-50100.465,-57777.793,-29646.445,-9247.641,-35573.61,-38979.656,-52469.65,-18638.754
801745.5414006081,-50102.297,-57779.992,-29647.502,-9247.519,-35574.26,-38982.625,-52473.715,-18641.887
801745.5454006034,-50106.934,-57785.08,-29649.414,-9249.797,-35576.945,-38983.6,-52475.953,-18644.287
801745.5494005989,-50109.336,-57785.973,-29652.71,-9248.942,-35576.945,-38983.4,-52476.484,-18643.066
801745.5534005942,-50106.527,-57781.25,-29651.693,-9246.786,-35573.324,-38982.707,-52471.844,-18636.354
801745.5574005896,-50100.87,-57776.125,-29648.52,-9247.274,-35571.453,-38981.16,-52465.58,-18626.832
801745.5614005849,-50104.98,-57779.34,-29646.648,-9249.35,-35572.55,-38977.824,-52462.324,-18621.99
801745.5654005803,-50116.863,-57793.215,-29650.514,-9252.971,-35580.445,-38975.992,-52462.04,-18620.973
801745.5694005756,-50117.473,-57792.727,-29653.037,-9253.662,-35579.59,-38977.906,-52463.867,-18620.443
801745.573400571,-50105.023,-57774.824,-29650.432,-9249.594,-35570.312,-38980.31,-52463.83,-18622.682
801745.5774005663,-50094.44,-57763.348,-29645.59,-9247.111,-35563.723,-38980.184,-52462.73,-18619.629
801745.5814005617,-50091.72,-57760.703,-29643.23,-9246.582,-35562.176,-38979.617,-52462.08,-18617.514
801745.585400557,-50093.1,-57760.62,-29645.02,-9246.094,-35560.14,-38978.477,-52466.15,-18619.264
801745.5894005523,-50093.59,-57755.09,-29646.729,-9245.605,-35555.746,-38977.906,-52467.0,-18619.832
801745.5934005477,-50085.043,-57742.555,-29647.46,-9243.652,-35552.246,-38977.785,-52464.56,-18621.176
801745.597400543,-50079.836,-57736.33,-29648.316,-9244.263,-35546.51,-38977.01,-52461.508,-18618.855
801745.6014005385,-50080.406,-57734.945,-29645.957,-9243.286,-35545.613,-38977.867,-52461.266,-18616.902
801745.6054005338,-50083.09,-57735.35,-29646.69,-9243.083,-35547.242,-38979.492,-52465.58,-18616.09
801745.6094005292,-50081.625,-57733.117,-29649.414,-9243.164,-35548.137,-38980.957,-52470.297,-18617.879
801745.6134005245,-50081.055,-57733.195,-29650.066,-9242.147,-35548.625,-38980.918,-52468.184,-18620.2
801745.6174005199,-50083.05,-57733.195,-29650.514,-9243.327,-35547.0,-38979.695,-52466.35,-18616.09
801745.6214005152,-50083.7,-57730.47,-29648.398,-9244.426,-35545.125,-38976.562,-52465.09,-18608.033
801745.6254005106,-50088.504,-57733.32,-29653.2,-9244.833,-35550.62,-38978.516,-52470.055,-18618.408
801745.6294005059,-50093.953,-57737.754,-29657.309,-9246.867,-35552.652,-38980.633,-52472.414,-18622.803
801745.6334005013,-50092.207,-57736.695,-29655.967,-9244.263,-35547.28,-38979.777,-52466.72,-18618.734
801745.6374004966,-50090.617,-57733.24,-29655.6,-9243.246,-35544.027,-38978.76,-52462.16,-18612.102
801745.641400492,-50093.14,-57735.84,-29655.438,-9241.415,-35543.05,-38975.79,-52459.8,-18608.48
801745.6454004874,-50100.953,-57743.574,-29659.629,-9243.002,-35549.156,-38974.04,-52461.793,-18609.578
801745.6494004828,-50103.312,-57744.387,-29660.889,-9244.019,-35552.086,-38976.277,-52463.91,-18610.637
801745.6534004781,-50102.703,-57743.207,-29660.93,-9245.158,-35550.17,-38977.703,-52461.266,-18611.451
801745.6574004735,-50102.05,-57743.29,-29660.482,-9245.483,-35548.34,-38979.94,-52456.83,-18610.555
801745.6614004688,-50102.906,-57747.316,-29659.994,-9246.786,-35549.887,-38979.047,-52456.016,-18601.766
801745.6654004641,-50109.62,-57752.89,-29663.086,-9248.657,-35552.33,-38977.38,-52460.695,-18606.486
801745.6694004595,-50110.555,-57755.13,-29663.982,-9248.698,-35553.754,-38977.38,-52460.695,-18608.154
801745.6734004548,-50105.47,-57751.387,-29660.117,-9248.007,-35551.72,-38976.89,-52454.387,-18603.191
801745.6774004502,-50100.586,-57746.746,-29656.129,-9248.007,-35546.715,-38975.098,-52447.754,-18599.936
801745.6814004455,-50103.516,-57748.047,-29656.78,-9248.21,-35547.934,-38975.71,-52449.18,-18604.777
801745.6854004409,-50111.86,-57754.07,-29660.686,-9248.698,-35552.29,-38978.07,-52456.953,-18613.322
801745.6894004362,-50114.42,-57756.227,-29664.062,-9246.094,-35554.28,-38979.777,-52463.22,-18618.408
801745.6934004317,-50109.01,-57751.75,-29660.93,-9243.979,-35552.734,-38980.266,-52461.996,-18615.316
801745.697400427,-50103.844,-57745.04,-29658.0,-9242.514,-35547.61,-38978.027,-52458.984,-18618.855
801745.7014004224,-50101.484,-57741.21,-29655.926,-9242.554,-35542.562,-38977.336,-52454.754,-18607.951
801745.7054004177,-50102.254,-57742.637,-29654.623,-9240.967,-35542.605,-38975.3,-52454.387,-18602.865
801745.7094004131,-50101.81,-57745.28,-29655.193,-9240.153,-35542.645,-38973.88,-52455.28,-18601.93
801745.7134004084,-50098.023,-57741.457,-29654.258,-9239.38,-35538.574,-38974.61,-52452.8,-18597.494
801745.7174004038,-50094.08,-57735.965,-29652.832,-9239.706,-35536.867,-38976.277,-52453.047,-18593.465
801745.7214003991,-50096.316,-57736.94,-29654.46,-9240.397,-35537.234,-38977.418,-52455.566,-18592.285
801745.7254003945,-50103.273,-57744.223,-29659.1,-9242.514,-35541.344,-38978.72,-52457.848,-18591.553
801745.7294003898,-50102.906,-57744.266,-29660.32,-9241.577,-35543.094,-38978.68,-52458.58,-18591.229
801745.7334003852,-50097.008,-57737.266,-29654.908,-9239.868,-35540.04,-38976.89,-52456.707,-18589.926
801745.7374003805,-50094.24,-57732.832,-29651.572,-9240.356,-35537.477,-38977.297,-52454.266,-18592.896
801745.7414003758,-50093.26,-57734.133,-29648.479,-9240.153,-35534.914,-38977.945,-52451.742,-18586.59
801745.7454003713,-50095.258,-57738.895,-29649.414,-9240.723,-35538.574,-38977.5,-52453.453,-18586.873
801745.7494003666,-50096.965,-57742.84,-29654.338,-9241.821,-35542.97,-38978.355,-52456.22,-18591.756
801745.753400362,-50094.2,-57740.44,-29651.572,-9240.805,-35541.016,-38976.32,-52452.434,-18588.379
801745.7574003573,-50089.64,-57737.47,-29646.852,-9239.055,-35536.5,-38974.04,-52446.37,-18585.572
801745.7614003527,-50090.78,-57738.363,-29645.834,-9238.811,-35535.32,-38973.188,-52445.965,-18587.281
801745.765400348,-50097.984,-57744.59,-29650.352,-9242.595,-35540.977,-38971.926,-52448.61,-18588.299
801745.7694003434,-50103.598,-57751.67,-29656.21,-9245.646,-35547.04,-38973.39,-52453.047,-18596.68
801745.7734003387,-50101.44,-57750.207,-29653.361,-9244.67,-35547.04,-38973.758,-52450.4,-18597.494
801745.7774003341,-50098.96,-57747.07,-29650.229,-9243.083,-35546.227,-38972.047,-52446.94,-18597.168
801745.7814003294,-50098.348,-57746.094,-29649.943,-9244.182,-35545.535,-38972.13,-52447.88,-18593.953
801745.7854003249,-50101.973,-57749.637,-29653.89,-9246.989,-35548.465,-38974.49,-52451.99,-18597.332
801745.7894003202,-50105.67,-57752.77,-29657.47,-9247.274,-35554.04,-38977.01,-52454.023,-18596.15
801745.7934003156,-50101.973,-57750.9,-29656.535,-9247.722,-35553.305,-38978.152,-52453.777,-18596.518
801745.7974003109,-50096.68,-57746.91,-29652.385,-9245.6875,-35549.195,-38974.69,-52447.39,-18591.717
801745.8014003063,-50097.82,-57746.83,-29651.734,-9245.81,-35548.668,-38973.96,-52448.773,-18588.99
801745.8054003016,-50101.2,-57752.402,-29654.094,-9248.251,-35549.805,-38972.94,-52451.742,-18586.71
801745.809400297,-50103.395,-57756.227,-29658.041,-9249.228,-35551.72,-38974.406,-52455.934,-18588.094
801745.8134002923,-50098.105,-57753.055,-29656.17,-9247.396,-35550.984,-38975.547,-52455.69,-18590.252
801745.8174002876,-50091.797,-57746.016,-29650.27,-9244.914,-35545.086,-38973.227,-52448.773,-18588.217
801745.821400283,-50092.45,-57743.41,-29647.422,-9245.036,-35541.344,-38972.168,-52445.723,-18582.398
801745.8254002783,-50100.465,-57753.34,-29651.693,-9247.885,-35548.137,-38970.83,-52449.79,-18581.99
801745.8294002737,-50103.027,-57757.043,-29657.838,-9247.559,-35552.29,-38970.906,-52455.69,-18584.96
801745.833400269,-50092.41,-57745.08,-29654.908,-9244.019,-35544.8,-38971.52,-52455.12,-18588.623
801745.8374002645,-50086.14,-57737.47,-29651.043,-9243.815,-35540.164,-38970.746,-52451.824,-18584.432
801745.8414002598,-50088.707,-57739.83,-29650.31,-9243.612,-35540.04,-38968.875,-52447.918,-18576.295
801745.8454002552,-50089.766,-57741.742,-29652.67,-9242.798,-35541.14,-38968.426,-52452.312,-18578.898
801745.8494002505,-50089.56,-57743.207,-29652.955,-9240.764,-35543.703,-38967.33,-52453.9,-18582.113
801745.8534002459,-50086.836,-57739.18,-29651.246,-9240.194,-35543.094,-38967.9,-52452.72,-18582.928
801745.8574002412,-50080.73,-57734.62,-29646.648,-9239.543,-35541.465,-38966.758,-52448.12,-18579.102
801745.8614002366,-50080.61,-57735.68,-29646.445,-9241.008,-35545.94,-38966.434,-52446.86,-18573.73
801745.8654002319,-50081.543,-57738.12,-29648.154,-9241.699,-35549.562,-38967.285,-52450.645,-18572.836
801745.8694002273,-50084.395,-57742.8,-29650.27,-9241.211,-35552.41,-38970.785,-52453.29,-18571.533
801745.8734002226,-50079.793,-57737.715,-29647.625,-9239.543,-35550.293,-38971.926,-52452.56,-18577.475
801745.877400218,-50074.14,-57732.832,-29644.328,-9237.387,-35547.04,-38970.01,-52446.535,-18568.482
801745.8814002133,-50074.63,-57733.4,-29643.393,-9239.055,-35545.74,-38969.605,-52444.95,-18567.342
801745.8854002088,-50081.42,-57739.016,-29649.049,-9242.717,-35551.27,-38971.234,-52451.582,-18569.703
801745.8894002041,-50088.34,-57745.28,-29652.588,-9245.81,-35557.09,-38970.62,-52454.47,-18569.783
801745.8934001994,-50085.086,-57743.33,-29650.31,-9245.077,-35555.504,-38969.035,-52452.312,-18570.15
801745.8974001948,-50081.465,-57739.34,-29647.014,-9244.548,-35550.254,-38969.363,-52449.75,-18568.482
801745.9014001901,-50079.184,-57737.754,-29644.654,-9245.443,-35547.527,-38967.855,-52446.98,-18565.633
801745.9054001855,-50080.12,-57739.746,-29645.916,-9246.094,-35548.055,-38967.53,-52448.895,-18564.412
801745.9094001808,-50081.707,-57742.758,-29647.99,-9246.989,-35548.83,-38967.816,-52450.605,-18565.43
801745.9134001762,-50077.434,-57739.3,-29644.94,-9246.379,-35547.527,-38965.09,-52446.74,-18561.809
801745.9174001715,-50074.22,-57735.883,-29643.516,-9246.664,-35547.28,-38966.023,-52442.953,-18560.059
801745.9214001669,-50074.42,-57736.816,-29644.328,-9246.826,-35546.387,-38965.82,-52442.996,-18556.152
801745.9254001622,-50078.004,-57739.746,-29648.316,-9246.989,-35548.18,-38965.332,-52446.86,-18558.432
801745.9294001576,-50080.69,-57743.613,-29651.123,-9247.355,-35549.684,-38968.465,-52452.8,-18568.727
801745.933400153,-50077.8,-57740.97,-29647.99,-9245.117,-35546.51,-38969.08,-52449.18,-18567.018
801745.9374001484,-50075.766,-57737.51,-29644.248,-9244.182,-35544.19,-38966.96,-52443.28,-18562.053
801745.9414001437,-50074.42,-57736.41,-29641.357,-9244.995,-35541.707,-38964.195,-52439.617,-18561.768
801745.9454001391,-50080.04,-57742.35,-29645.346,-9246.948,-35543.703,-38963.91,-52443.32,-18562.094
801745.9494001344,-50085.492,-57748.457,-29651.246,-9248.698,-35549.684,-38965.78,-52450.195,-18570.312
801745.9534001298,-50084.676,-57747.355,-29651.855,-9248.535,-35550.496,-38968.387,-52450.848,-18574.383
801745.9574001251,-50076.824,-57742.027,-29647.666,-9245.769,-35546.875,-38968.875,-52449.3,-18572.307
801745.9614001204,-50075.605,-57740.234,-29644.41,-9243.896,-35543.906,-38969.566,-52446.98,-18567.791
801745.9654001158,-50081.625,-57745.527,-29648.682,-9245.361,-35545.613,-38968.914,-52450.523,-18571.697
801745.9694001111,-50088.34,-57752.973,-29653.605,-9248.82,-35552.86,-38969.363,-52455.0,-18578.451
801745.9734001065,-50082.4,-57748.13,-29652.264,-9245.605,-35554.2,-38968.387,-52452.19,-18575.928
801745.9774001018,-50078.207,-57742.758,-29648.113,-9243.693,-35549.6,-38966.758,-52446.574,-18566.488
801745.9814000973,-50077.56,-57740.316,-29645.957,-9244.263,-35546.184,-38966.023,-52445.027,-18561.85
801745.9854000926,-50082.156,-57745.117,-29651.164,-9246.135,-35549.6,-38967.203,-52448.934,-18565.105
801745.989400088,-50086.55,-57749.15,-29654.705,-9247.03,-35553.305,-38966.473,-52449.42,-18565.023
801745.9934000833,-50082.848,-57745.04,-29654.297,-9244.792,-35550.17,-38967.367,-52448.812,-18564.25
801745.9974000787,-50077.76,-57740.805,-29650.107,-9243.246,-35544.598,-38966.637,-52446.13,-18561.238
801746.001400074,-50076.742,-57740.805,-29647.299,-9243.979,-35543.582,-38965.09,-52445.234,-18558.838
801746.0054000694,-50080.85,-57746.34,-29647.99,-9244.06,-35549.277,-38964.76,-52446.453,-18559.814
801746.0094000647,-50081.707,-57750.33,-29648.805,-9245.077,-35554.28,-38966.594,-52449.63,-18561.646
801746.0134000601,-50077.883,-57747.355,-29645.752,-9244.548,-35550.945,-38968.223,-52447.31,-18556.52
801746.0174000554,-50071.86,-57741.05,-29641.318,-9245.891,-35546.715,-38965.902,-52440.023,-18547.527
801746.0214000508,-50068.727,-57737.387,-29639.975,-9243.979,-35545.004,-38963.582,-52437.46,-18544.475
801746.0254000461,-50069.664,-57738.934,-29642.295,-9242.31,-35545.086,-38963.094,-52440.715,-18545.736
801746.0294000416,-50073.285,-57741.78,-29646.484,-9243.124,-35547.49,-38963.625,-52443.402,-18547.404
801746.0334000369,-50072.31,-57739.42,-29647.666,-9243.856,-35544.92,-38962.605,-52438.723,-18546.428
801746.0374000322,-50071.414,-57738.812,-29646.16,-9244.182,-35540.934,-38961.062,-52433.15,-18540.61
801746.0414000276,-50070.844,-57738.363,-29643.271,-9246.379,-35540.445,-38959.88,-52432.742,-18538.615
801746.0454000229,-50078.37,-57747.6,-29647.258,-9250.285,-35547.324,-38963.746,-52441.69,-18545.41
801746.0494000183,-50083.66,-57754.395,-29649.414,-9250.448,-35552.86,-38966.227,-52446.21,-18554.078
801746.0534000136,-50082.44,-57753.746,-29649.984,-9250.122,-35553.348,-38966.637,-52444.62,-18555.584
801746.057400009,-50077.516,-57748.863,-29646.566,-9248.21,-35550.7,-38966.676,-52440.633,-18550.252
801746.0614000043,-50078.453,-57749.27,-29646.525,-9248.088,-35548.258,-38966.88,-52441.57,-18547.16
801746.0653999997,-50081.746,-57752.16,-29649.578,-9249.634,-35549.93,-38968.75,-52448.977,-18550.781
801746.069399995,-50084.84,-57754.64,-29652.467,-9250.692,-35553.14,-38971.11,-52454.062,-18551.393
801746.0733999904,-50079.227,-57750.977,-29649.902,-9247.925,-35551.11,-38969.77,-52446.86,-18544.922
801746.0773999857,-50075.074,-57748.66,-29646.893,-9246.867,-35547.85,-38967.367,-52441.69,-18543.986
801746.0813999812,-50076.582,-57749.72,-29646.16,-9247.478,-35546.715,-38966.758,-52441.043,-18544.963
801746.0853999765,-50085.29,-57758.344,-29650.514,-9250.651,-35551.188,-38968.793,-52444.297,-18549.846
801746.0893999719,-50098.51,-57771.08,-29655.559,-9251.506,-35557.902,-38968.18,-52445.234,-18553.793
801746.0933999672,-50094.16,-57769.37,-29650.514,-9248.332,-35556.195,-38967.855,-52441.938,-18552.938
801746.0973999626,-50072.88,-57751.71,-29641.236,-9246.054,-35549.562,-38968.668,-52438.805,-18550.701
801746.1013999579,-50064.7,-57743.004,-29637.207,-9244.751,-35546.51,-38967.734,-52438.805,-18549.072
801746.1053999533,-50069.746,-57750.082,-29639.445,-9244.751,-35551.027,-38965.457,-52442.383,-18547.404
801746.1093999486,-50073.12,-57758.02,-29642.254,-9246.257,-35557.09,-38966.676,-52446.535,-18550.66
801746.1133999439,-50069.867,-57755.496,-29640.748,-9245.077,-35556.684,-38967.45,-52445.027,-18551.19
801746.1173999393,-50061.117,-57748.58,-29636.15,-9244.141,-35551.84,-38967.734,-52441.977,-18546.51
801746.1213999346,-50054.445,-57744.875,-29634.197,-9244.345,-35549.805,-38966.15,-52440.918,-18546.387
801746.12539993,-50051.35,-57745.527,-29632.568,-9244.385,-35552.938,-38963.83,-52443.484,-18549.113
801746.1293999254,-50050.496,-57746.137,-29631.756,-9244.995,-35556.52,-38964.273,-52445.438,-18552.043
801746.1333999208,-50044.19,-57740.848,-29628.582,-9243.9375,-35553.426,-38964.887,-52443.117,-18549.684
801746.1373999161,-50036.297,-57736.25,-29623.455,-9243.693,-35549.195,-38964.52,-52440.88,-18546.59
801746.1413999115,-50030.6,-57733.48,-29621.055,-9243.002,-35551.434,-38962.77,-52440.066,-18540.73
801746.1453999068,-50031.984,-57736.86,-29623.17,-9243.652,-35557.008,-38964.438,-52448.164,-18548.422
801746.1493999022,-50028.566,-57733.848,-29622.967,-9245.28,-35556.03,-38967.855,-52456.055,-18553.143
801746.1533998975,-50020.67,-57728.76,-29617.676,-9242.636,-35551.676,-38968.875,-52454.793,-18548.219
801746.1573998929,-50010.664,-57722.656,-29610.76,-9239.746,-35547.363,-38969.44,-52453.535,-18550.293
801746.1613998882,-50006.88,-57724.734,-29607.057,-9239.746,-35549.52,-38969.566,-52451.945,-18545.857
801746.1653998836,-50009.074,-57728.76,-29605.957,-9239.828,-35553.1,-38967.938,-52450.24,-18543.254
801746.1693998789,-50005.574,-57730.715,-29606.04,-9239.258,-35557.008,-38965.617,-52448.082,-18541.219
801746.1733998744,-50000.57,-57727.62,-29605.062,-9239.502,-35556.4,-38965.496,-52446.492,-18539.104
801746.1773998697,-49997.48,-57727.133,-29606.365,-9238.363,-35552.004,-38964.273,-52442.465,-18534.547
801746.1813998651,-49998.17,-57729.37,-29608.887,-9240.723,-35549.805,-38963.258,-52439.74,-18530.844
801746.1853998604,-49996.867,-57728.438,-29609.092,-9241.903,-35550.824,-38962.445,-52441.57,-18538.941
801746.1893998557,-49997.723,-57730.188,-29609.986,-9242.106,-35554.402,-38961.793,-52442.02,-18542.236
801746.1933998511,-50000.043,-57734.375,-29609.416,-9243.002,-35557.21,-38961.426,-52438.926,-18540.283
801746.1973998464,-49994.71,-57728.64,-29604.656,-9240.601,-35552.816,-38958.984,-52433.31,-18536.947
801746.2013998418,-49995.242,-57729.98,-29603.8,-9239.421,-35552.164,-38958.58,-52430.586,-18531.982
801746.2053998371,-50000.45,-57736.29,-29605.43,-9242.065,-35555.42,-38959.84,-52434.367,-18535.727
801746.2093998325,-50007.04,-57744.914,-29609.457,-9243.246,-35560.305,-38962.65,-52438.113,-18534.262
801746.2133998278,-50010.176,-57748.13,-29611.004,-9242.92,-35561.81,-38965.13,-52438.52,-18532.105
801746.2173998232,-50009.2,-57744.426,-29612.305,-9242.27,-35556.926,-38964.56,-52439.82,-18536.336
801746.2213998185,-50015.098,-57745.85,-29616.863,-9241.74,-35555.79,-38963.055,-52442.305,-18536.865
801746.225399814,-50028.242,-57755.82,-29623.088,-9244.955,-35560.996,-38966.555,-52447.266,-18539.186
801746.2293998093,-50036.99,-57762.29,-29628.174,-9246.054,-35565.555,-38967.9,-52450.93,-18541.219
801746.2333998047,-50038.7,-57761.8,-29624.96,-9245.646,-35564.78,-38966.84,-52449.3,-18539.104
801746.2373998,-50035.848,-57758.18,-29620.89,-9244.995,-35559.207,-38966.188,-52445.152,-18528.688
801746.2413997954,-50036.785,-57757.164,-29618.613,-9242.961,-35555.83,-38965.535,-52442.06,-18524.984
801746.2453997907,-50044.516,-57763.227,-29621.787,-9244.182,-35558.72,-38966.15,-52443.28,-18530.64
801746.2493997861,-50052.656,-57772.383,-29628.256,-9247.559,-35563.438,-38967.613,-52446.13,-18532.268
801746.2533997814,-50053.996,-57773.52,-29628.541,-9248.332,-35561.24,-38967.33,-52441.69,-18528.729
801746.2573997768,-50055.992,-57774.133,-29628.947,-9249.1455,-35560.67,-38966.188,-52439.78,-18529.623
801746.2613997721,-50060.06,-57776.164,-29630.9,-9249.35,-35560.387,-38965.74,-52439.535,-18528.484
801746.2653997674,-50068.156,-57783.367,-29632.773,-9249.1455,-35562.34,-38965.863,-52444.418,-18529.623
801746.2693997629,-50075.727,-57791.098,-29635.295,-9250.529,-35567.63,-38967.652,-52449.586,-18533.814
801746.2733997582,-50075.117,-57789.023,-29633.342,-9249.919,-35566.406,-38969.2,-52448.367,-18529.908
801746.2773997536,-50071.453,-57784.75,-29629.355,-9249.1455,-35561.363,-38969.363,-52445.723,-18531.78
801746.2813997489,-50074.22,-57786.543,-29629.762,-9251.14,-35558.594,-38968.344,-52443.688,-18526.611
801746.2853997443,-50079.918,-57793.05,-29631.959,-9252.6455,-35563.355,-38966.434,-52443.93,-18521.81
801746.2893997396,-50084.23,-57801.27,-29635.703,-9255.453,-35568.523,-38964.844,-52442.547,-18519.043
801746.293399735,-50083.824,-57801.883,-29636.354,-9256.552,-35571.13,-38963.91,-52438.4,-18516.887
801746.2973997303,-50081.543,-57799.645,-29634.238,-9254.232,-35571.332,-38961.426,-52431.805,-18511.557
801746.3013997257,-50082.234,-57799.684,-29631.553,-9252.971,-35570.844,-38959.027,-52427.98,-18508.465
801746.305399721,-50084.11,-57802.29,-29632.08,-9255.371,-35571.414,-38958.05,-52428.348,-18506.062
801746.3093997164,-50087.605,-57806.36,-29633.83,-9256.999,-35573.49,-38959.11,-52429.688,-18508.912
801746.3133997117,-50082.93,-57801.312,-29630.088,-9254.11,-35568.2,-38958.414,-52426.598,-18507.895
801746.3173997072,-50081.34,-57797.773,-29627.89,-9253.215,-35563.844,-38958.742,-52425.496,-18504.11
801746.3213997025,-50081.625,-57796.875,-29627.564,-9255.737,-35562.094,-38959.188,-52427.613,-18502.85
801746.3253996979,-50086.63,-57802.086,-29633.424,-9259.481,-35564.617,-38960.45,-52432.54,-18504.68
801746.3293996932,-50090.82,-57805.3,-29636.719,-9260.702,-35568.484,-38961.914,-52435.223,-18511.8
801746.3333996886,-50086.836,-57800.99,-29635.58,-9259.604,-35566.043,-38963.137,-52431.805,-18506.756
801746.3373996839,-50081.668,-57795.207,-29631.918,-9257.08,-35562.418,-38961.062,-52425.824,-18492.596
801746.3413996792,-50080.242,-57792.48,-29629.15,-9256.348,-35560.508,-38959.96,-52423.137,-18491.902
801746.3453996746,-50083.58,-57796.266,-29631.064,-9257.65,-35560.996,-38960.45,-52425.703,-18495.158
801746.3493996699,-50086.914,-57799.766,-29634.889,-9260.132,-35566.652,-38960.367,-52427.246,-18496.297
801746.3533996653,-50084.188,-57798.016,-29634.277,-9257.568,-35563.438,-38959.23,-52422.895,-18495.32
801746.3573996606,-50083.336,-57798.707,-29633.424,-9256.063,-35560.223,-38959.637,-52420.535,-18490.846
801746.361399656,-50086.47,-57801.516,-29632.53,-9257.446,-35560.953,-38959.027,-52420.125,-18489.137
801746.3653996513,-50092.652,-57806.684,-29634.074,-9258.301,-35564.656,-38958.58,-52424.113,-18494.71
801746.3693996468,-50094.688,-57809.492,-29633.668,-9258.789,-35568.117,-38959.8,-52428.305,-18498.455
801746.3733996421,-50089.64,-57804.85,-29631.309,-9257.162,-35562.418,-38959.637,-52425.133,-18493.002
801746.3773996375,-50084.72,-57798.547,-29629.639,-9253.744,-35555.83,-38959.598,-52421.227,-18487.672
801746.3813996328,-50086.223,-57797.61,-29630.291,-9254.028,-35556.766,-38959.676,-52419.598,-18486.207
801746.3853996282,-50091.188,-57801.27,-29632.203,-9257.08,-35557.617,-38960.125,-52425.906,-18496.297
801746.3893996235,-50096.273,-57808.27,-29635.01,-9259.481,-35562.703,-38961.508,-52431.52,-18505.086
801746.3933996189,-50094.363,-57807.617,-29634.807,-9258.383,-35561.28,-38962.402,-52431.195,-18502.035
801746.3973996142,-50091.188,-57802.695,-29633.3,-9255.819,-35557.21,-38961.223,-52428.348,-18500.367
801746.4013996096,-50092.164,-57803.67,-29633.139,-9255.656,-35556.56,-38961.305,-52429.363,-18500.0
801746.4053996049,-50097.09,-57808.027,-29636.11,-9256.592,-35558.84,-38961.14,-52435.02,-18506.674
801746.4093996002,-50101.402,-57813.477,-29637.736,-9257.935,-35566.53,-38963.91,-52438.68,-18511.19
801746.4133995957,-50100.63,-57813.234,-29636.842,-9256.674,-35566.773,-38963.664,-52435.996,-18510.906
801746.417399591,-50095.297,-57807.05,-29632.406,-9255.209,-35560.387,-38960.207,-52431.03,-18505.33
801746.4213995864,-50094.605,-57806.887,-29629.762,-9253.5,-35555.79,-38960.043,-52427.816,-18496.623
801746.4253995817,-50100.63,-57813.64,-29632.121,-9255.005,-35559.652,-38960.574,-52431.52,-18499.064
801746.4293995771,-50103.152,-57816.0,-29634.197,-9255.453,-35564.332,-38961.266,-52433.105,-18501.588
801746.4333995724,-50100.87,-57813.477,-29632.812,-9256.633,-35560.875,-38962.445,-52429.242,-18496.99
801746.4373995678,-50098.758,-57810.547,-29629.111,-9257.121,-35558.51,-38962.16,-52425.58,-18491.293
801746.4413995631,-50099.164,-57811.73,-29628.174,-9257.365,-35558.188,-38961.14,-52423.055,-18486.166
801746.4453995585,-50103.312,-57817.344,-29630.941,-9260.092,-35560.344,-38961.344,-52424.195,-18486.166
801746.4493995538,-50103.926,-57816.613,-29631.918,-9260.01,-35559.33,-38960.125,-52423.26,-18486.166
801746.4533995492,-50100.3,-57813.52,-29629.6,-9258.545,-35554.77,-38959.96,-52418.99,-18481.61
801746.4573995445,-50096.965,-57809.53,-29627.605,-9258.545,-35550.7,-38960.45,-52416.504,-18479.736
801746.46139954,-50096.926,-57810.71,-29629.6,-9259.196,-35550.05,-38958.902,-52417.24,-18474.0
801746.4653995353,-50101.645,-57816.652,-29633.22,-9261.516,-35552.86,-38959.92,-52420.535,-18475.627
801746.4693995307,-50103.926,-57817.75,-29635.906,-9260.742,-35555.79,-38962.527,-52422.73,-18479.9
801746.473399526,-50101.156,-57814.82,-29634.36,-9259.318,-35553.266,-38962.566,-52420.207,-18481.404
801746.4773995214,-50097.984,-57812.42,-29633.342,-9259.807,-35550.21,-38960.938,-52419.395,-18480.713
801746.4813995167,-50100.02,-57813.76,-29633.057,-9262.248,-35549.805,-38958.58,-52417.24,-18475.709
801746.485399512,-50107.383,-57820.355,-29638.633,-9266.643,-35558.023,-38959.312,-52420.98,-18478.23
801746.4893995074,-50108.44,-57822.145,-29640.26,-9266.5205,-35563.03,-38961.63,-52425.375,-18483.643
801746.4933995027,-50104.13,-57817.75,-29635.133,-9263.347,-35560.59,-38965.008,-52428.062,-18483.277
801746.4973994981,-50095.703,-57811.688,-29629.883,-9258.464,-35553.14,-38964.195,-52426.8,-18479.574
801746.5013994934,-50093.996,-57808.312,-29628.418,-9258.871,-35550.336,-38964.6,-52429.61,-18484.945
801746.5053994888,-50101.36,-57813.684,-29629.762,-9261.3125,-35553.875,-38963.055,-52430.707,-18482.504
801746.5093994841,-50107.344,-57821.414,-29633.912,-9264.526,-35559.367,-38962.81,-52434.164,-18489.299
801746.5133994796,-50108.48,-57824.547,-29635.824,-9264.526,-35562.46,-38962.04,-52434.855,-18487.793
801746.5173994749,-50106.69,-57823.57,-29633.424,-9262.817,-35560.387,-38960.53,-52433.105,-18484.498
801746.5213994703,-50111.777,-57829.754,-29633.668,-9267.131,-35564.535,-38961.1,-52433.23,-18482.87
801746.5253994656,-50117.473,-57835.98,-29635.906,-9268.555,-35569.703,-38961.426,-52434.613,-18482.098
801746.529399461,-50120.16,-57837.445,-29637.045,-9268.352,-35570.76,-38961.426,-52433.39,-18482.504
801746.5333994563,-50118.45,-57835.246,-29635.986,-9267.538,-35570.72,-38962.402,-52432.17,-18484.01
801746.5373994517,-50116.742,-57834.473,-29633.424,-9265.869,-35566.406,-38963.38,-52426.35,-18477.865
801746.541399447,-50115.887,-57833.78,-29632.732,-9265.585,-35561.727,-38960.9,-52425.336,-18476.441
801746.5453994424,-50122.926,-57841.92,-29636.11,-9270.02,-35569.215,-38961.793,-52428.793,-18481.486
801746.5493994377,-50127.523,-57844.566,-29638.877,-9273.845,-35573.812,-38962.566,-52432.66,-18485.107
801746.5533994331,-50125.49,-57840.457,-29639.201,-9272.177,-35567.547,-38962.484,-52430.664,-18482.992
801746.5573994284,-50122.273,-57834.72,-29635.459,-9267.497,-35561.81,-38960.043,-52425.58,-18480.836
801746.5613994238,-50121.707,-57831.055,-29631.592,-9267.172,-35562.297,-38961.387,-52424.93,-18479.29
801746.5653994192,-50123.984,-57833.336,-29634.318,-9268.962,-35562.906,-38965.008,-52431.074,-18478.557
801746.5693994145,-50124.39,-57830.977,-29636.15,-9266.928,-35560.953,-38969.93,-52436.16,-18478.842
801746.5733994099,-50120.89,-57828.086,-29635.05,-9263.713,-35559.977,-38970.01,-52435.59,-18481.201
801746.5773994052,-50118.98,-57825.156,-29634.277,-9261.882,-35555.91,-38968.547,-52433.39,-18478.719
801746.5813994006,-50115.438,-57818.484,-29634.766,-9261.841,-35550.21,-38967.613,-52435.47,-18476.521
801746.5853993959,-50112.754,-57815.023,-29637.412,-9264.16,-35552.652,-38969.566,-52442.383,-18480.592
801746.5893993913,-50118.855,-57822.96,-29641.725,-9266.724,-35559.246,-38969.77,-52444.95,-18482.91
801746.5933993866,-50119.47,-57824.668,-29641.277,-9266.235,-35558.023,-38968.996,-52440.88,-18481.08
801746.597399382,-50115.926,-57819.867,-29639.648,-9264.323,-35550.78,-38966.715,-52434.652,-18476.604
801746.6013993773,-50117.027,-57818.44,-29641.195,-9265.137,-35547.85,-38968.465,-52436.32,-18476.766
801746.6053993728,-50122.76,-57822.023,-29644.207,-9265.503,-35549.6,-38968.71,-52440.633,-18482.26
801746.609399368,-50125.33,-57825.117,-29644.287,-9264.812,-35552.125,-38967.9,-52440.84,-18484.54
801746.6133993635,-50122.48,-57823.977,-29643.027,-9263.144,-35548.87,-38967.652,-52438.273,-18485.637
801746.6173993588,-50121.46,-57823.45,-29641.887,-9265.178,-35545.207,-38969.08,-52434.53,-18480.672
801746.6213993542,-50121.297,-57824.3,-29640.137,-9265.015,-35544.516,-38967.45,-52430.79,-18472.78
801746.6253993495,-50127.2,-57831.707,-29643.719,-9267.456,-35550.008,-38966.434,-52431.887,-18474.0
801746.6293993449,-50132.324,-57838.055,-29646.24,-9270.02,-35552.777,-38965.496,-52433.88,-18475.18
801746.6333993402,-50131.062,-57837.16,-29642.904,-9269.287,-35552.086,-38965.13,-52430.586,-18473.186
801746.6373993355,-50129.64,-57835.816,-29641.236,-9269.531,-35551.066,-38965.74,-52427.53,-18468.994
801746.6413993309,-50128.703,-57833.945,-29639.445,-9267.822,-35549.97,-38964.48,-52422.04,-18461.06
801746.6453993262,-50132.367,-57836.1,-29643.23,-9268.188,-35553.062,-38966.227,-52425.293,-18466.023
801746.6493993216,-50132.895,-57837.12,-29642.498,-9268.677,-35555.3,-38966.434,-52426.11,-18471.15
801746.653399317,-50129.76,-57836.55,-29638.266,-9267.253,-35555.094,-38964.07,-52420.004,-18463.623
801746.6573993124,-50128.664,-57836.71,-29636.516,-9269.247,-35556.03,-38962.2,-52413.7,-18454.143
801746.6613993077,-50132.0,-57838.992,-29636.68,-9270.59,-35559.53,-38961.02,-52411.95,-18447.021
801746.6653993031,-50138.43,-57845.746,-29641.398,-9271.484,-35564.656,-38960.367,-52413.82,-18449.383
801746.6693992984,-50141.97,-57850.832,-29643.637,-9272.502,-35571.37,-38962.484,-52416.18,-18450.48
801746.6733992938,-50141.277,-57850.71,-29639.04,-9273.764,-35572.184,-38964.4,-52415.938,-18449.666
801746.6773992891,-50139.61,-57849.406,-29637.33,-9273.031,-35568.484,-38965.535,-52416.06,-18446.777
801746.6813992845,-50140.547,-57850.793,-29637.127,-9273.031,-35566.69,-38962.81,-52416.63,-18445.557
801746.6853992798,-50146.242,-57854.74,-29639.242,-9274.374,-35571.453,-38961.344,-52420.004,-18445.842
801746.6893992752,-50147.258,-57855.39,-29639.04,-9272.705,-35571.453,-38960.29,-52420.37,-18445.271
801746.6933992705,-50142.254,-57851.32,-29637.412,-9271.525,-35567.75,-38963.258,-52420.656,-18445.8
801746.697399266,-50139.57,-57846.723,-29635.824,-9271.933,-35565.145,-38964.52,-52419.516,-18449.545
801746.7013992612,-50141.562,-57845.582,-29635.865,-9272.909,-35562.99,-38964.195,-52418.785,-18445.068
801746.7053992567,-50142.78,-57848.35,-29639.975,-9273.193,-35564.25,-38966.31,-52422.527,-18443.28
801746.709399252,-50143.598,-57849.12,-29643.271,-9272.299,-35564.656,-38967.977,-52426.84,-18450.807
801746.7133992473,-50136.56,-57840.78,-29639.648,-9267.05,-35557.496,-38966.227,-52424.48,-18453.654
801746.7173992427,-50130.82,-57834.555,-29638.145,-9264.689,-35554.445,-38965.008,-52422.363,-18451.213
801746.721399238,-50134.523,-57834.84,-29639.121,-9266.439,-35553.63,-38963.504,-52422.977,-18453.125
801746.7253992334,-50141.035,-57840.293,-29641.562,-9270.264,-35557.617,-38963.22,-52427.207,-18457.967
801746.7293992287,-50143.19,-57843.59,-29640.342,-9271.322,-35560.14,-38964.805,-52430.664,-18464.926
801746.7333992241,-50142.5,-57843.26,-29639.934,-9270.874,-35559.45,-38965.414,-52428.426,-18459.188
801746.7373992194,-50139.773,-57838.504,-29638.754,-9269.653,-35555.504,-38963.582,-52423.465,-18446.656
801746.7413992148,-50137.9,-57835.695,-29638.348,-9270.224,-35551.434,-38962.973,-52422.73,-18442.627
801746.7453992101,-50141.24,-57837.16,-29640.707,-9269.653,-35552.9,-38962.117,-52426.598,-18450.154
801746.7493992056,-50144.695,-57841.676,-29643.066,-9269.857,-35556.277,-38964.152,-52432.008,-18457.805
801746.7533992009,-50137.9,-57838.098,-29639.365,-9267.538,-35553.508,-38964.113,-52431.03,-18451.498
801746.7573991963,-50133.87,-57834.92,-29636.598,-9266.357,-35551.11,-38964.723,-52427.125,-18446.777
801746.7613991916,-50132.12,-57832.727,-29634.156,-9265.381,-35548.016,-38962.65,-52424.074,-18439.209
801746.765399187,-50136.8,-57837.688,-29636.068,-9265.991,-35552.492,-38963.016,-52428.062,-18438.477
801746.7693991823,-50138.51,-57840.66,-29637.695,-9268.921,-35554.77,-38964.887,-52433.027,-18442.303
801746.7733991777,-50134.156,-57838.016,-29634.848,-9268.881,-35551.516,-38965.21,-52430.625,-18435.75
801746.777399173,-50131.594,-57834.758,-29633.018,-9267.456,-35550.008,-38965.74,-52428.1,-18427.37
801746.7813991683,-50131.023,-57834.72,-29633.262,-9266.5205,-35549.36,-38965.332,-52427.777,-18426.066
801746.7853991637,-50136.312,-57839.844,-29635.377,-9268.026,-35551.883,-38964.273,-52430.176,-18426.555
801746.789399159,-50137.207,-57841.84,-29637.818,-9269.165,-35553.348,-38965.13,-52431.844,-18428.996
801746.7933991544,-50134.523,-57840.414,-29633.668,-9269.491,-35553.02,-38965.17,-52429.363,-18430.828
801746.7973991497,-50132.246,-57835.777,-29629.232,-9270.264,-35549.887,-38964.48,-52425.457,-18429.322
801746.8013991452,-50134.523,-57837.89,-29628.906,-9270.63,-35552.41,-38963.504,-52423.137,-18427.287
801746.8053991405,-50138.51,-57842.492,-29632.0,-9272.299,-35557.375,-38961.914,-52426.11,-18427.979
801746.8093991359,-50140.87,-57843.26,-29633.75,-9271.322,-35558.555,-38960.043,-52428.223,-18429.607
801746.8133991312,-50137.574,-57840.332,-29632.406,-9268.2295,-35555.83,-38960.492,-52426.027,-18428.305
801746.8173991266,-50134.277,-57834.516,-29630.82,-9267.985,-35549.766,-38961.47,-52422.242,-18426.393
801746.8213991219,-50135.54,-57834.516,-29631.797,-9268.433,-35547.49,-38961.223,-52420.29,-18420.41
801746.8253991173,-50139.242,-57838.22,-29633.75,-9267.334,-35547.65,-38958.66,-52422.773,-18422.04
801746.8293991126,-50142.5,-57840.09,-29637.695,-9268.393,-35551.676,-38958.254,-52427.938,-18430.096
801746.833399108,-50139.285,-57834.96,-29637.94,-9267.334,-35549.156,-38958.902,-52429.445,-18433.146
801746.8373991033,-50137.25,-57832.074,-29635.986,-9266.928,-35545.74,-38959.027,-52429.363,-18430.787
801746.8413990987,-50139.082,-57832.195,-29634.807,-9266.765,-35543.945,-38960.45,-52430.95,-18431.438
801746.845399094,-50143.965,-57837.28,-29639.975,-9268.433,-35548.18,-38963.582,-52436.117,-18437.256
801746.8493990895,-50144.86,-57838.3,-29641.602,-9268.881,-35550.62,-38963.867,-52438.316,-18443.035
801746.8533990848,-50140.465,-57835.777,-29640.545,-9266.398,-35547.812,-38962.16,-52437.01,-18446.248
801746.8573990801,-50138.105,-57833.293,-29639.201,-9264.201,-35543.582,-38962.28,-52433.35,-18441.773
801746.8613990755,-50136.883,-57831.18,-29638.428,-9263.876,-35541.75,-38960.734,-52431.844,-18438.07
801746.8653990708,-50140.625,-57833.254,-29644.451,-9267.578,-35545.25,-38963.582,-52437.625,-18444.459
801746.8693990662,-50142.66,-57836.71,-29645.957,-9269.45,-35548.79,-38963.95,-52441.53,-18450.195
801746.8733990615,-50140.016,-57837.28,-29645.752,-9270.468,-35548.746,-38963.664,-52440.555,-18445.72
801746.8773990569,-50132.69,-57830.203,-29640.748,-9268.921,-35546.47,-38963.785,-52437.582,-18437.867
801746.8813990522,-50129.03,-57827.637,-29638.428,-9268.188,-35547.566,-38962.688,-52435.59,-18436.564
801746.8853990476,-50125.57,-57826.703,-29636.027,-9266.317,-35549.277,-38959.312,-52433.594,-18432.658
801746.8893990429,-50124.473,-57827.598,-29637.004,-9266.398,-35550.824,-38960.125,-52434.004,-18431.193
801746.8933990384,-50120.85,-57823.69,-29637.451,-9264.689,-35550.133,-38960.492,-52430.867,-18430.135
801746.8973990337,-50117.516,-57821.332,-29634.156,-9264.7705,-35549.316,-38959.15,-52426.72,-18427.166
801746.9013990291,-50116.863,-57821.535,-29631.186,-9266.562,-35550.21,-38957.645,-52426.598,-18423.422
801746.9053990244,-50123.13,-57826.785,-29635.58,-9270.305,-35553.67,-38958.133,-52429.566,-18422.445
801746.9093990198,-50128.62,-57830.363,-29637.29,-9272.014,-35557.375,-38960.652,-52433.84,-18425.334
801746.9133990151,-50125.0,-57825.605,-29635.133,-9268.84,-35554.934,-38960.207,-52431.4,-18429.12
801746.9173990105,-50124.797,-57822.43,-29632.732,-9267.131,-35552.207,-38958.05,-52425.54,-18422.16
801746.9213990058,-50117.555,-57821.74,-29634.441,-9269.694,-35551.434,-38956.543,-52425.215,-18422.893
801746.9253990012,-50116.133,-57824.953,-29635.05,-9271.037,-35552.29,-38953.33,-52428.71,-18422.771
801746.9293989965,-50123.008,-57832.074,-29636.719,-9271.2,-35558.96,-38954.633,-52432.82,-18425.863
801746.9333989918,-50121.746,-57832.36,-29636.027,-9269.694,-35559.938,-38956.668,-52434.9,-18425.863
801746.9373989872,-50116.457,-57826.867,-29631.186,-9268.066,-35555.46,-38956.34,-52433.676,-18420.29
801746.9413989825,-50116.17,-57822.43,-29628.988,-9266.724,-35550.008,-38954.715,-52434.367,-18413.574
801746.945398978,-50121.746,-57827.395,-29632.854,-9268.2705,-35554.484,-38954.957,-52439.902,-18411.662
801746.9493989733,-50128.746,-57832.48,-29638.021,-9271.2,-35559.043,-38955.85,-52443.848,-18413.941
801746.9533989687,-50129.438,-57832.195,-29639.568,-9272.502,-35559.938,-38955.812,-52441.895,-18412.762
801746.957398964,-50123.457,-57828.004,-29635.906,-9270.142,-35556.805,-38955.445,-52438.56,-18410.32
801746.9613989594,-50119.754,-57826.703,-29632.812,-9269.409,-35555.992,-38955.77,-52439.863,-18408.162
801746.9653989547,-50122.926,-57831.26,-29633.953,-9271.118,-35559.33,-38958.58,-52448.895,-18413.33
801746.9693989501,-50127.117,-57835.125,-29636.11,-9271.078,-35561.973,-38959.637,-52451.336,-18413.9
801746.9733989454,-50122.316,-57831.055,-29634.156,-9270.63,-35557.82,-38961.266,-52446.37,-18407.43
801746.9773989408,-50114.746,-57823.812,-29632.406,-9267.782,-35553.14,-38957.848,-52436.484,-18398.275
801746.9813989361,-50112.062,-57819.906,-29631.227,-9267.619,-35551.883,-38953.29,-52428.426,-18385.986
801746.9853989315,-50115.6,-57824.06,-29631.756,-9267.66,-35553.02,-38953.004,-52429.566,-18382.812
801746.9893989268,-50117.066,-57825.848,-29633.627,-9267.944,-35555.992,-38957.645,-52434.285,-18386.598
801746.9933989223,-50111.816,-57822.754,-29633.018,-9265.829,-35553.1,-38956.992,-52434.004,-18386.271
801746.9973989176,-50106.242,-57818.36,-29627.605,-9264.812,-35548.34,-38958.09,-52431.684,-18384.725
801747.001398913,-50102.38,-57815.88,-29623.291,-9264.323,-35544.883,-38956.79,-52429.12,-18378.541
801747.0053989083,-50108.645,-57822.473,-29624.023,-9264.853,-35549.723,-38955.812,-52428.266,-18378.947
801747.0093989036,-50117.88,-57832.727,-29626.426,-9266.195,-35554.363,-38953.9,-52426.23,-18380.697
801747.013398899,-50112.59,-57825.277,-29626.873,-9264.445,-35552.043,-38952.72,-52426.312,-18383.26
801747.0173988943,-50103.11,-57811.566,-29625.896,-9263.021,-35544.598,-38954.47,-52429.89,-18391.072
801747.0213988897,-50098.555,-57804.2,-29624.717,-9263.347,-35540.203,-38956.992,-52433.31,-18390.463
801747.025398885,-50099.855,-57806.03,-29627.238,-9263.998,-35542.93,-38957.97,-52439.656,-18395.996
801747.0293988804,-50098.633,-57803.305,-29630.86,-9262.207,-35539.145,-38957.97,-52443.523,-18399.334
801747.0333988757,-50092.57,-57794.027,-29629.639,-9259.685,-35533.285,-38957.97,-52443.117,-18397.176
801747.0373988712,-50083.742,-57781.13,-29628.012,-9259.318,-35525.027,-38957.848,-52441.12,-18391.316
801747.0413988665,-50080.566,-57776.574,-29627.076,-9260.132,-35521.73,-38956.46,-52441.855,-18386.719
801747.0453988619,-50082.36,-57776.938,-29628.418,-9260.498,-35523.277,-38957.4,-52446.168,-18386.271
801747.0493988572,-50084.598,-57779.176,-29632.041,-9261.516,-35527.63,-38959.676,-52449.79,-18388.51
801747.0533988526,-50082.156,-57772.42,-29631.064,-9260.864,-35523.438,-38960.9,-52448.652,-18389.16
801747.0573988479,-50072.918,-57762.535,-29627.809,-9257.8125,-35516.93,-38958.008,-52442.18,-18382.08
801747.0613988433,-50073.773,-57763.633,-29625.488,-9258.708,-35514.895,-38956.543,-52438.273,-18370.037
801747.0653988386,-50078.94,-57767.945,-29626.994,-9258.83,-35516.195,-38955.566,-52437.95,-18369.1
801747.069398834,-50082.48,-57770.305,-29631.064,-9259.685,-35518.434,-38955.934,-52437.664,-18369.1
801747.0733988293,-50080.203,-57765.832,-29628.135,-9258.871,-35517.945,-38956.87,-52434.33,-18365.926
801747.0773988247,-50078.37,-57764.61,-29624.676,-9256.308,-35516.48,-38958.09,-52429.324,-18367.84
801747.08139882,-50080.04,-57767.336,-29626.547,-9256.674,-35514.977,-38957.766,-52425.58,-18363.648
801747.0853988153,-50084.758,-57773.684,-29629.395,-9258.383,-35517.293,-38956.504,-52425.215,-18363.404
801747.0893988108,-50089.4,-57779.016,-29631.592,-9257.772,-35519.45,-38954.875,-52423.707,-18366.822
801747.093398806,-50089.234,-57779.22,-29632.53,-9256.958,-35519.492,-38953.816,-52420.74,-18369.02
801747.0973988015,-50087.85,-57777.14,-29632.447,-9258.464,-35521.04,-38952.76,-52419.355,-18367.27
801747.1013987968,-50087.973,-57777.426,-29632.203,-9259.155,-35521.445,-38951.785,-52418.05,-18365.723
801747.1053987922,-50095.215,-57787.68,-29636.068,-9261.19,-35525.96,-38952.965,-52421.836,-18368.572
801747.1093987875,-50100.71,-57793.867,-29641.195,-9262.126,-35529.258,-38954.1,-52426.434,-18370.646
801747.1133987829,-50102.582,-57794.273,-29642.334,-9261.923,-35529.746,-38955.973,-52429.812,-18375.691
801747.1173987782,-50100.75,-57792.727,-29639.16,-9261.76,-35527.59,-38957.195,-52430.867,-18378.377
801747.1213987736,-50102.906,-57794.844,-29638.348,-9262.939,-35527.832,-38957.684,-52432.54,-18380.982
801747.1253987689,-50107.625,-57802.004,-29643.799,-9264.812,-35533.406,-38958.78,-52435.793,-18382.65
801747.1293987643,-50109.945,-57804.484,-29645.875,-9267.66,-35537.598,-38957.97,-52438.76,-18378.133
801747.1333987596,-50106.49,-57802.125,-29642.334,-9266.235,-35536.176,-38956.586,-52440.35,-18377.238
801747.1373987551,-50104.492,-57800.17,-29640.666,-9266.846,-35534.75,-38957.03,-52441.69,-18378.826
801747.1413987504,-50104.414,-57797.082,-29639.365,-9266.073,-35531.047,-38956.46,-52441.977,-18374.676
801747.1453987458,-50106.934,-57797.12,-29640.625,-9265.219,-35531.656,-38955.85,-52445.152,-18368.246
801747.1493987411,-50108.32,-57799.645,-29642.375,-9264.689,-35533.043,-38957.36,-52446.86,-18370.24
801747.1533987365,-50103.516,-57796.105,-29639.242,-9262.573,-35529.91,-38959.027,-52445.234,-18367.352
801747.1573987318,-50099.12,-57790.203,-29634.604,-9261.841,-35525.594,-38958.496,-52441.977,-18360.963
801747.1613987271,-50096.56,-57787.965,-29632.0,-9261.271,-35523.64,-38958.414,-52438.6,-18355.266
801747.1653987225,-50099.285,-57793.582,-29632.895,-9260.417,-35526.9,-38959.516,-52441.855,-18359.375
801747.1693987178,-50103.477,-57799.97,-29637.207,-9262.655,-35533.246,-38960.695,-52445.355,-18364.299
801747.1733987132,-50103.11,-57799.523,-29636.963,-9263.144,-35532.918,-38962.65,-52445.516,-18369.02
801747.1773987085,-50101.402,-57799.44,-29633.3,-9263.388,-35529.42,-38961.223,-52443.2,-18371.785
801747.181398704,-50099.53,-57797.934,-29632.041,-9263.103,-35526.207,-38960.53,-52440.84,-18375.488
801747.1853986993,-50102.785,-57798.83,-29634.156,-9262.045,-35524.82,-38959.15,-52441.895,-18380.494
801747.1893986947,-50108.523,-57803.305,-29639.08,-9263.55,-35529.176,-38959.35,-52442.668,-18385.295
801747.19339869,-50109.133,-57804.28,-29641.236,-9265.178,-35529.95,-38961.832,-52445.395,-18393.596
801747.1973986854,-50106.49,-57802.453,-29638.55,-9263.591,-35527.71,-38960.53,-52443.848,-18391.846
801747.2013986807,-50106.934,-57803.957,-29637.451,-9263.876,-35526.734,-38958.336,-52441.367,-18387.654
801747.2053986761,-50108.195,-57806.195,-29637.695,-9264.201,-35530.477,-38955.363,-52441.45,-18390.79
801747.2093986714,-50112.59,-57811.65,-29640.342,-9265.178,-35534.547,-38954.836,-52442.426,-18390.463
801747.2133986668,-50112.227,-57809.53,-29639.365,-9263.55,-35531.414,-38955.77,-52440.43,-18389.73
801747.2173986621,-50107.26,-57803.793,-29636.639,-9261.149,-35526.285,-38954.918,-52435.996,-18386.068
801747.2213986575,-50104.777,-57804.04,-29634.686,-9261.557,-35524.742,-38954.43,-52433.39,-18381.389
801747.2253986528,-50106.57,-57807.008,-29636.11,-9263.266,-35526.246,-38952.434,-52432.66,-18380.209
801747.2293986481,-50109.297,-57811.566,-29638.633,-9265.381,-35530.355,-38953.33,-52434.004,-18376.953
801747.2333986436,-50104.86,-57808.027,-29637.29,-9263.55,-35528.28,-38955.203,-52430.746,-18372.07
801747.2373986389,-50102.05,-57803.387,-29636.598,-9262.899,-35525.23,-38956.22,-52430.586,-18366.252
801747.2413986343,-50100.63,-57802.086,-29634.318,-9263.55,-35520.387,-38954.918,-52429.527,-18363.201
801747.2453986296,-50102.95,-57805.625,-29634.686,-9263.021,-35520.875,-38953.695,-52430.91,-18365.316
801747.249398625,-50106.285,-57807.824,-29637.29,-9263.266,-35524.375,-38954.184,-52431.805,-18366.781
801747.2533986203,-50107.668,-57810.02,-29636.475,-9264.445,-35526.45,-38955.61,-52429.566,-18363.484
801747.2573986157,-50104.207,-57808.27,-29632.365,-9262.37,-35524.254,-38955.61,-52425.984,-18361.328
801747.261398611,-50097.13,-57797.934,-29628.338,-9259.888,-35518.637,-38955.484,-52424.48,-18361.695
801747.2653986064,-50101.484,-57802.9,-29631.389,-9260.498,-35521.527,-38954.305,-52425.945,-18364.91
801747.2693986017,-50108.277,-57809.734,-29636.23,-9264.934,-35527.426,-38953.9,-52431.684,-18369.508
801747.2733985971,-50110.598,-57812.258,-29637.736,-9265.747,-35528.81,-38955.363,-52434.285,-18373.088
801747.2773985924,-50111.125,-57809.652,-29634.766,-9263.957,-35525.84,-38956.543,-52432.617,-18375.488
801747.2813985879,-50108.277,-57806.152,-29631.389,-9263.062,-35521.527,-38955.85,-52431.97,-18372.03
801747.2853985832,-50110.92,-57809.125,-29630.86,-9263.55,-35525.15,-38956.746,-52436.08,-18374.92
801747.2893985786,-50117.516,-57816.203,-29635.824,-9263.916,-35531.293,-38959.27,-52442.508,-18383.83
801747.2933985739,-50123.375,-57821.13,-29642.295,-9266.5205,-35532.676,-38962.445,-52444.336,-18386.719
801747.2973985693,-50126.18,-57822.836,-29644.004,-9266.806,-35530.723,-38963.83,-52444.95,-18386.922
801747.3013985646,-50127.523,-57825.195,-29645.672,-9263.835,-35531.293,-38962.484,-52443.562,-18383.586
801747.3053985599,-50131.55,-57828.777,-29644.857,-9264.079,-35534.63,-38963.297,-52445.76,-18385.986
801747.3093985553,-50134.24,-57832.52,-29646.69,-9265.707,-35537.438,-38966.758,-52449.832,-18389.771
801747.3133985506,-50130.7,-57831.26,-29644.043,-9264.812,-35535.848,-38967.855,-52450.684,-18390.463
801747.317398546,-50127.85,-57827.8,-29641.357,-9265.91,-35534.71,-38968.387,-52451.945,-18394.002
801747.3213985413,-50126.75,-57827.8,-29639.73,-9266.643,-35534.914,-38968.426,-52451.54,-18393.475
801747.3253985367,-50131.676,-57832.277,-29642.13,-9268.921,-35539.55,-38967.164,-52450.645,-18390.016
801747.329398532,-50138.227,-57837.04,-29646.973,-9271.851,-35542.035,-38966.35,-52451.62,-18391.033
801747.3333985275,-50136.11,-57834.96,-29645.957,-9271.403,-35538.777,-38964.273,-52448.164,-18392.498
801747.3373985228,-50134.117,-57832.316,-29644.572,-9271.729,-35535.24,-38964.195,-52443.402,-18389.16
801747.3413985182,-50131.797,-57829.023,-29641.969,-9268.962,-35532.594,-38962.934,-52438.887,-18381.47
801747.3453985135,-50135.336,-57829.797,-29643.516,-9267.456,-35532.676,-38961.754,-52441.977,-18380.371
801747.3493985089,-50135.336,-57831.26,-29644.248,-9267.944,-35536.418,-38963.46,-52447.188,-18384.686
801747.3533985042,-50133.26,-57830.363,-29643.555,-9267.416,-35537.027,-38964.887,-52446.21,-18383.668
801747.3573984996,-50128.664,-57826.254,-29640.79,-9266.928,-35531.168,-38963.094,-52444.418,-18379.68
801747.3613984949,-50126.1,-57822.96,-29638.348,-9266.765,-35525.434,-38960.734,-52441.164,-18375.488
801747.3653984903,-50129.11,-57827.516,-29642.822,-9269.003,-35526.004,-38960.004,-52441.938,-18373.006
801747.3693984856,-50132.652,-57830.04,-29646.484,-9269.043,-35530.113,-38959.96,-52443.77,-18373.332
801747.373398481,-50130.7,-57826.66,-29647.828,-9267.05,-35529.867,-38961.63,-52445.11,-18381.633
801747.3773984764,-50127.24,-57823.367,-29647.258,-9266.765,-35527.1,-38963.582,-52443.2,-18381.633
801747.3813984717,-50127.727,-57819.746,-29646.69,-9267.334,-35522.504,-38961.426,-52441.773,-18376.018
801747.3853984671,-50133.344,-57823.895,-29649.455,-9269.369,-35526.695,-38961.02,-52443.89,-18378.826
801747.3893984624,-50135.703,-57826.906,-29650.96,-9269.572,-35530.234,-38962.363,-52448.04,-18389.12
801747.3933984578,-50133.3,-57824.668,-29650.066,-9267.172,-35527.387,-38963.95,-52448.49,-18392.01
801747.3973984531,-50130.25,-57820.07,-29648.479,-9266.684,-35526.367,-38962.688,-52442.668,-18386.678
801747.4013984485,-50129.844,-57819.95,-29647.666,-9266.439,-35526.164,-38964.195,-52441.895,-18386.598
801747.4053984438,-50135.867,-57824.668,-29649.822,-9268.148,-35528.523,-38967.203,-52445.152,-18391.398
801747.4093984392,-50138.387,-57828.492,-29651.531,-9270.142,-35532.023,-38967.57,-52446.98,-18388.875
801747.4133984345,-50134.36,-57826.094,-29649.62,-9268.393,-35529.297,-38968.63,-52444.01,-18383.342
801747.4173984299,-50132.652,-57823.164,-29647.014,-9267.416,-35525.758,-38967.613,-52440.145,-18378.662
801747.4213984252,-50144.207,-57832.766,-29649.822,-9269.857,-35529.83,-38966.105,-52438.52,-18375.977
801747.4253984207,-50147.746,-57837.61,-29647.666,-9270.549,-35531.168,-38964.438,-52440.27,-18376.14
801747.429398416,-50134.48,-57829.754,-29642.54,-9268.026,-35531.047,-38965.13,-52443.89,-18375.691
801747.4333984114,-50124.15,-57822.918,-29638.348,-9266.235,-35530.477,-38966.35,-52443.117,-18372.234
801747.4373984067,-50122.355,-57824.87,-29634.482,-9266.968,-35530.477,-38966.594,-52441.164,-18369.996
801747.4413984021,-50126.875,-57833.09,-29634.645,-9268.881,-35530.03,-38966.023,-52438.152,-18366.62
801747.4453983974,-50132.977,-57840.945,-29637.045,-9269.531,-35535.605,-38965.617,-52439.656,-18365.967
801747.4493983928,-50137.94,-57846.234,-29641.154,-9269.897,-35540.0,-38965.496,-52441.938,-18375.732
801747.4533983881,-50135.906,-57846.56,-29638.754,-9271.24,-35537.8,-38965.008,-52437.543,-18378.133
801747.4573983834,-50135.54,-57848.594,-29635.703,-9270.752,-35537.598,-38963.91,-52433.637,-18377.645
801747.4613983788,-50136.72,-57850.223,-29634.686,-9270.346,-35539.88,-38964.113,-52432.54,-18381.836
801747.4653983741,-50142.742,-57859.375,-29634.4,-9271.606,-35546.348,-38963.46,-52434.98,-18382.406
801747.4693983695,-50150.27,-57870.973,-29636.68,-9273.682,-35553.508,-38964.48,-52438.113,-18385.174
801747.4733983648,-50146.566,-57870.566,-29633.465,-9273.356,-35553.957,-38964.64,-52439.047,-18388.307
801747.4773983603,-50142.742,-57868.043,-29628.623,-9271.606,-35552.41,-38962.85,-52440.43,-18387.492
801747.4813983556,-50145.387,-57872.684,-29628.379,-9271.729,-35550.7,-38961.875,-52441.285,-18389.12
801747.485398351,-50147.34,-57873.58,-29630.86,-9272.339,-35551.8,-38964.113,-52444.297,-18391.643
801747.4893983463,-50148.6,-57872.52,-29633.383,-9272.746,-35553.387,-38966.51,-52448.0,-18399.334
801747.4933983417,-50145.145,-57868.29,-29631.309,-9270.549,-35549.6,-38965.13,-52445.723,-18399.902
801747.497398337,-50142.09,-57865.156,-29629.965,-9272.583,-35546.55,-38965.047,-52440.758,-18393.922
801747.5013983324,-50142.293,-57864.668,-29630.78,-9272.868,-35545.41,-38964.03,-52434.98,-18388.184
801747.5053983277,-50144.816,-57866.945,-29630.615,-9273.071,-35547.16,-38963.22,-52434.773,-18390.38
801747.5093983231,-50146.242,-57870.324,-29632.61,-9271.811,-35551.23,-38961.996,-52433.88,-18392.822
801747.5133983184,-50146.527,-57870.402,-29635.295,-9270.671,-35549.36,-38963.543,-52434.043,-18391.805
801747.5173983139,-50145.348,-57867.066,-29635.498,-9270.468,-35546.793,-38963.258,-52433.31,-18389.16
801747.5213983092,-50146.688,-57869.59,-29632.53,-9270.63,-35546.51,-38962.242,-52434.938,-18390.545
801747.5253983046,-50151.125,-57874.31,-29632.121,-9273.356,-35550.496,-38962.973,-52439.21,-18394.41
801747.5293982999,-50153.73,-57876.06,-29635.174,-9273.356,-35554.73,-38964.438,-52442.914,-18401.45
801747.5333982952,-50152.426,-57874.473,-29634.766,-9272.055,-35552.98,-38963.34,-52441.082,-18404.053
801747.5373982906,-50148.152,-57869.55,-29633.018,-9271.484,-35549.645,-38961.55,-52434.33,-18397.584
801747.5413982859,-50148.36,-57871.055,-29632.488,-9272.055,-35550.375,-38959.96,-52432.66,-18392.701
801747.5453982813,-50152.59,-57877.363,-29634.277,-9273.926,-35554.973,-38960.33,-52434.816,-18395.549
801747.5493982766,-50157.023,-57882.938,-29639.242,-9275.31,-35556.723,-38962.242,-52434.855,-18395.916
801747.553398272,-50153.242,-57879.6,-29639.04,-9272.827,-35555.38,-38964.64,-52434.938,-18394.043
801747.5573982673,-50147.87,-57875.082,-29633.545,-9270.305,-35551.188,-38963.785,-52434.285,-18391.195
801747.5613982627,-50144.53,-57871.664,-29632.041,-9269.897,-35545.207,-38961.793,-52434.125,-18387.818
801747.565398258,-50150.27,-57875.773,-29635.58,-9272.502,-35548.668,-38962.242,-52438.805,-18389.934
801747.5693982535,-50152.344,-57877.973,-29637.086,-9272.949,-35548.953,-38962.16,-52440.227,-18389.568
801747.5733982488,-50151.41,-57875.41,-29638.145,-9273.804,-35548.992,-38963.785,-52440.188,-18389.486
801747.5773982442,-50147.258,-57870.934,-29636.8,-9272.421,-35544.15,-38965.496,-52438.52,-18383.871
801747.5813982395,-50146.04,-57868.37,-29632.406,-9270.305,-35539.715,-38964.64,-52437.867,-18379.559
801747.5853982349,-50150.066,-57871.625,-29634.562,-9272.583,-35542.36,-38964.926,-52440.676,-18382.121
801747.5893982302,-50153.566,-57873.332,-29636.598,-9271.118,-35544.84,-38963.22,-52441.12,-18381.633
801747.5933982256,-50152.67,-57872.56,-29637.615,-9269.45,-35539.957,-38960.492,-52437.785,-18379.11
801747.5973982209,-50152.59,-57871.258,-29637.615,-9270.508,-35537.273,-38960.816,-52435.875,-18381.023
801747.6013982163,-50151.938,-57872.438,-29637.412,-9271.729,-35539.023,-38961.426,-52439.09,-18385.701
801747.6053982116,-50154.22,-57874.676,-29637.9,-9272.095,-35542.44,-38960.734,-52438.52,-18382.812
801747.6093982069,-50157.15,-57879.477,-29639.854,-9273.397,-35546.67,-38961.1,-52438.926,-18383.627
801747.6133982023,-50155.355,-57877.484,-29639.771,-9270.671,-35545.41,-38961.793,-52435.223,-18382.121
801747.6173981976,-50154.258,-57876.547,-29636.68,-9271.281,-35541.75,-38960.207,-52429.566,-18381.795
801747.6213981931,-50153.85,-57876.832,-29636.883,-9272.705,-35540.406,-38958.54,-52427.207,-18382.447
801747.6253981884,-50158.938,-57881.39,-29641.562,-9274.17,-35544.72,-38957.766,-52429.28,-18383.709
801747.6293981838,-50164.188,-57886.23,-29647.258,-9275.595,-35550.336,-38961.55,-52435.996,-18392.742
801747.6333981791,-50162.598,-57886.027,-29647.178,-9274.17,-35550.7,-38961.875,-52436.117,-18394.207
801747.6373981745,-50159.668,-57882.57,-29643.84,-9273.967,-35550.17,-38960.855,-52430.79,-18387.41
801747.6413981698,-50158.33,-57881.555,-29641.969,-9273.723,-35548.91,-38962.363,-52428.754,-18382.406
801747.6453981652,-50159.18,-57884.277,-29642.904,-9273.315,-35547.445,-38963.42,-52433.39,-18382.61
801747.6493981605,-50160.77,-57885.99,-29642.783,-9271.729,-35548.586,-38962.973,-52439.25,-18387.94
801747.6533981559,-50162.723,-57887.25,-29644.41,-9271.484,-35549.887,-38965.21,-52442.547,-18391.805
801747.6573981512,-50160.89,-57885.785,-29643.516,-9271.811,-35548.137,-38966.15,-52440.633,-18389.16
801747.6613981467,-50160.688,-57884.605,-29642.701,-9271.933,-35545.33,-38965.293,-52439.7,-18386.312
801747.665398142,-50162.926,-57886.8,-29644.043,-9273.642,-35545.613,-38964.56,-52440.35,-18385.701
801747.6693981374,-50167.402,-57889.65,-29647.502,-9274.78,-35549.03,-38964.316,-52443.93,-18392.375
801747.6733981327,-50167.074,-57889.69,-29647.666,-9274.252,-35550.906,-38965.008,-52443.402,-18391.236
801747.677398128,-50163.86,-57888.023,-29645.184,-9273.031,-35547.61,-38964.76,-52441.082,-18391.398
801747.6813981234,-50161.215,-57883.996,-29637.533,-9269.531,-35544.23,-38963.42,-52440.758,-18390.79
801747.6853981187,-50163.453,-57884.89,-29639.08,-9268.352,-35545.98,-38966.35,-52446.37,-18391.236
801747.6893981141,-50164.96,-57886.516,-29641.562,-9266.235,-35545.9,-38968.875,-52453.492,-18397.258
801747.6933981094,-50164.348,-57883.26,-29642.986,-9265.503,-35541.465,-38970.543,-52456.625,-18401.896
801747.6973981048,-50159.87,-57877.24,-29640.342,-9262.573,-35535.28,-38968.832,-52453.086,-18397.95
801747.7013981001,-50159.02,-57877.2,-29638.877,-9263.754,-35536.582,-38968.223,-52450.848,-18392.416
801747.7053980955,-50162.438,-57880.293,-29639.08,-9266.276,-35539.957,-38966.35,-52451.457,-18393.352
801747.7093980908,-50162.723,-57881.836,-29640.3,-9265.788,-35544.312,-38965.82,-52452.883,-18395.71
801747.7133980863,-50158.69,-57879.316,-29638.021,-9264.608,-35541.87,-38963.91,-52446.13,-18382.447
801747.7173980816,-50154.746,-57875.53,-29634.238,-9264.893,-35536.258,-38962.89,-52439.293,-18371.99
801747.721398077,-50153.484,-57874.72,-29633.057,-9264.364,-35536.215,-38962.65,-52435.47,-18362.793
801747.7253980723,-50155.844,-57880.008,-29634.604,-9267.334,-35540.406,-38963.504,-52439.008,-18363.893
801747.7293980677,-50157.105,-57882.246,-29636.842,-9267.904,-35542.32,-38964.805,-52441.816,-18368.408
801747.733398063,-50155.07,-57879.477,-29635.703,-9268.759,-35540.812,-38964.723,-52438.6,-18365.764
801747.7373980584,-50153.77,-57876.26,-29634.277,-9267.538,-35537.07,-38963.91,-52436.24,-18366.252
801747.7413980537,-50154.176,-57875.773,-29633.871,-9265.91,-35534.18,-38963.176,-52437.582,-18366.74
801747.7453980491,-50159.344,-57879.52,-29636.8,-9268.759,-35536.297,-38962.527,-52440.39,-18371.664
801747.7493980444,-50161.01,-57883.63,-29640.137,-9269.816,-35539.188,-38963.664,-52442.06,-18374.797
801747.7533980397,-50156.74,-57881.555,-29638.104,-9269.165,-35539.797,-38965.09,-52440.594,-18372.234
801747.7573980351,-50154.625,-57879.355,-29634.36,-9269.206,-35539.227,-38964.113,-52438.113,-18368.816
801747.7613980304,-50158.246,-57883.832,-29634.441,-9270.183,-35540.242,-38963.625,-52437.5,-18367.31
801747.7653980259,-50161.703,-57884.81,-29636.557,-9269.9795,-35538.98,-38964.64,-52441.895,-18369.832
801747.7693980212,-50160.566,-57881.43,-29640.342,-9269.247,-35537.152,-38966.758,-52447.594,-18373.78
801747.7733980166,-50157.51,-57876.547,-29640.219,-9267.904,-35536.094,-38968.344,-52448.164,-18377.238
801747.7773980119,-50156.74,-57874.797,-29638.836,-9266.806,-35531.293,-38968.02,-52444.785,-18373.373
801747.7813980073,-50159.18,-57874.594,-29637.736,-9268.596,-35528.934,-38969.44,-52444.38,-18373.7
801747.7853980026,-50162.883,-57877.688,-29641.521,-9270.346,-35531.902,-38969.973,-52446.13,-18372.682
801747.789397998,-50166.75,-57881.836,-29646.363,-9270.508,-35534.953,-38970.582,-52448.203,-18373.861
801747.7933979933,-50165.57,-57878.418,-29644.328,-9268.107,-35532.918,-38970.95,-52447.227,-18374.432
801747.7973979887,-50161.258,-57873.78,-29641.48,-9266.562,-35530.477,-38971.844,-52444.5,-18365.316
801747.801397984,-50161.055,-57874.555,-29639.975,-9265.991,-35529.83,-38971.11,-52442.586,-18364.34
801747.8053979794,-50161.297,-57874.51,-29638.145,-9264.567,-35528.117,-38966.84,-52442.508,-18368.408
801747.8093979748,-50165.0,-57878.137,-29642.783,-9265.707,-35532.88,-38965.74,-52444.664,-18369.223
801747.8133979702,-50166.707,-57879.438,-29644.775,-9267.131,-35533.895,-38967.246,-52443.44,-18367.146
801747.8173979655,-50162.19,-57876.26,-29641.074,-9265.178,-35530.07,-38964.6,-52439.902,-18362.469
801747.8213979609,-50161.418,-57876.71,-29638.104,-9265.991,-35528.81,-38965.09,-52440.84,-18363.893
801747.8253979562,-50166.098,-57882.49,-29639.08,-9268.637,-35533.69,-38965.902,-52444.824,-18364.625
801747.8293979515,-50169.312,-57884.402,-29641.236,-9269.369,-35537.883,-38965.21,-52445.965,-18365.234
801747.8333979469,-50166.914,-57881.145,-29641.846,-9268.352,-35537.152,-38966.637,-52443.688,-18361.531
801747.8373979422,-50165.04,-57876.14,-29639.771,-9267.66,-35532.758,-38966.15,-52439.74,-18355.184
801747.8413979376,-50162.477,-57874.15,-29637.9,-9267.05,-35529.785,-38965.13,-52438.76,-18354.451
801747.8453979329,-50162.844,-57872.844,-29638.51,-9265.747,-35527.184,-38964.316,-52438.52,-18352.906
801747.8493979283,-50167.562,-57878.176,-29639.771,-9266.276,-35531.656,-38964.273,-52442.383,-18357.707
801747.8533979236,-50167.89,-57877.688,-29638.428,-9264.689,-35531.453,-38964.195,-52442.383,-18359.416
801747.857397919,-50163.574,-57872.805,-29635.459,-9264.934,-35527.387,-38963.785,-52441.082,-18363.201
801747.8613979144,-50162.926,-57874.594,-29634.033,-9266.724,-35528.65,-38963.38,-52440.473,-18362.469
801747.8653979098,-50167.24,-57881.758,-29637.004,-9269.165,-35532.27,-38964.52,-52443.523,-18364.217
801747.8693979051,-50173.504,-57887.617,-29641.074,-9270.305,-35538.7,-38966.88,-52449.22,-18369.02
801747.8733979005,-50172.203,-57886.68,-29640.586,-9267.66,-35536.01,-38968.832,-52449.3,-18368.693
801747.8773978958,-50169.477,-57883.14,-29639.16,-9266.928,-35533.61,-38968.1,-52443.727,-18364.34
801747.8813978912,-50170.574,-57885.38,-29638.592,-9269.084,-35533.61,-38966.555,-52441.49,-18362.387
801747.8853978865,-50176.473,-57891.766,-29642.783,-9270.874,-35535.93,-38965.945,-52445.477,-18365.357
801747.8893978819,-50182.008,-57896.73,-29648.031,-9271.933,-35539.797,-38967.816,-52450.81,-18368.979
801747.8933978772,-50179.12,-57893.15,-29645.875,-9272.177,-35536.95,-38968.75,-52450.195,-18368.49
801747.8973978726,-50174.52,-57886.312,-29642.701,-9271.729,-35533.0,-38967.57,-52443.973,-18362.184
801747.901397868,-50173.3,-57886.11,-29641.725,-9271.851,-35532.797,-38964.887,-52441.49,-18361.084
801747.9053978632,-50174.24,-57889.367,-29642.295,-9271.322,-35534.586,-38965.09,-52444.746,-18367.107
801747.9093978587,-50175.945,-57891.156,-29645.672,-9270.02,-35537.355,-38965.496,-52447.062,-18365.234
801747.913397854,-50170.41,-57887.695,-29646.037,-9268.881,-35537.07,-38966.758,-52443.688,-18359.62
801747.9173978494,-50164.227,-57881.023,-29642.213,-9265.91,-35533.164,-38962.688,-52437.785,-18349.936
801747.9213978447,-50162.273,-57877.688,-29640.586,-9265.666,-35530.438,-38961.55,-52434.41,-18343.75
801747.9253978401,-50162.598,-57879.926,-29640.992,-9266.5205,-35532.27,-38961.305,-52433.105,-18340.414
801747.9293978354,-50162.723,-57883.586,-29642.01,-9265.463,-35536.05,-38963.38,-52435.1,-18346.68
801747.9333978308,-50160.848,-57882.57,-29642.783,-9267.375,-35535.93,-38966.35,-52437.01,-18352.498
801747.9373978261,-50157.473,-57879.926,-29638.713,-9267.05,-35533.855,-38966.15,-52434.938,-18349.447
801747.9413978215,-50154.38,-57875.613,-29636.924,-9265.219,-35533.53,-38964.684,-52433.92,-18356.812
801747.9453978168,-50156.332,-57879.113,-29639.16,-9265.788,-35535.727,-38966.473,-52436.934,-18404.705
801747.9493978122,-50159.508,-57883.223,-29643.19,-9267.009,-35540.49,-38968.02,-52442.914,-18421.916
801747.9533978075,-50159.06,-57884.074,-29644.328,-9267.497,-35540.855,-38967.69,-52445.56,-18425.537
801747.957397803,-50155.887,-57880.168,-29642.416,-9267.944,-35537.273,-38967.125,-52444.215,-18424.316
801747.9613977983,-50153.81,-57877.2,-29639.648,-9266.439,-35535.035,-38967.164,-52443.36,-18422.363
801747.9653977937,-50154.83,-57876.223,-29639.934,-9265.869,-35534.793,-38965.617,-52443.605,-18419.842
801747.969397789,-50157.023,-57876.547,-29642.62,-9266.235,-35535.93,-38965.863,-52445.027,-18419.312
801747.9733977844,-50153.117,-57875.164,-29640.707,-9265.91,-35536.176,-38964.48,-52440.023,-18412.598
801747.9773977797,-50147.383,-57869.957,-29636.8,-9265.503,-35533.043,-38961.63,-52433.39,-18406.658
801747.981397775,-50146.73,-57869.754,-29636.557,-9264.648,-35531.656,-38959.434,-52428.59,-18401.734
801747.9853977704,-50148.4,-57871.95,-29638.145,-9264.201,-35533.895,-38958.58,-52427.29,-18397.543
801747.9893977657,-50152.14,-57877.523,-29642.09,-9267.334,-35538.29,-38960.45,-52432.7,-18410.076
801747.9933977611,-50153.566,-57880.74,-29641.357,-9267.416,-35541.3,-38960.9,-52434.082,-18415.121
801747.9973977564,-50152.875,-57880.008,-29640.545,-9268.433,-35541.547,-38960.164,-52433.23,-18415.61
801748.0013977519,-50152.387,-57880.535,-29637.004,-9269.247,-35540.773,-38959.96,-52434.98,-18415.162
801748.0053977472,-50155.684,-57884.36,-29637.492,-9270.02,-35543.05,-38960.652,-52441.164,-18419.23
801748.0093977426,-50159.547,-57884.973,-29641.969,-9269.653,-35543.863,-38962.81,-52445.8,-18422.486
801748.0133977379,-50157.023,-57880.82,-29642.457,-9268.352,-35541.668,-38963.543,-52446.656,-18424.031
801748.0173977333,-50151.98,-57878.094,-29640.666,-9268.2295,-35538.777,-38962.81,-52441.773,-18420.33
801748.0213977286,-50149.78,-57878.176,-29640.38,-9270.183,-35539.39,-38961.63,-52438.152,-18412.232
801748.025397724,-50153.363,-57881.066,-29642.172,-9271.484,-35542.645,-38961.914,-52437.91,-18411.215
801748.0293977193,-50157.637,-57885.99,-29645.875,-9272.339,-35546.266,-38965.457,-52444.824,-18418.824
801748.0333977147,-50156.902,-57885.5,-29645.06,-9272.095,-35544.598,-38966.35,-52444.824,-18418.783
801748.03739771,-50152.06,-57881.348,-29643.19,-9270.142,-35540.73,-38965.863,-52440.676,-18415.771
801748.0413977054,-50149.945,-57880.008,-29641.195,-9270.386,-35539.348,-38965.09,-52439.13,-18408.977
801748.0453977007,-50148.195,-57880.168,-29639.242,-9270.956,-35539.31,-38963.297,-52438.316,-18406.617
801748.049397696,-50147.664,-57881.594,-29640.504,-9270.874,-35540.0,-38963.625,-52440.39,-18408.285
801748.0533976915,-50145.71,-57880.496,-29638.307,-9268.515,-35539.43,-38964.438,-52443.562,-18413.656
801748.0573976868,-50141.848,-57880.7,-29637.29,-9268.881,-35537.76,-38965.945,-52443.688,-18415.812
801748.0613976822,-50139.73,-57879.19,-29637.818,-9266.398,-35535.645,-38964.48,-52440.88,-18409.912
801748.0653976775,-50141.156,-57881.918,-29640.137,-9267.334,-35539.47,-38963.91,-52444.582,-18408.895
801748.0693976729,-50147.176,-57890.344,-29645.387,-9270.915,-35545.816,-38965.332,-52450.523,-18412.924
801748.0733976682,-50146.04,-57890.016,-29642.945,-9269.9795,-35547.242,-38965.293,-52449.832,-18414.836
801748.0773976636,-50140.668,-57885.62,-29638.916,-9267.538,-35542.562,-38964.6,-52446.86,-18416.668
801748.0813976589,-50141.766,-57885.906,-29638.469,-9268.921,-35539.715,-38964.887,-52442.668,-18413.168
801748.0853976543,-50147.016,-57893.72,-29640.38,-9271.892,-35543.66,-38964.6,-52442.508,-18410.809
801748.0893976496,-50151.98,-57900.88,-29641.277,-9272.909,-35547.12,-38966.35,-52448.406,-18419.19
801748.093397645,-50145.02,-57893.883,-29637.695,-9270.468,-35544.477,-38966.758,-52446.82,-18414.877
801748.0973976403,-50134.117,-57883.586,-29634.033,-9268.474,-35539.633,-38965.7,-52443.28,-18411.824
801748.1013976358,-50132.812,-57882.734,-29632.244,-9270.305,-35540.04,-38965.09,-52442.098,-18408.895
801748.1053976311,-50138.387,-57889.895,-29634.156,-9269.531,-35540.61,-38961.67,-52441.855,-18409.18
801748.1093976265,-50144.94,-57898.848,-29639.201,-9270.793,-35543.945,-38961.47,-52444.906,-18415.08
801748.1133976218,-50144.125,-57899.457,-29640.342,-9271.525,-35543.785,-38963.504,-52442.75,-18418.05
801748.1173976172,-50142.78,-57895.67,-29637.533,-9272.014,-35539.266,-38964.684,-52440.35,-18418.621
801748.1213976125,-50142.58,-57895.508,-29635.865,-9271.729,-35536.46,-38963.707,-52440.473,-18415.812
801748.1253976078,-50144.41,-57899.008,-29636.312,-9270.752,-35540.285,-38962.85,-52444.297,-18421.51
801748.1293976032,-50145.836,-57900.676,-29636.23,-9269.287,-35544.883,-38963.38,-52446.902,-18423.055
801748.1333975985,-50141.156,-57898.36,-29635.377,-9268.066,-35542.684,-38965.25,-52448.0,-18421.143
801748.1373975939,-50137.207,-57894.74,-29632.447,-9266.968,-35538.574,-38968.465,-52448.977,-18418.254
801748.1413975892,-50134.523,-57892.05,-29629.314,-9265.015,-35537.11,-38967.773,-52447.266,-18412.924
801748.1453975847,-50138.387,-57896.406,-29633.262,-9265.341,-35537.68,-38969.28,-52448.164,-18412.395
801748.14939758,-50143.15,-57903.08,-29639.73,-9267.822,-35541.91,-38972.535,-52451.906,-18414.266
801748.1533975754,-50142.863,-57901.043,-29639.934,-9268.188,-35541.42,-38970.99,-52449.26,-18411.621
801748.1573975707,-50144.043,-57899.336,-29637.656,-9268.066,-35538.414,-38968.305,-52445.723,-18405.152
801748.1613975661,-50144.734,-57899.336,-29637.004,-9268.515,-35538.21,-38967.53,-52446.047,-18404.012
801748.1653975614,-50146.85,-57900.23,-29638.389,-9269.775,-35538.74,-38966.715,-52446.74,-18403.729
801748.1693975568,-50151.734,-57904.625,-29639.854,-9269.084,-35543.336,-38965.863,-52450.848,-18407.838
801748.1733975521,-50149.375,-57905.723,-29639.242,-9268.759,-35543.99,-38967.285,-52452.35,-18411.906
801748.1773975475,-50146.28,-57905.48,-29637.207,-9269.653,-35542.562,-38967.164,-52452.68,-18415.406
801748.1813975428,-50148.52,-57909.426,-29639.365,-9272.339,-35545.29,-38964.52,-52450.277,-18414.51
801748.1853975382,-50152.02,-57912.438,-29640.87,-9272.136,-35546.633,-38961.754,-52445.8,-18412.15
801748.1893975335,-50156.496,-57917.074,-29643.516,-9273.804,-35546.836,-38963.91,-52444.297,-18413.086
801748.193397529,-50154.137,-57915.895,-29641.277,-9272.014,-35545.125,-38964.273,-52439.453,-18409.588
801748.1973975243,-50150.312,-57911.01,-29637.818,-9268.962,-35542.887,-38962.973,-52433.92,-18403.076
801748.2013975196,-50152.63,-57911.906,-29637.33,-9268.759,-35542.848,-38962.445,-52434.043,-18404.744
801748.205397515,-50157.105,-57915.652,-29640.748,-9269.572,-35544.8,-38962.65,-52437.215,-18407.959
801748.2093975103,-50158.53,-57919.76,-29643.516,-9269.003,-35548.992,-38962.28,-52442.914,-18415.975
801748.2133975057,-50154.99,-57916.426,-29642.66,-9268.2705,-35545.74,-38963.543,-52444.133,-18417.725
801748.217397501,-50151.41,-57911.95,-29638.55,-9266.317,-35542.97,-38963.95,-52442.586,-18414.43
801748.2213974964,-50148.848,-57910.85,-29636.191,-9264.608,-35542.727,-38963.504,-52443.605,-18412.03
801748.2253974917,-50149.293,-57912.883,-29637.736,-9265.625,-35543.785,-38964.684,-52449.098,-18416.951
801748.2293974871,-50154.297,-57919.312,-29641.602,-9267.416,-35548.055,-38967.977,-52457.805,-18424.969
801748.2333974824,-50152.754,-57916.914,-29639.404,-9265.503,-35546.43,-38969.77,-52458.863,-18424.725
801748.2373974778,-50146.527,-57908.49,-29634.441,-9261.963,-35538.94,-38969.727,-52454.305,-18414.307
801748.2413974731,-50140.83,-57903.32,-29630.25,-9259.318,-35530.844,-38969.93,-52451.863,-18403.564
801748.2453974686,-50141.562,-57902.832,-29630.697,-9258.871,-35529.34,-38969.2,-52454.51,-18401.938
801748.2493974639,-50142.78,-57904.867,-29632.61,-9257.935,-35528.81,-38970.582,-52459.027,-18405.926
801748.2533974593,-50143.312,-57905.4,-29630.982,-9257.202,-35527.914,-38972.535,-52458.254,-18404.664
801748.2573974546,-50140.87,-57902.914,-29631.309,-9258.708,-35527.223,-38972.984,-52454.387,-18403.443
801748.26139745,-50139.527,-57903.363,-29631.104,-9260.092,-35526.773,-38971.56,-52453.695,-18403.24
801748.2653974453,-50141.277,-57904.543,-29632.568,-9259.848,-35527.914,-38969.08,-52452.68,-18401.408
801748.2693974407,-50147.746,-57909.305,-29636.068,-9261.638,-35534.26,-38970.094,-52452.84,-18402.14
801748.273397436,-50148.64,-57911.258,-29637.94,-9263.144,-35536.582,-38971.76,-52452.11,-18403.28
801748.2773974313,-50143.68,-57907.555,-29634.074,-9259.888,-35533.285,-38970.906,-52447.43,-18400.676
801748.2813974267,-50142.375,-57904.46,-29630.82,-9258.017,-35529.258,-38969.81,-52442.098,-18394.002
801748.285397422,-50143.395,-57904.34,-29629.803,-9258.627,-35530.19,-38969.2,-52440.84,-18392.416
801748.2893974175,-50144.125,-57906.984,-29633.668,-9259.604,-35532.555,-38968.18,-52441.938,-18393.963
801748.2933974128,-50143.434,-57906.21,-29633.465,-9259.399,-35531.13,-38968.26,-52439.7,-18393.637
801748.2973974082,-50140.79,-57901.695,-29633.627,-9260.864,-35525.637,-38967.45,-52435.305,-18390.016
801748.3013974035,-50137.82,-57899.863,-29631.512,-9257.895,-35521.2,-38965.74,-52430.867,-18388.225
801748.3053973989,-50140.42,-57902.02,-29632.977,-9258.911,-35521.402,-38966.023,-52431.277,-18383.465
801748.3093973942,-50145.508,-57907.27,-29636.354,-9260.824,-35524.332,-38966.227,-52433.637,-18385.662
801748.3133973896,-50146.85,-57907.676,-29636.475,-9259.685,-35524.05,-38965.74,-52434.695,-18392.986
801748.3173973849,-50145.43,-57905.113,-29634.197,-9259.685,-35521.324,-38966.105,-52434.45,-18389.445
801748.3213973803,-50145.836,-57905.4,-29634.686,-9260.132,-35522.34,-38966.066,-52436.605,-18386.842
801748.3253973756,-50148.6,-57908.57,-29635.174,-9262.167,-35525.27,-38966.715,-52441.57,-18393.025
801748.329397371,-50152.02,-57913.78,-29638.104,-9264.038,-35529.95,-38969.727,-52448.0,-18399.943
801748.3333973663,-50151.207,-57914.062,-29638.672,-9262.736,-35528.77,-38970.83,-52446.902,-18402.467
801748.3373973618,-50150.23,-57910.605,-29636.191,-9262.329,-35524.742,-38970.38,-52444.99,-18397.137
801748.341397357,-50149.457,-57910.93,-29632.977,-9264.12,-35524.945,-38969.156,-52446.25,-18403.361
801748.3453973525,-50154.297,-57915.734,-29634.645,-9266.398,-35526.53,-38966.758,-52445.68,-18401.123
801748.3493973478,-50160.36,-57922.527,-29638.713,-9268.107,-35534.75,-38966.84,-52446.29,-18396.566
801748.3533973431,-50156.293,-57916.992,-29635.58,-9265.869,-35531.453,-38965.414,-52441.773,-18390.016
801748.3573973385,-50147.625,-57910.363,-29629.518,-9262.37,-35525.066,-38962.73,-52435.184,-18383.586
801748.3613973338,-50141.035,-57904.625,-29629.273,-9262.329,-35524.293,-38963.176,-52436.89,-18383.3
801748.3653973292,-50144.33,-57905.926,-29628.785,-9265.3,-35527.914,-38963.504,-52437.38,-18379.965
801748.3693973245,-50144.695,-57908.57,-29629.762,-9262.899,-35531.984,-38962.04,-52436.16,-18382.365
801748.3733973199,-50141.277,-57907.105,-29630.453,-9263.55,-35529.785,-38963.176,-52433.188,-18385.254
801748.3773973152,-50134.562,-57900.11,-29627.686,-9261.597,-35526.816,-38963.746,-52431.316,-18388.428
801748.3813973106,-50130.902,-57898.926,-29627.361,-9261.557,-35526.816,-38963.867,-52432.414,-18389.527
801748.385397306,-50131.023,-57899.457,-29630.412,-9261.027,-35526.57,-38963.625,-52435.875,-18396.037
801748.3893973014,-50130.25,-57899.863,-29636.883,-9263.713,-35527.996,-38965.293,-52444.01,-18405.438
801748.3933972967,-50124.594,-57895.062,-29638.916,-9263.266,-35528.445,-38968.793,-52448.652,-18406.982
801748.3973972921,-50113.04,-57883.996,-29632.406,-9255.941,-35522.543,-38968.953,-52447.88,-18409.75
801748.4013972874,-50104.98,-57878.83,-29626.914,-9252.768,-35519.41,-38970.664,-52448.61,-18413.656
801748.4053972828,-50099.652,-57876.71,-29626.465,-9253.256,-35522.543,-38971.316,-52451.01,-18414.389
801748.4093972781,-50100.79,-57881.066,-29629.965,-9256.348,-35523.926,-38972.13,-52456.258,-18422.81
801748.4133972735,-50098.39,-57878.867,-29631.227,-9256.755,-35523.97,-38973.836,-52458.984,-18431.64
801748.4173972688,-50089.723,-57869.754,-29627.727,-9251.872,-35519.9,-38972.78,-52455.895,-18428.955
801748.4213972642,-50086.957,-57866.742,-29625.977,-9250.163,-35519.695,-38973.023,-52458.133,-18427.002
801748.4253972595,-50087.2,-57863.85,-29626.547,-9250.651,-35519.29,-38973.88,-52458.496,-18420.818
801748.4293972548,-50084.11,-57859.457,-29628.215,-9249.96,-35517.863,-38975.3,-52460.45,-18423.951
801748.4333972502,-50078.535,-57856.406,-29626.547,-9248.291,-35514.16,-38976.035,-52459.8,-18423.951
801748.4373972456,-50076.906,-57853.926,-29623.535,-9246.786,-35509.89,-38975.383,-52452.76,-18412.232
801748.441397241,-50080.406,-57856.324,-29624.676,-9246.786,-35509.81,-38976.44,-52453.086,-18410.076
801748.4453972363,-50083.418,-57860.07,-29624.229,-9247.6,-35510.906,-38973.348,-52452.15,-18406.209
801748.4493972317,-50088.176,-57865.684,-29627.158,-9248.698,-35514.895,-38973.633,-52452.92,-18406.088
801748.453397227,-50087.77,-57866.375,-29625.041,-9248.088,-35515.34,-38974.45,-52452.07,-18405.6
801748.4573972224,-50085.492,-57864.258,-29623.008,-9247.274,-35514.16,-38972.78,-52448.773,-18403.729
801748.4613972177,-50089.195,-57866.133,-29623.658,-9249.228,-35513.875,-38971.395,-52447.715,-18400.105
801748.4653972131,-50094.65,-57871.34,-29624.553,-9250.244,-35516.316,-38970.867,-52446.777,-18399.293
801748.4693972084,-50099.324,-57875.938,-29626.629,-9251.425,-35518.883,-38970.34,-52447.062,-18406.209
801748.4733972038,-50099.855,-57872.152,-29626.303,-9250.244,-35516.6,-38966.96,-52439.74,-18396.648
801748.4773971991,-50102.336,-57873.902,-29627.482,-9250.57,-35514.0,-38965.13,-52430.176,-18389.242
801748.4813971946,-50105.594,-57873.496,-29628.623,-9251.343,-35511.07,-38964.48,-52428.996,-18390.79
801748.4853971899,-50113.08,-57877.566,-29631.756,-9254.11,-35512.535,-38963.746,-52431.48,-18391.033
801748.4893971853,-50119.1,-57883.02,-29632.812,-9256.145,-35516.848,-38963.297,-52430.176,-18388.55
801748.4933971806,-50118.164,-57882.45,-29632.854,-9255.209,-35516.684,-38964.113,-52428.875,-18392.986
801748.4973971759,-50118.652,-57881.758,-29631.633,-9254.436,-35516.113,-38965.617,-52430.258,-18395.467
801748.5013971713,-50119.875,-57881.918,-29630.576,-9252.116,-35516.113,-38963.664,-52431.805,-18395.71
801748.5053971666,-50125.734,-57887.207,-29632.895,-9253.581,-35518.35,-38965.13,-52438.113,-18397.014
801748.509397162,-50129.844,-57890.953,-29635.133,-9253.906,-35521.16,-38967.53,-52445.477,-18402.955
801748.5133971573,-50126.387,-57886.516,-29633.139,-9252.116,-35518.23,-38967.855,-52446.617,-18407.635
801748.5173971527,-50121.016,-57880.332,-29628.988,-9247.925,-35512.332,-38968.18,-52442.383,-18405.193
801748.521397148,-50120.242,-57878.297,-29629.395,-9247.478,-35509.402,-38969.44,-52440.066,-18399.984
801748.5253971434,-50122.723,-57880.13,-29631.186,-9249.35,-35508.22,-38969.605,-52442.586,-18393.148
801748.5293971387,-50126.59,-57884.848,-29635.54,-9249.634,-35512.168,-38970.785,-52447.918,-18397.543
801748.5333971342,-50128.99,-57886.926,-29637.168,-9250.8955,-35514.363,-38971.926,-52450.848,-18404.42
801748.5373971295,-50126.832,-57885.336,-29634.889,-9251.059,-35512.29,-38972.414,-52451.54,-18408.855
801748.5413971249,-50124.88,-57886.027,-29633.3,-9250.082,-35513.062,-38970.38,-52448.773,-18402.182
801748.5453971202,-50126.668,-57887.902,-29631.348,-9250.61,-35514.934,-38969.605,-52447.754,-18394.775
801748.5493971156,-50131.676,-57892.945,-29633.586,-9250.814,-35520.836,-38970.46,-52448.285,-18391.521
801748.5533971109,-50128.297,-57888.023,-29630.006,-9247.07,-35517.54,-38968.59,-52443.035,-18386.19
801748.5573971063,-50123.58,-57883.914,-29625.977,-9246.867,-35513.754,-38968.63,-52438.52,-18384.969
801748.5613971016,-50124.637,-57885.418,-29625.326,-9247.6,-35512.82,-38966.96,-52432.617,-18379.803
801748.565397097,-50127.645,-57889.812,-29628.744,-9250.244,-35515.016,-38966.066,-52430.95,-18373.21
801748.5693970923,-50132.69,-57894.53,-29634.115,-9252.6455,-35518.434,-38965.17,-52429.89,-18370.646
801748.5733970876,-50134.156,-57894.41,-29635.459,-9253.378,-35518.312,-38966.35,-52427.207,-18371.338
801748.577397083,-50135.215,-57893.35,-29637.207,-9252.971,-35514.895,-38966.105,-52424.4,-18369.793
801748.5813970783,-50135.133,-57894.816,-29636.719,-9251.953,-35512.98,-38964.195,-52421.55,-18368.164
801748.5853970738,-50140.016,-57902.47,-29638.104,-9255.331,-35517.703,-38964.723,-52420.94,-18369.02
801748.5893970691,-50143.72,-57904.992,-29638.877,-9255.615,-35519.938,-38964.844,-52424.4,-18371.42
801748.5933970645,-50143.92,-57905.76,-29638.55,-9256.552,-35519.938,-38965.414,-52425.824,-18371.46
801748.5973970598,-50141.523,-57905.56,-29636.842,-9255.697,-35519.043,-38964.316,-52424.277,-18368.938
801748.6013970552,-50138.227,-57903.16,-29635.254,-9254.3545,-35516.36,-38963.258,-52423.34,-18366.863
801748.6053970505,-50141.727,-57905.805,-29635.783,-9255.859,-35518.473,-38963.664,-52424.44,-18366.578
801748.6093970459,-50147.383,-57911.176,-29639.69,-9256.958,-35523.684,-38966.715,-52428.754,-18371.746
801748.6133970412,-50144.41,-57908.45,-29638.184,-9255.697,-35521.73,-38967.734,-52430.34,-18374.105
801748.6173970366,-50141.766,-57905.52,-29635.662,-9253.988,-35518.27,-38967.57,-52429.973,-18372.355
801748.6213970319,-50142.09,-57905.07,-29635.336,-9252.279,-35514.49,-38969.973,-52432.293,-18374.188
801748.6253970274,-50143.92,-57904.992,-29634.074,-9252.319,-35511.637,-38970.094,-52439.21,-18385.742
801748.6293970227,-50147.258,-57907.27,-29636.516,-9252.035,-35512.535,-38971.477,-52446.13,-18392.254
801748.6333970181,-50146.445,-57905.195,-29636.68,-9252.36,-35512.74,-38972.168,-52445.844,-18390.096
801748.6373970134,-50141.277,-57899.984,-29633.139,-9250.61,-35510.457,-38969.156,-52443.117,-18387.898
801748.6413970088,-50140.79,-57901.652,-29632.61,-9250.814,-35510.945,-38966.92,-52442.305,-18384.93
801748.6453970041,-50144.94,-57905.195,-29635.58,-9254.517,-35513.67,-38966.715,-52443.484,-18381.47
801748.6493969994,-50147.992,-57909.508,-29636.924,-9255.046,-35517.824,-38964.805,-52443.035,-18379.518
801748.6533969948,-50149.902,-57910.566,-29639.365,-9255.046,-35519.168,-38964.684,-52437.01,-18373.902
801748.6573969901,-50149.008,-57909.18,-29640.83,-9257.446,-35517.742,-38964.684,-52431.6,-18370.932
801748.6613969855,-50148.926,-57908.977,-29640.748,-9257.568,-35515.79,-38963.543,-52427.86,-18364.502
801748.6653969808,-50152.266,-57911.867,-29639.16,-9258.952,-35516.113,-38962.77,-52426.8,-18359.945
801748.6693969762,-50157.758,-57917.562,-29640.178,-9258.667,-35522.707,-38963.83,-52427.816,-18358.969
801748.6733969715,-50159.18,-57918.742,-29641.807,-9260.214,-35522.746,-38965.74,-52426.027,-18360.148
801748.677396967,-50156.863,-57915.938,-29641.602,-9259.604,-35519.613,-38965.58,-52422.242,-18357.625
801748.6813969623,-50155.273,-57912.395,-29639.934,-9258.139,-35518.758,-38961.387,-52418.05,-18352.336
801748.6853969577,-50156.293,-57913.496,-29639.445,-9257.08,-35518.68,-38960.246,-52417.36,-18347.738
801748.689396953,-50161.824,-57918.742,-29642.01,-9257.8125,-35522.42,-38961.67,-52421.387,-18355.469
801748.6933969484,-50161.176,-57919.19,-29641.195,-9257.04,-35523.355,-38962.81,-52423.42,-18361.695
801748.6973969437,-50158.33,-57915.57,-29639.121,-9255.819,-35520.996,-38964.113,-52426.758,-18362.996
801748.7013969391,-50156.7,-57915.12,-29638.225,-9253.5,-35520.305,-38966.105,-52429.973,-18364.258
801748.7053969344,-50154.99,-57915.406,-29637.004,-9253.54,-35518.027,-38967.773,-52433.594,-18365.154
801748.7093969298,-50154.625,-57916.668,-29636.312,-9251.343,-35520.793,-38968.06,-52439.21,-18372.6
801748.7133969251,-50155.316,-57918.215,-29636.516,-9250.977,-35520.67,-38971.234,-52441.734,-18378.785
801748.7173969205,-50153.484,-57915.938,-29634.686,-9250.407,-35518.23,-38970.99,-52439.94,-18378.541
801748.7213969158,-50154.95,-57917.562,-29634.97,-9250.977,-35520.266,-38968.223,-52440.188,-18378.133
801748.7253969111,-50160.156,-57924.316,-29637.615,-9252.768,-35526.246,-38967.164,-52438.4,-18376.629
801748.7293969066,-50169.56,-57934.652,-29644.125,-9256.755,-35531.656,-38965.78,-52439.94,-18378.012
801748.7333969019,-50164.797,-57926.066,-29643.516,-9256.511,-35525.92,-38965.617,-52437.746,-18375.041
801748.7373968973,-50157.15,-57918.05,-29641.44,-9253.174,-35518.395,-38968.06,-52434.773,-18369.752
801748.7413968926,-50157.84,-57918.5,-29640.707,-9251.669,-35519.246,-38966.88,-52431.195,-18360.76
801748.745396888,-50162.438,-57925.58,-29640.992,-9254.191,-35521.85,-38965.617,-52429.04,-18351.482
801748.7493968833,-50170.25,-57932.54,-29644.125,-9254.924,-35525.797,-38966.715,-52433.31,-18351.889
801748.7533968787,-50167.24,-57929.406,-29642.457,-9254.639,-35523.844,-38970.094,-52435.793,-18351.521
801748.757396874,-50161.746,-57924.684,-29637.248,-9254.599,-35518.19,-38968.387,-52431.844,-18344.238
801748.7613968694,-50162.438,-57923.83,-29636.68,-9254.721,-35515.18,-38968.508,-52432.902,-18344.605
801748.7653968647,-50167.074,-57926.434,-29640.342,-9257.08,-35515.83,-38970.215,-52434.367,-18342.164
801748.7693968602,-50172.566,-57929.324,-29642.783,-9256.755,-35518.19,-38968.914,-52434.53,-18338.094
801748.7733968555,-50168.01,-57925.375,-29640.38,-9255.127,-35514.895,-38967.652,-52430.3,-18338.176
801748.7773968509,-50163.047,-57921.594,-29638.713,-9254.11,-35512.453,-38965.7,-52425.336,-18339.682
801748.7813968462,-50164.43,-57921.918,-29637.207,-9255.29,-35512.29,-38964.805,-52425.496,-18340.414
801748.7853968416,-50164.062,-57920.777,-29634.277,-9254.313,-35510.54,-38964.273,-52429.363,-18345.582
801748.7893968369,-50168.215,-57925.133,-29636.23,-9254.924,-35514.242,-38965.535,-52434.816,-18349.08
801748.7933968323,-50167.402,-57924.684,-29637.736,-9253.622,-35514.69,-38966.88,-52437.664,-18356.486
801748.7973968276,-50164.88,-57924.684,-29637.574,-9252.563,-35513.062,-38966.51,-52437.625,-18361.328
801748.8013968229,-50166.06,-57925.58,-29637.615,-9253.5,-35513.67,-38966.105,-52436.24,-18362.143
801748.8053968183,-50169.477,-57927.574,-29640.545,-9254.721,-35514.566,-38964.844,-52435.547,-18359.05
801748.8093968136,-50171.918,-57929.566,-29638.51,-9253.662,-35513.633,-38964.113,-52436.523,-18362.793
801748.813396809,-50170.453,-57930.504,-29638.51,-9253.825,-35515.18,-38964.48,-52435.793,-18364.746
801748.8173968043,-50168.62,-57928.145,-29638.877,-9254.395,-35515.87,-38964.355,-52434.938,-18366.537
801748.8213967998,-50171.957,-57929.85,-29638.957,-9253.906,-35515.465,-38964.48,-52435.793,-18369.71
801748.8253967951,-50174.766,-57932.008,-29638.957,-9253.906,-35514.61,-38964.273,-52434.695,-18363.201
801748.8293967905,-50179.85,-57939.332,-29643.719,-9255.331,-35518.27,-38964.926,-52438.4,-18365.113
801748.8333967858,-50179.73,-57939.66,-29644.043,-9256.267,-35517.945,-38965.496,-52439.332,-18367.27
801748.8373967812,-50176.27,-57936.973,-29641.846,-9255.493,-35516.6,-38965.82,-52436.727,-18362.02
801748.8413967765,-50174.887,-57936.85,-29641.277,-9253.988,-35514.895,-38964.48,-52430.83,-18353.11
801748.8453967719,-50178.062,-57938.723,-29640.586,-9256.633,-35515.79,-38962.73,-52429.16,-18349.53
801748.8493967672,-50182.54,-57943.89,-29644.775,-9259.277,-35522.055,-38963.992,-52432.375,-18350.098
801748.8533967626,-50178.67,-57941.164,-29643.027,-9258.545,-35522.137,-38964.152,-52431.152,-18347.535
801748.8573967579,-50175.824,-57937.582,-29640.79,-9256.592,-35518.8,-38965.535,-52430.746,-18347.86
801748.8613967533,-50175.05,-57936.242,-29640.625,-9254.965,-35515.016,-38967.613,-52432.496,-18346.518
801748.8653967486,-50179.28,-57940.188,-29643.84,-9254.924,-35514.285,-38968.344,-52433.473,-18348.674
801748.8693967441,-50184.367,-57943.81,-29648.072,-9256.796,-35515.91,-38969.32,-52438.52,-18351.645
801748.8733967394,-50182.863,-57941.734,-29644.451,-9256.267,-35514.85,-38969.605,-52440.066,-18353.516
801748.8773967347,-50176.27,-57937.094,-29641.887,-9254.517,-35511.434,-38970.664,-52438.887,-18351.115
801748.8813967301,-50173.465,-57933.312,-29642.01,-9252.563,-35508.426,-38970.418,-52437.99,-18348.877
801748.8853967254,-50174.848,-57935.14,-29642.783,-9252.401,-35509.277,-38971.598,-52440.145,-18348.918
801748.8893967208,-50179.812,-57940.797,-29646.16,-9253.012,-35512.168,-38973.473,-52446.168,-18356.69
801748.8933967161,-50179.402,-57939.293,-29646.281,-9252.035,-35513.387,-38974.855,-52445.477,-18358.236
801748.8973967115,-50178.387,-57938.887,-29643.678,-9251.587,-35512.574,-38972.332,-52439.535,-18353.68
801748.9013967068,-50178.387,-57937.99,-29645.672,-9254.883,-35511.355,-38969.156,-52434.164,-18344.28
801748.9053967022,-50181.805,-57939.21,-29646.484,-9256.022,-35513.875,-38967.69,-52434.246,-18344.402
801748.9093966975,-50189.375,-57944.99,-29645.06,-9255.575,-35518.434,-38966.715,-52438.438,-18350.668
801748.913396693,-50182.17,-57945.234,-29643.84,-9255.005,-35519.246,-38967.043,-52435.957,-18352.742
801748.9173966883,-50174.4,-57941.938,-29642.578,-9254.232,-35517.742,-38967.45,-52430.543,-18348.797
801748.9213966837,-50173.668,-57941.406,-29641.643,-9253.744,-35516.03,-38966.023,-52426.68,-18341.676
801748.925396679,-50176.473,-57942.344,-29642.498,-9253.988,-35516.4,-38966.27,-52428.914,-18343.262
801748.9293966744,-50184.164,-57948.12,-29648.193,-9257.528,-35522.258,-38968.223,-52435.914,-18347.941
801748.9333966697,-50184.207,-57946.74,-29648.602,-9254.843,-35522.258,-38967.125,-52436.445,-18350.139
801748.9373966651,-50178.754,-57941.125,-29644.94,-9252.971,-35516.48,-38966.96,-52433.84,-18349.447
801748.9413966604,-50177.695,-57940.797,-29642.863,-9256.104,-35515.22,-38965.09,-52430.95,-18347.127
801748.9453966557,-50180.746,-57943.727,-29644.207,-9258.871,-35516.6,-38966.066,-52429.77,-18342.938
801748.9493966511,-50183.31,-57949.87,-29647.99,-9257.935,-35521.12,-38967.57,-52431.52,-18342.488
801748.9533966464,-50183.88,-57950.24,-29646.484,-9256.877,-35521.61,-38968.465,-52433.105,-18346.232
801748.9573966418,-50181.562,-57947.43,-29643.84,-9255.168,-35519.695,-38968.75,-52431.03,-18342.326
801748.9613966371,-50179.484,-57946.984,-29642.05,-9254.843,-35519.492,-38967.938,-52430.707,-18340.291
801748.9653966326,-50178.793,-57947.062,-29642.54,-9255.859,-35519.98,-38965.7,-52432.742,-18342.814
801748.9693966279,-50182.617,-57948.938,-29645.225,-9255.412,-35522.016,-38964.805,-52436.566,-18344.158
801748.9733966233,-50181.234,-57946.332,-29644.816,-9255.615,-35520.59,-38965.902,-52435.75,-18342.326
801748.9773966186,-50175.58,-57939.78,-29642.66,-9254.191,-35517.54,-38966.92,-52432.902,-18338.135
801748.981396614,-50172.61,-57934.816,-29643.23,-9254.517,-35513.387,-38967.203,-52431.113,-18334.88
801748.9853966093,-50175.496,-57938.805,-29644.736,-9255.453,-35515.383,-38967.164,-52430.176,-18330.73
801748.9893966047,-50178.348,-57943.24,-29645.875,-9256.145,-35520.387,-38966.555,-52432.05,-18332.887
801748.9933966,-50174.52,-57943.2,-29644.451,-9256.714,-35520.996,-38964.805,-52430.504,-18334.066
801748.9973965954,-50171.184,-57940.473,-29642.701,-9254.68,-35518.598,-38961.223,-52424.887,-18329.916
801749.0013965907,-50175.984,-57938.844,-29639.975,-9253.866,-35518.27,-38959.758,-52421.023,-18328.29
801749.0053965861,-50175.09,-57939.293,-29640.545,-9255.859,-35520.305,-38960.734,-52421.227,-18327.068
801749.0093965814,-50168.945,-57940.555,-29641.807,-9257.406,-35520.957,-38961.223,-52424.113,-18329.305
801749.0133965769,-50166.75,-57939.332,-29640.219,-9255.615,-35517.215,-38962.363,-52424.52,-18332.52
801749.0173965722,-50164.88,-57936.445,-29637.736,-9253.418,-35514.363,-38965.09,-52425.78,-18332.764
801749.0213965675,-50165.12,-57935.793,-29636.719,-9253.5,-35514.445,-38964.234,-52427.29,-18332.967
