timestamp,Fp1,Fp2,F3,Fz,F4,Cz,Pz,Oz
802442.8005910253,-77711.914,-61656.902,17660.36,5560.6284,-13553.223,-33058.31,-15487.956,10745.077
802442.8045910206,-77712.445,-61659.223,17677.693,5563.436,-13548.666,-33060.63,-15491.089,10739.99
802442.808591016,-77715.62,-61661.094,17659.059,5557.7803,-13550.619,-33059.53,-15484.05,10755.249
802442.8125910113,-77719.04,-61664.227,17658.326,5555.339,-13554.525,-33059.41,-15480.307,10756.674
802442.8165910067,-77710.77,-61651.164,17678.102,5561.5645,-13550.822,-33056.438,-15475.627,10756.958
802442.820591002,-77716.92,-61655.64,17671.998,5562.4595,-13549.927,-33054.812,-15479.167,10752.482
802442.8245909974,-77700.16,-61645.55,17678.996,5568.5225,-13550.903,-33058.72,-15478.72,10761.108
802442.8285909927,-77701.13,-61647.79,17670.33,5563.1104,-13560.222,-33059.613,-15468.872,10764.853
802442.8325909881,-77703.29,-61647.746,17677.654,5559.774,-13560.385,-33063.64,-15473.511,10761.271
802442.8365909834,-77704.23,-61651.492,17680.217,5560.3438,-13555.176,-33058.72,-15474.813,10762.573
802442.8405909789,-77716.84,-61660.77,17669.312,5558.1055,-13555.136,-33052.613,-15474.731,10755.981
802442.8445909742,-77711.8,-61662.234,17681.764,5560.466,-13559.164,-33053.02,-15478.3125,10748.535
802442.8485909696,-77713.5,-61660.645,17659.506,5558.187,-13558.432,-33056.6,-15478.354,10747.844
802442.8525909649,-77711.1,-61654.504,17664.55,5558.309,-13562.175,-33058.35,-15475.464,10744.507
802442.8565909602,-77715.5,-61661.215,17672.16,5556.885,-13562.948,-33056.4,-15478.231,10728.964
802442.8605909556,-77717.086,-61665.652,17671.875,5559.6113,-13555.014,-33055.016,-15481.405,10721.68
802442.8645909509,-77717.25,-61665.773,17666.992,5557.821,-13560.751,-33053.55,-15479.777,10710.815
802442.8685909463,-77717.53,-61662.273,17659.383,5556.3965,-13556.193,-33058.15,-15488.77,10705.974
802442.8725909416,-77715.5,-61651.98,17660.28,5553.996,-13556.885,-33063.234,-15488.078,10707.52
802442.876590937,-77713.625,-61651.492,17668.621,5556.6816,-13551.147,-33059.938,-15479.614,10702.475
802442.8805909323,-77713.016,-61660.605,17680.787,5559.9365,-13547.445,-33054.688,-15482.016,10693.522
802442.8845909277,-77718.914,-61661.906,17668.824,5557.617,-13548.462,-33055.016,-15479.858,10699.951
802442.888590923,-77718.06,-61650.23,17657.838,5559.326,-13540.771,-33056.48,-15470.012,10715.698
802442.8925909185,-77716.516,-61651.207,17651.205,5556.356,-13533.163,-33058.676,-15472.494,10711.508
802442.8965909138,-77713.016,-61661.133,17678.305,5558.1465,-13542.5625,-33056.64,-15472.372,10711.874
802442.9005909092,-77711.63,-61659.953,17674.764,5560.954,-13538.94,-33054.04,-15467.367,10716.105
802442.9045909045,-77714.16,-61667.32,17668.05,5561.6455,-13537.069,-33055.867,-15470.337,10716.187
802442.9085908999,-77705.28,-61650.473,17668.701,5561.6455,-13538.086,-33058.594,-15465.82,10722.29
802442.9125908952,-77705.53,-61651.816,17671.55,5559.367,-13542.318,-33059.207,-15465.861,10723.1045
802442.9165908906,-77710.45,-61653.73,17674.48,5560.8726,-13540.69,-33058.84,-15465.088,10722.575
802442.9205908859,-77710.164,-61653.08,17681.844,5562.866,-13539.0625,-33058.434,-15469.076,10716.228
802442.9245908813,-77714.07,-61655.56,17673.38,5562.175,-13538.9,-33057.414,-15465.983,10720.378
802442.9285908766,-77715.45,-61656.293,17663.818,5559.9365,-13537.883,-33060.996,-15468.059,10720.988
802442.9325908719,-77718.586,-61654.785,17663.412,5560.6284,-13534.79,-33061.605,-15465.576,10725.627
802442.9365908673,-77720.18,-61656.25,17668.58,5561.727,-13530.192,-33059.41,-15471.069,10712.321
802442.9405908627,-77719.16,-61661.95,17678.996,5562.4595,-13527.873,-33060.305,-15480.713,10693.726
802442.9445908581,-77724.86,-61667.645,17675.008,5561.5234,-13540.365,-33060.875,-15480.835,10695.15
802442.9485908534,-77726.89,-61664.145,17655.152,5557.4546,-13544.922,-33063.926,-15480.307,10691.04
802442.9525908488,-77731.125,-61666.016,17654.95,5555.8677,-13537.964,-33065.758,-15479.696,10688.559
802442.9565908441,-77729.74,-61665.164,17667.36,5560.466,-13530.844,-33061.24,-15477.783,10686.361
802442.9605908395,-77724.445,-61661.094,17675.62,5566.04,-13529.379,-33057.21,-15480.551,10677.856
802442.9645908348,-77730.8,-61666.14,17665.527,5562.2153,-13535.808,-33054.363,-15477.336,10678.549
802442.9685908302,-77726.04,-61665.734,17660.97,5557.536,-13540.202,-33056.887,-15477.946,10668.376
802442.9725908255,-77722.414,-61657.758,17659.22,5559.448,-13536.133,-33058.51,-15478.271,10668.376
802442.9765908209,-77717.734,-61657.96,17667.277,5562.175,-13528.809,-33055.176,-15477.539,10675.09
802442.9805908162,-77716.11,-61658.57,17675.09,5565.796,-13522.909,-33053.957,-15481.283,10671.143
802442.9845908117,-77723.88,-61661.867,17667.36,5564.453,-13519.694,-33054.445,-15483.562,10657.878
802442.988590807,-77720.26,-61661.34,17664.186,5562.744,-13523.397,-33057.13,-15476.44,10678.223
802442.9925908024,-77724.445,-61660.605,17660.93,5560.9946,-13525.595,-33058.594,-15470.134,10690.186
802442.9965907977,-77721.516,-61656.25,17663.982,5562.4595,-13516.195,-33054.363,-15462.24,10699.341
802443.0005907931,-77713.87,-61657.555,17673.951,5565.715,-13509.033,-33050.133,-15462.932,10695.842
802443.0045907884,-77714.44,-61659.06,17668.336,5564.006,-13509.44,-33050.09,-15462.932,10698.161
802443.0085907837,-77712.57,-61655.52,17663.006,5560.71,-13517.497,-33052.86,-15462.199,10700.114
802443.0125907791,-77706.95,-61650.8,17666.627,5560.1807,-13518.677,-33052.938,-15458.944,10706.055
802443.0165907744,-77707.805,-61650.27,17674.725,5563.3955,-13510.458,-33051.637,-15453.125,10711.548
802443.0205907698,-77712.0,-61655.97,17677.328,5564.2905,-13505.737,-33050.906,-15455.363,10708.252
802443.0245907651,-77714.805,-61658.613,17663.615,5563.9243,-13508.261,-33050.293,-15457.4795,10705.322
802443.0285907605,-77714.64,-61655.76,17664.348,5561.4424,-13515.341,-33053.55,-15458.008,10707.927
802443.0325907558,-77714.68,-61652.875,17661.824,5558.7974,-13514.038,-33056.234,-15460.693,10708.496
802443.0365907513,-77715.414,-61654.543,17673.26,5560.6284,-13509.359,-33053.754,-15456.137,10714.152
802443.0405907466,-77715.91,-61660.32,17679.646,5563.2324,-13500.122,-33049.97,-15451.498,10716.513
802443.044590742,-77714.07,-61661.297,17676.473,5564.4126,-13496.623,-33049.195,-15448.935,10719.442
802443.0485907373,-77702.64,-61647.625,17670.37,5563.68,-13493.327,-33050.62,-15448.486,10722.453
802443.0525907327,-77700.6,-61640.707,17667.115,5560.954,-13491.089,-33053.223,-15451.701,10715.088
802443.056590728,-77706.87,-61644.53,17672.283,5563.68,-13490.601,-33051.84,-15452.353,10707.927
802443.0605907234,-77715.25,-61649.945,17672.201,5565.511,-13484.741,-33048.543,-15454.062,10706.299
802443.0645907187,-77715.336,-61651.492,17664.633,5564.575,-13487.427,-33048.625,-15456.909,10698.202
802443.0685907141,-77707.36,-61642.54,17657.105,5563.3955,-13494.304,-33052.777,-15458.456,10702.312
802443.0725907094,-77707.69,-61640.383,17659.22,5562.9883,-13492.636,-33053.426,-15457.846,10697.958
802443.0765907048,-77709.59,-61640.625,17666.3,5563.6396,-13486.166,-33050.984,-15453.857,10699.585
802443.0805907001,-77717.125,-61648.438,17670.492,5565.715,-13487.549,-33046.633,-15455.688,10699.26
802443.0845906954,-77723.68,-61653.73,17662.518,5564.6973,-13488.7295,-33045.535,-15456.828,10692.749
802443.0885906909,-77725.79,-61659.793,17655.844,5560.262,-13496.786,-33048.87,-15456.299,10689.087
802443.0925906862,-77719.36,-61658.082,17658.285,5556.5596,-13497.681,-33054.324,-15461.874,10685.791
802443.0965906816,-77716.07,-61654.543,17659.832,5558.838,-13495.6875,-33050.863,-15460.246,10687.866
802443.1005906769,-77722.17,-61661.055,17663.209,5560.954,-13488.119,-33050.17,-15464.966,10678.955
802443.1045906723,-77721.56,-61663.37,17666.79,5561.239,-13488.933,-33052.574,-15464.763,10678.305
802443.1085906676,-77726.28,-61666.832,17659.668,5556.885,-13497.763,-33060.06,-15471.313,10669.475
802443.112590663,-77732.38,-61669.152,17650.594,5555.176,-13495.728,-33063.03,-15471.273,10669.8
802443.1165906583,-77729.984,-61668.906,17663.656,5555.9897,-13492.025,-33059.57,-15467.529,10672.323
802443.1205906537,-77730.35,-61671.918,17678.71,5557.821,-13489.136,-33055.79,-15468.628,10666.423
802443.124590649,-77727.09,-61671.023,17674.398,5559.001,-13486.247,-33053.426,-15465.048,10666.504
802443.1285906445,-77724.164,-61664.51,17659.018,5556.3965,-13489.014,-33056.48,-15461.101,10674.846
802443.1325906398,-77728.72,-61664.715,17657.023,5554.24,-13490.764,-33058.84,-15463.42,10674.032
802443.1365906352,-77729.33,-61668.05,17663.209,5556.1934,-13487.793,-33054.812,-15462.524,10663.9
802443.1405906305,-77732.305,-61675.703,17665.568,5554.9316,-13484.579,-33051.84,-15461.67,10659.262
802443.1445906259,-77736.45,-61681.277,17668.092,5555.9897,-13489.096,-33053.914,-15463.745,10656.088
802443.1485906212,-77733.805,-61674.4,17655.273,5554.3213,-13488.688,-33052.207,-15456.096,10669.922
802443.1525906166,-77737.71,-61675.5,17651.082,5552.694,-13490.438,-33052.086,-15454.265,10669.8
802443.1565906119,-77738.24,-61678.508,17661.297,5551.595,-13488.363,-33048.42,-15448.486,10675.09
802443.1605906072,-77737.875,-61680.543,17665.162,5555.0537,-13481.405,-33048.465,-15447.673,10674.602
802443.1645906026,-77743.29,-61686.242,17658.814,5552.8975,-13489.584,-33049.03,-15447.998,10670.41
802443.1685905979,-77744.305,-61682.293,17648.072,5548.462,-13491.293,-33050.05,-15446.005,10669.922
802443.1725905933,-77748.62,-61682.902,17641.316,5545.41,-13494.304,-33053.305,-15448.771,10664.673
802443.1765905886,-77753.18,-61693.402,17646.281,5547.7295,-13495.769,-33052.41,-15451.945,10660.441
802443.1805905841,-77751.02,-61692.75,17654.217,5552.816,-13487.915,-33050.906,-15454.184,10658.732
802443.1845905794,-77756.11,-61694.5,17654.135,5551.1885,-13489.136,-33051.598,-15453.776,10652.914
802443.1885905748,-77754.195,-61692.344,17652.344,5549.6826,-13487.793,-33055.34,-15452.922,10652.995
802443.1925905701,-77752.36,-61691.125,17642.863,5549.3574,-13491.943,-33054.65,-15450.195,10658.488
802443.1965905655,-77752.32,-61692.06,17654.988,5551.107,-13492.676,-33051.758,-15449.382,10658.61
802443.2005905608,-77753.74,-61692.344,17658.611,5553.711,-13487.0205,-33048.3,-15447.958,10655.233
802443.2045905562,-77754.6,-61695.52,17651.45,5552.2056,-13488.485,-33048.34,-15447.51,10655.478
802443.2085905515,-77757.164,-61698.895,17648.64,5548.0957,-13494.385,-33050.09,-15445.923,10657.471
802443.2125905469,-77754.88,-61694.297,17645.06,5546.753,-13491.171,-33051.188,-15447.51,10654.541
802443.2165905422,-77755.91,-61696.21,17651.693,5547.16,-13490.764,-33048.543,-15446.005,10651.978
802443.2205905376,-77756.59,-61703.047,17659.018,5551.5137,-13489.258,-33044.477,-15445.923,10647.095
802443.224590533,-77759.36,-61702.56,17654.338,5552.8975,-13487.183,-33046.51,-15445.923,10645.468
802443.2285905282,-77759.28,-61698.652,17644.695,5550.7812,-13482.992,-33048.91,-15444.784,10647.949
802443.2325905237,-77754.03,-61698.12,17643.025,5548.4214,-13479.777,-33049.6,-15442.871,10650.676
802443.236590519,-77751.836,-61696.656,17653.28,5549.3574,-13475.383,-33046.305,-15438.273,10652.182
802443.2405905144,-77756.72,-61700.81,17669.11,5553.2637,-13475.464,-33042.277,-15436.6455,10645.996
802443.2445905097,-77752.0,-61702.965,17660.93,5553.06,-13479.086,-33042.117,-15433.513,10648.112
802443.2485905051,-77746.46,-61701.945,17657.674,5550.049,-13478.882,-33044.516,-15431.519,10653.931
802443.2525905004,-77747.805,-61698.57,17655.965,5547.119,-13477.255,-33047.242,-15433.1875,10645.996
802443.2565904958,-77749.35,-61698.57,17656.941,5548.381,-13480.795,-33045.695,-15433.798,10639.975
802443.2605904911,-77752.484,-61703.047,17664.633,5553.63,-13478.76,-33044.883,-15436.157,10634.359
802443.2645904865,-77750.2,-61701.703,17665.527,5557.0884,-13474.813,-33045.535,-15436.483,10635.905
802443.2685904818,-77749.8,-61699.383,17662.965,5553.874,-13478.882,-33049.805,-15437.256,10636.679
802443.2725904773,-77751.43,-61694.5,17655.193,5552.938,-13477.011,-33050.336,-15436.85,10632.854
802443.2765904726,-77750.2,-61694.38,17662.03,5554.9727,-13467.978,-33045.535,-15433.594,10633.586
802443.280590468,-77752.89,-61697.105,17662.395,5553.5483,-13467.041,-33044.11,-15434.001,10628.012
802443.2845904633,-77751.75,-61701.05,17664.795,5557.4546,-13478.231,-33044.965,-15432.943,10623.495
802443.2885904587,-77762.62,-61711.305,17656.494,5552.409,-13488.281,-33046.957,-15431.4375,10624.716
802443.292590454,-77760.58,-61702.56,17648.926,5551.3105,-13479.899,-33049.684,-15428.996,10632.895
802443.2965904494,-77756.516,-61699.992,17659.424,5552.002,-13477.051,-33045.777,-15423.666,10644.369
802443.3005904447,-77756.88,-61706.098,17665.691,5551.8394,-13478.027,-33041.42,-15421.184,10646.281
802443.30459044,-77758.42,-61709.84,17662.842,5552.8975,-13483.439,-33042.93,-15421.469,10648.153
802443.3085904354,-77761.4,-61709.758,17656.088,5550.863,-13485.107,-33046.1,-15422.7295,10651.408
802443.3125904307,-77760.87,-61708.54,17656.941,5550.2524,-13483.643,-33046.305,-15421.835,10653.728
802443.3165904261,-77761.68,-61711.266,17666.951,5549.154,-13485.434,-33042.887,-15419.189,10655.64
802443.3205904214,-77759.484,-61709.27,17666.627,5551.0254,-13481.689,-33039.594,-15416.016,10656.088
802443.3245904169,-77757.41,-61707.645,17663.615,5553.955,-13482.951,-33039.105,-15413.656,10648.764
802443.3285904122,-77756.63,-61703.332,17657.918,5550.334,-13485.678,-33042.645,-15412.272,10644.206
802443.3325904076,-77755.695,-61701.457,17656.17,5548.055,-13484.66,-33046.145,-15414.795,10640.341
802443.3365904029,-77758.38,-61706.055,17662.8,5549.764,-13476.196,-33046.754,-15421.306,10634.604
802443.3405903983,-77764.164,-61710.492,17663.086,5549.968,-13472.453,-33045.37,-15422.526,10630.29
802443.3445903936,-77769.62,-61717.164,17660.035,5548.747,-13481.201,-33048.87,-15427.734,10624.594
802443.348590389,-77770.47,-61714.766,17650.758,5547.7705,-13475.708,-33053.55,-15431.601,10623.291
802443.3525903843,-77767.78,-61707.93,17645.59,5548.828,-13473.227,-33056.113,-15429.321,10624.064
802443.3565903797,-77763.51,-61705.566,17654.95,5551.4326,-13470.622,-33051.188,-15423.95,10631.43
802443.360590375,-77762.66,-61706.22,17657.35,5554.4434,-13458.456,-33044.56,-15417.766,10631.958
802443.3645903704,-77769.414,-61710.574,17654.256,5552.49,-13459.717,-33044.434,-15417.44,10626.75
802443.3685903657,-77772.18,-61711.305,17642.375,5548.0146,-13468.384,-33046.715,-15415.568,10626.994
802443.3725903612,-77764.04,-61709.35,17645.508,5547.7295,-13463.298,-33048.258,-15417.114,10622.559
802443.3765903565,-77762.9,-61707.195,17651.205,5548.2993,-13462.321,-33046.957,-15413.371,10626.343
802443.3805903518,-77763.02,-61706.625,17658.123,5553.589,-13462.362,-33047.73,-15415.324,10626.14
802443.3845903472,-77762.62,-61708.09,17660.441,5555.583,-13464.682,-33048.34,-15414.795,10620.6875
802443.3885903425,-77762.53,-61703.74,17653.32,5552.7344,-13464.641,-33049.156,-15415.08,10622.314
802443.3925903379,-77763.43,-61698.977,17652.67,5549.154,-13458.415,-33049.848,-15414.267,10623.129
802443.3965903332,-77761.6,-61701.703,17656.088,5549.276,-13455.485,-33045.94,-15411.215,10626.14
802443.4005903286,-77764.04,-61706.504,17660.28,5552.2056,-13454.306,-33042.4,-15411.621,10622.763
802443.4045903239,-77763.836,-61707.113,17664.43,5554.7285,-13453.9795,-33040.203,-15407.919,10621.582
802443.4085903193,-77763.06,-61704.957,17654.541,5550.9443,-13457.968,-33042.32,-15402.507,10626.791
802443.4125903146,-77768.39,-61705.977,17651.326,5548.706,-13464.844,-33047.363,-15406.942,10621.786
802443.41659031,-77772.09,-61712.12,17655.559,5548.1367,-13463.664,-33046.957,-15403.931,10621.786
802443.4205903054,-77777.14,-61720.746,17658.65,5548.4214,-13463.217,-33046.59,-15408.813,10616.008
802443.4245903008,-77782.27,-61725.547,17655.152,5546.5903,-13468.14,-33046.55,-15413.656,10605.103
802443.4285902961,-77780.07,-61721.477,17651.531,5546.7124,-13473.145,-33047.12,-15410.808,10608.154
802443.4325902915,-77776.53,-61718.914,17648.723,5544.5967,-13469.971,-33048.586,-15409.506,10608.847
802443.4365902868,-77773.16,-61720.094,17656.82,5545.858,-13464.4375,-33045.777,-15405.192,10609.172
802443.4405902822,-77775.88,-61721.316,17660.076,5547.8516,-13466.594,-33042.605,-15406.413,10603.923
802443.4445902775,-77774.664,-61721.68,17658.732,5550.415,-13468.181,-33045.125,-15411.418,10596.558
802443.4485902729,-77775.64,-61721.68,17653.2,5548.4214,-13471.273,-33049.234,-15413.9,10598.511
802443.4525902682,-77779.016,-61721.113,17643.352,5545.044,-13467.285,-33050.17,-15411.215,10601.115
802443.4565902635,-77783.9,-61722.984,17642.049,5544.6777,-13463.257,-33048.707,-15409.058,10596.762
802443.4605902589,-77781.945,-61726.688,17650.105,5548.34,-13457.642,-33046.348,-15408.732,10590.658
802443.4645902542,-77781.66,-61730.43,17649.17,5548.462,-13460.734,-33048.18,-15412.15,10587.6875
802443.4685902497,-77780.6,-61733.035,17649.334,5546.0205,-13465.414,-33048.668,-15408.447,10592.367
802443.472590245,-77779.586,-61729.82,17639.486,5545.207,-13463.176,-33049.887,-15404.338,10597.168
802443.4765902404,-77778.08,-61724.734,17649.984,5549.4795,-13457.602,-33047.12,-15404.745,10597.494
802443.4805902357,-77779.586,-61725.63,17656.576,5554.9316,-13456.706,-33043.62,-15403.891,10592.082
802443.4845902311,-77776.164,-61725.914,17653.89,5554.525,-13455.7705,-33043.336,-15404.094,10585.815
802443.4885902264,-77774.13,-61723.84,17644.979,5551.2695,-13460.979,-33047.406,-15406.657,10585.856
802443.4925902218,-77775.23,-61723.31,17642.578,5551.107,-13459.229,-33050.375,-15408.325,10587.565
802443.4965902171,-77773.484,-61721.477,17649.049,5554.118,-13450.603,-33050.09,-15406.332,10587.199
802443.5005902125,-77769.9,-61721.273,17657.146,5559.245,-13448.283,-33047.895,-15406.047,10584.758
802443.5045902078,-77768.64,-61723.023,17654.908,5560.3438,-13448.975,-33047.85,-15404.419,10582.968
802443.5085902032,-77764.445,-61717.855,17652.588,5560.913,-13452.841,-33050.54,-15404.094,10583.415
802443.5125901985,-77764.24,-61714.277,17647.46,5559.9775,-13452.189,-33050.418,-15402.67,10581.991
802443.516590194,-77764.98,-61712.65,17655.477,5560.466,-13440.308,-33046.67,-15400.31,10582.805
802443.5205901893,-77764.57,-61713.34,17662.03,5562.0527,-13433.269,-33043.457,-15398.071,10578.573
802443.5245901847,-77756.266,-61712.77,17661.256,5564.4126,-13437.704,-33043.133,-15394.857,10581.787
802443.52859018,-77754.6,-61711.59,17652.832,5561.076,-13447.388,-33048.137,-15396.606,10582.031
802443.5325901753,-77760.09,-61713.22,17643.107,5558.431,-13450.562,-33051.676,-15399.211,10576.62
802443.5365901707,-77763.92,-61716.35,17653.564,5561.5645,-13448.08,-33047.65,-15396.729,10573.894
802443.540590166,-77761.64,-61718.67,17669.19,5564.8193,-13449.341,-33047.977,-15397.421,10575.073
802443.5445901614,-77761.805,-61718.426,17662.965,5565.389,-13450.521,-33047.934,-15398.642,10572.021
802443.5485901567,-77759.69,-61714.926,17652.588,5562.5815,-13450.603,-33048.83,-15394.897,10574.504
802443.5525901521,-77759.16,-61713.016,17647.625,5560.2217,-13446.899,-33050.293,-15390.707,10574.911
802443.5565901474,-77756.266,-61709.96,17660.156,5563.7207,-13442.627,-33047.65,-15386.516,10576.335
802443.5605901428,-77751.1,-61709.473,17666.18,5568.807,-13443.075,-33045.33,-15388.144,10572.348
802443.5645901382,-77755.29,-61712.89,17664.307,5570.1094,-13458.984,-33046.715,-15389.282,10568.808
802443.5685901336,-77752.56,-61710.37,17659.791,5567.302,-13454.875,-33048.258,-15390.178,10566.569
802443.5725901289,-77757.37,-61710.043,17655.396,5563.07,-13447.958,-33049.645,-15391.398,10567.505
802443.5765901243,-77753.26,-61708.66,17655.559,5563.0293,-13429.647,-33048.383,-15392.7,10563.884
802443.5805901196,-77750.2,-61710.656,17662.477,5565.3486,-13436.85,-33047.04,-15395.793,10557.333
802443.584590115,-77754.805,-61717.33,17659.627,5565.918,-13440.063,-33049.277,-15400.351,10551.677
802443.5885901103,-77755.21,-61717.41,17651.043,5562.134,-13447.51,-33050.824,-15399.414,10553.305
802443.5925901057,-77755.29,-61717.33,17650.025,5557.821,-13453.288,-33049.766,-15395.549,10554.973
802443.596590101,-77752.24,-61715.78,17660.36,5562.2153,-13446.899,-33047.69,-15390.015,10557.983
802443.6005900964,-77753.79,-61718.305,17672.283,5566.162,-13445.028,-33044.68,-15388.266,10558.757
802443.6045900917,-77750.41,-61715.945,17665.73,5566.04,-13441.528,-33044.965,-15389.079,10553.955
802443.608590087,-77742.15,-61711.71,17656.332,5563.68,-13442.139,-33048.953,-15388.835,10554.118
802443.6125900825,-77744.1,-61710.86,17654.988,5563.6396,-13444.987,-33050.906,-15389.404,10550.049
802443.6165900778,-77747.56,-61713.664,17659.465,5565.837,-13448.039,-33050.906,-15391.887,10543.539
802443.6205900732,-77750.33,-61716.39,17656.047,5567.871,-13446.818,-33048.992,-15393.677,10537.964
802443.6245900685,-77748.74,-61714.6,17654.541,5568.8887,-13445.19,-33049.074,-15391.928,10536.459
802443.6285900639,-77749.96,-61713.137,17649.578,5564.4126,-13451.782,-33050.05,-15388.144,10543.132
802443.6325900592,-77753.13,-61714.52,17644.41,5560.954,-13450.48,-33048.465,-15383.952,10550.009
802443.6365900546,-77750.94,-61713.586,17653.932,5565.3076,-13440.552,-33046.51,-15384.155,10546.306
802443.6405900499,-77748.45,-61714.355,17658.611,5567.668,-13430.502,-33044.516,-15385.905,10540.8125
802443.6445900453,-77748.414,-61718.508,17655.885,5568.563,-13432.78,-33046.754,-15386.19,10534.994
802443.6485900406,-77749.59,-61715.902,17651.734,5566.854,-13437.216,-33051.434,-15385.62,10537.15
802443.652590036,-77749.43,-61713.46,17652.873,5567.7085,-13437.134,-33053.67,-15385.986,10540.243
802443.6565900313,-77748.74,-61713.016,17654.744,5569.906,-13431.763,-33052.45,-15386.597,10538.249
802443.6605900268,-77746.83,-61715.7,17663.818,5572.0625,-13427.572,-33046.754,-15381.104,10543.254
802443.6645900221,-77749.02,-61718.426,17665.04,5571.2485,-13425.944,-33045.492,-15381.104,10539.267
802443.6685900175,-77751.34,-61719.445,17653.158,5565.7554,-13418.335,-33049.074,-15386.027,10528.728
802443.6725900128,-77752.12,-61715.375,17651.287,5564.6973,-13423.788,-33051.11,-15385.62,10532.878
802443.6765900081,-77756.02,-61715.05,17654.256,5565.0635,-13429.281,-33049.277,-15383.342,10537.069
802443.6805900035,-77750.98,-61719.402,17665.242,5567.383,-13435.303,-33046.51,-15382.162,10534.384
802443.6845899988,-77742.44,-61715.13,17659.059,5570.4346,-13437.582,-33045.492,-15380.046,10537.231
802443.6885899942,-77737.67,-61711.71,17655.07,5569.7837,-13438.477,-33049.316,-15379.802,10529.257
802443.6925899895,-77739.055,-61708.05,17652.547,5569.702,-13431.967,-33052.004,-15381.552,10524.74
802443.6965899849,-77745.85,-61707.48,17656.576,5569.214,-13422.974,-33050.62,-15383.301,10522.705
802443.7005899802,-77751.38,-61713.22,17660.4,5570.842,-13423.015,-33049.766,-15385.295,10521.403
802443.7045899756,-77758.22,-61717.695,17655.152,5569.0107,-13426.677,-33049.074,-15387.248,10519.043
802443.708589971,-77759.484,-61717.082,17649.74,5565.6333,-13430.949,-33051.72,-15389.201,10521.811
802443.7125899664,-77755.984,-61713.83,17656.209,5563.8022,-13428.711,-33051.15,-15388.469,10518.148
802443.7165899617,-77756.35,-61714.844,17661.459,5566.04,-13428.183,-33046.023,-15384.685,10517.416
802443.7205899571,-77757.445,-61720.867,17662.842,5567.424,-13427.979,-33044.72,-15384.807,10516.032
802443.7245899524,-77759.766,-61723.51,17658.611,5566.854,-13423.625,-33047.12,-15389.486,10508.342
802443.7285899478,-77763.63,-61723.51,17647.096,5563.8022,-13431.4375,-33047.85,-15388.021,10511.108
802443.7325899431,-77763.02,-61723.227,17645.71,5561.2793,-13437.663,-33045.9,-15381.43,10521.892
802443.7365899385,-77762.945,-61721.965,17660.809,5563.68,-13434.001,-33043.418,-15379.477,10522.746
802443.7405899338,-77766.56,-61724.043,17663.086,5567.3423,-13429.321,-33041.547,-15377.971,10521.973
802443.7445899292,-77763.35,-61726.28,17660.32,5568.7666,-13426.677,-33045.33,-15383.301,10517.131
802443.7485899245,-77751.95,-61718.71,17657.553,5568.685,-13427.49,-33048.707,-15385.62,10513.876
802443.7525899198,-77751.23,-61716.555,17655.6,5567.1797,-13428.915,-33050.008,-15383.586,10510.905
802443.7565899153,-77753.625,-61720.664,17658.855,5567.749,-13433.269,-33049.4,-15382.568,10506.43
802443.7605899106,-77756.19,-61726.035,17658.895,5569.458,-13427.734,-33046.266,-15384.399,10502.279
802443.764589906,-77758.55,-61726.848,17659.953,5571.1265,-13426.147,-33046.348,-15386.963,10503.093
802443.7685899013,-77761.88,-61721.355,17654.541,5569.2954,-13428.589,-33051.312,-15389.648,10499.634
802443.7725898967,-77765.46,-61718.996,17649.17,5569.4175,-13426.107,-33054.566,-15392.578,10500.448
802443.776589892,-77757.65,-61717.816,17655.273,5571.452,-13423.788,-33053.184,-15394.775,10496.623
802443.7805898874,-77758.22,-61722.25,17662.68,5574.626,-13418.661,-33050.09,-15394.938,10489.462
802443.7845898827,-77756.23,-61723.27,17661.092,5574.951,-13420.37,-33050.293,-15394.369,10492.106
802443.7885898781,-77756.39,-61720.215,17652.752,5569.9873,-13433.92,-33052.652,-15389.853,10497.641
802443.7925898734,-77754.88,-61718.996,17651.693,5567.2607,-13436.239,-33050.17,-15381.836,10502.035
802443.7965898688,-77751.38,-61716.066,17661.174,5569.702,-13424.032,-33047.203,-15375.122,10505.9
802443.8005898641,-77749.555,-61715.05,17666.951,5571.411,-13416.87,-33044.8,-15373.698,10504.883
802443.8045898596,-77749.31,-61716.555,17665.162,5571.6147,-13420.451,-33044.68,-15371.054,10507.121
802443.8085898549,-77750.695,-61713.098,17658.203,5570.028,-13425.375,-33046.957,-15369.101,10508.057
802443.8125898503,-77751.79,-61711.633,17660.197,5568.563,-13425.456,-33049.234,-15368.693,10507.365
802443.8165898456,-77754.516,-61713.055,17661.092,5569.621,-13420.288,-33047.61,-15366.618,10506.063
802443.820589841,-77758.266,-61718.508,17663.006,5569.7837,-13423.95,-33042.848,-15365.967,10505.168
802443.8245898363,-77762.29,-61721.887,17655.273,5569.4175,-13424.235,-33042.848,-15370.117,10498.251
802443.8285898316,-77761.03,-61720.703,17646.932,5568.5225,-13420.166,-33044.92,-15371.338,10495.524
802443.832589827,-77757.53,-61717.367,17647.502,5568.2783,-13423.422,-33046.145,-15370.239,10494.304
802443.8365898223,-77748.45,-61710.086,17656.494,5572.225,-13410.727,-33044.68,-15364.665,10498.413
802443.8405898177,-77746.3,-61711.633,17667.236,5574.707,-13405.844,-33039.836,-15364.014,10498.007
802443.844589813,-77749.92,-61713.3,17665.854,5575.521,-13415.365,-33038.168,-15366.862,10494.467
802443.8485898084,-77751.836,-61713.625,17659.1,5570.7197,-13428.183,-33041.42,-15371.094,10483.969
802443.8525898037,-77753.42,-61713.625,17655.559,5566.284,-13428.63,-33045.37,-15371.176,10487.305
802443.8565897992,-77750.2,-61717.33,17660.156,5566.7725,-13424.5205,-33045.74,-15372.07,10484.538
802443.8605897945,-77750.9,-61725.098,17665.812,5568.807,-13423.788,-33042.97,-15373.129,10479.899
802443.8645897899,-77756.67,-61734.375,17662.762,5569.0107,-13430.136,-33045.168,-15376.14,10473.552
802443.8685897852,-77760.91,-61730.594,17653.973,5566.1216,-13433.432,-33048.586,-15379.436,10473.267
802443.8725897806,-77760.74,-61726.32,17652.629,5564.616,-13423.706,-33048.625,-15376.872,10478.72
802443.8765897759,-77759.195,-61723.31,17657.023,5565.6333,-13417.807,-33048.79,-15373.373,10482.016
802443.8805897713,-77757.04,-61725.26,17662.232,5569.255,-13413.33,-33047.406,-15373.413,10476.44
802443.8845897666,-77759.36,-61724.53,17659.018,5571.3706,-13417.399,-33046.227,-15369.101,10480.469
802443.888589762,-77760.664,-61720.83,17651.979,5570.3535,-13419.271,-33046.227,-15363.363,10486.816
802443.8925897573,-77760.42,-61719.445,17652.14,5568.807,-13415.771,-33046.754,-15359.416,10489.136
802443.8965897528,-77760.58,-61720.625,17651.938,5568.441,-13409.872,-33045.9,-15356.934,10490.927
802443.900589748,-77760.17,-61721.234,17659.424,5571.411,-13410.889,-33042.36,-15358.358,10487.427
802443.9045897434,-77759.24,-61721.6,17658.326,5572.551,-13417.807,-33043.17,-15360.474,10479.858
802443.9085897388,-77758.42,-61716.473,17649.781,5569.702,-13412.964,-33046.227,-15360.393,10481.405
802443.9125897341,-77757.125,-61714.684,17649.658,5566.732,-13411.703,-33046.227,-15359.009,10482.504
802443.9165897295,-77756.31,-61715.984,17655.314,5567.5864,-13406.535,-33044.434,-15358.725,10486.898
802443.9205897248,-77757.086,-61720.95,17664.998,5570.15,-13404.623,-33042.645,-15361.166,10482.788
802443.9245897202,-77756.836,-61723.758,17660.809,5570.4756,-13410.727,-33042.727,-15362.956,10476.44
802443.9285897155,-77756.31,-61720.46,17652.791,5569.702,-13409.343,-33045.33,-15363.2,10479.289
802443.9325897109,-77759.484,-61717.082,17643.27,5568.0747,-13413.249,-33047.49,-15362.753,10481.12
802443.9365897062,-77763.02,-61718.426,17648.885,5571.859,-13408.651,-33046.51,-15363.852,10477.214
802443.9405897016,-77761.516,-61720.746,17657.227,5574.5444,-13403.117,-33044.883,-15368.124,10466.513
802443.9445896969,-77758.34,-61722.375,17657.39,5576.091,-13404.826,-33045.613,-15369.792,10465.332
802443.9485896924,-77754.195,-61717.734,17648.031,5574.829,-13409.587,-33049.44,-15370.158,10467.8955
802443.9525896877,-77751.71,-61716.434,17646.648,5576.1313,-13403.769,-33050.54,-15369.589,10467.611
802443.9565896831,-77755.01,-61714.355,17654.297,5574.992,-13399.943,-33048.383,-15369.141,10468.059
802443.9605896784,-77758.38,-61717.285,17664.062,5577.352,-13397.909,-33044.395,-15372.478,10459.351
802443.9645896738,-77758.42,-61718.793,17659.709,5576.9453,-13398.723,-33047.04,-15374.105,10450.562
802443.9685896691,-77762.62,-61719.035,17651.408,5573.12,-13403.32,-33052.53,-15378.947,10440.959
802443.9725896645,-77764.37,-61717.98,17647.828,5571.981,-13403.158,-33054.363,-15377.89,10446.086
802443.9765896598,-77760.17,-61719.81,17657.39,5574.0156,-13397.583,-33049.52,-15373.901,10444.987
802443.9805896551,-77757.24,-61726.035,17666.586,5576.294,-13393.433,-33042.93,-15371.257,10436.523
802443.9845896505,-77754.805,-61725.223,17666.992,5576.335,-13398.642,-33041.18,-15366.781,10441.203
802443.9885896458,-77756.19,-61723.27,17661.256,5572.8354,-13400.839,-33040.445,-15364.34,10440.308
802443.9925896412,-77762.01,-61726.973,17652.14,5569.2954,-13402.263,-33042.562,-15365.072,10438.762
802443.9965896365,-77762.984,-61727.95,17658.406,5570.638,-13399.292,-33040.324,-15361.45,10441.488
802444.000589632,-77766.73,-61733.523,17659.018,5571.981,-13409.099,-33038.21,-15359.335,10441.203
802444.0045896273,-77770.555,-61735.312,17657.756,5571.737,-13408.488,-33039.105,-15359.091,10442.221
802444.0085896227,-77773.234,-61734.457,17655.438,5566.203,-13407.268,-33043.863,-15358.5205,10436.157
802444.012589618,-77767.21,-61731.367,17653.85,5564.779,-13406.942,-33044.598,-15353.149,10441.447
802444.0165896134,-77762.695,-61731.73,17655.6,5568.4004,-13398.56,-33042.44,-15345.825,10449.504
802444.0205896087,-77763.875,-61729.492,17663.656,5570.2314,-13395.915,-33039.918,-15346.151,10445.476
802444.0245896041,-77764.08,-61724.57,17662.436,5572.3066,-13392.497,-33039.836,-15346.843,10443.848
802444.0285895994,-77762.62,-61723.066,17653.605,5571.6553,-13391.846,-33043.01,-15347.168,10443.156
802444.0325895948,-77762.49,-61720.746,17650.676,5569.58,-13397.421,-33045.168,-15346.965,10445.395
802444.0365895901,-77763.43,-61721.4,17651.205,5568.8887,-13393.84,-33044.637,-15345.419,10448.975
802444.0405895856,-77768.11,-61729.25,17655.152,5570.3125,-13390.585,-33042.074,-15345.337,10444.296
802444.0445895809,-77769.62,-61733.848,17653.768,5570.2314,-13396.118,-33041.22,-15345.541,10444.458
802444.0485895763,-77771.12,-61737.227,17654.623,5568.7256,-13404.297,-33044.965,-15348.755,10441.977
802444.0525895716,-77771.69,-61736.9,17645.996,5566.5283,-13404.867,-33048.992,-15349.081,10442.912
802444.0565895669,-77774.21,-61737.227,17649.09,5566.4473,-13398.682,-33046.875,-15345.622,10443.034
802444.0605895623,-77774.7,-61740.03,17656.129,5570.8823,-13393.718,-33042.97,-15344.238,10439.575
802444.0645895576,-77776.86,-61743.29,17652.426,5571.045,-13393.718,-33045.125,-15348.267,10434.53
802444.068589553,-77775.35,-61741.742,17646.443,5569.865,-13394.206,-33049.48,-15355.347,10426.596
802444.0725895483,-77773.52,-61738.406,17644.287,5566.04,-13403.117,-33054.117,-15359.782,10420.492
802444.0765895437,-77778.28,-61741.58,17648.64,5566.081,-13399.862,-33052.734,-15355.469,10424.154
802444.080589539,-77783.33,-61747.195,17650.594,5568.319,-13407.634,-33051.84,-15354.37,10424.765
802444.0845895344,-77788.45,-61749.92,17652.629,5569.2954,-13407.1455,-33050.906,-15353.149,10422.526
802444.0885895297,-77791.305,-61747.684,17645.508,5565.918,-13404.704,-33051.11,-15347.168,10427.694
802444.0925895252,-77781.414,-61743.29,17643.963,5563.9243,-13401.53,-33051.637,-15345.419,10428.223
802444.0965895205,-77782.516,-61745.973,17652.303,5564.9414,-13395.427,-33048.504,-15343.71,10428.589
802444.1005895159,-77790.24,-61749.84,17655.844,5566.854,-13397.787,-33044.477,-15341.064,10428.589
802444.1045895112,-77786.79,-61751.59,17653.361,5567.505,-13406.006,-33041.586,-15339.804,10429.321
802444.1085895066,-77783.77,-61746.34,17644.246,5565.4297,-13405.111,-33044.883,-15340.536,10426.921
802444.1125895019,-77785.28,-61741.293,17642.578,5563.5986,-13404.948,-33047.12,-15341.064,10426.555
802444.1165894973,-77781.62,-61740.316,17652.547,5565.837,-13401.53,-33046.266,-15336.142,10432.17
802444.1205894926,-77778.81,-61741.008,17661.256,5568.2783,-13395.874,-33042.887,-15334.025,10428.833
802444.1245894879,-77777.55,-61740.6,17664.021,5569.743,-13388.754,-33040.895,-15335.49,10421.469
802444.1285894833,-77778.484,-61737.51,17655.477,5568.2373,-13391.235,-33042.93,-15336.304,10420.044
802444.1325894786,-77779.5,-61738.977,17652.223,5566.1216,-13396.525,-33043.297,-15332.683,10427.572
802444.136589474,-77779.016,-61740.848,17658.326,5567.749,-13390.829,-33039.715,-15329.428,10431.274
802444.1405894693,-77781.45,-61741.54,17658.611,5570.7197,-13385.173,-33038.168,-15329.59,10425.334
802444.1445894648,-77782.72,-61742.395,17657.43,5571.452,-13388.55,-33038.414,-15330.404,10425.375
802444.1485894601,-77777.55,-61734.582,17654.42,5570.1904,-13390.381,-33040.242,-15330.7295,10429.24
802444.1525894555,-77773.36,-61728.477,17657.105,5572.347,-13384.97,-33041.79,-15328.9795,10430.746
802444.1565894508,-77771.69,-61726.93,17659.18,5572.551,-13377.563,-33042.24,-15328.41,10427.979
802444.1605894462,-77770.266,-61725.305,17665.61,5578.4507,-13374.268,-33039.797,-15331.015,10426.88
802444.1645894415,-77772.46,-61725.305,17665.406,5580.6074,-13376.709,-33040.652,-15330.852,10422.689
802444.1685894369,-77775.31,-61728.883,17653.932,5574.0156,-13379.68,-33045.125,-15327.108,10425.903
802444.1725894322,-77770.34,-61728.07,17653.729,5572.876,-13381.511,-33045.94,-15321.818,10430.38
802444.1765894276,-77770.836,-61730.715,17664.51,5573.2017,-13381.796,-33042.277,-15319.824,10431.03
802444.1805894229,-77774.01,-61736.453,17671.469,5574.87,-13378.052,-33038.777,-15319.011,10428.264
802444.1845894183,-77774.82,-61740.074,17666.545,5575.9277,-13371.948,-33038.656,-15318.645,10427.409
802444.1885894137,-77776.86,-61735.883,17655.803,5573.7305,-13373.047,-33041.26,-15321.411,10423.91
802444.1925894091,-77776.414,-61730.105,17658.855,5573.2017,-13383.098,-33042.645,-15319.702,10426.27
802444.1965894044,-77780.88,-61731.0,17658.936,5573.242,-13379.069,-33042.36,-15320.272,10421.062
802444.2005893997,-77784.51,-61732.992,17665.568,5573.0796,-13376.425,-33041.75,-15322.714,10411.011
802444.2045893951,-77790.85,-61738.324,17669.19,5573.4053,-13381.226,-33042.277,-15326.172,10402.995
802444.2085893904,-77793.22,-61739.34,17659.18,5572.51,-13382.854,-33043.05,-15324.992,10403.769
802444.2125893858,-77791.34,-61741.62,17653.158,5569.499,-13382.04,-33044.72,-15322.876,10402.71
802444.2165893811,-77792.4,-61748.332,17659.791,5568.6035,-13381.267,-33042.684,-15322.551,10399.089
802444.2205893765,-77789.35,-61753.867,17663.982,5571.045,-13381.958,-33037.395,-15323.568,10396.688
802444.2245893718,-77787.03,-61751.26,17660.238,5570.4756,-13380.331,-33038.332,-15324.87,10395.671
802444.2285893672,-77785.52,-61747.805,17651.002,5569.5396,-13383.261,-33043.133,-15326.416,10396.647
802444.2325893625,-77790.61,-61749.434,17645.793,5566.7725,-13381.796,-33046.227,-15326.904,10396.566
802444.236589358,-77793.945,-61752.85,17652.873,5566.854,-13383.261,-33047.812,-15329.956,10390.544
802444.2405893533,-77795.984,-61757.285,17659.506,5570.1094,-13383.423,-33045.94,-15334.717,10382.08
802444.2445893487,-77797.33,-61758.996,17657.105,5568.0747,-13386.394,-33046.062,-15334.433,10383.586
802444.248589344,-77795.66,-61752.973,17650.39,5565.023,-13379.802,-33047.566,-15332.602,10381.104
802444.2525893394,-77795.695,-61748.332,17646.037,5564.6973,-13375.732,-33046.1,-15330.648,10380.859
802444.2565893347,-77795.945,-61747.56,17652.547,5566.5283,-13368.286,-33042.4,-15330.526,10377.89
802444.2605893301,-77796.67,-61750.816,17658.732,5569.214,-13366.984,-33040.895,-15330.526,10376.831
802444.2645893254,-77800.13,-61753.418,17654.135,5567.546,-13372.355,-33044.07,-15331.055,10376.547
802444.2685893208,-77804.52,-61753.297,17652.1,5567.1387,-13372.396,-33043.785,-15325.195,10378.174
802444.2725893161,-77802.82,-61753.38,17649.09,5566.6504,-13378.012,-33044.883,-15323.324,10382.08
802444.2765893114,-77800.336,-61756.51,17647.705,5565.9995,-13373.657,-33044.84,-15322.592,10383.749
802444.2805893068,-77804.0,-61755.94,17649.334,5567.9526,-13362.509,-33042.277,-15324.382,10378.134
802444.2845893021,-77810.23,-61759.074,17644.816,5567.0576,-13369.589,-33042.727,-15328.044,10365.072
802444.2885892976,-77817.14,-61761.965,17640.463,5565.1855,-13380.412,-33043.906,-15327.922,10362.915
802444.2925892929,-77813.68,-61759.32,17639.404,5563.7617,-13377.238,-33045.29,-15329.265,10361.938
802444.2965892883,-77810.23,-61760.906,17639.08,5565.593,-13373.129,-33043.824,-15325.766,10363.811
802444.3005892836,-77810.02,-61762.617,17648.396,5570.638,-13370.6875,-33040.04,-15328.329,10355.469
802444.304589279,-77811.77,-61758.996,17650.39,5571.2485,-13358.847,-33040.73,-15331.706,10355.469
802444.3085892743,-77813.56,-61757.49,17645.223,5568.197,-13368.815,-33044.273,-15333.293,10356.12
802444.3125892697,-77816.53,-61759.2,17644.002,5564.8604,-13373.739,-33047.977,-15333.456,10355.917
802444.316589265,-77818.28,-61763.67,17651.408,5566.325,-13369.345,-33045.613,-15331.787,10356.689
802444.3205892604,-77819.664,-61768.434,17656.209,5571.452,-13367.514,-33042.4,-15331.015,10351.156
802444.3245892557,-77819.87,-61769.695,17652.71,5573.242,-13368.612,-33040.73,-15328.125,10354.004
802444.3285892511,-77818.24,-61767.17,17646.322,5569.702,-13371.786,-33043.54,-15328.939,10352.702
802444.3325892464,-77814.375,-61763.266,17644.084,5567.505,-13374.797,-33046.47,-15327.148,10353.3125
802444.3365892419,-77812.38,-61760.824,17650.799,5567.9526,-13369.385,-33044.883,-15320.231,10363.119
802444.3405892372,-77813.84,-61766.887,17658.855,5570.638,-13366.903,-33039.188,-15314.209,10366.13
802444.3445892326,-77818.69,-61771.406,17653.443,5570.028,-13373.535,-33038.25,-15312.256,10370.932
802444.3485892279,-77822.92,-61770.793,17645.508,5567.1387,-13374.431,-33040.73,-15309.611,10379.599
802444.3525892232,-77822.76,-61769.656,17650.799,5566.4062,-13368.205,-33041.87,-15308.146,10378.825
802444.3565892186,-77821.29,-61769.74,17648.072,5566.9355,-13362.061,-33037.477,-15306.479,10374.675
802444.3605892139,-77823.85,-61775.676,17654.256,5566.732,-13362.712,-33033.164,-15309.774,10369.06
802444.3645892093,-77826.91,-61779.664,17650.717,5565.552,-13367.27,-33033.977,-15309.53,10369.101
802444.3685892046,-77823.24,-61769.29,17645.346,5565.715,-13364.909,-33034.344,-15305.42,10366.618
802444.3725892,-77824.38,-61762.86,17639.812,5565.145,-13364.096,-33034.793,-15301.758,10366.699
802444.3765891953,-77825.28,-61760.95,17640.992,5565.4297,-13353.516,-33032.918,-15300.049,10362.875
802444.3805891908,-77825.766,-61766.44,17647.258,5565.267,-13357.992,-33030.152,-15300.375,10357.504
802444.384589186,-77832.69,-61773.074,17650.432,5566.3657,-13360.962,-33029.867,-15303.264,10344.809
802444.3885891815,-77829.02,-61769.25,17640.3,5565.674,-13361.45,-33032.594,-15305.542,10341.513
802444.3925891768,-77824.95,-61766.195,17641.277,5565.145,-13366.089,-33035.727,-15305.868,10347.982
802444.3965891722,-77821.414,-61762.86,17644.49,5566.1216,-13358.969,-33033.33,-15303.752,10353.882
802444.4005891675,-77824.75,-61765.832,17647.137,5567.3423,-13360.189,-33030.273,-15300.781,10353.149
802444.4045891629,-77827.195,-61767.742,17643.31,5567.871,-13370.077,-33031.535,-15300.741,10353.435
802444.4085891582,-77829.76,-61765.586,17638.55,5564.128,-13371.013,-33034.953,-15300.619,10354.248
802444.4125891536,-77828.984,-61762.777,17635.986,5562.0527,-13365.234,-33034.71,-15298.015,10357.382
802444.4165891489,-77827.805,-61761.598,17644.695,5565.4707,-13358.603,-33031.902,-15298.34,10354.167
802444.4205891443,-77824.586,-61766.766,17652.629,5567.302,-13356.527,-33029.83,-15299.316,10351.4
802444.4245891396,-77822.76,-61770.1,17646.484,5566.6914,-13364.624,-33029.42,-15301.066,10353.638
802444.428589135,-77824.266,-61767.66,17642.986,5564.6973,-13360.596,-33032.023,-15298.625,10353.557
802444.4325891304,-77827.35,-61767.703,17642.945,5561.971,-13365.112,-33035.727,-15301.066,10345.053
802444.4365891257,-77829.71,-61770.59,17641.643,5560.791,-13365.601,-33034.75,-15298.096,10349.976
802444.4405891211,-77829.8,-61771.934,17645.834,5564.006,-13356.283,-33028.523,-15292.929,10353.638
802444.4445891164,-77830.77,-61774.133,17646.037,5564.4126,-13355.266,-33025.066,-15287.191,10358.032
802444.4485891118,-77833.375,-61775.84,17642.945,5562.175,-13356.894,-33028.89,-15288.249,10346.802
802444.4525891071,-77834.64,-61774.336,17637.615,5561.7676,-13343.588,-33030.03,-15290.771,10344.32
802444.4565891025,-77834.92,-61774.863,17640.707,5563.1104,-13336.914,-33029.094,-15292.196,10341.635
802444.4605890978,-77839.03,-61781.293,17648.682,5565.145,-13344.32,-33029.297,-15292.318,10335.531
802444.4645890932,-77840.54,-61782.594,17647.746,5565.4297,-13356.608,-33032.27,-15294.76,10332.397
802444.4685890885,-77840.74,-61786.38,17637.777,5562.744,-13364.95,-33037.355,-15295.288,10330.7705
802444.472589084,-77840.336,-61781.375,17635.457,5563.5986,-13357.138,-33037.8,-15292.114,10336.06
802444.4765890792,-77841.11,-61777.47,17639.324,5564.9824,-13350.261,-33036.215,-15285.971,10342.245
802444.4805890747,-77837.08,-61778.16,17651.896,5567.9526,-13345.703,-33030.887,-15285.4,10334.514
802444.48458907,-77840.945,-61782.92,17642.416,5566.04,-13355.266,-33031.375,-15288.493,10330.16
802444.4885890654,-77844.89,-61784.59,17630.209,5563.2734,-13355.347,-33034.14,-15292.033,10330.526
802444.4925890607,-77847.945,-61785.605,17626.873,5559.0415,-13353.842,-33036.133,-15291.22,10328.125
802444.496589056,-77844.56,-61787.598,17635.01,5560.913,-13354.208,-33033.285,-15288.737,10330.526
802444.5005890514,-77846.93,-61789.715,17644.613,5567.2607,-13346.68,-33028.445,-15287.639,10330.282
802444.5045890467,-77842.37,-61790.855,17644.166,5568.7666,-13344.768,-33029.543,-15288.574,10328.695
802444.5085890421,-77835.125,-61786.297,17638.062,5566.162,-13342.978,-33032.188,-15284.262,10332.805
802444.5125890374,-77829.63,-61778.77,17634.236,5565.3076,-13348.145,-33031.58,-15278.891,10334.717
802444.5165890328,-77827.03,-61777.996,17638.672,5567.383,-13350.668,-33030.152,-15278.442,10330.7705
802444.5205890281,-77831.51,-61783.53,17645.834,5569.58,-13353.557,-33027.426,-15283.8955,10327.067
802444.5245890236,-77834.31,-61785.77,17642.863,5569.702,-13358.358,-33028.934,-15288.168,10326.05
802444.5285890189,-77833.13,-61782.188,17637.654,5570.516,-13359.741,-33031.25,-15287.72,10332.968
802444.5325890143,-77827.64,-61774.133,17635.05,5570.964,-13353.638,-33032.188,-15285.889,10345.175
802444.5365890096,-77826.87,-61773.97,17644.41,5570.638,-13350.749,-33032.31,-15288.086,10333.618
802444.540589005,-77823.57,-61776.33,17653.361,5574.9106,-13348.43,-33028.035,-15286.581,10322.917
802444.5445890003,-77819.26,-61774.945,17656.941,5575.6025,-13356.649,-33027.914,-15282.227,10328.491
802444.5485889957,-77818.81,-61775.434,17651.49,5574.3003,-13361.857,-33030.438,-15279.623,10331.462
802444.552588991,-77818.69,-61774.7,17646.893,5572.8354,-13362.875,-33033.652,-15275.146,10336.264
802444.5565889864,-77818.08,-61774.17,17648.357,5575.1143,-13353.638,-33030.965,-15267.782,10342.448
802444.5605889817,-77821.9,-61777.67,17651.367,5577.3115,-13343.75,-33028.727,-15266.398,10334.799
802444.5645889771,-77822.555,-61782.92,17653.117,5577.352,-13347.128,-33029.137,-15268.393,10332.072
802444.5685889724,-77821.86,-61777.062,17640.178,5574.585,-13349.406,-33031.74,-15269.938,10328.207
802444.5725889677,-77818.65,-61771.203,17641.236,5572.103,-13344.482,-33031.13,-15267.172,10333.415
802444.5765889632,-77814.29,-61771.69,17647.625,5572.103,-13342.57,-33027.914,-15265.503,10330.241
802444.5805889585,-77820.6,-61776.29,17654.785,5573.8525,-13347.656,-33026.734,-15270.915,10316.284
802444.5845889539,-77819.13,-61778.402,17652.467,5574.26,-13352.214,-33028.035,-15273.356,10312.419
802444.5885889492,-77815.59,-61776.777,17641.887,5573.3237,-13354.289,-33030.234,-15273.275,10313.3545
802444.5925889446,-77817.586,-61775.35,17647.055,5572.3877,-13355.876,-33031.58,-15272.299,10318.563
802444.5965889399,-77817.836,-61774.133,17647.137,5574.0967,-13346.3545,-33027.223,-15270.305,10320.761
802444.6005889353,-77814.086,-61778.566,17654.46,5579.183,-13346.721,-33026.855,-15275.229,10312.744
802444.6045889306,-77812.18,-61775.8,17656.82,5584.188,-13350.586,-33029.38,-15277.426,10308.554
802444.608588926,-77811.89,-61775.39,17652.303,5581.95,-13357.992,-33033.406,-15283.651,10301.84
802444.6125889213,-77815.836,-61775.758,17644.246,5579.3457,-13351.645,-33036.62,-15290.69,10300.456
802444.6165889167,-77811.77,-61777.793,17649.334,5580.404,-13354.33,-33037.355,-15291.952,10298.706
802444.620588912,-77809.0,-61778.605,17661.377,5583.415,-13349.609,-33036.05,-15294.963,10291.504
802444.6245889075,-77810.875,-61778.73,17658.041,5583.415,-13346.721,-33036.05,-15291.83,10293.417
802444.6285889028,-77810.1,-61773.36,17644.451,5581.014,-13350.627,-33040.285,-15286.784,10300.009
802444.6325888982,-77812.75,-61773.926,17647.014,5580.3633,-13348.308,-33042.81,-15282.959,10301.677
802444.6365888935,-77817.67,-61772.79,17651.205,5579.875,-13345.907,-33037.438,-15277.019,10307.536
802444.6405888889,-77822.06,-61778.2,17657.797,5579.753,-13345.947,-33032.797,-15273.071,10305.298
802444.6445888842,-77823.9,-61780.152,17651.531,5578.3286,-13344.523,-33033.203,-15271.444,10303.183
802444.6485888795,-77821.62,-61778.484,17641.643,5575.3174,-13347.087,-33032.797,-15264.73,10305.014
802444.6525888749,-77822.63,-61777.996,17641.154,5573.6494,-13341.919,-33032.066,-15261.271,10301.025
802444.6565888702,-77824.47,-61777.184,17645.549,5573.0796,-13346.11,-33029.137,-15256.633,10306.112
802444.6605888656,-77823.9,-61777.426,17644.002,5576.823,-13342.448,-33025.96,-15253.581,10309.489
802444.6645888609,-77823.695,-61779.137,17652.264,5581.909,-13341.879,-33029.055,-15258.179,10294.312
802444.6685888564,-77822.47,-61778.16,17647.42,5579.183,-13342.937,-33032.594,-15257.528,10298.015
802444.6725888517,-77814.375,-61768.027,17643.758,5576.457,-13340.332,-33035.727,-15260.336,10290.283
802444.6765888471,-77812.38,-61765.992,17649.21,5578.8574,-13332.927,-33033.164,-15259.5625,10283.732
802444.6805888424,-77814.58,-61767.99,17650.879,5581.299,-13329.346,-33031.58,-15263.672,10283.651
802444.6845888378,-77817.14,-61769.98,17652.832,5581.2583,-13332.927,-33032.27,-15266.968,10280.192
802444.6885888331,-77815.266,-61765.137,17641.602,5579.1426,-13339.315,-33035.156,-15266.398,10285.238
802444.6925888285,-77813.48,-61767.133,17645.834,5576.823,-13343.384,-33037.395,-15272.177,10284.343
802444.6965888238,-77806.44,-61761.72,17655.03,5580.9326,-13330.526,-33037.07,-15274.74,10284.18
802444.7005888192,-77804.734,-61765.42,17660.076,5583.252,-13325.277,-33033.12,-15273.845,10280.3955
802444.7045888145,-77809.125,-61774.824,17662.924,5579.997,-13338.501,-33030.64,-15273.112,10286.011
802444.7085888099,-77807.945,-61771.406,17662.191,5579.956,-13340.251,-33032.35,-15276.53,10276.083
802444.7125888052,-77808.72,-61769.29,17648.64,5577.6777,-13341.879,-33033.69,-15274.984,10276.205
802444.7165888007,-77816.41,-61775.758,17645.752,5577.108,-13340.007,-33032.633,-15275.229,10278.198
802444.720588796,-77816.41,-61779.582,17656.291,5582.723,-13334.799,-33028.89,-15275.1875,10276.408
802444.7245887913,-77811.69,-61777.426,17657.146,5585.897,-13338.664,-33028.934,-15275.229,10276.367
802444.7285887867,-77809.66,-61776.207,17658.65,5584.3506,-13344.523,-33032.39,-15270.59,10280.722
802444.732588782,-77812.336,-61771.812,17649.902,5582.845,-13337.484,-33035.562,-15266.073,10281.047
802444.7365887774,-77813.4,-61770.47,17660.156,5585.205,-13328.085,-33033.773,-15264.648,10282.349
802444.7405887727,-77817.875,-61785.81,17663.006,5585.124,-13326.335,-33027.67,-15261.597,10276.571
802444.7445887681,-77811.24,-61785.93,17666.586,5585.7344,-13338.583,-33026.004,-15261.76,10270.915
802444.7485887634,-77811.0,-61776.004,17673.951,5584.3506,-13345.825,-33028.65,-15263.266,10262.289
802444.7525887588,-77822.15,-61774.945,17632.812,5574.6665,-13338.42,-33024.496,-15252.523,10274.008
802444.7565887541,-77823.0,-61780.844,17645.834,5574.341,-13335.449,-33023.355,-15253.5,10263.428
802444.7605887495,-77819.336,-61780.355,17656.414,5577.922,-13344.89,-33021.363,-15251.913,10257.69
802444.7645887448,-77820.4,-61780.07,17652.791,5578.288,-13344.198,-33024.414,-15255.819,10250.082
802444.7685887403,-77820.36,-61779.258,17652.71,5577.108,-13342.041,-33029.83,-15263.998,10245.239
802444.7725887356,-77823.695,-61773.926,17637.533,5573.69,-13343.14,-33033.816,-15269.084,10239.624
802444.776588731,-77821.21,-61774.375,17640.545,5573.8525,-13337.28,-33030.477,-15267.172,10244.507
802444.7805887263,-77813.195,-61773.562,17652.1,5579.753,-13337.769,-33028.2,-15270.793,10239.624
802444.7845887217,-77814.91,-61774.336,17647.95,5580.9736,-13338.501,-33031.13,-15276.408,10233.847
802444.788588717,-77811.04,-61772.746,17645.63,5580.404,-13340.942,-33035.156,-15282.064,10231.812
802444.7925887124,-77814.375,-61772.34,17638.998,5577.0264,-13343.303,-33037.19,-15284.872,10237.102
802444.7965887077,-77811.16,-61770.02,17650.676,5578.247,-13337.565,-33037.844,-15287.313,10227.661
802444.800588703,-77810.02,-61770.754,17669.11,5582.7637,-13332.316,-33035.36,-15288.737,10225.261
802444.8045886984,-77812.38,-61770.59,17657.512,5584.2695,-13333.7,-33035.973,-15288.493,10230.225
802444.8085886937,-77815.35,-61775.066,17655.64,5581.421,-13337.891,-33038.37,-15290.283,10228.76
802444.8125886892,-77813.805,-61773.234,17638.062,5576.091,-13339.804,-33034.793,-15280.925,10241.455
802444.8165886845,-77808.48,-61767.215,17652.223,5580.77,-13329.428,-33033.855,-15277.1,10246.623
802444.8205886799,-77812.91,-61769.25,17653.28,5580.892,-13323.08,-33028.402,-15270.427,10247.681
802444.8245886752,-77810.55,-61774.945,17655.762,5578.7764,-13335.124,-33026.082,-15267.05,10243.856
802444.8285886706,-77811.61,-61773.316,17650.879,5577.1895,-13337.606,-33029.46,-15264.812,10249.594
802444.8325886659,-77810.71,-61768.92,17649.496,5579.061,-13337.158,-33027.63,-15255.534,10256.918
802444.8365886613,-77811.12,-61770.508,17656.982,5579.59,-13331.462,-33023.438,-15248.332,10251.831
802444.8405886566,-77812.7,-61774.375,17662.518,5582.113,-13332.113,-33019.168,-15244.385,10250.122
802444.844588652,-77815.23,-61776.53,17650.27,5580.8105,-13327.515,-33020.184,-15243.124,10245.932
802444.8485886473,-77818.89,-61772.22,17638.795,5578.044,-13327.2705,-33021.484,-15244.629,10237.793
802444.8525886427,-77820.92,-61774.008,17637.29,5573.6494,-13332.235,-33021.89,-15243.774,10239.909
802444.856588638,-77816.66,-61773.316,17647.014,5571.6553,-13337.484,-33021.242,-15245.199,10239.828
802444.8605886335,-77815.266,-61773.234,17663.209,5575.9688,-13324.87,-33022.055,-15254.761,10227.295
802444.8645886288,-77818.52,-61778.242,17665.568,5579.3457,-13318.319,-33025.676,-15264.242,10211.508
802444.8685886242,-77824.34,-61776.613,17655.355,5577.922,-13330.7295,-33029.34,-15267.538,10205.688
802444.8725886195,-77827.72,-61766.97,17641.928,5575.6025,-13326.213,-33031.78,-15266.968,10207.357
802444.8765886148,-77822.06,-61768.027,17644.166,5575.8057,-13326.579,-33030.234,-15264.404,10217.123
802444.8805886102,-77812.5,-61764.61,17652.67,5579.1426,-13319.54,-33029.137,-15267.782,10202.719
802444.8845886055,-77822.43,-61773.97,17652.344,5577.6367,-13327.597,-33028.32,-15268.515,10198.608
802444.8885886009,-77813.6,-61770.184,17653.729,5578.369,-13332.275,-33029.5,-15269.043,10212.036
802444.8925885962,-77813.84,-61772.992,17649.658,5573.4863,-13334.473,-33030.4,-15272.543,10205.444
802444.8965885916,-77813.07,-61767.05,17649.861,5575.9277,-13325.48,-33029.137,-15264.7705,10215.82
802444.9005885869,-77811.61,-61768.273,17665.121,5580.3223,-13319.011,-33028.402,-15265.788,10207.968
802444.9045885823,-77813.56,-61771.934,17663.941,5577.9624,-13325.155,-33026.45,-15265.788,10200.521
802444.9085885776,-77817.51,-61779.91,17661.865,5575.643,-13331.381,-33024.945,-15258.83,10205.811
802444.9125885731,-77829.39,-61783.938,17666.83,5570.638,-13333.049,-33029.01,-15264.242,10200.806
802444.9165885684,-77832.4,-61783.613,17650.025,5569.5396,-13331.747,-33026.207,-15254.477,10205.852
802444.9205885638,-77827.805,-61782.594,17655.6,5575.521,-13325.114,-33022.137,-15244.792,10213.176
802444.9245885591,-77839.07,-61794.516,17655.355,5573.3643,-13324.301,-33019.98,-15242.798,10210.287
802444.9285885545,-77851.484,-61800.418,17648.885,5566.854,-13329.672,-33021.73,-15248.088,10206.137
802444.9325885498,-77844.61,-61784.426,17637.898,5566.3657,-13330.038,-33023.195,-15248.535,10208.252
802444.9365885452,-77838.14,-61787.76,17647.42,5568.563,-13325.766,-33019.777,-15241.659,10208.944
802444.9405885405,-77844.32,-61805.87,17653.076,5568.4004,-13333.74,-33015.586,-15243.205,10192.912
802444.9445885358,-77853.15,-61808.188,17647.258,5569.4175,-13342.651,-33019.492,-15250.204,10190.186
802444.9485885312,-77860.27,-61808.23,17640.748,5564.6973,-13349.691,-33023.6,-15250.407,10200.114
802444.9525885265,-77863.89,-61806.64,17618.652,5559.6113,-13347.25,-33023.64,-15245.728,10205.444
802444.956588522,-77855.266,-61804.566,17636.557,5563.7207,-13335.124,-33024.457,-15243.896,10205.363
802444.9605885172,-77859.336,-61814.25,17651.49,5564.8193,-13326.782,-33020.348,-15243.49,10208.415
802444.9645885127,-77858.766,-61815.88,17660.686,5566.854,-13331.747,-33019.938,-15243.693,10213.745
802444.968588508,-77860.92,-61811.16,17628.541,5563.436,-13327.393,-33019.004,-15241.13,10208.171
802444.9725885034,-77863.57,-61810.02,17634.93,5560.3438,-13336.63,-33019.98,-15244.67,10209.147
802444.9765884987,-77863.445,-61815.066,17645.996,5561.483,-13334.025,-33016.727,-15239.828,10216.472
802444.9805884941,-77874.11,-61817.508,17639.73,5562.5,-13324.463,-33013.348,-15240.031,10214.111
802444.9845884894,-77877.28,-61816.69,17630.291,5562.0117,-13323.935,-33011.68,-15239.462,10213.623
802444.9885884848,-77865.195,-61812.176,17639.934,5562.175,-13340.251,-33014.203,-15234.213,10217.651
802444.9925884801,-77871.14,-61813.195,17633.912,5557.9023,-13342.937,-33014.363,-15227.824,10230.144
802444.9965884755,-77870.81,-61812.582,17640.87,5560.425,-13331.869,-33013.957,-15232.016,10226.5625
802445.0005884708,-77874.19,-61816.246,17649.617,5563.5986,-13325.033,-33010.99,-15228.231,10228.679
802445.0045884663,-77868.94,-61814.535,17649.373,5567.627,-13327.393,-33011.11,-15229.655,10223.471
802445.0085884616,-77867.88,-61812.83,17637.045,5563.9243,-13322.836,-33013.184,-15234.131,10216.879
802445.012588457,-77869.305,-61811.445,17638.307,5560.832,-13327.067,-33012.98,-15228.923,10225.708
802445.0165884523,-77871.664,-61815.15,17642.742,5562.866,-13323.73,-33010.336,-15230.0625,10225.952
802445.0205884476,-77878.26,-61819.336,17644.816,5565.3076,-13319.58,-33007.527,-15227.539,10222.331
802445.024588443,-77875.37,-61815.676,17648.072,5567.1387,-13326.376,-33007.45,-15231.771,10217.489
802445.0285884383,-77874.63,-61819.867,17641.766,5560.954,-13331.259,-33010.094,-15234.497,10212.973
802445.0325884337,-77869.14,-61812.46,17637.94,5559.448,-13327.353,-33013.145,-15232.463,10221.3545
802445.036588429,-77862.63,-61806.438,17648.805,5562.907,-13328.695,-33015.3,-15234.863,10221.599
802445.0405884244,-77867.48,-61813.64,17654.582,5566.162,-13324.626,-33014.812,-15238.403,10211.142
802445.0445884197,-77867.92,-61815.84,17658.326,5569.0513,-13321.249,-33017.17,-15241.496,10211.548
802445.0485884151,-77869.305,-61812.785,17646.281,5566.203,-13315.1455,-33020.305,-15244.182,10209.188
802445.0525884104,-77868.25,-61814.047,17642.375,5565.3486,-13319.458,-33023.48,-15245.199,10206.462
802445.0565884059,-77863.2,-61804.08,17651.693,5570.3125,-13313.762,-33023.48,-15247.559,10205.607
802445.0605884012,-77865.03,-61804.65,17658.406,5571.8184,-13308.96,-33020.305,-15246.664,10210.897
802445.0645883966,-77864.305,-61805.383,17657.105,5571.289,-13305.298,-33018.883,-15244.792,10213.217
802445.0685883919,-77870.28,-61811.523,17647.95,5566.325,-13305.949,-33020.957,-15246.42,10206.828
802445.0725883873,-77873.984,-61812.707,17642.375,5562.256,-13318.604,-33019.613,-15241.211,10214.682
802445.0765883826,-77877.89,-61814.047,17646.12,5562.175,-13323.8125,-33018.758,-15235.515,10216.797
802445.080588378,-77877.24,-61816.855,17663.371,5568.115,-13307.414,-33017.336,-15234.335,10210.409
802445.0845883733,-77873.62,-61822.062,17655.885,5566.6504,-13320.395,-33016.4,-15231.812,10207.683
802445.0885883687,-77875.125,-61818.08,17645.508,5564.494,-13325.033,-33020.957,-15230.673,10213.135
802445.092588364,-77875.2,-61816.043,17642.254,5561.3203,-13317.79,-33022.83,-15228.923,10212.158
802445.0965883593,-77877.41,-61821.777,17650.229,5561.8086,-13311.442,-33020.508,-15228.516,10206.421
802445.1005883547,-77887.66,-61831.707,17642.578,5562.785,-13310.873,-33015.707,-15226.196,10205.933
802445.10458835,-77889.65,-61834.758,17631.227,5560.9946,-13326.294,-33016.848,-15227.539,10197.998
802445.1085883455,-77888.72,-61825.523,17630.25,5562.175,-13324.341,-33021.12,-15231.649,10186.89
802445.1125883408,-77889.445,-61827.637,17629.15,5558.716,-13322.673,-33020.1,-15227.824,10194.54
802445.1165883362,-77890.914,-61830.242,17641.113,5560.8726,-13319.092,-33019.656,-15224.487,10201.945
802445.1205883315,-77899.46,-61838.91,17646.607,5563.2734,-13311.32,-33014.65,-15225.302,10200.114
802445.1245883269,-77890.71,-61831.098,17654.867,5566.4473,-13316.813,-33017.945,-15228.964,10202.189
802445.1285883222,-77889.445,-61831.42,17635.986,5562.7036,-13321.493,-33019.246,-15230.591,10193.075
802445.1325883176,-77897.22,-61833.496,17626.059,5557.7803,-13319.133,-33017.78,-15226.074,10206.096
802445.1365883129,-77892.5,-61829.1,17633.504,5559.123,-13309.367,-33017.863,-15227.377,10198.08
802445.1405883083,-77890.22,-61827.434,17651.49,5563.3955,-13304.606,-33017.05,-15227.011,10192.912
802445.1445883036,-77897.09,-61836.793,17645.672,5563.192,-13313.843,-33017.945,-15231.079,10189.575
802445.148588299,-77894.49,-61831.79,17639.283,5562.175,-13313.314,-33020.348,-15228.964,10200.766
802445.1525882944,-77901.49,-61839.562,17632.162,5555.949,-13322.226,-33021.28,-15229.858,10204.59
802445.1565882898,-77894.82,-61834.637,17643.148,5560.3438,-13311.728,-33024.78,-15235.2705,10191.772
802445.1605882851,-77889.445,-61835.816,17659.262,5567.4644,-13301.962,-33020.914,-15233.236,10182.658
802445.1645882805,-77890.42,-61839.562,17644.37,5566.6504,-13301.107,-33018.35,-15228.557,10186.361
802445.1685882758,-77900.39,-61842.652,17634.4,5558.879,-13310.1,-33016.848,-15220.337,10195.272
802445.1725882711,-77899.01,-61841.188,17630.25,5556.0713,-13312.053,-33013.875,-15211.223,10210.49
802445.1765882665,-77891.65,-61836.062,17642.13,5557.0884,-13306.396,-33014.49,-15214.682,10199.016
802445.1805882618,-77894.734,-61837.85,17654.379,5559.9365,-13297.607,-33011.19,-15209.025,10206.787
802445.1845882572,-77897.016,-61836.633,17642.334,5562.4595,-13289.389,-33012.332,-15208.415,10204.102
802445.1885882525,-77894.734,-61835.492,17634.725,5560.669,-13305.502,-33015.26,-15209.188,10201.213
802445.1925882479,-77896.89,-61840.254,17637.695,5559.204,-13304.403,-33016.195,-15205.2,10203.166
802445.1965882432,-77900.07,-61838.664,17641.48,5557.048,-13298.096,-33015.18,-15205.852,10193.319
802445.2005882387,-77898.195,-61831.953,17641.398,5563.07,-13289.999,-33013.184,-15208.984,10191.203
802445.204588234,-77889.9,-61833.742,17645.305,5565.3076,-13288.086,-33013.023,-15211.467,10191.04
802445.2085882294,-77894.66,-61837.812,17627.4,5561.076,-13284.75,-33015.3,-15211.792,10183.635
802445.2125882247,-77893.6,-61836.02,17625.977,5561.5645,-13287.558,-33016.93,-15212.606,10185.507
802445.2165882201,-77891.73,-61836.184,17635.174,5560.8726,-13295.492,-33015.625,-15208.09,10198.894
802445.2205882154,-77888.1,-61831.137,17643.352,5563.8022,-13284.506,-33015.098,-15211.142,10190.552
802445.2245882108,-77886.195,-61829.31,17643.19,5565.1855,-13290.243,-33016.03,-15213.583,10195.109
802445.2285882061,-77885.22,-61829.43,17639.771,5565.1045,-13292.725,-33018.066,-15213.542,10195.395
802445.2325882015,-77896.164,-61838.055,17632.365,5561.1167,-13297.567,-33016.4,-15209.392,10201.701
802445.2365881968,-77897.26,-61834.637,17635.701,5562.5,-13290.324,-33017.336,-15214.6,10185.1
802445.2405881922,-77888.02,-61831.625,17644.979,5566.081,-13290.894,-33015.383,-15210.287,10191.203
802445.2445881875,-77886.84,-61834.11,17648.031,5568.685,-13289.795,-33017.78,-15208.415,10202.067
802445.2485881828,-77895.76,-61839.113,17633.18,5564.128,-13293.051,-33019.574,-15210.327,10191.8545
802445.2525881783,-77888.96,-61827.76,17637.29,5565.267,-13288.737,-33020.387,-15205.974,10196.371
802445.2565881736,-77884.81,-61826.66,17647.258,5565.9995,-13283.041,-33016.316,-15201.172,10202.067
802445.260588169,-77877.28,-61818.93,17659.506,5573.039,-13274.74,-33016.195,-15206.259,10193.034
802445.2645881643,-77890.71,-61830.69,17648.396,5569.9873,-13275.513,-33017.66,-15207.642,10199.057
802445.2685881597,-77897.95,-61832.44,17631.918,5566.5283,-13276.327,-33020.223,-15206.706,10198.69
802445.272588155,-77900.555,-61835.777,17623.17,5562.0527,-13273.356,-33021.527,-15210.043,10190.593
802445.2765881504,-77885.7,-61827.965,17643.352,5566.2437,-13287.069,-33018.395,-15200.399,10201.986
802445.2805881457,-77889.125,-61832.52,17645.793,5569.214,-13278.158,-33016.727,-15197.592,10211.996
802445.2845881411,-77894.21,-61838.664,17646.525,5569.255,-13279.338,-33018.15,-15202.067,10199.829
802445.2885881364,-77897.09,-61840.293,17638.713,5566.6504,-13280.925,-33020.71,-15200.969,10200.847
802445.2925881319,-77903.32,-61839.562,17632.283,5562.3374,-13279.582,-33022.95,-15201.335,10205.322
802445.2965881272,-77904.3,-61834.516,17639.283,5563.965,-13263.428,-33023.48,-15204.428,10198.568
802445.3005881226,-77906.7,-61848.51,17650.676,5565.3076,-13276.327,-33017.05,-15203.207,10195.435
802445.3045881179,-77911.22,-61849.816,17648.723,5565.389,-13280.192,-33019.816,-15204.916,10200.358
802445.3085881133,-77911.87,-61844.32,17626.994,5565.389,-13270.549,-33022.586,-15206.055,10202.148
802445.3125881086,-77907.35,-61847.902,17620.688,5559.326,-13280.111,-33022.625,-15206.665,10204.265
802445.316588104,-77914.8,-61854.617,17627.076,5559.896,-13281.332,-33021.324,-15204.631,10197.876
802445.3205880993,-77916.625,-61853.19,17633.586,5562.9883,-13268.799,-33018.027,-15203.369,10193.197
802445.3245880946,-77912.07,-61852.336,17640.91,5565.959,-13271.037,-33017.133,-15206.828,10181.804
802445.32858809,-77915.37,-61851.645,17625.488,5562.4595,-13266.724,-33019.37,-15205.282,10179.606
802445.3325880853,-77919.31,-61854.25,17622.926,5559.8145,-13276.327,-33020.55,-15201.538,10187.419
802445.3365880807,-77924.93,-61855.836,17628.256,5559.5703,-13265.178,-33021.688,-15208.903,10176.555
802445.340588076,-77915.61,-61851.77,17636.027,5561.849,-13273.031,-33014.69,-15202.108,10186.931
802445.3445880715,-77925.62,-61867.598,17625.855,5561.239,-13281.657,-33016.36,-15208.171,10170.858
802445.3485880668,-77930.055,-61873.535,17621.705,5558.716,-13288.493,-33019.45,-15207.438,10181.071
802445.3525880622,-77933.72,-61871.42,17617.066,5553.304,-13297.567,-33021.484,-15208.781,10176.514
802445.3565880575,-77929.65,-61863.16,17626.506,5557.373,-13278.524,-33021.04,-15203.857,10193.726
802445.3605880529,-77932.5,-61868.652,17630.168,5559.53,-13276.652,-33016.93,-15201.945,10181.641
802445.3645880482,-77937.46,-61873.66,17632.08,5560.0586,-13273.315,-33017.457,-15211.142,10154.419
802445.3685880436,-77934.086,-61871.83,17618.246,5555.949,-13281.169,-33018.27,-15209.311,10154.989
802445.3725880389,-77930.18,-61864.543,17619.549,5557.373,-13271.851,-33020.508,-15207.194,10164.022
802445.3765880343,-77926.68,-61861.33,17624.594,5559.8145,-13270.712,-33017.375,-15198.324,10181.112
802445.3805880296,-77930.055,-61866.21,17628.865,5563.558,-13267.741,-33014.285,-15204.0205,10172.323
802445.384588025,-77933.72,-61870.77,17622.803,5562.175,-13270.224,-33013.754,-15206.137,10164.877
802445.3885880203,-77941.24,-61876.996,17618.652,5559.53,-13277.141,-33017.78,-15204.834,10172.323
802445.3925880156,-77938.07,-61873.496,17615.805,5560.0586,-13275.1875,-33018.555,-15206.299,10171.957
802445.3965880111,-77934.45,-61869.957,17629.518,5561.5645,-13270.468,-33017.58,-15206.055,10164.022
802445.4005880064,-77935.06,-61868.777,17629.883,5563.6396,-13260.01,-33013.55,-15202.515,10166.748
802445.4045880018,-77938.52,-61872.805,17622.518,5559.53,-13260.376,-33010.945,-15199.992,10166.545
802445.4085879971,-77939.945,-61879.723,17615.398,5556.478,-13264.404,-33012.777,-15208.13,10156.006
802445.4125879925,-77934.0,-61869.1,17620.77,5559.448,-13270.956,-33014.0,-15203.288,10172.282
802445.4165879878,-77936.69,-61868.37,17623.738,5558.6753,-13260.336,-33015.016,-15204.428,10173.178
802445.4205879832,-77932.984,-61868.98,17630.168,5561.2793,-13260.254,-33012.168,-15207.602,10156.616
802445.4245879785,-77941.086,-61880.047,17625.57,5561.4424,-13263.225,-33010.254,-15208.374,10153.524
802445.4285879739,-77941.66,-61882.203,17614.502,5559.001,-13266.357,-33012.86,-15206.381,10161.906
802445.4325879692,-77942.99,-61878.297,17611.531,5557.2104,-13263.144,-33012.047,-15201.01,10168.62
802445.4365879647,-77939.414,-61872.97,17619.305,5560.5063,-13252.157,-33013.43,-15202.23,10163.127
802445.44058796,-77932.21,-61870.89,17635.54,5566.4473,-13242.676,-33011.07,-15197.836,10174.276
802445.4445879554,-77931.195,-61867.637,17632.977,5566.1216,-13250.8955,-33009.44,-15194.743,10174.235
802445.4485879507,-77932.87,-61862.55,17623.943,5564.006,-13248.373,-33011.56,-15192.627,10179.037
802445.4525879461,-77936.04,-61861.656,17619.832,5562.175,-13249.1455,-33011.355,-15191.813,10175.415
802445.4565879414,-77930.38,-61860.11,17628.988,5562.0117,-13252.686,-33008.3,-15184.489,10181.885
802445.4605879368,-77926.805,-61860.477,17633.016,5566.61,-13239.746,-33007.203,-15188.029,10178.955
802445.4645879321,-77929.32,-61866.418,17635.621,5568.9697,-13241.171,-33008.426,-15187.541,10172.038
802445.4685879274,-77933.92,-61867.676,17622.152,5565.7554,-13244.873,-33010.742,-15186.035,10175.497
802445.4725879228,-77929.94,-61860.19,17620.24,5566.5283,-13237.387,-33015.055,-15186.239,10179.281
802445.4765879181,-77929.12,-61857.79,17627.768,5566.976,-13233.969,-33013.797,-15185.913,10170.044
802445.4805879135,-77934.45,-61868.246,17631.389,5567.668,-13229.655,-33011.8,-15194.54,10158.447
802445.4845879088,-77928.96,-61861.613,17635.213,5570.4756,-13230.957,-33009.035,-15191.0,10158.407
802445.4885879043,-77929.24,-61859.703,17628.703,5568.197,-13237.631,-33011.355,-15187.988,10164.917
802445.4925878996,-77929.12,-61857.63,17626.262,5566.854,-13240.438,-33009.684,-15185.629,10168.661
802445.496587895,-77938.93,-61863.69,17623.17,5563.558,-13240.764,-33007.527,-15184.978,10164.022
802445.5005878903,-77935.43,-61858.523,17627.889,5568.3594,-13230.754,-33006.348,-15179.77,10177.45
802445.5045878857,-77932.25,-61856.977,17634.645,5571.4927,-13228.638,-33003.176,-15175.212,10183.31
802445.508587881,-77932.21,-61857.26,17625.773,5568.4004,-13232.3,-33002.688,-15172.974,10186.768
802445.5125878764,-77927.82,-61851.44,17625.447,5566.3657,-13235.556,-33005.047,-15172.648,10183.757
802445.5165878717,-77924.69,-61847.78,17635.865,5570.516,-13228.842,-33002.973,-15169.516,10181.723
802445.5205878671,-77926.805,-61853.598,17640.87,5573.283,-13230.835,-32998.94,-15166.586,10183.065
802445.5245878624,-77929.52,-61858.48,17638.875,5574.0967,-13240.194,-32998.332,-15169.027,10173.137
802445.5285878578,-77931.52,-61860.395,17628.703,5572.673,-13241.699,-33000.652,-15170.451,10172.445
802445.5325878531,-77931.6,-61859.215,17625.244,5571.2485,-13237.468,-33006.715,-15170.085,10168.417
802445.5365878486,-77930.055,-61860.07,17632.162,5574.056,-13241.903,-33004.11,-15162.517,10175.334
802445.5405878439,-77929.484,-61858.766,17640.34,5579.875,-13231.161,-33003.297,-15162.109,10176.962
802445.5445878392,-77925.78,-61857.953,17639.812,5581.299,-13232.178,-33003.906,-15164.836,10166.789
802445.5485878346,-77919.516,-61855.105,17625.041,5580.119,-13232.178,-33004.56,-15163.33,10165.243
802445.5525878299,-77918.055,-61858.562,17622.479,5579.4272,-13235.026,-33007.0,-15164.999,10162.15
802445.5565878253,-77917.04,-61857.832,17624.959,5580.8516,-13238.485,-33007.49,-15166.098,10158.569
802445.5605878206,-77911.38,-61854.453,17635.01,5585.0425,-13227.133,-33006.96,-15165.527,10158.163
802445.564587816,-77916.625,-61862.266,17638.875,5585.449,-13233.643,-33006.266,-15170.288,10148.234
802445.5685878113,-77916.51,-61862.59,17628.459,5582.1943,-13237.468,-33010.336,-15175.334,10142.741
802445.5725878067,-77918.78,-61861.41,17626.912,5579.305,-13239.136,-33012.168,-15177.734,10138.306
802445.576587802,-77917.93,-61857.14,17633.709,5581.299,-13234.375,-33011.598,-15177.165,10142.456
802445.5805877974,-77914.35,-61852.05,17640.422,5586.5073,-13226.5625,-33007.855,-15172.404,10142.944
802445.5845877927,-77906.17,-61849.043,17644.49,5589.885,-13231.161,-33007.082,-15166.708,10139.526
802445.5885877882,-77904.016,-61847.008,17641.357,5588.7046,-13231.771,-33010.742,-15165.568,10140.951
802445.5925877835,-77901.49,-61840.496,17636.8,5586.3447,-13236.003,-33013.67,-15163.859,10142.944
802445.5965877789,-77902.914,-61838.38,17638.184,5585.7344,-13222.738,-33011.312,-15161.174,10147.339
802445.6005877742,-77901.25,-61838.746,17643.963,5590.21,-13219.238,-33006.594,-15161.906,10144.572
802445.6045877696,-77905.44,-61843.426,17642.904,5591.1865,-13222.372,-33007.203,-15167.725,10135.336
802445.6085877649,-77904.09,-61844.605,17638.51,5588.623,-13228.557,-33012.168,-15171.957,10128.825
802445.6125877603,-77903.08,-61843.508,17631.756,5584.0254,-13228.231,-33015.098,-15170.695,10129.558
802445.6165877556,-77894.66,-61837.812,17635.457,5583.496,-13230.307,-33012.25,-15164.795,10138.794
802445.6205877509,-77893.6,-61839.926,17642.01,5586.711,-13231.364,-33010.5,-15165.039,10131.796
802445.6245877463,-77886.03,-61833.742,17650.717,5590.332,-13228.516,-33008.426,-15160.6045,10137.085
802445.6285877416,-77881.47,-61829.55,17640.057,5586.711,-13228.231,-33008.586,-15156.942,10139.934
802445.632587737,-77867.27,-61815.188,17641.113,5587.9316,-13225.952,-33010.38,-15153.687,10147.014
802445.6365877324,-77856.65,-61803.062,17650.514,5591.0645,-13216.838,-33008.586,-15149.577,10152.914
802445.6405877278,-77852.87,-61800.863,17659.262,5592.733,-13212.077,-33004.76,-15148.153,10146.078
802445.6445877231,-77843.67,-61795.777,17657.43,5593.913,-13210.327,-33004.19,-15149.577,10136.027
802445.6485877185,-77839.52,-61790.203,17654.053,5594.2793,-13215.373,-33006.754,-15150.717,10134.115
802445.6525877138,-77828.94,-61779.137,17644.002,5594.8486,-13213.379,-33010.703,-15156.291,10132.406
802445.6565877092,-77817.55,-61771.16,17651.326,5597.2495,-13211.548,-33011.92,-15158.569,10129.517
802445.6605877045,-77810.95,-61764.773,17659.424,5600.586,-13203.003,-33013.754,-15160.767,10126.303
802445.6645876999,-77801.11,-61752.484,17659.588,5603.4346,-13200.195,-33012.74,-15160.4,10125.0
802445.6685876952,-77797.0,-61746.258,17652.385,5601.156,-13201.864,-33014.04,-15161.459,10126.791
802445.6725876906,-77790.086,-61735.8,17652.791,5600.0166,-13203.573,-33015.79,-15163.33,10118.612
802445.676587686,-77780.03,-61723.797,17660.156,5603.719,-13197.632,-33015.504,-15160.971,10116.13
802445.6805876814,-77771.37,-61717.695,17668.742,5608.48,-13186.483,-33013.43,-15161.621,10117.514
802445.6845876767,-77770.43,-61711.71,17665.242,5609.009,-13189.087,-33014.527,-15163.127,10115.845
802445.6885876721,-77769.82,-61708.496,17661.377,5605.835,-13188.884,-33017.254,-15161.865,10121.745
802445.6925876674,-77764.695,-61699.504,17659.627,5608.846,-13182.78,-33020.71,-15161.215,10120.565
802445.6965876627,-77760.945,-61692.793,17665.975,5613.2,-13180.217,-33020.59,-15164.104,10111.328
802445.7005876581,-77769.414,-61700.89,17672.363,5613.363,-13181.56,-33018.23,-15169.149,10101.645
802445.7045876534,-77764.04,-61704.145,17664.348,5613.851,-13184.57,-33018.434,-15170.858,10093.384
802445.7085876488,-77758.79,-61706.953,17659.18,5612.915,-13185.995,-33021.77,-15170.695,10094.849
802445.7125876441,-77760.22,-61704.348,17655.965,5610.5146,-13183.798,-33023.766,-15170.451,10097.86
802445.7165876395,-77764.77,-61702.477,17656.658,5609.782,-13181.03,-33020.754,-15166.83,10099.854
802445.7205876348,-77768.07,-61705.08,17665.162,5613.1187,-13180.38,-33014.16,-15163.737,10099.609
802445.7245876302,-77774.336,-61710.613,17664.836,5610.433,-13184.326,-33015.75,-15169.067,10094.157
802445.7285876255,-77778.16,-61713.746,17658.326,5609.3345,-13193.441,-33020.1,-15170.532,10094.564
802445.732587621,-77781.01,-61715.902,17654.95,5605.998,-13197.388,-33023.152,-15169.922,10096.802
802445.7365876163,-77789.555,-61725.26,17662.068,5605.591,-13203.9795,-33021.73,-15168.213,10096.313
802445.7405876117,-77799.03,-61738.363,17666.627,5605.6724,-13206.259,-33016.887,-15165.039,10099.04
802445.744587607,-77796.67,-61740.156,17660.28,5606.405,-13198.975,-33015.543,-15162.802,10103.3125
802445.7485876024,-77803.43,-61745.605,17655.355,5604.696,-13199.504,-33017.254,-15163.086,10099.609
802445.7525875977,-77809.695,-61744.223,17651.938,5602.4985,-13196.045,-33021.61,-15163.737,10102.661
802445.7565875931,-77808.8,-61742.598,17653.117,5603.3936,-13194.255,-33016.766,-15157.309,10108.358
802445.7605875884,-77811.16,-61750.41,17661.092,5604.8994,-13188.314,-33011.965,-15154.175,10110.434
802445.7645875837,-77816.086,-61756.023,17657.959,5601.5625,-13193.278,-33012.777,-15156.413,10097.697
802445.7685875791,-77821.21,-61756.96,17647.625,5596.843,-13202.393,-33014.203,-15154.623,10100.627
802445.7725875744,-77819.99,-61759.523,17641.928,5593.913,-13201.579,-33015.83,-15151.367,10105.225
802445.7765875699,-77820.56,-61763.145,17649.252,5595.459,-13196.574,-33014.12,-15149.048,10115.601
802445.7805875652,-77824.79,-61768.637,17659.18,5599.6094,-13191.0,-33009.117,-15146.037,10113.444
802445.7845875606,-77828.53,-61776.29,17660.768,5600.7896,-13192.505,-33007.855,-15144.9795,10112.387
802445.7885875559,-77832.08,-61777.223,17652.059,5597.6973,-13196.005,-33012.98,-15148.682,10110.718
802445.7925875513,-77837.57,-61776.574,17645.59,5595.0522,-13195.557,-33015.79,-15148.56,10113.933
802445.7965875466,-77843.8,-61781.293,17643.84,5592.8145,-13192.709,-33015.79,-15150.065,10112.061
802445.800587542,-77847.58,-61788.414,17655.07,5595.215,-13191.284,-33013.062,-15150.635,10105.307
802445.8045875373,-77849.77,-61789.348,17653.117,5595.134,-13196.655,-33012.98,-15153.483,10096.558
802445.8085875327,-77853.56,-61790.246,17646.607,5593.994,-13205.566,-33014.61,-15152.507,10093.75
802445.812587528,-77850.99,-61790.04,17648.682,5592.733,-13206.055,-33016.727,-15146.566,10101.929
802445.8165875234,-77852.54,-61793.906,17656.617,5591.7563,-13202.026,-33012.656,-15141.154,10107.951
802445.8205875187,-77856.65,-61800.742,17665.203,5594.6455,-13198.73,-33009.117,-15138.469,10109.091
802445.8245875142,-77864.55,-61807.617,17660.156,5592.8145,-13203.573,-33010.66,-15134.766,10113.159
802445.8285875095,-77862.47,-61806.152,17659.709,5591.4307,-13203.491,-33010.297,-15131.836,10122.152
802445.8325875049,-77858.16,-61800.824,17649.537,5588.4604,-13201.945,-33011.027,-15127.727,10126.994
802445.8365875002,-77859.46,-61801.598,17653.729,5588.135,-13201.457,-33010.54,-15129.68,10117.839
802445.8405874955,-77860.27,-61803.43,17669.598,5591.675,-13196.371,-33006.715,-15127.93,10111.776
802445.8445874909,-77857.625,-61804.2,17663.494,5592.733,-13197.998,-33005.008,-15126.099,10108.073
802445.8485874862,-77859.13,-61804.566,17657.186,5592.6514,-13199.667,-33007.652,-15127.197,10104.533
802445.8525874816,-77861.82,-61803.43,17657.756,5589.193,-13204.306,-33008.63,-15124.35,10106.283
802445.8565874769,-77863.98,-61802.41,17657.39,5588.135,-13201.254,-33005.984,-15119.67,10113.688
802445.8605874723,-77866.58,-61807.945,17663.615,5590.007,-13195.517,-33004.598,-15117.432,10119.67
802445.8645874676,-77867.44,-61811.85,17663.209,5590.1694,-13193.848,-33006.062,-15118.124,10124.96
802445.868587463,-77864.42,-61805.258,17659.627,5588.623,-13198.12,-33008.547,-15119.06,10126.465
802445.8725874583,-77861.414,-61800.62,17657.146,5587.2803,-13198.608,-33010.54,-15119.263,10128.825
802445.8765874538,-77857.55,-61797.16,17662.68,5590.698,-13185.995,-33007.61,-15114.99,10130.249
802445.8805874491,-77860.19,-61800.824,17666.545,5592.082,-13177.124,-33003.5,-15114.706,10128.256
802445.8845874445,-77864.26,-61805.83,17659.871,5591.0645,-13192.18,-33002.89,-15115.723,10124.023
802445.8885874398,-77868.77,-61808.434,17650.473,5588.664,-13198.242,-33006.348,-15119.833,10112.183
802445.8925874352,-77874.43,-61811.973,17642.66,5585.6934,-13203.369,-33010.742,-15121.013,10114.665
802445.8965874305,-77878.99,-61814.94,17651.123,5585.368,-13196.289,-33011.395,-15122.641,10114.909
802445.9005874259,-77879.31,-61818.08,17657.594,5589.3965,-13189.819,-33008.465,-15123.291,10114.299
802445.9045874212,-77877.445,-61820.355,17658.53,5588.094,-13188.559,-33007.773,-15122.844,10114.95
802445.9085874166,-77874.39,-61818.32,17649.252,5585.897,-13196.411,-33007.895,-15119.06,10120.077
802445.9125874119,-77876.43,-61816.082,17646.12,5585.6934,-13199.423,-33005.82,-15113.688,10126.709
802445.9165874072,-77879.16,-61819.62,17647.625,5582.5195,-13199.423,-33001.953,-15108.806,10131.674
802445.9205874027,-77879.07,-61826.867,17653.2,5583.171,-13192.953,-32999.96,-15108.398,10124.797
802445.924587398,-77883.266,-61834.84,17649.984,5586.5073,-13193.237,-33001.547,-15111.816,10115.234
802445.9285873934,-77886.234,-61830.16,17646.852,5585.4087,-13193.604,-33004.395,-15110.759,10119.67
802445.9325873887,-77886.97,-61823.49,17646.2,5582.5605,-13193.848,-33005.008,-15108.317,10124.35
802445.9365873841,-77884.52,-61824.707,17650.758,5581.9907,-13185.669,-33005.414,-15105.632,10124.553
802445.9405873794,-77881.39,-61827.637,17660.36,5587.036,-13183.96,-33003.133,-15105.835,10121.704
802445.9445873748,-77882.37,-61830.12,17657.105,5586.792,-13191.895,-33004.438,-15107.666,10121.42
802445.9485873701,-77888.266,-61830.0,17652.344,5583.659,-13199.423,-33006.797,-15108.969,10115.52
802445.9525873655,-77888.47,-61832.24,17648.56,5579.1016,-13199.097,-33006.145,-15104.533,10121.338
802445.9565873608,-77888.23,-61834.19,17647.746,5577.352,-13200.114,-33003.906,-15097.9,10130.371
802445.9605873562,-77892.3,-61838.992,17658.123,5580.648,-13195.761,-33001.02,-15094.523,10129.436
802445.9645873515,-77894.25,-61840.984,17657.838,5581.706,-13197.021,-33001.668,-15090.698,10126.872
802445.968587347,-77894.05,-61840.293,17652.71,5579.0205,-13201.701,-33006.188,-15094.6455,10125.8955
802445.9725873423,-77893.15,-61834.395,17651.49,5578.817,-13195.15,-33007.652,-15093.222,10124.634
802445.9765873377,-77892.58,-61833.05,17656.617,5579.875,-13194.865,-33006.55,-15095.703,10116.008
802445.980587333,-77893.805,-61837.527,17667.195,5583.293,-13190.756,-33002.28,-15096.965,10114.99
802445.9845873284,-77896.94,-61841.188,17663.29,5583.537,-13193.359,-32999.27,-15097.778,10115.642
802445.9885873237,-77896.2,-61839.234,17657.838,5581.014,-13189.128,-33001.26,-15099.203,10115.52
802445.992587319,-77895.06,-61835.246,17655.72,5578.695,-13191.447,-33002.93,-15097.941,10113.566
802445.9965873144,-77894.125,-61833.742,17656.902,5577.6777,-13185.425,-33001.71,-15094.157,10111.735
802446.0005873097,-77894.45,-61836.426,17665.527,5580.8516,-13180.827,-32998.902,-15093.954,10109.335
802446.0045873051,-77896.0,-61839.195,17661.947,5581.95,-13190.186,-33000.043,-15094.6455,10108.358
802446.0085873004,-77896.89,-61838.625,17654.664,5579.59,-13194.336,-33003.297,-15095.378,10110.189
802446.0125872958,-77898.766,-61836.426,17654.867,5578.4507,-13194.784,-33002.156,-15091.105,10115.886
802446.0165872911,-77902.305,-61838.176,17662.477,5578.3286,-13192.831,-32999.715,-15092.326,10109.538
802446.0205872866,-77904.42,-61842.613,17668.904,5581.706,-13194.499,-32995.89,-15092.407,10102.783
802446.0245872819,-77897.3,-61841.88,17665.895,5582.927,-13191.61,-32994.223,-15091.635,10103.394
802446.0285872773,-77895.02,-61842.816,17661.133,5581.3804,-13186.117,-32998.496,-15093.466,10101.685
802446.0325872726,-77896.2,-61838.38,17658.65,5578.9795,-13192.993,-33001.06,-15093.425,10104.899
802446.036587268,-77900.68,-61841.555,17659.709,5579.468,-13193.93,-33001.426,-15096.558,10096.191
802446.0405872633,-77899.945,-61848.43,17665.242,5582.601,-13189.982,-32999.84,-15097.982,10092.651
802446.0445872587,-77897.79,-61848.633,17665.324,5582.845,-13189.941,-33000.125,-15097.006,10098.1045
802446.048587254,-77897.664,-61847.7,17659.912,5581.909,-13186.809,-33002.566,-15094.523,10105.632
802446.0525872494,-77896.2,-61844.402,17659.1,5578.288,-13182.414,-33004.395,-15090.292,10111.45
802446.0565872447,-77902.18,-61846.152,17656.617,5576.091,-13184.652,-33002.28,-15084.229,10113.525
802446.0605872402,-77908.37,-61849.406,17661.58,5579.3867,-13184.123,-32999.758,-15080.322,10113.281
802446.0645872355,-77916.18,-61852.38,17661.703,5579.7935,-13186.035,-32996.01,-15077.148,10115.112
802446.0685872308,-77915.41,-61848.43,17653.158,5577.8403,-13187.094,-32996.46,-15074.951,10113.688
802446.0725872262,-77910.16,-61844.484,17652.955,5575.073,-13185.141,-32997.234,-15076.864,10107.382
802446.0765872215,-77909.38,-61847.7,17659.22,5574.382,-13185.466,-32995.973,-15079.0205,10108.032
802446.0805872169,-77910.08,-61850.26,17667.318,5576.864,-13185.263,-32992.594,-15082.357,10106.079
802446.0845872122,-77909.38,-61851.035,17669.922,5577.108,-13189.779,-32995.16,-15086.833,10101.5625
802446.0885872076,-77906.05,-61848.227,17663.494,5577.5146,-13185.791,-32998.984,-15087.565,10099.121
802446.0925872029,-77905.44,-61847.21,17656.576,5574.7886,-13187.663,-33000.938,-15086.101,10102.661
802446.0965871983,-77908.49,-61848.39,17657.553,5575.8467,-13182.17,-32998.74,-15084.106,10099.609
802446.1005871936,-77909.875,-61850.14,17662.72,5578.288,-13176.636,-32995.523,-15083.09,10090.983
802446.104587189,-77913.78,-61856.203,17658.082,5577.1484,-13181.519,-32995.566,-15085.083,10091.228
802446.1085871843,-77918.13,-61855.918,17654.46,5575.277,-13178.305,-32996.707,-15083.252,10095.907
802446.1125871798,-77920.695,-61850.71,17651.896,5572.754,-13173.869,-33000.734,-15084.433,10091.472
802446.116587175,-77917.766,-61848.555,17655.6,5572.632,-13177.979,-32999.473,-15084.392,10090.78
802446.1205871705,-77915.81,-61850.223,17662.68,5576.294,-13172.607,-32995.89,-15085.002,10083.862
802446.1245871658,-77916.625,-61850.26,17656.414,5576.9453,-13176.514,-32997.195,-15090.088,10075.928
802446.1285871612,-77918.74,-61853.355,17652.344,5574.7886,-13185.019,-33001.547,-15093.14,10076.335
802446.1325871565,-77920.01,-61853.926,17648.64,5573.446,-13180.014,-33004.68,-15090.902,10079.875
802446.1365871519,-77920.17,-61854.29,17652.303,5573.3643,-13180.705,-33004.03,-15089.152,10084.106
802446.1405871472,-77928.06,-61861.9,17658.447,5575.1143,-13176.514,-33000.53,-15087.443,10081.95
802446.1445871425,-77933.31,-61866.418,17659.303,5576.335,-13177.653,-33000.53,-15088.379,10080.607
802446.1485871379,-77926.72,-61863.895,17654.5,5573.446,-13180.014,-33003.418,-15087.891,10082.927
802446.1525871332,-77923.26,-61860.395,17652.426,5573.0796,-13176.147,-33003.01,-15086.02,10086.02
802446.1565871286,-77924.44,-61859.336,17653.646,5573.0796,-13169.312,-33001.465,-15085.287,10088.42
802446.160587124,-77926.15,-61862.633,17663.982,5577.5146,-13163.33,-32997.64,-15083.008,10086.67
802446.1645871194,-77928.67,-61867.676,17662.312,5577.922,-13169.638,-32997.52,-15080.322,10088.054
802446.1685871147,-77923.71,-61864.055,17658.203,5577.3115,-13172.607,-32997.316,-15076.579,10090.739
802446.1725871101,-77923.22,-61861.41,17653.035,5573.568,-13171.062,-32998.535,-15072.917,10098.471
802446.1765871054,-77924.85,-61862.633,17658.203,5571.6553,-13167.888,-32996.95,-15069.743,10098.1045
802446.1805871008,-77927.86,-61866.824,17661.092,5572.917,-13170.573,-32994.957,-15070.068,10087.729
802446.1845870961,-77934.86,-61871.91,17659.953,5573.039,-13174.276,-32996.582,-15072.673,10082.153
802446.1885870915,-77927.25,-61866.008,17658.977,5573.283,-13171.143,-32997.195,-15072.47,10082.602
802446.1925870868,-77924.36,-61864.504,17654.623,5570.8823,-13174.5205,-32999.15,-15071.371,10079.55
802446.1965870822,-77922.164,-61862.266,17660.115,5572.632,-13173.706,-32997.195,-15068.645,10081.991
802446.2005870775,-77920.49,-61866.496,17669.23,5574.992,-13172.7295,-32991.984,-15067.383,10083.212
802446.204587073,-77925.7,-61874.88,17668.133,5574.707,-13175.09,-32993.043,-15067.831,10081.706
802446.2085870682,-77930.87,-61871.582,17657.227,5570.7197,-13175.7,-32995.242,-15069.621,10083.374
802446.2125870636,-77928.1,-61868.734,17654.42,5566.7725,-13173.34,-32995.973,-15068.319,10084.514
802446.216587059,-77925.5,-61869.426,17660.768,5566.854,-13171.306,-32997.56,-15067.749,10082.764
802446.2205870543,-77925.62,-61869.67,17667.766,5571.574,-13167.847,-32994.508,-15070.028,10079.306
802446.2245870497,-77928.55,-61872.277,17665.936,5571.8994,-13175.985,-32995.363,-15075.358,10072.876
802446.228587045,-77929.37,-61867.72,17658.732,5570.2314,-13180.38,-32999.96,-15078.898,10065.268
802446.2325870404,-77928.63,-61863.16,17655.6,5570.8823,-13171.0205,-33002.32,-15079.0205,10068.319
802446.2365870357,-77929.89,-61863.895,17660.482,5572.673,-13164.958,-32998.375,-15080.893,10064.657
802446.2405870311,-77930.22,-61863.812,17669.8,5577.5146,-13159.221,-32996.297,-15080.852,10063.803
802446.2445870264,-77931.52,-61865.887,17670.41,5576.701,-13158.936,-32995.28,-15079.428,10068.93
802446.2485870218,-77930.99,-61864.543,17665.04,5573.9746,-13156.657,-32997.355,-15078.695,10072.795
802446.2525870171,-77929.52,-61860.637,17662.8,5572.0215,-13162.436,-32998.535,-15075.766,10078.776
802446.2565870126,-77934.37,-61863.73,17661.824,5570.4756,-13169.23,-32997.684,-15073.894,10085.124
802446.2605870079,-77936.445,-61867.11,17664.348,5572.0215,-13168.335,-32996.664,-15075.644,10072.754
802446.2645870033,-77933.31,-61869.875,17661.906,5573.6084,-13165.039,-32996.582,-15075.766,10072.673
802446.2685869986,-77931.766,-61868.652,17656.453,5572.51,-13158.366,-32998.74,-15074.382,10072.348
802446.272586994,-77930.46,-61864.707,17657.227,5571.411,-13154.867,-33001.26,-15073.69,10077.108
802446.2765869893,-77927.86,-61860.84,17663.25,5573.283,-13154.175,-32998.21,-15069.784,10080.241
802446.2805869847,-77927.01,-61861.86,17671.021,5575.4805,-13153.158,-32992.188,-15065.063,10077.597
802446.28458698,-77928.96,-61864.137,17668.295,5576.416,-13156.82,-32991.05,-15065.349,10073.69
802446.2885869753,-77933.02,-61866.418,17658.895,5574.382,-13158.773,-32994.305,-15068.848,10060.913
802446.2925869707,-77934.2,-61862.145,17655.6,5572.673,-13157.227,-32996.258,-15064.86,10066.895
802446.296586966,-77939.13,-61861.94,17658.041,5570.394,-13151.408,-32996.99,-15062.053,10065.837
802446.3005869614,-77940.76,-61867.15,17668.701,5574.382,-13146.933,-32993.125,-15060.1,10064.006
802446.3045869567,-77940.88,-61871.91,17666.545,5574.3003,-13142.66,-32991.824,-15060.791,10059.937
802446.3085869522,-77944.336,-61874.23,17654.785,5569.743,-13148.682,-32993.57,-15062.338,10054.647
802446.3125869475,-77947.96,-61869.914,17653.646,5569.621,-13152.588,-32995.89,-15063.559,10055.217
802446.3165869429,-77947.67,-61869.266,17656.129,5569.458,-13149.211,-32995.242,-15064.331,10056.396
802446.3205869382,-77944.17,-61870.08,17667.195,5573.3643,-13136.271,-32990.113,-15062.704,10053.833
802446.3245869336,-77939.7,-61870.2,17667.115,5573.3643,-13142.375,-32987.71,-15062.175,10054.443
802446.3285869289,-77935.14,-61864.953,17662.518,5572.347,-13145.874,-32991.58,-15063.11,10052.612
802446.3325869243,-77931.64,-61859.906,17661.418,5572.0215,-13141.357,-32992.96,-15059.978,10068.237
802446.3365869196,-77932.945,-61859.375,17663.941,5573.8525,-13136.76,-32992.8,-15057.17,10074.911
802446.340586915,-77936.73,-61862.145,17673.055,5575.277,-13135.173,-32990.805,-15058.838,10069.702
802446.3445869103,-77938.73,-61867.555,17671.957,5574.7886,-13146.118,-32988.688,-15060.222,10071.533
802446.3485869057,-77937.016,-61864.707,17663.494,5574.585,-13154.745,-32991.09,-15061.89,10071.655
802446.352586901,-77930.914,-61857.63,17664.51,5575.643,-13158.325,-32992.23,-15060.588,10075.644
802446.3565868965,-77931.69,-61856.61,17670.736,5575.277,-13142.741,-32991.414,-15059.489,10077.556
802446.3605868918,-77934.086,-61859.824,17674.725,5577.9624,-13134.685,-32989.176,-15058.146,10081.055
802446.3645868871,-77930.99,-61863.242,17672.445,5578.044,-13140.341,-32992.637,-15060.181,10082.968
802446.3685868825,-77932.13,-61863.895,17664.227,5575.1143,-13144.287,-32995.242,-15059.855,10077.881
802446.3725868778,-77932.87,-61864.87,17660.809,5575.765,-13143.759,-32993.246,-15052.938,10079.143
802446.3765868732,-77932.17,-61865.93,17668.05,5576.864,-13141.154,-32990.562,-15045.207,10086.833
802446.3805868685,-77935.67,-61873.21,17674.195,5579.183,-13142.782,-32986.29,-15042.318,10083.374
802446.3845868639,-77937.016,-61874.51,17674.684,5579.468,-13146.933,-32986.29,-15041.789,10075.195
802446.3885868592,-77935.266,-61869.996,17667.562,5577.596,-13147.136,-32987.55,-15040.365,10074.179
802446.3925868546,-77934.086,-61866.09,17661.5,5574.504,-13148.071,-32991.375,-15040.324,10074.179
802446.3965868499,-77937.625,-61867.11,17659.627,5575.1953,-13146.159,-32991.17,-15042.074,10070.028
802446.4005868454,-77944.87,-61873.496,17664.51,5579.509,-13147.827,-32989.34,-15045.37,10061.401
802446.4045868407,-77943.97,-61875.082,17664.348,5583.171,-13147.136,-32989.79,-15047.526,10054.077
802446.4085868361,-77947.06,-61877.16,17658.977,5581.0547,-13154.175,-32993.33,-15051.433,10052.856
802446.4125868314,-77942.586,-61874.15,17656.006,5579.753,-13154.501,-32996.5,-15053.305,10052.612
802446.4165868268,-77940.266,-61874.676,17660.238,5581.014,-13149.78,-32997.684,-15056.071,10053.996
802446.4205868221,-77939.13,-61877.727,17675.537,5584.961,-13142.538,-32995.77,-15058.472,10049.683
802446.4245868175,-77936.52,-61878.258,17676.514,5585.9785,-13145.183,-32995.28,-15060.791,10046.509
802446.4285868128,-77934.125,-61875.652,17668.904,5585.5713,-13151.855,-32998.09,-15060.019,10050.375
802446.4325868082,-77931.805,-61869.875,17664.43,5585.0425,-13146.281,-32997.316,-15054.159,10057.129
802446.4365868035,-77925.984,-61867.516,17666.057,5586.1816,-13143.474,-32995.688,-15055.136,10054.647
802446.4405867988,-77925.83,-61869.348,17673.26,5589.7627,-13148.642,-32994.63,-15060.832,10043.62
802446.4445867942,-77929.37,-61875.652,17671.469,5591.5527,-13156.698,-32996.258,-15062.622,10039.226
802446.4485867895,-77931.195,-61878.01,17661.174,5589.315,-13165.609,-33000.45,-15063.029,10038.33
802446.452586785,-77931.07,-61875.043,17661.988,5590.1694,-13153.687,-33002.035,-15060.466,10042.155
802446.4565867803,-77932.17,-61873.047,17663.982,5590.5356,-13148.4375,-33001.14,-15056.723,10045.492
802446.4605867757,-77934.66,-61875.285,17670.898,5591.797,-13151.286,-32996.297,-15053.671,10045.044
802446.464586771,-77927.125,-61873.13,17674.195,5593.221,-13150.269,-32993.734,-15049.5205,10048.34
802446.4685867664,-77925.54,-61872.438,17665.447,5588.867,-13152.182,-32992.8,-15045.288,10053.549
802446.4725867617,-77927.49,-61875.125,17660.564,5586.467,-13158.122,-32991.293,-15039.511,10060.019
802446.4765867571,-77931.56,-61878.746,17660.238,5586.263,-13155.681,-32989.055,-15035.563,10061.687
802446.4805867524,-77936.85,-61880.168,17668.865,5588.5825,-13156.21,-32984.09,-15031.657,10063.721
802446.4845867478,-77936.77,-61877.81,17666.586,5589.3965,-13154.338,-32983.48,-15030.559,10062.907
802446.4885867431,-77938.48,-61878.785,17661.988,5586.792,-13157.268,-32985.965,-15033.488,10054.892
802446.4925867385,-77942.55,-61881.39,17660.076,5585.1646,-13155.762,-32987.062,-15035.238,10054.729
802446.4965867338,-77940.836,-61879.52,17662.191,5588.094,-13151.693,-32986.816,-15037.231,10047.689
802446.5005867293,-77935.836,-61877.32,17671.021,5592.041,-13144.369,-32984.375,-15041.586,10039.551
802446.5045867246,-77935.59,-61880.453,17667.236,5594.4014,-13147.421,-32983.684,-15044.189,10037.395
802446.50858672,-77934.2,-61878.95,17657.756,5592.977,-13153.036,-32983.97,-15046.753,10035.116
802446.5125867153,-77931.4,-61874.35,17655.273,5591.1055,-13152.629,-32985.27,-15048.869,10036.255
802446.5165867106,-77929.41,-61873.742,17663.941,5591.8784,-13147.502,-32984.945,-15047.445,10038.778
802446.520586706,-77931.12,-61874.023,17670.857,5593.221,-13143.84,-32981.363,-15048.422,10035.971
802446.5245867013,-77931.805,-61877.81,17666.342,5594.2383,-13150.879,-32982.26,-15053.345,10032.837
802446.5285866967,-77930.46,-61877.32,17658.447,5593.8315,-13154.135,-32986.33,-15057.211,10030.273
802446.532586692,-77927.05,-61872.887,17654.705,5591.675,-13148.52,-32988.65,-15054.199,10033.977
802446.5365866874,-77922.445,-61869.223,17659.832,5592.163,-13141.439,-32988.324,-15050.293,10043.173
802446.5405866827,-77921.8,-61869.266,17667.725,5596.3545,-13133.383,-32984.375,-15047.119,10046.347
802446.5445866782,-77925.01,-61871.055,17667.115,5597.046,-13136.76,-32983.24,-15047.404,10045.288
802446.5485866735,-77926.19,-61873.58,17662.762,5594.442,-13141.439,-32985.066,-15043.905,10046.835
802446.5525866689,-77926.555,-61876.465,17658.203,5591.4307,-13140.422,-32985.92,-15038.574,10045.939
802446.5565866642,-77928.836,-61874.637,17660.93,5590.21,-13138.021,-32984.824,-15032.023,10046.509
802446.5605866596,-77928.836,-61875.652,17667.725,5593.628,-13140.503,-32980.023,-15025.391,10048.015
802446.5645866549,-77928.51,-61879.234,17666.912,5595.459,-13146.078,-32979.332,-15026.042,10044.922
802446.5685866503,-77932.82,-61880.94,17654.256,5593.0176,-13153.891,-32982.668,-15028.605,10040.69
802446.5725866456,-77933.516,-61881.758,17651.002,5591.512,-13151.001,-32983.766,-15030.3955,10036.662
802446.576586641,-77937.79,-61885.133,17660.076,5590.373,-13146.973,-32982.75,-15031.901,10030.355
802446.5805866363,-77940.555,-61890.3,17665.527,5591.0645,-13141.195,-32979.777,-15032.431,10024.984
802446.5845866317,-77945.15,-61894.9,17661.053,5589.1523,-13147.543,-32979.98,-15034.546,10022.421
802446.588586627,-77942.305,-61891.766,17653.035,5587.036,-13156.779,-32982.26,-15037.476,10021.078
802446.5925866223,-77940.68,-61890.75,17648.479,5586.6294,-13153.524,-32983.766,-15039.104,10025.065
802446.5965866178,-77942.79,-61890.79,17653.117,5587.5244,-13149.902,-32982.016,-15037.883,10028.402
802446.600586613,-77945.11,-61892.01,17658.123,5589.9253,-13146.403,-32979.98,-15040.8125,10020.061
802446.6045866085,-77940.59,-61892.17,17653.484,5589.885,-13146.647,-32982.34,-15048.666,10012.451
802446.6085866038,-77937.664,-61888.797,17644.531,5586.833,-13147.502,-32987.062,-15052.45,10007.895
802446.6125865992,-77936.28,-61885.094,17640.828,5584.2695,-13144.897,-32990.195,-15051.596,10013.306
802446.6165865945,-77937.055,-61884.688,17643.19,5584.188,-13145.224,-32989.34,-15049.887,10017.782
802446.6205865899,-77935.55,-61885.38,17655.193,5586.67,-13137.289,-32984.09,-15048.503,10017.253
802446.6245865852,-77937.26,-61886.76,17656.25,5587.7686,-13144.653,-32983.523,-15049.276,10014.975
802446.6285865806,-77937.18,-61884.605,17646.607,5587.4023,-13143.596,-32984.254,-15047.282,10016.154
802446.6325865759,-77938.195,-61879.723,17645.184,5585.6934,-13143.596,-32985.598,-15044.189,10021.933
802446.6365865713,-77937.055,-61882.043,17646.443,5584.3506,-13147.217,-32983.887,-15040.731,10024.374
802446.6405865666,-77935.14,-61887.37,17650.879,5587.2397,-13136.557,-32981.082,-15039.226,10022.705
802446.6445865621,-77936.77,-61892.133,17649.049,5587.3213,-13135.783,-32980.918,-15036.499,10024.577
802446.6485865574,-77938.56,-61887.656,17642.416,5585.5713,-13142.741,-32984.457,-15032.431,10030.355
802446.6525865528,-77938.805,-61885.254,17641.602,5584.1475,-13146.403,-32987.145,-15031.128,10029.216
802446.6565865481,-77939.17,-61888.88,17647.217,5584.2695,-13140.259,-32986.574,-15028.85,10026.123
802446.6605865434,-77937.42,-61888.31,17649.7,5588.0127,-13132.69,-32980.957,-15020.874,10029.053
802446.6645865388,-77939.45,-61890.3,17648.438,5591.4717,-13131.063,-32978.965,-15017.863,10028.28
802446.6685865341,-77938.97,-61890.06,17647.014,5589.5186,-13130.493,-32980.633,-15016.968,10025.391
802446.6725865295,-77938.6,-61887.453,17640.748,5584.9204,-13133.708,-32980.184,-15016.235,10020.996
802446.6765865248,-77941.86,-61889.773,17639.363,5581.706,-13133.139,-32978.395,-15015.91,10020.468
802446.6805865202,-77946.336,-61893.19,17645.428,5583.822,-13134.726,-32975.79,-15016.643,10016.724
802446.6845865155,-77948.04,-61895.1,17648.846,5584.961,-13135.946,-32975.71,-15018.026,10011.597
802446.688586511,-77948.85,-61890.79,17642.986,5583.9033,-13133.383,-32978.027,-15018.84,10013.672
802446.6925865063,-77942.47,-61885.95,17638.184,5583.171,-13131.552,-32980.31,-15018.596,10016.765
802446.6965865017,-77940.266,-61882.45,17643.19,5584.6763,-13125.814,-32977.664,-15019.897,10018.637
802446.700586497,-77936.36,-61878.95,17656.494,5589.2744,-13117.92,-32973.88,-15021.606,10022.868
802446.7045864924,-77936.04,-61878.582,17657.105,5589.803,-13109.294,-32975.344,-15022.502,10023.845
802446.7085864877,-77933.72,-61881.758,17650.879,5587.077,-13112.346,-32978.19,-15025.513,10019.572
802446.7125864831,-77930.95,-61876.996,17641.521,5586.9956,-13106.975,-32979.29,-15025.473,10024.862
802446.7165864784,-77936.85,-61878.137,17641.44,5586.9956,-13117.065,-32978.19,-15027.182,10021.933
802446.7205864738,-77936.85,-61881.39,17655.682,5590.5356,-13116.415,-32975.63,-15027.019,10016.684
802446.7245864691,-77934.33,-61882.203,17660.768,5594.4014,-13111.816,-32975.992,-15027.629,10015.788
802446.7285864645,-77933.11,-61880.94,17650.594,5591.675,-13117.31,-32979.41,-15028.361,10018.188
802446.7325864598,-77935.836,-61880.78,17645.549,5588.2163,-13125.204,-32981.203,-15026.733,10027.588
802446.7365864551,-77936.24,-61881.145,17650.676,5589.2334,-13123.251,-32977.5,-15021.729,10029.135
802446.7405864506,-77941.66,-61887.695,17655.477,5590.332,-13121.623,-32974.938,-15016.113,10030.559
802446.7445864459,-77935.75,-61892.133,17655.477,5588.3384,-13119.589,-32972.656,-15010.946,10035.278
802446.7485864413,-77937.83,-61892.254,17650.92,5584.2285,-13130.575,-32974.61,-15009.033,10034.302
802446.7525864366,-77936.445,-61886.23,17648.764,5582.479,-13131.714,-32974.812,-15007.365,10033.163
802446.756586432,-77939.91,-61888.184,17651.531,5583.822,-13129.313,-32972.7,-15003.744,10029.541
802446.7605864273,-77946.05,-61894.004,17649.373,5587.158,-13127.686,-32970.297,-15004.3545,10026.205
802446.7645864227,-77951.42,-61900.473,17644.572,5585.6934,-13134.644,-32969.89,-15011.149,10012.817
802446.768586418,-77953.62,-61898.645,17635.824,5581.218,-13136.23,-32973.062,-15013.876,10007.284
802446.7725864134,-77954.76,-61897.95,17630.574,5578.695,-13137.004,-32976.277,-15016.562,10002.849
802446.7765864087,-77955.2,-61897.098,17635.01,5578.4507,-13132.568,-32976.562,-15015.788,9999.878
802446.7805864041,-77957.44,-61901.613,17643.799,5584.2285,-13127.523,-32976.277,-15016.846,9998.698
802446.7845863994,-77947.96,-61899.293,17648.275,5588.0127,-13126.587,-32975.223,-15018.2705,9997.274
802446.7885863949,-77942.586,-61893.15,17647.137,5587.484,-13120.932,-32977.254,-15019.247,9998.576
802446.7925863902,-77943.93,-61889.855,17640.545,5586.6294,-13123.861,-32980.715,-15021.2,9996.867
802446.7965863856,-77944.336,-61888.47,17641.44,5585.449,-13122.722,-32979.82,-15020.183,9999.023
802446.8005863809,-77946.82,-61890.79,17645.834,5585.775,-13118.856,-32978.598,-15022.461,9996.704
802446.8045863763,-77950.12,-61892.54,17644.043,5587.6465,-13122.844,-32981.242,-15027.751,9991.089
802446.8085863716,-77948.85,-61888.88,17638.266,5589.3555,-13121.704,-32983.156,-15027.304,9995.524
802446.8125863669,-77946.05,-61884.035,17636.475,5589.1113,-13115.52,-32985.965,-15027.792,9996.338
802446.8165863623,-77947.76,-61883.832,17638.184,5588.9893,-13116.496,-32984.66,-15029.663,9993.53
802446.8205863576,-77949.016,-61882.69,17647.46,5592.163,-13112.305,-32980.67,-15027.141,9997.681
802446.824586353,-77951.336,-61885.785,17648.234,5591.5938,-13106.323,-32980.67,-15027.71,9996.704
802446.8285863483,-77952.31,-61885.742,17642.334,5588.542,-13114.624,-32984.133,-15029.704,9994.141
802446.8325863437,-77955.0,-61888.184,17637.29,5587.728,-13119.629,-32985.598,-15028.524,9994.873
802446.836586339,-77953.125,-61891.4,17638.062,5586.589,-13117.798,-32985.84,-15019.613,10004.395
802446.8405863345,-77949.51,-61889.203,17648.031,5588.2163,-13114.462,-32980.184,-15009.848,10013.754
802446.8445863298,-77946.125,-61889.12,17651.896,5589.966,-13116.089,-32976.645,-15006.918,10003.784
802446.8485863252,-77951.09,-61890.06,17646.078,5587.077,-13122.152,-32976.44,-15002.971,10002.279
802446.8525863205,-77952.96,-61894.816,17641.766,5581.9907,-13134.97,-32977.5,-15000.692,10001.994
802446.8565863159,-77952.31,-61895.633,17638.307,5581.136,-13125.651,-32975.71,-14995.361,10003.418
802446.8605863112,-77953.734,-61898.766,17643.88,5582.2754,-13122.111,-32973.633,-14995.81,10001.262
802446.8645863066,-77956.87,-61904.867,17645.467,5583.008,-13127.197,-32972.332,-14998.617,9995.361
802446.8685863019,-77957.44,-61900.312,17640.178,5583.13,-13121.501,-32973.96,-14999.228,9991.821
802446.8725862973,-77958.74,-61897.46,17635.58,5579.7935,-13125.244,-32976.766,-15002.686,9989.543
802446.8765862926,-77957.89,-61895.145,17633.139,5582.3975,-13123.495,-32976.523,-15005.046,9989.34
802446.880586288,-77954.35,-61895.715,17641.602,5586.5073,-13115.153,-32973.51,-15003.093,9989.34
802446.8845862834,-77958.17,-61903.527,17638.062,5585.9375,-13124.553,-32977.254,-15007.162,9987.753
802446.8885862787,-77959.11,-61901.164,17633.912,5584.1064,-13128.622,-32981.04,-15006.348,9991.049
802446.8925862741,-77963.7,-61898.97,17629.72,5579.3457,-13129.965,-32985.72,-15010.01,9982.056
802446.8965862694,-77957.805,-61898.4,17634.318,5578.3286,-13132.365,-32986.086,-15011.923,9986.288
802446.9005862648,-77950.6,-61895.062,17650.879,5584.432,-13121.094,-32985.92,-15018.759,9975.668
802446.9045862601,-77954.266,-61897.137,17646.322,5586.711,-13114.136,-32985.883,-15019.9795,9975.912
802446.9085862555,-77954.555,-61893.066,17638.836,5585.368,-13114.299,-32987.348,-15020.996,9976.115
802446.9125862508,-77957.32,-61891.074,17633.504,5583.415,-13118.368,-32988.934,-15019.328,9976.522
802446.9165862462,-77961.06,-61892.133,17630.86,5581.706,-13116.333,-32985.637,-15011.027,9983.847
802446.9205862415,-77960.086,-61897.707,17639.69,5582.601,-13108.847,-32981.527,-15000.366,9988.647
802446.924586237,-77961.67,-61899.254,17640.545,5582.4385,-13111.857,-32979.453,-14996.948,9984.172
802446.9285862322,-77958.664,-61893.027,17637.736,5577.5146,-13115.601,-32980.184,-14992.798,9993.734
802446.9325862277,-77962.52,-61892.863,17632.0,5571.1265,-13124.472,-32980.594,-14989.096,9997.681
802446.936586223,-77958.74,-61888.47,17638.713,5573.8936,-13114.136,-32978.965,-14981.364,10003.134
802446.9405862184,-77958.13,-61893.066,17646.81,5573.6494,-13107.504,-32974.652,-14978.271,10003.622
802446.9445862137,-77962.69,-61897.3,17644.41,5571.9404,-13107.26,-32973.31,-14977.011,10000.122
802446.9485862091,-77962.2,-61897.46,17640.137,5573.161,-13115.561,-32976.605,-14979.94,9991.089
802446.9525862044,-77960.37,-61895.1,17638.957,5574.463,-13118.246,-32976.562,-14981.405,9989.096
802446.9565861998,-77961.96,-61898.234,17642.986,5572.0625,-13112.753,-32977.582,-14983.48,9987.265
802446.9605861951,-77964.12,-61899.17,17647.543,5574.7886,-13100.505,-32975.098,-14981.039,9987.875
802446.9645861904,-77968.23,-61900.188,17647.787,5577.759,-13109.213,-32975.953,-14980.917,9988.933
802446.9685861858,-77961.305,-61900.598,17639.812,5576.172,-13116.415,-32979.29,-14982.26,9988.647
802446.9725861811,-77959.234,-61900.434,17635.213,5574.3003,-13117.31,-32981.934,-14984.823,9984.66
802446.9765861765,-77962.0,-61898.562,17640.178,5575.521,-13115.275,-32982.06,-14986.45,9983.928
802446.9805861718,-77963.625,-61902.1,17649.822,5576.864,-13112.387,-32978.64,-14988.119,9980.021
802446.9845861673,-77961.71,-61903.363,17649.902,5578.939,-13113.159,-32978.72,-14989.543,9979.411
802446.9885861626,-77963.914,-61904.137,17647.828,5577.5146,-13108.398,-32980.918,-14991.74,9978.923
802446.992586158,-77964.16,-61901.9,17644.37,5574.463,-13109.619,-32985.19,-14996.42,9969.442
802446.9965861533,-77964.36,-61901.938,17643.799,5574.1377,-13102.865,-32986.125,-14997.396,9969.116
802447.0005861487,-77965.45,-61906.21,17647.908,5576.823,-13099.406,-32984.01,-14996.826,9969.523
802447.004586144,-77966.39,-61908.0,17645.184,5578.5728,-13111.41,-32983.4,-14995.81,9970.907
802447.0085861394,-77965.375,-61909.71,17641.766,5576.9453,-13112.631,-32985.68,-14995.239,9971.191
802447.0125861347,-77963.586,-61901.33,17637.492,5575.521,-13104.98,-32985.15,-14989.055,9978.271
802447.0165861301,-77964.97,-61896.566,17637.451,5574.585,-13099.609,-32981.04,-14980.021,9987.509
802447.0205861254,-77968.63,-61899.78,17649.293,5577.0264,-13097.982,-32977.54,-14972.168,9990.764
802447.0245861209,-77970.46,-61901.613,17651.287,5577.0674,-13100.952,-32974.324,-14968.832,9991.049
802447.0285861162,-77973.47,-61903.605,17643.922,5572.8354,-13102.783,-32975.3,-14965.698,9993.979
802447.0325861115,-77975.016,-61904.055,17636.678,5568.2783,-13104.98,-32976.848,-14962.81,9995.443
802447.0365861069,-77972.45,-61905.76,17638.469,5568.6035,-13099.121,-32976.97,-14964.152,9986.898
802447.0405861022,-77971.27,-61913.086,17642.701,5571.045,-13100.464,-32974.812,-14968.222,9977.702
802447.0445860976,-77975.914,-61917.766,17646.688,5574.056,-13102.865,-32974.285,-14972.372,9973.186
802447.0485860929,-77976.195,-61914.758,17639.69,5574.585,-13105.225,-32979.207,-14975.424,9968.791
802447.0525860883,-77974.53,-61909.71,17636.23,5572.8354,-13101.929,-32981.445,-14977.092,9966.35
802447.0565860836,-77977.17,-61909.996,17639.934,5573.7715,-13096.151,-32980.105,-14977.214,9961.223
802447.060586079,-77982.625,-61913.574,17646.037,5577.23,-13096.3545,-32980.594,-14978.598,9958.13
802447.0645860743,-77987.14,-61916.465,17644.531,5579.997,-13097.9,-32981.285,-14981.73,9954.59
802447.0685860697,-77984.54,-61916.75,17638.795,5577.1895,-13104.004,-32983.766,-14985.026,9955.2
802447.072586065,-77980.59,-61911.215,17634.236,5574.463,-13106.12,-32986.98,-14989.584,9945.435
802447.0765860605,-77978.97,-61910.44,17636.842,5572.551,-13104.126,-32985.758,-14987.265,9953.369
802447.0805860558,-77982.016,-61913.13,17645.549,5575.9277,-13092.773,-32982.3,-14982.707,9961.955
802447.0845860512,-77981.164,-61917.402,17646.81,5576.4976,-13093.018,-32981.203,-14980.429,9964.111
802447.0885860465,-77979.01,-61912.273,17637.695,5574.341,-13098.186,-32980.918,-14976.767,9970.622
802447.0925860419,-77976.16,-61905.56,17634.93,5572.632,-13093.547,-32981.324,-14969.36,9982.544
802447.0965860372,-77976.12,-61906.293,17642.254,5573.0796,-13093.75,-32979.98,-14963.42,9993.124
802447.1005860326,-77977.26,-61912.234,17650.39,5576.294,-13087.851,-32976.688,-14961.589,9990.275
802447.1045860279,-77979.78,-61916.914,17647.258,5576.213,-13084.961,-32973.55,-14960.571,9989.584
802447.1085860232,-77982.016,-61915.977,17636.475,5572.754,-13095.785,-32974.406,-14962.851,9985.393
802447.1125860186,-77982.1,-61911.055,17632.732,5569.092,-13095.663,-32975.465,-14965.414,9981.527
802447.1165860139,-77983.08,-61911.34,17632.365,5567.2607,-13094.6455,-32974.285,-14963.135,9979.289
802447.1205860093,-77985.805,-61913.574,17637.818,5570.4346,-13093.832,-32975.383,-14964.274,9976.196
802447.1245860046,-77987.8,-61915.855,17636.639,5573.039,-13088.42,-32977.582,-14969.32,9970.947
802447.1285860001,-77988.94,-61914.348,17631.877,5572.1436,-13090.088,-32982.465,-14971.884,9960.856
802447.1325859954,-77993.82,-61913.94,17629.436,5569.377,-13089.03,-32983.848,-14969.89,9961.467
802447.1365859908,-77991.78,-61915.367,17633.545,5569.336,-13086.508,-32983.074,-14968.628,9963.339
802447.1405859861,-77991.54,-61920.74,17638.062,5570.7603,-13084.921,-32981.285,-14971.273,9961.548
802447.1445859815,-77990.805,-61922.85,17639.486,5572.5913,-13089.233,-32979.207,-14973.877,9949.707
802447.1485859768,-77988.37,-61914.758,17638.55,5575.7246,-13088.623,-32980.797,-14971.558,9951.986
802447.1525859722,-77995.445,-61911.094,17637.29,5574.0967,-13091.187,-32983.848,-14972.778,9953.573
802447.1565859675,-77988.77,-61909.223,17638.916,5572.876,-13086.996,-32984.133,-14974.854,9950.48
802447.1605859629,-77986.45,-61915.773,17645.02,5576.2534,-13081.543,-32982.91,-14978.068,9943.278
802447.1645859582,-77988.41,-61919.64,17645.428,5577.108,-13086.182,-32984.01,-14979.736,9948.364
802447.1685859537,-77986.78,-61914.836,17643.84,5575.9277,-13089.233,-32984.78,-14975.546,9956.909
802447.172585949,-77990.4,-61912.76,17638.266,5574.056,-13089.763,-32985.27,-14970.337,9959.758
802447.1765859444,-77987.14,-61914.55,17641.316,5573.161,-13086.223,-32981.69,-14965.861,9967.855
802447.1805859397,-77982.625,-61919.23,17646.607,5575.8057,-13080.7295,-32977.785,-14963.257,9968.588
802447.184585935,-77988.94,-61925.254,17639.404,5573.283,-13082.357,-32976.402,-14961.426,9965.698
802447.1885859304,-77996.26,-61927.043,17631.348,5569.336,-13089.804,-32978.23,-14959.799,9963.42
802447.1925859257,-78001.266,-61925.09,17624.756,5567.0576,-13098.186,-32979.9,-14957.397,9969.36
802447.1965859211,-78003.09,-61924.766,17630.656,5566.284,-13085.612,-32977.785,-14953.085,9974.569
802447.2005859164,-78001.14,-61924.684,17636.475,5569.621,-13075.888,-32973.39,-14947.0625,9979.655
802447.2045859118,-77998.945,-61924.93,17634.562,5571.411,-13081.543,-32970.62,-14945.517,9983.847
802447.2085859071,-77994.47,-61922.65,17629.518,5569.58,-13088.42,-32972.74,-14944.336,9979.33
802447.2125859025,-77997.32,-61921.43,17627.727,5566.5693,-13087.932,-32971.76,-14942.587,9979.98
802447.2165858978,-77996.38,-61918.785,17629.11,5566.6914,-13079.428,-32969.727,-14940.268,9979.452
802447.2205858933,-77997.64,-61924.97,17636.557,5567.79,-13076.945,-32969.08,-14941.447,9972.494
802447.2245858886,-77999.68,-61927.734,17637.654,5570.028,-13083.944,-32971.844,-14949.179,9963.786
802447.228585884,-77999.11,-61927.41,17635.01,5570.3125,-13087.321,-32974.69,-14954.387,9956.015
802447.2325858793,-77999.92,-61926.15,17631.877,5568.2783,-13082.153,-32975.504,-14952.312,9960.653
802447.2365858747,-77996.87,-61918.297,17633.098,5569.255,-13076.498,-32974.527,-14954.59,9958.008
802447.24058587,-77999.27,-61923.87,17635.783,5570.3535,-13072.185,-32973.55,-14960.368,9955.485
802447.2445858654,-77998.945,-61925.824,17638.225,5571.452,-13075.928,-32972.617,-14964.03,9950.317
802447.2485858607,-77994.875,-61923.26,17635.945,5572.754,-13085.368,-32975.223,-14964.641,9951.823
802447.2525858561,-77996.055,-61924.035,17628.174,5569.906,-13087.036,-32980.836,-14966.797,9947.592
802447.2565858514,-77998.09,-61923.79,17636.271,5571.167,-13081.747,-32980.797,-14968.222,9944.214
802447.2605858467,-77994.51,-61923.465,17647.584,5574.585,-13074.789,-32976.89,-14962.199,9953.207
802447.2645858421,-77988.445,-61924.074,17647.34,5578.369,-13079.265,-32975.504,-14956.299,9960.571
802447.2685858374,-77984.5,-61920.37,17642.172,5577.5557,-13080.038,-32975.914,-14950.969,9969.687
802447.2725858329,-77984.42,-61916.71,17636.11,5574.585,-13078.573,-32977.664,-14947.266,9967.937
802447.2765858282,-77985.15,-61918.62,17638.592,5571.859,-13076.294,-32975.75,-14946.33,9963.949
802447.2805858236,-77987.96,-61922.61,17641.316,5573.8525,-13077.759,-32974.246,-14948.405,9961.467
802447.2845858189,-77991.21,-61926.637,17638.143,5576.0093,-13084.066,-32976.562,-14947.348,9959.961
802447.2885858143,-77993.82,-61927.613,17636.027,5577.8,-13090.78,-32979.656,-14945.272,9962.606
802447.2925858096,-77990.07,-61924.562,17632.283,5576.782,-13089.641,-32980.387,-14941.162,9970.175
802447.296585805,-77991.58,-61926.23,17632.406,5575.399,-13087.321,-32976.81,-14937.094,9969.931
802447.3005858003,-77989.87,-61928.47,17639.242,5579.2646,-13084.351,-32973.676,-14936.809,9967.448
802447.3045857957,-77987.39,-61927.207,17639.607,5584.3506,-13087.606,-32972.21,-14938.11,9959.839
802447.308585791,-77985.68,-61929.08,17636.639,5584.2695,-13091.716,-32975.223,-14941.977,9955.607
802447.3125857865,-77984.91,-61922.0,17633.586,5581.0547,-13090.82,-32975.3,-14939.291,9960.043
802447.3165857818,-77984.5,-61921.875,17637.898,5578.532,-13090.048,-32974.69,-14940.756,9957.275
802447.3205857772,-77989.016,-61925.418,17641.725,5580.8105,-13087.118,-32970.543,-14941.895,9954.062
802447.3245857725,-77991.3,-61929.363,17635.336,5582.0312,-13087.973,-32969.645,-14946.94,9947.876
802447.3285857679,-77994.43,-61929.16,17630.941,5582.113,-13091.064,-32972.82,-14951.945,9943.075
802447.3325857632,-77993.57,-61924.727,17631.186,5580.9326,-13090.495,-32974.45,-14955.078,9944.052
802447.3365857585,-77987.14,-61924.44,17639.445,5583.8623,-13077.637,-32973.676,-14958.13,9943.808
802447.3405857539,-77982.016,-61924.887,17644.084,5587.4023,-13077.841,-32972.82,-14962.565,9938.477
802447.3445857492,-77982.586,-61924.887,17640.463,5587.484,-13086.996,-32975.14,-14968.506,9928.223
802447.3485857446,-77984.87,-61923.707,17640.707,5588.664,-13084.839,-32976.32,-14971.477,9928.63
802447.3525857399,-77985.96,-61919.027,17636.312,5588.9487,-13082.153,-32975.223,-14967.123,9935.344
802447.3565857353,-77981.33,-61919.64,17638.428,5588.0127,-13080.404,-32973.27,-14962.81,9944.987
802447.3605857306,-77983.766,-61924.805,17650.879,5590.088,-13081.015,-32970.543,-14961.264,9945.639
802447.364585726,-77981.49,-61927.043,17650.27,5590.21,-13081.828,-32968.426,-14960.856,9943.686
802447.3685857214,-77978.97,-61924.277,17638.51,5589.803,-13081.218,-32971.19,-14956.828,9945.028
802447.3725857168,-77981.2,-61921.957,17636.475,5589.3555,-13078.573,-32970.95,-14952.475,9951.498
802447.3765857121,-77980.836,-61921.633,17644.979,5589.3965,-13074.789,-32969.81,-14948.8125,9956.137
802447.3805857075,-77983.03,-61924.316,17654.826,5591.39,-13071.371,-32967.977,-14944.174,9957.113
802447.3845857028,-77983.36,-61927.168,17652.02,5593.7095,-13071.086,-32967.57,-14940.308,9955.7295
802447.3885856982,-77979.9,-61918.094,17642.049,5592.489,-13071.493,-32968.02,-14936.32,9957.113
802447.3925856935,-77979.58,-61916.547,17642.863,5590.5356,-13073.405,-32970.418,-14934.978,9955.526
802447.3965856889,-77979.33,-61917.117,17646.607,5591.675,-13075.236,-32967.734,-14929.973,9959.473
802447.4005856842,-77981.125,-61920.086,17650.758,5593.75,-13072.144,-32963.91,-14927.734,9958.415
802447.4045856796,-77982.75,-61925.824,17651.246,5593.994,-13071.167,-32962.605,-14928.671,9949.667
802447.408585675,-77979.54,-61920.695,17647.46,5594.1978,-13078.898,-32964.316,-14928.63,9950.195
802447.4125856702,-77980.02,-61918.38,17641.521,5593.628,-13083.13,-32965.332,-14928.955,9950.277
802447.4165856657,-77975.875,-61915.164,17643.352,5596.517,-13073.853,-32962.89,-14927.775,9950.317
802447.420585661,-77978.805,-61916.586,17649.781,5596.965,-13066.081,-32958.945,-14928.671,9948.486
802447.4245856564,-77983.56,-61919.312,17649.252,5596.965,-13068.604,-32959.27,-14931.112,9944.011
802447.4285856517,-77988.445,-61920.41,17637.086,5594.808,-13072.998,-32963.055,-14934.57,9940.552
802447.4325856471,-77983.56,-61916.383,17633.342,5592.489,-13068.115,-32965.7,-14936.523,9943.034
802447.4365856424,-77981.94,-61919.19,17640.951,5593.4653,-13063.232,-32964.926,-14939.697,9938.843
802447.4405856378,-77981.04,-61925.17,17654.785,5596.517,-13059.042,-32964.355,-14943.156,9936.157
802447.4445856331,-77977.7,-61925.09,17648.602,5598.8364,-13064.941,-32967.49,-14949.219,9929.362
802447.4485856285,-77976.484,-61921.715,17642.537,5599.6094,-13072.592,-32971.844,-14954.55,9932.007
802447.4525856238,-77978.6,-61918.297,17643.19,5597.7783,-13065.39,-32973.918,-14955.282,9933.391
802447.4565856192,-77976.85,-61920.29,17648.926,5597.738,-13067.627,-32973.43,-14950.847,9937.907
802447.4605856145,-77972.29,-61925.133,17655.193,5598.796,-13072.226,-32970.133,-14944.784,9948.527
802447.46458561,-77973.11,-61919.395,17653.768,5601.9287,-13070.72,-32968.344,-14942.668,9951.05
802447.4685856053,-77972.86,-61918.01,17647.502,5597.982,-13072.47,-32968.914,-14941.977,9950.766
802447.4725856007,-77973.88,-61920.086,17642.213,5594.32,-13073.283,-32970.34,-14937.907,9956.299
802447.476585596,-77980.1,-61922.04,17642.09,5591.146,-13074.179,-32967.9,-14931.601,9962.24
802447.4805855913,-77981.85,-61928.348,17647.787,5593.0176,-13068.604,-32965.535,-14928.386,9963.705
802447.4845855867,-77982.47,-61932.742,17649.537,5594.6045,-13070.272,-32966.066,-14928.264,9956.828
802447.488585582,-77984.21,-61930.586,17642.13,5590.6577,-13072.958,-32969.08,-14927.043,9959.473
802447.4925855774,-77981.2,-61926.84,17643.066,5591.024,-13070.272,-32967.45,-14924.887,9959.025
802447.4965855727,-77978.6,-61924.6,17647.664,5591.146,-13063.477,-32964.152,-14922.323,9960.368
802447.5005855681,-77979.695,-61928.633,17651.408,5591.7563,-13060.344,-32961.266,-14923.178,9957.113
802447.5045855634,-77982.34,-61931.4,17648.846,5592.407,-13064.494,-32961.062,-14926.799,9952.312
802447.5085855589,-77983.03,-61931.438,17644.37,5588.9893,-13076.172,-32966.105,-14931.56,9948.527
802447.5125855542,-77987.305,-61932.414,17639.404,5587.4023,-13072.958,-32970.297,-14935.466,9946.005
802447.5165855496,-77994.34,-61935.1,17641.236,5586.711,-13067.505,-32969.363,-14935.547,9942.871
802447.5205855449,-78001.586,-61940.555,17650.35,5588.2163,-13065.959,-32967.977,-14939.087,9939.006
802447.5245855403,-77996.3,-61940.758,17649.293,5591.7563,-13063.884,-32965.09,-14943.481,9932.983
802447.5285855356,-77995.89,-61940.555,17640.748,5587.8096,-13065.023,-32966.15,-14945.639,9928.101
802447.532585531,-77999.27,-61945.56,17632.61,5583.415,-13073.894,-32968.63,-14948.935,9919.312
802447.5365855263,-78003.09,-61941.45,17636.434,5583.4556,-13076.945,-32967.0,-14948.161,9915.202
802447.5405855217,-78007.65,-61946.168,17639.324,5584.2285,-13069.255,-32965.13,-14950.155,9913.452
802447.544585517,-78006.35,-61951.215,17633.504,5586.0596,-13069.621,-32964.64,-14950.684,9914.511
802447.5485855124,-77999.76,-61946.7,17629.72,5587.4023,-13068.604,-32967.977,-14952.393,9912.069
802447.5525855077,-77999.72,-61944.703,17626.1,5584.3506,-13068.93,-32972.086,-14956.503,9907.919
802447.556585503,-77996.55,-61938.684,17636.678,5586.3037,-13063.07,-32972.25,-14950.48,9919.556
802447.5605854985,-77993.86,-61936.81,17644.002,5590.129,-13052.816,-32968.63,-14945.517,9923.828
802447.5645854938,-77996.3,-61939.13,17643.963,5590.2915,-13053.02,-32967.41,-14942.709,9923.259
802447.5685854892,-78003.3,-61943.2,17634.645,5587.5654,-13057.699,-32969.08,-14940.227,9923.503
802447.5725854845,-78005.13,-61941.125,17628.297,5583.74,-13057.007,-32970.543,-14935.263,9926.88
802447.5765854799,-78001.06,-61941.0,17628.785,5582.5195,-13061.035,-32967.49,-14928.671,9931.112
802447.5805854752,-78000.77,-61945.56,17636.475,5584.3506,-13059.001,-32963.22,-14923.584,9931.885
802447.5845854706,-78000.66,-61949.14,17639.73,5587.7686,-13057.739,-32960.33,-14919.108,9938.3955
802447.5885854659,-77996.586,-61944.215,17634.115,5587.5654,-13065.1045,-32963.176,-14916.708,9939.169
802447.5925854613,-77993.0,-61938.234,17633.709,5585.246,-13060.588,-32966.39,-14914.0625,9940.023
