timestamp,Fp1,Fp2,F3,Fz,F4,Cz,Pz,Oz
801714.3254368528,-48352.094,-56004.926,-29430.46,-9450.48,-36208.78,-38840.008,-53011.23,-13970.785
801714.3294368482,-48354.777,-56007.977,-29430.217,-9450.521,-36212.363,-38841.31,-53012.332,-13973.022
801714.3334368435,-48352.664,-56003.5,-29425.537,-9448.283,-36212.117,-38842.33,-53013.43,-13977.051
801714.3374368388,-48348.27,-56001.223,-29420.492,-9446.899,-36206.91,-38842.977,-53011.844,-13981.608
801714.3414368342,-48348.836,-56005.332,-29415.936,-9443.645,-36205.28,-38840.902,-53010.01,-13984.009
801714.3454368295,-48349.977,-56004.477,-29416.342,-9443.441,-36204.793,-38840.414,-53013.227,-13987.956
801714.3494368249,-48351.81,-56006.105,-29417.848,-9445.476,-36207.316,-38842.45,-53016.562,-13999.716
801714.3534368202,-48356.57,-56012.13,-29419.15,-9445.883,-36211.59,-38842.855,-53018.68,-14003.256
801714.3574368156,-48360.434,-56016.93,-29423.707,-9447.998,-36212.242,-38842.125,-53021.973,-14017.05
801714.3614368109,-48361.9,-56015.79,-29425.945,-9450.033,-36211.305,-38841.51,-53021.61,-14024.536
801714.3654368063,-48362.67,-56015.707,-29425.13,-9449.87,-36210.938,-38840.496,-53017.17,-14026.205
801714.3694368016,-48364.504,-56017.906,-29425.416,-9449.951,-36210.9,-38840.375,-53012.94,-14026.978
801714.3734367971,-48364.34,-56016.645,-29427.287,-9450.603,-36210.207,-38840.375,-53009.688,-14029.338
801714.3774367924,-48361.25,-56013.55,-29426.758,-9449.341,-36206.87,-38840.74,-53005.78,-14025.676
801714.3814367878,-48360.84,-56011.516,-29425.986,-9448.649,-36206.42,-38838.38,-52997.195,-14015.585
801714.3854367831,-48364.83,-56015.26,-29428.834,-9449.26,-36205.324,-38835.777,-52995.484,-14016.154
801714.3894367785,-48369.63,-56019.37,-29433.39,-9450.195,-36204.996,-38836.223,-52997.113,-14019.491
801714.3934367738,-48377.363,-56025.84,-29439.576,-9454.224,-36208.945,-38837.445,-53001.793,-14022.217
801714.3974367692,-48379.438,-56026.98,-29443.768,-9455.811,-36212.08,-38839.887,-53005.414,-14024.577
801714.4014367645,-48375.734,-56021.77,-29443.28,-9455.648,-36207.156,-38843.59,-53007.977,-14022.583
801714.4054367599,-48370.85,-56017.336,-29436.85,-9453.166,-36204.875,-38846.723,-53008.223,-14020.061
801714.4094367552,-48364.83,-56011.273,-29431.316,-9450.644,-36202.066,-38847.535,-53009.117,-14015.869
801714.4134367505,-48357.91,-56004.723,-29428.916,-9446.737,-36195.273,-38847.25,-53007.69,-14015.544
801714.417436746,-48356.773,-56004.52,-29424.928,-9446.452,-36193.93,-38845.34,-53004.03,-14012.004
801714.4214367412,-48358.727,-56002.973,-29421.875,-9446.696,-36194.297,-38842.855,-52999.715,-14008.545
801714.4254367367,-48360.555,-56006.88,-29421.387,-9446.574,-36194.336,-38839.56,-52996.785,-14007.8125
801714.429436732,-48363.484,-56011.438,-29422.242,-9449.26,-36197.67,-38837.527,-52995.85,-14007.324
801714.4334367274,-48367.88,-56016.195,-29422.404,-9451.782,-36201.05,-38838.95,-52997.07,-14012.289
801714.4374367227,-48370.242,-56019.9,-29420.451,-9451.294,-36203.656,-38840.496,-52999.39,-14020.874
801714.4414367181,-48373.496,-56023.805,-29420.533,-9450.766,-36206.992,-38838.95,-53003.094,-14029.867
801714.4454367134,-48377.484,-56027.223,-29418.906,-9450.969,-36208.496,-38839.152,-53004.234,-14036.377
801714.4494367088,-48382.367,-56029.258,-29423.178,-9451.823,-36211.996,-38839.6,-53003.297,-14044.597
801714.4534367041,-48384.848,-56031.17,-29426.23,-9454.265,-36215.457,-38840.21,-53001.71,-14050.944
801714.4574366995,-48385.867,-56033.285,-29429.404,-9455.648,-36212.81,-38839.48,-52998.7,-14057.861
801714.4614366948,-48388.594,-56036.094,-29433.025,-9458.456,-36212.605,-38838.297,-52995.242,-14058.432
801714.4654366903,-48390.137,-56036.297,-29435.71,-9458.903,-36213.625,-38837.242,-52992.312,-14060.751
801714.4694366856,-48393.516,-56038.7,-29439.617,-9459.921,-36215.78,-38835.33,-52990.234,-14060.1
801714.473436681,-48399.375,-56041.75,-29442.709,-9460.531,-36215.375,-38836.305,-52991.78,-14060.222
801714.4774366763,-48399.336,-56039.51,-29442.791,-9458.944,-36214.273,-38840.7,-52993.45,-14018.188
801714.4814366716,-48395.67,-56036.543,-29440.268,-9456.218,-36212.402,-38844.035,-52996.91,-13950.766
801714.485436667,-48393.19,-56033.164,-29435.914,-9455.078,-36213.504,-38847.332,-53001.63,-13898.153
801714.4894366623,-48389.445,-56032.88,-29430.625,-9454.712,-36212.73,-38849.977,-53004.598,-13853.964
801714.4934366577,-48389.04,-56031.09,-29431.682,-9455.893,-36213.46,-38850.26,-53006.39,-13841.838
801714.497436653,-48387.82,-56029.707,-29432.293,-9455.852,-36214.684,-38852.5,-53009.89,-13834.88
801714.5014366484,-48384.688,-56027.957,-29432.008,-9454.753,-36211.832,-38854.13,-53016.195,-13842.773
801714.5054366437,-48384.93,-56024.09,-29435.996,-9454.997,-36208.17,-38854.535,-53018.72,-13840.088
801714.5094366391,-48385.582,-56023.48,-29436.89,-9455.648,-36208.375,-38852.99,-53019.492,-13834.392
801714.5134366344,-48390.383,-56027.793,-29439.373,-9458.781,-36210.695,-38852.133,-53021.484,-13830.241
801714.5174366299,-48394.9,-56027.957,-29445.639,-9458.944,-36209.96,-38850.87,-53023.52,-13832.316
801714.5214366252,-48398.195,-56029.016,-29448.812,-9461.345,-36208.984,-38848.797,-53025.066,-13833.171
801714.5254366206,-48398.277,-56030.113,-29444.744,-9460.693,-36209.15,-38846.19,-53022.83,-13833.456
801714.5294366159,-48400.312,-56033.33,-29444.744,-9463.135,-36213.176,-38845.703,-53021.566,-13837.484
801714.5334366113,-48399.375,-56034.59,-29442.424,-9462.769,-36215.78,-38845.62,-53018.23,-13834.27
801714.5374366066,-48399.336,-56034.18,-29440.064,-9462.362,-36216.39,-38845.83,-53015.26,-13835.775
801714.541436602,-48400.312,-56033.043,-29440.227,-9461.996,-36217.69,-38845.34,-53012.25,-13837.362
801714.5454365973,-48401.125,-56032.31,-29440.879,-9459.595,-36216.434,-38845.703,-53007.61,-13835.083
801714.5494365927,-48401.57,-56033.082,-29440.879,-9460.531,-36214.438,-38842.855,-52997.6,-13829.0205
801714.553436588,-48402.14,-56034.06,-29440.918,-9463.298,-36215.496,-38839.07,-52989.055,-13825.073
801714.5574365833,-48402.344,-56034.387,-29440.838,-9466.513,-36217.125,-38836.63,-52984.254,-13826.66
801714.5614365787,-48404.83,-56035.81,-29443.645,-9468.303,-36217.49,-38834.15,-52979.617,-13830.607
801714.565436574,-48405.477,-56035.035,-29443.28,-9466.716,-36218.1,-38832.848,-52976.81,-13834.636
801714.5694365695,-48407.15,-56034.793,-29444.662,-9468.71,-36217.125,-38832.48,-52975.508,-13833.293
801714.5734365648,-48408.043,-56034.71,-29443.848,-9468.181,-36217.0,-38829.633,-52972.008,-13822.958
801714.5774365602,-48407.88,-56032.39,-29446.656,-9466.35,-36214.76,-38831.055,-52974.082,-13828.898
801714.5814365555,-48407.023,-56030.273,-29448.08,-9465.983,-36210.777,-38832.684,-52977.133,-13837.851
801714.5854365509,-48404.664,-56026.53,-29447.186,-9463.013,-36205.406,-38832.562,-52977.54,-13826.864
801714.5894365462,-48407.555,-56029.297,-29447.592,-9463.949,-36209.637,-38838.34,-52984.58,-13830.852
801714.5934365416,-48406.332,-56028.973,-29444.336,-9462.443,-36212.934,-38842.246,-52991.62,-13835.043
801714.5974365369,-48405.113,-56027.875,-29443.604,-9460.612,-36210.367,-38843.344,-52995.445,-13832.927
801714.6014365323,-48400.92,-56024.21,-29437.217,-9456.909,-36208.742,-38843.914,-53000.613,-13838.786
801714.6054365276,-48398.277,-56022.055,-29435.1,-9454.102,-36207.52,-38845.38,-53006.633,-13845.134
801714.609436523,-48396.28,-56020.184,-29433.594,-9451.782,-36205.28,-38846.926,-53011.965,-13849.04
801714.6134365184,-48395.957,-56018.555,-29429.363,-9451.05,-36208.496,-38848.676,-53014.406,-13856.12
801714.6174365138,-48397.3,-56019.94,-29437.379,-9453.9795,-36209.188,-38850.547,-53015.18,-13863.811
801714.6214365091,-48400.92,-56020.793,-29441.0,-9454.916,-36207.926,-38850.79,-53015.137,-13862.753
801714.6254365045,-48400.637,-56020.02,-29440.39,-9453.9795,-36204.715,-38848.062,-53015.42,-13860.2295
801714.6294364998,-48398.848,-56022.91,-29439.17,-9454.712,-36207.848,-38849.246,-53019.9,-13867.351
801714.6334364951,-48396.08,-56022.992,-29437.541,-9453.207,-36209.758,-38848.797,-53022.42,-13874.268
801714.6374364905,-48389.895,-56013.836,-29432.658,-9450.644,-36207.926,-38848.88,-53023.152,-13877.808
801714.6414364858,-48384.645,-56010.01,-29426.514,-9449.707,-36202.066,-38848.51,-53023.316,-13882.324
801714.6454364812,-48380.047,-56004.52,-29427.775,-9449.545,-36201.58,-38849.164,-53021.934,-13884.766
801714.6494364765,-48382.734,-56010.5,-29425.293,-9451.538,-36200.93,-38848.918,-53019.492,-13890.381
801714.6534364719,-48366.78,-55983.24,-29426.596,-9446.899,-36193.2,-38849.285,-53020.184,-13899.943
801714.6574364672,-48348.227,-55968.957,-29428.346,-9442.79,-36192.26,-38848.836,-53019.777,-13903.076
801714.6614364627,-48348.555,-55966.434,-29427.287,-9440.552,-36191.49,-38847.453,-53021.812,-13910.645
801714.665436458,-48342.082,-55958.742,-29425.375,-9437.297,-36187.38,-38846.11,-53022.258,-13916.708
801714.6694364534,-48326.17,-55943.89,-29424.805,-9435.466,-36182.535,-38850.344,-53030.64,-13931.152
801714.6734364487,-48309.9,-55924.887,-29422.812,-9433.31,-36175.418,-38852.215,-53034.71,-13937.744
801714.6774364441,-48300.418,-55913.168,-29419.068,-9431.723,-36172.28,-38852.785,-53036.664,-13941.61
801714.6814364394,-48289.43,-55900.84,-29418.498,-9429.81,-36165.73,-38854.41,-53039.473,-13945.557
801714.6854364348,-48274.21,-55885.418,-29417.48,-9425.537,-36158.734,-38857.586,-53042.156,-13945.557
801714.6894364301,-48262.168,-55873.047,-29412.273,-9420.329,-36153.688,-38859.375,-53045.41,-13944.824
801714.6934364255,-48252.402,-55856.977,-29413.453,-9417.074,-36147.137,-38860.758,-53050.703,-13945.231
801714.6974364208,-48242.027,-55848.35,-29409.303,-9414.755,-36145.996,-38863.16,-53055.707,-13957.602
801714.7014364162,-48241.254,-55860.23,-29405.396,-9415.731,-36150.39,-38863.812,-53061.16,-13967.8955
801714.7054364115,-48232.465,-55850.465,-29410.768,-9414.999,-36147.95,-38864.3,-53063.965,-13976.481
801714.7094364068,-48226.89,-55844.973,-29411.094,-9415.121,-36145.793,-38865.113,-53066.043,-13986.816
801714.7134364023,-48218.14,-55837.08,-29410.482,-9415.039,-36146.61,-38864.46,-53060.1,-13983.643
801714.7174363976,-48215.496,-55835.207,-29406.576,-9414.633,-36146.16,-38863.895,-53055.016,-13980.673
801714.721436393,-48211.184,-55827.598,-29406.535,-9414.307,-36140.79,-38861.86,-53051.96,-13979.94
801714.7254363883,-48205.324,-55822.633,-29407.879,-9411.906,-36139.0,-38857.586,-53047.527,-13978.3125
801714.7294363837,-48201.094,-55816.406,-29407.676,-9412.354,-36138.67,-38855.67,-53045.613,-13981.567
801714.733436379,-48191.082,-55809.082,-29405.723,-9412.15,-36136.56,-38855.67,-53043.5,-13977.499
801714.7374363744,-48189.453,-55808.516,-29407.023,-9413.005,-36139.285,-38857.06,-53044.598,-13983.725
801714.7414363697,-48186.934,-55805.707,-29403.037,-9412.517,-36140.543,-38855.67,-53043.17,-13984.416
801714.7454363651,-48177.734,-55796.266,-29395.672,-9410.727,-36137.574,-38854.82,-53041.832,-13982.707
801714.7494363604,-48173.098,-55789.27,-29395.387,-9406.616,-36132.0,-38851.81,-53036.906,-13978.72
801714.7534363559,-48169.637,-55786.867,-29394.084,-9403.442,-36129.355,-38850.26,-53034.02,-13979.818
801714.7574363512,-48167.32,-55782.15,-29394.37,-9404.175,-36128.297,-38852.867,-53036.336,-13988.159
801714.7614363466,-48162.52,-55775.188,-29394.613,-9400.92,-36124.594,-38853.72,-53037.07,-13990.112
801714.7654363419,-48160.566,-55770.836,-29395.225,-9401.815,-36123.617,-38853.965,-53037.395,-13986.9795
801714.7694363373,-48159.87,-55771.16,-29391.357,-9402.263,-36127.28,-38853.598,-53037.395,-13987.875
801714.7734363326,-48163.332,-55772.625,-29395.916,-9405.273,-36129.8,-38854.004,-53041.06,-13990.927
801714.777436328,-48162.395,-55768.598,-29396.16,-9404.582,-36129.64,-38852.62,-53040.04,-13989.462
801714.7814363233,-48152.266,-55759.24,-29390.422,-9401.53,-36127.36,-38850.465,-53036.418,-13980.713
801714.7854363186,-48153.484,-55759.848,-29391.074,-9400.839,-36128.582,-38850.63,-53037.68,-13981.689
801714.789436314,-48158.53,-55764.082,-29393.475,-9403.728,-36130.168,-38850.87,-53037.68,-13992.106
801714.7934363093,-48158.33,-55763.957,-29391.643,-9404.704,-36130.86,-38849.164,-53038.496,-13996.257
801714.7974363047,-48151.29,-55755.902,-29391.643,-9401.652,-36127.36,-38848.105,-53040.164,-13999.187
801714.8014363,-48147.664,-55752.566,-29395.834,-9398.56,-36125.043,-38848.348,-53039.836,-13999.797
801714.8054362955,-48150.473,-55755.984,-29393.76,-9399.943,-36126.02,-38849.773,-53040.57,-14003.296
801714.8094362908,-48151.98,-55755.293,-29393.963,-9400.839,-36128.133,-38851.89,-53042.277,-14012.004
801714.8134362862,-48146.61,-55750.613,-29390.707,-9401.693,-36127.89,-38853.844,-53040.855,-14009.726
801714.8174362815,-48139.73,-55744.836,-29389.242,-9400.635,-36126.1,-38853.312,-53038.29,-14006.877
801714.8214362769,-48140.383,-55743.086,-29387.004,-9399.048,-36125.734,-38851.81,-53035.93,-14002.6045
801714.8254362722,-48138.67,-55741.457,-29385.05,-9399.252,-36127.727,-38851.277,-53033.895,-13999.105
801714.8294362676,-48140.91,-55747.152,-29385.01,-9401.53,-36130.94,-38850.79,-53032.227,-13999.39
801714.8334362629,-48142.293,-55751.547,-29384.197,-9401.327,-36131.266,-38850.79,-53032.918,-14006.145
801714.8374362583,-48141.035,-55749.594,-29383.098,-9398.845,-36130.13,-38847.496,-53032.31,-14009.033
801714.8414362536,-48139.12,-55747.438,-29382.895,-9397.38,-36129.76,-38846.477,-53036.664,-14011.841
801714.845436249,-48144.004,-55752.24,-29384.645,-9399.943,-36131.836,-38845.38,-53039.023,-14013.103
801714.8494362443,-48150.516,-55758.383,-29390.79,-9403.198,-36133.098,-38847.332,-53039.51,-14011.801
801714.8534362396,-48148.64,-55755.37,-29390.342,-9401.733,-36129.8,-38849.49,-53039.43,-14011.3125
801714.8574362351,-48149.254,-55756.918,-29390.26,-9402.06,-36129.234,-38851.156,-53037.438,-14010.824
801714.8614362304,-48148.766,-55757.285,-29390.748,-9402.06,-36129.64,-38850.992,-53035.566,-14006.43
801714.8654362258,-48151.53,-55759.973,-29389.812,-9401.327,-36132.164,-38849.652,-53037.395,-14012.207
801714.8694362211,-48152.754,-55759.93,-29389.242,-9402.954,-36133.707,-38849.04,-53041.75,-14021.362
801714.8734362165,-48151.246,-55756.39,-29389.61,-9403.605,-36133.953,-38849.61,-53045.41,-14026.611
801714.8774362118,-48153.73,-55761.56,-29391.398,-9404.46,-36134.684,-38848.88,-53044.72,-14029.704
801714.8814362072,-48155.07,-55765.06,-29388.104,-9405.192,-36134.848,-38846.926,-53044.883,-14028.483
801714.8854362025,-48153.035,-55759.2,-29385.336,-9400.92,-36132.938,-38847.168,-53044.8,-14027.507
801714.8894361979,-48155.64,-55760.133,-29388.55,-9401.733,-36133.465,-38850.953,-53046.633,-14028.28
801714.8934361932,-48157.35,-55761.19,-29386.436,-9402.1,-36133.504,-38853.07,-53050.496,-14034.018
801714.8974361887,-48157.715,-55759.89,-29391.725,-9403.605,-36132.773,-38853.152,-53050.293,-14034.424
801714.901436184,-48155.887,-55756.758,-29392.701,-9404.175,-36130.86,-38851.562,-53049.887,-14031.454
801714.9054361794,-48154.46,-55756.797,-29393.88,-9403.036,-36130.496,-38851.074,-53048.055,-14028.483
801714.9094361747,-48157.227,-55761.152,-29397.46,-9404.541,-36133.87,-38852.99,-53049.97,-14031.128
801714.9134361701,-48152.184,-55758.223,-29392.945,-9401.245,-36131.227,-38854.332,-53055.098,-14042.807
801714.9174361654,-48149.7,-55753.137,-29392.62,-9400.473,-36128.5,-38855.227,-53055.504,-14045.776
801714.9214361608,-48150.105,-55754.477,-29389.812,-9401.205,-36131.062,-38854.492,-53052.492,-14044.434
801714.9254361561,-48153.363,-55754.883,-29391.521,-9404.175,-36132.812,-38852.215,-53045.574,-14039.348
801714.9294361514,-48156.047,-55755.86,-29391.928,-9406.413,-36134.402,-38847.656,-53037.477,-14032.349
801714.9334361468,-48160.28,-55758.26,-29392.457,-9407.715,-36134.684,-38844.402,-53031.414,-14025.879
801714.9374361421,-48156.863,-55756.594,-29388.957,-9405.803,-36133.586,-38844.035,-53032.473,-14031.006
801714.9414361375,-48151.734,-55752.65,-29384.238,-9401.896,-36131.023,-38845.62,-53033.285,-14028.483
801714.9454361328,-48147.34,-55746.625,-29381.43,-9400.351,-36126.996,-38846.438,-53033.406,-14029.582
801714.9494361283,-48146.324,-55745.73,-29383.668,-9398.52,-36124.797,-38846.316,-53032.27,-14029.989
801714.9534361236,-48152.754,-55752.688,-29386.76,-9400.92,-36126.547,-38847.293,-53032.715,-14036.296
801714.957436119,-48152.426,-55752.605,-29388.266,-9399.658,-36122.113,-38846.477,-53034.344,-14040.487
801714.9614361143,-48153.89,-55752.16,-29389.486,-9400.269,-36121.91,-38847.13,-53037.19,-14040.446
801714.9654361097,-48158.652,-55756.066,-29391.928,-9400.92,-36122.684,-38847.25,-53036.867,-14038.127
801714.969436105,-48161.258,-55755.82,-29394.287,-9400.676,-36122.4,-38847.94,-53038.29,-14038.452
801714.9734361004,-48163.535,-55757.203,-29394.572,-9400.513,-36122.316,-38850.504,-53043.05,-14044.638
801714.9774360957,-48166.465,-55759.605,-29395.793,-9398.886,-36120.484,-38852.336,-53045.82,-14053.345
801714.9814360911,-48165.73,-55758.508,-29394.248,-9397.787,-36118.33,-38853.434,-53048.016,-14060.507
801714.9854360864,-48161.01,-55754.234,-29390.178,-9395.752,-36116.617,-38851.074,-53046.43,-14059.448
801714.9894360818,-48157.105,-55751.387,-29386.963,-9394.613,-36117.84,-38850.465,-53045.086,-14059.896
801714.9934360771,-48156.617,-55750.285,-29384.93,-9395.427,-36118.734,-38849.938,-53043.582,-14061.117
801714.9974360726,-48156.17,-55750.0,-29386.639,-9394.897,-36115.723,-38851.645,-53043.66,-14060.629
801715.0014360679,-48154.91,-55747.844,-29384.441,-9392.66,-36112.957,-38852.867,-53042.97,-14061.768
801715.0054360632,-48152.754,-55743.98,-29381.348,-9390.056,-36110.72,-38851.93,-53041.18,-14058.594
801715.0094360586,-48152.184,-55744.55,-29379.03,-9389.893,-36112.266,-38851.766,-53041.668,-14065.674
801715.0134360539,-48157.35,-55748.984,-29382.365,-9392.782,-36116.17,-38851.402,-53042.156,-14068.686
801715.0174360493,-48159.344,-55750.652,-29385.459,-9393.474,-36115.97,-38850.098,-53041.22,-14069.174
801715.0214360446,-48159.668,-55751.547,-29387.656,-9394.613,-36116.21,-38849.0,-53041.87,-14072.632
801715.02543604,-48160.28,-55751.14,-29388.389,-9394.775,-36117.473,-38849.04,-53041.18,-14076.416
801715.0294360353,-48161.5,-55751.914,-29387.371,-9394.043,-36118.082,-38848.88,-53040.69,-14076.782
801715.0334360307,-48161.418,-55753.95,-29386.027,-9393.148,-36118.734,-38850.79,-53041.06,-14082.316
801715.037436026,-48161.38,-55753.543,-29380.576,-9392.375,-36120.65,-38851.402,-53038.984,-14081.991
801715.0414360214,-48160.2,-55750.164,-29375.0,-9391.724,-36116.375,-38849.367,-53034.06,-14074.504
801715.0454360167,-48159.426,-55748.78,-29380.412,-9395.183,-36114.586,-38848.715,-53031.78,-14069.662
801715.0494360122,-48159.06,-55747.52,-29384.848,-9396.606,-36116.457,-38849.45,-53032.918,-14072.632
801715.0534360075,-48160.44,-55749.15,-29385.174,-9397.095,-36118.004,-38848.918,-53034.18,-14072.673
801715.0574360029,-48163.496,-55753.055,-29383.383,-9397.217,-36116.824,-38848.836,-53036.582,-14079.956
801715.0614359982,-48165.406,-55753.297,-29383.79,-9396.729,-36117.555,-38848.43,-53039.715,-14094.931
801715.0654359936,-48167.605,-55752.605,-29385.174,-9396.118,-36116.09,-38847.008,-53039.676,-14098.755
801715.0694359889,-48165.57,-55749.96,-29385.865,-9394.084,-36115.97,-38847.496,-53038.414,-14096.191
801715.0734359843,-48163.617,-55748.66,-29386.027,-9392.497,-36113.12,-38848.633,-53038.574,-14097.006
801715.0774359796,-48160.523,-55747.113,-29385.254,-9389.893,-36110.15,-38850.26,-53035.402,-14093.059
801715.0814359749,-48157.188,-55745.363,-29382.895,-9389.323,-36107.83,-38851.156,-53034.547,-14091.675
801715.0854359703,-48154.785,-55743.086,-29383.22,-9387.248,-36104.98,-38849.938,-53032.676,-14088.745
801715.0894359656,-48155.03,-55743.37,-29383.79,-9387.167,-36105.918,-38849.527,-53031.293,-14090.21
801715.093435961,-48157.797,-55745.973,-29384.238,-9388.794,-36109.58,-38849.164,-53035.605,-14097.941
801715.0974359564,-48160.36,-55745.605,-29383.424,-9389.079,-36109.133,-38849.12,-53039.105,-14104.045
801715.1014359518,-48155.76,-55742.72,-29383.139,-9386.963,-36109.09,-38850.75,-53044.23,-14107.666
801715.1054359471,-48158.977,-55745.04,-29384.441,-9387.736,-36111.816,-38850.953,-53047.203,-14111.369
801715.1094359425,-48164.594,-55749.797,-29383.75,-9389.445,-36109.66,-38849.04,-53046.51,-14114.828
801715.1134359378,-48166.383,-55750.367,-29385.05,-9389.404,-36109.58,-38850.383,-53046.145,-14112.997
801715.1174359332,-48167.195,-55751.63,-29386.354,-9390.422,-36111.33,-38851.523,-53045.453,-14115.642
801715.1214359285,-48168.01,-55750.734,-29384.156,-9388.591,-36111.125,-38850.75,-53042.277,-14112.183
801715.1254359239,-48165.977,-55749.434,-29383.912,-9387.492,-36109.375,-38851.48,-53040.242,-14109.497
801715.1294359192,-48165.938,-55747.48,-29384.562,-9386.882,-36107.91,-38851.97,-53039.51,-14109.335
801715.1334359146,-48167.562,-55747.03,-29382.895,-9387.777,-36108.277,-38853.11,-53041.63,-14115.479
801715.13743591,-48169.312,-55749.434,-29386.068,-9387.98,-36110.84,-38853.19,-53042.848,-14119.955
801715.1414359054,-48169.598,-55748.332,-29388.51,-9388.754,-36110.066,-38852.785,-53043.457,-14120.972
801715.1454359007,-48172.203,-55749.88,-29386.436,-9389.445,-36112.266,-38850.953,-53042.645,-14123.901
801715.1494358961,-48171.387,-55751.63,-29382.977,-9389.893,-36115.926,-38849.406,-53039.836,-14124.1455
801715.1534358914,-48170.656,-55753.258,-29382.773,-9392.416,-36115.805,-38848.96,-53039.188,-14123.169
801715.1574358867,-48167.562,-55753.625,-29384.115,-9391.643,-36116.7,-38848.55,-53035.44,-14122.355
801715.1614358821,-48164.754,-55751.06,-29377.89,-9387.98,-36113.28,-38846.926,-53032.715,-14125.61
801715.1654358774,-48164.715,-55748.293,-29378.135,-9386.475,-36109.254,-38849.164,-53032.88,-14132.243
801715.1694358728,-48166.344,-55750.043,-29378.582,-9384.481,-36108.4,-38851.24,-53038.535,-14142.7
801715.1734358681,-48172.242,-55754.234,-29382.041,-9386.882,-36112.71,-38855.062,-53049.074,-14157.431
801715.1774358635,-48173.26,-55754.07,-29387.574,-9386.963,-36113.242,-38859.01,-53057.617,-14167.399
801715.1814358588,-48174.277,-55755.168,-29387.168,-9389.404,-36114.383,-38860.84,-53060.508,-14169.882
801715.1854358542,-48173.668,-55756.39,-29386.76,-9391.317,-36116.457,-38860.637,-53057.945,-14170.085
801715.1894358495,-48173.625,-55756.633,-29386.924,-9390.381,-36115.36,-38857.06,-53053.71,-14166.138
801715.193435845,-48176.027,-55756.27,-29390.422,-9391.154,-36113.324,-38856.773,-53050.215,-14157.39
801715.1974358403,-48175.54,-55753.99,-29392.13,-9391.806,-36111.168,-38855.957,-53048.18,-14155.314
801715.2014358357,-48175.945,-55753.582,-29394.41,-9392.09,-36109.863,-38855.145,-53045.613,-14152.426
801715.205435831,-48177.043,-55754.723,-29393.596,-9392.05,-36110.19,-38855.266,-53045.332,-14156.088
801715.2094358264,-48177.734,-55754.64,-29395.143,-9392.334,-36107.098,-38855.47,-53045.656,-14156.413
801715.2134358217,-48174.03,-55749.88,-29395.387,-9389.526,-36104.13,-38854.25,-53044.72,-14158.366
801715.2174358171,-48171.875,-55747.316,-29392.334,-9390.097,-36100.63,-38856.895,-53047.527,-14172.812
801715.2214358124,-48171.227,-55748.375,-29389.527,-9389.73,-36103.68,-38854.94,-53046.754,-14175.863
801715.2254358078,-48175.945,-55752.24,-29388.916,-9389.73,-36107.26,-38853.516,-53045.086,-14174.154
801715.2294358031,-48177.45,-55753.746,-29388.713,-9390.585,-36113.324,-38852.094,-53043.01,-14174.968
801715.2334357984,-48175.293,-55754.723,-29384.93,-9389.486,-36111.125,-38850.87,-53039.594,-14173.056
801715.2374357939,-48174.156,-55755.86,-29384.197,-9391.032,-36112.145,-38851.277,-53041.832,-14173.747
801715.2414357892,-48176.312,-55755.293,-29385.824,-9392.741,-36112.223,-38851.32,-53045.086,-14175.497
801715.2454357846,-48176.516,-55752.523,-29387.045,-9390.829,-36110.312,-38852.215,-53045.94,-14178.508
801715.2494357799,-48174.684,-55750.043,-29384.889,-9390.951,-36106.65,-38854.168,-53046.023,-14180.258
801715.2534357753,-48170.74,-55748.78,-29382.0,-9389.323,-36104.617,-38852.703,-53041.63,-14181.152
801715.2574357706,-48171.023,-55748.13,-29384.441,-9389.12,-36104.82,-38851.156,-53042.156,-14188.3545
801715.261435766,-48175.496,-55751.26,-29385.906,-9390.422,-36103.516,-38851.81,-53043.582,-14191.366
801715.2654357613,-48177.98,-55754.07,-29388.55,-9392.131,-36104.777,-38848.715,-53041.18,-14189.372
801715.2694357567,-48177.45,-55754.438,-29391.846,-9392.578,-36107.383,-38847.13,-53041.707,-14190.959
801715.273435752,-48179.566,-55756.88,-29392.457,-9394.125,-36109.54,-38847.574,-53042.277,-14192.139
801715.2774357474,-48180.22,-55755.414,-29390.625,-9394.369,-36110.516,-38848.96,-53041.87,-14188.64
801715.2814357427,-48180.707,-55756.105,-29388.348,-9392.578,-36110.27,-38848.918,-53040.895,-14186.605
801715.2854357382,-48178.348,-55753.215,-29391.113,-9390.422,-36104.25,-38846.152,-53039.023,-14184.611
801715.2894357335,-48177.574,-55750.33,-29391.521,-9390.015,-36102.215,-38848.96,-53041.953,-14190.756
801715.2934357289,-48177.9,-55750.9,-29389.69,-9389.486,-36101.81,-38849.164,-53042.44,-14190.634
801715.2974357242,-48176.027,-55749.27,-29388.957,-9389.038,-36100.75,-38851.766,-53045.535,-14200.725
801715.3014357195,-48174.727,-55747.48,-29387.412,-9387.329,-36100.465,-38852.742,-53046.387,-14206.055
801715.3054357149,-48175.336,-55750.33,-29388.51,-9387.085,-36100.426,-38851.81,-53042.074,-14198.283
801715.3094357102,-48176.96,-55751.426,-29389.121,-9387.777,-36103.19,-38851.766,-53039.715,-14200.521
801715.3134357056,-48178.387,-55750.49,-29389.121,-9388.51,-36102.664,-38851.24,-53037.965,-14202.353
801715.3174357009,-48177.246,-55749.758,-29388.998,-9388.306,-36101.89,-38851.44,-53039.797,-14204.306
801715.3214356963,-48180.83,-55753.582,-29390.707,-9389.282,-36101.688,-38852.176,-53043.457,-14214.641
801715.3254356916,-48184.652,-55756.836,-29395.713,-9389.038,-36102.945,-38854.332,-53047.12,-14225.098
801715.329435687,-48181.48,-55752.2,-29393.393,-9387.167,-36100.14,-38854.656,-53050.293,-14225.546
801715.3334356823,-48178.387,-55750.082,-29390.016,-9383.83,-36098.676,-38854.492,-53051.637,-14228.068
801715.3374356778,-48180.543,-55752.44,-29388.104,-9384.196,-36100.26,-38855.387,-53053.062,-14233.276
801715.3414356731,-48179.2,-55753.258,-29385.947,-9385.864,-36100.344,-38855.105,-53053.633,-14234.457
801715.3454356685,-48175.824,-55748.535,-29382.773,-9386.149,-36101.727,-38852.703,-53050.293,-14231.894
801715.3494356638,-48175.984,-55749.15,-29379.72,-9386.23,-36102.54,-38851.605,-53048.504,-14231.567
801715.3534356592,-48177.53,-55749.15,-29382.895,-9386.353,-36100.344,-38852.664,-53048.543,-14231.853
801715.3574356545,-48176.92,-55745.85,-29384.521,-9386.108,-36098.473,-38854.41,-53050.254,-14237.427
801715.3614356499,-48179.688,-55747.887,-29384.604,-9385.742,-36097.453,-38856.977,-53054.65,-14240.723
801715.3654356452,-48181.234,-55746.79,-29386.271,-9385.254,-36096.68,-38857.42,-53057.945,-14244.995
801715.3694356406,-48183.516,-55748.78,-29385.662,-9386.435,-36095.83,-38858.195,-53060.75,-14257.935
801715.3734356359,-48189.58,-55754.723,-29391.318,-9387.939,-36100.26,-38857.91,-53060.1,-14259.848
801715.3774356312,-48192.305,-55755.21,-29396.322,-9389.648,-36102.582,-38857.06,-53057.457,-14255.534
801715.3814356267,-48197.51,-55758.996,-29397.34,-9392.944,-36102.867,-38856.977,-53053.062,-14255.778
801715.385435622,-48200.117,-55759.848,-29402.914,-9395.224,-36104.492,-38855.227,-53046.062,-14252.035
801715.3894356174,-48200.48,-55759.44,-29402.182,-9396.2,-36103.8,-38852.215,-53038.984,-14248.861
801715.3934356127,-48198.69,-55756.715,-29401.611,-9395.468,-36102.785,-38850.63,-53036.176,-14245.565
801715.3974356081,-48199.383,-55758.508,-29400.27,-9394.572,-36102.742,-38851.074,-53041.586,-14254.68
801715.4014356034,-48200.117,-55761.76,-29397.096,-9392.741,-36105.227,-38851.93,-53047.934,-14261.108
801715.4054355988,-48201.05,-55760.336,-29397.584,-9392.009,-36104.41,-38850.832,-53049.074,-14260.742
801715.4094355941,-48203.98,-55760.785,-29399.252,-9393.2705,-36105.145,-38849.57,-53050.008,-14263.754
801715.4134355895,-48204.918,-55761.76,-29397.422,-9393.474,-36103.598,-38850.14,-53049.113,-14265.91
801715.4174355848,-48204.715,-55762.207,-29396.445,-9393.2705,-36104.9,-38851.562,-53052.37,-14274.374
801715.4214355802,-48204.145,-55759.727,-29396.078,-9392.172,-36104.37,-38851.89,-53053.266,-14278.036
801715.4254355755,-48201.133,-55758.547,-29394.41,-9391.113,-36103.72,-38852.336,-53053.957,-14283.203
801715.429435571,-48199.953,-55759.973,-29393.271,-9390.707,-36106.082,-38852.38,-53054.402,-14284.953
801715.4334355663,-48200.93,-55761.56,-29391.357,-9392.172,-36109.01,-38851.766,-53054.363,-14289.551
801715.4374355617,-48201.133,-55760.703,-29397.258,-9393.393,-36108.48,-38852.094,-53056.074,-14294.556
801715.441435557,-48204.023,-55763.715,-29393.88,-9392.782,-36109.09,-38853.19,-53061.117,-14300.822
801715.4454355524,-48204.59,-55764.0,-29395.225,-9391.276,-36107.3,-38852.99,-53062.5,-14301.84
801715.4494355477,-48204.957,-55764.406,-29396.934,-9390.137,-36107.137,-38854.453,-53065.023,-14306.926
801715.453435543,-48204.793,-55764.527,-29397.299,-9389.608,-36105.594,-38854.86,-53064.332,-14314.819
801715.4574355384,-48208.05,-55768.35,-29398.643,-9392.212,-36103.68,-38854.98,-53063.438,-14315.063
801715.4614355337,-48212.445,-55770.55,-29400.39,-9392.7,-36105.105,-38852.418,-53061.973,-14313.11
801715.4654355291,-48214.277,-55770.67,-29400.92,-9393.962,-36108.035,-38851.44,-53060.508,-14311.687
801715.4694355244,-48214.4,-55772.46,-29402.14,-9394.369,-36110.92,-38850.098,-53055.707,-14305.949
801715.4734355198,-48217.9,-55772.992,-29407.39,-9397.339,-36111.33,-38850.06,-53051.637,-14306.601
801715.4774355151,-48216.434,-55770.59,-29406.617,-9396.403,-36110.72,-38847.94,-53044.516,-14300.863
801715.4814355106,-48212.117,-55766.562,-29402.508,-9392.904,-36107.34,-38846.19,-53038.086,-14290.527
801715.4854355059,-48211.59,-55764.242,-29402.426,-9392.741,-36106.65,-38845.46,-53036.46,-14290.976
801715.4894355013,-48213.95,-55764.61,-29400.39,-9390.544,-36106.445,-38845.5,-53036.582,-14293.457
801715.4934354966,-48212.16,-55760.906,-29399.496,-9387.817,-36102.38,-38847.82,-53039.227,-14298.015
801715.497435492,-48211.55,-55758.63,-29399.21,-9387.899,-36100.63,-38850.547,-53043.17,-14301.636
801715.5014354873,-48214.723,-55761.355,-29402.344,-9389.12,-36106.12,-38853.92,-53050.703,-14317.505
801715.5054354827,-48216.023,-55763.105,-29407.35,-9390.422,-36105.754,-38852.703,-53052.613,-14322.958
801715.509435478,-48217.285,-55762.535,-29407.39,-9390.178,-36107.26,-38853.76,-53052.207,-14324.951
801715.5134354734,-48219.89,-55763.957,-29403.402,-9390.341,-36106.73,-38852.582,-53047.16,-14317.587
801715.5174354687,-48217.125,-55763.797,-29400.676,-9390.219,-36106.65,-38852.418,-53043.66,-14309.937
801715.5214354642,-48211.55,-55760.664,-29398.234,-9388.103,-36102.457,-38849.734,-53041.832,-14306.519
801715.5254354595,-48212.445,-55761.68,-29399.863,-9389.12,-36101.766,-38850.223,-53043.703,-14311.279
801715.5294354548,-48216.066,-55763.39,-29404.094,-9389.975,-36103.395,-38852.5,-53051.516,-14328.654
801715.5334354502,-48219.93,-55765.22,-29407.39,-9390.015,-36103.11,-38854.25,-53059.082,-14342.489
801715.5374354455,-48223.105,-55768.92,-29406.21,-9391.195,-36104.9,-38855.67,-53064.984,-14352.58
801715.5414354409,-48222.617,-55766.97,-29406.82,-9392.782,-36104.086,-38855.31,-53064.656,-14361.084
801715.5454354362,-48225.26,-55768.76,-29406.17,-9393.107,-36103.312,-38854.82,-53063.76,-14365.927
801715.5494354316,-48220.664,-55767.133,-29402.67,-9391.113,-36104.695,-38854.168,-53060.26,-14358.073
801715.5534354269,-48215.863,-55764.977,-29398.805,-9391.968,-36104.695,-38854.617,-53056.723,-14357.544
801715.5574354223,-48218.67,-55765.625,-29397.422,-9392.863,-36106.0,-38854.207,-53051.84,-14355.998
801715.5614354176,-48222.293,-55768.76,-29396.607,-9392.741,-36106.65,-38851.117,-53044.883,-14342.407
801715.565435413,-48223.31,-55770.957,-29391.357,-9391.073,-36104.535,-38847.94,-53038.086,-14334.147
801715.5694354083,-48224.652,-55772.87,-29397.705,-9392.66,-36106.49,-38846.56,-53033.855,-14330.282
801715.5734354038,-48226.074,-55774.414,-29398.113,-9393.921,-36109.293,-38844.035,-53028.73,-14324.179
801715.577435399,-48224.652,-55773.766,-29396.566,-9393.433,-36110.477,-38845.418,-53029.95,-14325.155
801715.5814353945,-48225.06,-55774.293,-29396.037,-9393.066,-36112.223,-38847.13,-53032.88,-14323.975
801715.5854353898,-48223.227,-55773.277,-29395.387,-9392.741,-36111.29,-38847.13,-53034.996,-14324.911
801715.5894353852,-48222.09,-55770.59,-29395.305,-9391.357,-36110.965,-38849.285,-53035.24,-14327.556
801715.5934353805,-48224.406,-55769.613,-29397.014,-9391.765,-36111.125,-38852.254,-53036.094,-14329.468
801715.5974353759,-48225.26,-55769.043,-29397.217,-9391.968,-36111.695,-38854.74,-53040.04,-14332.886
801715.6014353712,-48223.31,-55766.113,-29395.184,-9389.323,-36107.42,-38855.023,-53041.465,-14335.531
801715.6054353665,-48217.977,-55760.336,-29392.783,-9385.742,-36101.605,-38855.47,-53038.574,-14336.63
801715.6094353619,-48213.95,-55759.605,-29390.625,-9385.173,-36101.44,-38855.633,-53039.594,-14342.611
801715.6134353572,-48217.734,-55760.62,-29392.416,-9385.742,-36101.24,-38854.41,-53042.24,-14351.115
801715.6174353526,-48224.773,-55763.594,-29400.107,-9388.591,-36101.156,-38854.492,-53051.066,-14370.932
801715.621435348,-48231.16,-55768.066,-29405.234,-9391.195,-36104.74,-38855.836,-53064.375,-14394.694
801715.6254353434,-48231.977,-55767.5,-29404.582,-9391.806,-36106.04,-38856.49,-53074.14,-14416.667
801715.6294353387,-48227.703,-55762.86,-29406.414,-9390.137,-36103.883,-38858.848,-53077.883,-14425.7
801715.6334353341,-48227.785,-55761.76,-29405.723,-9389.242,-36101.36,-38860.477,-53077.883,-14427.002
801715.6374353294,-48228.23,-55760.99,-29406.414,-9387.858,-36100.832,-38861.33,-53077.15,-14426.84
801715.6414353248,-48229.453,-55762.453,-29405.355,-9386.068,-36099.406,-38859.254,-53073.934,-14425.171
801715.6454353201,-48229.574,-55760.5,-29403.443,-9385.62,-36098.797,-38855.715,-53068.44,-14417.807
801715.6494353155,-48233.44,-55765.465,-29405.193,-9387.126,-36103.11,-38856.285,-53065.066,-14413.818
801715.6534353108,-48239.016,-55772.258,-29408.041,-9389.812,-36105.348,-38859.05,-53062.055,-14410.197
801715.6574353062,-48237.184,-55772.18,-29402.71,-9389.323,-36104.37,-38858.316,-53054.89,-14399.618
801715.6614353015,-48235.72,-55773.195,-29403.729,-9389.079,-36104.695,-38855.754,-53049.727,-14388.632
801715.665435297,-48238.16,-55775.434,-29406.21,-9390.788,-36106.12,-38853.19,-53043.742,-14378.337
801715.6694352922,-48238.973,-55776.98,-29405.479,-9395.671,-36109.254,-38852.785,-53040.203,-14374.878
801715.6734352877,-48239.746,-55777.184,-29405.762,-9396.729,-36109.99,-38852.01,-53036.62,-14375.448
801715.677435283,-48243.492,-55780.113,-29406.535,-9396.566,-36111.734,-38852.418,-53034.465,-14370.646
801715.6814352783,-48238.484,-55770.957,-29406.006,-9392.904,-36106.934,-38854.82,-53032.758,-14365.601
801715.6854352737,-48232.91,-55765.344,-29405.03,-9387.858,-36101.2,-38855.633,-53029.42,-14359.782
801715.689435269,-48231.242,-55762.656,-29402.14,-9386.394,-36099.0,-38853.11,-53025.92,-14357.178
801715.6934352644,-48227.38,-55757.977,-29399.496,-9386.068,-36094.85,-38853.273,-53025.676,-14357.748
801715.6974352597,-48224.855,-55755.902,-29398.56,-9385.417,-36095.582,-38854.74,-53031.047,-14367.798
801715.7014352551,-48225.465,-55756.633,-29399.21,-9385.01,-36098.188,-38854.94,-53040.242,-14388.062
801715.7054352504,-48228.438,-55758.586,-29402.955,-9385.824,-36099.855,-38856.082,-53049.97,-14400.106
801715.7094352458,-48224.61,-55757.61,-29399.62,-9385.01,-36099.69,-38855.67,-53056.277,-14410.767
801715.7134352411,-48224.164,-55757.855,-29397.705,-9383.871,-36097.574,-38856.85,-53062.137,-14422.16
801715.7174352366,-48225.75,-55756.594,-29399.293,-9383.83,-36097.414,-38857.18,-53067.793,-14432.089
801715.7214352319,-48226.766,-55757.082,-29399.09,-9383.383,-36095.867,-38857.42,-53071.656,-14444.946
801715.7254352273,-48225.75,-55756.188,-29394.816,-9381.877,-36093.793,-38857.79,-53074.016,-14451.376
801715.7294352226,-48229.94,-55758.098,-29401.979,-9385.051,-36096.19,-38859.703,-53077.273,-14456.137
801715.733435218,-48230.957,-55756.88,-29406.658,-9387.492,-36097.25,-38858.727,-53071.74,-14455.119
801715.7374352133,-48224.53,-55753.137,-29405.396,-9387.289,-36095.95,-38856.324,-53064.863,-14452.759
801715.7414352087,-48221.113,-55752.727,-29400.879,-9387.37,-36098.31,-38852.176,-53057.09,-14448.486
801715.745435204,-48220.5,-55754.56,-29398.154,-9387.817,-36100.63,-38850.14,-53049.277,-14437.785
801715.7494351993,-48220.703,-55754.844,-29402.549,-9388.225,-36102.785,-38851.074,-53043.094,-14430.502
801715.7534351947,-48220.83,-55755.74,-29401.328,-9389.201,-36103.56,-38851.48,-53038.414,-14424.113
801715.75743519,-48221.926,-55758.63,-29401.287,-9389.812,-36103.8,-38853.027,-53036.176,-14424.724
801715.7614351854,-48223.633,-55760.418,-29400.84,-9388.794,-36102.945,-38853.598,-53034.02,-14425.903
801715.7654351807,-48225.465,-55759.2,-29402.752,-9388.184,-36100.426,-38853.516,-53032.066,-14418.295
801715.7694351762,-48224.734,-55755.332,-29400.146,-9388.266,-36100.71,-38853.027,-53031.863,-14416.708
801715.7734351715,-48223.836,-55755.168,-29398.967,-9389.689,-36099.977,-38854.207,-53034.305,-14419.719
801715.7774351669,-48218.26,-55748.13,-29394.166,-9387.573,-36095.703,-38855.348,-53037.355,-14419.516
801715.7814351622,-48215.375,-55742.23,-29391.969,-9383.383,-36089.926,-38854.535,-53037.07,-14415.405
801715.7854351576,-48213.055,-55739.504,-29390.545,-9381.104,-36088.34,-38854.004,-53038.74,-14420.654
801715.7894351529,-48212.445,-55739.18,-29393.271,-9379.639,-36090.66,-38853.355,-53040.0,-14430.827
801715.7934351483,-48216.51,-55742.96,-29392.09,-9383.22,-36094.035,-38851.44,-53041.832,-14436.728
801715.7974351436,-48219.81,-55746.016,-29393.596,-9386.719,-36100.79,-38851.81,-53047.363,-14449.545
801715.801435139,-48221.926,-55749.96,-29395.713,-9386.841,-36107.625,-38851.035,-53052.816,-14463.786
801715.8054351343,-48218.875,-55748.742,-29394.207,-9386.19,-36106.527,-38852.38,-53056.4,-14473.674
801715.8094351297,-48216.594,-55746.95,-29391.969,-9384.521,-36102.254,-38851.156,-53058.27,-14481.894
801715.813435125,-48219.24,-55747.805,-29395.184,-9383.952,-36095.95,-38852.01,-53061.605,-14498.047
801715.8174351205,-48220.83,-55749.96,-29394.898,-9382.446,-36094.77,-38854.82,-53065.758,-14513.794
801715.8214351158,-48218.547,-55749.555,-29393.393,-9379.15,-36091.92,-38856.203,-53067.996,-14524.252
801715.8254351111,-48219.08,-55747.926,-29393.963,-9378.5,-36089.234,-38858.277,-53069.62,-14528.687
801715.8294351065,-48222.13,-55751.426,-29394.004,-9380.859,-36093.547,-38860.027,-53073.285,-14534.221
801715.8334351018,-48224.285,-55754.6,-29394.98,-9381.877,-36098.55,-38861.125,-53074.22,-14536.011
801715.8374350972,-48223.758,-55754.234,-29396.525,-9382.162,-36099.45,-38860.555,-53074.87,-14532.227
801715.8414350925,-48221.723,-55753.46,-29389.16,-9381.063,-36100.06,-38858.6,-53070.76,-14522.055
801715.8454350879,-48221.19,-55754.152,-29393.066,-9381.592,-36099.527,-38856.773,-53060.59,-14503.703
801715.8494350832,-48218.184,-55751.508,-29389.975,-9381.43,-36096.64,-38853.72,-53052.86,-14489.177
801715.8534350786,-48220.746,-55751.547,-29387.574,-9383.627,-36095.95,-38853.23,-53048.992,-14478.598
801715.8574350739,-48223.145,-55753.867,-29391.521,-9385.864,-36096.395,-38854.332,-53044.965,-14466.919
801715.8614350694,-48223.31,-55754.355,-29394.531,-9386.271,-36096.883,-38855.023,-53043.133,-14461.914
801715.8654350647,-48221.805,-55753.625,-29393.19,-9385.905,-36098.188,-38856.04,-53044.637,-14460.897
801715.8694350601,-48223.227,-55756.105,-29395.957,-9386.719,-36100.668,-38858.4,-53046.754,-14462.646
801715.8734350554,-48223.633,-55755.78,-29395.916,-9387.045,-36100.547,-38859.336,-53046.633,-14461.508
801715.8774350508,-48224.938,-55756.51,-29393.963,-9386.068,-36100.75,-38858.684,-53048.586,-14467.245
801715.8814350461,-48222.94,-55754.926,-29391.969,-9384.033,-36100.223,-38858.887,-53049.03,-14470.907
801715.8854350415,-48220.258,-55752.566,-29389.445,-9382.08,-36101.523,-38858.684,-53048.625,-14479.533
801715.8894350368,-48223.473,-55755.496,-29390.3,-9382.609,-36101.688,-38858.766,-53048.625,-14484.497
801715.8934350322,-48224.53,-55753.99,-29391.928,-9381.836,-36094.605,-38856.363,-53047.73,-14487.224
801715.8974350275,-48226.766,-55753.258,-29393.148,-9381.999,-36091.797,-38853.844,-53046.957,-14497.519
801715.9014350228,-48230.594,-55755.984,-29396.078,-9383.301,-36093.508,-38852.742,-53051.516,-14512.533
801715.9054350182,-48232.504,-55758.02,-29398.154,-9382.976,-36093.305,-38851.688,-53053.957,-14526.489
801715.9094350135,-48234.17,-55761.8,-29403.729,-9385.986,-36095.215,-38848.39,-53053.67,-14537.028
801715.913435009,-48236.37,-55766.24,-29403.646,-9388.103,-36099.49,-38847.37,-53053.957,-14541.992
801715.9174350043,-48239.18,-55768.477,-29400.596,-9388.794,-36101.035,-38848.43,-53053.426,-14546.753
801715.9214349997,-48234.906,-55764.406,-29395.63,-9385.214,-36097.37,-38848.836,-53052.41,-14549.927
801715.925434995,-48232.707,-55761.355,-29395.996,-9382.406,-36093.387,-38847.94,-53050.09,-14550.537
801715.9294349904,-48233.887,-55761.19,-29395.469,-9381.348,-36093.508,-38847.94,-53053.957,-14561.401
801715.9334349857,-48234.5,-55760.703,-29397.502,-9382.8125,-36090.457,-38852.38,-53059.285,-14568.848
801715.9374349811,-48232.668,-55758.87,-29397.096,-9381.186,-36087.527,-38855.47,-53060.1,-14564.006
801715.9414349764,-48227.785,-55754.56,-29392.254,-9375.977,-36084.637,-38855.67,-53057.945,-14555.095
801715.9454349718,-48225.508,-55754.234,-29392.01,-9376.587,-36084.27,-38856.934,-53056.562,-14544.475
801715.9494349671,-48222.58,-55749.15,-29390.057,-9376.262,-36082.113,-38856.65,-53051.96,-14531.901
801715.9534349625,-48218.547,-55742.96,-29389.04,-9375.488,-36076.742,-38857.06,-53047.977,-14524.008
801715.9574349578,-48219.24,-55741.945,-29391.44,-9377.116,-36078.33,-38859.418,-53045.535,-14518.677
801715.9614349533,-48219.363,-55743.043,-29390.178,-9376.099,-36079.43,-38860.23,-53044.23,-14509.97
801715.9654349486,-48221.6,-55744.67,-29388.307,-9376.994,-36079.67,-38859.5,-53043.867,-14506.389
801715.969434944,-48223.473,-55746.746,-29389.121,-9377.971,-36081.504,-38859.824,-53045.492,-14510.01
801715.9734349393,-48224.938,-55749.39,-29391.357,-9379.436,-36082.4,-38862.387,-53052.695,-14517.253
801715.9774349346,-48230.67,-55751.63,-29396.81,-9381.755,-36086.508,-38866.05,-53064.535,-14533.651
801715.98143493,-48239.34,-55759.484,-29397.258,-9384.155,-36091.188,-38865.074,-53070.68,-14543.905
801715.9854349253,-48242.312,-55762.207,-29400.758,-9385.498,-36093.668,-38864.79,-53074.586,-14552.572
801715.9894349207,-48244.914,-55765.26,-29405.6,-9387.329,-36096.07,-38866.254,-53075.277,-14562.134
801715.993434916,-48245.445,-55768.68,-29402.223,-9387.573,-36098.797,-38866.742,-53074.63,-14570.15
801715.9974349114,-48245.77,-55768.312,-29400.066,-9386.23,-36099.082,-38865.52,-53073.324,-14573.853
801716.0014349067,-48243.164,-55764.812,-29399.049,-9385.742,-36095.62,-38864.098,-53071.13,-14576.132
801716.0054349022,-48243.574,-55764.855,-29398.072,-9386.719,-36094.484,-38862.67,-53067.914,-14586.182
801716.0094348975,-48244.71,-55768.434,-29398.56,-9388.021,-36096.926,-38861.453,-53065.96,-14590.21
801716.0134348929,-48248.863,-55772.258,-29400.676,-9388.184,-36096.19,-38857.383,-53061.727,-14595.703
801716.0174348882,-48250.0,-55774.133,-29401.164,-9390.056,-36097.78,-38854.207,-53059.164,-14602.458
801716.0214348836,-48249.188,-55771.85,-29403.525,-9391.357,-36096.273,-38853.68,-53056.887,-14603.435
801716.0254348789,-48250.816,-55772.258,-29406.455,-9391.765,-36097.453,-38854.82,-53055.46,-14605.266
801716.0294348743,-48254.438,-55776.45,-29407.105,-9390.91,-36097.984,-38856.49,-53054.04,-14607.422
801716.0334348696,-48252.605,-55774.375,-29407.594,-9389.689,-36097.332,-38858.727,-53052.086,-14601.604
801716.037434865,-48248.78,-55770.02,-29404.582,-9388.469,-36094.32,-38859.254,-53052.246,-14598.43
801716.0414348603,-48243.855,-55766.36,-29400.229,-9385.62,-36089.234,-38860.637,-53053.633,-14602.499
801716.0454348557,-48242.312,-55762.94,-29397.178,-9383.017,-36084.15,-38863.12,-53054.363,-14595.378
801716.049434851,-48243.98,-55764.445,-29396.729,-9383.952,-36083.742,-38865.684,-53058.84,-14595.622
801716.0534348463,-48243.367,-55762.902,-29394.41,-9384.399,-36083.863,-38868.492,-53059.57,-14593.14
801716.0574348418,-48242.555,-55762.902,-29394.816,-9383.179,-36083.21,-38870.08,-53060.67,-14588.379
801716.061434837,-48243.004,-55762.414,-29395.469,-9380.656,-36079.02,-38870.08,-53060.875,-14584.106
801716.0654348325,-48243.246,-55761.68,-29395.346,-9379.924,-36076.133,-38871.91,-53058.84,-14576.701
801716.0694348278,-48244.996,-55764.12,-29397.625,-9381.592,-36076.906,-38873.453,-53058.72,-14578.288
801716.0734348232,-48249.96,-55768.11,-29398.764,-9383.952,-36078.94,-38873.78,-53058.066,-14579.712
801716.0774348185,-48253.176,-55773.277,-29397.543,-9383.708,-36082.195,-38872.723,-53057.09,-14581.055
801716.0814348139,-48253.094,-55773.805,-29398.479,-9383.098,-36082.113,-38869.59,-53057.54,-14585.165
801716.0854348092,-48253.055,-55773.074,-29400.107,-9383.098,-36081.22,-38866.66,-53053.875,-14584.106
801716.0894348046,-48254.438,-55774.21,-29398.154,-9384.399,-36085.45,-38863.08,-53050.58,-14585.856
801716.0934347999,-48255.37,-55776.45,-29397.625,-9386.679,-36087.65,-38859.418,-53045.9,-14588.135
801716.0974347953,-48257.285,-55778.973,-29398.887,-9388.144,-36090.984,-38856.69,-53043.17,-14593.059
801716.1014347906,-48262.13,-55783.977,-29399.455,-9388.672,-36096.68,-38856.69,-53043.99,-14602.133
801716.1054347861,-48264.285,-55785.81,-29403.564,-9390.91,-36097.086,-38857.3,-53043.99,-14606.486
801716.1094347814,-48264.324,-55784.793,-29403.85,-9390.788,-36095.46,-38857.83,-53043.297,-14612.509
801716.1134347768,-48266.727,-55785.77,-29404.99,-9389.73,-36095.133,-38858.6,-53042.562,-14622.559
801716.1174347721,-48266.645,-55783.246,-29407.146,-9388.713,-36091.066,-38856.57,-53039.754,-14623.169
801716.1214347674,-48267.457,-55785.973,-29407.959,-9388.51,-36090.17,-38854.574,-53037.19,-14625.407
801716.1254347628,-48267.66,-55787.07,-29409.832,-9390.422,-36091.188,-38854.41,-53034.223,-14622.6
801716.1294347581,-48266.93,-55784.832,-29408.408,-9390.097,-36090.09,-38856.082,-53034.426,-14618.896
801716.1334347535,-48265.137,-55781.74,-29407.188,-9389.689,-36089.723,-38857.504,-53038.37,-14622.763
801716.1374347488,-48265.953,-55782.473,-29407.797,-9391.357,-36088.992,-38859.17,-53043.133,-14623.291
801716.1414347442,-48265.992,-55781.902,-29407.715,-9391.235,-36087.688,-38862.348,-53052.043,-14624.797
801716.1454347395,-48267.863,-55783.9,-29408.164,-9391.235,-36088.625,-38865.926,-53059.246,-14628.947
801716.149434735,-48266.645,-55783.043,-29404.908,-9388.306,-36087.16,-38870.445,-53065.473,-14633.017
801716.1534347303,-48258.953,-55776.043,-29400.066,-9385.214,-36081.137,-38873.375,-53067.996,-14633.911
801716.1574347257,-48255.984,-55771.77,-29399.863,-9381.755,-36077.516,-38873.984,-53069.867,-14633.505
801716.161434721,-48259.156,-55774.254,-29400.799,-9383.83,-36077.84,-38875.57,-53072.754,-14638.225
801716.1654347164,-48259.688,-55774.254,-29405.967,-9385.173,-36078.98,-38875.49,-53073.164,-14641.113
801716.1694347117,-48262.82,-55776.086,-29407.188,-9384.399,-36078.33,-38873.13,-53071.535,-14643.026
801716.1734347071,-48267.703,-55780.07,-29408.408,-9386.963,-36078.25,-38870.605,-53069.01,-14646.403
801716.1774347024,-48273.152,-55783.816,-29408.611,-9389.323,-36082.805,-38872.56,-53071.86,-14654.582
801716.1814346978,-48278.28,-55786.746,-29411.5,-9389.282,-36085.164,-38872.03,-53069.094,-14653.524
801716.1854346931,-48277.387,-55787.598,-29411.215,-9390.097,-36087.688,-38869.47,-53062.34,-14650.106
801716.1894346885,-48276.734,-55789.918,-29408.0,-9391.5205,-36089.4,-38868.816,-53056.152,-14648.764
801716.1934346838,-48274.254,-55787.64,-29406.982,-9390.056,-36090.008,-38866.293,-53050.336,-14647.99
801716.1974346791,-48270.223,-55782.92,-29402.549,-9386.841,-36086.55,-38862.754,-53044.92,-14643.393
801716.2014346746,-48271.242,-55784.426,-29401.938,-9388.591,-36087.402,-38863.363,-53045.9,-14646.851
801716.2054346699,-48271.77,-55784.344,-29401.531,-9389.12,-36088.297,-38861.453,-53043.094,-14649.536
801716.2094346653,-48274.58,-55787.477,-29402.14,-9388.876,-36090.17,-38858.113,-53039.145,-14648.071
801716.2134346606,-48279.297,-55791.3,-29406.78,-9390.707,-36091.227,-38858.195,-53037.395,-14643.921
801716.217434656,-48280.316,-55791.87,-29407.35,-9390.829,-36092.203,-38857.504,-53038.74,-14645.63
801716.2214346513,-48281.21,-55795.004,-29407.39,-9392.66,-36095.258,-38857.547,-53041.426,-14649.333
801716.2254346467,-48279.46,-55793.01,-29406.414,-9390.219,-36090.047,-38855.266,-53039.062,-14643.026
801716.229434642,-48279.38,-55788.535,-29406.617,-9389.079,-36087.402,-38856.57,-53042.074,-14646.322
801716.2334346374,-48279.297,-55786.62,-29412.639,-9387.939,-36084.066,-38858.727,-53044.19,-14646.566
801716.2374346327,-48278.32,-55784.18,-29413.291,-9385.661,-36078.86,-38859.54,-53044.598,-14649.984
801716.2414346281,-48271.85,-55779.867,-29408.773,-9384.074,-36076.336,-38863.363,-53049.36,-14657.675
801716.2454346234,-48272.707,-55781.535,-29406.535,-9384.359,-36077.92,-38866.293,-53056.438,-14660.808
801716.2494346189,-48274.05,-55782.637,-29405.967,-9384.399,-36078.207,-38867.15,-53060.75,-14664.795
801716.2534346142,-48275.23,-55783.246,-29405.355,-9381.633,-36075.81,-38867.066,-53064.293,-14670.492
801716.2574346096,-48274.902,-55781.13,-29406.291,-9379.558,-36072.39,-38868.855,-53070.8,-14676.636
801716.2614346049,-48273.887,-55780.6,-29406.738,-9379.3545,-36071.902,-38870.117,-53071.453,-14681.152
801716.2654346003,-48276.816,-55783.125,-29405.885,-9380.453,-36072.957,-38869.67,-53066.652,-14683.716
801716.2694345956,-48280.477,-55786.133,-29409.832,-9382.365,-36076.01,-38867.066,-53061.523,-14688.151
801716.2734345909,-48286.055,-55793.336,-29416.18,-9386.149,-36080.363,-38865.64,-53056.316,-14689.169
801716.2774345863,-48294.844,-55800.133,-29420.33,-9389.201,-36084.758,-38864.098,-53055.016,-14694.702
801716.2814345816,-48300.58,-55805.098,-29423.707,-9390.951,-36088.582,-38862.184,-53051.637,-14696.737
801716.285434577,-48301.637,-55807.58,-29425.66,-9392.294,-36089.56,-38859.457,-53045.41,-14695.19
801716.2894345723,-48303.145,-55808.594,-29424.684,-9392.904,-36090.617,-38855.957,-53038.29,-14691.732
801716.2934345677,-48307.05,-55810.266,-29426.148,-9394.206,-36091.555,-38854.535,-53033.69,-14690.308
801716.297434563,-48304.566,-55810.02,-29422.648,-9394.165,-36092.855,-38854.25,-53032.066,-14689.006
801716.3014345585,-48300.133,-55807.54,-29418.092,-9392.578,-36092.285,-38853.19,-53031.293,-14691.203
801716.3054345538,-48299.156,-55808.88,-29417.197,-9392.985,-36093.305,-38857.016,-53039.51,-14695.964
801716.3094345492,-48295.656,-55803.1,-29414.592,-9391.602,-36088.094,-38859.215,-53043.703,-14691.447
801716.3134345445,-48292.81,-55799.48,-29412.191,-9390.585,-36084.11,-38863.445,-53048.465,-14689.494
801716.3174345399,-48291.504,-55797.203,-29416.3,-9387.492,-36080.203,-38864.504,-53051.35,-14689.453
801716.3214345352,-48290.69,-55796.387,-29414.592,-9384.929,-36078.453,-38867.027,-53060.832,-14699.179
801716.3254345306,-48292.117,-55797.812,-29412.07,-9385.742,-36079.062,-38871.746,-53068.074,-14705.974
801716.3294345259,-48293.094,-55797.324,-29411.012,-9385.824,-36079.184,-38872.56,-53070.355,-14713.013
801716.3334345213,-48294.68,-55799.766,-29415.162,-9388.184,-36080.61,-38871.055,-53072.715,-14716.146
801716.3374345166,-48293.945,-55798.83,-29417.686,-9387.289,-36079.67,-38871.95,-53074.707,-14718.506
801716.341434512,-48295.492,-55800.05,-29417.033,-9385.336,-36079.348,-38871.543,-53076.863,-14726.318
801716.3454345074,-48297.203,-55803.387,-29419.516,-9386.597,-36084.39,-38872.56,-53080.445,-14731.73
801716.3494345027,-48299.848,-55805.504,-29424.969,-9387.858,-36083.78,-38873.13,-53084.434,-14742.31
801716.3534344981,-48300.945,-55807.09,-29425.457,-9387.655,-36083.21,-38871.297,-53082.562,-14744.873
801716.3574344934,-48305.707,-55808.88,-29428.549,-9388.591,-36083.824,-38870.65,-53081.992,-14745.565
801716.3614344888,-48309.043,-55810.184,-29429.363,-9388.916,-36085.043,-38869.59,-53082.44,-14747.07
801716.3654344841,-48309.246,-55812.83,-29423.79,-9386.149,-36081.746,-38871.38,-53081.055,-14746.298
801716.3694344795,-48309.98,-55815.715,-29421.55,-9385.254,-36081.79,-38875.57,-53080.812,-14756.592
801716.3734344748,-48308.555,-55816.285,-29419.395,-9385.336,-36081.625,-38877.848,-53079.51,-14763.754
801716.3774344702,-48312.137,-55819.543,-29416.748,-9387.492,-36083.66,-38879.03,-53078.004,-14765.097
801716.3814344655,-48314.047,-55819.418,-29415.203,-9388.184,-36083.336,-38876.18,-53072.715,-14760.824
801716.385434461,-48313.03,-55817.914,-29416.098,-9388.144,-36082.805,-38874.188,-53065.27,-14754.028
801716.3894344562,-48312.99,-55819.906,-29414.715,-9387.939,-36082.848,-38872.684,-53059.938,-14749.838
801716.3934344517,-48314.25,-55819.95,-29413.127,-9389.12,-36081.383,-38870.523,-53055.91,-14748.088
801716.397434447,-48316.285,-55819.176,-29416.18,-9390.91,-36082.6,-38869.387,-53054.28,-14746.623
801716.4014344424,-48316.734,-55819.746,-29418.621,-9391.317,-36084.11,-38867.758,-53054.973,-14748.129
801716.4054344377,-48316.69,-55819.258,-29414.633,-9389.7705,-36084.676,-38866.54,-53055.22,-14745.6875
801716.4094344331,-48316.0,-55819.297,-29414.023,-9388.266,-36084.96,-38867.473,-53056.195,-14746.46
801716.4134344284,-48313.6,-55817.914,-29412.436,-9387.98,-36081.3,-38869.71,-53061.77,-14749.512
801716.4174344238,-48311.2,-55813.273,-29409.75,-9384.5625,-36075.562,-38871.746,-53066.977,-14754.11
801716.4214344191,-48307.945,-55807.984,-29407.023,-9381.999,-36073.04,-38874.39,-53069.5,-14753.866
801716.4254344144,-48306.316,-55805.504,-29406.047,-9380.453,-36070.965,-38873.617,-53071.617,-14756.267
801716.4294344098,-48307.66,-55808.066,-29407.023,-9380.575,-36070.883,-38874.758,-53075.727,-14761.963
801716.4334344051,-48306.805,-55805.42,-29408.814,-9379.477,-36067.832,-38874.227,-53080.406,-14773.234
801716.4374344005,-48305.95,-55802.168,-29409.709,-9378.906,-36066.45,-38873.863,-53084.72,-14785.971
801716.4414343958,-48308.555,-55805.746,-29413.78,-9379.11,-36066.203,-38871.785,-53086.508,-14794.149
801716.4454343913,-48312.01,-55811.117,-29417.277,-9383.545,-36067.996,-38870.688,-53084.188,-14800.537
801716.4494343866,-48312.83,-55812.99,-29420.574,-9385.132,-36071.535,-38870.73,-53081.22,-14806.03
801716.453434382,-48314.863,-55812.95,-29421.021,-9385.62,-36072.754,-38871.867,-53081.383,-14807.292
801716.4574343773,-48314.453,-55812.746,-29419.354,-9383.83,-36072.836,-38873.047,-53080.527,-14809.123
801716.4614343727,-48314.09,-55811.81,-29415.527,-9380.534,-36069.99,-38871.5,-53074.016,-14803.955
801716.465434368,-48315.105,-55812.83,-29418.133,-9383.383,-36069.215,-38872.195,-53068.727,-14800.781
801716.4694343634,-48317.75,-55815.066,-29417.686,-9382.935,-36069.867,-38871.22,-53064.375,-14801.392
801716.4734343587,-48319.867,-55818.93,-29416.465,-9384.033,-36071.82,-38870.2,-53057.742,-14795.41
801716.4774343541,-48318.562,-55819.5,-29414.307,-9384.807,-36071.453,-38868.777,-53054.812,-14789.795
801716.4814343494,-48316.61,-55817.305,-29413.494,-9380.453,-36069.215,-38865.6,-53052.125,-14787.964
801716.4854343449,-48316.33,-55816.53,-29412.72,-9379.313,-36069.01,-38863.527,-53050.215,-14786.337
801716.4894343402,-48320.56,-55820.07,-29414.104,-9381.47,-36071.13,-38864.383,-53050.293,-14784.953
801716.4934343356,-48324.26,-55821.777,-29415.977,-9383.505,-36070.273,-38865.438,-53048.75,-14786.621
801716.4974343309,-48326.01,-55819.664,-29421.713,-9383.667,-36069.824,-38865.113,-53046.715,-14784.628
801716.5014343262,-48325.4,-55816.734,-29423.26,-9383.627,-36068.44,-38863.2,-53042.97,-14779.053
801716.5054343216,-48326.215,-55817.75,-29418.418,-9382.202,-36065.227,-38861.656,-53040.652,-14774.496
801716.5094343169,-48322.145,-55814.863,-29411.703,-9379.272,-36064.293,-38862.387,-53043.66,-14776.367
801716.5134343123,-48320.355,-55814.047,-29413.086,-9379.436,-36065.88,-38865.6,-53049.48,-14781.657
801716.5174343076,-48319.95,-55813.152,-29411.703,-9378.5,-36065.715,-38864.625,-53055.992,-14791.057
801716.521434303,-48323.12,-55814.25,-29413.086,-9378.622,-36066.45,-38867.758,-53068.156,-14805.99
801716.5254342983,-48327.312,-55819.38,-29419.19,-9379.395,-36068.277,-38871.785,-53077.965,-14821.208
801716.5294342937,-48327.8,-55818.77,-29421.062,-9379.761,-36065.918,-38872.152,-53080.28,-14826.172
801716.533434289,-48323.527,-55815.188,-29418.174,-9379.313,-36061.77,-38870.32,-53076.906,-14820.272
801716.5374342845,-48317.098,-55810.547,-29414.145,-9378.093,-36058.434,-38871.01,-53075.605,-14820.068
801716.5414342798,-48313.4,-55806.805,-29412.07,-9376.669,-36055.016,-38871.297,-53074.3,-14823.69
801716.5454342752,-48314.617,-55807.984,-29413.9,-9375.285,-36053.223,-38870.85,-53072.43,-14826.742
801716.5494342705,-48319.5,-55811.117,-29417.969,-9379.15,-36056.355,-38871.38,-53075.117,-14837.118
801716.5534342659,-48325.97,-55817.71,-29422.771,-9384.237,-36061.688,-38873.7,-53079.793,-14852.58
801716.5574342612,-48333.824,-55825.848,-29430.42,-9385.173,-36067.75,-38873.82,-53083.133,-14865.479
801716.5614342566,-48337.242,-55829.145,-29432.861,-9385.051,-36070.19,-38874.39,-53086.184,-14875.651
801716.5654342519,-48334.96,-55826.945,-29431.357,-9384.115,-36068.44,-38874.023,-53083.008,-14873.535
801716.5694342472,-48334.23,-55825.24,-29429.078,-9381.755,-36066.895,-38873.66,-53077.434,-14868.734
801716.5734342426,-48333.008,-55825.24,-29423.096,-9380.331,-36063.355,-38872.477,-53069.95,-14861.694
801716.5774342379,-48333.21,-55824.098,-29421.062,-9380.168,-36063.64,-38870.934,-53064.535,-14855.307
801716.5814342333,-48335.086,-55823.406,-29423.87,-9381.511,-36064.7,-38870.73,-53064.863,-14858.643
801716.5854342286,-48338.867,-55827.11,-29426.19,-9383.993,-36064.047,-38870.32,-53063.113,-14855.103
801716.5894342241,-48342.938,-55832.97,-29427.084,-9385.742,-36064.37,-38870.89,-53060.47,-14848.1045
801716.5934342194,-48348.39,-55836.67,-29428.184,-9387.167,-36064.82,-38870.445,-53057.984,-14839.966
801716.5974342148,-48347.86,-55835.656,-29435.67,-9386.19,-36064.21,-38869.67,-53057.13,-14833.212
801716.6014342101,-48344.566,-55834.637,-29429.322,-9385.702,-36065.715,-38867.84,-53055.91,-14825.236
801716.6054342055,-48336.59,-55830.566,-29420.33,-9383.139,-36063.723,-38864.83,-53052.246,-14816.732
801716.6094342008,-48330.406,-55823.406,-29416.992,-9381.999,-36061.28,-38864.22,-53052.53,-14811.89
801716.6134341962,-48328.816,-55821.168,-29413.941,-9380.859,-36060.67,-38864.3,-53051.8,-14807.048
801716.6174341915,-48332.03,-55822.31,-29413.006,-9379.11,-36059.938,-38863.324,-53051.27,-14801.799
801716.6214341869,-48334.676,-55824.87,-29415.61,-9381.348,-36058.27,-38862.793,-53053.062,-14808.594
801716.6254341822,-48334.883,-55825.93,-29417.807,-9382.162,-36057.254,-38863.973,-53053.754,-14811.32
801716.6294341777,-48333.742,-55821.656,-29419.719,-9382.8125,-36055.38,-38863.85,-53050.293,-14813.11
801716.633434173,-48333.62,-55820.64,-29417.807,-9382.487,-36055.664,-38865.234,-53052.246,-14821.533
801716.6374341684,-48333.21,-55821.047,-29417.766,-9381.145,-36056.113,-38865.234,-53054.688,-14832.113
801716.6414341637,-48335.53,-55821.617,-29419.719,-9381.714,-36058.555,-38864.22,-53057.332,-14840.373
801716.645434159,-48339.926,-55824.87,-29422.486,-9384.399,-36061.363,-38863.406,-53059.41,-14852.946
801716.6494341544,-48338.38,-55825.277,-29424.521,-9385.458,-36062.215,-38865.97,-53065.066,-14870.85
801716.6534341497,-48334.883,-55820.234,-29424.887,-9384.318,-36058.23,-38867.066,-53065.023,-14876.425
801716.6574341451,-48332.44,-55816.613,-29424.521,-9381.43,-36054.688,-38866.13,-53066.53,-14884.929
801716.6614341404,-48333.293,-55817.02,-29423.26,-9378.174,-36053.508,-38869.67,-53070.64,-14899.13
801716.6654341358,-48335.53,-55820.234,-29425.213,-9379.558,-36053.754,-38870.73,-53072.348,-14900.879
801716.6694341311,-48335.043,-55820.965,-29426.352,-9379.517,-36052.33,-38868.367,-53068.93,-14896.933
801716.6734341265,-48334.312,-55819.95,-29427.246,-9378.134,-36051.188,-38866.293,-53066.938,-14893.352
801716.6774341218,-48336.875,-55823.527,-29429.2,-9379.965,-36055.46,-38866.54,-53067.098,-14892.456
801716.6814341173,-48336.14,-55822.797,-29428.752,-9380.127,-36057.09,-38863.812,-53060.996,-14886.23
801716.6854341126,-48333.824,-55822.227,-29427.328,-9380.209,-36055.582,-38861.125,-53053.55,-14872.152
801716.689434108,-48333.54,-55821.86,-29421.713,-9378.703,-36052.492,-38860.066,-53048.79,-14869.101
801716.6934341033,-48329.227,-55815.473,-29420.533,-9378.5,-36050.54,-38859.824,-53043.906,-14857.219
801716.6974340987,-48323.895,-55809.777,-29415.977,-9376.547,-36048.42,-38858.156,-53038.37,-14847.046
801716.701434094,-48322.633,-55809.57,-29413.78,-9375.651,-36047.242,-38857.137,-53035.77,-14841.96
801716.7054340894,-48321.086,-55806.48,-29415.527,-9375.122,-36045.695,-38855.957,-53034.465,-14835.043
801716.7094340847,-48321.574,-55807.293,-29414.836,-9376.303,-36048.016,-38856.57,-53036.176,-14831.462
801716.7134340801,-48321.82,-55810.1,-29413.006,-9377.727,-36051.188,-38855.55,-53039.105,-14832.927
801716.7174340754,-48321.535,-55810.59,-29414.145,-9378.947,-36052.004,-38857.26,-53043.5,-14836.06
801716.7214340707,-48318.28,-55802.777,-29412.598,-9377.116,-36047.324,-38858.113,-53043.867,-14838.217
801716.7254340661,-48315.473,-55799.727,-29412.191,-9376.872,-36043.703,-38857.75,-53039.88,-14837.81
801716.7294340614,-48319.95,-55806.234,-29416.627,-9378.134,-36045.613,-38859.01,-53039.062,-14841.187
801716.7334340569,-48322.918,-55813.438,-29417.93,-9380.656,-36048.83,-38860.312,-53039.51,-14845.785
801716.7374340522,-48327.516,-55817.75,-29420.33,-9379.883,-36049.36,-38861.734,-53041.953,-14853.516
801716.7414340476,-48330.363,-55818.973,-29421.307,-9379.191,-36048.992,-38864.504,-53049.277,-14869.141
801716.7454340429,-48334.066,-55821.414,-29423.584,-9379.761,-36052.37,-38864.91,-53052.938,-14883.057
801716.7494340383,-48338.176,-55827.273,-29422.283,-9380.778,-36057.008,-38864.016,-53053.996,-14891.4795
801716.7534340336,-48340.332,-55829.387,-29423.057,-9381.633,-36057.375,-38865.074,-53056.438,-14902.1
801716.757434029,-48339.6,-55828.82,-29423.87,-9382.202,-36057.7,-38866.05,-53059.45,-14910.156
801716.7614340243,-48339.03,-55826.05,-29422.08,-9378.866,-36057.7,-38865.926,-53062.703,-14914.836
801716.7654340197,-48336.754,-55825.48,-29420.615,-9378.906,-36055.707,-38868.004,-53068.81,-14926.636
801716.769434015,-48338.543,-55828.492,-29422.69,-9380.575,-36057.863,-38868.98,-53074.26,-14930.624
801716.7734340105,-48342.652,-55832.805,-29426.475,-9382.568,-36059.082,-38870.934,-53077.84,-14928.142
801716.7774340058,-48344.85,-55832.277,-29429.973,-9382.69,-36057.414,-38873.332,-53083.863,-14929.484
801716.7814340012,-48343.387,-55829.55,-29428.06,-9383.017,-36055.3,-38872.477,-53083.7,-14926.025
801716.7854339965,-48341.758,-55829.715,-29423.992,-9384.359,-36056.6,-38872.438,-53084.15,-14919.597
801716.7894339919,-48336.996,-55827.027,-29421.307,-9383.098,-36055.867,-38872.438,-53085.164,-14915.283
801716.7934339872,-48332.36,-55824.344,-29416.342,-9380.575,-36049.645,-38871.01,-53081.465,-14907.064
801716.7974339825,-48331.18,-55820.598,-29412.314,-9380.127,-36048.383,-38869.508,-53079.062,-14906.616
801716.8014339779,-48324.14,-55816.57,-29406.617,-9376.384,-36043.17,-38867.8,-53075.727,-14900.473
801716.8054339732,-48324.42,-55818.93,-29413.209,-9378.296,-36045.86,-38868.207,-53075.523,-14899.902
801716.8094339686,-48327.72,-55822.594,-29421.348,-9381.186,-36049.156,-38866.254,-53073.285,-14899.455
801716.8134339639,-48329.55,-55825.48,-29418.824,-9380.941,-36050.293,-38864.746,-53070.355,-14899.78
801716.8174339593,-48331.42,-55826.418,-29417.686,-9380.819,-36050.05,-38861.53,-53066.203,-14901.164
801716.8214339546,-48334.637,-55829.43,-29419.354,-9382.895,-36053.59,-38859.824,-53062.83,-14900.554
801716.82543395,-48338.42,-55834.84,-29421.836,-9384.318,-36054.85,-38860.312,-53055.504,-14900.229
801716.8294339454,-48338.094,-55837.566,-29421.469,-9384.644,-36052.734,-38859.66,-53045.613,-14897.502
801716.8334339408,-48337.04,-55834.516,-29420.371,-9383.383,-36050.05,-38857.016,-53036.38,-14896.811
801716.8374339361,-48337.2,-55834.027,-29420.004,-9381.633,-36048.953,-38857.098,-53029.867,-14905.762
801716.8414339315,-48337.04,-55834.516,-29419.639,-9381.145,-36050.293,-38857.79,-53026.004,-14914.551
801716.8454339268,-48340.21,-55836.754,-29420.248,-9383.423,-36051.676,-38855.31,-53023.926,-14921.225
801716.8494339222,-48343.14,-55840.21,-29421.63,-9384.521,-36052.125,-38851.688,-53019.574,-14922.7295
801716.8534339175,-48345.703,-55844.484,-29423.828,-9385.458,-36055.258,-38853.23,-53021.688,-14929.443
801716.8574339129,-48350.508,-55848.96,-29426.352,-9387.045,-36060.223,-38854.82,-53028.2,-14938.843
801716.8614339082,-48353.8,-55852.176,-29427.816,-9389.12,-36064.74,-38859.457,-53037.76,-14943.726
801716.8654339036,-48353.355,-55851.523,-29427.979,-9389.12,-36063.477,-38863.484,-53044.516,-14945.3125
801716.869433899,-48348.96,-55848.715,-29425.213,-9386.149,-36060.547,-38865.234,-53051.8,-14948.202
801716.8734338942,-48345.83,-55845.703,-29421.998,-9383.586,-36055.543,-38868.613,-53059.164,-14952.2705
801716.8774338897,-48345.01,-55845.46,-29420.654,-9382.935,-36055.176,-38869.223,-53069.133,-14955.322
801716.881433885,-48346.68,-55846.6,-29421.143,-9382.365,-36058.105,-38869.996,-53077.598,-14957.846
801716.8854338804,-48349.57,-55849.082,-29423.91,-9384.97,-36060.67,-38870.605,-53083.984,-14961.182
801716.8894338757,-48349.57,-55848.227,-29426.23,-9386.882,-36059.082,-38870.605,-53088.46,-14959.758
801716.8934338711,-48350.79,-55847.617,-29426.19,-9388.103,-36058.84,-38872.316,-53092.695,-14962.199
801716.8974338664,-48350.383,-55846.64,-29423.91,-9387.492,-36055.34,-38871.38,-53092.49,-14959.961
801716.9014338618,-48347.332,-55845.137,-29421.998,-9388.062,-36054.73,-38870.89,-53091.92,-14955.974
801716.9054338571,-48345.625,-55844.402,-29419.922,-9386.719,-36055.746,-38869.67,-53087.363,-14951.05
801716.9094338525,-48346.68,-55848.023,-29422.16,-9389.12,-36059.125,-38869.957,-53080.406,-14949.789
801716.9134338478,-48345.703,-55847.168,-29422.283,-9390.747,-36057.82,-38866.78,-53070.07,-14944.092
801716.9174338432,-48346.926,-55849.082,-29424.316,-9392.375,-36057.863,-38864.992,-53061.445,-14939.779
801716.9214338386,-48350.3,-55854.94,-29427.451,-9392.944,-36059.773,-38863.406,-53056.195,-14935.303
801716.925433834,-48347.74,-55853.844,-29425.498,-9391.684,-36060.06,-38860.516,-53052.004,-14935.263
801716.9294338293,-48350.87,-55855.918,-29426.678,-9392.578,-36061.77,-38857.383,-53046.47,-14935.669
801716.9334338247,-48354.453,-55859.703,-29427.531,-9393.759,-36062.746,-38858.074,-53040.977,-14936.85
801716.93743382,-48357.098,-55861.29,-29430.502,-9394.409,-36062.906,-38859.09,-53038.414,-14945.923
801716.9414338154,-48357.586,-55861.777,-29431.396,-9393.881,-36061.89,-38860.637,-53038.902,-14952.963
801716.9454338107,-48357.625,-55862.305,-29430.705,-9393.2295,-36061.65,-38862.957,-53038.37,-14957.886
801716.949433806,-48356.285,-55858.97,-29430.99,-9392.863,-36060.953,-38865.926,-53038.29,-14954.265
801716.9534338014,-48356.12,-55857.504,-29432.822,-9391.643,-36057.254,-38867.35,-53038.086,-14955.322
801716.9574337967,-48357.383,-55857.3,-29432.049,-9392.538,-36057.617,-38870.2,-53042.277,-14963.745
801716.9614337921,-48357.79,-55855.266,-29430.584,-9391.357,-36057.375,-38871.297,-53044.8,-14963.623
801716.9654337874,-48359.457,-55857.06,-29432.334,-9390.951,-36058.51,-38872.152,-53049.805,-14961.386
801716.9694337829,-48357.18,-55858.277,-29430.42,-9390.666,-36058.594,-38873.17,-53057.17,-14963.257
801716.9734337782,-48352.05,-55854.168,-29425.213,-9388.672,-36056.234,-38874.96,-53063.887,-14969.482
801716.9774337736,-48354.74,-55857.504,-29427.328,-9388.713,-36057.66,-38878.258,-53074.707,-14978.476
801716.9814337689,-48359.62,-55860.434,-29426.719,-9388.672,-36059.734,-38880.984,-53084.758,-14989.868
801716.9854337643,-48359.05,-55861.168,-29422.363,-9387.695,-36059.33,-38881.797,-53091.84,-15000.8545
801716.9894337596,-48358.277,-55862.062,-29420.736,-9388.306,-36059.816,-38881.188,-53093.832,-15007.731
801716.993433755,-48353.312,-55859.742,-29422.12,-9389.282,-36055.176,-38879.273,-53086.184,-14998.779
801716.9974337503,-48350.914,-55858.605,-29420.492,-9387.736,-36050.293,-38876.223,-53078.9,-14993.774
801717.0014337457,-48353.11,-55858.277,-29422.893,-9388.062,-36051.066,-38876.426,-53077.07,-14990.886
801717.005433741,-48350.87,-55854.535,-29424.113,-9388.184,-36051.8,-38876.06,-53075.605,-14990.397
801717.0094337364,-48354.047,-55857.22,-29426.922,-9390.707,-36053.63,-38874.27,-53072.348,-14991.618
801717.0134337317,-48358.4,-55860.434,-29428.59,-9393.759,-36051.188,-38873.94,-53065.758,-14988.322
801717.017433727,-48361.086,-55859.99,-29430.502,-9395.712,-36047.566,-38873.293,-53061.688,-14987.631
801717.0214337225,-48358.727,-55857.016,-29433.838,-9394.084,-36045.453,-38871.094,-53055.3,-14988.566
801717.0254337178,-48365.316,-55864.016,-29436.688,-9396.2,-36048.83,-38870.445,-53051.92,-14997.111
801717.0294337132,-48370.605,-55870.402,-29439.25,-9399.536,-36056.4,-38871.91,-53052.574,-15006.999
801717.0334337085,-48371.785,-55872.64,-29441.203,-9400.473,-36057.984,-38872.152,-53050.008,-15006.511
801717.0374337039,-48370.81,-55872.277,-29439.373,-9398.234,-36054.73,-38872.03,-53048.055,-15015.015
801717.0414336992,-48367.516,-55869.426,-29436.523,-9395.468,-36054.85,-38870.89,-53046.754,-15018.148
801717.0454336946,-48365.48,-55868.574,-29432.74,-9396.037,-36053.63,-38869.793,-53044.15,-15011.027
801717.0494336899,-48362.715,-55866.906,-29434.49,-9396.525,-36051.92,-38869.344,-53041.465,-15006.877
801717.0534336853,-48360.23,-55862.184,-29435.67,-9395.224,-36045.33,-38870.605,-53037.56,-15000.8955
801717.0574336806,-48360.555,-55858.562,-29435.873,-9395.183,-36042.848,-38871.5,-53040.04,-15002.36
801717.061433676,-48363.566,-55861.777,-29435.873,-9394.816,-36045.207,-38873.332,-53046.754,-15003.174
801717.0654336713,-48366.254,-55866.984,-29434.652,-9396.525,-36051.676,-38875.406,-53053.67,-15009.074
801717.0694336668,-48361.656,-55864.22,-29429.16,-9397.095,-36053.55,-38876.223,-53059.004,-15016.317
801717.0734336621,-48359.418,-55863.363,-29424.602,-9394.897,-36053.55,-38873.332,-53060.957,-15018.107
801717.0774336575,-48361.168,-55866.945,-29423.057,-9394.694,-36054.445,-38875.57,-53066.895,-15023.112
801717.0814336528,-48364.22,-55869.062,-29424.969,-9396.729,-36058.023,-38877.36,-53074.016,-15026.774
801717.0854336482,-48362.918,-55869.305,-29425.09,-9397.177,-36059.285,-38877.566,-53074.87,-15024.048
801717.0894336435,-48360.598,-55867.676,-29420.045,-9395.996,-36057.78,-38876.383,-53068.605,-15021.77
801717.0934336388,-48356.57,-55860.273,-29424.684,-9393.026,-36050.7,-38876.87,-53060.957,-15012.655
801717.0974336342,-48357.547,-55859.785,-29424.113,-9391.928,-36046.023,-38877.566,-53056.805,-15012.98
801717.1014336295,-48358.48,-55861.168,-29422.242,-9391.562,-36042.93,-38876.383,-53053.223,-15017.131
801717.1054336249,-48359.906,-55861.98,-29423.79,-9391.073,-36046.227,-38876.383,-53051.395,-15018.2295
801717.1094336202,-48362.387,-55863.242,-29426.514,-9392.334,-36047.85,-38875.45,-53052.816,-15028.931
801717.1134336157,-48363.69,-55863.324,-29427.125,-9392.253,-36043.457,-38873.332,-53053.836,-15042.5625
801717.117433611,-48365.645,-55863.12,-29428.264,-9392.538,-36042.93,-38873.66,-53054.688,-15049.154
801717.1214336064,-48365.52,-55860.965,-29427.37,-9390.625,-36041.26,-38873.94,-53052.938,-15051.799
801717.1254336017,-48364.258,-55859.863,-29427.734,-9389.282,-36040.406,-38873.13,-53052.816,-15056.4375
801717.1294335971,-48362.875,-55857.42,-29424.928,-9389.282,-36040.527,-38873.66,-53051.883,-15055.176
801717.1334335924,-48360.883,-55854.047,-29427.816,-9387.248,-36035.89,-38875.367,-53052.41,-15054.281
801717.1374335878,-48360.23,-55853.844,-29428.508,-9384.848,-36035.24,-38876.87,-53055.098,-15058.472
801717.1414335831,-48362.793,-55854.86,-29432.334,-9385.742,-36036.746,-38877.93,-53057.984,-15059.164
801717.1454335785,-48365.926,-55855.797,-29433.514,-9386.719,-36038.7,-38878.176,-53060.06,-15058.432
801717.1494335738,-48366.984,-55857.098,-29434.896,-9388.632,-36040.0,-38880.902,-53065.676,-15060.466
801717.1534335692,-48366.254,-55857.63,-29435.67,-9389.526,-36038.37,-38882.406,-53068.688,-15064.087
801717.1574335645,-48364.42,-55856.285,-29434.287,-9389.7705,-36040.73,-38883.098,-53070.76,-15070.517
801717.16143356,-48360.11,-55852.906,-29430.828,-9388.103,-36039.188,-38883.3,-53072.31,-15071.981
801717.1654335553,-48359.863,-55854.656,-29428.875,-9386.638,-36038.902,-38882.938,-53066.57,-15069.865
801717.1694335506,-48356.855,-55854.332,-29426.148,-9384.807,-36037.883,-38882.367,-53060.387,-15062.866
801717.173433546,-48353.477,-55853.56,-29421.062,-9384.318,-36037.56,-38880.086,-53055.543,-15058.757
801717.1774335413,-48356.934,-55854.574,-29420.127,-9383.789,-36037.56,-38877.81,-53054.527,-15061.279
801717.1814335367,-48360.76,-55858.32,-29418.701,-9384.033,-36040.49,-38876.383,-53056.844,-15062.419
801717.185433532,-48360.477,-55858.727,-29416.504,-9382.487,-36040.934,-38874.88,-53056.03,-15060.873
801717.1894335274,-48363.242,-55861.047,-29416.057,-9383.505,-36043.375,-38876.06,-53055.176,-15057.414
801717.1934335227,-48363.445,-55860.637,-29423.34,-9387.207,-36042.562,-38874.35,-53049.195,-15050.822
801717.1974335181,-48368.086,-55864.668,-29424.766,-9388.957,-36043.133,-38872.926,-53049.24,-15058.635
801717.2014335134,-48371.137,-55866.863,-29425.986,-9389.648,-36046.51,-38872.477,-53049.887,-15069.865
801717.2054335088,-48371.137,-55864.34,-29426.19,-9389.526,-36045.777,-38873.008,-53050.58,-15077.515
801717.2094335041,-48370.934,-55860.637,-29423.87,-9388.469,-36040.285,-38874.637,-53050.78,-15080.607
801717.2134334996,-48371.055,-55860.965,-29423.26,-9386.068,-36038.74,-38875.49,-53048.83,-15084.229
801717.2174334949,-48376.508,-55865.805,-29425.537,-9386.923,-36041.75,-38876.223,-53051.027,-15088.501
801717.2214334903,-48381.43,-55871.707,-29428.549,-9389.486,-36044.598,-38877.89,-53057.617,-15095.297
801717.2254334856,-48383.914,-55874.23,-29432.17,-9388.998,-36045.492,-38878.95,-53065.758,-15106.161
801717.229433481,-48389.12,-55878.176,-29436.89,-9390.463,-36047.49,-38881.51,-53072.754,-15115.764
801717.2334334763,-48393.15,-55880.7,-29441.488,-9389.893,-36045.33,-38883.098,-53073.69,-15118.774
801717.2374334717,-48394.207,-55882.773,-29443.238,-9390.422,-36045.168,-38883.22,-53077.273,-15122.763
801717.241433467,-48395.145,-55882.203,-29448.73,-9390.544,-36044.598,-38883.3,-53080.895,-15125.773
801717.2454334623,-48397.746,-55884.035,-29454.307,-9391.724,-36045.613,-38885.17,-53084.434,-15126.303
801717.2494334577,-48397.83,-55886.312,-29449.627,-9391.357,-36046.348,-38888.59,-53086.875,-15128.662
801717.253433453,-48393.68,-55884.645,-29442.383,-9390.91,-36046.793,-38889.406,-53084.434,-15128.54
801717.2574334485,-48393.8,-55885.99,-29439.453,-9388.794,-36048.746,-38886.19,-53080.445,-15127.93
801717.2614334438,-48393.516,-55885.418,-29437.135,-9389.486,-36051.637,-38882.895,-53077.395,-15130.575
801717.2654334392,-48393.027,-55884.973,-29436.484,-9391.032,-36052.33,-38878.133,-53071.21,-15127.971
801717.2694334345,-48394.816,-55885.38,-29435.14,-9391.032,-36053.63,-38876.71,-53066.734,-15122.519
801717.2734334299,-48396.12,-55886.516,-29437.705,-9393.2705,-36053.836,-38877.848,-53063.07,-15120.891
801717.2774334252,-48397.383,-55888.39,-29439.17,-9395.59,-36051.883,-38878.906,-53064.332,-15120.605
801717.2814334206,-48400.473,-55889.61,-29439.047,-9394.775,-36052.652,-38880.86,-53065.35,-15121.908
801717.2854334159,-48399.902,-55886.844,-29438.314,-9393.921,-36051.516,-38879.64,-53061.973,-15122.844
801717.2894334113,-48397.79,-55883.71,-29438.355,-9393.759,-36051.598,-38879.477,-53057.984,-15115.805
801717.2934334066,-48395.67,-55881.348,-29439.535,-9393.352,-36050.7,-38880.984,-53056.844,-15116.374
801717.297433402,-48396.324,-55880.414,-29441.57,-9395.02,-36047.16,-38882.406,-53056.766,-15120.6875
801717.3014333973,-48397.46,-55881.594,-29439.047,-9394.572,-36045.37,-38882.164,-53058.434,-15126.791
801717.3054333928,-48397.95,-55883.71,-29436.688,-9393.393,-36045.207,-38882.527,-53060.14,-15135.132
801717.309433388,-48400.312,-55885.254,-29438.72,-9393.555,-36047.0,-38885.336,-53065.594,-15141.562
801717.3134333835,-48398.562,-55882.406,-29442.262,-9391.806,-36043.54,-38885.66,-53065.35,-15141.928
801717.3174333788,-48401.777,-55883.63,-29444.215,-9390.991,-36041.668,-38886.312,-53067.098,-15144.287
801717.3214333741,-48403.81,-55884.605,-29443.238,-9390.91,-36041.953,-38885.457,-53067.06,-15145.468
801717.3254333695,-48404.95,-55886.152,-29446.982,-9391.724,-36045.25,-38885.01,-53066.45,-15144.369
801717.3294333648,-48407.473,-55888.266,-29452.393,-9392.538,-36046.387,-38887.41,-53066.773,-15145.712
801717.3334333602,-48407.676,-55888.145,-29450.928,-9393.596,-36045.168,-38888.797,-53067.586,-15147.258
801717.3374333555,-48407.15,-55885.215,-29451.336,-9391.968,-36045.777,-38888.387,-53067.223,-15147.949
801717.3414333509,-48410.035,-55888.43,-29452.354,-9392.131,-36048.258,-38888.227,-53068.523,-15148.52
801717.3454333462,-48411.094,-55889.73,-29452.475,-9390.829,-36048.016,-38887.9,-53069.297,-15149.008
801717.3494333416,-48408.043,-55886.883,-29450.848,-9388.672,-36046.1,-38888.145,-53067.793,-15149.292
801717.353433337,-48404.5,-55884.89,-29447.633,-9387.492,-36041.832,-38889.812,-53066.33,-15155.029
801717.3574333324,-48405.926,-55887.535,-29445.639,-9386.435,-36041.707,-38890.42,-53068.848,-15163.046
801717.3614333277,-48405.56,-55887.82,-29446.9,-9385.864,-36044.19,-38889.85,-53068.645,-15164.877
801717.3654333231,-48405.926,-55889.16,-29442.424,-9387.37,-36046.227,-38890.42,-53067.63,-15171.875
801717.3694333184,-48405.926,-55889.977,-29440.879,-9391.032,-36050.336,-38890.055,-53068.32,-15180.38
801717.3734333138,-48403.973,-55888.43,-29439.658,-9391.887,-36048.707,-38888.227,-53064.332,-15179.159
801717.3774333091,-48402.59,-55884.688,-29440.309,-9390.625,-36047.203,-38885.62,-53060.387,-15177.979
801717.3814333045,-48405.03,-55887.492,-29440.756,-9391.562,-36048.668,-38884.44,-53059.652,-15181.356
801717.3854332998,-48406.66,-55889.65,-29440.39,-9392.782,-36049.277,-38882.895,-53057.54,-15179.24
801717.3894332952,-48409.1,-55893.434,-29442.791,-9393.555,-36050.78,-38879.273,-53053.957,-15179.403
801717.3934332905,-48409.383,-55894.168,-29443.604,-9394.043,-36048.83,-38877.93,-53050.293,-15175.537
801717.3974332858,-48411.055,-55895.633,-29445.477,-9395.386,-36047.65,-38879.844,-53049.074,-15178.305
801717.4014332813,-48411.01,-55892.62,-29444.459,-9392.619,-36046.43,-38881.145,-53050.457,-15180.542
801717.4054332766,-48411.62,-55891.36,-29442.465,-9391.643,-36043.99,-38881.715,-53051.312,-15179.565
801717.409433272,-48409.465,-55889.324,-29446.412,-9391.928,-36042.848,-38881.715,-53051.598,-15182.129
801717.4134332673,-48407.35,-55884.848,-29445.842,-9389.282,-36037.477,-38881.676,-53050.496,-15184.164
801717.4174332627,-48406.09,-55879.965,-29443.645,-9388.103,-36033.61,-38882.57,-53054.61,-15192.221
801717.421433258,-48407.105,-55879.316,-29446.453,-9387.858,-36033.367,-38883.832,-53059.164,-15196.655
801717.4254332534,-48408.652,-55880.008,-29446.738,-9388.388,-36035.848,-38884.562,-53061.32,-15200.033
801717.4294332487,-48409.223,-55879.355,-29445.395,-9389.812,-36038.492,-38886.56,-53060.387,-15196.737
801717.4334332441,-48407.88,-55878.34,-29444.012,-9390.625,-36039.836,-38887.004,-53056.113,-15192.424
801717.4374332394,-48409.71,-55882.812,-29443.727,-9389.812,-36041.098,-38888.31,-53057.09,-15195.3125
801717.4414332348,-48410.93,-55882.855,-29442.588,-9390.3,-36039.51,-38887.98,-53057.902,-15194.214
801717.4454332301,-48409.914,-55880.293,-29446.656,-9390.178,-36039.47,-38887.37,-53059.53,-15192.912
801717.4494332256,-48409.996,-55882.043,-29449.383,-9391.846,-36040.812,-38888.67,-53064.21,-15197.998
801717.4534332209,-48412.312,-55885.62,-29448.406,-9392.7,-36041.63,-38890.625,-53067.668,-15199.992
801717.4574332163,-48414.348,-55886.926,-29448.447,-9393.677,-36043.945,-38893.473,-53071.98,-15208.7
801717.4614332116,-48415.57,-55890.547,-29448.324,-9394.084,-36043.66,-38893.72,-53075.24,-15215.292
801717.4654332069,-48416.22,-55892.703,-29446.777,-9393.311,-36045.125,-38892.703,-53075.117,-15221.518
801717.4694332023,-48414.55,-55891.81,-29441.447,-9391.968,-36044.273,-38893.395,-53075.44,-15224.813
801717.4734331976,-48412.76,-55891.848,-29439.82,-9390.585,-36040.285,-38895.508,-53074.707,-15226.685
801717.477433193,-48413.37,-55893.19,-29440.39,-9390.585,-36041.547,-38893.8,-53070.883,-15226.929
801717.4814331883,-48415.242,-55893.637,-29442.912,-9393.921,-36045.33,-38892.17,-53068.074,-15228.882
801717.4854331837,-48419.273,-55897.625,-29443.848,-9394.816,-36046.305,-38891.645,-53065.27,-15232.219
801717.489433179,-48425.863,-55902.223,-29449.098,-9397.502,-36051.8,-38890.465,-53063.64,-15237.671
801717.4934331744,-48429.324,-55906.74,-29450.44,-9398.031,-36053.957,-38891.6,-53062.137,-15240.438
801717.4974331697,-48433.594,-55910.973,-29451.092,-9399.333,-36055.582,-38889.324,-53060.957,-15240.356
801717.5014331652,-48435.63,-55912.395,-29454.387,-9398.234,-36054.16,-38886.15,-53061.16,-15240.153
801717.5054331605,-48431.277,-55909.875,-29451.336,-9395.712,-36051.8,-38885.094,-53058.516,-15240.153
801717.5094331559,-48428.1,-55908.816,-29448.121,-9394.409,-36050.66,-38885.05,-53056.97,-15238.281
801717.5134331512,-48427.816,-55909.914,-29447.227,-9394.816,-36048.87,-38887.41,-53057.984,-15238.688
801717.5174331466,-48428.914,-55910.973,-29446.494,-9392.944,-36048.953,-38889.85,-53059.773,-15243.979
801717.5214331419,-48427.816,-55908.367,-29447.186,-9392.578,-36047.04,-38892.254,-53063.52,-15250.814
801717.5254331373,-48427.29,-55906.74,-29448.936,-9393.393,-36047.977,-38891.44,-53065.633,-15254.028
801717.5294331326,-48424.684,-55903.73,-29450.44,-9394.694,-36050.09,-38893.15,-53066.246,-15252.035
801717.533433128,-48422.73,-55898.766,-29451.783,-9395.305,-36046.59,-38895.145,-53068.484,-15253.54
801717.5374331233,-48423.543,-55902.184,-29451.254,-9395.061,-36047.73,-38894.207,-53067.305,-15248.983
801717.5414331186,-48421.227,-55901.45,-29447.998,-9393.2295,-36047.08,-38893.8,-53067.793,-15245.972
801717.545433114,-48418.824,-55897.746,-29446.412,-9390.829,-36043.703,-38894.41,-53069.46,-15244.629
801717.5494331094,-48416.016,-55894.574,-29442.832,-9387.98,-36041.383,-38893.637,-53069.38,-15241.984
801717.5534331048,-48411.824,-55890.137,-29438.314,-9387.573,-36039.145,-38895.1,-53070.76,-15246.216
801717.5574331001,-48412.965,-55889.57,-29441.0,-9389.445,-36040.242,-38895.67,-53075.24,-15250.8545
801717.5614330955,-48416.426,-55893.72,-29443.604,-9389.12,-36042.44,-38895.71,-53078.574,-15257.202
801717.5654330908,-48419.355,-55897.22,-29445.883,-9389.404,-36047.04,-38897.34,-53082.723,-15270.427
801717.5694330862,-48418.457,-55896.566,-29446.982,-9389.201,-36047.73,-38898.684,-53087.934,-15280.762
801717.5734330815,-48418.66,-55898.4,-29449.707,-9390.137,-36045.613,-38899.78,-53092.695,-15289.877
801717.5774330769,-48420.25,-55897.383,-29452.598,-9390.097,-36046.633,-38902.06,-53094.363,-15296.184
801717.5814330722,-48415.49,-55891.727,-29448.121,-9388.021,-36047.324,-38902.914,-53093.914,-15301.555
801717.5854330676,-48414.023,-55891.074,-29446.127,-9386.557,-36046.387,-38901.004,-53091.637,-15307.983
801717.5894330629,-48416.098,-55893.027,-29447.674,-9386.19,-36044.76,-38897.543,-53087.85,-15309.937
801717.5934330584,-48420.74,-55897.18,-29451.254,-9388.103,-36046.1,-38896.89,-53087.934,-15312.46
801717.5974330537,-48421.754,-55899.336,-29452.393,-9388.51,-36048.42,-38896.688,-53089.113,-15317.749
801717.6014330491,-48422.812,-55902.02,-29450.156,-9388.754,-36053.67,-38896.363,-53090.66,-15322.144
801717.6054330444,-48422.0,-55904.504,-29449.3,-9390.137,-36056.766,-38896.85,-53091.15,-15323.853
801717.6094330398,-48420.98,-55905.805,-29449.707,-9390.625,-36056.277,-38895.062,-53088.664,-15323.405
801717.6134330351,-48420.535,-55905.234,-29450.277,-9391.765,-36058.023,-38895.184,-53088.016,-15327.637
801717.6174330304,-48421.957,-55907.92,-29451.865,-9394.003,-36059.57,-38897.34,-53087.934,-15324.992
801717.6214330258,-48419.027,-55904.504,-29450.562,-9392.294,-36056.4,-38898.64,-53085.695,-15320.109
801717.6254330211,-48413.574,-55900.676,-29447.795,-9389.282,-36053.348,-38898.562,-53084.35,-15318.604
801717.6294330165,-48415.0,-55901.043,-29449.586,-9390.91,-36053.754,-38898.4,-53081.91,-15312.744
801717.6334330118,-48416.953,-55901.043,-29449.83,-9392.985,-36053.426,-38897.258,-53079.43,-15307.455
801717.6374330072,-48418.867,-55902.59,-29451.54,-9393.188,-36056.07,-38896.65,-53080.934,-15309.204
801717.6414330025,-48417.93,-55903.08,-29452.637,-9393.188,-36056.113,-38897.586,-53085.37,-15309.082
801717.645432998,-48416.832,-55901.53,-29450.645,-9394.206,-36056.887,-38899.58,-53088.38,-15310.71
801717.6494329933,-48416.504,-55901.938,-29448.691,-9396.078,-36057.535,-38901.043,-53088.22,-15310.832
801717.6534329887,-48409.914,-55894.492,-29443.035,-9393.393,-36052.41,-38901.367,-53086.1,-15309.123
801717.657432984,-48408.164,-55890.504,-29440.756,-9390.503,-36048.137,-38901.207,-53085.574,-15309.448
801717.6614329794,-48407.555,-55888.348,-29436.2,-9388.591,-36046.387,-38898.844,-53083.54,-15307.089
801717.6654329747,-48402.387,-55884.688,-29439.17,-9387.085,-36039.88,-38897.992,-53080.527,-15304.443
801717.6694329701,-48408.203,-55890.016,-29442.547,-9389.486,-36042.684,-38898.4,-53082.113,-15306.193
801717.6734329654,-48411.5,-55891.93,-29444.824,-9392.497,-36043.133,-38897.176,-53084.35,-15305.746
801717.6774329608,-48413.008,-55892.09,-29443.889,-9391.154,-36042.562,-38898.48,-53088.83,-15320.883
801717.6814329561,-48415.938,-55893.434,-29444.865,-9389.893,-36042.117,-38899.984,-53095.055,-15340.21
801717.6854329515,-48419.11,-55896.484,-29445.273,-9389.12,-36042.887,-38902.875,-53099.406,-15348.389
801717.6894329468,-48419.637,-55898.438,-29444.336,-9388.55,-36044.23,-38903.08,-53099.61,-15349.121
801717.6934329421,-48416.383,-55895.266,-29445.762,-9388.428,-36041.098,-38900.23,-53093.344,-15345.093
801717.6974329376,-48418.133,-55898.36,-29448.203,-9391.154,-36042.97,-38899.496,-53087.527,-15342.8955
801717.7014329329,-48418.62,-55899.21,-29450.318,-9391.643,-36043.945,-38900.35,-53085.613,-15350.22
801717.7054329283,-48419.637,-55899.008,-29452.11,-9390.137,-36044.027,-38900.31,-53084.188,-15359.66
801717.7094329236,-48421.145,-55899.09,-29454.55,-9390.097,-36043.17,-38899.984,-53079.918,-15359.985
801717.713432919,-48419.434,-55898.52,-29455.445,-9390.625,-36043.54,-38900.105,-53073.773,-15354.858
801717.7174329143,-48419.07,-55898.074,-29456.055,-9391.602,-36044.273,-38900.39,-53069.094,-15351.115
801717.7214329097,-48418.66,-55895.996,-29453.898,-9391.4795,-36043.375,-38898.355,-53066.49,-15345.825
801717.725432905,-48414.754,-55894.613,-29449.627,-9390.666,-36043.17,-38896.16,-53064.13,-15322.51
801717.7294329004,-48407.758,-55889.773,-29442.953,-9386.841,-36041.26,-38896.363,-53061.605,-15292.644
801717.7334328957,-48399.984,-55883.465,-29435.71,-9384.237,-36036.867,-38898.195,-53062.582,-15284.14
801717.7374328912,-48399.617,-55882.895,-29442.953,-9384.44,-36032.676,-38896.65,-53062.91,-15277.222
801717.7414328865,-48404.83,-55886.56,-29444.541,-9387.492,-36034.586,-38894.9,-53063.926,-15277.385
801717.7454328819,-48409.793,-55891.684,-29445.883,-9390.625,-36037.477,-38893.68,-53063.844,-15276.327
801717.7494328772,-48410.973,-55893.434,-29450.033,-9392.334,-36039.43,-38893.11,-53066.652,-15277.263
801717.7534328726,-48413.86,-55894.207,-29454.713,-9393.188,-36038.617,-38894.29,-53068.402,-15276.53
801717.7574328679,-48420.453,-55898.156,-29458.66,-9393.881,-36041.832,-38898.438,-53070.76,-15278.646
801717.7614328633,-48422.406,-55897.383,-29459.434,-9391.357,-36042.93,-38898.355,-53072.754,-15278.158
801717.7654328586,-48422.08,-55895.43,-29455.893,-9389.689,-36041.79,-38897.38,-53073.406,-15278.28
801717.7694328539,-48418.54,-55891.848,-29451.58,-9388.55,-36038.414,-38896.445,-53071.453,-15281.82
801717.7734328493,-48416.707,-55889.895,-29449.545,-9390.097,-36036.258,-38894.816,-53067.832,-15285.767
801717.7774328446,-48418.05,-55892.5,-29451.824,-9392.294,-36039.145,-38891.766,-53065.96,-15289.958
801717.78143284,-48419.355,-55892.58,-29452.922,-9393.515,-36041.3,-38889.242,-53065.676,-15292.685
801717.7854328353,-48418.215,-55893.598,-29449.342,-9393.066,-36039.266,-38885.54,-53064.168,-15295.492
801717.7894328308,-48418.01,-55895.508,-29448.73,-9393.066,-36038.98,-38882.324,-53060.547,-15294.23
801717.7934328261,-48418.62,-55898.156,-29449.3,-9395.102,-36041.547,-38882.57,-53062.99,-15301.352
801717.7974328215,-48424.805,-55902.59,-29453.654,-9397.746,-36045.74,-38884.24,-53062.83,-15302.897
801717.8014328168,-48428.305,-55904.297,-29454.102,-9397.136,-36047.203,-38883.914,-53062.137,-15309.692
801717.8054328122,-48428.062,-55904.297,-29455.486,-9397.787,-36045.37,-38882.652,-53059.9,-15312.744
801717.8094328075,-48431.64,-55905.844,-29460.41,-9398.804,-36046.47,-38884.277,-53059.855,-15319.174
801717.8134328029,-48432.457,-55904.137,-29463.705,-9397.624,-36041.992,-38886.434,-53055.38,-15316.936
801717.8174327982,-48434.41,-55903.605,-29467.367,-9397.583,-36041.832,-38886.598,-53053.145,-15310.954
801717.8214327936,-48431.64,-55901.98,-29464.275,-9395.224,-36038.98,-38886.68,-53049.887,-15304.321
801717.8254327889,-48431.64,-55903.08,-29460.898,-9393.677,-36042.48,-38887.613,-53047.65,-15297.7295
801717.8294327843,-48434.125,-55904.38,-29461.508,-9394.043,-36044.8,-38890.543,-53048.098,-15297.079
801717.8334327796,-48429.89,-55899.133,-29457.072,-9392.497,-36040.12,-38892.66,-53047.73,-15295.126
801717.837432775,-48428.914,-55897.79,-29458.945,-9391.032,-36037.68,-38894.086,-53052.816,-15299.235
801717.8414327704,-48432.984,-55900.84,-29461.63,-9390.3,-36038.086,-38894.86,-53059.367,-15305.746
801717.8454327657,-48438.76,-55906.902,-29463.299,-9391.602,-36041.42,-38897.137,-53067.06,-15311.768
801717.8494327611,-48437.99,-55906.863,-29463.746,-9389.567,-36039.266,-38898.355,-53069.38,-15314.128
801717.8534327564,-48436.605,-55904.34,-29459.31,-9389.038,-36036.05,-38899.332,-53069.5,-15321.899
801717.8574327518,-48437.01,-55902.344,-29462.363,-9389.404,-36034.02,-38899.902,-53070.516,-15320.72
801717.8614327471,-48440.188,-55904.22,-29463.379,-9388.388,-36034.426,-38898.4,-53071.617,-15321.411
801717.8654327425,-48440.797,-55907.023,-29463.055,-9388.672,-36036.867,-38899.09,-53072.88,-15333.008
801717.8694327378,-48440.227,-55909.1,-29462.363,-9390.015,-36040.04,-38899.984,-53076.703,-15341.146
801717.8734327332,-48440.473,-55912.234,-29459.922,-9391.357,-36040.895,-38899.58,-53074.953,-15340.21
801717.8774327285,-48441.406,-55915.04,-29456.951,-9390.544,-36040.285,-38899.863,-53074.79,-15345.337
801717.881432724,-48441.855,-55917.2,-29454.428,-9390.137,-36039.715,-38898.48,-53075.81,-15353.231
801717.8854327193,-48444.582,-55920.656,-29455.404,-9391.357,-36045.168,-38897.38,-53074.63,-15356.975
801717.8894327147,-48449.992,-55924.93,-29460.002,-9394.125,-36047.406,-38896.445,-53073.773,-15365.234
801717.89343271,-48449.992,-55924.684,-29460.246,-9395.834,-36047.04,-38894.98,-53071.13,-15367.717
801717.8974327054,-48448.855,-55923.707,-29455.73,-9395.061,-36044.598,-38893.434,-53068.688,-15367.676
801717.9014327007,-48450.035,-55924.113,-29459.107,-9396.973,-36045.453,-38894.613,-53066.938,-15365.845
801717.9054326961,-48449.18,-55923.098,-29460.37,-9395.752,-36043.54,-38896.527,-53069.336,-15369.141
801717.9094326914,-48447.754,-55921.594,-29460.693,-9394.165,-36041.832,-38898.844,-53072.227,-15371.664
801717.9134326867,-48443.93,-55918.945,-29459.596,-9391.887,-36037.64,-38898.234,-53068.36,-15364.502
801717.9174326821,-48442.87,-55917.32,-29458.945,-9390.463,-36037.395,-38898.887,-53066.816,-15363.119
801717.9214326774,-48443.24,-55918.215,-29461.467,-9391.113,-36036.703,-38898.64,-53065.555,-15361.166
801717.9254326728,-48446.7,-55920.9,-29463.623,-9392.822,-36037.312,-38899.58,-53065.145,-15363.241
801717.9294326681,-48446.414,-55920.82,-29462.729,-9392.294,-36034.06,-38898.438,-53062.176,-15356.161
801717.9334326636,-48442.586,-55918.215,-29462.24,-9390.91,-36031.863,-38897.46,-53057.54,-15352.783
801717.9374326589,-48443.645,-55920.004,-29464.111,-9392.456,-36032.797,-38895.426,-53056.355,-15352.824
801717.9414326543,-48442.02,-55917.688,-29462.12,-9391.154,-36032.188,-38894.086,-53059.043,-15353.231
801717.9454326496,-48442.75,-55918.254,-29463.299,-9391.195,-36029.95,-38895.836,-53062.703,-15353.76
801717.949432645,-48445.395,-55917.81,-29463.99,-9389.608,-36032.145,-38898.195,-53066.57,-15362.0205
801717.9534326403,-48446.13,-55918.05,-29464.885,-9391.887,-36031.78,-38899.58,-53067.02,-15363.444
801717.9574326357,-48448.977,-55921.184,-29466.025,-9394.9795,-36033.69,-38902.547,-53069.38,-15367.27
801717.961432631,-48452.56,-55925.05,-29463.867,-9392.822,-36034.14,-38904.785,-53070.395,-15371.623
801717.9654326264,-48451.215,-55921.31,-29468.71,-9392.863,-36033.246,-38903.566,-53069.176,-15374.431
801717.9694326217,-48454.145,-55924.156,-29470.256,-9395.224,-36035.402,-38901.816,-53065.555,-15376.628
801717.9734326171,-48455.04,-55926.598,-29471.6,-9396.688,-36037.027,-38902.06,-53059.652,-15379.68
801717.9774326124,-48452.637,-55923.91,-29470.053,-9396.403,-36034.14,-38900.594,-53053.426,-15378.012
801717.9814326079,-48453.207,-55923.42,-29468.467,-9395.224,-36031.375,-38896.89,-53049.156,-15372.437
801717.9854326032,-48454.062,-55925.05,-29471.518,-9395.183,-36033.49,-38895.426,-53049.03,-15370.158
801717.9894325985,-48456.016,-55928.266,-29476.889,-9397.258,-36036.664,-38896.527,-53050.62,-15375.732
801717.9934325939,-48456.465,-55926.92,-29478.232,-9398.926,-36037.234,-38895.996,-53050.09,-15381.836
801717.9974325892,-48456.707,-55926.395,-29477.5,-9398.071,-36034.832,-38899.375,-53053.754,-15388.998
801718.0014325846,-48456.586,-55926.883,-29477.215,-9396.851,-36034.06,-38903.484,-53063.56,-15396.566
801718.0054325799,-48454.715,-55925.863,-29476.238,-9394.938,-36033.45,-38905.723,-53069.05,-15403.28
801718.0094325753,-48453.41,-55923.953,-29476.035,-9391.968,-36035.28,-38909.305,-53073.04,-15408.488
801718.0134325706,-48448.12,-55917.727,-29471.436,-9388.672,-36030.68,-38908.69,-53072.836,-15409.262
801718.017432566,-48449.383,-55919.434,-29468.629,-9390.137,-36027.996,-38908.082,-53075.727,-15412.15
801718.0214325613,-48453.168,-55921.31,-29472.332,-9392.497,-36029.625,-38909.547,-53080.65,-15415.731
801718.0254325568,-48456.055,-55922.812,-29475.547,-9394.003,-36032.758,-38908.773,-53083.336,-15414.714
801718.029432552,-48452.312,-55918.01,-29475.139,-9393.188,-36031.74,-38909.02,-53085.086,-15415.161
801718.0334325475,-48448.69,-55913.656,-29472.373,-9392.456,-36029.95,-38907.96,-53082.44,-15412.231
801718.0374325428,-48448.203,-55915.367,-29474.732,-9393.352,-36027.67,-38905.887,-53076.945,-15406.657
801718.0414325382,-48446.332,-55914.39,-29473.389,-9393.148,-36026.33,-38905.887,-53078.25,-15414.633
801718.0454325335,-48446.86,-55915.367,-29470.867,-9392.212,-36028.117,-38906.25,-53073.57,-15408.691
801718.0494325289,-48453.613,-55921.387,-29472.82,-9395.956,-36030.723,-38906.21,-53069.05,-15407.837
801718.0534325242,-48458.54,-55924.93,-29475.059,-9397.339,-36034.223,-38905.887,-53066.043,-15411.052
801718.0574325196,-48459.637,-55927.98,-29474.365,-9396.811,-36034.305,-38906.535,-53061.605,-15409.75
801718.0614325149,-48461.02,-55928.996,-29475.424,-9397.909,-36036.215,-38904.91,-53058.39,-15412.558
801718.0654325102,-48463.543,-55930.42,-29475.586,-9400.229,-36038.574,-38903.363,-53053.59,-15415.527
801718.0694325056,-48463.83,-55932.902,-29474.854,-9402.06,-36040.04,-38902.47,-53050.254,-15415.69
801718.0734325009,-48467.53,-55936.445,-29475.75,-9402.344,-36041.953,-38902.875,-53048.016,-15418.051
801718.0774324964,-48470.83,-55941.53,-29475.668,-9402.629,-36043.336,-38904.46,-53048.668,-15418.417
801718.0814324917,-48472.74,-55943.36,-29475.953,-9403.402,-36042.766,-38904.582,-53050.17,-15422.648
801718.0854324871,-48470.055,-55940.797,-29472.332,-9400.432,-36040.812,-38900.797,-53048.3,-15425.497
801718.0894324824,-48471.316,-55942.793,-29468.223,-9399.048,-36039.676,-38898.887,-53046.957,-15424.194
801718.0934324778,-48475.508,-55946.777,-29471.355,-9401.042,-36041.832,-38901.855,-53050.984,-15429.037
801718.0974324731,-48474.45,-55946.13,-29476.4,-9400.473,-36040.69,-38903.85,-53057.82,-15433.96
801718.1014324685,-48476.44,-55947.715,-29477.418,-9398.804,-36042.4,-38904.746,-53065.43,-15441.772
801718.1054324638,-48481.367,-55950.48,-29479.045,-9398.682,-36046.184,-38907.023,-53075.4,-15452.597
801718.1094324592,-48480.797,-55949.79,-29479.86,-9398.031,-36045.37,-38910.77,-53081.42,-15461.752
801718.1134324545,-48477.215,-55945.598,-29476.074,-9395.915,-36042.24,-38912.027,-53084.84,-15466.594
801718.11743245,-48477.703,-55942.87,-29479.736,-9397.217,-36038.047,-38914.188,-53092.41,-15474.203
801718.1214324452,-48477.906,-55942.18,-29478.639,-9397.055,-36035.44,-38914.47,-53099.367,-15476.889
801718.1254324407,-48478.477,-55943.035,-29480.225,-9397.136,-36034.914,-38913.86,-53099.652,-15476.237
801718.129432436,-48477.664,-55941.164,-29480.307,-9396.159,-36033.773,-38913.414,-53096.113,-15469.157
801718.1334324314,-48472.58,-55935.426,-29477.906,-9392.944,-36031.414,-38912.395,-53086.426,-15457.194
801718.1374324267,-48472.7,-55934.652,-29479.33,-9392.66,-36028.85,-38911.38,-53079.47,-15449.951
801718.141432422,-48478.152,-55939.375,-29478.72,-9392.782,-36030.19,-38909.63,-53073.082,-15444.011
801718.1454324174,-48481.285,-55941.816,-29480.633,-9394.369,-36033.69,-38909.14,-53069.176,-15443.767
801718.1494324127,-48480.957,-55942.06,-29482.91,-9397.502,-36034.426,-38908.652,-53064.7,-15442.465
801718.1534324081,-48477.742,-55939.332,-29479.777,-9398.071,-36032.555,-38906.496,-53057.82,-15440.1455
801718.1574324034,-48479.74,-55942.465,-29480.633,-9398.275,-36034.305,-38906.047,-53052.613,-15437.134
801718.1614323988,-48485.19,-55946.414,-29484.092,-9399.658,-36035.848,-38906.008,-53051.72,-15443.115
801718.1654323941,-48489.46,-55950.645,-29488.73,-9400.554,-36040.73,-38904.746,-53049.52,-15446.94
801718.1694323895,-48491.17,-55952.11,-29486.695,-9400.879,-36041.26,-38901.246,-53046.31,-15446.981
801718.1734323849,-48491.496,-55952.23,-29489.299,-9402.344,-36041.06,-38900.35,-53040.61,-15444.214
801718.1774323803,-48493.652,-55954.875,-29487.143,-9402.629,-36042.766,-38900.35,-53040.812,-15446.045
801718.1814323756,-48497.56,-55957.6,-29490.887,-9403.524,-36041.668,-38899.17,-53044.07,-15449.911
801718.185432371,-48496.83,-55956.504,-29490.479,-9402.304,-36039.594,-38899.008,-53046.227,-15454.794
801718.1894323663,-48496.543,-55954.957,-29490.398,-9402.751,-36037.07,-38902.63,-53051.312,-15460.815
801718.1934323617,-48494.344,-55952.92,-29489.707,-9400.757,-36033.977,-38906.58,-53060.67,-15471.762
801718.197432357,-48493.207,-55951.5,-29487.998,-9398.886,-36033.652,-38910.156,-53072.754,-15485.474
801718.2014323524,-48494.305,-55951.62,-29491.13,-9398.52,-36035.44,-38914.715,-53085.164,-15499.105
801718.2054323477,-48495.445,-55953.656,-29492.393,-9399.252,-36036.297,-38918.215,-53092.082,-15509.399
801718.2094323431,-48494.832,-55952.273,-29490.398,-9397.217,-36036.01,-38920.86,-53096.926,-15512.777
801718.2134323384,-48487.305,-55945.723,-29484.05,-9395.102,-36033.203,-38922.363,-53098.023,-15510.702
801718.2174323337,-48483.97,-55944.133,-29484.01,-9394.775,-36030.965,-38925.05,-53102.5,-15515.503
801718.2214323292,-48482.832,-55942.547,-29482.342,-9394.287,-36029.46,-38924.316,-53104.492,-15516.928
801718.2254323245,-48481.406,-55941.938,-29479.574,-9392.619,-36030.113,-38923.504,-53107.504,-15520.834
801718.2294323199,-48482.707,-55943.605,-29478.924,-9392.782,-36032.066,-38922.85,-53107.06,-15521.647
801718.2334323152,-48484.09,-55943.77,-29481.283,-9394.816,-36033.773,-38922.445,-53100.426,-15516.806
801718.2374323106,-48488.73,-55949.832,-29484.13,-9398.193,-36034.71,-38918.906,-53093.1,-15509.399
801718.2414323059,-48493.004,-55953.332,-29486.94,-9400.879,-36037.273,-38917.523,-53090.047,-15499.96
801718.2454323013,-48489.746,-55948.977,-29486.816,-9399.374,-36035.973,-38917.605,-53085.043,-15495.483
801718.2494322966,-48489.34,-55948.977,-29485.148,-9398.315,-36036.094,-38915.812,-53078.492,-15488.7295
801718.253432292,-48490.438,-55948.895,-29486.533,-9399.292,-36033.33,-38910.973,-53066.246,-15482.219
801718.2574322873,-48491.496,-55948.977,-29486.451,-9401.286,-36034.508,-38908.246,-53057.742,-15481.812
801718.2614322827,-48493.086,-55951.824,-29487.387,-9404.135,-36038.086,-38904.83,-53052.043,-15481.608
801718.265432278,-48493.938,-55955.08,-29487.998,-9404.948,-36039.105,-38901.652,-53048.586,-15484.375
801718.2694322735,-48496.176,-55955.445,-29494.182,-9405.559,-36036.664,-38897.95,-53044.637,-15485.881
801718.2734322688,-48497.723,-55956.055,-29495.646,-9407.39,-36037.68,-38897.137,-53041.18,-15486.125
801718.2774322642,-48500.285,-55957.805,-29497.111,-9409.424,-36040.242,-38898.48,-53042.074,-15491.618
801718.2814322595,-48500.57,-55960.53,-29496.623,-9409.302,-36040.73,-38899.984,-53046.145,-15500.041
801718.2854322548,-48500.49,-55959.11,-29492.596,-9407.1045,-36039.715,-38900.555,-53048.383,-15498.251
801718.2894322502,-48500.125,-55958.293,-29493.246,-9405.355,-36038.82,-38902.06,-53053.67,-15504.599
801718.2934322455,-48499.51,-55957.52,-29493.164,-9405.3955,-36037.64,-38903.484,-53057.09,-15510.214
801718.2974322409,-48500.33,-55957.805,-29491.496,-9403.931,-36035.93,-38904.625,-53058.92,-15518.066
801718.3014322362,-48502.24,-55961.266,-29492.432,-9406.372,-36034.63,-38909.14,-53065.676,-15522.461
801718.3054322316,-48502.484,-55961.145,-29491.008,-9405.884,-36037.07,-38913.004,-53072.39,-15533.691
801718.3094322269,-48502.035,-55961.508,-29490.52,-9407.023,-36037.438,-38914.797,-53080.73,-15544.678
801718.3134322223,-48501.668,-55959.35,-29489.707,-9406.576,-36036.824,-38915.445,-53083.742,-15548.056
801718.3174322176,-48504.56,-55961.793,-29493.49,-9407.593,-36038.98,-38915.977,-53087.402,-15543.579
801718.3214322131,-48505.535,-55964.844,-29495.605,-9407.1045,-36040.406,-38915.082,-53087.402,-15544.475
801718.3254322084,-48507.324,-55967.45,-29495.89,-9405.681,-36041.832,-38913.86,-53084.92,-15545.044
801718.3294322038,-48508.992,-55970.094,-29496.094,-9405.518,-36044.027,-38913.168,-53080.203,-15543.335
801718.3334321991,-48507.164,-55969.484,-29491.822,-9407.1455,-36044.11,-38912.56,-53072.754,-15538.696
801718.3374321945,-48508.504,-55970.83,-29493.205,-9409.424,-36042.035,-38914.39,-53071.82,-15544.108
801718.3414321898,-48509.36,-55969.24,-29496.826,-9410.686,-36040.242,-38915.12,-53074.79,-15551.514
801718.3454321852,-48511.92,-55971.64,-29498.332,-9411.093,-36042.035,-38915.12,-53076.094,-15555.298
801718.3494321805,-48515.547,-55975.793,-29498.252,-9413.981,-36043.863,-38914.105,-53074.22,-15553.549
801718.3534321759,-48516.074,-55976.93,-29496.46,-9414.104,-36042.93,-38911.867,-53068.848,-15546.672
801718.3574321712,-48517.457,-55976.848,-29501.1,-9412.883,-36041.504,-38910.402,-53062.38,-15542.399
801718.3614321665,-48516.684,-55974.61,-29497.314,-9411.865,-36042.074,-38910.973,-53059.207,-15540.039
801718.365432162,-48513.43,-55968.47,-29494.467,-9409.343,-36038.29,-38910.117,-53051.84,-15532.471
801718.3694321573,-48514.406,-55968.508,-29492.473,-9409.343,-36036.133,-38908.164,-53045.777,-15529.216
801718.3734321527,-48515.34,-55971.52,-29490.44,-9409.465,-36036.95,-38906.7,-53043.867,-15531.372
801718.377432148,-48519.33,-55975.793,-29494.71,-9411.825,-36041.547,-38904.703,-53046.633,-15533.977
801718.3814321434,-48527.387,-55982.63,-29499.229,-9415.161,-36046.47,-38906.617,-53055.34,-15542.521
801718.3854321387,-48529.543,-55984.375,-29502.809,-9416.179,-36046.184,-38908.33,-53061.402,-15553.711
801718.3894321341,-48528.65,-55984.742,-29504.924,-9414.145,-36046.305,-38907.594,-53061.688,-15555.217
801718.3934321294,-48528.117,-55984.5,-29503.541,-9412.964,-36047.977,-38911.582,-53066.367,-15562.704
801718.3974321248,-48527.06,-55981.242,-29501.506,-9412.109,-36043.863,-38917.684,-53074.832,-15571.167
801718.4014321201,-48526.57,-55979.574,-29499.146,-9409.831,-36040.406,-38921.266,-53080.445,-15575.317
801718.4054321155,-48525.027,-55979.37,-29498.74,-9409.384,-36040.61,-38921.633,-53084.883,-15584.27
801718.4094321108,-48522.992,-55978.64,-29498.576,-9406.779,-36038.656,-38921.184,-53087.484,-15589.478
801718.4134321063,-48520.67,-55975.668,-29496.908,-9407.064,-36037.355,-38920.94,-53088.42,-15594.931
801718.4174321016,-48520.875,-55974.0,-29496.623,-9407.349,-36035.93,-38919.312,-53088.707,-15594.6045
801718.421432097,-48521.12,-55973.676,-29497.314,-9408.407,-36035.81,-38920.086,-53088.543,-15595.785
801718.4254320923,-48522.176,-55976.727,-29497.52,-9408.447,-36037.07,-38920.29,-53084.84,-15593.018
801718.4294320877,-48523.277,-55976.402,-29496.705,-9407.471,-36038.086,-38919.11,-53081.992,-15594.198
801718.433432083,-48521.566,-55971.926,-29494.752,-9406.291,-36033.0,-38919.312,-53079.062,-15590.536
801718.4374320783,-48519.94,-55971.355,-29496.014,-9407.227,-36031.74,-38920.004,-53077.68,-15588.827
801718.4414320737,-48518.027,-55969.28,-29493.775,-9405.355,-36030.965,-38915.57,-53070.438,-15586.223
801718.445432069,-48519.125,-55967.043,-29489.543,-9404.745,-36030.152,-38910.36,-53060.26,-15575.114
801718.4494320644,-48516.645,-55965.375,-29491.74,-9405.762,-36029.42,-38906.656,-53050.375,-15560.222
801718.4534320597,-48510.906,-55961.59,-29486.492,-9404.745,-36028.523,-38904.91,-53041.016,-15549.765
801718.4574320551,-48511.19,-55963.83,-29485.068,-9404.867,-36030.76,-38902.957,-53036.336,-15544.394
801718.4614320504,-48515.22,-55970.42,-29487.713,-9407.1045,-36035.32,-38901.9,-53036.582,-15546.469
801718.4654320459,-48518.11,-55974.69,-29489.584,-9409.221,-36038.37,-38905.19,-53040.527,-15553.386
801718.4694320412,-48519.41,-55976.402,-29491.455,-9410.238,-36039.062,-38902.832,-53038.086,-15555.461
801718.4734320366,-48517.703,-55975.305,-29490.887,-9410.319,-36036.418,-38903.2,-53036.38,-15554.159
801718.4774320319,-48514.895,-55972.25,-29491.822,-9410.36,-36032.676,-38905.477,-53041.586,-15556.926
801718.4814320273,-48510.582,-55967.695,-29488.893,-9407.593,-36031.25,-38904.055,-53044.72,-15561.401
801718.4854320226,-48508.016,-55964.438,-29485.963,-9405.966,-36032.473,-38903.688,-53046.43,-15567.668
801718.489432018,-48507.367,-55964.562,-29485.23,-9404.663,-36031.58,-38904.746,-53049.97,-15576.823
801718.4934320133,-48506.227,-55962.973,-29485.8,-9404.257,-36029.01,-38904.703,-53053.71,-15586.833
801718.4974320087,-48506.676,-55962.688,-29486.654,-9406.494,-36031.375,-38905.316,-53059.043,-15590.495
801718.501432004,-48506.676,-55960.734,-29486.857,-9407.593,-36034.426,-38906.94,-53065.594,-15602.092
801718.5054319995,-48502.44,-55956.586,-29485.963,-9405.803,-36034.223,-38911.094,-53073.57,-15616.537
801718.5094319948,-48503.582,-55961.145,-29489.137,-9404.338,-36034.71,-38914.227,-53077.23,-15617.92
801718.51343199,-48502.28,-55961.957,-29488.525,-9403.931,-36031.7,-38918.703,-53080.203,-15619.385
801718.5174319855,-48498.17,-55957.6,-29487.225,-9401.449,-36028.727,-38920.37,-53081.22,-15618.246
801718.5214319808,-48500.246,-55957.6,-29487.875,-9400.717,-36028.445,-38920.37,-53084.598,-15620.402
801718.5254319762,-48500.0,-55958.133,-29490.072,-9400.92,-36028.605,-38919.965,-53085.777,-15622.314
801718.5294319715,-48499.39,-55961.67,-29491.21,-9403.402,-36029.746,-38916.75,-53082.234,-15621.46
801718.5334319669,-48504.19,-55966.35,-29493.896,-9405.233,-36033.816,-38911.99,-53076.703,-15620.972
801718.5374319622,-48509.89,-55970.094,-29497.967,-9408.61,-36039.348,-38910.28,-53076.742,-15621.908
801718.5414319576,-48512.25,-55971.152,-29498.78,-9409.912,-36040.773,-38907.633,-53073.164,-15623.495
801718.5454319529,-48515.383,-55975.14,-29499.756,-9412.761,-36043.99,-38905.805,-53068.32,-15623.047
801718.5494319483,-48516.848,-55978.516,-29498.373,-9414.836,-36048.83,-38905.68,-53064.496,-15620.605
801718.5534319436,-48515.3,-55976.562,-29495.89,-9412.313,-36045.168,-38905.234,-53056.766,-15610.189
801718.557431939,-48513.31,-55975.793,-29496.014,-9411.459,-36045.9,-38906.25,-53053.387,-15603.76
801718.5614319344,-48512.004,-55975.793,-29489.625,-9410.971,-36045.29,-38907.188,-53052.33,-15597.372
801718.5654319298,-48512.047,-55976.32,-29489.219,-9410.686,-36043.99,-38907.633,-53049.93,-15594.523
801718.5694319251,-48508.63,-55971.844,-29489.178,-9409.668,-36039.188,-38905.4,-53047.242,-15596.477
801718.5734319205,-48505.086,-55966.758,-29489.178,-9409.546,-36035.93,-38907.188,-53048.79,-15601.359
801718.5774319158,-48507.367,-55969.89,-29490.195,-9411.906,-36040.12,-38909.793,-53051.8,-15600.79
801718.5814319112,-48511.76,-55975.71,-29492.84,-9411.459,-36045.086,-38911.785,-53054.2,-15601.929
801718.5854319065,-48508.71,-55973.39,-29490.52,-9410.482,-36045.574,-38912.64,-53060.63,-15614.584
801718.5894319018,-48506.797,-55971.03,-29489.178,-9411.906,-36046.1,-38914.918,-53067.953,-15626.831
801718.5934318972,-48505.94,-55969.117,-29486.857,-9410.563,-36043.336,-38916.707,-53074.098,-15634.44
801718.5974318925,-48502.44,-55965.293,-29485.23,-9406.982,-36040.527,-38915.73,-53081.543,-15642.7
801718.601431888,-48499.797,-55962.363,-29484.01,-9404.094,-36035.89,-38915.855,-53086.184,-15649.292
801718.6054318832,-48494.996,-55956.992,-29481.08,-9401.123,-36030.316,-38917.48,-53087.973,-15655.884
801718.6094318787,-48496.176,-55957.316,-29481.812,-9400.024,-36030.355,-38917.562,-53087.117,-15658.61
801718.613431874,-48498.496,-55959.96,-29483.44,-9401.733,-36030.723,-38916.586,-53086.223,-15661.255
801718.6174318694,-48500.043,-55962.08,-29486.898,-9404.175,-36031.008,-38915.285,-53083.21,-15661.052
801718.6214318647,-48498.74,-55959.637,-29487.998,-9405.111,-36031.902,-38913.94,-53077.76,-15661.784
801718.6254318601,-48500.816,-55962.16,-29490.398,-9407.268,-36033.61,-38911.176,-53074.586,-15663.29
801718.6294318554,-48504.64,-55966.84,-29494.264,-9410.156,-36036.05,-38909.75,-53073.0,-15664.551
801718.6334318508,-48506.836,-55968.71,-29495.117,-9412.476,-36036.824,-38908.938,-53071.7,-15670.939
801718.6374318461,-48508.953,-55970.746,-29493.896,-9412.517,-36038.656,-38909.508,-53071.86,-15676.636
801718.6414318415,-48510.176,-55971.926,-29490.928,-9411.54,-36035.484,-38905.723,-53067.832,-15674.927
801718.6454318368,-48510.99,-55973.188,-29489.219,-9412.109,-36034.344,-38905.316,-53063.316,-15668.417
801718.6494318323,-48509.605,-55974.977,-29486.613,-9410.36,-36037.152,-38903.402,-53058.434,-15659.668
801718.6534318276,-48506.145,-55972.047,-29481.486,-9409.872,-36035.89,-38905.03,-53060.996,-15673.34
801718.657431823,-48505.13,-55969.32,-29487.549,-9413.534,-36035.035,-38907.105,-53061.65,-15674.4795
801718.6614318183,-48505.414,-55969.28,-29488.363,-9414.958,-36036.95,-38906.535,-53060.75,-15667.5625
801718.6654318136,-48506.348,-55969.934,-29487.754,-9413.615,-36036.258,-38907.555,-53060.344,-15657.797
801718.669431809,-48506.836,-55970.746,-29489.502,-9414.348,-36035.402,-38910.2,-53061.605,-15650.473
801718.6734318043,-48508.87,-55973.797,-29487.672,-9413.9,-36035.848,-38911.906,-53063.03,-15648.926
801718.6774317997,-48509.89,-55973.797,-29487.998,-9413.168,-36033.53,-38912.19,-53061.65,-15645.02
801718.681431795,-48509.32,-55970.867,-29488.975,-9411.621,-36033.61,-38911.38,-53059.613,-15646.322
801718.6854317904,-48509.766,-55971.723,-29487.346,-9411.011,-36034.06,-38912.68,-53061.2,-15646.037
801718.6894317857,-48509.36,-55973.676,-29484.254,-9410.36,-36034.668,-38915.57,-53066.164,-15650.106
801718.6934317811,-48506.594,-55972.375,-29482.342,-9408.8545,-36033.57,-38917.24,-53067.26,-15652.507
801718.6974317764,-48508.223,-55973.43,-29483.807,-9408.8545,-36033.57,-38918.094,-53069.297,-15654.297
801718.7014317719,-48511.598,-55976.605,-29489.707,-9410.116,-36034.914,-38921.59,-53075.523,-15662.517
801718.7054317672,-48508.586,-55972.375,-29487.875,-9406.454,-36032.918,-38921.754,-53079.918,-15670.654
801718.7094317626,-48507.61,-55970.91,-29487.754,-9406.82,-36031.984,-38922.895,-53084.758,-15682.129
801718.7134317579,-48509.562,-55972.008,-29486.166,-9407.959,-36031.25,-38922.324,-53086.754,-15692.709
801718.7174317533,-48511.027,-55971.64,-29486.98,-9407.471,-36028.81,-38920.777,-53087.77,-15698.649
801718.7214317486,-48512.004,-55972.13,-29485.23,-9405.844,-36028.973,-38921.55,-53094.28,-15711.142
801718.725431744,-48512.004,-55973.473,-29487.06,-9404.338,-36029.055,-38921.59,-53099.45,-15728.923
801718.7294317393,-48514.04,-55975.426,-29488.975,-9405.192,-36031.375,-38919.23,-53101.156,-15740.275
801718.7334317346,-48519.656,-55980.105,-29491.09,-9410.4,-36034.75,-38918.703,-53098.918,-15747.152
801718.73743173,-48525.473,-55986.86,-29493.896,-9412.598,-36037.19,-38916.14,-53095.055,-15753.662
801718.7414317253,-48531.453,-55993.086,-29496.135,-9414.795,-36041.953,-38914.754,-53092.652,-15753.337
801718.7454317207,-48532.473,-55993.33,-29497.234,-9413.615,-36040.61,-38913.21,-53085.734,-15745.524
801718.749431716,-48530.76,-55993.086,-29498.129,-9411.947,-36037.76,-38913.047,-53075.645,-15733.073
801718.7534317115,-48529.297,-55990.074,-29494.508,-9411.296,-36035.2,-38914.836,-53066.734,-15716.309
801718.7574317068,-48528.08,-55987.387,-29491.21,-9410.278,-36032.473,-38914.31,-53058.92,-15701.335
801718.7614317022,-48527.875,-55986.207,-29489.584,-9408.407,-36030.152,-38913.492,-53056.074,-15688.11
801718.7654316975,-48526.043,-55987.59,-29486.736,-9408.163,-36031.74,-38914.754,-53056.48,-15682.78
801718.7694316929,-48525.312,-55988.61,-29485.84,-9408.8955,-36032.633,-38916.18,-53054.566,-15681.193
801718.7734316882,-48521.324,-55985.273,-29481.365,-9407.023,-36028.727,-38914.918,-53050.66,-15672.7295
801718.7774316836,-48522.098,-55985.477,-29481.486,-9408.488,-36030.273,-38914.754,-53050.54,-15670.126
801718.7814316789,-48524.293,-55987.836,-29485.557,-9410.197,-36032.43,-38914.633,-53051.84,-15669.922
801718.7854316743,-48524.78,-55987.836,-29486.125,-9410.849,-36034.305,-38915.242,-53053.67,-15672.934
801718.7894316696,-48522.016,-55985.965,-29485.516,-9411.499,-36033.57,-38915.164,-53055.91,-15675.009
801718.793431665,-48518.35,-55981.445,-29482.383,-9408.813,-36030.723,-38915.445,-53053.754,-15673.34
801718.7974316604,-48515.75,-55977.133,-29481.365,-9406.372,-36027.71,-38915.855,-53056.113,-15676.555
801718.8014316558,-48516.316,-55976.81,-29482.098,-9408.041,-36025.555,-38915.57,-53058.96,-15677.246
801718.8054316511,-48515.42,-55976.523,-29482.3,-9408.732,-36024.332,-38915.04,-53060.875,-15682.536
801718.8094316464,-48516.074,-55975.914,-29482.666,-9408.732,-36026.164,-38916.75,-53062.582,-15687.094
801718.8134316418,-48511.8,-55972.25,-29481.975,-9408.203,-36023.723,-38915.445,-53059.082,-15686.972
801718.8174316371,-48509.402,-55968.71,-29477.906,-9405.762,-36020.996,-38912.926,-53054.08,-15687.704
801718.8214316325,-48507.855,-55965.742,-29481.69,-9404.013,-36015.992,-38910.81,-53049.24,-15693.522
801718.8254316278,-48510.582,-55968.547,-29485.719,-9404.785,-36015.586,-38909.465,-53043.785,-15695.231
801718.8294316232,-48510.742,-55970.215,-29484.904,-9405.314,-36016.645,-38908.855,-53042.074,-15698.568
801718.8334316185,-48509.93,-55968.426,-29485.107,-9406.86,-36015.586,-38908.61,-53043.54,-15708.09
801718.8374316139,-48515.75,-55973.797,-29491.62,-9409.912,-36017.336,-38911.215,-53050.418,-15721.477
801718.8414316092,-48520.266,-55978.477,-29493.652,-9411.093,-36018.312,-38912.234,-53059.285,-15736.044
801718.8454316047,-48522.504,-55979.25,-29494.71,-9412.028,-36017.457,-38912.723,-53067.586,-15751.181
801718.8494316,-48522.46,-55978.8,-29495.402,-9412.395,-36018.555,-38912.844,-53069.01,-15759.5625
801718.8534315954,-48519.734,-55975.914,-29492.352,-9410.36,-36017.254,-38912.516,-53066.895,-15767.05
801718.8574315907,-48521.242,-55975.344,-29491.21,-9408.569,-36015.91,-38912.273,-53069.62,-15774.577
801718.8614315861,-48524.742,-55978.965,-29492.432,-9409.546,-36017.008,-38913.004,-53071.37,-15772.868
801718.8654315814,-48526.246,-55980.715,-29496.135,-9411.581,-36018.11,-38915.57,-53071.332,-15769.897
801718.8694315768,-48526.492,-55981.406,-29498.943,-9410.563,-36019.043,-38916.504,-53070.8,-15768.921
801718.8734315721,-48522.42,-55978.027,-29494.426,-9408.651,-36016.48,-38917.156,-53068.645,-15761.435
801718.8774315675,-48524.336,-55979.98,-29491.984,-9409.058,-36017.906,-38917.887,-53067.223,-15755.249
801718.8814315628,-48525.35,-55981.895,-29492.025,-9409.994,-36019.125,-38916.586,-53062.297,-15744.263
801718.8854315581,-48525.15,-55981.285,-29489.299,-9409.831,-36019.043,-38914.47,-53057.414,-15739.38
801718.8894315535,-48524.863,-55981.0,-29490.928,-9409.465,-36019.777,-38913.453,-53053.184,-15734.945
801718.8934315488,-48527.957,-55984.375,-29491.822,-9410.36,-36021.89,-38913.453,-53048.668,-15729.614
801718.8974315443,-48529.46,-55986.816,-29491.252,-9410.971,-36022.504,-38912.844,-53048.465,-15727.783
801718.9014315396,-48529.34,-55987.145,-29491.62,-9410.889,-36023.03,-38913.574,-53051.312,-15729.411
801718.905431535,-48529.137,-55986.41,-29491.416,-9410.93,-36024.863,-38914.754,-53054.73,-15736.735
801718.9094315303,-48526.9,-55984.582,-29489.666,-9410.4,-36021.688,-38916.26,-53058.96,-15741.211
801718.9134315257,-48522.79,-55981.12,-29484.336,-9408.977,-36020.184,-38916.79,-53058.96,-15740.397
801718.917431521,-48519.777,-55980.266,-29489.99,-9408.936,-36020.1,-38918.17,-53057.7,-15739.38
801718.9214315164,-48519.734,-55979.86,-29488.69,-9408.407,-36019.734,-38917.727,-53054.688,-15738.7295
801718.9254315117,-48522.22,-55981.49,-29488.566,-9408.407,-36020.305,-38916.79,-53048.543,-15735.067
801718.9294315071,-48524.945,-55984.785,-29490.643,-9408.936,-36023.234,-38916.3,-53046.023,-15736.654
801718.9334315024,-48523.438,-55982.832,-29492.555,-9408.8545,-36018.92,-38916.832,-53043.254,-15735.922
801718.9374314978,-48523.64,-55980.754,-29494.996,-9410.278,-36018.15,-38916.707,-53048.22,-15743.693
801718.9414314931,-48529.258,-55986.004,-29497.844,-9412.476,-36021.89,-38916.668,-53057.13,-15753.052
801718.9454314886,-48530.03,-55987.348,-29497.193,-9412.68,-36021.16,-38916.707,-53062.91,-15768.474
801718.9494314839,-48529.34,-55988.812,-29495.688,-9412.639,-36021.812,-38916.098,-53066.61,-15779.419
801718.9534314793,-48529.34,-55989.465,-29494.467,-9410.808,-36021.04,-38915.285,-53066.57,-15784.18
801718.9574314746,-48526.41,-55987.633,-29492.473,-9408.8545,-36018.11,-38916.14,-53066.45,-15790.446
801718.9614314699,-48525.758,-55985.516,-29488.893,-9407.431,-36013.875,-38916.465,-53067.18,-15792.725
801718.9654314653,-48525.72,-55982.63,-29489.584,-9405.722,-36011.312,-38915.934,-53069.215,-15799.846
801718.9694314606,-48525.516,-55981.082,-29490.52,-9405.803,-36009.156,-38916.504,-53067.914,-15802.653
801718.973431456,-48526.98,-55982.504,-29490.52,-9405.6,-36010.824,-38917.074,-53066.043,-15800.863
801718.9774314513,-48533.938,-55988.895,-29497.275,-9407.39,-36015.465,-38918.094,-53064.375,-15796.387
801718.9814314467,-48538.74,-55992.15,-29499.717,-9410.6045,-36018.84,-38917.523,-53061.24,-15787.558
801718.985431442,-48537.03,-55991.457,-29497.64,-9410.441,-36017.824,-38915.934,-53053.633,-15773.112
801718.9894314375,-48533.613,-55989.87,-29493.287,-9409.668,-36016.03,-38912.76,-53044.72,-15764.73
801718.9934314328,-48528.934,-55984.824,-29488.81,-9408.813,-36013.47,-38911.418,-53035.32,-15755.534
801718.9974314282,-48527.71,-55982.79,-29486.857,-9407.1045,-36011.844,-38910.81,-53030.195,-15746.786
801719.0014314235,-48528.402,-55984.66,-29490.928,-9405.559,-36014.08,-38911.094,-53029.01,-15747.03
801719.0054314189,-48531.293,-55985.72,-29491.13,-9406.698,-36015.465,-38910.402,-53029.055,-15744.385
