timestamp,Fp1,Fp2,F3,Fz,F4,Cz,Pz,Oz
1318371.9489904938,-103080.0,-102393.35,-20342.408,-17392.701,-18359.863,-32903.523,-18904.297,6830.078
1318371.9529904881,-103071.375,-102387.86,-20341.635,-17390.79,-18358.602,-32906.58,-18907.553,6824.992
1318371.9569904825,-103071.945,-102386.36,-20342.041,-17391.521,-18362.102,-32909.098,-18909.953,6823.242
1318371.960990477,-103080.734,-102394.9,-20342.041,-17393.596,-18362.387,-32908.246,-18908.326,6823.446
1318371.9649904713,-103082.32,-102395.39,-20340.658,-17393.434,-18362.793,-32907.88,-18910.686,6819.58
1318371.9689904656,-103067.79,-102385.7,-20336.59,-17390.178,-18360.963,-32908.53,-18915.568,6814.087
1318371.97299046,-103059.0,-102380.74,-20332.723,-17386.434,-18358.44,-32908.652,-18916.707,6814.209
1318371.9769904544,-103063.93,-102384.93,-20333.74,-17388.55,-18361.736,-32909.26,-18917.44,6814.209
1318371.9809904487,-103077.48,-102394.78,-20338.826,-17392.537,-18364.014,-32908.977,-18917.645,6814.8193
1318371.984990443,-103080.484,-102395.555,-20338.502,-17394.207,-18365.926,-32908.53,-18917.725,6814.087
1318371.9889904375,-103077.35,-102394.25,-20335.531,-17390.828,-18364.584,-32909.18,-18916.912,6816.162
1318371.9929904318,-103072.35,-102390.38,-20335.164,-17388.428,-18362.63,-32910.035,-18915.812,6817.749
1318371.9969904262,-103079.47,-102394.17,-20336.629,-17389.648,-18365.602,-32910.035,-18914.877,6817.5864
1318372.0009904203,-103090.17,-102399.82,-20337.566,-17389.283,-18370.809,-32910.484,-18912.436,6819.499
1318372.0049904147,-103089.44,-102399.055,-20336.996,-17387.451,-18368.693,-32909.914,-18910.564,6817.3423
1318372.008990409,-103084.07,-102397.26,-20336.346,-17386.639,-18368.572,-32911.133,-18913.777,6811.849
1318372.0129904035,-103083.54,-102396.37,-20337.81,-17387.533,-18369.305,-32910.117,-18913.168,6812.378
1318372.0169903978,-103090.7,-102398.56,-20339.07,-17389.324,-18372.64,-32908.61,-18911.256,6813.2734
1318372.0209903922,-103099.41,-102402.34,-20337.89,-17390.016,-18373.902,-32910.117,-18912.842,6810.913
1318372.0249903866,-103103.64,-102405.27,-20340.82,-17389.975,-18370.32,-32913.94,-18916.463,6806.3965
1318372.028990381,-103099.33,-102403.77,-20340.455,-17388.795,-18366.578,-32913.492,-18917.521,6802.816
1318372.0329903753,-103093.71,-102399.336,-20342.855,-17389.486,-18365.887,-32912.477,-18915.936,6803.7925
1318372.0369903697,-103096.93,-102397.34,-20347.127,-17391.398,-18367.39,-32911.336,-18914.674,6802.5312
1318372.040990364,-103099.125,-102395.914,-20349.203,-17392.049,-18370.605,-32910.035,-18913.9,6804.118
1318372.0449903584,-103097.66,-102397.34,-20347.006,-17391.805,-18371.46,-32910.688,-18914.43,6804.8506
1318372.0489903528,-103094.08,-102397.586,-20345.582,-17390.545,-18368.408,-32910.81,-18917.074,6802.287
1318372.0529903471,-103091.72,-102395.15,-20344.646,-17390.3,-18366.252,-32910.035,-18915.242,6806.4375
1318372.0569903415,-103095.18,-102398.28,-20346.965,-17392.01,-18368.979,-32908.69,-18909.791,6814.209
1318372.060990336,-103096.07,-102400.03,-20346.395,-17395.264,-18371.623,-32910.402,-18907.35,6819.0513
1318372.0649903303,-103088.016,-102392.87,-20341.473,-17393.27,-18365.52,-32908.938,-18906.414,6820.15
1318372.0689903246,-103074.586,-102383.51,-20334.107,-17389.283,-18361.898,-32905.887,-18903.89,6823.6084
1318372.072990319,-103065.96,-102376.38,-20331.055,-17387.736,-18358.44,-32903.934,-18900.635,6825.8467
1318372.0769903134,-103065.48,-102375.25,-20332.52,-17390.666,-18359.01,-32903.2,-18895.02,6834.4727
1318372.0809903077,-103074.38,-102381.15,-20335.287,-17393.025,-18362.06,-32901.367,-18887.654,6845.5
1318372.084990302,-103075.93,-102383.79,-20332.805,-17391.805,-18362.793,-32898.805,-18885.58,6849.121
1318372.0889902965,-103068.89,-102382.53,-20331.178,-17390.707,-18365.805,-32898.805,-18888.713,6847.168
1318372.0929902908,-103062.586,-102379.52,-20330.445,-17389.771,-18365.438,-32898.438,-18891.154,6845.256
1318372.0969902852,-103071.375,-102384.41,-20331.096,-17391.928,-18368.043,-32898.684,-18890.707,6846.3545
1318372.1009902796,-103079.39,-102389.37,-20331.055,-17392.66,-18370.076,-32898.316,-18891.316,6845.337
1318372.104990274,-103077.48,-102390.1,-20331.34,-17392.62,-18370.85,-32898.03,-18896.24,6841.0645
1318372.1089902683,-103068.98,-102387.54,-20333.578,-17390.219,-18366.17,-32898.766,-18898.56,6835.9375
1318372.1129902627,-103067.51,-102384.28,-20335.816,-17387.98,-18363.201,-32897.098,-18895.955,6836.711
1318372.116990257,-103075.12,-102385.38,-20340.008,-17389.568,-18363.404,-32895.55,-18890.545,6842.5703
1318372.1209902514,-103075.32,-102381.02,-20341.92,-17390.096,-18361.248,-32896.363,-18887.492,6849.4873
1318372.1249902458,-103074.836,-102381.31,-20340.088,-17388.51,-18361.084,-32898.6,-18889.363,6849.5283
1318372.1289902402,-103077.03,-102382.98,-20338.787,-17386.598,-18358.846,-32898.926,-18893.393,6840.0474
1318372.1329902345,-103077.35,-102384.484,-20341.553,-17389.324,-18362.508,-32900.72,-18898.764,6829.468
1318372.136990229,-103080.08,-102386.68,-20343.873,-17390.016,-18365.113,-32903.24,-18900.229,6828.9795
1318372.1409902233,-103081.99,-102386.31,-20344.28,-17388.51,-18365.479,-32902.996,-18899.293,6833.618
1318372.1449902176,-103078.86,-102384.69,-20342.164,-17388.307,-18364.46,-32903.973,-18899.252,6833.252
1318372.148990212,-103075.85,-102380.78,-20338.338,-17385.824,-18361.898,-32903.85,-18898.113,6831.014
1318372.1529902064,-103076.13,-102379.64,-20337.158,-17383.26,-18361.084,-32903.523,-18898.234,6830.4443
1318372.1569902007,-103078.25,-102378.87,-20335.246,-17383.79,-18361.287,-32904.34,-18895.996,6831.787
1318372.160990195,-103086.19,-102382.45,-20334.148,-17385.945,-18364.828,-32904.746,-18893.514,6835.368
1318372.1649901895,-103085.9,-102383.47,-20332.398,-17385.498,-18364.584,-32904.95,-18893.025,6836.3037
1318372.1689901839,-103074.625,-102383.75,-20329.549,-17383.18,-18363.893,-32907.39,-18895.875,6834.88
1318372.1729901782,-103066.37,-102382.66,-20327.596,-17381.918,-18365.072,-32908.53,-18896.443,6835.327
1318372.1769901726,-103077.555,-102389.41,-20331.34,-17384.969,-18365.723,-32908.49,-18894.775,6838.0127
1318372.180990167,-103084.84,-102387.74,-20334.229,-17387.654,-18363.281,-32909.305,-18894.734,6838.664
1318372.1849901613,-103077.64,-102376.266,-20334.229,-17384.604,-18355.998,-32909.63,-18894.246,6838.501
1318372.1889901557,-103066.77,-102367.27,-20332.031,-17383.057,-18352.133,-32907.066,-18890.137,6839.6406
1318372.19299015,-103060.71,-102364.75,-20332.479,-17383.342,-18354.371,-32904.83,-18886.475,6843.913
1318372.1969901444,-103058.555,-102362.63,-20334.31,-17384.686,-18358.033,-32905.64,-18885.377,6843.913
1318372.2009901388,-103060.75,-102362.1,-20336.549,-17385.336,-18360.148,-32905.316,-18883.912,6844.1978
1318372.2049901332,-103063.03,-102364.18,-20336.873,-17385.742,-18357.83,-32906.863,-18882.406,6845.0117
1318372.2089901275,-103060.55,-102364.95,-20336.223,-17384.725,-18355.469,-32905.68,-18883.016,6845.337
1318372.212990122,-103055.055,-102359.99,-20334.84,-17383.83,-18352.906,-32904.01,-18884.725,6844.808
1318372.2169901163,-103064.91,-102359.99,-20339.355,-17385.295,-18350.3,-32904.01,-18886.598,6843.099
1318372.2209901107,-103079.67,-102366.984,-20343.953,-17389.607,-18349.812,-32905.6,-18888.51,6843.384
1318372.224990105,-103077.6,-102368.125,-20344.158,-17390.096,-18352.662,-32907.35,-18892.537,6840.6577
1318372.2289900992,-103073.37,-102363.77,-20339.479,-17388.387,-18353.76,-32908.12,-18895.71,6838.7046
1318372.2329900935,-103076.055,-102369.76,-20339.111,-17389.445,-18351.93,-32907.473,-18895.63,6837.8906
1318372.236990088,-103088.55,-102381.11,-20342.408,-17392.66,-18355.998,-32906.09,-18893.799,6838.623
1318372.2409900823,-103099.66,-102387.336,-20346.436,-17397.014,-18358.521,-32907.594,-18895.305,6836.467
1318372.2449900766,-103100.55,-102386.31,-20348.104,-17395.387,-18358.318,-32906.82,-18896.2,6832.0312
1318372.248990071,-103095.055,-102379.93,-20345.094,-17392.416,-18355.957,-32903.605,-18897.055,6826.4976
1318372.2529900654,-103089.195,-102372.805,-20340.129,-17393.025,-18353.354,-32901.9,-18897.746,6821.0044
1318372.2569900597,-103095.18,-102380.375,-20341.797,-17397.176,-18356.812,-32901.367,-18898.64,6817.0166
1318372.260990054,-103102.79,-102390.95,-20344.85,-17399.781,-18359.334,-32902.832,-18900.879,6813.0293
1318372.2649900485,-103103.31,-102391.4,-20346.314,-17398.885,-18361.654,-32902.996,-18904.176,6808.431
1318372.2689900429,-103098.39,-102390.625,-20347.127,-17396.729,-18360.19,-32902.508,-18907.023,6803.1006
1318372.2729900372,-103091.07,-102386.92,-20347.088,-17396.078,-18356.568,-32900.35,-18905.518,6801.3916
1318372.2769900316,-103092.734,-102388.31,-20348.389,-17398.805,-18357.951,-32899.78,-18903.646,6801.3105
1318372.280990026,-103099.53,-102392.42,-20347.047,-17399.537,-18357.342,-32900.96,-18902.14,6804.403
1318372.2849900203,-103094.57,-102386.64,-20341.92,-17398.52,-18355.062,-32900.473,-18898.885,6809.082
1318372.2889900147,-103092.53,-102385.87,-20342.45,-17396.932,-18357.625,-32897.707,-18894.613,6812.0527
1318372.292990009,-103101.16,-102394.58,-20348.145,-17397.99,-18357.545,-32896.566,-18894.246,6813.7207
1318372.2969900034,-103092.98,-102382.66,-20348.023,-17398.438,-18356.16,-32900.473,-18898.193,6814.8193
1318372.3009899978,-103074.016,-102368.53,-20338.299,-17396.688,-18353.8,-32901.45,-18899.578,6820.272
1318372.3049899922,-103069.22,-102366.414,-20335.287,-17395.02,-18355.062,-32902.305,-18901.531,6822.0215
1318372.3089899865,-103074.914,-102373.414,-20337.81,-17395.264,-18358.643,-32904.215,-18903.443,6821.33
1318372.312989981,-103080.9,-102380.945,-20338.176,-17395.223,-18360.107,-32903.363,-18902.67,6825.8467
1318372.3169899753,-103081.46,-102384.69,-20336.629,-17397.46,-18365.723,-32902.387,-18900.838,6828.8574
1318372.3209899697,-103090.58,-102394.78,-20337.973,-17398.723,-18371.135,-32901.246,-18898.926,6834.3916
1318372.324989964,-103093.914,-102389.695,-20342.367,-17399.129,-18368.246,-32902.184,-18899.334,6836.467
1318372.3289899584,-103094.98,-102380.86,-20345.988,-17398.152,-18361.775,-32898.277,-18893.025,6841.96
1318372.3329899528,-103093.14,-102379.44,-20345.418,-17397.664,-18359.986,-32893.598,-18888.143,6844.2383
1318372.3369899471,-103086.67,-102381.63,-20339.926,-17397.787,-18360.637,-32893.23,-18888.266,6841.675
1318372.3409899415,-103086.305,-102380.336,-20339.723,-17398.234,-18362.264,-32894.168,-18886.516,6841.268
1318372.3449899359,-103092.086,-102387.336,-20340.047,-17397.258,-18363.525,-32891.4,-18881.512,6845.1743
1318372.3489899302,-103097.54,-102395.76,-20341.676,-17395.793,-18365.846,-32888.918,-18879.842,6841.5938
1318372.3529899246,-103093.95,-102387.336,-20342.773,-17392.66,-18359.578,-32887.535,-18880.574,6840.78
1318372.356989919,-103101.81,-102388.266,-20345.5,-17394.94,-18357.38,-32888.266,-18878.621,6846.273
1318372.3609899133,-103094.65,-102380.086,-20339.926,-17394.695,-18353.963,-32887.047,-18875.285,6852.9463
1318372.3649899077,-103081.055,-102373.05,-20337.24,-17392.62,-18349.08,-32887.94,-18877.727,6852.7427
1318372.368989902,-103086.8,-102377.16,-20340.943,-17392.457,-18346.965,-32887.207,-18878.826,6848.918
1318372.3729898965,-103095.79,-102379.11,-20346.436,-17394.002,-18348.43,-32887.047,-18878.662,6846.2324
1318372.3769898908,-103095.586,-102373.7,-20346.924,-17394.49,-18348.512,-32887.453,-18878.012,6845.5405
1318372.3809898852,-103085.49,-102364.46,-20344.523,-17394.287,-18346.436,-32887.9,-18881.186,6841.797
1318372.3849898796,-103077.97,-102361.86,-20344.89,-17392.904,-18344.564,-32889.69,-18885.986,6832.927
1318372.388989874,-103071.54,-102363.94,-20342.977,-17391.398,-18347.982,-32891.03,-18890.38,6822.632
1318372.3929898683,-103081.914,-102374.92,-20346.436,-17392.742,-18351.521,-32890.79,-18891.44,6819.906
1318372.3969898627,-103098.8,-102380.01,-20354.451,-17396.2,-18352.336,-32892.418,-18892.66,6819.702
1318372.400989857,-103099.77,-102378.5,-20352.865,-17395.346,-18356.568,-32894.574,-18892.254,6821.9404
1318372.4049898514,-103093.47,-102377.89,-20349.121,-17393.963,-18360.148,-32895.875,-18892.578,6819.9873
1318372.4089898458,-103087.37,-102376.34,-20343.547,-17391.398,-18361.98,-32894.938,-18892.049,6817.871
1318372.4129898401,-103086.836,-102387.945,-20344.158,-17393.066,-18362.752,-32894.777,-18889.324,6821.737
1318372.4169898345,-103096.234,-102388.43,-20345.785,-17392.62,-18359.213,-32894.777,-18883.22,6831.543
1318372.4209898289,-103100.06,-102377.57,-20349.732,-17391.684,-18354.736,-32896.363,-18881.104,6834.88
1318372.4249898233,-103104.336,-102377.0,-20352.133,-17391.56,-18353.924,-32896.12,-18881.023,6836.3037
1318372.4289898176,-103104.21,-102375.57,-20349.0,-17389.812,-18351.727,-32897.42,-18883.3,6839.885
1318372.432989812,-103080.695,-102366.09,-20338.826,-17385.01,-18347.78,-32898.766,-18885.05,6840.6577
1318372.4369898064,-103081.875,-102370.57,-20341.92,-17389.08,-18353.963,-32899.332,-18883.953,6844.8486
1318372.4409898007,-103096.4,-102375.66,-20345.012,-17389.69,-18356.283,-32897.79,-18881.186,6850.9116
1318372.444989795,-103103.31,-102376.55,-20346.559,-17388.55,-18356.893,-32897.664,-18880.574,6853.1494
1318372.4489897895,-103092.37,-102369.71,-20341.268,-17385.621,-18356.242,-32898.766,-18883.3,6853.3936
1318372.4529897838,-103073.695,-102359.74,-20332.887,-17383.912,-18350.506,-32901.164,-18886.842,6852.2544
1318372.456989778,-103066.45,-102357.51,-20331.502,-17384.889,-18349.08,-32902.426,-18889.934,6852.4985
1318372.4609897723,-103073.33,-102359.99,-20330.16,-17385.621,-18352.05,-32902.26,-18889.934,6853.801
1318372.4649897667,-103097.336,-102370.08,-20331.137,-17387.451,-18355.145,-32904.91,-18893.475,6850.0166
1318372.468989761,-103099.94,-102373.336,-20329.875,-17385.133,-18356.486,-32907.31,-18898.438,6845.2964
1318372.4729897554,-103090.25,-102378.336,-20330.852,-17385.418,-18358.033,-32906.94,-18900.025,6844.564
1318372.4769897498,-103101.24,-102388.72,-20338.176,-17391.113,-18359.254,-32907.43,-18899.984,6844.2793
1318372.4809897442,-103103.4,-102392.336,-20336.426,-17393.23,-18361.492,-32909.06,-18899.414,6845.9067
1318372.4849897386,-103099.04,-102392.336,-20332.316,-17391.725,-18362.06,-32906.21,-18896.648,6847.3716
1318372.488989733,-103102.13,-102395.71,-20332.031,-17391.766,-18360.148,-32902.1,-18893.514,6848.633
1318372.4929897273,-103112.555,-102404.95,-20334.555,-17394.775,-18358.521,-32902.508,-18890.178,6852.3765
1318372.4969897217,-103127.484,-102415.125,-20339.396,-17397.299,-18360.271,-32901.492,-18884.318,6858.5205
1318372.500989716,-103141.03,-102427.53,-20343.994,-17400.39,-18368.002,-32899.17,-18878.826,6864.665
1318372.5049897104,-103142.87,-102432.945,-20342.611,-17400.514,-18368.611,-32900.066,-18876.385,6868.612
1318372.5089897048,-103145.305,-102437.46,-20340.943,-17400.758,-18368.367,-32899.254,-18873.535,6871.745
1318372.5129896991,-103162.44,-102455.2,-20344.93,-17404.826,-18374.023,-32898.113,-18870.932,6875.5293
1318372.5169896935,-103183.234,-102476.08,-20348.715,-17410.97,-18379.354,-32896.85,-18864.299,6886.556
1318372.5209896879,-103191.086,-102484.625,-20348.959,-17413.777,-18382.04,-32896.28,-18858.113,6897.949
1318372.5249896822,-103198.33,-102494.23,-20349.08,-17414.998,-18385.092,-32893.434,-18853.842,6904.826
1318372.5289896766,-103199.71,-102502.0,-20346.232,-17415.527,-18385.865,-32890.953,-18851.318,6908.122
1318372.532989671,-103207.44,-102512.25,-20347.941,-17419.19,-18393.637,-32891.52,-18847.982,6913.615
1318372.5369896654,-103229.336,-102531.414,-20351.848,-17423.584,-18406.941,-32890.34,-18842.855,6919.8813
1318372.5409896597,-103239.95,-102542.69,-20351.848,-17426.025,-18412.68,-32890.3,-18841.229,6926.2695
1318372.544989654,-103243.9,-102547.81,-20354.045,-17428.305,-18411.418,-32892.254,-18840.047,6930.217
1318372.5489896485,-103243.25,-102546.516,-20354.248,-17427.45,-18412.191,-32893.637,-18841.229,6931.8037
1318372.5529896428,-103248.414,-102552.53,-20354.412,-17428.63,-18415.812,-32893.555,-18840.291,6933.6753
1318372.5569896372,-103261.68,-102563.68,-20357.83,-17433.309,-18420.777,-32894.125,-18837.24,6937.378
1318372.5609896316,-103271.125,-102569.95,-20357.91,-17435.018,-18424.846,-32895.184,-18836.752,6940.715
1318372.564989626,-103275.44,-102574.67,-20357.504,-17435.467,-18430.217,-32894.777,-18837.566,6938.2324
1318372.5689896203,-103272.34,-102574.14,-20356.527,-17436.117,-18430.584,-32893.15,-18836.305,6936.971
1318372.5729896147,-103272.055,-102576.79,-20357.3,-17437.785,-18432.74,-32892.09,-18833.7,6937.2153
1318372.576989609,-103283.37,-102587.37,-20358.846,-17441.285,-18438.436,-32893.758,-18829.998,6944.0513
1318372.5809896034,-103294.44,-102596.44,-20359.498,-17443.156,-18443.238,-32893.8,-18824.79,6951.0093
1318372.5849895978,-103293.83,-102595.99,-20359.09,-17444.377,-18447.43,-32894.043,-18822.43,6950.5615
1318372.5889895922,-103290.98,-102599.04,-20358.725,-17443.28,-18444.418,-32896.566,-18825.36,6946.9404
1318372.5929895865,-103293.586,-102604.414,-20359.945,-17442.994,-18445.516,-32898.316,-18827.88,6944.702
1318372.596989581,-103307.05,-102607.71,-20362.102,-17445.516,-18449.3,-32897.91,-18825.969,6948.446
1318372.6009895753,-103314.45,-102607.38,-20363.037,-17446.492,-18446.412,-32897.42,-18823.527,6952.922
1318372.6049895696,-103315.31,-102608.6,-20362.996,-17445.924,-18444.05,-32898.64,-18824.871,6954.1426
1318372.608989564,-103318.36,-102610.15,-20362.102,-17444.092,-18442.994,-32900.066,-18827.027,6952.8403
1318372.6129895584,-103323.2,-102613.734,-20361.492,-17442.668,-18446.9,-32900.88,-18828.37,6955.078
1318372.6169895527,-103332.36,-102620.98,-20365.764,-17444.336,-18448.162,-32901.9,-18830.201,6957.113
1318372.620989547,-103340.375,-102626.67,-20365.643,-17446.086,-18451.904,-32902.832,-18830.486,6960.5713
1318372.6249895415,-103335.82,-102627.16,-20364.828,-17446.371,-18453.816,-32903.28,-18827.719,6964.071
1318372.6289895358,-103329.555,-102625.98,-20366.375,-17444.744,-18449.79,-32901.9,-18823.283,6970.9473
1318372.6329895302,-103327.11,-102626.51,-20365.113,-17444.295,-18451.498,-32902.1,-18821.086,6974.04
1318372.6369895246,-103335.05,-102634.24,-20366.455,-17446.86,-18456.258,-32903.727,-18820.477,6978.3936
1318372.640989519,-103336.34,-102638.39,-20364.178,-17446.818,-18457.195,-32904.5,-18820.068,6982.788
1318372.6449895133,-103329.43,-102635.74,-20359.66,-17444.662,-18454.672,-32903.28,-18818.807,6987.386
1318372.6489895077,-103327.6,-102634.445,-20359.498,-17443.523,-18454.754,-32903.523,-18819.5,6989.095
1318372.652989502,-103325.97,-102630.58,-20361.328,-17445.312,-18453.613,-32902.426,-18817.83,6990.682
1318372.6569894964,-103331.14,-102632.37,-20362.02,-17448.121,-18456.422,-32901.33,-18809.855,6998.535
1318372.6609894908,-103340.5,-102635.46,-20362.305,-17450.115,-18463.379,-32899.78,-18807.008,7001.2207
1318372.6649894852,-103344.24,-102639.0,-20363.037,-17449.383,-18462.037,-32899.54,-18809.693,6998.535
1318372.6689894795,-103343.47,-102639.24,-20361.084,-17448.771,-18460.938,-32900.92,-18811.361,6996.9893
1318372.672989474,-103345.87,-102641.32,-20363.566,-17448.69,-18459.88,-32900.39,-18810.385,6997.2334
1318372.6769894683,-103349.29,-102645.71,-20369.02,-17451.13,-18462.037,-32898.438,-18808.676,6999.471
1318372.6809894626,-103356.0,-102650.8,-20371.094,-17453.572,-18464.031,-32901.246,-18812.256,6996.826
1318372.6849894568,-103353.92,-102646.77,-20367.676,-17450.643,-18464.193,-32902.508,-18813.232,6996.135
1318372.6889894512,-103347.05,-102643.07,-20365.113,-17447.877,-18462.158,-32901.285,-18812.135,6995.687
1318372.6929894455,-103350.1,-102644.984,-20366.455,-17449.219,-18465.496,-32901.695,-18815.43,6990.967
1318372.69698944,-103360.35,-102649.78,-20371.135,-17454.266,-18467.488,-32902.223,-18814.656,6991.252
1318372.7009894343,-103367.92,-102654.18,-20373.576,-17457.52,-18467.123,-32902.832,-18811.238,6996.4194
1318372.7049894286,-103364.38,-102655.07,-20371.014,-17455.363,-18464.764,-32903.32,-18810.791,6997.5586
1318372.708989423,-103362.266,-102650.48,-20370.117,-17454.184,-18463.217,-32905.152,-18811.076,6996.46
1318372.7129894174,-103360.03,-102648.16,-20368.938,-17454.754,-18462.729,-32905.234,-18810.873,6999.675
1318372.7169894117,-103364.055,-102653.32,-20368.287,-17455.81,-18466.512,-32905.64,-18811.28,7000.163
1318372.720989406,-103372.69,-102661.3,-20371.258,-17456.096,-18470.785,-32904.42,-18809.285,7003.3774
1318372.7249894005,-103375.2,-102670.125,-20370.158,-17456.502,-18476.521,-32903.16,-18805.705,7006.1445
1318372.7289893948,-103368.414,-102667.484,-20366.781,-17454.387,-18476.604,-32902.67,-18802.49,7010.783
1318372.7329893892,-103369.43,-102659.14,-20367.352,-17453.695,-18472.047,-32903.32,-18801.596,7014.282
1318372.7369893836,-103375.62,-102654.7,-20370.281,-17454.06,-18469.197,-32905.316,-18802.654,7017.9443
1318372.740989378,-103388.555,-102659.875,-20373.576,-17454.266,-18468.506,-32904.137,-18801.514,7025.106
1318372.7449893723,-103382.49,-102657.31,-20370.402,-17452.76,-18467.244,-32905.438,-18802.734,7028.524
1318372.7489893667,-103376.18,-102659.95,-20369.344,-17452.027,-18467.408,-32907.633,-18807.21,7022.827
1318372.752989361,-103371.87,-102658.86,-20368.816,-17451.824,-18467.285,-32910.32,-18811.076,7018.8804
1318372.7569893554,-103384.36,-102667.24,-20372.396,-17454.59,-18469.402,-32909.63,-18810.426,7020.671
1318372.7609893498,-103391.56,-102669.6,-20374.064,-17455.078,-18467.082,-32907.88,-18807.21,7027.751
1318372.7649893442,-103387.82,-102667.4,-20373.291,-17452.027,-18463.908,-32907.188,-18810.588,7026.937
1318372.7689893385,-103381.39,-102664.35,-20372.803,-17450.277,-18461.793,-32906.78,-18815.35,7022.6646
1318372.772989333,-103384.61,-102662.516,-20373.088,-17449.016,-18460.49,-32904.703,-18813.355,7025.879
1318372.7769893273,-103393.03,-102666.79,-20377.238,-17453.492,-18465.861,-32903.89,-18809.57,7030.599
1318372.7809893216,-103400.516,-102676.31,-20381.55,-17455.852,-18465.861,-32903.484,-18807.943,7033.0
1318372.784989316,-103397.914,-102675.87,-20378.744,-17454.184,-18464.844,-32903.973,-18809.652,7032.593
1318372.7889893104,-103395.35,-102675.21,-20378.053,-17454.549,-18465.17,-32904.258,-18810.262,7034.668
1318372.7929893048,-103396.08,-102673.51,-20375.244,-17453.98,-18464.396,-32903.363,-18807.008,7038.6963
1318372.7969892991,-103402.63,-102675.74,-20372.07,-17455.607,-18467.082,-32904.703,-18805.014,7041.911
1318372.8009892935,-103410.12,-102679.77,-20371.135,-17456.463,-18467.773,-32904.91,-18804.281,7045.9395
1318372.8049892879,-103407.27,-102676.234,-20371.664,-17454.06,-18465.332,-32903.727,-18802.775,7044.841
1318372.8089892822,-103400.15,-102672.77,-20370.158,-17452.8,-18463.379,-32903.2,-18801.758,7044.7188
1318372.8129892766,-103396.77,-102677.164,-20367.27,-17452.637,-18469.605,-32902.1,-18799.805,7044.841
1318372.816989271,-103405.07,-102684.21,-20369.223,-17456.38,-18473.43,-32900.594,-18798.91,7044.8
1318372.8209892653,-103412.6,-102689.17,-20373.82,-17457.684,-18472.941,-32898.805,-18798.178,7047.5264
1318372.8249892597,-103407.555,-102688.16,-20373.943,-17456.502,-18471.965,-32899.05,-18798.096,7049.8047
1318372.828989254,-103399.82,-102683.68,-20370.688,-17453.816,-18473.797,-32897.586,-18799.072,7048.462
1318372.8329892484,-103395.47,-102681.97,-20368.287,-17453.37,-18472.697,-32896.688,-18799.52,7048.869
1318372.8369892428,-103402.71,-102683.27,-20369.426,-17453.98,-18470.906,-32896.61,-18797.893,7051.1885
1318372.8409892372,-103404.625,-102681.36,-20368.652,-17453.98,-18469.238,-32895.47,-18797.648,7053.467
1318372.8449892316,-103396.85,-102678.59,-20366.902,-17452.148,-18466.35,-32895.1,-18801.555,7049.154
1318372.848989226,-103393.11,-102673.914,-20366.984,-17450.725,-18463.176,-32896.77,-18805.623,7047.4854
1318372.8529892203,-103390.586,-102673.38,-20367.352,-17450.725,-18464.64,-32895.836,-18806.479,7048.991
1318372.8569892147,-103397.18,-102677.45,-20371.99,-17455.12,-18467.652,-32895.754,-18807.008,7048.381
1318372.860989209,-103406.54,-102684.77,-20377.076,-17458.008,-18471.03,-32895.387,-18806.844,7050.863
1318372.8649892034,-103402.75,-102687.38,-20374.188,-17455.893,-18473.186,-32894.168,-18805.258,7054.3213
1318372.8689891978,-103394.62,-102681.4,-20370.809,-17453.29,-18466.553,-32892.62,-18803.955,7056.6406
1318372.8729891921,-103396.445,-102672.81,-20371.541,-17453.004,-18462.89,-32894.043,-18807.129,7054.525
1318372.8769891865,-103405.64,-102672.41,-20376.262,-17452.963,-18459.717,-32895.266,-18809.45,7053.874
1318372.8809891809,-103420.54,-102682.7,-20379.559,-17454.916,-18464.844,-32895.71,-18807.576,7058.3906
1318372.8849891752,-103417.24,-102682.7,-20376.709,-17452.88,-18462.646,-32894.207,-18804.2,7062.622
1318372.8889891696,-103412.73,-102682.13,-20375.203,-17451.62,-18459.717,-32891.316,-18800.416,7065.1045
1318372.892989164,-103411.7,-102683.19,-20373.494,-17451.01,-18460.328,-32890.586,-18797.363,7066.7725
1318372.8969891584,-103418.22,-102685.305,-20374.39,-17454.875,-18465.658,-32891.44,-18797.607,7070.15
1318372.9009891527,-103425.664,-102689.78,-20375.447,-17458.049,-18469.361,-32890.668,-18794.76,7075.8467
1318372.904989147,-103418.016,-102682.05,-20370.973,-17453.816,-18469.523,-32888.67,-18792.645,7078.9795
1318372.9089891415,-103411.13,-102678.555,-20367.514,-17450.318,-18460.125,-32888.348,-18793.701,7079.183
1318372.9129891356,-103410.73,-102681.64,-20369.629,-17450.848,-18461.14,-32887.695,-18796.59,7076.538
1318372.91698913,-103416.75,-102685.39,-20374.512,-17455.16,-18464.52,-32888.062,-18794.312,7081.136
1318372.9209891243,-103421.43,-102686.69,-20373.982,-17454.428,-18466.553,-32887.37,-18794.516,7084.6763
1318372.9249891187,-103416.914,-102681.97,-20372.967,-17451.863,-18462.322,-32887.82,-18797.322,7084.3916
1318372.928989113,-103410.65,-102675.58,-20371.867,-17450.521,-18457.887,-32888.023,-18799.357,7081.8687
1318372.9329891074,-103410.41,-102676.15,-20370.809,-17450.398,-18460.043,-32887.37,-18799.357,7082.1533
1318372.9369891018,-103420.945,-102683.59,-20375.611,-17453.98,-18464.031,-32887.574,-18800.049,7086.711
1318372.9409890962,-103427.25,-102687.3,-20380.371,-17455.404,-18465.82,-32889.203,-18801.96,7082.2754
1318372.9449890906,-103421.19,-102683.35,-20377.32,-17452.148,-18460.857,-32888.875,-18800.537,7082.6826
1318372.948989085,-103412.68,-102679.53,-20375.123,-17452.027,-18459.637,-32888.348,-18800.13,7083.8623
1318372.9529890793,-103416.14,-102683.88,-20379.15,-17454.713,-18462.85,-32889.895,-18801.717,7082.6826
1318372.9569890737,-103425.5,-102691.49,-20383.139,-17456.87,-18464.234,-32889.566,-18803.387,7080.8105
1318372.960989068,-103426.805,-102691.9,-20381.43,-17456.584,-18462.037,-32889.49,-18801.758,7082.6416
1318372.9649890624,-103419.516,-102687.42,-20377.605,-17455.12,-18460.857,-32887.74,-18800.416,7083.74
1318372.9689890568,-103416.305,-102686.93,-20380.412,-17456.422,-18461.02,-32886.434,-18800.62,7084.6763
1318372.9729890511,-103416.1,-102689.86,-20380.412,-17457.52,-18463.258,-32886.965,-18801.352,7085.531
1318372.9769890455,-103417.97,-102690.19,-20379.477,-17459.96,-18466.268,-32887.25,-18800.781,7087.8096
1318372.9809890399,-103427.695,-102692.67,-20381.104,-17459.799,-18468.018,-32888.023,-18803.996,7084.88
1318372.9849890342,-103423.34,-102690.27,-20378.377,-17458.455,-18465.535,-32888.55,-18807.17,7080.526
1318372.9889890286,-103415.37,-102687.3,-20376.22,-17455.281,-18460.043,-32887.82,-18810.1,7079.9155
1318372.992989023,-103418.22,-102688.64,-20375.936,-17455.73,-18460.205,-32886.598,-18808.514,7081.9907
1318372.9969890174,-103425.78,-102693.73,-20380.006,-17458.537,-18461.752,-32887.74,-18805.867,7085.531
1318373.0009890117,-103432.414,-102697.11,-20381.104,-17461.223,-18461.873,-32887.94,-18804.443,7088.542
1318373.004989006,-103429.445,-102694.46,-20377.482,-17458.781,-18462.158,-32887.94,-18805.42,7089.1523
1318373.0089890005,-103421.305,-102687.016,-20374.553,-17457.154,-18466.268,-32887.82,-18805.502,7088.176
1318373.0129889948,-103422.81,-102690.15,-20378.865,-17459.84,-18466.309,-32889.16,-18805.584,7085.49
1318373.0169889892,-103430.055,-102696.91,-20384.36,-17461.914,-18464.885,-32888.43,-18806.396,7083.537
1318373.0209889836,-103438.6,-102700.65,-20388.143,-17463.787,-18465.984,-32889.49,-18806.479,7084.7983
1318373.024988978,-103435.43,-102699.55,-20386.11,-17461.508,-18463.379,-32890.465,-18807.21,7084.9204
1318373.0289889723,-103429.65,-102694.055,-20383.342,-17457.072,-18460.164,-32892.496,-18811.28,7081.6245
1318373.0329889667,-103430.95,-102692.47,-20384.074,-17456.746,-18463.908,-32894.777,-18814.576,7078.3286
1318373.036988961,-103438.84,-102693.36,-20386.354,-17458.455,-18465.252,-32896.04,-18814.373,7080.2817
1318373.0409889554,-103440.35,-102690.59,-20386.395,-17459.31,-18462.158,-32895.266,-18811.809,7084.0254
1318373.0449889498,-103437.83,-102687.42,-20387.045,-17458.375,-18460.084,-32894.004,-18812.215,7083.13
1318373.0489889442,-103434.53,-102687.14,-20390.91,-17458.455,-18462.24,-32893.516,-18811.932,7081.95
1318373.0529889385,-103429.98,-102687.664,-20390.463,-17456.707,-18460.979,-32893.516,-18807.74,7087.2397
1318373.056988933,-103434.37,-102689.5,-20388.63,-17456.746,-18461.06,-32894.33,-18804.078,7095.581
1318373.0609889273,-103435.305,-102688.36,-20385.01,-17457.154,-18461.793,-32895.387,-18804.81,7096.3135
1318373.0649889216,-103426.48,-102683.8,-20379.395,-17454.06,-18459.514,-32897.098,-18807.373,7095.256
1318373.068988916,-103416.305,-102678.305,-20374.309,-17451.13,-18458.13,-32897.625,-18807.252,7096.3545
1318373.0729889104,-103413.86,-102676.35,-20374.838,-17451.742,-18457.154,-32896.28,-18807.658,7094.9707
1318373.0769889047,-103421.23,-102681.12,-20383.139,-17456.99,-18461.264,-32896.566,-18807.332,7096.5576
1318373.080988899,-103427.58,-102684.82,-20386.598,-17458.943,-18462.281,-32897.22,-18806.438,7101.3594
1318373.0849888935,-103426.88,-102684.94,-20382.936,-17456.422,-18464.111,-32895.914,-18804.729,7107.6255
1318373.0889888878,-103422.41,-102682.375,-20380.33,-17454.51,-18462.85,-32895.59,-18803.914,7112.0605
1318373.0929888822,-103423.14,-102685.266,-20382.854,-17457.316,-18464.52,-32895.754,-18803.223,7112.1016
1318373.0969888766,-103431.69,-102689.45,-20387.533,-17462.443,-18466.96,-32894.734,-18803.426,7112.549
1318373.100988871,-103435.836,-102688.88,-20390.584,-17464.844,-18470.338,-32893.96,-18801.27,7115.194
1318373.1049888653,-103431.16,-102688.234,-20388.754,-17462.078,-18462.973,-32894.98,-18802.328,7112.915
1318373.1089888597,-103425.336,-102684.29,-20387.615,-17460.652,-18459.352,-32894.656,-18803.67,7108.8057
1318373.112988854,-103433.31,-102688.07,-20389.04,-17464.07,-18465.047,-32893.96,-18803.06,7104.9805
1318373.1169888484,-103443.04,-102691.81,-20388.672,-17465.496,-18467.164,-32892.945,-18802.734,7105.184
1318373.1209888428,-103442.14,-102687.91,-20387.045,-17463.95,-18461.752,-32892.008,-18801.352,7108.7646
1318373.1249888372,-103435.8,-102682.74,-20386.842,-17463.867,-18460.45,-32892.945,-18799.398,7110.1074
1318373.1289888315,-103431.97,-102680.914,-20386.842,-17463.014,-18460.45,-32891.03,-18797.852,7111.369
1318373.132988826,-103434.9,-102680.625,-20389.893,-17464.479,-18460.572,-32890.22,-18795.736,7112.2236
1318373.1369888203,-103443.61,-102682.87,-20392.09,-17467.285,-18464.438,-32891.48,-18794.027,7117.025
1318373.1409888144,-103446.54,-102681.28,-20388.469,-17466.553,-18463.299,-32890.83,-18791.545,7122.2334
1318373.1449888088,-103439.7,-102677.164,-20383.424,-17464.682,-18461.467,-32889.85,-18790.73,7124.0645
1318373.1489888032,-103432.62,-102674.65,-20380.656,-17462.24,-18462.281,-32890.465,-18793.824,7120.5244
1318373.1529887975,-103432.91,-102676.88,-20382.121,-17463.379,-18463.826,-32891.805,-18796.102,7116.6587
1318373.156988792,-103439.984,-102680.016,-20386.516,-17467.082,-18468.465,-32891.44,-18796.102,7115.6416
1318373.1609887863,-103443.89,-102682.05,-20388.63,-17467.488,-18467.408,-32891.156,-18796.55,7117.4316
1318373.1649887806,-103438.195,-102679.33,-20387.615,-17464.64,-18464.682,-32891.36,-18796.957,7118.2456
1318373.168988775,-103434.125,-102678.43,-20387.492,-17463.135,-18462.688,-32891.6,-18797.242,7115.9263
1318373.1729887694,-103436.98,-102685.23,-20387.41,-17464.355,-18467.977,-32890.586,-18797.363,7113.973
1318373.1769887637,-103445.11,-102684.62,-20389.201,-17464.885,-18468.75,-32890.098,-18795.613,7116.496
1318373.180988758,-103446.414,-102672.49,-20392.537,-17464.885,-18463.094,-32891.074,-18795.818,7121.216
1318373.1849887525,-103436.73,-102669.88,-20391.725,-17465.373,-18458.09,-32891.6,-18796.957,7120.809
1318373.1889887468,-103426.6,-102667.52,-20392.416,-17463.99,-18458.578,-32891.277,-18799.805,7119.548
1318373.1929887412,-103426.44,-102671.35,-20395.467,-17462.85,-18462.078,-32890.79,-18803.143,7115.8447
1318373.1969887356,-103432.984,-102674.69,-20395.387,-17463.787,-18464.926,-32890.992,-18803.387,7119.0596
1318373.20098873,-103437.95,-102674.97,-20392.701,-17463.867,-18466.432,-32890.707,-18804.322,7121.2974
1318373.2049887243,-103436.98,-102672.0,-20392.213,-17462.322,-18463.623,-32892.54,-18806.64,7117.676
1318373.2089887187,-103429.28,-102666.06,-20389.852,-17460.49,-18462.525,-32894.45,-18810.994,7114.095
1318373.212988713,-103428.51,-102664.68,-20389.527,-17463.217,-18465.21,-32892.293,-18810.1,7116.333
1318373.2169887074,-103436.08,-102667.32,-20390.91,-17465.617,-18465.252,-32890.668,-18806.479,7123.454
1318373.2209887018,-103441.66,-102668.83,-20392.945,-17467.041,-18465.414,-32891.074,-18806.396,7125.0
1318373.2249886962,-103439.01,-102668.46,-20391.928,-17467.205,-18464.803,-32892.05,-18808.35,7124.5117
1318373.2289886905,-103433.516,-102666.266,-20389.363,-17464.031,-18464.64,-32890.055,-18807.455,7125.57
1318373.232988685,-103433.19,-102668.336,-20388.957,-17463.543,-18467.45,-32891.113,-18809.855,7124.797
1318373.2369886793,-103441.53,-102672.9,-20391.56,-17465.943,-18469.605,-32892.984,-18811.2,7126.5464
1318373.2409886736,-103440.76,-102672.164,-20390.87,-17466.064,-18473.104,-32891.6,-18814.25,7122.64
1318373.244988668,-103440.43,-102672.0,-20392.375,-17467.285,-18477.986,-32890.668,-18814.373,7120.8906
1318373.2489886624,-103435.8,-102668.5,-20391.887,-17466.105,-18477.459,-32890.707,-18811.932,7123.332
1318373.2529886567,-103434.57,-102666.75,-20392.578,-17467.326,-18474.691,-32888.715,-18808.188,7127.767
1318373.2569886511,-103441.05,-102668.945,-20393.678,-17470.338,-18481.812,-32888.023,-18805.99,7127.6855
1318373.2609886455,-103440.23,-102672.41,-20389.771,-17469.523,-18481.283,-32889.12,-18805.096,7131.999
1318373.2649886399,-103432.5,-102666.79,-20386.271,-17468.303,-18481.04,-32886.477,-18804.443,7136.963
1318373.2689886342,-103430.55,-102663.21,-20384.807,-17470.5,-18481.121,-32885.38,-18803.06,7136.963
1318373.2729886286,-103436.77,-102669.84,-20387.451,-17473.512,-18485.799,-32885.215,-18800.701,7137.1665
1318373.276988623,-103445.31,-102674.52,-20391.44,-17477.742,-18489.137,-32884.848,-18797.81,7143.026
1318373.2809886173,-103449.266,-102677.33,-20391.48,-17478.436,-18491.658,-32882.12,-18795.33,7146.24
1318373.2849886117,-103449.34,-102673.71,-20391.072,-17477.377,-18491.455,-32882.406,-18798.787,7138.1025
1318373.288988606,-103444.664,-102666.836,-20391.113,-17476.197,-18492.066,-32882.367,-18801.107,7134.1553
1318373.2929886004,-103445.88,-102670.25,-20392.904,-17477.498,-18496.664,-32882.406,-18802.613,7129.5576
1318373.2969885948,-103455.445,-102672.81,-20396.566,-17481.324,-18499.92,-32883.18,-18803.467,7124.756
1318373.3009885892,-103456.34,-102671.96,-20396.24,-17480.836,-18501.547,-32882.49,-18802.084,7126.5464
1318373.3049885835,-103449.18,-102674.28,-20394.287,-17480.51,-18503.988,-32882.49,-18800.13,7131.1035
1318373.308988578,-103443.766,-102673.99,-20395.223,-17478.8,-18499.594,-32883.06,-18800.213,7131.836
1318373.3129885723,-103446.86,-102677.414,-20399.861,-17481.324,-18503.703,-32885.785,-18803.264,7129.7607
1318373.3169885667,-103455.24,-102682.58,-20401.408,-17484.701,-18509.156,-32886.72,-18805.096,7129.6797
1318373.320988561,-103455.41,-102682.05,-20400.92,-17485.434,-18509.521,-32886.027,-18804.646,7134.4404
1318373.3249885554,-103447.266,-102676.555,-20395.549,-17482.178,-18506.062,-32886.11,-18805.014,7131.958
1318373.3289885498,-103438.27,-102673.305,-20393.922,-17480.51,-18507.0,-32886.8,-18807.21,7128.011
1318373.3329885441,-103442.14,-102673.47,-20394.572,-17481.975,-18510.092,-32885.824,-18807.129,7130.412
1318373.3369885385,-103452.6,-102677.53,-20396.566,-17484.416,-18509.277,-32884.766,-18806.764,7129.232
1318373.3409885329,-103453.25,-102675.46,-20396.281,-17483.398,-18511.76,-32886.15,-18809.326,7127.1973
1318373.3449885272,-103446.29,-102675.87,-20391.805,-17480.428,-18507.977,-32886.19,-18812.744,7125.366
1318373.3489885216,-103438.64,-102671.1,-20390.178,-17479.127,-18505.535,-32886.11,-18813.518,7124.8374
1318373.352988516,-103435.95,-102671.06,-20392.62,-17480.754,-18508.912,-32887.656,-18815.512,7121.7856
1318373.3569885103,-103440.76,-102674.766,-20394.734,-17483.277,-18514.12,-32886.598,-18813.152,7129.2725
1318373.3609885047,-103440.59,-102673.67,-20391.521,-17483.766,-18512.248,-32884.035,-18810.791,7134.1147
1318373.364988499,-103435.14,-102672.0,-20389.08,-17482.992,-18512.248,-32885.05,-18815.838,7129.232
1318373.3689884932,-103430.016,-102667.16,-20386.963,-17479.371,-18512.492,-32886.312,-18820.68,7126.384
1318373.3729884876,-103430.95,-102665.445,-20388.998,-17479.371,-18517.13,-32888.266,-18823.975,7123.739
1318373.376988482,-103438.48,-102669.766,-20394.043,-17480.754,-18521.77,-32885.094,-18823.324,7124.675
1318373.3809884763,-103442.305,-102676.31,-20397.299,-17482.057,-18524.658,-32885.5,-18823.121,7124.1455
1318373.3849884707,-103437.664,-102672.53,-20393.107,-17481.04,-18522.828,-32886.637,-18825.562,7121.135
1318373.388988465,-103431.484,-102665.695,-20387.127,-17478.842,-18518.922,-32884.81,-18825.115,7120.2803
1318373.3929884594,-103432.87,-102664.266,-20387.492,-17478.76,-18517.62,-32883.26,-18823.934,7119.629
1318373.3969884538,-103445.234,-102668.83,-20392.781,-17480.713,-18522.014,-32882.57,-18823.61,7118.7744
1318373.4009884482,-103449.914,-102670.54,-20397.096,-17481.445,-18525.635,-32883.383,-18823.61,7119.792
1318373.4049884425,-103443.85,-102665.66,-20395.996,-17479.207,-18523.56,-32882.164,-18823.486,7119.5884
1318373.408988437,-103440.68,-102668.586,-20394.734,-17478.312,-18522.908,-32881.836,-18825.36,7116.333
1318373.4129884313,-103443.484,-102672.695,-20394.043,-17479.736,-18523.234,-32880.453,-18824.342,7117.676
1318373.4169884257,-103445.72,-102672.98,-20394.37,-17481.08,-18525.473,-32878.99,-18821.371,7120.565
1318373.42098842,-103446.25,-102670.984,-20391.766,-17480.307,-18522.787,-32878.906,-18819.133,7128.988
1318373.4249884144,-103439.01,-102667.12,-20387.654,-17478.191,-18517.416,-32877.36,-18816.773,7133.423
1318373.4289884088,-103432.664,-102664.88,-20386.678,-17477.906,-18515.504,-32877.08,-18816.57,7129.7607
1318373.4329884031,-103435.14,-102665.125,-20387.654,-17478.924,-18516.928,-32878.46,-18815.838,7131.3887
1318373.4369883975,-103443.28,-102669.84,-20392.537,-17481.527,-18521.893,-32878.094,-18813.64,7133.301
1318373.4409883919,-103444.055,-102670.17,-20393.23,-17482.178,-18526.082,-32877.89,-18812.664,7133.2197
1318373.4449883862,-103436.77,-102664.555,-20392.863,-17479.004,-18524.008,-32877.035,-18811.727,7135.539
1318373.4489883806,-103429.94,-102660.484,-20393.514,-17477.418,-18522.137,-32876.996,-18812.5,7137.5327
1318373.452988375,-103432.46,-102665.24,-20399.21,-17480.307,-18524.537,-32876.508,-18812.947,7135.0913
1318373.4569883693,-103446.21,-102670.984,-20403.484,-17483.725,-18525.879,-32879.273,-18814.129,7132.08
1318373.4609883637,-103449.99,-102670.21,-20403.768,-17482.748,-18522.746,-32881.715,-18815.674,7134.725
1318373.464988358,-103440.836,-102666.266,-20401.531,-17480.389,-18520.184,-32881.227,-18815.064,7137.248
1318373.4689883525,-103435.02,-102659.8,-20400.188,-17479.004,-18520.184,-32880.902,-18813.762,7137.6143
1318373.4729883468,-103435.59,-102661.7,-20398.926,-17480.55,-18525.676,-32881.227,-18811.564,7139.201
1318373.4769883412,-103444.586,-102672.9,-20400.188,-17482.87,-18526.367,-32882.164,-18809.408,7142.375
1318373.4809883356,-103447.836,-102676.805,-20402.385,-17483.807,-18528.402,-32883.426,-18809.285,7143.1885
1318373.48498833,-103450.16,-102677.45,-20405.355,-17483.928,-18528.809,-32883.504,-18810.262,7140.2183
1318373.4889883243,-103442.836,-102664.68,-20405.926,-17482.748,-18520.793,-32885.785,-18814.697,7135.5796
1318373.4929883187,-103439.336,-102657.23,-20408.123,-17483.684,-18516.113,-32888.836,-18815.594,7134.3994
1318373.496988313,-103451.5,-102666.67,-20412.312,-17488.363,-18522.705,-32889.61,-18811.605,7138.713
1318373.5009883074,-103453.45,-102663.54,-20414.186,-17487.834,-18521.16,-32889.203,-18809.367,7144.206
1318373.5049883018,-103445.11,-102658.41,-20413.371,-17485.31,-18517.578,-32889.285,-18808.92,7144.8975
1318373.5089882961,-103438.6,-102655.44,-20412.232,-17482.87,-18516.398,-32891.4,-18808.838,7147.1763
1318373.5129882905,-103437.46,-102656.62,-20411.947,-17483.725,-18522.38,-32891.277,-18807.129,7145.0195
1318373.516988285,-103446.49,-102664.15,-20413.045,-17487.59,-18529.012,-32892.09,-18806.682,7143.921
1318373.5209882793,-103454.47,-102666.305,-20413.168,-17488.201,-18527.791,-32894.168,-18809.896,7145.752
1318373.5249882736,-103449.06,-102664.555,-20412.273,-17487.469,-18526.979,-32895.836,-18815.145,7139.5674
1318373.528988268,-103444.46,-102662.88,-20410.4,-17485.799,-18527.873,-32896.89,-18817.383,7133.464
1318373.5329882624,-103450.4,-102665.734,-20412.191,-17487.672,-18532.47,-32897.95,-18816.691,7131.633
1318373.5369882567,-103463.3,-102671.59,-20419.148,-17490.682,-18538.086,-32899.945,-18815.877,7135.742
1318373.540988251,-103462.28,-102671.516,-20417.645,-17488.81,-18536.824,-32900.516,-18816.326,7138.591
1318373.5449882455,-103451.83,-102666.51,-20413.818,-17486.41,-18532.186,-32901.652,-18817.547,7138.021
1318373.5489882398,-103446.74,-102661.5,-20411.215,-17483.725,-18528.932,-32901.855,-18818.523,7136.6377
1318373.5529882342,-103451.016,-102664.15,-20408.936,-17484.295,-18531.209,-32901.9,-18819.295,7137.248
1318373.5569882286,-103456.71,-102666.586,-20409.139,-17484.904,-18535.32,-32901.734,-18818.562,7140.9507
1318373.560988223,-103455.734,-102666.79,-20407.47,-17484.742,-18533.773,-32901.285,-18815.105,7147.38
1318373.5649882173,-103450.766,-102664.39,-20406.535,-17484.295,-18533.0,-32902.67,-18817.22,7144.613
1318373.5689882117,-103443.28,-102662.516,-20407.023,-17482.38,-18533.814,-32903.2,-18819.58,7138.9976
1318373.572988206,-103449.51,-102664.06,-20409.22,-17485.066,-18535.727,-32903.566,-18818.686,7137.329
1318373.5769882004,-103459.44,-102669.84,-20411.988,-17487.834,-18537.477,-32904.055,-18817.098,7140.869
1318373.5809881948,-103459.15,-102668.664,-20411.215,-17485.76,-18534.994,-32904.83,-18814.861,7146.7285
1318373.5849881892,-103448.77,-102662.4,-20407.594,-17482.625,-18531.941,-32904.42,-18813.232,7151.286
1318373.5889881835,-103443.52,-102660.484,-20405.03,-17480.957,-18532.594,-32905.152,-18814.453,7149.8213
1318373.592988178,-103443.08,-102663.17,-20404.664,-17481.568,-18535.686,-32904.055,-18812.379,7152.2627
1318373.596988172,-103452.03,-102666.266,-20408.936,-17483.887,-18538.697,-32903.85,-18809.205,7158.081
1318373.6009881664,-103449.14,-102663.49,-20406.941,-17484.375,-18537.762,-32902.71,-18806.072,7163.9814
1318373.6049881608,-103437.22,-102654.83,-20400.96,-17481.121,-18538.29,-32899.984,-18802.125,7168.579
1318373.6089881551,-103433.88,-102653.57,-20401.326,-17479.736,-18530.518,-32901.98,-18804.646,7165.08
1318373.6129881495,-103438.68,-102655.93,-20406.25,-17481.73,-18531.332,-32903.89,-18805.95,7164.1035
1318373.616988144,-103449.34,-102660.81,-20407.838,-17483.318,-18534.627,-32904.46,-18803.59,7168.01
1318373.6209881383,-103449.95,-102661.5,-20407.635,-17483.48,-18532.715,-32904.42,-18803.182,7172.0786
1318373.6249881326,-103445.64,-102657.11,-20407.553,-17481.445,-18530.6,-32904.258,-18804.89,7167.7246
1318373.628988127,-103438.234,-102651.21,-20404.744,-17479.29,-18529.46,-32902.1,-18803.387,7167.033
1318373.6329881214,-103434.86,-102647.75,-20401.45,-17480.307,-18531.373,-32899.617,-18796.834,7171.5903
1318373.6369881157,-103437.055,-102649.21,-20402.914,-17482.137,-18531.494,-32899.254,-18794.19,7173.7876
1318373.64098811,-103432.13,-102647.22,-20399.658,-17479.412,-18530.762,-32899.332,-18796.957,7170.451
1318373.6449881045,-103426.15,-102644.9,-20393.719,-17475.994,-18528.2,-32898.438,-18799.928,7166.382
1318373.6489880988,-103424.52,-102644.21,-20390.666,-17474.08,-18527.914,-32899.21,-18802.125,7165.8936
1318373.6529880932,-103430.625,-102645.836,-20390.504,-17474.732,-18528.729,-32898.6,-18800.293,7165.3647
1318373.6569880876,-103438.68,-102652.47,-20394.94,-17475.098,-18532.797,-32897.46,-18799.031,7164.266
1318373.660988082,-103436.24,-102651.62,-20397.46,-17475.465,-18533.162,-32897.707,-18801.352,7165.324
1318373.6649880763,-103421.836,-102645.555,-20394.94,-17474.285,-18532.146,-32897.258,-18803.63,7164.673
1318373.6689880707,-103414.35,-102644.125,-20391.887,-17473.023,-18531.414,-32897.137,-18804.77,7165.975
1318373.672988065,-103421.96,-102649.78,-20393.066,-17476.441,-18537.598,-32898.926,-18803.875,7165.283
1318373.6769880594,-103431.195,-102654.87,-20395.387,-17480.266,-18541.463,-32899.414,-18802.654,7166.0566
1318373.6809880538,-103430.71,-102656.01,-20397.543,-17480.592,-18542.156,-32899.414,-18803.02,7169.8813
1318373.6849880482,-103422.28,-102648.4,-20392.498,-17477.459,-18537.68,-32898.6,-18801.352,7171.8345
1318373.6889880425,-103413.74,-102641.28,-20388.469,-17475.465,-18535.156,-32897.586,-18800.049,7172.567
1318373.692988037,-103421.875,-102647.34,-20393.678,-17479.9,-18538.086,-32898.074,-18799.275,7170.451
1318373.6969880313,-103439.58,-102661.87,-20401.082,-17484.986,-18545.818,-32897.707,-18798.504,7172.2007
1318373.7009880256,-103447.35,-102665.695,-20404.094,-17487.508,-18546.021,-32898.844,-18798.219,7175.0083
1318373.70498802,-103437.26,-102651.49,-20402.385,-17485.393,-18540.61,-32898.723,-18797.852,7176.107
1318373.7089880144,-103430.914,-102643.68,-20401.896,-17483.969,-18537.03,-32898.52,-18797.242,7174.6016
1318373.7129880087,-103434.086,-102645.96,-20403.85,-17486.451,-18539.307,-32899.496,-18795.695,7173.625
1318373.716988003,-103441.94,-102650.72,-20404.623,-17489.46,-18543.133,-32899.82,-18795.29,7177.4497
1318373.7209879975,-103440.48,-102647.99,-20403.076,-17488.893,-18545.045,-32901.125,-18797.81,7176.9614
1318373.7249879919,-103431.84,-102643.92,-20399.74,-17486.613,-18541.83,-32903.523,-18801.96,7173.7876
1318373.7289879862,-103428.47,-102644.78,-20398.805,-17486.41,-18542.4,-32905.805,-18804.078,7171.0205
1318373.7329879806,-103429.53,-102650.84,-20402.873,-17488.363,-18546.102,-32905.52,-18805.014,7170.166
1318373.736987975,-103435.55,-102654.664,-20407.553,-17490.887,-18549.236,-32906.7,-18807.129,7168.01
1318373.7409879693,-103433.96,-102651.62,-20405.314,-17492.27,-18550.13,-32907.473,-18809.49,7167.9688
1318373.7449879637,-103425.74,-102647.26,-20401.693,-17492.473,-18547.975,-32907.555,-18810.344,7167.2773
1318373.748987958,-103422.0,-102645.305,-20401.734,-17490.316,-18548.422,-32907.023,-18813.68,7162.5977
1318373.7529879524,-103429.81,-102648.36,-20406.576,-17493.246,-18551.352,-32907.555,-18815.43,7160.8076
1318373.7569879468,-103436.445,-102652.875,-20407.918,-17496.297,-18553.59,-32908.49,-18815.633,7161.7026
1318373.7609879412,-103438.88,-102658.086,-20408.977,-17496.217,-18554.77,-32909.996,-18817.424,7165.1206
1318373.7649879355,-103435.71,-102655.07,-20409.22,-17497.152,-18554.973,-32913.86,-18820.842,7165.283
1318373.76898793,-103427.125,-102646.85,-20404.217,-17495.809,-18553.875,-32915.73,-18822.957,7164.958
1318373.7729879243,-103432.09,-102649.09,-20407.635,-17498.047,-18558.514,-32914.47,-18821.045,7164.8765
1318373.7769879187,-103447.11,-102655.56,-20412.965,-17502.156,-18560.67,-32911.785,-18817.83,7169.7593
1318373.780987913,-103454.43,-102660.77,-20415.812,-17503.947,-18560.223,-32913.047,-18820.354,7168.498
1318373.7849879074,-103444.95,-102657.27,-20412.842,-17502.441,-18558.838,-32912.477,-18823.121,7162.842
1318373.7889879018,-103437.91,-102653.85,-20410.035,-17502.564,-18557.496,-32912.355,-18823.73,7159.7495
1318373.7929878961,-103445.36,-102659.06,-20413.9,-17505.9,-18558.594,-32913.086,-18823.527,7161.784
1318373.7969878905,-103455.85,-102665.164,-20422.078,-17510.498,-18564.209,-32914.918,-18825.318,7164.2256
1318373.8009878849,-103460.21,-102665.37,-20423.34,-17512.086,-18563.803,-32914.88,-18825.48,7165.161
1318373.8049878792,-103449.586,-102659.02,-20418.377,-17511.598,-18566.285,-32912.883,-18824.666,7164.2256
1318373.8089878736,-103435.75,-102654.016,-20414.47,-17509.4,-18566.732,-32911.336,-18822.877,7167.2363
1318373.812987868,-103444.3,-102654.75,-20416.383,-17511.475,-18570.11,-32912.68,-18824.627,7165.1206
1318373.8169878623,-103459.88,-102664.35,-20419.8,-17515.545,-18578.451,-32916.42,-18828.572,7162.7607
1318373.8209878567,-103462.37,-102669.11,-20418.54,-17515.951,-18576.01,-32917.97,-18830.12,7164.022
1318373.8249878509,-103450.89,-102663.74,-20416.383,-17513.51,-18570.965,-32917.44,-18829.428,7167.684
1318373.8289878452,-103444.99,-102662.4,-20417.236,-17513.51,-18570.191,-32916.016,-18828.572,7171.4683
1318373.8329878396,-103449.1,-102669.27,-20423.26,-17518.352,-18574.627,-32913.74,-18826.986,7170.573
1318373.836987834,-103457.73,-102674.56,-20428.305,-17522.299,-18577.922,-32912.76,-18824.219,7174.0317
1318373.8409878283,-103456.71,-102671.47,-20428.914,-17522.176,-18577.76,-32913.047,-18824.219,7173.055
1318373.8449878227,-103451.54,-102666.51,-20428.223,-17520.63,-18573.69,-32912.07,-18822.754,7169.8
1318373.848987817,-103445.195,-102664.39,-20424.764,-17520.387,-18571.453,-32910.117,-18819.662,7169.515
1318373.8529878114,-103450.4,-102670.54,-20426.758,-17520.346,-18572.51,-32908.938,-18821.533,7165.8125
1318373.8569878058,-103460.21,-102675.625,-20431.072,-17522.87,-18576.742,-32909.914,-18825.318,7161.296
1318373.8609878002,-103459.64,-102673.18,-20429.566,-17522.787,-18577.8,-32910.688,-18827.19,7162.2314
1318373.8649877945,-103447.02,-102665.29,-20426.27,-17518.352,-18573.324,-32912.152,-18829.102,7163.4116
1318373.868987789,-103438.234,-102658.66,-20422.404,-17515.707,-18571.453,-32910.81,-18829.428,7163.371
1318373.8729877833,-103446.01,-102661.79,-20425.008,-17518.596,-18575.684,-32909.793,-18831.584,7160.2783
1318373.8769877777,-103456.95,-102666.71,-20426.19,-17519.695,-18576.254,-32909.02,-18831.014,7162.191
1318373.880987772,-103458.13,-102668.09,-20425.416,-17519.002,-18576.416,-32908.406,-18831.38,7164.1846
1318373.8849877664,-103452.88,-102669.03,-20425.252,-17519.898,-18576.295,-32906.94,-18833.863,7162.0283
1318373.8889877608,-103449.016,-102667.36,-20425.09,-17519.898,-18575.807,-32907.227,-18838.623,7158.0405
1318373.8929877551,-103455.445,-102670.21,-20426.637,-17522.258,-18575.725,-32907.797,-18838.094,7157.878
1318373.8969877495,-103465.54,-102674.195,-20428.63,-17524.943,-18578.125,-32908.816,-18836.06,7160.1157
1318373.9009877439,-103467.49,-102673.18,-20427.857,-17526.002,-18579.387,-32908.33,-18835.408,7163.5337
1318373.9049877382,-103457.36,-102666.47,-20423.463,-17523.031,-18575.928,-32905.805,-18835.205,7164.9985
1318373.9089877326,-103450.4,-102661.83,-20421.143,-17519.613,-18573.854,-32905.805,-18836.914,7164.1846
1318373.912987727,-103459.31,-102666.95,-20427.328,-17523.031,-18578.777,-32906.74,-18836.14,7162.313
1318373.9169877213,-103475.79,-102678.47,-20433.025,-17530.07,-18583.66,-32905.926,-18833.21,7162.8013
1318373.9209877157,-103478.4,-102680.55,-20430.014,-17529.744,-18585.084,-32904.746,-18831.299,7165.3647
1318373.92498771,-103453.82,-102668.336,-20420.94,-17524.049,-18580.975,-32905.76,-18832.154,7168.213
1318373.9289877045,-103438.32,-102658.734,-20417.807,-17520.387,-18578.045,-32904.703,-18831.99,7168.62
1318373.9329876988,-103447.06,-102662.84,-20421.387,-17524.617,-18580.566,-32903.77,-18828.572,7170.3696
1318373.9369876932,-103462.04,-102673.016,-20425.09,-17529.95,-18585.938,-32903.65,-18827.596,7171.4277
1318373.9409876876,-103464.36,-102674.85,-20426.596,-17529.135,-18586.629,-32902.26,-18826.904,7173.584
1318373.944987682,-103455.125,-102668.336,-20422.893,-17526.652,-18579.713,-32899.945,-18824.707,7175.2524
1318373.9489876763,-103448.57,-102665.9,-20420.818,-17525.635,-18577.23,-32898.316,-18823.69,7176.107
1318373.9529876707,-103455.98,-102671.836,-20424.764,-17528.443,-18584.229,-32897.098,-18821.33,7179.6875
1318373.956987665,-103464.4,-102676.84,-20428.59,-17532.105,-18589.967,-32897.992,-18820.557,7177.8975
1318373.9609876594,-103461.555,-102674.32,-20426.19,-17529.46,-18588.664,-32898.113,-18820.477,7179.5654
1318373.9649876538,-103455.04,-102670.66,-20424.031,-17527.588,-18583.984,-32897.95,-18822.998,7177.287
1318373.9689876481,-103451.99,-102669.4,-20422.201,-17526.938,-18583.334,-32898.438,-18823.365,7176.4326
1318373.9729876425,-103457.52,-102673.75,-20424.48,-17528.443,-18588.95,-32897.707,-18822.104,7177.287
1318373.9769876369,-103463.99,-102674.52,-20426.88,-17528.688,-18589.764,-32899.742,-18822.795,7180.6235
1318373.9809876313,-103463.38,-102670.66,-20424.357,-17526.246,-18584.758,-32901.164,-18823.61,7184.896
1318373.9849876256,-103455.9,-102660.89,-20421.225,-17522.705,-18579.793,-32900.473,-18824.342,7183.2275
1318373.98898762,-103454.06,-102658.53,-20420.613,-17522.34,-18579.266,-32899.13,-18822.754,7187.134
1318373.9929876144,-103458.7,-102661.22,-20423.178,-17525.066,-18583.252,-32899.617,-18823.08,7187.2153
1318373.9969876087,-103470.625,-102669.516,-20431.764,-17528.729,-18589.111,-32899.66,-18823.08,7185.913
1318374.000987603,-103473.35,-102673.305,-20433.594,-17530.03,-18592.0,-32900.31,-18823.04,7185.0996
1318374.0049875975,-103465.62,-102669.03,-20429.525,-17529.012,-18593.426,-32900.555,-18822.225,7185.018
1318374.0089875918,-103459.6,-102666.71,-20426.637,-17530.965,-18596.15,-32904.137,-18823.854,7183.879
1318374.0129875862,-103464.89,-102668.91,-20424.764,-17533.123,-18600.098,-32905.68,-18825.318,7181.7627
1318374.0169875806,-103473.19,-102676.555,-20425.904,-17536.58,-18602.092,-32905.965,-18826.254,7182.9834
1318374.020987575,-103471.88,-102675.46,-20425.252,-17536.906,-18602.05,-32907.188,-18826.172,7186.6455
1318374.0249875693,-103460.25,-102670.125,-20424.52,-17534.344,-18601.074,-32909.02,-18829.51,7184.4893
1318374.0289875637,-103456.67,-102667.195,-20425.293,-17533.244,-18601.033,-32908.977,-18830.893,7181.885
1318374.032987558,-103463.914,-102668.7,-20430.176,-17536.053,-18608.033,-32910.93,-18829.834,7182.9834
1318374.0369875524,-103476.61,-102672.98,-20430.055,-17537.762,-18612.834,-32912.883,-18830.486,7185.7505
1318374.0409875468,-103480.39,-102676.31,-20426.31,-17538.168,-18609.254,-32915.652,-18831.951,7186.605
1318374.0449875412,-103470.664,-102669.72,-20422.607,-17534.547,-18606.445,-32913.902,-18830.242,7186.1167
1318374.0489875355,-103463.46,-102667.08,-20420.898,-17532.227,-18609.05,-32912.273,-18829.63,7184.6113
1318374.0529875297,-103475.305,-102678.67,-20424.52,-17536.785,-18614.38,-32914.105,-18830.525,7181.0303
1318374.056987524,-103485.76,-102687.34,-20429.484,-17542.277,-18619.1,-32917.035,-18832.643,7177.816
1318374.0609875184,-103482.266,-102679.28,-20426.678,-17540.08,-18618.002,-32917.848,-18830.607,7179.0366
1318374.0649875128,-103478.48,-102674.03,-20423.504,-17537.191,-18617.229,-32918.863,-18830.486,7179.8096
1318374.0689875071,-103470.5,-102668.99,-20420.29,-17536.418,-18615.275,-32919.84,-18832.234,7177.3276
1318374.0729875015,-103470.586,-102669.64,-20421.957,-17537.924,-18618.611,-32919.8,-18831.91,7176.7173
1318374.0769874959,-103477.625,-102672.41,-20424.684,-17539.389,-18620.443,-32923.22,-18832.967,7177.8975
1318374.0809874902,-103475.1,-102670.375,-20427.084,-17537.395,-18618.123,-32926.312,-18835.531,7175.0083
1318374.0849874846,-103466.72,-102671.836,-20426.066,-17535.809,-18618.572,-32929.16,-18838.299,7169.922
1318374.088987479,-103464.73,-102672.37,-20425.13,-17535.076,-18616.62,-32930.094,-18839.559,7166.3413
1318374.0929874734,-103472.66,-102677.49,-20427.531,-17538.33,-18621.176,-32932.13,-18840.7,7164.714
1318374.0969874677,-103482.016,-102681.44,-20430.584,-17542.4,-18625.244,-32935.06,-18843.14,7166.8296
1318374.100987462,-103479.945,-102675.984,-20430.34,-17541.504,-18623.902,-32936.89,-18845.623,7168.457
1318374.1049874565,-103467.45,-102670.25,-20425.822,-17537.8,-18620.443,-32936.08,-18848.389,7165.202
1318374.1089874508,-103470.625,-102671.96,-20429.12,-17539.145,-18621.379,-32934.734,-18848.309,7161.9062
1318374.1129874452,-103496.09,-102685.59,-20439.861,-17545.086,-18628.826,-32933.188,-18845.785,7160.5635
1318374.1169874396,-103502.69,-102695.68,-20436.97,-17547.283,-18635.133,-32933.51,-18843.547,7163.127
1318374.120987434,-103472.82,-102678.266,-20425.457,-17543.05,-18631.756,-32936.566,-18845.379,7167.0737
1318374.1249874283,-103456.26,-102665.125,-20421.55,-17541.057,-18626.018,-32937.258,-18847.047,7166.748
1318374.1289874227,-103455.445,-102667.65,-20419.516,-17540.324,-18630.006,-32938.52,-18847.412,7162.5977
1318374.132987417,-103459.64,-102674.6,-20421.63,-17542.725,-18636.354,-32938.64,-18846.232,7160.8887
1318374.1369874114,-103466.555,-102682.87,-20424.48,-17547.607,-18641.113,-32938.965,-18846.844,7159.912
1318374.1409874058,-103460.37,-102681.32,-20424.113,-17548.422,-18641.48,-32940.594,-18848.715,7160.1973
1318374.1449874002,-103450.52,-102678.06,-20418.742,-17543.783,-18640.666,-32939.13,-18850.18,7158.6914
1318374.1489873945,-103442.34,-102677.45,-20414.715,-17543.092,-18644.287,-32938.07,-18852.621,7154.0938
1318374.152987389,-103459.96,-102690.555,-20419.598,-17549.113,-18651.367,-32937.418,-18853.8,7152.629
1318374.1569873833,-103472.13,-102696.984,-20421.713,-17551.637,-18653.24,-32938.395,-18853.395,7155.4365
1318374.1609873776,-103467.125,-102692.34,-20416.098,-17549.236,-18651.814,-32939.293,-18854.33,7158.7324
1318374.164987372,-103459.84,-102689.7,-20414.918,-17548.87,-18652.223,-32937.83,-18856.324,7160.7666
1318374.1689873664,-103456.79,-102689.25,-20415.895,-17548.219,-18650.879,-32936.32,-18857.057,7161.621
1318374.1729873607,-103466.72,-102695.36,-20419.678,-17550.781,-18652.996,-32938.03,-18854.656,7165.08
1318374.176987355,-103472.945,-102695.11,-20421.225,-17551.148,-18652.02,-32936.484,-18850.057,7173.055
1318374.1809873495,-103469.0,-102689.984,-20422.242,-17548.992,-18652.588,-32936.89,-18849.365,7180.339
1318374.1849873438,-103460.86,-102688.48,-20420.37,-17547.283,-18649.74,-32938.19,-18850.18,7179.3213
1318374.1889873382,-103455.41,-102687.14,-20418.865,-17545.33,-18649.781,-32937.746,-18850.545,7180.1353
1318374.1929873326,-103457.234,-102693.61,-20418.904,-17547.852,-18655.477,-32937.38,-18850.871,7178.711
1318374.196987327,-103470.09,-102701.99,-20424.072,-17552.775,-18661.377,-32937.094,-18851.156,7179.6875
1318374.2009873213,-103472.17,-102703.375,-20427.205,-17553.67,-18663.209,-32938.113,-18852.174,7180.583
1318374.2049873157,-103464.805,-102698.2,-20423.951,-17551.922,-18660.768,-32938.805,-18852.703,7180.664
1318374.20898731,-103464.27,-102696.13,-20425.334,-17551.922,-18656.453,-32940.348,-18852.58,7179.6875
1318374.2129873044,-103475.55,-102701.87,-20432.537,-17557.373,-18659.912,-32940.797,-18851.482,7178.508
1318374.2169872988,-103488.125,-102706.586,-20435.994,-17560.71,-18664.592,-32941.164,-18850.79,7179.077
1318374.2209872932,-103490.36,-102705.37,-20435.14,-17561.28,-18663.533,-32942.06,-18849.121,7183.4717
1318374.2249872875,-103481.734,-102700.36,-20431.764,-17560.791,-18661.092,-32941.977,-18850.83,7180.013
1318374.228987282,-103475.55,-102700.4,-20431.275,-17559.773,-18664.104,-32942.14,-18854.818,7173.0146
1318374.2329872763,-103486.086,-102707.08,-20435.67,-17562.703,-18670.33,-32943.562,-18856.365,7168.2944
1318374.2369872706,-103503.83,-102718.06,-20443.604,-17567.506,-18673.87,-32946.004,-18860.516,7165.8936
1318374.240987265,-103505.7,-102720.22,-20443.4,-17567.342,-18673.055,-32947.754,-18866.334,7164.592
1318374.2449872594,-103493.49,-102712.28,-20437.867,-17564.453,-18670.818,-32950.32,-18868.979,7166.0156
1318374.2489872538,-103488.77,-102712.32,-20438.396,-17564.738,-18668.904,-32952.555,-18870.932,7163.8594
1318374.2529872481,-103496.38,-102715.945,-20444.703,-17568.28,-18670.777,-32951.336,-18871.094,7164.3477
1318374.2569872425,-103500.2,-102717.94,-20448.568,-17570.271,-18674.195,-32951.824,-18870.729,7168.254
1318374.2609872369,-103498.375,-102715.46,-20445.232,-17568.197,-18671.754,-32952.11,-18869.832,7171.916
1318374.2649872312,-103487.836,-102709.88,-20440.594,-17565.145,-18669.719,-32952.312,-18869.1,7173.0957
1318374.2689872256,-103477.016,-102707.56,-20433.676,-17562.582,-18669.354,-32951.418,-18866.74,7172.689
1318374.27298722,-103482.18,-102711.39,-20432.576,-17564.941,-18673.584,-32951.01,-18867.514,7170.858
1318374.2769872143,-103495.24,-102716.23,-20436.32,-17568.97,-18677.531,-32953.816,-18872.64,7167.44
1318374.2809872085,-103496.42,-102711.266,-20437.988,-17568.074,-18674.684,-32954.633,-18872.967,7166.992
1318374.2849872028,-103492.88,-102709.48,-20438.844,-17565.145,-18666.668,-32956.016,-18871.014,7166.545
1318374.2889871972,-103488.65,-102706.055,-20437.459,-17563.844,-18667.074,-32957.113,-18873.658,7162.0283
1318374.2929871916,-103495.57,-102709.92,-20437.297,-17564.373,-18667.725,-32957.03,-18875.285,7158.8545
1318374.296987186,-103509.41,-102717.57,-20439.941,-17566.57,-18670.33,-32959.758,-18878.012,7157.0234
1318374.3009871803,-103508.836,-102719.73,-20439.982,-17565.918,-18667.684,-32960.9,-18881.145,7155.1924
1318374.3049871747,-103494.71,-102713.42,-20439.25,-17563.518,-18663.738,-32960.777,-18882.936,7153.2393
1318374.308987169,-103487.67,-102710.21,-20439.168,-17562.459,-18664.186,-32959.15,-18879.15,7157.959
1318374.3129871634,-103496.99,-102713.26,-20443.28,-17564.168,-18666.424,-32959.027,-18875.773,7160.6445
1318374.3169871578,-103503.09,-102714.805,-20442.627,-17564.535,-18668.54,-32957.645,-18873.982,7162.1504
1318374.3209871522,-103495.98,-102707.97,-20437.459,-17561.605,-18666.016,-32957.316,-18875.0,7164.266
1318374.3249871465,-103482.75,-102701.13,-20434.123,-17558.717,-18663.818,-32955.69,-18873.78,7164.958
1318374.328987141,-103476.93,-102698.33,-20430.664,-17558.758,-18663.33,-32954.67,-18872.152,7167.562
1318374.3329871353,-103483.65,-102704.06,-20432.943,-17560.303,-18663.615,-32956.055,-18871.217,7167.8877
1318374.3369871296,-103493.37,-102708.17,-20435.059,-17562.867,-18664.227,-32957.887,-18872.111,7168.579
1318374.340987124,-103490.195,-102702.92,-20433.797,-17561.32,-18660.238,-32959.92,-18873.25,7173.1772
1318374.3449871184,-103484.17,-102696.54,-20432.576,-17559.041,-18658.162,-32961.344,-18874.146,7174.8457
1318374.3489871128,-103477.22,-102695.805,-20430.055,-17556.56,-18659.1,-32962.527,-18873.129,7176.595
1318374.3529871071,-103483.32,-102700.28,-20431.355,-17559.285,-18662.762,-32962.605,-18870.688,7177.4497
1318374.3569871015,-103490.85,-102700.24,-20433.635,-17562.338,-18664.389,-32963.34,-18870.361,7178.508
1318374.3609870959,-103485.4,-102693.766,-20430.258,-17559.855,-18662.354,-32960.855,-18869.467,7180.9897
1318374.3649870902,-103472.54,-102687.34,-20426.393,-17554.688,-18657.023,-32959.11,-18867.84,7183.0244
1318374.3689870846,-103473.15,-102690.96,-20429.646,-17555.828,-18658.082,-32960.855,-18868.611,7181.2744
1318374.372987079,-103483.24,-102700.6,-20436.361,-17560.791,-18660.645,-32962.73,-18869.385,7178.7925
1318374.3769870733,-103487.51,-102704.15,-20437.256,-17563.232,-18661.459,-32965.332,-18870.688,7179.9316
1318374.3809870677,-103483.805,-102700.08,-20432.984,-17562.338,-18659.75,-32964.52,-18869.264,7184.001
1318374.384987062,-103476.73,-102695.56,-20429.363,-17559.205,-18659.059,-32961.914,-18866.7,7188.558
1318374.3889870564,-103481.695,-102695.31,-20428.996,-17559.45,-18658.406,-32962.527,-18866.74,7188.5176
1318374.3929870508,-103488.98,-102698.24,-20431.885,-17561.2,-18659.383,-32964.316,-18867.758,7187.7036
1318374.3969870452,-103488.734,-102701.09,-20436.932,-17563.965,-18661.256,-32965.945,-18868.164,7190.796
1318374.4009870396,-103488.04,-102700.04,-20435.873,-17563.965,-18659.547,-32965.74,-18868.246,7196.289
1318374.404987034,-103483.445,-102694.99,-20434.855,-17562.297,-18662.477,-32964.926,-18868.123,7195.6787
1318374.4089870283,-103477.54,-102696.49,-20432.129,-17561.932,-18659.627,-32964.844,-18867.92,7194.092
1318374.4129870227,-103475.79,-102698.125,-20431.275,-17563.6,-18659.506,-32964.97,-18866.658,7194.5396
1318374.416987017,-103484.74,-102703.375,-20435.14,-17567.791,-18664.186,-32965.008,-18867.025,7197.3066
1318374.4209870114,-103486.414,-102702.6,-20432.617,-17566.895,-18661.744,-32968.02,-18871.014,7197.632
1318374.4249870058,-103475.305,-102695.88,-20426.473,-17562.947,-18656.82,-32970.543,-18874.676,7195.5566
1318374.4289870001,-103468.266,-102689.375,-20420.777,-17559.814,-18655.762,-32971.56,-18876.547,7195.3125
1318374.4329869945,-103480.59,-102698.81,-20426.025,-17565.512,-18666.951,-32975.344,-18880.656,7188.436
1318374.4369869889,-103493.984,-102707.484,-20433.025,-17570.436,-18672.12,-32977.785,-18884.441,7184.8145
1318374.4409869832,-103493.125,-102708.375,-20434.205,-17567.627,-18669.475,-32978.23,-18887.371,7184.1636
1318374.4449869776,-103483.56,-102705.65,-20430.828,-17566.082,-18668.701,-32978.312,-18888.307,7181.926
1318374.448986972,-103481.41,-102703.49,-20430.99,-17565.594,-18667.848,-32979.492,-18888.592,7180.42
1318374.4529869664,-103492.31,-102706.55,-20437.785,-17567.83,-18669.393,-32981.85,-18888.104,7180.217
1318374.4569869607,-103500.086,-102712.57,-20438.396,-17570.68,-18669.8,-32981.406,-18887.004,7184.082
1318374.460986955,-103497.805,-102711.06,-20436.158,-17570.354,-18667.766,-32981.527,-18886.434,7186.035
1318374.4649869495,-103489.55,-102703.66,-20433.229,-17568.318,-18663.9,-32982.707,-18888.143,7184.5703
1318374.4689869438,-103486.375,-102703.82,-20432.902,-17567.342,-18665.65,-32982.06,-18889.04,7181.0303
1318374.4729869382,-103494.23,-102709.516,-20437.744,-17569.744,-18670.857,-32982.137,-18887.695,7181.2744
1318374.4769869326,-103503.55,-102711.555,-20441.121,-17572.469,-18671.428,-32981.203,-18885.621,7181.9663
1318374.480986927,-103501.836,-102708.83,-20441.365,-17570.68,-18668.295,-32980.633,-18886.557,7183.757
1318374.4849869213,-103491.375,-102702.92,-20436.646,-17569.092,-18667.562,-32980.875,-18887.86,7183.065
1318374.4889869157,-103484.17,-102698.24,-20434.896,-17568.645,-18666.871,-32979.94,-18887.898,7181.844
1318374.49298691,-103488.08,-102702.516,-20438.273,-17570.8,-18670.898,-32977.54,-18888.021,7181.5186
1318374.4969869044,-103491.17,-102707.89,-20437.5,-17572.795,-18671.143,-32975.547,-18886.883,7184.0415
1318374.5009868988,-103494.96,-102711.34,-20436.97,-17572.104,-18669.393,-32972.332,-18884.93,7187.622
1318374.5049868932,-103490.28,-102700.445,-20435.14,-17568.197,-18664.021,-32969.523,-18882.488,7186.4014
1318374.5089868873,-103484.58,-102689.945,-20431.723,-17563.111,-18657.918,-32968.75,-18879.883,7185.669
1318374.5129868817,-103486.78,-102696.21,-20432.781,-17564.373,-18659.871,-32970.664,-18880.086,7186.1167
1318374.516986876,-103491.055,-102699.06,-20433.146,-17566.61,-18663.25,-32970.543,-18880.047,7191.284
1318374.5209868704,-103488.2,-102698.0,-20431.479,-17563.803,-18659.912,-32969.035,-18879.314,7195.8823
1318374.5249868648,-103480.39,-102692.79,-20427.775,-17560.303,-18657.227,-32968.832,-18879.232,7195.6787
1318374.5289868591,-103473.48,-102687.75,-20424.764,-17558.146,-18656.453,-32968.914,-18877.809,7198.4863
1318374.5329868535,-103478.44,-102690.48,-20424.44,-17560.018,-18656.902,-32968.793,-18873.738,7202.7183
1318374.5369868479,-103484.26,-102691.125,-20423.219,-17562.5,-18657.105,-32969.85,-18871.338,7205.241
1318374.5409868422,-103477.54,-102683.39,-20419.354,-17558.92,-18654.664,-32967.734,-18869.467,7212.362
1318374.5449868366,-103467.125,-102678.305,-20414.43,-17555.014,-18650.27,-32967.41,-18869.264,7212.5654
1318374.548986831,-103460.414,-102679.2,-20412.924,-17552.572,-18651.082,-32967.125,-18868.49,7215.617
1318374.5529868254,-103465.82,-102684.0,-20414.795,-17555.135,-18655.64,-32967.816,-18867.879,7218.2617
1318374.5569868197,-103479.74,-102689.58,-20416.463,-17558.838,-18655.355,-32967.9,-18866.414,7222.6973
1318374.560986814,-103482.305,-102690.72,-20417.44,-17558.064,-18656.291,-32968.344,-18864.38,7230.062
1318374.5649868085,-103472.86,-102686.65,-20414.795,-17553.955,-18655.07,-32967.33,-18862.996,7236.206
1318374.5689868028,-103465.945,-102679.53,-20411.215,-17552.775,-18652.955,-32966.023,-18862.143,7237.3047
1318374.5729867972,-103472.945,-102681.44,-20415.203,-17556.275,-18653.523,-32964.926,-18860.637,7238.2812
1318374.5769867916,-103479.05,-102683.15,-20419.393,-17556.355,-18649.74,-32963.176,-18857.3,7242.676
1318374.580986786,-103474.9,-102678.14,-20417.115,-17555.34,-18645.346,-32961.184,-18856.04,7242.2285
1318374.5849867803,-103468.836,-102676.19,-20415.365,-17554.688,-18646.24,-32962.28,-18859.822,7231.6895
1318374.5889867747,-103465.58,-102677.01,-20418.621,-17553.264,-18645.59,-32962.605,-18862.63,7226.6846
1318374.592986769,-103473.76,-102681.97,-20421.795,-17555.908,-18647.787,-32964.234,-18861.654,7228.923
1318374.5969867634,-103478.16,-102683.15,-20420.29,-17555.867,-18647.258,-32964.152,-18858.318,7235.4736
1318374.6009867578,-103473.8,-102679.81,-20417.521,-17554.363,-18647.299,-32966.105,-18858.969,7236.8164
1318374.6049867522,-103465.21,-102674.12,-20414.348,-17551.799,-18645.305,-32967.082,-18859.54,7236.491
1318374.6089867465,-103460.984,-102669.03,-20413.006,-17551.678,-18648.357,-32966.35,-18857.625,7236.898
1318374.612986741,-103469.08,-102677.164,-20416.26,-17555.096,-18646.078,-32963.094,-18853.191,7240.072
1318374.6169867353,-103478.805,-102681.56,-20418.742,-17557.17,-18645.875,-32961.793,-18850.139,7244.914
1318374.6209867296,-103474.57,-102679.28,-20416.83,-17555.787,-18644.734,-32961.914,-18850.545,7247.152
1318374.624986724,-103465.62,-102676.96,-20414.715,-17556.396,-18647.299,-32963.664,-18853.68,7241.008
1318374.6289867184,-103462.61,-102674.52,-20414.062,-17555.828,-18649.008,-32963.83,-18854.533,7236.369
1318374.6329867127,-103467.77,-102677.125,-20420.086,-17559.285,-18651.205,-32963.625,-18856.771,7230.7944
1318374.636986707,-103476.52,-102680.71,-20424.195,-17562.867,-18651.287,-32964.152,-18859.701,7230.591
1318374.6409867015,-103477.625,-102681.52,-20425.172,-17564.576,-18651.979,-32962.08,-18864.217,7229.248
1318374.6449866958,-103470.7,-102681.64,-20422.73,-17566.773,-18652.588,-32960.855,-18868.246,7224.7725
1318374.6489866902,-103468.875,-102681.6,-20423.666,-17567.383,-18651.49,-32959.27,-18870.402,7223.0635
1318374.6529866846,-103483.16,-102690.516,-20430.95,-17571.168,-18657.47,-32956.992,-18870.688,7220.0117
1318374.656986679,-103494.63,-102694.22,-20431.764,-17573.406,-18659.75,-32952.11,-18869.02,7221.802
1318374.6609866733,-103493.734,-102688.4,-20426.066,-17571.697,-18651.814,-32949.06,-18868.287,7228.109
1318374.6649866677,-103480.92,-102677.734,-20420.492,-17566.365,-18647.625,-32945.598,-18866.537,7229.8584
1318374.668986662,-103465.91,-102676.44,-20419.354,-17565.268,-18649.09,-32940.31,-18863.201,7231.4453
1318374.6729866564,-103473.15,-102683.07,-20421.346,-17567.424,-18650.39,-32935.344,-18861.572,7232.015
1318374.6769866508,-103479.05,-102684.57,-20419.842,-17565.838,-18650.066,-32935.223,-18860.637,7236.0435
1318374.6809866452,-103470.75,-102680.75,-20413.086,-17562.664,-18644.531,-32939.21,-18859.295,7239.299
1318374.6849866395,-103459.92,-102679.164,-20409.018,-17560.506,-18641.195,-32941.773,-18859.01,7240.438
1318374.688986634,-103457.93,-102679.81,-20409.424,-17559.002,-18641.643,-32944.133,-18861.328,7244.1
1318374.6929866283,-103468.71,-102681.84,-20412.8,-17562.012,-18647.625,-32946.13,-18863.201,7249.919
1318374.6969866226,-103472.58,-102683.15,-20414.266,-17564.617,-18650.27,-32945.152,-18860.76,7262.1665
1318374.700986617,-103463.914,-102679.2,-20415.04,-17564.25,-18647.705,-32940.96,-18856.893,7272.5425
1318374.7049866114,-103457.69,-102677.25,-20412.883,-17564.168,-18646.12,-32938.395,-18856.854,7275.9604
1318374.7089866058,-103457.69,-102675.91,-20410.97,-17565.389,-18647.502,-32937.906,-18858.074,7277.629
1318374.7129866001,-103469.445,-102683.88,-20418.58,-17569.865,-18651.367,-32939.13,-18859.375,7276.5303
1318374.7169865945,-103479.86,-102687.55,-20422.445,-17572.469,-18653.85,-32940.066,-18860.352,7276.815
1318374.7209865889,-103473.555,-102681.69,-20418.742,-17570.354,-18651.082,-32940.51,-18858.684,7282.4707
1318374.7249865832,-103459.96,-102674.03,-20414.877,-17568.28,-18648.316,-32940.348,-18857.098,7285.8887
1318374.7289865776,-103459.72,-102675.42,-20414.43,-17571.98,-18650.025,-32941.406,-18857.098,7288.371
1318374.732986572,-103468.59,-102680.18,-20418.783,-17578.857,-18656.658,-32940.227,-18854.615,7291.382
1318374.736986566,-103474.33,-102680.305,-20416.912,-17581.219,-18660.238,-32937.664,-18852.459,7296.794
1318374.7409865605,-103468.67,-102673.22,-20412.762,-17578.695,-18656.535,-32936.32,-18852.01,7299.1133
1318374.7449865548,-103461.14,-102668.74,-20412.232,-17578.492,-18653.24,-32933.51,-18854.492,7297.038
1318374.7489865492,-103458.26,-102666.79,-20410.197,-17580.607,-18658.732,-32933.594,-18857.463,7293.498
1318374.7529865436,-103465.05,-102669.97,-20407.797,-17584.676,-18671.062,-32934.652,-18859.09,7292.44
1318374.756986538,-103475.305,-102682.336,-20408.041,-17589.275,-18674.56,-32933.15,-18857.38,7294.6777
1318374.7609865323,-103479.984,-102689.7,-20407.186,-17592.244,-18678.305,-32929.73,-18855.021,7297.811
1318374.7649865267,-103473.92,-102691.125,-20404.908,-17592.205,-18677.166,-32929.527,-18855.754,7296.2646
1318374.768986521,-103466.35,-102677.164,-20403.117,-17590.82,-18674.154,-32932.902,-18857.666,7293.8643
1318374.7729865154,-103468.18,-102671.96,-20406.414,-17595.174,-18676.84,-32933.797,-18858.113,7288.615
1318374.7769865098,-103472.74,-102671.96,-20412.557,-17598.47,-18675.172,-32933.594,-18857.463,7291.382
1318374.7809865042,-103468.8,-102665.66,-20410.156,-17596.15,-18674.56,-32934.53,-18857.625,7294.271
1318374.7849864985,-103455.61,-102659.914,-20402.791,-17593.465,-18675.496,-32934.855,-18860.555,7292.196
1318374.788986493,-103449.305,-102653.41,-20402.264,-17591.39,-18675.578,-32934.043,-18863.607,7286.8247
1318374.7929864873,-103462.41,-102657.84,-20406.373,-17596.6,-18677.654,-32933.15,-18861.248,7286.418
1318374.7969864816,-103472.82,-102663.086,-20410.4,-17599.977,-18680.135,-32933.637,-18862.02,7285.8076
1318374.800986476,-103470.5,-102663.49,-20407.594,-17600.057,-18682.537,-32934.41,-18865.113,7282.878
1318374.8049864704,-103459.31,-102659.43,-20402.588,-17596.803,-18682.414,-32931.805,-18864.87,7285.4414
1318374.8089864647,-103451.375,-102655.805,-20401.164,-17595.785,-18685.018,-32929.973,-18865.275,7284.139
1318374.8129864591,-103460.78,-102663.01,-20407.227,-17599.162,-18693.686,-32929.85,-18865.031,7281.7383
1318374.8169864535,-103468.836,-102665.086,-20406.902,-17599.773,-18693.197,-32927.29,-18864.096,7285.482
1318374.8209864479,-103459.72,-102656.3,-20401.367,-17596.07,-18686.564,-32926.516,-18861.94,7293.091
1318374.8249864422,-103448.125,-102649.5,-20396.77,-17595.338,-18683.39,-32925.66,-18861.084,7296.2646
1318374.8289864366,-103446.78,-102649.74,-20397.502,-17595.174,-18685.67,-32924.074,-18859.66,7295.329
1318374.832986431,-103459.31,-102658.05,-20402.791,-17598.756,-18692.018,-32925.05,-18857.504,7293.6606
1318374.8369864253,-103467.086,-102662.84,-20405.438,-17601.889,-18694.906,-32927.574,-18856.854,7292.6436
1318374.8409864197,-103460.05,-102656.5,-20401.082,-17599.0,-18690.227,-32926.11,-18854.045,7297.8926
1318374.844986414,-103445.72,-102647.34,-20396.404,-17596.803,-18687.623,-32923.22,-18849.977,7302.165
1318374.8489864084,-103438.6,-102642.375,-20396.729,-17597.209,-18688.232,-32920.695,-18850.057,7299.3574
1318374.8529864028,-103451.13,-102647.586,-20402.791,-17600.465,-18694.012,-32921.023,-18851.197,7295.7764
1318374.8569863972,-103458.58,-102646.85,-20404.297,-17602.621,-18696.127,-32921.754,-18847.291,7302.8975
1318374.8609863915,-103451.42,-102638.836,-20398.926,-17599.773,-18695.232,-32920.086,-18842.53,7311.727
1318374.864986386,-103444.3,-102634.65,-20397.625,-17597.82,-18693.197,-32917.035,-18839.6,7315.023
1318374.8689863803,-103441.164,-102634.484,-20398.479,-17598.268,-18694.336,-32918.17,-18841.268,7311.9307
1318374.8729863747,-103452.195,-102640.875,-20401.246,-17601.482,-18698.975,-32921.023,-18843.629,7310.6284
1318374.876986369,-103461.43,-102644.734,-20402.588,-17603.191,-18701.213,-32921.715,-18841.512,7313.965
1318374.8809863634,-103462.53,-102644.53,-20402.873,-17603.883,-18699.79,-32923.34,-18840.047,7317.546
1318374.8849863578,-103459.03,-102643.195,-20402.059,-17601.318,-18699.098,-32925.09,-18840.617,7320.3125
1318374.8889863521,-103462.484,-102642.22,-20402.629,-17601.686,-18702.352,-32925.66,-18841.717,7316.6504
1318374.8929863465,-103475.43,-102647.38,-20405.803,-17605.55,-18706.463,-32928.348,-18844.361,7308.3496
1318374.8969863409,-103485.84,-102652.06,-20408.041,-17608.154,-18711.385,-32931.152,-18848.104,7302.49
1318374.9009863352,-103480.39,-102649.01,-20406.78,-17605.836,-18708.943,-32929.934,-18849.324,7299.886
1318374.9049863296,-103465.25,-102641.56,-20401.287,-17602.742,-18704.754,-32929.28,-18847.332,7298.259
1318374.908986324,-103462.164,-102640.51,-20400.555,-17602.498,-18710.652,-32929.117,-18847.332,7295.4917
1318374.9129863183,-103474.45,-102647.99,-20408.0,-17606.934,-18722.412,-32929.2,-18848.104,7291.301
1318374.9169863127,-103483.93,-102656.87,-20411.865,-17608.602,-18719.158,-32929.363,-18847.047,7289.6323
1318374.920986307,-103474.04,-102650.44,-20411.744,-17604.656,-18712.037,-32929.934,-18846.314,7293.01
1318374.9249863015,-103460.53,-102643.4,-20410.28,-17602.824,-18707.846,-32928.914,-18847.006,7292.7246
1318374.9289862958,-103463.87,-102647.46,-20410.768,-17604.045,-18715.047,-32927.9,-18847.982,7287.3945
1318374.9329862902,-103477.46,-102654.625,-20414.47,-17607.748,-18720.744,-32926.676,-18850.139,7282.1045
1318374.9369862846,-103484.5,-102657.92,-20416.748,-17610.31,-18720.785,-32927.33,-18851.686,7281.047
1318374.940986279,-103480.19,-102653.484,-20414.795,-17607.951,-18716.309,-32927.938,-18853.271,7280.4365
1318374.9449862733,-103467.25,-102647.586,-20410.441,-17604.412,-18712.037,-32926.72,-18853.719,7280.3955
1318374.9489862677,-103466.84,-102651.125,-20409.994,-17605.104,-18716.676,-32928.14,-18853.11,7277.7915
1318374.952986262,-103472.984,-102654.09,-20411.541,-17606.445,-18721.314,-32929.566,-18851.93,7276.937
1318374.9569862564,-103476.24,-102655.07,-20411.865,-17607.3,-18721.68,-32928.55,-18851.4,7279.012
1318374.9609862508,-103474.61,-102653.57,-20411.541,-17605.795,-18719.646,-32928.426,-18851.521,7279.989
1318374.964986245,-103465.78,-102646.77,-20409.791,-17603.068,-18715.535,-32928.508,-18852.01,7280.4365
1318374.9689862393,-103463.38,-102646.08,-20409.953,-17602.54,-18716.473,-32928.59,-18850.057,7283.651
1318374.9729862337,-103473.555,-102650.234,-20413.33,-17604.695,-18721.395,-32929.242,-18848.145,7285.5225
1318374.976986228,-103479.375,-102650.8,-20414.795,-17605.55,-18717.611,-32930.38,-18848.47,7287.557
1318374.9809862224,-103471.6,-102646.98,-20410.36,-17604.33,-18717.205,-32930.992,-18851.604,7287.435
1318374.9849862168,-103463.625,-102644.086,-20406.414,-17602.418,-18717.082,-32932.58,-18854.533,7284.668
1318374.9889862111,-103459.516,-102639.81,-20406.414,-17602.865,-18716.594,-32933.27,-18852.906,7282.7964
1318374.9929862055,-103465.13,-102641.08,-20409.018,-17605.836,-18720.012,-32930.95,-18847.412,7285.482
1318374.9969861999,-103474.164,-102643.4,-20410.36,-17608.236,-18720.623,-32930.016,-18843.303,7292.1143
1318375.0009861942,-103469.57,-102640.47,-20405.559,-17605.633,-18717.814,-32931.438,-18841.432,7299.0317
1318375.0049861886,-103458.336,-102637.62,-20402.059,-17602.986,-18717.285,-32930.79,-18840.902,7301.229
1318375.008986183,-103457.85,-102638.02,-20406.129,-17604.9,-18718.994,-32931.56,-18843.344,7294.1895
1318375.0129861773,-103467.33,-102640.67,-20407.39,-17607.666,-18720.582,-32933.105,-18842.041,7293.0503
1318375.0169861717,-103470.91,-102639.2,-20407.186,-17607.951,-18719.768,-32932.375,-18837.646,7301.595
1318375.020986166,-103463.664,-102633.43,-20404.664,-17605.592,-18719.238,-32929.28,-18833.172,7307.821
1318375.0249861605,-103455.85,-102630.66,-20405.03,-17604.818,-18716.879,-32926.758,-18831.666,7307.617
1318375.0289861548,-103451.375,-102631.39,-20404.297,-17605.957,-18720.867,-32926.92,-18833.09,7302.694
1318375.0329861492,-103462.0,-102639.164,-20405.72,-17611.084,-18727.459,-32928.996,-18833.984,7300.171
1318375.0369861436,-103470.91,-102643.555,-20405.803,-17613.973,-18728.027,-32929.85,-18834.393,7302.572
1318375.040986138,-103466.19,-102639.81,-20402.914,-17612.996,-18723.104,-32928.02,-18833.13,7305.217
1318375.0449861323,-103455.28,-102630.984,-20396.12,-17609.13,-18722.656,-32928.426,-18833.049,7303.0195
1318375.0489861267,-103453.21,-102629.48,-20394.857,-17607.748,-18722.9,-32929.85,-18835.857,7299.8457
1318375.052986121,-103464.44,-102635.38,-20399.21,-17611.084,-18723.959,-32929.85,-18833.578,7300.537
1318375.0569861154,-103471.73,-102636.805,-20400.96,-17613.363,-18726.238,-32928.14,-18827.963,7305.949
1318375.0609861098,-103466.48,-102634.04,-20397.014,-17612.549,-18722.209,-32927.652,-18828.736,7308.2275
1318375.0649861041,-103457.234,-102634.28,-20395.06,-17612.184,-18718.14,-32930.016,-18833.863,7299.7236
1318375.0689860985,-103450.73,-102632.33,-20396.77,-17610.719,-18717.732,-32933.31,-18837.646,7294.4336
1318375.072986093,-103455.33,-102631.266,-20401.49,-17612.184,-18723.43,-32934.734,-18836.385,7294.4336
1318375.0769860873,-103462.98,-102632.86,-20404.42,-17614.828,-18724.406,-32934.082,-18832.234,7301.351
1318375.0809860816,-103460.164,-102631.96,-20403.809,-17615.072,-18722.168,-32934.0,-18832.643,7302.287
1318375.084986076,-103449.266,-102627.41,-20398.152,-17611.775,-18718.791,-32935.387,-18838.299,7293.01
1318375.0889860704,-103450.65,-102628.26,-20398.234,-17612.469,-18722.941,-32938.64,-18842.164,7291.382
1318375.0929860647,-103467.62,-102636.97,-20404.95,-17618.287,-18728.719,-32940.715,-18843.953,7288.086
1318375.096986059,-103481.445,-102643.516,-20409.059,-17621.623,-18735.19,-32942.547,-18846.477,7287.2314
1318375.1009860535,-103474.81,-102638.72,-20405.314,-17620.117,-18734.09,-32944.62,-18847.535,7294.3115
1318375.1049860478,-103457.766,-102629.07,-20402.1,-17618.043,-18731.365,-32946.13,-18847.615,7293.7827
1318375.1089860422,-103460.53,-102632.41,-20403.688,-17620.89,-18732.748,-32945.598,-18844.482,7295.7764
1318375.1129860366,-103480.516,-102649.09,-20412.477,-17627.605,-18742.676,-32947.55,-18847.006,7293.742
1318375.116986031,-103491.09,-102657.23,-20414.51,-17630.291,-18743.775,-32952.434,-18853.639,7288.249
1318375.1209860253,-103484.78,-102650.8,-20412.15,-17627.361,-18740.805,-32957.52,-18859.54,7286.499
1318375.1249860197,-103473.35,-102645.836,-20407.39,-17625.244,-18738.363,-32959.637,-18861.37,7284.6274
1318375.128986014,-103469.81,-102649.5,-20410.197,-17627.197,-18740.682,-32963.543,-18862.59,7282.3486
1318375.1329860084,-103481.81,-102654.5,-20415.73,-17631.756,-18746.705,-32966.637,-18863.078,7281.2095
1318375.1369860028,-103490.484,-102654.38,-20417.48,-17635.01,-18745.77,-32968.547,-18861.736,7287.5166
1318375.1409859972,-103487.71,-102654.5,-20416.668,-17634.318,-18748.17,-32971.234,-18862.875,7289.3066
1318375.1449859915,-103480.39,-102653.73,-20416.545,-17630.371,-18748.21,-32971.76,-18866.822,7284.302
1318375.148985986,-103480.19,-102656.54,-20416.424,-17630.982,-18750.53,-32971.76,-18867.717,7283.6914
1318375.1529859803,-103488.69,-102663.54,-20418.58,-17634.686,-18756.268,-32974.203,-18870.2,7276.937
1318375.1569859746,-103497.195,-102668.5,-20422.607,-17637.086,-18759.725,-32975.586,-18871.135,7280.8027
1318375.160985969,-103496.34,-102666.18,-20422.242,-17636.475,-18754.314,-32975.14,-18871.746,7283.244
1318375.1649859634,-103484.625,-102656.414,-20417.44,-17633.424,-18750.611,-32974.406,-18872.926,7277.873
1318375.1689859577,-103479.695,-102653.445,-20418.457,-17634.4,-18749.676,-32974.61,-18872.03,7273.6816
1318375.172985952,-103490.52,-102661.625,-20426.19,-17639.812,-18756.795,-32976.2,-18873.861,7271.444
1318375.1769859465,-103499.59,-102666.95,-20427.775,-17643.84,-18759.807,-32976.645,-18873.047,7273.397
1318375.1809859409,-103496.95,-102665.24,-20424.48,-17643.31,-18758.545,-32977.01,-18871.297,7276.2046
1318375.1849859352,-103488.734,-102668.945,-20420.574,-17644.898,-18760.092,-32977.133,-18870.32,7277.0996
1318375.1889859296,-103494.02,-102677.9,-20422.81,-17648.52,-18763.307,-32975.71,-18870.605,7275.92
1318375.1929859237,-103506.39,-102675.58,-20427.693,-17652.67,-18761.883,-32977.176,-18873.902,7272.258
1318375.196985918,-103505.375,-102664.06,-20426.473,-17652.467,-18757.854,-32979.25,-18878.053,7268.5547
1318375.2009859125,-103496.38,-102653.32,-20421.63,-17651.043,-18750.652,-32976.766,-18878.338,7266.8867
1318375.2049859068,-103487.1,-102647.055,-20419.23,-17653.158,-18746.176,-32974.285,-18877.117,7271.0776
1318375.2089859012,-103485.234,-102649.58,-20422.486,-17657.959,-18750.164,-32973.062,-18878.012,7270.549
1318375.2129858956,-103494.23,-102654.46,-20429.363,-17664.021,-18758.3,-32974.082,-18879.07,7266.3574
1318375.21698589,-103504.73,-102657.84,-20431.275,-17668.213,-18757.732,-32974.57,-18876.912,7273.6816
1318375.2209858843,-103498.17,-102653.69,-20425.863,-17668.213,-18750.447,-32971.883,-18876.465,7278.89
1318375.2249858787,-103486.29,-102650.84,-20422.242,-17667.033,-18751.18,-32970.746,-18878.662,7280.111
1318375.228985873,-103483.56,-102652.875,-20422.975,-17666.992,-18751.506,-32971.64,-18880.086,7279.0938
1318375.2329858674,-103498.01,-102662.36,-20431.805,-17672.69,-18754.273,-32974.938,-18882.121,7275.4316
1318375.2369858618,-103510.5,-102666.79,-20435.467,-17678.59,-18754.639,-32976.48,-18883.504,7279.297
1318375.2409858562,-103501.63,-102657.84,-20430.867,-17678.305,-18749.879,-32975.344,-18883.504,7288.615
1318375.2449858505,-103494.8,-102653.445,-20429.89,-17678.387,-18748.088,-32974.773,-18882.691,7298.055
1318375.248985845,-103491.21,-102653.61,-20426.717,-17679.12,-18750.896,-32973.676,-18881.389,7304.769
1318375.2529858393,-103501.67,-102660.61,-20428.508,-17683.879,-18755.453,-32972.82,-18882.0,7303.3857
1318375.2569858336,-103509.16,-102663.984,-20430.664,-17688.232,-18757.895,-32973.836,-18882.488,7307.536
1318375.260985828,-103502.0,-102656.5,-20428.63,-17685.832,-18754.15,-32974.203,-18880.982,7311.8896
1318375.2649858224,-103492.11,-102650.35,-20426.637,-17682.252,-18749.188,-32972.656,-18878.744,7312.541
1318375.2689858167,-103490.97,-102651.9,-20429.037,-17684.652,-18747.803,-32973.55,-18876.912,7315.1855
1318375.272985811,-103506.15,-102660.08,-20436.28,-17690.227,-18758.992,-32974.246,-18875.041,7322.3066
1318375.2769858055,-103517.375,-102669.4,-20438.965,-17694.256,-18759.807,-32974.69,-18871.623,7328.3286
1318375.2809857999,-103509.65,-102663.414,-20435.426,-17692.709,-18755.453,-32973.51,-18869.588,7331.909
1318375.2849857942,-103497.27,-102655.97,-20430.543,-17691.0,-18752.768,-32972.535,-18869.955,7333.049
1318375.2889857886,-103494.59,-102657.96,-20432.21,-17694.295,-18756.227,-32974.855,-18871.014,7330.9326
1318375.292985783,-103502.28,-102665.57,-20436.605,-17698.527,-18758.912,-32978.516,-18871.135,7329.1016
1318375.2969857773,-103501.875,-102662.44,-20434.49,-17698.365,-18754.477,-32978.273,-18869.1,7332.5605
1318375.3009857717,-103494.63,-102655.195,-20430.014,-17696.574,-18752.28,-32977.133,-18868.855,7336.1816
1318375.304985766,-103488.85,-102650.03,-20429.402,-17695.557,-18754.803,-32975.79,-18866.13,7336.833
1318375.3089857604,-103488.164,-102656.01,-20427.49,-17697.795,-18759.521,-32976.2,-18863.201,7337.5654
1318375.3129857548,-103496.99,-102663.375,-20430.217,-17699.83,-18761.76,-32977.945,-18861.166,7340.495
1318375.3169857492,-103500.25,-102659.55,-20431.072,-17699.342,-18759.725,-32979.98,-18860.596,7344.2793
1318375.3209857435,-103494.43,-102655.27,-20429.566,-17697.55,-18755.941,-32980.836,-18861.572,7347.046
1318375.324985738,-103484.46,-102650.72,-20427.693,-17697.713,-18754.72,-32981.04,-18860.922,7348.1445
1318375.3289857323,-103482.71,-102652.1,-20427.938,-17697.877,-18753.621,-32981.773,-18859.334,7344.93
1318375.3329857267,-103497.27,-102659.1,-20431.723,-17700.848,-18758.83,-32981.85,-18858.521,7344.8896
1318375.336985721,-103506.43,-102662.16,-20432.129,-17701.172,-18760.254,-32981.65,-18858.928,7348.1445
1318375.3409857154,-103497.69,-102655.52,-20427.734,-17698.65,-18757.244,-32982.26,-18860.922,7348.47
1318375.3449857098,-103483.28,-102650.27,-20426.473,-17695.76,-18754.639,-32983.113,-18862.184,7344.7266
1318375.3489857041,-103485.6,-102652.19,-20432.576,-17697.918,-18754.273,-32983.684,-18862.713,7341.268
1318375.3529856985,-103502.0,-102664.47,-20439.576,-17701.945,-18759.848,-32986.41,-18865.602,7333.659
1318375.3569856929,-103509.16,-102666.836,-20437.5,-17701.986,-18761.883,-32988.65,-18868.45,7333.8623
1318375.3609856872,-103501.63,-102658.37,-20431.56,-17697.918,-18755.982,-32988.934,-18869.02,7335.8154
1318375.3649856816,-103491.414,-102653.0,-20427.857,-17695.312,-18752.361,-32991.17,-18872.234,7331.584
1318375.368985676,-103489.26,-102651.695,-20427.857,-17694.988,-18753.865,-32990.113,-18873.047,7328.7764
1318375.3729856703,-103498.5,-102657.72,-20431.885,-17698.283,-18759.93,-32989.586,-18872.559,7331.8687
1318375.3769856647,-103503.625,-102658.164,-20431.52,-17700.154,-18760.742,-32988.934,-18872.111,7334.5137
1318375.380985659,-103499.92,-102653.24,-20430.217,-17699.79,-18757.895,-32988.324,-18872.967,7335.1646
1318375.3849856535,-103492.39,-102648.69,-20430.543,-17697.795,-18757.121,-32984.418,-18870.525,7338.623
1318375.3889856478,-103491.17,-102650.19,-20428.955,-17698.568,-18760.865,-32981.445,-18866.21,7345.866
1318375.3929856422,-103500.53,-102657.23,-20429.566,-17700.807,-18764.607,-32978.07,-18863.81,7347.3716
1318375.3969856366,-103509.93,-102664.555,-20430.664,-17704.102,-18766.154,-32976.074,-18863.77,7348.0635
1318375.400985631,-103502.77,-102654.09,-20428.02,-17701.783,-18758.79,-32974.45,-18863.77,7350.83
1318375.4049856253,-103485.11,-102633.43,-20423.463,-17696.29,-18746.42,-32972.984,-18863.973,7350.383
1318375.4089856197,-103480.72,-102631.92,-20423.016,-17697.021,-18743.611,-32970.055,-18861.775,7350.9116
1318375.412985614,-103493.414,-102640.14,-20429.402,-17702.19,-18749.635,-32969.156,-18861.37,7350.0977
1318375.4169856084,-103505.21,-102645.23,-20431.479,-17704.916,-18752.686,-32967.977,-18862.957,7352.051
1318375.4209856025,-103500.33,-102641.97,-20426.596,-17702.107,-18751.18,-32966.39,-18862.793,7351.6035
1318375.424985597,-103488.04,-102636.4,-20421.143,-17699.098,-18750.367,-32965.457,-18860.84,7351.1963
1318375.4289855913,-103490.64,-102639.164,-20421.55,-17701.62,-18753.865,-32963.625,-18857.79,7352.3765
1318375.4329855856,-103503.09,-102643.11,-20427.693,-17704.754,-18756.756,-32962.77,-18854.533,7353.353
1318375.43698558,-103504.64,-102639.04,-20427.125,-17706.137,-18754.354,-32960.41,-18849.162,7362.427
1318375.4409855744,-103497.89,-102633.43,-20421.51,-17705.69,-18751.1,-32957.277,-18846.883,7368.0015
1318375.4449855688,-103488.28,-102630.29,-20417.889,-17704.713,-18751.873,-32957.97,-18851.562,7363.3223
1318375.4489855631,-103486.29,-102630.58,-20415.65,-17705.852,-18754.518,-32959.758,-18854.533,7360.759
1318375.4529855575,-103499.59,-102635.664,-20417.766,-17709.676,-18756.959,-32959.35,-18854.168,7362.386
1318375.4569855519,-103505.375,-102638.31,-20422.852,-17711.914,-18761.719,-32961.1,-18858.521,7363.8105
1318375.4609855462,-103495.94,-102631.15,-20421.51,-17709.676,-18759.277,-32961.02,-18863.607,7361.6133
1318375.4649855406,-103482.586,-102623.664,-20414.389,-17705.77,-18755.738,-32960.086,-18862.346,7363.078
1318375.468985535,-103476.24,-102622.69,-20411.459,-17706.502,-18759.115,-32957.074,-18857.342,7367.1064
1318375.4729855293,-103490.52,-102633.1,-20415.486,-17710.531,-18765.422,-32956.46,-18855.55,7366.9434
1318375.4769855237,-103499.72,-102635.7,-20416.342,-17711.71,-18767.537,-32958.17,-18857.422,7367.269
1318375.480985518,-103489.46,-102626.18,-20412.557,-17709.025,-18765.057,-32957.03,-18855.957,7370.158
1318375.4849855124,-103476.24,-102621.22,-20410.035,-17706.666,-18764.12,-32954.387,-18856.568,7369.1
1318375.4889855068,-103470.99,-102622.56,-20412.191,-17705.445,-18763.592,-32954.02,-18856.812,7367.0654
1318375.4929855012,-103479.21,-102626.305,-20413.127,-17708.66,-18769.49,-32953.043,-18855.062,7368.083
1318375.4969854956,-103486.734,-102627.24,-20412.883,-17710.084,-18772.258,-32949.06,-18853.395,7371.46
1318375.50098549,-103477.5,-102624.43,-20407.797,-17706.625,-18765.137,-32947.47,-18851.4,7373.535
1318375.5049854843,-103461.96,-102616.01,-20401.855,-17703.898,-18762.166,-32947.836,-18849.61,7375.5293
1318375.5089854787,-103463.51,-102618.29,-20401.652,-17704.225,-18768.678,-32947.145,-18847.656,7378.174
1318375.512985473,-103475.47,-102624.88,-20402.914,-17707.967,-18776.205,-32945.516,-18846.6,7377.8486
1318375.5169854674,-103481.2,-102625.77,-20404.338,-17708.172,-18775.799,-32943.402,-18844.28,7379.11
1318375.5209854618,-103473.72,-102618.9,-20400.838,-17705.69,-18769.572,-32939.617,-18841.105,7381.3477
1318375.5249854561,-103462.164,-102613.0,-20394.531,-17703.857,-18763.592,-32938.883,-18839.031,7378.8657
1318375.5289854505,-103462.57,-102615.28,-20395.346,-17704.184,-18764.486,-32938.395,-18836.264,7378.9062
1318375.5329854449,-103474.49,-102622.52,-20398.602,-17708.863,-18771.648,-32939.82,-18838.055,7374.471
1318375.5369854392,-103478.36,-102622.64,-20397.908,-17710.652,-18771.729,-32941.164,-18839.6,7372.762
1318375.5409854336,-103467.98,-102614.914,-20392.863,-17706.219,-18766.521,-32940.758,-18837.037,7375.6104
1318375.544985428,-103456.75,-102607.38,-20389.975,-17703.777,-18765.463,-32939.25,-18836.629,7376.343
1318375.5489854224,-103454.76,-102611.21,-20389.975,-17705.975,-18770.916,-32939.13,-18840.373,7369.344
1318375.5529854167,-103466.96,-102619.59,-20393.963,-17711.14,-18778.361,-32941.12,-18842.285,7364.5835
1318375.556985411,-103471.11,-102617.27,-20392.904,-17712.85,-18776.611,-32941.49,-18839.559,7369.751
1318375.5609854055,-103461.06,-102608.6,-20386.475,-17709.555,-18770.387,-32938.6,-18836.914,7373.535
1318375.5649853998,-103451.54,-102604.01,-20383.18,-17707.764,-18767.293,-32938.52,-18836.14,7375.244
1318375.5689853942,-103451.664,-102606.65,-20386.027,-17710.938,-18768.799,-32937.99,-18835.734,7371.0938
1318375.5729853886,-103463.83,-102611.66,-20389.893,-17715.21,-18775.879,-32937.582,-18832.967,7370.7275
1318375.576985383,-103474.33,-102615.32,-20391.602,-17717.285,-18778.768,-32937.258,-18832.805,7370.9717
1318375.5809853773,-103469.73,-102610.92,-20389.363,-17715.17,-18776.57,-32936.973,-18835.938,7370.931
1318375.5849853717,-103460.984,-102607.71,-20388.307,-17714.438,-18775.514,-32938.355,-18837.443,7370.6465
1318375.588985366,-103459.92,-102610.92,-20390.707,-17716.879,-18778.117,-32939.09,-18837.932,7367.4727
1318375.5929853604,-103470.95,-102617.68,-20396.852,-17721.844,-18784.139,-32942.18,-18839.314,7363.6475
1318375.5969853548,-103477.5,-102621.95,-20396.363,-17722.82,-18787.15,-32939.293,-18836.385,7368.205
1318375.6009853492,-103468.59,-102614.51,-20392.701,-17721.436,-18785.4,-32936.523,-18833.578,7372.3555
1318375.6049853435,-103458.58,-102605.19,-20389.893,-17719.076,-18781.617,-32935.14,-18830.69,7376.506
1318375.608985338,-103454.59,-102606.98,-20389.12,-17719.97,-18781.576,-32934.53,-18826.863,7378.703
1318375.6129853323,-103462.69,-102608.32,-20392.498,-17722.332,-18786.336,-32936.89,-18826.13,7375.8955
1318375.6169853266,-103466.88,-102604.336,-20392.13,-17722.332,-18786.459,-32937.906,-18827.596,7371.623
1318375.620985321,-103459.555,-102596.68,-20388.957,-17719.768,-18782.146,-32938.316,-18828.857,7371.501
1318375.6249853154,-103451.09,-102590.91,-20384.48,-17717.408,-18776.205,-32937.746,-18827.107,7375.7734
1318375.6289853097,-103454.67,-102597.984,-20385.783,-17721.436,-18782.594,-32938.152,-18824.79,7376.9126
1318375.632985304,-103470.26,-102606.086,-20389.08,-17726.604,-18791.26,-32938.68,-18825.398,7373.6167
1318375.6369852985,-103477.87,-102608.52,-20392.537,-17728.354,-18789.348,-32939.78,-18825.766,7373.861
1318375.6409852928,-103466.96,-102600.95,-20392.945,-17724.121,-18783.123,-32940.105,-18826.824,7376.628
1318375.6449852872,-103450.12,-102589.89,-20390.504,-17720.174,-18776.814,-32939.984,-18829.834,7375.6104
1318375.6489852814,-103447.63,-102590.62,-20389.04,-17721.314,-18780.926,-32941.12,-18831.746,7372.0703
1318375.6529852757,-103461.19,-102597.01,-20393.066,-17725.18,-18786.053,-32941.895,-18830.242,7372.5586
1318375.65698527,-103469.61,-102600.47,-20395.387,-17727.498,-18788.574,-32942.26,-18828.777,7378.093
1318375.6609852645,-103464.27,-102596.6,-20392.62,-17724.162,-18783.936,-32940.145,-18825.562,7384.6846
1318375.6649852588,-103450.766,-102589.93,-20388.672,-17721.355,-18778.117,-32938.56,-18823.812,7386.1494
1318375.6689852532,-103448.98,-102590.984,-20392.09,-17722.494,-18778.484,-32939.09,-18825.928,7378.6216
1318375.6729852476,-103462.89,-102601.65,-20396.932,-17726.727,-18785.848,-32942.63,-18830.934,7373.088
1318375.676985242,-103467.33,-102604.336,-20394.043,-17727.986,-18787.8,-32943.32,-18832.113,7373.861
1318375.6809852363,-103460.21,-102596.6,-20388.998,-17725.383,-18786.336,-32941.45,-18831.137,7377.5635
1318375.6849852307,-103451.99,-102592.695,-20386.842,-17724.406,-18784.22,-32940.39,-18829.834,7378.784
1318375.688985225,-103452.97,-102595.18,-20385.58,-17725.3,-18784.465,-32939.902,-18826.58,7376.3022
1318375.6929852194,-103468.23,-102604.945,-20389.648,-17728.475,-18791.098,-32938.965,-18822.062,7378.296
1318375.6969852138,-103474.98,-102605.836,-20393.555,-17730.062,-18795.898,-32938.723,-18820.15,7380.046
1318375.7009852082,-103466.88,-102600.016,-20390.625,-17726.93,-18786.58,-32938.152,-18820.436,7379.802
1318375.7049852025,-103454.72,-102594.69,-20388.916,-17726.197,-18786.459,-32938.19,-18820.68,7376.384
1318375.708985197,-103458.13,-102599.41,-20393.596,-17731.365,-18792.848,-32939.58,-18820.191,7374.3896
1318375.7129851913,-103471.32,-102603.16,-20398.072,-17736.736,-18797.648,-32938.926,-18818.523,7375.57
1318375.7169851856,-103474.98,-102603.07,-20397.908,-17737.63,-18799.805,-32937.582,-18816.285,7379.598
1318375.72098518,-103465.01,-102595.13,-20392.09,-17732.707,-18790.406,-32936.44,-18816.773,7384.074
1318375.7249851744,-103456.625,-102586.96,-20389.486,-17729.127,-18785.768,-32936.727,-18819.621,7383.1787
1318375.7289851687,-103456.71,-102584.555,-20392.578,-17730.957,-18788.494,-32938.6,-18821.656,7381.958
1318375.732985163,-103468.18,-102594.04,-20399.414,-17734.457,-18793.295,-32939.617,-18824.016,7379.7607
1318375.7369851575,-103474.086,-102599.04,-20402.873,-17737.672,-18794.922,-32938.805,-18824.666,7378.8657
1318375.7409851518,-103465.82,-102599.164,-20398.723,-17736.654,-18794.312,-32938.395,-18824.586,7379.3135
1318375.7449851462,-103455.85,-102594.85,-20397.176,-17735.19,-18791.871,-32939.09,-18824.504,7380.3306
1318375.7489851406,-103458.625,-102597.54,-20399.09,-17735.88,-18791.951,-32938.355,-18821.492,7384.6846
1318375.752985135,-103465.82,-102602.7,-20400.758,-17739.217,-18797.04,-32939.656,-18821.29,7384.847
1318375.7569851293,-103456.875,-102597.984,-20398.479,-17737.793,-18797.16,-32941.53,-18824.707,7382.365
1318375.7609851237,-103449.38,-102593.34,-20392.049,-17735.475,-18796.469,-32942.18,-18824.422,7380.941
1318375.764985118,-103437.91,-102588.46,-20389.16,-17735.23,-18797.81,-32941.855,-18826.254,7377.5635
1318375.7689851124,-103442.63,-102593.836,-20392.334,-17740.316,-18801.922,-32940.918,-18826.54,7373.413
1318375.7729851068,-103459.76,-102601.766,-20398.64,-17746.42,-18807.537,-32939.496,-18822.795,7375.407
1318375.7769851012,-103461.71,-102600.47,-20397.176,-17746.338,-18805.787,-32939.94,-18819.174,7381.633
1318375.7809850955,-103452.195,-102592.0,-20391.602,-17741.863,-18798.504,-32940.758,-18818.686,7387.126
1318375.78498509,-103441.49,-102587.12,-20388.062,-17739.543,-18795.777,-32941.246,-18819.621,7387.6953
1318375.7889850843,-103446.13,-102588.99,-20392.537,-17742.066,-18795.045,-32940.145,-18818.604,7386.434
1318375.7929850786,-103463.34,-102597.17,-20398.723,-17745.24,-18799.398,-32941.406,-18821.248,7378.988
1318375.796985073,-103473.8,-102604.66,-20399.537,-17748.17,-18800.904,-32943.973,-18826.54,7374.0234
1318375.8009850674,-103461.71,-102598.11,-20393.31,-17746.826,-18800.213,-32942.71,-18825.807,7377.279
1318375.8049850618,-103449.1,-102591.23,-20389.527,-17743.246,-18798.38,-32940.145,-18824.748,7378.703
1318375.8089850561,-103450.52,-102594.65,-20394.979,-17745.809,-18800.822,-32939.902,-18828.29,7371.2974
1318375.8129850505,-103467.45,-102604.58,-20405.232,-17750.773,-18806.316,-32940.555,-18829.713,7368.1235
1318375.8169850449,-103474.41,-102603.48,-20406.129,-17749.309,-18805.908,-32940.348,-18828.37,7372.8843
1318375.8209850392,-103464.234,-102596.195,-20397.055,-17744.832,-18801.352,-32939.13,-18825.848,7379.11
1318375.8249850336,-103450.69,-102590.82,-20388.062,-17741.658,-18801.27,-32937.297,-18822.55,7383.342
1318375.828985028,-103450.81,-102593.63,-20389.771,-17741.455,-18801.84,-32938.355,-18824.016,7381.755
1318375.8329850223,-103466.02,-102602.336,-20394.613,-17746.217,-18806.396,-32942.668,-18827.393,7378.093
1318375.8369850167,-103469.77,-102604.21,-20392.945,-17745.729,-18804.81,-32941.773,-18825.115,7382.8535
1318375.840985011,-103456.99,-102593.266,-20390.666,-17742.514,-18799.643,-32940.555,-18821.615,7389.486
1318375.8449850054,-103443.28,-102586.1,-20387.451,-17739.055,-18797.852,-32939.37,-18820.15,7390.747
1318375.8489849998,-103444.7,-102591.23,-20391.846,-17740.967,-18800.334,-32941.855,-18825.115,7384.1553
1318375.8529849942,-103461.06,-102602.945,-20399.861,-17746.258,-18806.805,-32944.215,-18828.084,7378.988
1318375.8569849886,-103466.48,-102601.81,-20398.234,-17747.234,-18812.094,-32945.926,-18828.29,7380.941
1318375.860984983,-103455.9,-102597.336,-20390.992,-17743.408,-18804.973,-32944.582,-18827.88,7384.8066
1318375.8649849773,-103445.516,-102592.53,-20387.41,-17741.09,-18799.031,-32942.668,-18825.115,7388.2246
1318375.8689849717,-103451.17,-102594.16,-20391.44,-17743.367,-18800.822,-32943.688,-18825.44,7385.7017
1318375.872984966,-103466.64,-102599.45,-20400.473,-17745.605,-18806.152,-32944.176,-18827.922,7380.3306
1318375.8769849602,-103474.086,-102600.14,-20402.71,-17747.273,-18805.867,-32940.88,-18827.068,7382.324
1318375.8809849545,-103461.305,-102592.66,-20397.096,-17746.705,-18803.426,-32939.535,-18825.033,7387.004
1318375.884984949,-103451.5,-102589.12,-20393.963,-17744.385,-18804.078,-32939.09,-18824.504,7384.6846
1318375.8889849433,-103456.914,-102594.484,-20396.525,-17745.037,-18804.77,-32939.94,-18824.016,7381.999
1318375.8929849376,-103467.125,-102598.43,-20399.74,-17747.193,-18807.332,-32943.44,-18826.092,7377.889
1318375.896984932,-103470.586,-102599.98,-20400.676,-17746.053,-18806.193,-32944.906,-18827.76,7376.709
1318375.9009849264,-103461.51,-102594.445,-20401.043,-17743.734,-18802.328,-32944.418,-18828.166,7378.174
1318375.9049849208,-103447.35,-102585.695,-20399.129,-17741.049,-18796.672,-32943.36,-18829.793,7376.506
1318375.9089849151,-103450.08,-102588.18,-20400.96,-17743.45,-18798.748,-32942.426,-18828.125,7376.831
1318375.9129849095,-103460.125,-102591.64,-20403.932,-17745.85,-18802.531,-32942.344,-18825.36,7378.8657
1318375.9169849039,-103461.19,-102589.195,-20403.117,-17745.77,-18800.252,-32942.18,-18824.666,7382.202
1318375.9209848982,-103449.38,-102581.46,-20397.87,-17741.049,-18795.004,-32943.156,-18823.324,7385.01
1318375.9249848926,-103438.56,-102574.47,-20394.979,-17739.096,-18793.213,-32944.5,-18821.004,7388.9976
1318375.928984887,-103437.664,-102573.53,-20393.434,-17738.648,-18793.336,-32943.2,-18816.732,7390.991
1318375.9329848813,-103452.64,-102581.46,-20396.893,-17741.375,-18797.81,-32942.75,-18817.018,7390.1777
1318375.9369848757,-103465.17,-102586.96,-20398.316,-17744.385,-18802.938,-32944.62,-18820.191,7389.1196
1318375.94098487,-103459.92,-102584.31,-20392.375,-17741.293,-18804.688,-32944.01,-18821.168,7387.37
1318375.9449848644,-103454.1,-102581.875,-20392.213,-17741.62,-18804.443,-32941.938,-18818.318,7391.805
1318375.9489848588,-103454.875,-102583.375,-20394.94,-17744.385,-18804.158,-32942.508,-18817.791,7393.2295
1318375.9529848532,-103467.37,-102590.62,-20399.943,-17747.803,-18805.46,-32943.848,-18817.83,7392.497
1318375.9569848476,-103473.39,-102592.49,-20401.043,-17748.047,-18803.346,-32944.297,-18820.598,7393.84
1318375.960984842,-103460.94,-102579.67,-20397.096,-17743.246,-18795.736,-32945.027,-18824.219,7390.625
1318375.9649848363,-103447.92,-102567.43,-20393.434,-17740.357,-18792.889,-32945.11,-18824.951,7386.0273
1318375.9689848307,-103449.38,-102573.53,-20394.328,-17742.107,-18792.277,-32945.516,-18823.324,7385.539
1318375.972984825,-103461.59,-102581.55,-20397.99,-17744.873,-18797.283,-32945.965,-18821.656,7387.329
1318375.9769848194,-103469.12,-102582.56,-20399.537,-17745.729,-18796.998,-32945.395,-18820.271,7391.7236
1318375.9809848138,-103461.71,-102577.766,-20397.828,-17741.658,-18791.463,-32943.848,-18819.174,7394.5312
1318375.9849848081,-103451.625,-102570.64,-20395.63,-17738.648,-18787.68,-32942.75,-18816.406,7395.874
1318375.9889848025,-103450.766,-102572.11,-20394.654,-17738.607,-18792.156,-32943.93,-18813.436,7398.275
1318375.9929847969,-103456.46,-102576.26,-20396.484,-17740.887,-18796.062,-32945.438,-18813.03,7396.4844
1318375.9969847912,-103460.53,-102577.84,-20396.404,-17742.758,-18797.69,-32946.25,-18813.355,7396.2812
1318376.0009847856,-103458.09,-102576.87,-20396.363,-17741.375,-18796.266,-32945.598,-18812.947,7399.292
1318376.00498478,-103449.55,-102573.98,-20395.672,-17740.682,-18796.713,-32945.152,-18814.576,7398.2344
1318376.0089847744,-103450.484,-102577.92,-20395.916,-17743.043,-18801.637,-32945.273,-18812.947,7398.641
1318376.0129847687,-103460.33,-102584.35,-20398.479,-17746.297,-18806.764,-32944.582,-18811.158,7402.995
1318376.016984763,-103464.69,-102584.88,-20400.676,-17747.762,-18808.758,-32943.89,-18809.734,7410.726
1318376.0209847575,-103453.66,-102577.11,-20396.363,-17746.785,-18804.2,-32941.49,-18805.176,7421.0615
1318376.0249847518,-103439.17,-102566.734,-20392.01,-17744.223,-18798.463,-32939.332,-18802.246,7424.968
1318376.0289847462,-103438.805,-102567.914,-20395.752,-17746.135,-18801.352,-32941.652,-18803.06,7419.5967
1318376.0329847406,-103455.484,-102579.555,-20403.768,-17750.53,-18805.787,-32943.277,-18806.844,7411.8247
1318376.036984735,-103458.664,-102578.74,-20407.146,-17751.629,-18804.77,-32944.5,-18810.955,7406.413
1318376.0409847293,-103442.836,-102567.18,-20399.74,-17745.688,-18798.87,-32943.562,-18811.85,7405.5586
1318376.0449847237,-103435.02,-102562.38,-20394.898,-17740.805,-18793.457,-32945.152,-18813.518,7402.995
1318376.048984718,-103442.51,-102566.81,-20398.193,-17742.96,-18793.904,-32946.695,-18812.053,7400.798
1318376.0529847124,-103452.64,-102573.94,-20404.908,-17748.373,-18799.275,-32944.418,-18809.326,7400.8384
1318376.0569847068,-103456.99,-102574.55,-20404.217,-17748.25,-18798.625,-32943.93,-18807.984,7404.216
1318376.0609847012,-103450.08,-102570.36,-20399.049,-17743.775,-18794.23,-32945.273,-18809.002,7407.3486
1318376.0649846955,-103442.14,-102569.87,-20397.299,-17741.17,-18795.654,-32944.582,-18811.32,7408.773
1318376.06898469,-103450.36,-102576.664,-20402.629,-17743.938,-18797.201,-32946.168,-18812.826,7405.0293
1318376.0729846843,-103468.305,-102582.56,-20408.611,-17749.227,-18802.41,-32947.88,-18811.932,7403.7275
1318376.0769846786,-103474.86,-102585.01,-20408.447,-17751.1,-18802.857,-32946.86,-18812.664,7405.9653
1318376.080984673,-103466.88,-102583.21,-20406.129,-17748.414,-18793.865,-32945.598,-18812.826,7406.9824
1318376.0849846674,-103454.35,-102577.555,-20404.908,-17747.438,-18796.143,-32945.19,-18813.436,7407.6743
1318376.0889846617,-103458.46,-102584.6,-20410.115,-17751.953,-18803.143,-32945.516,-18814.738,7404.2563
1318376.092984656,-103474.57,-102593.14,-20415.203,-17757.203,-18809.041,-32945.438,-18812.5,7402.873
1318376.0969846505,-103476.56,-102593.06,-20411.621,-17757.203,-18808.064,-32944.418,-18811.035,7407.1045
1318376.1009846448,-103465.05,-102587.484,-20405.314,-17754.518,-18803.834,-32945.23,-18813.03,7408.8545
1318376.104984639,-103454.15,-102583.414,-20403.2,-17751.668,-18804.037,-32948.082,-18815.959,7404.8667
1318376.1089846333,-103453.62,-102583.54,-20403.646,-17751.547,-18804.89,-32949.79,-18816.61,7400.92
1318376.1129846277,-103463.51,-102589.07,-20408.082,-17754.232,-18807.861,-32952.434,-18819.012,7398.8037
1318376.116984622,-103465.25,-102587.24,-20409.018,-17754.436,-18808.309,-32951.418,-18817.953,7401.7744
1318376.1209846165,-103453.58,-102575.56,-20404.42,-17749.797,-18802.531,-32949.42,-18816.203,7406.3315
1318376.1249846108,-103439.3,-102567.23,-20399.008,-17746.746,-18796.143,-32948.57,-18813.559,7406.616
1318376.1289846052,-103440.02,-102569.26,-20398.234,-17747.559,-18795.533,-32948.855,-18812.623,7404.8667
1318376.1329845996,-103456.875,-102579.266,-20402.508,-17751.873,-18800.416,-32949.098,-18810.994,7406.25
1318376.136984594,-103464.805,-102582.56,-20404.012,-17753.906,-18803.752,-32949.3,-18811.89,7409.139
1318376.1409845883,-103454.43,-102576.46,-20401.652,-17751.424,-18801.27,-32949.504,-18813.152,7408.5693
1318376.1449845827,-103442.836,-102571.49,-20400.229,-17749.023,-18797.73,-32950.24,-18814.576,7405.925
1318376.148984577,-103444.87,-102573.734,-20406.291,-17749.35,-18800.537,-32950.113,-18814.129,7402.832
1318376.1529845714,-103461.19,-102581.67,-20412.312,-17752.645,-18806.152,-32951.62,-18814.006,7402.507
1318376.1569845658,-103465.46,-102583.26,-20410.115,-17751.709,-18807.658,-32952.273,-18813.436,7406.6978
1318376.1609845601,-103454.96,-102577.27,-20405.03,-17748.535,-18803.793,-32952.066,-18812.703,7411.2144
1318376.1649845545,-103445.84,-102570.88,-20400.676,-17745.77,-18800.496,-32951.09,-18812.623,7411.8247
1318376.168984549,-103449.016,-102573.81,-20399.617,-17748.373,-18804.363,-32953.004,-18813.72,7410.482
1318376.1729845433,-103463.46,-102581.26,-20407.064,-17752.361,-18809.57,-32954.55,-18814.494,7409.3833
1318376.1769845376,-103468.23,-102579.92,-20406.535,-17751.22,-18810.059,-32954.996,-18812.297,7412.842
1318376.180984532,-103459.92,-102575.16,-20402.182,-17749.838,-18807.537,-32955.203,-18812.826,7413.4116
1318376.1849845264,-103446.695,-102570.4,-20398.56,-17747.273,-18805.096,-32954.266,-18813.477,7415.4053
1318376.1889845207,-103449.34,-102574.47,-20400.432,-17748.617,-18807.617,-32955.65,-18816.326,7409.79
1318376.192984515,-103460.125,-102580.61,-20405.07,-17752.156,-18814.82,-32958.17,-18818.441,7401.9775
1318376.1969845095,-103459.15,-102577.766,-20401.205,-17752.035,-18819.54,-32957.316,-18818.115,7406.047
1318376.2009845038,-103447.31,-102570.56,-20397.38,-17748.455,-18817.506,-32954.836,-18817.547,7409.5054
1318376.2049844982,-103436.93,-102564.13,-20392.986,-17745.525,-18813.72,-32952.434,-18817.383,7405.6396
1318376.2089844926,-103441.45,-102568.65,-20393.637,-17748.658,-18818.238,-32951.336,-18816.285,7403.524
1318376.212984487,-103456.38,-102576.945,-20398.602,-17754.559,-18826.172,-32952.637,-18814.9,7403.524
1318376.2169844813,-103459.516,-102573.24,-20398.031,-17755.453,-18825.195,-32953.25,-18813.03,7411.3364
1318376.2209844757,-103449.18,-102566.53,-20394.166,-17752.076,-18816.041,-32951.54,-18812.826,7415.8936
1318376.22498447,-103438.27,-102561.12,-20390.422,-17751.22,-18817.424,-32949.625,-18809.205,7418.9453
1318376.2289844644,-103441.66,-102563.36,-20394.166,-17753.865,-18819.54,-32948.285,-18804.2,7421.4277
1318376.2329844588,-103456.51,-102572.76,-20400.27,-17756.836,-18823.812,-32946.453,-18800.904,7423.055
1318376.2369844532,-103457.69,-102573.53,-20397.705,-17755.209,-18823.61,-32944.95,-18799.236,7425.863
1318376.2409844475,-103449.95,-102568.41,-20391.277,-17753.418,-18822.51,-32944.99,-18800.62,7427.49
1318376.244984442,-103444.87,-102565.39,-20388.754,-17752.361,-18821.045,-32945.11,-18801.96,7426.1475
1318376.2489844363,-103445.88,-102568.85,-20392.13,-17753.582,-18825.318,-32945.926,-18804.566,7421.631
1318376.2529844306,-103453.21,-102572.19,-20394.857,-17755.982,-18830.201,-32946.98,-18804.525,7420.166
1318376.256984425,-103454.305,-102568.12,-20392.334,-17754.07,-18827.352,-32946.168,-18802.938,7424.5605
1318376.2609844194,-103444.586,-102560.39,-20388.428,-17751.994,-18822.918,-32944.99,-18803.793,7425.9033
1318376.2649844137,-103433.59,-102554.2,-20385.824,-17748.78,-18817.83,-32943.727,-18803.508,7422.3228
1318376.2689844081,-103436.57,-102558.35,-20389.16,-17751.303,-18819.54,-32944.742,-18802.41,7420.7764
1318376.2729844025,-103449.914,-102565.31,-20392.213,-17753.947,-18824.545,-32944.742,-18801.229,7422.567
1318376.2769843969,-103450.56,-102564.21,-20392.416,-17752.117,-18825.725,-32945.64,-18804.281,7423.34
1318376.2809843912,-103437.99,-102556.97,-20390.666,-17749.268,-18823.65,-32947.348,-18806.805,7426.88
1318376.2849843856,-103424.445,-102551.64,-20387.41,-17746.053,-18821.086,-32946.414,-18804.281,7430.583
1318376.28898438,-103424.12,-102551.03,-20387.248,-17747.07,-18825.848,-32946.535,-18799.969,7431.2744
1318376.2929843743,-103441.61,-102562.7,-20390.91,-17752.238,-18830.037,-32947.594,-18800.13,7426.1885
1318376.2969843687,-103450.766,-102570.97,-20392.781,-17753.662,-18829.428,-32947.754,-18800.293,7426.1885
1318376.300984363,-103439.74,-102563.32,-20387.94,-17749.594,-18824.627,-32946.25,-18800.293,7429.3623
1318376.3049843574,-103427.984,-102556.12,-20383.465,-17747.03,-18820.924,-32946.82,-18799.928,7429.9727
1318376.3089843518,-103431.07,-102562.09,-20384.48,-17749.023,-18826.863,-32945.883,-18798.504,7428.2227
1318376.3129843462,-103441.086,-102570.234,-20386.842,-17752.441,-18835.734,-32948.445,-18801.434,7423.625
1318376.3169843405,-103443.69,-102566.81,-20387.736,-17751.18,-18836.264,-32950.93,-18805.135,7424.3164
1318376.320984335,-103431.69,-102556.32,-20384.277,-17744.873,-18828.29,-32950.4,-18806.56,7425.212
1318376.3249843293,-103421.02,-102548.79,-20383.383,-17742.066,-18824.992,-32951.297,-18808.635,7423.95
1318376.3289843237,-103424.36,-102550.91,-20385.377,-17745.809,-18822.674,-32952.76,-18809.285,7424.886
1318376.3329843178,-103438.6,-102557.17,-20387.94,-17748.088,-18825.969,-32953.37,-18807.049,7428.2637
1318376.3369843122,-103442.06,-102557.05,-20387.248,-17746.867,-18829.102,-32955.203,-18805.99,7432.821
1318376.3409843065,-103425.09,-102547.81,-20379.03,-17742.635,-18819.824,-32955.363,-18807.008,7435.71
1318376.344984301,-103415.98,-102543.7,-20377.32,-17741.74,-18815.715,-32954.67,-18808.35,7434.53
1318376.3489842953,-103421.43,-102545.62,-20380.006,-17744.832,-18820.354,-32953.74,-18806.234,7433.879
1318376.3529842896,-103434.21,-102553.914,-20384.889,-17750.285,-18824.83,-32953.613,-18804.688,7431.8037
1318376.356984284,-103440.23,-102554.77,-20388.469,-17750.53,-18822.469,-32953.29,-18802.654,7434.326
1318376.3609842784,-103425.5,-102544.88,-20384.074,-17744.996,-18818.727,-32951.375,-18801.31,7438.314
1318376.3649842727,-103414.96,-102538.58,-20382.447,-17742.473,-18814.9,-32950.48,-18800.537,7433.96
1318376.368984267,-103420.58,-102545.05,-20386.557,-17747.762,-18818.318,-32948.04,-18797.16,7433.5938
1318376.3729842615,-103437.87,-102555.016,-20392.537,-17753.865,-18825.928,-32948.49,-18797.04,7432.9023
1318376.3769842559,-103445.84,-102559.33,-20394.328,-17751.75,-18824.91,-32950.562,-18798.26,7436.6455
1318376.3809842502,-103439.09,-102554.484,-20392.416,-17748.006,-18817.912,-32948.977,-18798.299,7436.3203
1318376.3849842446,-103427.78,-102547.65,-20389.648,-17747.64,-18816.082,-32947.797,-18798.055,7434.9365
1318376.388984239,-103430.51,-102548.914,-20390.828,-17751.912,-18825.398,-32947.633,-18797.242,7435.2217
1318376.3929842333,-103444.055,-102559.45,-20395.264,-17755.9,-18826.54,-32946.94,-18796.021,7435.6284
1318376.3969842277,-103440.31,-102557.13,-20389.934,-17752.4,-18825.033,-32947.43,-18795.045,7439.2905
1318376.400984222,-103426.48,-102548.55,-20382.65,-17747.967,-18819.5,-32947.39,-18793.742,7443.8887
1318376.4049842164,-103419.234,-102544.03,-20380.615,-17746.217,-18815.023,-32946.25,-18793.377,7443.685
1318376.4089842108,-103426.6,-102552.05,-20384.277,-17748.738,-18821.045,-32946.332,-18793.01,7441.2437
1318376.4129842052,-103442.95,-102562.055,-20391.48,-17754.314,-18828.29,-32946.656,-18793.172,7439.616
1318376.4169841995,-103448.04,-102562.18,-20393.514,-17755.78,-18826.783,-32945.395,-18791.18,7443.9697
1318376.420984194,-103432.58,-102552.53,-20389.568,-17753.215,-18822.062,-32944.703,-18788.494,7450.155
1318376.4249841883,-103423.83,-102546.35,-20386.354,-17750.203,-18818.848,-32944.38,-18786.377,7456.014
1318376.4289841827,-103433.15,-102546.836,-20389.893,-17752.605,-18823.08,-32945.027,-18784.912,7456.136
1318376.432984177,-103442.23,-102552.33,-20392.537,-17756.186,-18827.963,-32944.62,-18783.732,7455.648
1318376.4369841714,-103443.93,-102549.03,-20390.34,-17755.006,-18826.01,-32942.18,-18783.203,7455.9736
1318376.4409841658,-103433.11,-102540.86,-20386.8,-17751.547,-18822.469,-32942.223,-18785.97,7453.695
1318376.4449841601,-103421.59,-102537.44,-20384.48,-17749.268,-18820.76,-32941.45,-18788.615,7449.585
1318376.4489841545,-103428.266,-102545.45,-20387.371,-17751.709,-18828.166,-32940.836,-18788.9,7443.6035
1318376.4529841489,-103445.234,-102559.98,-20393.148,-17756.55,-18835.287,-32940.348,-18787.68,7442.912
1318376.4569841432,-103446.74,-102557.54,-20395.346,-17755.738,-18830.078,-32940.555,-18787.03,7447.673
1318376.4609841376,-103435.51,-102541.75,-20394.775,-17752.238,-18818.97,-32940.145,-18788.9,7448.7305
1318376.464984132,-103427.086,-102539.76,-20393.84,-17751.424,-18819.824,-32939.617,-18790.324,7445.5977
1318376.4689841263,-103429.41,-102543.586,-20395.428,-17753.133,-18825.36,-32940.227,-18789.918,7443.8477
1318376.4729841207,-103440.96,-102549.08,-20398.602,-17756.186,-18831.258,-32942.06,-18789.754,7444.9463
1318376.476984115,-103444.3,-102552.086,-20399.17,-17756.592,-18832.072,-32944.38,-18791.383,7445.3125
1318376.4809841095,-103438.16,-102548.22,-20395.59,-17754.03,-18827.8,-32946.207,-18794.068,7442.3423
1318376.4849841038,-103425.83,-102544.72,-20393.514,-17752.441,-18825.398,-32947.348,-18797.078,7440.7554
1318376.4889840982,-103424.32,-102549.08,-20393.84,-17753.541,-18831.543,-32949.06,-18798.992,7438.4766
1318376.4929840926,-103439.414,-102554.484,-20397.828,-17755.615,-18835.816,-32950.4,-18797.283,7438.8022
1318376.496984087,-103443.89,-102548.47,-20395.387,-17754.15,-18833.66,-32948.977,-18792.48,7445.7197
1318376.5009840813,-103435.875,-102541.914,-20392.578,-17750.855,-18823.812,-32947.51,-18788.209,7452.5146
1318376.5049840757,-103429.94,-102540.24,-20393.434,-17749.553,-18816.691,-32947.957,-18787.965,7454.6714
1318376.50898407,-103433.8,-102543.42,-20396.973,-17751.629,-18821.004,-32948.0,-18788.086,7453.125
1318376.5129840644,-103449.18,-102551.48,-20403.28,-17757.04,-18828.248,-32949.06,-18790.771,7449.178
1318376.5169840588,-103448.65,-102549.4,-20399.984,-17755.9,-18826.13,-32949.016,-18790.73,7453.369
1318376.5209840531,-103432.3,-102540.125,-20394.94,-17751.75,-18821.371,-32949.3,-18788.33,7458.13
1318376.5249840475,-103420.54,-102535.98,-20391.277,-17748.943,-18818.115,-32948.16,-18785.604,7459.4727
1318376.528984042,-103424.97,-102541.71,-20391.521,-17751.1,-18824.3,-32950.074,-18783.773,7459.2695
1318376.5329840363,-103441.164,-102546.76,-20396.566,-17754.965,-18828.125,-32952.8,-18783.447,7461.589
1318376.5369840306,-103440.88,-102540.49,-20394.531,-17752.035,-18821.697,-32950.97,-18782.43,7468.0176
1318376.540984025,-103429.0,-102529.55,-20389.975,-17747.273,-18816.406,-32946.86,-18779.744,7472.087
1318376.5449840194,-103418.22,-102526.45,-20387.654,-17746.094,-18817.303,-32946.168,-18781.332,7467.8145
1318376.5489840137,-103421.67,-102533.57,-20393.148,-17750.652,-18823.324,-32947.348,-18784.22,7461.711
