timestamp,Fp1,Fp2,F3,Fz,F4,Cz,Pz,Oz
1318341.9410327664,-102064.09,-102996.18,-19363.77,-16338.99,-16580.201,-32071.615,-18879.03,5509.8877
1318341.9450327607,-102053.914,-102992.35,-19361.166,-16335.938,-16577.719,-32069.785,-18875.164,5517.212
1318341.949032755,-102051.44,-102987.836,-19366.414,-16336.305,-16575.766,-32069.865,-18871.908,5523.397
1318341.9530327495,-102059.57,-102988.37,-19373.738,-16339.356,-16573.527,-32068.93,-18872.193,5522.9087
1318341.9570327438,-102064.91,-102988.65,-19373.617,-16341.513,-16571.615,-32068.768,-18871.867,5527.507
1318341.9610327382,-102060.23,-102982.06,-19368.49,-16340.089,-16571.818,-32070.354,-18872.234,5532.064
1318341.9650327326,-102047.28,-102977.38,-19362.264,-16335.368,-16570.477,-32070.559,-18872.438,5535.1973
1318341.969032727,-102037.64,-102973.06,-19357.992,-16333.049,-16569.783,-32071.086,-18872.762,5535.4414
1318341.9730327213,-102042.08,-102973.96,-19361.736,-16335.084,-16569.744,-32071.086,-18872.518,5534.424
1318341.9770327157,-102055.75,-102980.516,-19366.7,-16338.176,-16572.021,-32071.738,-18873.373,5535.1157
1318341.98103271,-102053.06,-102976.97,-19364.666,-16335.734,-16571.9,-32072.023,-18870.809,5536.3364
1318341.9850327044,-102039.02,-102968.39,-19358.766,-16332.887,-16571.86,-32072.307,-18869.223,5535.6445
1318341.9890326988,-102037.195,-102969.98,-19357.178,-16334.433,-16570.76,-32074.057,-18868.816,5535.9297
1318341.9930326932,-102050.21,-102983.16,-19361.451,-16339.804,-16577.393,-32074.3,-18867.432,5536.0107
1318341.9970326875,-102060.914,-102989.79,-19363.037,-16341.594,-16580.037,-32073.732,-18866.943,5536.418
1318342.001032682,-102054.33,-102975.95,-19360.84,-16338.258,-16569.377,-32072.674,-18867.066,5535.726
1318342.0050326763,-102041.38,-102966.64,-19361.004,-16334.677,-16564.617,-32072.227,-18868.734,5529.704
1318342.0090326706,-102032.555,-102968.18,-19356.16,-16333.985,-16566.936,-32071.86,-18871.053,5522.99
1318342.013032665,-102046.35,-102979.49,-19360.107,-16337.851,-16572.266,-32073.203,-18868.164,5522.1357
1318342.0170326594,-102058.8,-102985.31,-19364.746,-16340.129,-16575.074,-32073.365,-18863.484,5523.4785
1318342.0210326537,-102058.72,-102980.39,-19364.95,-16338.746,-16575.48,-32073.08,-18864.828,5520.345
1318342.0250326481,-102052.78,-102975.266,-19363.729,-16336.101,-16570.354,-32070.72,-18865.643,5516.8867
1318342.0290326425,-102052.695,-102975.23,-19365.193,-16337.321,-16570.516,-32071.371,-18866.414,5515.625
1318342.0330326369,-102065.39,-102981.53,-19367.635,-16340.129,-16572.55,-32074.912,-18868.408,5511.556
1318342.0370326312,-102073.734,-102986.62,-19367.229,-16340.089,-16572.51,-32075.156,-18869.71,5515.9507
1318342.0410326256,-102071.66,-102987.02,-19366.74,-16335.409,-16572.43,-32075.033,-18870.973,5519.5723
1318342.04503262,-102063.44,-102984.78,-19368.979,-16333.7,-16571.574,-32075.115,-18870.605,5522.99
1318342.0490326143,-102067.06,-102988.77,-19374.879,-16335.816,-16573.975,-32074.992,-18871.623,5522.7866
1318342.0530326087,-102080.445,-102995.04,-19378.418,-16338.461,-16575.969,-32075.48,-18873.129,5519.735
1318342.057032603,-102079.51,-102988.61,-19374.47,-16336.833,-16571.736,-32072.104,-18871.338,5522.38
1318342.0610325974,-102072.11,-102985.44,-19372.6,-16334.596,-16569.012,-32071.615,-18869.752,5525.9604
1318342.0650325918,-102076.46,-102985.92,-19375.611,-16334.921,-16566.53,-32070.965,-18871.094,5523.519
1318342.0690325862,-102075.32,-102980.555,-19377.361,-16332.887,-16565.594,-32071.738,-18874.92,5521.3623
1318342.0730325805,-102069.74,-102980.11,-19375.57,-16333.09,-16565.594,-32074.016,-18876.506,5519.043
1318342.077032575,-102072.43,-102982.47,-19375.57,-16333.578,-16566.773,-32075.766,-18877.645,5520.671
1318342.0810325693,-102075.32,-102987.555,-19375.041,-16331.747,-16568.28,-32075.521,-18879.232,5518.84
1318342.0850325637,-102064.45,-102979.29,-19371.867,-16327.556,-16566.244,-32074.057,-18877.85,5518.3516
1318342.089032558,-102063.805,-102974.57,-19371.826,-16325.725,-16564.982,-32072.674,-18874.879,5519.3687
1318342.0930325524,-102071.13,-102978.16,-19372.396,-16328.37,-16568.93,-32073.732,-18875.203,5520.3857
1318342.0970325468,-102069.79,-102978.68,-19369.223,-16329.184,-16568.97,-32073.0,-18874.756,5521.6475
1318342.1010325411,-102065.31,-102974.81,-19366.252,-16326.945,-16562.947,-32073.732,-18874.553,5523.6816
1318342.1050325355,-102059.77,-102972.21,-19365.275,-16324.83,-16563.72,-32072.715,-18875.57,5522.9087
1318342.1090325299,-102062.14,-102977.5,-19369.549,-16326.539,-16571.412,-32071.412,-18874.064,5520.63
1318342.1130325242,-102079.59,-102986.45,-19376.059,-16331.95,-16574.342,-32070.965,-18873.576,5518.3105
1318342.1170325186,-102088.586,-102989.42,-19378.094,-16333.822,-16573.65,-32070.803,-18875.814,5517.619
1318342.121032513,-102075.24,-102978.805,-19372.111,-16329.387,-16570.11,-32070.842,-18876.262,5518.5547
1318342.1250325073,-102063.44,-102968.71,-19367.432,-16325.969,-16569.377,-32070.477,-18875.285,5518.8804
1318342.1290325015,-102061.61,-102970.55,-19368.572,-16327.678,-16568.889,-32070.07,-18875.367,5518.4326
1318342.1330324959,-102073.04,-102980.92,-19369.955,-16330.934,-16572.713,-32071.78,-18876.262,5518.148
1318342.1370324902,-102077.84,-102983.52,-19368.572,-16331.422,-16571.941,-32072.104,-18874.676,5521.6064
1318342.1410324846,-102068.766,-102979.086,-19368.611,-16328.98,-16567.018,-32071.168,-18874.105,5528.117
1318342.145032479,-102062.26,-102977.79,-19368.652,-16329.225,-16567.059,-32071.818,-18875.773,5529.7446
1318342.1490324733,-102063.44,-102980.8,-19372.64,-16330.323,-16569.5,-32072.389,-18874.879,5531.372
1318342.1530324677,-102072.19,-102984.3,-19374.635,-16332.032,-16571.533,-32073.365,-18874.553,5529.582
1318342.157032462,-102078.945,-102985.88,-19374.064,-16332.398,-16571.818,-32072.918,-18874.838,5532.186
1318342.1610324564,-102074.79,-102983.766,-19370.688,-16330.323,-16572.51,-32074.668,-18877.809,5530.355
1318342.1650324508,-102062.99,-102975.34,-19368.205,-16326.457,-16570.477,-32075.725,-18879.354,5527.385
1318342.1690324452,-102061.57,-102974.0,-19371.582,-16326.864,-16566.977,-32078.004,-18880.78,5525.1465
1318342.1730324395,-102074.79,-102977.91,-19379.314,-16330.323,-16569.012,-32079.998,-18880.047,5523.031
1318342.177032434,-102084.31,-102981.24,-19379.762,-16332.561,-16572.918,-32082.357,-18882.203,5519.6943
1318342.1810324283,-102075.445,-102977.26,-19373.455,-16330.812,-16573.08,-32080.69,-18880.33,5519.287
1318342.1850324227,-102060.19,-102968.875,-19374.146,-16328.248,-16568.848,-32077.15,-18875.082,5526.571
1318342.189032417,-102066.0,-102972.91,-19381.877,-16331.015,-16568.889,-32078.98,-18876.912,5523.6006
1318342.1930324114,-102093.71,-102989.95,-19395.264,-16337.932,-16575.604,-32082.195,-18877.93,5521.8916
1318342.1970324058,-102104.29,-102998.09,-19397.828,-16338.908,-16578.084,-32082.398,-18878.377,5524.1294
1318342.2010324001,-102090.7,-102993.086,-19389.16,-16335.287,-16578.29,-32082.684,-18879.314,5525.35
1318342.2050323945,-102079.47,-102984.83,-19386.557,-16332.765,-16577.393,-32082.725,-18880.656,5519.735
1318342.2090323889,-102080.81,-102974.0,-19391.44,-16333.09,-16573.568,-32083.213,-18881.268,5517.09
1318342.2130323832,-102085.53,-102971.27,-19393.678,-16334.311,-16573.201,-32085.734,-18882.732,5514.16
1318342.2170323776,-102082.28,-102971.766,-19388.387,-16334.066,-16574.139,-32085.979,-18882.488,5515.3
1318342.221032372,-102080.734,-102975.75,-19386.271,-16334.799,-16575.604,-32084.596,-18879.842,5516.2764
1318342.2250323663,-102076.09,-102971.68,-19385.824,-16333.741,-16575.48,-32082.56,-18878.459,5521.5254
1318342.2290323607,-102070.16,-102969.98,-19387.207,-16335.084,-16578.613,-32082.805,-18877.727,5527.507
1318342.233032355,-102078.05,-102979.21,-19390.748,-16339.926,-16581.625,-32085.531,-18878.418,5529.541
1318342.2370323495,-102083.17,-102981.33,-19389.404,-16338.542,-16575.766,-32086.102,-18877.197,5535.36
1318342.2410323438,-102082.16,-102979.29,-19385.377,-16337.606,-16571.697,-32086.346,-18880.006,5536.174
1318342.2450323382,-102072.67,-102980.11,-19381.795,-16337.403,-16574.016,-32086.549,-18884.645,5529.785
1318342.2490323326,-102073.164,-102982.42,-19386.027,-16338.705,-16578.328,-32086.264,-18886.963,5525.1465
1318342.253032327,-102082.69,-102985.68,-19389.445,-16342.164,-16581.625,-32088.502,-18890.463,5519.409
1318342.2570323213,-102088.664,-102986.086,-19388.713,-16343.344,-16583.13,-32087.648,-18890.016,5521.0776
1318342.2610323157,-102087.37,-102984.016,-19388.55,-16342.448,-16583.943,-32087.078,-18890.219,5522.9087
1318342.26503231,-102080.57,-102985.68,-19389.324,-16341.838,-16585.084,-32086.549,-18888.021,5519.857
1318342.2690323044,-102079.67,-102987.875,-19391.969,-16343.466,-16584.107,-32084.88,-18884.521,5517.7
1318342.2730322988,-102093.55,-102996.38,-19397.34,-16348.023,-16585.613,-32084.27,-18880.941,5518.5547
1318342.2770322931,-102108.195,-103005.21,-19401.611,-16350.749,-16586.385,-32084.107,-18877.117,5524.699
1318342.2810322875,-102102.87,-103004.234,-19398.031,-16348.308,-16584.148,-32084.555,-18873.861,5529.0938
1318342.285032282,-102095.3,-102999.11,-19395.223,-16344.972,-16581.99,-32083.375,-18872.193,5528.4834
1318342.2890322763,-102096.766,-102997.48,-19396.484,-16345.094,-16586.873,-32082.521,-18870.932,5525.2686
1318342.2930322706,-102107.914,-103008.71,-19401.082,-16349.244,-16586.426,-32084.555,-18871.826,5520.9556
1318342.297032265,-102112.1,-103009.484,-19405.03,-16349.772,-16583.049,-32085.613,-18872.64,5520.63
1318342.3010322594,-102103.07,-103000.66,-19403.646,-16346.273,-16578.777,-32086.793,-18872.03,5524.2515
1318342.3050322537,-102092.0,-102991.13,-19398.56,-16343.222,-16575.48,-32085.328,-18866.414,5528.9307
1318342.309032248,-102091.35,-102990.03,-19398.234,-16342.326,-16578.451,-32083.416,-18864.38,5528.9307
1318342.3130322425,-102110.84,-103002.57,-19404.379,-16347.209,-16583.334,-32085.613,-18868.043,5523.8037
1318342.3170322368,-102115.4,-102999.76,-19403.523,-16346.721,-16582.316,-32084.23,-18867.96,5525.879
1318342.3210322312,-102107.18,-102991.58,-19399.658,-16342.57,-16579.305,-32085.166,-18869.264,5526.6523
1318342.3250322256,-102095.016,-102983.766,-19396.322,-16338.42,-16576.58,-32085.816,-18871.502,5524.536
1318342.32903222,-102095.55,-102984.5,-19396.81,-16339.4375,-16577.312,-32084.596,-18870.932,5525.7163
1318342.3330322143,-102101.2,-102987.1,-19398.885,-16340.211,-16578.857,-32084.066,-18866.943,5532.186
1318342.3370322087,-102102.336,-102986.734,-19400.146,-16338.746,-16580.77,-32084.27,-18865.56,5542.196
1318342.341032203,-102101.08,-102984.91,-19400.31,-16338.095,-16578.898,-32083.254,-18865.764,5548.34
1318342.3450321974,-102095.664,-102983.85,-19399.822,-16335.287,-16575.725,-32080.283,-18864.91,5545.4917
1318342.3490321918,-102096.56,-102990.4,-19401.693,-16337.24,-16581.787,-32078.41,-18865.805,5540.202
1318342.3530321862,-102104.375,-102995.65,-19402.832,-16341.716,-16589.926,-32079.348,-18868.816,5537.2314
1318342.3570321803,-102106.2,-102993.37,-19401.814,-16341.594,-16594.117,-32080.852,-18870.932,5536.296
1318342.3610321747,-102097.54,-102985.07,-19399.17,-16337.647,-16590.82,-32079.916,-18870.117,5537.883
1318342.365032169,-102083.91,-102977.99,-19394.531,-16334.677,-16590.414,-32078.818,-18870.605,5535.726
1318342.3690321634,-102084.44,-102977.664,-19396.16,-16336.061,-16592.53,-32080.568,-18871.338,5536.865
1318342.3730321578,-102102.945,-102983.484,-19400.188,-16339.274,-16593.22,-32082.072,-18871.785,5536.255
1318342.3770321521,-102110.68,-102980.875,-19396.24,-16339.885,-16593.791,-32082.602,-18872.926,5534.709
1318342.3810321465,-102101.61,-102981.53,-19388.266,-16337.403,-16591.188,-32081.463,-18873.982,5534.3833
1318342.3850321409,-102088.46,-102978.48,-19387.166,-16336.549,-16588.908,-32081.219,-18875.285,5533.7324
1318342.3890321353,-102088.14,-102980.67,-19389.975,-16337.851,-16590.008,-32078.29,-18872.64,5531.9014
1318342.3930321296,-102109.016,-102994.266,-19397.664,-16342.611,-16595.012,-32077.557,-18870.32,5527.466
1318342.397032124,-102119.47,-103000.25,-19400.799,-16345.419,-16598.674,-32079.307,-18872.803,5524.211
1318342.4010321184,-102114.586,-102994.63,-19397.137,-16343.059,-16598.186,-32081.748,-18877.441,5520.3047
1318342.4050321127,-102100.71,-102988.37,-19390.137,-16338.786,-16596.314,-32079.266,-18877.809,5518.4736
1318342.409032107,-102095.34,-102987.305,-19387.898,-16338.746,-16599.162,-32079.225,-18877.361,5515.0557
1318342.4130321015,-102105.96,-102991.984,-19388.957,-16341.1875,-16604.412,-32080.852,-18877.197,5514.282
1318342.4170320958,-102110.234,-102994.34,-19388.469,-16340.373,-16606.08,-32078.695,-18874.35,5521.4033
1318342.4210320902,-102103.516,-102989.51,-19383.79,-16338.258,-16602.418,-32075.807,-18869.67,5526.5303
1318342.4250320846,-102092.2,-102982.79,-19378.582,-16335.043,-16601.238,-32073.936,-18866.781,5529.216
1318342.429032079,-102091.35,-102985.97,-19381.145,-16337.24,-16602.336,-32074.748,-18867.799,5528.7275
1318342.4330320733,-102100.67,-102989.79,-19387.94,-16340.292,-16604.656,-32077.271,-18868.084,5530.3145
1318342.4370320677,-102104.25,-102988.85,-19391.072,-16338.095,-16602.01,-32076.865,-18866.537,5536.377
1318342.441032062,-102096.03,-102979.21,-19391.033,-16334.147,-16598.186,-32077.719,-18866.455,5541.748
1318342.4450320564,-102083.78,-102969.2,-19385.05,-16331.34,-16598.47,-32077.883,-18864.91,5544.3115
1318342.4490320508,-102081.14,-102969.04,-19383.586,-16332.072,-16597.9,-32074.871,-18859.62,5547.6484
1318342.4530320452,-102088.46,-102977.54,-19386.883,-16335.002,-16600.586,-32074.016,-18857.098,5547.16
1318342.4570320395,-102094.98,-102980.02,-19385.54,-16336.305,-16601.318,-32074.586,-18857.666,5547.8516
1318342.461032034,-102088.914,-102974.0,-19383.18,-16336.101,-16598.592,-32073.324,-18856.365,5550.1304
1318342.4650320283,-102082.195,-102969.93,-19381.674,-16333.293,-16598.104,-32073.527,-18857.178,5546.5903
1318342.4690320226,-102088.664,-102977.46,-19385.783,-16335.653,-16601.238,-32075.48,-18860.352,5539.795
1318342.473032017,-102099.77,-102986.734,-19390.91,-16339.601,-16605.713,-32077.395,-18862.957,5535.9297
1318342.4770320114,-102107.34,-102990.195,-19391.846,-16339.396,-16610.922,-32076.58,-18862.143,5540.08
1318342.4810320057,-102099.086,-102989.55,-19387.898,-16337.159,-16612.508,-32073.732,-18861.248,5542.4805
1318342.485032,-102089.16,-102981.61,-19386.598,-16335.734,-16609.701,-32073.0,-18862.143,5537.679
1318342.4890319945,-102097.62,-102978.03,-19393.719,-16338.054,-16605.836,-32075.848,-18866.049,5531.047
1318342.4930319889,-102112.76,-102986.53,-19402.02,-16343.019,-16608.887,-32078.615,-18869.752,5523.7227
1318342.4970319832,-102111.05,-102989.664,-19396.688,-16342.489,-16612.225,-32078.898,-18870.037,5523.926
1318342.5010319776,-102083.7,-102975.14,-19384.521,-16336.589,-16607.178,-32079.104,-18870.443,5526.0825
1318342.505031972,-102067.14,-102966.88,-19379.842,-16332.765,-16605.916,-32080.08,-18869.508,5525.9604
1318342.5090319663,-102083.01,-102980.63,-19387.533,-16336.142,-16612.184,-32079.062,-18868.123,5519.979
1318342.5130319607,-102107.18,-102993.94,-19399.17,-16340.983,-16615.682,-32079.998,-18869.06,5519.3687
1318342.517031955,-102111.734,-102990.64,-19401.45,-16340.292,-16612.143,-32083.09,-18873.291,5518.3516
1318342.5210319494,-102089.195,-102982.99,-19391.766,-16336.508,-16609.05,-32084.23,-18877.238,5514.974
1318342.5250319438,-102080.33,-102981.98,-19384.441,-16334.188,-16610.799,-32084.31,-18877.076,5514.201
1318342.5290319382,-102089.32,-102986.984,-19386.23,-16335.409,-16610.963,-32084.31,-18876.547,5515.5845
1318342.5330319325,-102105.02,-102987.51,-19396.037,-16340.292,-16611.207,-32084.434,-18876.14,5517.9443
1318342.537031927,-102104.86,-102981.41,-19398.479,-16339.519,-16605.184,-32083.457,-18873.088,5524.4956
1318342.5410319213,-102087.24,-102974.61,-19391.357,-16335.49,-16604.574,-32083.781,-18869.385,5531.7793
1318342.5450319157,-102077.11,-102975.34,-19386.963,-16332.032,-16604.777,-32082.684,-18866.252,5537.069
1318342.54903191,-102078.66,-102978.16,-19390.87,-16333.7,-16602.703,-32081.504,-18862.264,5541.667
1318342.5530319044,-102088.664,-102978.03,-19395.184,-16335.979,-16600.3,-32081.584,-18859.13,5543.091
1318342.5570318988,-102091.44,-102974.125,-19391.072,-16333.456,-16600.139,-32080.404,-18859.701,5545.0034
1318342.5610318931,-102074.266,-102967.2,-19381.918,-16330.445,-16599.773,-32079.63,-18863.566,5545.3696
1318342.5650318875,-102058.59,-102960.62,-19375.977,-16329.387,-16594.238,-32078.615,-18864.34,5545.41
1318342.5690318819,-102062.26,-102957.6,-19377.32,-16329.875,-16597.047,-32077.598,-18862.143,5544.963
1318342.5730318762,-102082.08,-102966.02,-19384.115,-16332.276,-16602.05,-32078.654,-18860.637,5545.3696
1318342.5770318706,-102090.13,-102969.73,-19388.062,-16333.781,-16604.777,-32080.201,-18862.875,5542.684
1318342.581031865,-102085.734,-102969.445,-19385.54,-16333.049,-16600.627,-32080.852,-18864.299,5542.6025
1318342.585031859,-102077.07,-102965.664,-19380.574,-16328.939,-16596.191,-32081.666,-18867.146,5539.266
1318342.5890318535,-102080.57,-102968.71,-19381.062,-16329.387,-16599.285,-32082.154,-18867.432,5537.5166
1318342.5930318478,-102096.16,-102975.914,-19387.004,-16332.968,-16604.086,-32082.398,-18867.717,5533.8545
1318342.5970318422,-102102.22,-102975.586,-19389.852,-16334.066,-16603.924,-32084.393,-18868.652,5532.4707
1318342.6010318366,-102094.2,-102969.85,-19389.201,-16330.607,-16599.203,-32085.002,-18868.652,5534.3833
1318342.605031831,-102086.06,-102967.9,-19388.63,-16329.347,-16598.592,-32085.654,-18867.31,5535.1157
1318342.6090318253,-102087.484,-102970.055,-19389.201,-16331.3,-16598.633,-32085.451,-18866.252,5532.1455
1318342.6130318197,-102093.18,-102972.54,-19391.643,-16334.921,-16602.133,-32087.078,-18868.408,5525.2686
1318342.617031814,-102102.74,-102972.45,-19394.775,-16336.02,-16601.033,-32086.223,-18867.352,5527.303
1318342.6210318084,-102097.82,-102969.57,-19391.236,-16333.212,-16599.977,-32087.281,-18868.043,5526.4487
1318342.6250318028,-102083.58,-102965.13,-19386.922,-16332.194,-16600.506,-32088.46,-18868.652,5528.6865
1318342.6290317972,-102083.09,-102965.21,-19388.266,-16331.625,-16601.4,-32088.787,-18866.822,5530.111
1318342.6330317915,-102104.984,-102977.055,-19394.49,-16334.392,-16605.51,-32089.682,-18867.473,5529.826
1318342.637031786,-102117.96,-102978.92,-19396.281,-16336.223,-16605.877,-32088.828,-18867.84,5532.7964
1318342.6410317803,-102104.74,-102969.24,-19391.316,-16331.788,-16602.906,-32088.096,-18866.781,5536.4585
1318342.6450317746,-102093.875,-102967.29,-19390.91,-16329.306,-16605.51,-32089.926,-18866.414,5540.3647
1318342.649031769,-102101.24,-102975.55,-19395.223,-16332.724,-16611.94,-32088.543,-18866.334,5542.3994
1318342.6530317634,-102119.43,-102985.44,-19403.973,-16337.281,-16617.31,-32089.602,-18868.775,5536.3364
1318342.6570317578,-102126.47,-102985.68,-19404.705,-16338.298,-16616.658,-32088.46,-18870.24,5534.6274
1318342.6610317521,-102118.62,-102980.02,-19401.693,-16336.549,-16616.008,-32086.59,-18869.02,5539.266
1318342.6650317465,-102103.64,-102973.72,-19396.81,-16332.357,-16615.438,-32086.752,-18868.979,5537.0283
1318342.6690317409,-102104.13,-102978.516,-19397.34,-16334.107,-16616.09,-32087.77,-18868.611,5533.773
1318342.6730317352,-102121.016,-102990.97,-19401.531,-16339.967,-16620.361,-32088.87,-18868.328,5532.9185
1318342.6770317296,-102123.664,-102989.79,-19401.326,-16339.723,-16620.729,-32089.072,-18870.117,5533.8545
1318342.681031724,-102113.33,-102978.766,-19395.71,-16334.88,-16616.781,-32088.258,-18869.67,5535.726
1318342.6850317183,-102107.875,-102975.305,-19394.734,-16334.514,-16615.275,-32086.996,-18867.596,5536.865
1318342.6890317127,-102110.97,-102978.92,-19397.217,-16336.345,-16617.799,-32087.81,-18868.938,5535.726
1318342.693031707,-102121.99,-102986.66,-19402.629,-16340.495,-16621.826,-32090.21,-18870.729,5531.7383
1318342.6970317014,-102122.234,-102984.91,-19403.605,-16339.967,-16616.17,-32090.129,-18870.484,5532.2676
1318342.7010316958,-102117.68,-102981.29,-19401.652,-16336.711,-16610.434,-32090.334,-18873.943,5529.297
1318342.7050316902,-102113.125,-102980.02,-19400.879,-16336.671,-16611.613,-32092.734,-18877.197,5525.635
1318342.7090316846,-102112.39,-102979.9,-19401.164,-16336.02,-16612.916,-32093.588,-18879.354,5520.223
1318342.713031679,-102123.74,-102983.36,-19403.117,-16338.054,-16614.625,-32093.588,-18879.191,5516.3984
1318342.7170316733,-102128.26,-102984.91,-19400.473,-16338.095,-16614.178,-32092.002,-18877.32,5518.799
1318342.7210316677,-102115.73,-102975.99,-19396.037,-16335.124,-16609.863,-32090.414,-18875.611,5522.7866
1318342.725031662,-102105.555,-102970.75,-19395.59,-16332.561,-16609.375,-32089.152,-18869.629,5531.128
1318342.7290316564,-102110.07,-102976.766,-19399.861,-16334.107,-16609.172,-32088.787,-18865.723,5532.2676
1318342.7330316508,-102123.375,-102982.83,-19402.588,-16337.24,-16611.287,-32088.705,-18864.502,5532.064
1318342.7370316451,-102123.05,-102981.98,-19401.734,-16338.786,-16612.793,-32088.95,-18865.113,5534.9937
1318342.7410316395,-102114.305,-102978.36,-19397.46,-16336.589,-16613.77,-32089.396,-18866.658,5537.7607
1318342.7450316339,-102108.6,-102976.36,-19395.793,-16335.328,-16611.898,-32088.584,-18867.473,5535.36
1318342.7490316282,-102117.76,-102983.65,-19402.467,-16339.071,-16614.87,-32090.902,-18869.914,5529.541
1318342.7530316226,-102132.086,-102990.16,-19406.373,-16341.879,-16620.158,-32091.025,-18869.305,5526.937
1318342.757031617,-102133.016,-102985.07,-19404.42,-16339.682,-16616.863,-32088.299,-18865.846,5531.3315
1318342.7610316114,-102131.76,-102986.01,-19401.775,-16338.258,-16611.207,-32086.875,-18864.34,5533.9766
1318342.7650316057,-102122.64,-102986.9,-19399.049,-16336.345,-16610.352,-32088.787,-18865.967,5531.25
1318342.7690316,-102108.32,-102982.305,-19397.664,-16336.467,-16614.422,-32089.193,-18867.31,5530.6396
1318342.7730315945,-102112.06,-102985.15,-19396.729,-16339.479,-16616.537,-32089.193,-18867.107,5531.3315
1318342.7770315888,-102119.19,-102982.67,-19399.822,-16339.274,-16614.584,-32090.578,-18865.967,5532.756
1318342.7810315832,-102116.945,-102974.81,-19401.814,-16336.142,-16609.904,-32091.96,-18869.629,5531.128
1318342.7850315776,-102105.63,-102969.0,-19398.64,-16333.497,-16607.219,-32092.082,-18870.484,5532.308
1318342.789031572,-102104.336,-102970.586,-19398.52,-16336.305,-16608.807,-32093.1,-18868.328,5530.5586
1318342.7930315663,-102113.28,-102973.23,-19403.443,-16339.274,-16609.416,-32095.297,-18870.037,5527.0996
1318342.7970315607,-102122.766,-102974.2,-19407.39,-16340.78,-16607.3,-32094.688,-18870.688,5527.9136
1318342.801031555,-102115.93,-102973.68,-19405.396,-16338.99,-16605.266,-32094.523,-18871.541,5526.164
1318342.8050315494,-102100.43,-102967.86,-19402.791,-16337.037,-16604.045,-32094.117,-18871.664,5526.8965
1318342.8090315438,-102109.5,-102971.97,-19410.686,-16339.926,-16607.016,-32096.111,-18870.89,5526.937
1318342.813031538,-102128.75,-102983.4,-19416.627,-16343.141,-16611.654,-32097.129,-18869.914,5528.198
1318342.8170315323,-102125.25,-102978.84,-19413.412,-16341.269,-16610.516,-32096.64,-18871.135,5529.0938
1318342.8210315267,-102110.516,-102970.95,-19405.803,-16336.264,-16607.91,-32094.809,-18870.932,5530.5586
1318342.825031521,-102103.16,-102969.12,-19405.518,-16335.979,-16605.836,-32092.287,-18868.287,5533.203
1318342.8290315154,-102110.516,-102971.48,-19413.209,-16341.838,-16605.672,-32091.555,-18870.076,5530.8433
1318342.8330315098,-102124.19,-102974.61,-19419.516,-16344.728,-16606.568,-32091.39,-18869.264,5530.7617
1318342.8370315041,-102128.26,-102975.836,-19415.771,-16344.931,-16606.893,-32091.555,-18865.723,5536.3364
1318342.8410314985,-102116.336,-102967.82,-19410.197,-16340.739,-16605.104,-32092.082,-18864.95,5539.917
1318342.8450314929,-102111.17,-102967.94,-19411.459,-16340.495,-16605.877,-32090.7,-18865.602,5537.9233
1318342.8490314872,-102123.05,-102975.34,-19418.133,-16344.076,-16609.822,-32090.74,-18865.926,5532.593
1318342.8530314816,-102132.81,-102979.695,-19418.01,-16343.873,-16613.77,-32091.432,-18866.455,5531.9824
1318342.857031476,-102134.85,-102977.38,-19420.207,-16344.523,-16613.484,-32094.035,-18867.352,5533.773
1318342.8610314704,-102124.68,-102972.54,-19418.01,-16343.263,-16611.613,-32094.28,-18869.06,5532.9185
1318342.8650314647,-102117.44,-102971.16,-19416.871,-16341.879,-16611.166,-32093.955,-18869.588,5533.895
1318342.869031459,-102124.72,-102973.27,-19421.957,-16343.466,-16613.852,-32097.088,-18870.688,5533.6104
1318342.8730314535,-102144.695,-102983.805,-19427.693,-16346.965,-16618.611,-32100.547,-18874.512,5530.8433
1318342.8770314478,-102145.914,-102985.44,-19425.496,-16346.151,-16618.328,-32102.053,-18877.441,5532.2266
1318342.8810314422,-102137.125,-102980.02,-19418.865,-16341.269,-16613.322,-32100.668,-18878.215,5531.942
1318342.8850314366,-102127.52,-102975.586,-19419.312,-16338.461,-16608.846,-32099.406,-18879.395,5526.8555
1318342.889031431,-102128.38,-102976.36,-19422.648,-16341.31,-16610.637,-32100.953,-18879.354,5522.502
1318342.8930314253,-102139.734,-102980.67,-19422.078,-16343.303,-16612.59,-32102.174,-18877.605,5519.979
1318342.8970314197,-102144.086,-102981.29,-19419.598,-16342.082,-16613.037,-32102.336,-18878.338,5521.4033
1318342.901031414,-102136.234,-102980.31,-19415.854,-16339.234,-16613.893,-32103.273,-18880.982,5521.24
1318342.9050314084,-102125.695,-102979.9,-19414.43,-16337.565,-16613.648,-32102.988,-18881.47,5520.1826
1318342.9090314028,-102133.22,-102985.48,-19417.684,-16339.315,-16616.008,-32101.4,-18879.68,5517.4155
1318342.9130313972,-102146.08,-102990.6,-19421.266,-16342.937,-16624.227,-32102.418,-18880.453,5516.1133
1318342.9170313915,-102146.65,-102991.5,-19422.12,-16344.483,-16625.408,-32102.824,-18880.78,5516.0728
1318342.921031386,-102135.91,-102985.6,-19420.33,-16341.513,-16618.693,-32099.488,-18877.85,5519.287
1318342.9250313803,-102133.016,-102983.52,-19421.957,-16339.234,-16616.008,-32099.895,-18878.785,5521.118
1318342.9290313746,-102141.12,-102990.805,-19424.928,-16339.56,-16618.45,-32101.035,-18879.598,5522.868
1318342.933031369,-102152.266,-102997.27,-19428.59,-16343.263,-16618.002,-32101.727,-18876.75,5528.8496
1318342.9370313634,-102159.71,-102998.3,-19429.443,-16344.768,-16615.723,-32101.889,-18878.133,5531.291
1318342.9410313577,-102150.31,-102994.1,-19425.172,-16340.699,-16614.91,-32102.215,-18878.906,5532.9185
1318342.945031352,-102139.53,-102983.766,-19421.754,-16337.565,-16612.63,-32102.174,-18876.668,5535.1157
1318342.9490313465,-102145.836,-102987.63,-19424.643,-16339.682,-16615.113,-32101.727,-18876.75,5529.7446
1318342.9530313408,-102152.39,-102995.445,-19428.549,-16342.53,-16619.223,-32101.523,-18878.785,5523.397
1318342.9570313352,-102151.734,-102993.01,-19427.45,-16341.716,-16616.578,-32103.273,-18882.812,5518.4326
1318342.9610313296,-102141.73,-102984.016,-19423.38,-16337.851,-16612.387,-32102.621,-18883.871,5519.328
1318342.965031324,-102132.66,-102977.46,-19419.393,-16336.63,-16612.549,-32102.133,-18883.016,5517.578
1318342.9690313183,-102136.92,-102980.96,-19421.225,-16339.274,-16614.95,-32102.906,-18879.762,5516.6016
1318342.9730313127,-102146.98,-102983.36,-19426.799,-16341.798,-16615.643,-32101.28,-18876.994,5519.165
1318342.977031307,-102156.13,-102982.875,-19430.584,-16342.896,-16613.77,-32100.832,-18878.094,5517.212
1318342.9810313014,-102159.34,-102984.375,-19432.008,-16342.326,-16610.352,-32099.895,-18878.133,5520.2637
1318342.9850312958,-102148.08,-102984.5,-19425.578,-16341.472,-16613.322,-32100.912,-18876.791,5524.455
1318342.9890312902,-102133.79,-102979.336,-19421.184,-16339.804,-16612.996,-32102.703,-18875.0,5526.286
1318342.9930312845,-102147.22,-102985.4,-19426.84,-16343.263,-16613.729,-32104.533,-18875.53,5525.757
1318342.997031279,-102151.414,-102989.26,-19425.62,-16342.53,-16613.607,-32104.25,-18876.588,5527.995
1318343.0010312733,-102136.03,-102984.7,-19420.818,-16338.014,-16611.084,-32103.762,-18877.523,5530.599
1318343.0050312676,-102123.984,-102973.516,-19420.613,-16336.508,-16606.648,-32103.598,-18877.156,5529.8667
1318343.009031262,-102132.2,-102974.695,-19425.334,-16337.6875,-16607.422,-32103.273,-18875.326,5529.541
1318343.0130312564,-102145.1,-102980.92,-19426.84,-16339.479,-16609.945,-32104.982,-18877.441,5526.571
1318343.0170312508,-102145.51,-102977.016,-19425.008,-16340.414,-16608.074,-32106.121,-18878.826,5528.076
1318343.0210312451,-102146.37,-102977.7,-19424.195,-16340.211,-16606.324,-32103.842,-18876.588,5531.6978
1318343.0250312395,-102133.14,-102969.16,-19417.807,-16335.775,-16601.441,-32102.541,-18875.732,5533.6914
1318343.0290312339,-102131.63,-102970.38,-19418.742,-16337.199,-16602.703,-32102.377,-18873.455,5537.2725
1318343.0330312282,-102140.305,-102975.75,-19421.143,-16339.315,-16608.318,-32102.377,-18869.873,5538.615
1318343.0370312226,-102131.43,-102964.84,-19416.748,-16336.508,-16605.428,-32104.371,-18868.693,5542.6436
1318343.0410312167,-102125.2,-102962.77,-19416.668,-16333.293,-16600.098,-32105.633,-18868.123,5544.4746
1318343.045031211,-102125.29,-102969.89,-19417.889,-16333.171,-16601.766,-32105.674,-18868.775,5543.1724
1318343.0490312055,-102132.94,-102975.14,-19420.207,-16335.694,-16605.184,-32105.877,-18868.652,5541.1377
1318343.0530311998,-102139.77,-102974.086,-19424.44,-16337.81,-16605.592,-32106.527,-18867.432,5542.1553
1318343.0570311942,-102145.305,-102969.85,-19426.717,-16338.868,-16602.295,-32105.754,-18867.635,5544.149
1318343.0610311886,-102144.86,-102968.914,-19425.334,-16337.281,-16604.168,-32105.47,-18869.06,5543.335
1318343.065031183,-102131.43,-102963.34,-19420.166,-16335.002,-16603.557,-32104.209,-18867.473,5542.7246
1318343.0690311773,-102135.664,-102970.22,-19425.049,-16337.077,-16606.975,-32104.494,-18867.188,5539.1035
1318343.0730311717,-102154.79,-102982.79,-19436.158,-16342.53,-16615.479,-32107.098,-18873.576,5529.1343
1318343.077031166,-102154.99,-102978.766,-19436.2,-16340.007,-16614.38,-32106.486,-18873.658,5530.9653
1318343.0810311604,-102143.72,-102974.0,-19427.37,-16334.677,-16607.422,-32104.738,-18869.14,5537.557
1318343.0850311548,-102136.72,-102969.73,-19425.701,-16333.659,-16604.086,-32104.25,-18868.45,5540.8936
1318343.0890311492,-102141.805,-102972.01,-19429.77,-16337.851,-16609.66,-32104.738,-18871.908,5536.621
1318343.0930311435,-102154.016,-102976.24,-19432.455,-16339.967,-16618.002,-32103.72,-18870.89,5537.7607
1318343.097031138,-102153.164,-102975.914,-19430.096,-16339.152,-16618.287,-32103.557,-18869.467,5541.219
1318343.1010311323,-102147.055,-102977.46,-19430.096,-16338.217,-16616.455,-32104.574,-18871.623,5543.01
1318343.1050311266,-102144.58,-102981.81,-19429.402,-16337.77,-16617.96,-32104.045,-18870.32,5542.318
1318343.109031121,-102149.5,-102985.35,-19430.746,-16341.676,-16623.617,-32103.762,-18868.734,5543.6606
1318343.1130311154,-102159.875,-102989.586,-19431.111,-16344.931,-16628.826,-32106.283,-18869.508,5545.0034
1318343.1170311098,-102167.81,-102993.414,-19433.758,-16345.704,-16631.512,-32107.098,-18871.908,5544.1895
1318343.1210311041,-102162.73,-102990.4,-19433.473,-16344.157,-16630.412,-32106.365,-18874.023,5541.504
1318343.1250310985,-102152.305,-102981.04,-19430.828,-16339.601,-16627.85,-32104.982,-18874.146,5541.87
1318343.1290310929,-102156.13,-102983.69,-19431.926,-16342.001,-16630.656,-32104.33,-18873.047,5541.545
1318343.1330310872,-102175.83,-102998.414,-19439.535,-16346.843,-16639.04,-32108.115,-18874.594,5538.8594
1318343.1370310816,-102182.58,-103001.59,-19440.594,-16345.907,-16639.69,-32110.434,-18878.826,5534.0986
1318343.141031076,-102175.13,-102994.43,-19434.246,-16341.35,-16638.266,-32109.904,-18882.732,5529.6226
1318343.1450310703,-102170.45,-102992.59,-19432.129,-16339.479,-16636.475,-32109.336,-18885.336,5525.594
1318343.1490310647,-102177.21,-102994.59,-19433.797,-16342.611,-16640.87,-32110.678,-18887.166,5520.0605
1318343.153031059,-102186.65,-102998.5,-19434.041,-16343.995,-16645.346,-32111.857,-18889.73,5514.8926
1318343.1570310534,-102186.2,-102999.31,-19434.082,-16343.222,-16643.555,-32113.283,-18890.748,5516.683
1318343.1610310478,-102179.77,-102996.22,-19432.82,-16343.588,-16643.555,-32111.98,-18888.836,5518.27
1318343.1650310422,-102171.266,-102994.14,-19429.81,-16343.873,-16644.531,-32109.01,-18884.115,5520.5894
1318343.1690310366,-102181.64,-103002.28,-19434.693,-16346.843,-16648.682,-32109.092,-18882.527,5520.427
1318343.173031031,-102192.23,-103007.81,-19437.094,-16348.308,-16650.27,-32111.29,-18881.795,5520.508
1318343.1770310253,-102188.88,-103003.7,-19434.53,-16347.047,-16649.414,-32110.922,-18882.244,5523.6006
1318343.1810310197,-102183.11,-102998.664,-19432.049,-16344.239,-16646.688,-32111.736,-18883.748,5526.8555
1318343.185031014,-102171.19,-102991.7,-19427.938,-16341.269,-16643.148,-32109.783,-18880.574,5531.3315
1318343.1890310084,-102168.3,-102989.79,-19428.387,-16340.902,-16643.84,-32109.336,-18877.4,5536.377
1318343.1930310028,-102180.99,-102995.04,-19433.27,-16343.344,-16644.531,-32112.184,-18878.744,5535.604
1318343.1970309971,-102184.9,-102995.04,-19435.223,-16341.96,-16642.293,-32113.527,-18880.78,5534.709
1318343.2010309915,-102170.66,-102986.086,-19431.6,-16336.752,-16636.312,-32110.88,-18879.559,5538.4116
1318343.2050309859,-102157.76,-102980.11,-19427.693,-16334.27,-16635.092,-32109.66,-18875.285,5542.7246
1318343.2090309802,-102168.625,-102987.555,-19432.008,-16338.258,-16640.91,-32110.23,-18875.164,5540.1206
1318343.2130309746,-102186.28,-102995.81,-19439.656,-16343.222,-16644.37,-32112.307,-18877.809,5535.5225
1318343.217030969,-102187.625,-102996.586,-19439.373,-16342.652,-16647.34,-32113.566,-18880.78,5534.424
1318343.2210309634,-102179.24,-102990.69,-19431.885,-16338.42,-16647.584,-32114.504,-18881.959,5533.9766
1318343.2250309577,-102174.234,-102987.875,-19432.373,-16338.461,-16648.885,-32114.707,-18882.527,5532.0234
1318343.229030952,-102180.14,-102989.95,-19438.152,-16340.739,-16651.082,-32114.299,-18881.715,5530.9653
1318343.2330309465,-102194.26,-103001.34,-19442.342,-16345.704,-16652.1,-32114.219,-18881.795,5529.012
1318343.2370309408,-102190.8,-102997.48,-19439.088,-16343.263,-16649.861,-32114.707,-18882.527,5530.4365
1318343.2410309352,-102171.06,-102982.99,-19430.705,-16339.56,-16646.078,-32116.13,-18884.521,5530.0293
1318343.2450309296,-102167.4,-102986.125,-19432.943,-16341.838,-16649.578,-32114.463,-18881.959,5528.6865
1318343.249030924,-102185.55,-103001.836,-19440.594,-16347.291,-16657.674,-32112.672,-18880.25,5523.926
1318343.2530309183,-102193.484,-102998.78,-19441.814,-16347.941,-16657.797,-32112.59,-18882.732,5519.7754
1318343.2570309127,-102194.42,-102990.234,-19440.594,-16346.314,-16649.373,-32111.492,-18884.115,5521.3623
1318343.261030907,-102186.445,-102982.67,-19436.97,-16342.245,-16646.648,-32110.434,-18883.748,5521.3623
1318343.2650309014,-102176.27,-102975.18,-19434.773,-16338.258,-16642.13,-32111.898,-18885.54,5520.752
1318343.2690308955,-102184.57,-102982.266,-19440.512,-16341.228,-16645.184,-32114.137,-18885.742,5519.165
1318343.27303089,-102198.24,-102989.95,-19442.342,-16346.11,-16647.87,-32113.566,-18879.559,5524.8213
1318343.2770308843,-102195.805,-102986.53,-19438.64,-16345.826,-16646.281,-32110.963,-18874.879,5531.8604
1318343.2810308787,-102187.22,-102982.67,-19437.623,-16343.466,-16648.316,-32110.354,-18875.367,5534.79
1318343.285030873,-102183.8,-102981.2,-19437.379,-16342.652,-16645.508,-32109.824,-18874.512,5534.343
1318343.2890308674,-102191.25,-102985.44,-19440.309,-16345.094,-16645.672,-32109.824,-18875.203,5532.1455
1318343.2930308618,-102205.24,-102994.96,-19443.807,-16348.918,-16650.594,-32112.672,-18874.35,5532.5522
1318343.2970308561,-102210.58,-102996.664,-19446.574,-16349.0,-16650.146,-32113.404,-18872.64,5537.1504
1318343.3010308505,-102205.164,-102994.63,-19444.58,-16346.884,-16648.846,-32111.777,-18873.902,5540.5684
1318343.3050308449,-102198.37,-102992.11,-19443.848,-16346.518,-16647.584,-32112.428,-18875.896,5535.726
1318343.3090308392,-102204.96,-102995.2,-19445.027,-16347.087,-16651.45,-32111.574,-18872.762,5535.9297
1318343.3130308336,-102213.71,-102999.76,-19449.951,-16351.278,-16656.861,-32108.889,-18869.752,5535.1562
1318343.317030828,-102218.34,-102999.84,-19450.969,-16350.993,-16653.688,-32109.457,-18872.803,5532.5522
1318343.3210308223,-102212.24,-102994.96,-19452.027,-16347.779,-16649.373,-32109.701,-18872.723,5533.325
1318343.3250308167,-102201.83,-102992.31,-19452.557,-16345.663,-16650.229,-32111.492,-18872.559,5534.7495
1318343.329030811,-102213.09,-103000.695,-19455.975,-16348.1455,-16653.605,-32111.898,-18872.723,5531.7383
1318343.3330308055,-102225.55,-103006.63,-19458.416,-16352.092,-16653.932,-32111.818,-18872.518,5533.203
1318343.3370307998,-102227.22,-103008.016,-19457.602,-16351.848,-16654.297,-32112.428,-18872.885,5536.499
1318343.3410307942,-102219.93,-102999.59,-19455.852,-16349.732,-16653.402,-32111.857,-18872.355,5538.1675
1318343.3450307886,-102208.5,-102992.48,-19450.643,-16347.128,-16649.861,-32109.498,-18872.314,5534.302
1318343.349030783,-102219.12,-103002.08,-19456.055,-16350.058,-16652.873,-32109.05,-18867.717,5534.546
1318343.3530307773,-102238.85,-103014.29,-19464.355,-16356.649,-16658.244,-32110.719,-18867.84,5532.593
1318343.3570307717,-102240.85,-103015.016,-19462.402,-16356.608,-16658.367,-32111.654,-18870.932,5532.1455
1318343.361030766,-102226.52,-103001.875,-19454.51,-16350.099,-16655.518,-32110.598,-18871.014,5534.0986
1318343.3650307604,-102214.93,-102989.14,-19454.834,-16347.169,-16651.775,-32109.904,-18869.508,5536.4585
1318343.3690307548,-102229.695,-102997.12,-19461.426,-16351.686,-16659.18,-32112.672,-18870.932,5530.5176
1318343.3730307491,-102245.57,-103007.29,-19464.396,-16355.714,-16664.43,-32112.672,-18872.07,5529.3784
1318343.3770307435,-102236.82,-102996.055,-19457.031,-16353.842,-16659.547,-32114.055,-18872.355,5533.0
1318343.381030738,-102221.195,-102990.56,-19449.016,-16349.162,-16656.78,-32114.666,-18872.559,5536.54
1318343.3850307323,-102214.73,-102991.17,-19446.574,-16347.209,-16656.17,-32113.486,-18870.932,5538.371
1318343.3890307266,-102222.58,-102995.484,-19448.73,-16348.837,-16658.367,-32111.736,-18869.1,5537.0283
1318343.393030721,-102234.945,-103001.55,-19452.557,-16352.092,-16660.523,-32111.94,-18870.402,5533.773
1318343.3970307154,-102237.47,-103002.2,-19457.52,-16353.72,-16664.227,-32113.934,-18871.582,5536.418
1318343.4010307097,-102232.51,-103001.55,-19458.62,-16355.144,-16663.412,-32112.916,-18870.932,5539.592
1318343.405030704,-102228.234,-103002.36,-19455.037,-16354.208,-16660.768,-32113.322,-18869.508,5537.435
1318343.4090306985,-102231.164,-103007.98,-19455.445,-16356.568,-16663.086,-32115.725,-18871.053,5533.9766
1318343.4130306928,-102246.26,-103014.57,-19461.426,-16359.62,-16664.674,-32116.984,-18872.723,5533.366
1318343.4170306872,-102246.95,-103008.67,-19460.896,-16357.707,-16660.523,-32116.334,-18872.355,5538.6963
1318343.4210306816,-102237.92,-103000.734,-19457.764,-16353.72,-16657.105,-32115.48,-18871.623,5542.684
1318343.425030676,-102224.98,-102999.23,-19455.16,-16352.987,-16658.977,-32116.252,-18873.455,5539.3066
1318343.4290306703,-102228.36,-103001.8,-19458.863,-16356.324,-16662.924,-32117.555,-18874.553,5537.964
1318343.4330306647,-102245.52,-103011.195,-19466.432,-16360.312,-16664.836,-32117.393,-18875.652,5533.773
1318343.437030659,-102249.84,-103012.45,-19466.594,-16361.939,-16663.168,-32116.781,-18875.855,5534.79
1318343.4410306534,-102233.56,-103004.4,-19461.182,-16356.975,-16656.291,-32116.781,-18875.285,5538.493
1318343.4450306478,-102220.79,-102996.71,-19459.596,-16354.249,-16654.541,-32114.219,-18873.82,5537.1504
1318343.4490306422,-102230.35,-103004.07,-19465.82,-16358.317,-16659.588,-32115.154,-18873.738,5532.1045
1318343.4530306365,-102247.84,-103014.81,-19472.25,-16361.369,-16666.627,-32119.549,-18879.03,5536.499
1318343.457030631,-102250.53,-103013.19,-19472.332,-16360.23,-16665.203,-32121.746,-18883.26,5552.287
1318343.4610306253,-102236.49,-103004.73,-19465.008,-16358.317,-16661.988,-32119.346,-18882.771,5560.3438
1318343.4650306196,-102226.93,-103004.52,-19459.27,-16356.039,-16660.768,-32117.107,-18879.232,5564.901
1318343.469030614,-102234.13,-103011.234,-19462.525,-16359.01,-16664.998,-32116.74,-18876.059,5567.871
1318343.4730306084,-102243.414,-103015.38,-19466.797,-16361.369,-16666.951,-32117.229,-18875.53,5571.737
1318343.4770306027,-102246.99,-103010.945,-19465.984,-16359.091,-16662.191,-32116.457,-18875.123,5579.2646
1318343.4810305971,-102239.42,-103004.84,-19464.926,-16354.167,-16658.203,-32117.19,-18875.611,5581.95
1318343.4850305915,-102230.31,-102993.82,-19461.508,-16350.18,-16654.217,-32117.84,-18874.553,5580.648
1318343.4890305859,-102239.42,-102997.48,-19465.82,-16353.883,-16653.729,-32119.143,-18873.455,5579.956
1318343.4930305802,-102259.484,-103010.54,-19473.47,-16358.684,-16658.406,-32118.613,-18873.78,5576.701
1318343.4970305744,-102263.19,-103005.82,-19474.0,-16356.568,-16660.727,-32117.473,-18873.455,5581.706
1318343.5010305687,-102250.86,-103001.266,-19468.182,-16351.686,-16654.42,-32116.822,-18872.844,5588.298
1318343.505030563,-102240.195,-103000.37,-19464.275,-16349.65,-16650.635,-32115.684,-18869.508,5590.2915
1318343.5090305575,-102241.945,-103004.234,-19466.797,-16352.377,-16653.688,-32117.066,-18868.693,5589.315
1318343.5130305518,-102244.875,-103005.05,-19467.408,-16354.127,-16657.105,-32119.793,-18871.826,5586.1006
1318343.5170305462,-102248.01,-103005.66,-19464.152,-16353.15,-16655.559,-32119.914,-18874.959,5585.6934
1318343.5210305406,-102247.73,-103004.766,-19463.379,-16351.889,-16653.402,-32119.182,-18877.768,5582.9673
1318343.525030535,-102242.03,-103004.36,-19466.146,-16351.767,-16654.338,-32119.59,-18879.436,5578.41
1318343.5290305293,-102253.664,-103017.87,-19473.348,-16357.667,-16660.035,-32121.42,-18881.795,5575.5615
1318343.5330305237,-102269.66,-103025.68,-19478.11,-16361.735,-16662.72,-32120.402,-18880.656,5576.782
1318343.537030518,-102270.67,-103023.16,-19476.97,-16360.963,-16660.238,-32119.67,-18879.354,5578.8984
1318343.5410305124,-102254.48,-103014.98,-19471.6,-16357.504,-16658.488,-32118.084,-18877.117,5581.421
1318343.5450305068,-102246.46,-103014.98,-19471.924,-16359.091,-16661.988,-32117.352,-18875.488,5583.008
1318343.5490305012,-102251.836,-103016.56,-19472.738,-16362.062,-16662.395,-32118.572,-18874.105,5584.31
1318343.5530304955,-102256.43,-103013.8,-19473.43,-16362.997,-16659.75,-32119.63,-18870.443,5586.67
1318343.55703049,-102259.16,-103013.8,-19475.79,-16361.735,-16657.35,-32116.578,-18867.025,5592.285
1318343.5610304843,-102252.89,-103009.69,-19476.562,-16359.254,-16655.232,-32116.213,-18870.281,5591.268
1318343.5650304786,-102244.55,-103004.195,-19476.521,-16358.114,-16655.396,-32118.084,-18872.396,5587.5654
1318343.569030473,-102255.25,-103013.47,-19482.137,-16360.393,-16660.727,-32120.322,-18870.443,5584.5137
1318343.5730304674,-102270.76,-103020.875,-19486.043,-16364.299,-16661.336,-32120.89,-18870.605,5581.909
1318343.5770304617,-102265.305,-103016.03,-19481.975,-16364.055,-16655.965,-32120.973,-18873.78,5580.2
1318343.5810304561,-102251.914,-103011.766,-19477.662,-16362.102,-16655.111,-32119.508,-18875.408,5579.753
1318343.5850304505,-102242.64,-103009.484,-19475.668,-16361.451,-16654.42,-32118.572,-18875.611,5580.1597
1318343.5890304449,-102244.96,-103008.38,-19478.23,-16364.421,-16655.926,-32120.81,-18875.611,5580.8105
1318343.5930304392,-102252.93,-103009.69,-19480.633,-16365.316,-16658.367,-32122.193,-18876.1,5580.1597
1318343.5970304336,-102258.38,-103009.52,-19480.145,-16364.787,-16655.762,-32120.852,-18875.408,5581.787
1318343.601030428,-102245.52,-103001.1,-19474.854,-16361.532,-16652.67,-32119.426,-18874.47,5581.0957
1318343.6050304223,-102234.74,-102994.63,-19473.309,-16359.132,-16648.438,-32119.59,-18871.99,5581.8687
1318343.6090304167,-102247.32,-103002.73,-19480.062,-16362.956,-16656.006,-32122.396,-18871.014,5584.88
1318343.613030411,-102266.97,-103016.445,-19485.84,-16368.409,-16663.453,-32120.973,-18868.775,5587.2803
1318343.6170304054,-102265.055,-103015.016,-19483.725,-16368.205,-16660.523,-32118.816,-18868.855,5588.7046
1318343.6210303998,-102253.26,-103006.23,-19480.998,-16364.177,-16654.623,-32117.19,-18868.855,5589.1523
1318343.6250303942,-102244.875,-103003.664,-19479.736,-16363.038,-16653.85,-32116.863,-18869.06,5588.2163
1318343.6290303885,-102250.98,-103007.86,-19484.742,-16365.683,-16656.941,-32116.457,-18868.084,5588.135
1318343.633030383,-102268.48,-103018.234,-19491.252,-16370.077,-16661.336,-32116.457,-18869.914,5584.88
1318343.6370303773,-102272.586,-103020.555,-19493.287,-16370.118,-16659.262,-32115.52,-18871.582,5584.839
1318343.6410303717,-102257.66,-103008.836,-19488.445,-16367.147,-16655.559,-32116.62,-18874.105,5583.252
1318343.645030366,-102250.62,-103004.4,-19483.725,-16366.252,-16655.438,-32116.537,-18871.297,5586.8735
1318343.6490303604,-102261.805,-103014.49,-19485.922,-16368.531,-16659.791,-32117.678,-18872.723,5584.6763
1318343.6530303548,-102276.984,-103023.805,-19492.352,-16372.233,-16663.33,-32120.443,-18878.865,5574.341
1318343.6570303491,-102276.05,-103017.22,-19492.84,-16370.199,-16663.045,-32120.852,-18881.55,5573.9746
1318343.6610303435,-102264.0,-103014.9,-19489.502,-16367.636,-16663.006,-32119.793,-18881.389,5576.213
1318343.6650303379,-102258.67,-103017.375,-19489.217,-16367.433,-16659.953,-32119.346,-18878.744,5581.462
1318343.6690303322,-102266.24,-103024.3,-19491.658,-16368.979,-16662.068,-32119.834,-18874.756,5584.961
1318343.6730303266,-102273.484,-103028.2,-19494.873,-16370.24,-16663.371,-32121.95,-18873.658,5588.379
1318343.677030321,-102274.414,-103025.88,-19495.564,-16372.355,-16661.012,-32122.438,-18872.193,5595.5
1318343.6810303153,-102270.51,-103022.34,-19492.229,-16371.542,-16659.262,-32119.71,-18868.572,5599.4873
1318343.6850303097,-102265.914,-103020.875,-19491.049,-16370.28,-16659.506,-32119.305,-18866.334,5597.6562
1318343.689030304,-102272.38,-103025.59,-19495.158,-16373.17,-16665.203,-32122.152,-18870.076,5591.96
1318343.6930302985,-102285.08,-103034.34,-19500.896,-16376.506,-16670.086,-32124.309,-18875.164,5585.653
1318343.6970302928,-102290.04,-103035.32,-19502.768,-16374.187,-16670.086,-32124.473,-18878.582,5579.5493
1318343.7010302872,-102276.33,-103025.11,-19498.332,-16370.443,-16662.395,-32124.514,-18881.715,5573.7305
1318343.7050302816,-102269.33,-103024.336,-19497.152,-16369.467,-16661.947,-32124.514,-18884.033,5567.993
1318343.709030276,-102279.625,-103032.27,-19502.238,-16372.844,-16668.58,-32125.45,-18883.586,5565.796
1318343.7130302703,-102294.97,-103036.79,-19505.047,-16374.431,-16673.178,-32125.611,-18884.236,5564.6973
1318343.7170302647,-102294.88,-103034.305,-19505.33,-16372.519,-16671.387,-32126.303,-18887.574,5564.372
1318343.721030259,-102284.586,-103032.48,-19501.629,-16369.304,-16672.934,-32125.326,-18886.434,5569.7837
1318343.7250302532,-102281.17,-103035.0,-19498.7,-16369.833,-16674.643,-32124.188,-18882.895,5573.4053
1318343.7290302475,-102293.79,-103042.04,-19505.78,-16374.879,-16680.746,-32126.955,-18885.662,5568.5225
1318343.733030242,-102304.164,-103050.375,-19509.725,-16378.825,-16685.182,-32130.168,-18890.463,5564.209
1318343.7370302363,-102301.4,-103048.95,-19505.982,-16376.018,-16679.973,-32131.105,-18891.277,5566.3657
1318343.7410302307,-102293.54,-103040.57,-19501.424,-16373.048,-16674.969,-32128.947,-18889.852,5572.673
1318343.745030225,-102288.25,-103036.99,-19502.32,-16373.088,-16673.096,-32126.506,-18886.15,5576.457
1318343.7490302194,-102297.164,-103043.055,-19509.807,-16377.687,-16676.678,-32126.385,-18884.156,5575.521
1318343.7530302138,-102301.44,-103042.24,-19511.312,-16379.558,-16676.229,-32127.768,-18885.865,5574.6665
1318343.7570302081,-102295.82,-103037.07,-19507.977,-16377.6455,-16672.975,-32128.867,-18887.898,5575.4805
1318343.7610302025,-102287.88,-103034.06,-19503.744,-16375.407,-16671.672,-32128.338,-18887.695,5575.4805
1318343.7650301969,-102287.03,-103036.87,-19501.832,-16374.553,-16672.934,-32127.523,-18887.207,5576.335
1318343.7690301912,-102296.06,-103040.61,-19505.291,-16377.157,-16674.48,-32128.338,-18887.166,5572.632
1318343.7730301856,-102306.234,-103044.48,-19509.074,-16380.087,-16674.928,-32127.85,-18887.818,5570.028
1318343.77703018,-102305.586,-103040.164,-19507.527,-16378.5,-16668.66,-32125.938,-18884.766,5575.1143
1318343.7810301743,-102288.7,-103031.945,-19501.018,-16375.814,-16666.342,-32125.123,-18881.877,5579.997
1318343.7850301687,-102281.54,-103025.48,-19499.432,-16374.635,-16666.748,-32125.734,-18881.104,5579.5493
1318343.789030163,-102298.26,-103040.0,-19508.3,-16379.884,-16670.207,-32128.094,-18882.936,5572.8354
1318343.7930301575,-102309.77,-103046.305,-19514.04,-16380.575,-16671.55,-32129.273,-18883.22,5570.2314
1318343.7970301518,-102302.82,-103036.3,-19510.295,-16377.6455,-16668.295,-32130.576,-18884.115,5574.178
1318343.8010301462,-102294.97,-103034.1,-19508.342,-16374.675,-16669.068,-32129.152,-18884.441,5576.9043
1318343.8050301406,-102296.516,-103041.47,-19512.33,-16375.489,-16673.219,-32127.32,-18881.877,5578.125
1318343.809030135,-102301.03,-103040.29,-19513.021,-16379.273,-16673.299,-32126.059,-18878.865,5577.4336
1318343.8130301293,-102307.58,-103042.16,-19511.434,-16381.1045,-16671.998,-32124.676,-18876.262,5580.5664
1318343.8170301237,-102309.0,-103043.016,-19509.93,-16378.459,-16670.29,-32125.938,-18877.605,5581.584
1318343.821030118,-102299.93,-103039.72,-19507.406,-16375.367,-16668.945,-32128.338,-18880.982,5579.6714
1318343.8250301124,-102291.305,-103033.0,-19506.47,-16374.35,-16667.36,-32129.762,-18882.895,5575.4805
1318343.8290301068,-102305.914,-103041.06,-19510.986,-16379.273,-16675.496,-32130.535,-18882.203,5577.8
1318343.8330301011,-102320.56,-103053.02,-19512.736,-16381.837,-16684.205,-32131.674,-18883.748,5577.7183
1318343.8370300955,-102324.51,-103056.805,-19513.592,-16381.308,-16685.67,-32132.406,-18885.295,5578.4507
1318343.8410300899,-102313.52,-103041.836,-19511.395,-16377.076,-16680.543,-32131.105,-18883.992,5584.4727
1318343.8450300843,-102302.58,-103031.375,-19510.824,-16376.303,-16677.816,-32130.656,-18881.959,5586.0596
1318343.8490300786,-102311.2,-103036.016,-19513.916,-16378.703,-16679.973,-32130.006,-18878.053,5587.077
1318343.853030073,-102324.22,-103041.875,-19518.514,-16381.389,-16684.285,-32131.023,-18875.691,5587.484
1318343.8570300674,-102320.44,-103036.99,-19518.475,-16379.232,-16683.758,-32131.35,-18875.367,5591.0645
1318343.8610300617,-102301.07,-103024.5,-19512.736,-16374.146,-16681.234,-32129.477,-18874.838,5591.146
1318343.865030056,-102295.49,-103024.375,-19510.54,-16373.454,-16683.229,-32126.547,-18871.176,5594.93
1318343.8690300505,-102310.23,-103034.836,-19514.445,-16378.134,-16690.674,-32126.223,-18871.785,5592.204
1318343.8730300448,-102321.945,-103039.63,-19515.707,-16380.941,-16695.395,-32127.768,-18872.6,5588.094
1318343.8770300392,-102319.18,-103035.85,-19511.8,-16378.256,-16693.807,-32129.436,-18873.332,5591.838
1318343.8810300336,-102312.79,-103030.48,-19506.674,-16377.238,-16691.977,-32128.256,-18872.803,5593.0176
1318343.885030028,-102311.484,-103032.92,-19502.035,-16376.913,-16691.61,-32125.979,-18869.1,5596.6797
1318343.8890300223,-102322.06,-103041.836,-19507.691,-16380.494,-16697.55,-32127.32,-18867.758,5595.215
1318343.8930300167,-102329.47,-103045.33,-19508.424,-16381.796,-16702.23,-32128.664,-18870.158,5589.966
1318343.897030011,-102326.625,-103042.484,-19508.18,-16379.843,-16694.215,-32129.152,-18873.21,5589.8438
1318343.9010300054,-102315.19,-103032.48,-19507.812,-16376.181,-16693.604,-32127.932,-18873.82,5593.913
1318343.9050299998,-102311.28,-103033.57,-19507.283,-16375.978,-16696.168,-32125.123,-18871.502,5596.5986
1318343.9090299942,-102317.95,-103041.55,-19507.406,-16380.168,-16700.521,-32125.693,-18871.95,5593.3027
1318343.9130299885,-102329.76,-103048.26,-19510.58,-16382.813,-16705.607,-32127.97,-18876.22,5587.5654
1318343.917029983,-102330.164,-103048.67,-19509.521,-16381.227,-16704.06,-32128.176,-18881.389,5580.119
1318343.9210299773,-102320.72,-103042.195,-19506.877,-16377.727,-16700.928,-32127.28,-18882.936,5579.183
1318343.9250299716,-102312.3,-103036.38,-19505.86,-16377.238,-16700.684,-32128.582,-18881.674,5579.6714
1318343.929029966,-102323.81,-103045.945,-19508.748,-16380.86,-16703.94,-32130.412,-18882.977,5575.6025
1318343.9330299604,-102337.08,-103052.414,-19514.486,-16383.952,-16704.59,-32130.617,-18885.254,5573.568
1318343.9370299547,-102332.56,-103047.125,-19512.695,-16382.284,-16705.201,-32127.688,-18883.342,5576.4976
1318343.941029949,-102322.15,-103043.99,-19513.021,-16380.372,-16705.404,-32124.838,-18880.494,5581.6245
1318343.9450299435,-102317.38,-103043.3,-19511.395,-16380.86,-16707.805,-32125.45,-18881.104,5583.618
1318343.9490299379,-102323.29,-103046.15,-19513.795,-16382.528,-16709.432,-32125.49,-18879.72,5584.88
1318343.953029932,-102332.85,-103046.15,-19516.928,-16383.464,-16710.043,-32126.71,-18878.094,5585.4087
1318343.9570299264,-102330.61,-103041.42,-19517.13,-16384.686,-16709.514,-32127.035,-18877.441,5586.792
1318343.9610299207,-102324.79,-103040.81,-19514.404,-16383.139,-16708.904,-32126.588,-18879.11,5587.6875
1318343.965029915,-102321.62,-103042.484,-19514.445,-16383.627,-16709.88,-32125.205,-18878.053,5588.176
1318343.9690299095,-102333.625,-103048.79,-19521.852,-16386.76,-16714.111,-32126.547,-18878.947,5584.717
1318343.9730299038,-102345.3,-103053.06,-19526.896,-16388.51,-16713.826,-32127.443,-18880.615,5584.188
1318343.9770298982,-102344.12,-103050.78,-19525.555,-16388.104,-16711.102,-32126.14,-18878.621,5588.867
1318343.9810298926,-102336.914,-103044.6,-19517.781,-16385.621,-16709.596,-32123.7,-18873.7,5600.708
1318343.985029887,-102327.03,-103038.74,-19515.828,-16384.441,-16709.352,-32122.6,-18869.67,5612.142
1318343.9890298813,-102334.96,-103045.33,-19522.137,-16390.219,-16711.467,-32122.967,-18868.652,5613.078
1318343.9930298757,-102346.73,-103051.19,-19526.082,-16392.822,-16709.432,-32123.455,-18870.484,5613.159
1318343.99702987,-102344.04,-103045.945,-19523.64,-16390.666,-16708.943,-32123.129,-18871.623,5617.6353
1318344.0010298644,-102331.914,-103040.086,-19520.428,-16387.33,-16707.072,-32124.188,-18877.238,5616.089
1318344.0050298588,-102325.73,-103038.58,-19518.758,-16386.19,-16708.943,-32124.717,-18878.012,5614.502
1318344.0090298532,-102334.234,-103042.4,-19519.857,-16387.492,-16715.943,-32126.344,-18877.605,5614.787
1318344.0130298475,-102343.43,-103046.305,-19522.664,-16389.16,-16717.164,-32127.117,-18878.662,5611.6133
1318344.017029842,-102342.37,-103040.41,-19523.64,-16387.29,-16711.549,-32125.326,-18878.215,5616.496
1318344.0210298363,-102329.555,-103030.12,-19518.678,-16384.441,-16707.316,-32125.938,-18879.68,5619.1
1318344.0250298306,-102323.695,-103028.04,-19518.514,-16385.174,-16706.502,-32127.727,-18878.418,5621.338
1318344.029029825,-102334.68,-103036.87,-19523.926,-16389.69,-16710.328,-32128.012,-18876.385,5621.867
1318344.0330298194,-102347.7,-103045.25,-19524.7,-16392.781,-16710.896,-32125.814,-18874.47,5623.9424
1318344.0370298137,-102343.14,-103040.29,-19521.852,-16390.625,-16707.316,-32125.408,-18873.006,5629.0693
1318344.041029808,-102329.06,-103029.586,-19517.213,-16386.963,-16703.328,-32125.53,-18873.088,5631.185
1318344.0450298025,-102327.92,-103031.17,-19517.457,-16387.818,-16704.875,-32124.105,-18873.047,5628.4995
1318344.0490297968,-102340.945,-103042.65,-19524.049,-16392.457,-16710.49,-32125.938,-18872.479,5624.7153
1318344.0530297912,-102348.48,-103048.67,-19528.564,-16392.863,-16711.996,-32128.176,-18873.78,5622.1924
1318344.0570297856,-102341.84,-103047.57,-19525.025,-16391.766,-16710.896,-32127.523,-18873.617,5622.152
1318344.06102978,-102334.72,-103042.24,-19525.92,-16390.545,-16710.979,-32126.018,-18873.576,5623.332
1318344.0650297743,-102331.586,-103037.97,-19528.443,-16390.666,-16711.67,-32123.781,-18871.908,5623.047
1318344.0690297687,-102340.82,-103037.97,-19530.396,-16392.01,-16711.59,-32125.002,-18871.135,5619.548
1318344.073029763,-102349.125,-103039.31,-19532.186,-16393.066,-16712.81,-32128.379,-18874.268,5615.2344
1318344.0770297574,-102343.43,-103037.73,-19530.232,-16392.986,-16710.652,-32129.07,-18875.53,5619.873
1318344.0810297518,-102328.74,-103029.09,-19526.57,-16391.236,-16708.334,-32130.006,-18877.441,5621.9893
1318344.0850297462,-102324.06,-103029.18,-19526.043,-16391.805,-16710.979,-32130.617,-18877.605,5619.8325
1318344.0890297405,-102334.88,-103037.6,-19533.0,-16396.484,-16714.52,-32130.088,-18874.227,5620.4834
1318344.093029735,-102344.24,-103043.22,-19532.553,-16398.56,-16714.52,-32131.023,-18872.438,5624.5527
1318344.0970297293,-102340.5,-103040.81,-19528.605,-16394.734,-16709.96,-32130.9,-18872.355,5626.7905
1318344.1010297236,-102327.35,-103034.71,-19528.484,-16394.125,-16711.182,-32130.291,-18871.541,5630.5747
1318344.105029718,-102320.93,-103029.34,-19530.273,-16395.143,-16713.746,-32130.738,-18871.094,5629.8423
1318344.1090297124,-102337.94,-103041.06,-19536.988,-16399.293,-16716.229,-32133.342,-18872.844,5626.628
1318344.1130297068,-102347.05,-103048.34,-19538.209,-16400.838,-16714.559,-32134.562,-18875.203,5623.983
1318344.1170297011,-102342.45,-103042.28,-19532.309,-16398.764,-16713.623,-32134.28,-18876.424,5624.634
1318344.1210296955,-102336.47,-103040.33,-19527.588,-16395.955,-16715.984,-32133.22,-18876.791,5625.9766
1318344.1250296899,-102336.39,-103042.56,-19524.617,-16396.16,-16719.441,-32130.697,-18874.268,5626.343
1318344.1290296842,-102350.18,-103048.875,-19528.28,-16401.531,-16722.738,-32131.838,-18874.023,5622.3145
1318344.1330296786,-102361.945,-103052.58,-19535.156,-16403.89,-16723.715,-32132.936,-18874.879,5619.751
1318344.137029673,-102356.125,-103045.82,-19534.262,-16401.367,-16718.791,-32132.406,-18873.738,5620.809
1318344.1410296673,-102345.83,-103040.57,-19531.373,-16399.496,-16717.57,-32130.861,-18872.64,5621.704
1318344.1450296617,-102341.27,-103042.16,-19533.162,-16401.408,-16722.86,-32130.697,-18871.541,5619.873
1318344.149029656,-102353.03,-103051.11,-19535.441,-16404.988,-16725.912,-32132.773,-18872.64,5616.8213
1318344.1530296504,-102365.03,-103058.234,-19538.453,-16406.291,-16725.383,-32135.58,-18878.012,5610.7993
1318344.1570296448,-102363.445,-103056.195,-19538.209,-16404.46,-16724.568,-32137.004,-18883.953,5605.1025
1318344.1610296392,-102355.47,-103054.24,-19538.777,-16401.367,-16722.371,-32138.592,-18888.348,5601.4
1318344.1650296336,-102347.5,-103053.14,-19539.836,-16401.896,-16720.867,-32138.307,-18888.795,5601.156
1318344.169029628,-102360.64,-103063.52,-19545.248,-16405.477,-16726.727,-32139.365,-18889.201,5598.7144
1318344.1730296223,-102376.23,-103068.81,-19547.771,-16406.982,-16729.127,-32139.486,-18889.527,5597.982
1318344.1770296167,-102370.89,-103066.61,-19545.736,-16406.78,-16726.889,-32137.086,-18889.363,5598.5923
1318344.1810296108,-102365.12,-103063.32,-19545.248,-16406.006,-16723.145,-32136.436,-18887.695,5600.342
1318344.1850296052,-102365.56,-103064.82,-19545.98,-16406.414,-16724.936,-32135.621,-18885.05,5599.3247
1318344.1890295995,-102372.6,-103066.77,-19550.252,-16409.791,-16727.54,-32136.477,-18883.586,5593.791
1318344.193029594,-102382.49,-103071.78,-19554.078,-16413.209,-16729.451,-32138.51,-18884.318,5590.617
1318344.1970295883,-102379.44,-103069.99,-19550.416,-16409.303,-16726.156,-32137.697,-18884.277,5592.733
1318344.2010295826,-102362.35,-103061.61,-19546.346,-16403.035,-16722.047,-32136.639,-18883.383,5594.1978
1318344.205029577,-102356.164,-103062.016,-19545.125,-16403.729,-16724.61,-32134.727,-18881.307,5597.534
1318344.2090295714,-102369.23,-103068.0,-19548.951,-16407.959,-16731.201,-32134.645,-18880.656,5593.791
1318344.2130295658,-102376.55,-103069.91,-19549.725,-16408.65,-16728.963,-32137.086,-18884.156,5589.7627
1318344.2170295601,-102369.96,-103062.5,-19545.533,-16404.908,-16722.168,-32139.04,-18887.777,5591.5527
1318344.2210295545,-102358.805,-103054.85,-19539.47,-16401.49,-16720.053,-32138.633,-18886.883,5593.0176
1318344.2250295489,-102353.07,-103052.086,-19535.28,-16399.943,-16718.914,-32136.598,-18881.674,5596.761
1318344.2290295432,-102364.22,-103058.44,-19540.854,-16403.564,-16724.691,-32138.836,-18880.656,5596.965
1318344.2330295376,-102374.72,-103066.77,-19545.654,-16406.494,-16727.01,-32139.527,-18880.371,5598.999
1318344.237029532,-102365.766,-103063.12,-19543.295,-16402.426,-16721.72,-32140.3,-18883.912,5595.4185
1318344.2410295263,-102353.16,-103054.484,-19538.371,-16397.217,-16718.465,-32139.934,-18886.963,5593.7095
1318344.2450295207,-102349.66,-103052.66,-19535.93,-16396.12,-16718.426,-32141.277,-18887.695,5590.454
1318344.249029515,-102363.2,-103061.164,-19540.568,-16401.531,-16722.576,-32141.604,-18887.898,5588.2163
1318344.2530295094,-102377.0,-103065.15,-19545.248,-16404.541,-16724.732,-32142.701,-18890.219,5586.3037
1318344.2570295038,-102376.23,-103063.6,-19543.783,-16403.443,-16724.324,-32143.596,-18891.398,5586.1006
1318344.2610294982,-102366.984,-103060.67,-19538.086,-16400.594,-16721.111,-32143.557,-18888.428,5590.251
1318344.2650294926,-102359.54,-103058.44,-19535.686,-16400.188,-16721.477,-32142.54,-18884.36,5588.7046
1318344.269029487,-102372.16,-103063.805,-19544.637,-16405.72,-16725.586,-32140.463,-18882.283,5586.263
1318344.2730294813,-102384.93,-103070.11,-19552.654,-16410.523,-16726.727,-32138.957,-18879.03,5585.0425
1318344.2770294757,-102378.26,-103065.02,-19550.578,-16408.732,-16724.365,-32137.818,-18878.785,5585.8154
1318344.28102947,-102365.36,-103061.24,-19546.55,-16405.72,-16719.727,-32138.145,-18876.791,5589.5186
1318344.2850294644,-102360.234,-103067.02,-19547.607,-16406.332,-16721.436,-32137.29,-18876.018,5591.675
1318344.2890294588,-102372.73,-103075.65,-19551.473,-16410.32,-16724.406,-32139.771,-18878.053,5586.589
1318344.2930294531,-102381.35,-103079.47,-19553.508,-16412.477,-16727.824,-32140.992,-18879.842,5582.3164
1318344.2970294475,-102379.48,-103072.76,-19553.875,-16409.588,-16725.709,-32140.26,-18879.477,5584.9204
1318344.3010294419,-102373.25,-103064.25,-19554.688,-16407.105,-16721.232,-32137.697,-18879.436,5585.897
1318344.3050294362,-102369.96,-103062.3,-19556.316,-16406.697,-16723.797,-32137.777,-18879.965,5583.008
1318344.3090294306,-102375.25,-103065.23,-19555.908,-16406.697,-16725.424,-32141.074,-18883.465,5578.8574
1318344.313029425,-102383.06,-103067.914,-19558.879,-16408.285,-16724.203,-32143.393,-18885.865,5576.091
1318344.3170294194,-102379.52,-103067.55,-19558.35,-16406.414,-16721.762,-32141.887,-18884.766,5577.108
1318344.3210294137,-102369.23,-103060.67,-19554.566,-16403.24,-16720.418,-32140.342,-18883.748,5576.782
1318344.325029408,-102363.98,-103055.95,-19553.996,-16403.564,-16719.238,-32141.277,-18883.953,5574.3003
1318344.3290294025,-102373.54,-103061.41,-19558.758,-16406.494,-16721.355,-32142.295,-18881.592,5574.626
1318344.3330293968,-102387.74,-103067.43,-19564.088,-16407.47,-16723.348,-32140.79,-18878.662,5579.3867
1318344.3370293912,-102385.42,-103061.57,-19562.012,-16405.682,-16719.564,-32139.324,-18879.68,5580.3223
1318344.3410293856,-102377.36,-103059.164,-19558.797,-16403.768,-16717.488,-32139.162,-18881.674,5578.817
1318344.34502938,-102372.805,-103061.32,-19559.205,-16402.791,-16720.338,-32139.324,-18880.982,5577.9624
1318344.3490293743,-102386.234,-103072.39,-19565.105,-16409.059,-16727.254,-32139.121,-18880.982,5573.0796
1318344.3530293687,-102396.41,-103077.97,-19568.238,-16410.686,-16728.76,-32139.365,-18882.121,5566.7725
1318344.357029363,-102391.56,-103071.74,-19564.168,-16408.041,-16723.389,-32140.586,-18885.742,5567.0166
1318344.3610293574,-102377.69,-103062.664,-19557.455,-16402.303,-16719.727,-32142.863,-18890.748,5566.854
1318344.3650293518,-102368.01,-103058.44,-19552.49,-16399.984,-16720.012,-32144.41,-18892.62,5565.6333
1318344.3690293462,-102373.91,-103062.22,-19554.77,-16402.223,-16720.826,-32145.793,-18892.822,5561.7676
1318344.3730293405,-102378.99,-103062.38,-19557.576,-16403.768,-16720.947,-32149.74,-18896.648,5555.583
1318344.377029335,-102373.74,-103059.25,-19556.438,-16402.508,-16720.867,-32148.928,-18897.87,5557.2104
1318344.3810293293,-102369.43,-103059.25,-19555.176,-16400.758,-16722.25,-32147.584,-18894.49,5562.297
1318344.3850293236,-102364.305,-103057.01,-19555.258,-16403.2,-16726.645,-32148.684,-18896.037,5559.652
1318344.389029318,-102380.66,-103068.0,-19563.191,-16409.262,-16730.916,-32148.52,-18895.508,5559.245
1318344.3930293124,-102393.68,-103071.45,-19567.627,-16411.336,-16731.568,-32145.102,-18890.34,5569.458
1318344.3970293067,-102374.555,-103054.0,-19559.896,-16404.95,-16725.627,-32143.312,-18887.41,5579.997
1318344.401029301,-102355.92,-103040.37,-19552.734,-16401.855,-16722.86,-32143.516,-18887.98,5584.4727
1318344.4050292955,-102358.04,-103046.47,-19553.549,-16402.547,-16729.045,-32143.8,-18886.883,5583.415
1318344.4090292896,-102375.45,-103058.15,-19559.408,-16406.17,-16735.31,-32145.021,-18887.207,5576.2534
1318344.413029284,-102386.68,-103059.62,-19560.1,-16408.162,-16734.945,-32145.957,-18887.574,5572.876
1318344.4170292784,-102381.19,-103057.13,-19558.594,-16407.227,-16730.428,-32148.275,-18890.463,5567.871
1318344.4210292727,-102367.27,-103050.91,-19555.096,-16404.623,-16725.424,-32146.322,-18892.62,5563.436
1318344.425029267,-102363.37,-103049.52,-19557.129,-16406.494,-16725.098,-32142.701,-18890.422,5559.4077
1318344.4290292615,-102380.21,-103058.88,-19565.47,-16412.965,-16729.492,-32141.195,-18888.998,5553.0195
1318344.4330292558,-102394.53,-103067.18,-19568.318,-16414.959,-16734.213,-32140.586,-18889.934,5550.9443
1318344.4370292502,-102392.13,-103063.32,-19568.238,-16411.541,-16732.016,-32140.871,-18891.357,5553.6704
1318344.4410292446,-102377.16,-103056.32,-19566.0,-16409.75,-16725.424,-32141.074,-18891.357,5557.17
1318344.445029239,-102371.46,-103058.15,-19566.447,-16409.75,-16727.092,-32139.242,-18888.592,5559.204
1318344.4490292333,-102388.875,-103069.09,-19574.707,-16414.47,-16730.348,-32138.633,-18884.766,5557.6987
1318344.4530292277,-102402.266,-103074.67,-19578.41,-16415.975,-16730.225,-32140.26,-18885.336,5557.495
1318344.457029222,-102396.57,-103067.18,-19575.033,-16412.842,-16727.377,-32140.871,-18888.062,5558.2275
1318344.4610292164,-102386.64,-103064.54,-19571.29,-16409.383,-16724.203,-32140.79,-18889.201,5554.9727
1318344.4650292108,-102385.74,-103068.61,-19574.992,-16410.564,-16722.209,-32141.604,-18889.527,5553.4263
1318344.4690292052,-102390.99,-103069.664,-19578.328,-16414.715,-16726.156,-32144.572,-18892.09,5550.4966
1318344.4730291995,-102400.35,-103074.586,-19579.754,-16416.504,-16729.818,-32146.201,-18894.287,5548.625
1318344.477029194,-102401.086,-103079.67,-19575.277,-16414.389,-16733.357,-32145.143,-18896.648,5548.503
1318344.4810291883,-102390.18,-103073.2,-19570.598,-16410.523,-16731.283,-32145.346,-18896.281,5551.1885
1318344.4850291826,-102377.77,-103064.3,-19569.947,-16408.773,-16729.94,-32146.037,-18893.555,5552.3276
1318344.489029177,-102390.55,-103072.35,-19576.375,-16413.33,-16732.951,-32145.102,-18890.504,5552.0835
1318344.4930291714,-102405.12,-103081.38,-19580.975,-16417.318,-16734.742,-32147.219,-18889.445,5549.764
1318344.4970291657,-102396.08,-103075.04,-19576.375,-16413.086,-16731.61,-32148.072,-18892.457,5550.09
1318344.50102916,-102383.63,-103067.914,-19570.271,-16411.256,-16733.562,-32147.299,-18893.27,5552.2056
1318344.5050291545,-102383.71,-103069.22,-19568.848,-16412.436,-16737.549,-32146.81,-18890.422,5552.6123
1318344.5090291488,-102398.766,-103078.01,-19574.383,-16415.447,-16736.492,-32148.479,-18889.975,5551.5137
1318344.5130291432,-102412.766,-103083.26,-19580.037,-16417.318,-16737.508,-32149.62,-18891.236,5552.8564
1318344.5170291376,-102410.04,-103077.92,-19578.857,-16414.227,-16734.904,-32150.84,-18893.27,5551.4326
1318344.521029132,-102392.984,-103066.695,-19571.9,-16409.912,-16731.445,-32150.432,-18893.23,5554.525
1318344.5250291263,-102392.83,-103068.16,-19575.195,-16412.11,-16730.998,-32151.938,-18894.084,5552.7344
1318344.5290291207,-102409.836,-103078.53,-19583.09,-16416.79,-16737.834,-32155.6,-18899.74,5544.6777
1318344.533029115,-102417.69,-103081.26,-19585.287,-16418.295,-16739.502,-32157.797,-18901.734,5542.7246
1318344.5370291094,-102406.25,-103073.734,-19580.445,-16413.697,-16733.684,-32158.408,-18899.414,5547.0786
1318344.5410291038,-102392.83,-103063.73,-19576.05,-16409.791,-16729.412,-32157.188,-18895.752,5554.7285
1318344.5450290982,-102388.39,-103063.07,-19574.627,-16409.303,-16729.492,-32158.693,-18893.637,5555.827
1318344.5490290925,-102401.414,-103073.33,-19580.566,-16413.777,-16736.98,-32162.965,-18898.152,5548.747
1318344.553029087,-102414.836,-103081.586,-19584.514,-16415.812,-16740.52,-32165.691,-18902.303,5543.8643
1318344.5570290813,-102406.54,-103077.92,-19584.066,-16415.65,-16744.14,-32168.662,-18905.111,5544.149
1318344.5610290756,-102391.56,-103069.3,-19577.76,-16414.104,-16746.664,-32169.842,-18905.518,5544.5967
1318344.56502907,-102391.32,-103076.54,-19579.713,-16417.277,-16751.832,-32170.533,-18904.379,5543.9863
1318344.5690290644,-102407.15,-103087.2,-19589.559,-16424.031,-16764.893,-32171.592,-18904.379,5540.609
1318344.5730290588,-102416.06,-103087.94,-19592.53,-16426.434,-16767.01,-32172.201,-18906.209,5539.1035
1318344.5770290531,-102408.57,-103080.61,-19586.996,-16424.52,-16765.178,-32171.51,-18908.65,5538.8594
1318344.5810290475,-102401.66,-103080.484,-19586.305,-16423.26,-16764.69,-32168.459,-18907.553,5542.3994
1318344.5850290419,-102408.41,-103092.33,-19593.14,-16429.037,-16769.857,-32167.441,-18907.309,5540.8125
1318344.5890290362,-102421.555,-103100.875,-19596.72,-16435.629,-16775.635,-32170.695,-18910.809,5532.959
1318344.5930290306,-102427.86,-103103.195,-19596.924,-16437.053,-16777.223,-32171.389,-18912.965,5532.2266
1318344.597029025,-102423.75,-103102.54,-19594.809,-16436.523,-16779.297,-32170.94,-18913.982,5534.9937
1318344.6010290193,-102417.195,-103099.04,-19595.297,-16437.338,-16783.855,-32171.104,-18916.26,5535.482
1318344.6050290137,-102416.99,-103096.234,-19599.041,-16440.186,-16784.303,-32170.127,-18917.195,5531.291
1318344.609029008,-102433.64,-103106.24,-19607.586,-16446.656,-16789.186,-32171.145,-18918.498,5526.693
1318344.6130290024,-102446.086,-103109.78,-19611.98,-16451.375,-16791.463,-32170.371,-18920.166,5525.3906
1318344.6170289968,-102442.71,-103104.29,-19611.451,-16451.58,-16789.186,-32169.436,-18923.299,5524.333
1318344.6210289912,-102438.805,-103104.25,-19608.236,-16451.58,-16791.016,-32166.18,-18922.445,5529.1343
1318344.6250289856,-102438.48,-103111.86,-19607.545,-16454.51,-16798.137,-32164.145,-18922.12,5528.9307
1318344.62902898,-102443.69,-103115.73,-19609.54,-16457.275,-16801.107,-32164.592,-18923.707,5526.571
1318344.6330289743,-102450.16,-103120.85,-19613.648,-16460.125,-16802.775,-32168.01,-18931.967,5516.683
1318344.6370289684,-102441.695,-103113.445,-19613.404,-16460.531,-16802.816,-32168.05,-18938.64,5512.248
1318344.6410289628,-102433.31,-103109.13,-19614.422,-16460.287,-16800.375,-32166.098,-18939.168,5513.5093
1318344.6450289572,-102434.33,-103109.09,-19615.967,-16460.408,-16800.172,-32165.162,-18939.412,5512.248
1318344.6490289515,-102447.88,-103110.03,-19620.32,-16462.443,-16804.078,-32165.365,-18940.309,5511.0273
1318344.653028946,-102461.47,-103113.164,-19624.92,-16464.6,-16808.309,-32164.47,-18943.441,5505.534
1318344.6570289403,-102452.35,-103104.695,-19621.176,-16464.479,-16808.025,-32162.111,-18944.377,5505.4526
1318344.6610289346,-102440.63,-103100.43,-19618.572,-16465.088,-16803.914,-32156.129,-18939.982,5508.464
1318344.665028929,-102438.56,-103103.31,-19620.809,-16467.896,-16805.42,-32150.473,-18935.223,5509.237
1318344.6690289234,-102442.55,-103104.82,-19619.426,-16470.623,-16808.553,-32147.502,-18930.258,5512.6953
1318344.6730289178,-102448.41,-103106.41,-19616.414,-16470.988,-16805.787,-32145.266,-18927.938,5515.4624
1318344.6770289121,-102443.12,-103097.91,-19615.357,-16470.5,-16805.46,-32142.904,-18928.67,5518.921
1318344.6810289065,-102422.695,-103082.12,-19608.807,-16466.512,-16799.969,-32140.748,-18929.688,5520.793
1318344.6850289009,-102415.086,-103084.44,-19605.428,-16467.53,-16802.775,-32138.348,-18926.555,5523.6816
1318344.6890288952,-102433.35,-103097.01,-19609.863,-16472.9,-16808.27,-32135.295,-18924.52,5522.339
1318344.6930288896,-102445.44,-103096.32,-19615.846,-16474.488,-16809.326,-32135.092,-18929.402,5516.317
1318344.697028884,-102437.09,-103092.53,-19610.84,-16472.371,-16808.146,-32136.639,-18934.693,5512.655
1318344.7010288783,-102433.84,-103096.234,-19608.033,-16472.006,-16805.176,-32138.51,-18935.344,5516.4795
1318344.7050288727,-102434.57,-103096.52,-19607.504,-16473.268,-16807.658,-32139.771,-18929.363,5521.6064
1318344.709028867,-102436.28,-103097.945,-19607.586,-16475.586,-16809.734,-32142.336,-18926.066,5522.5425
1318344.7130288614,-102445.234,-103102.42,-19609.416,-16478.436,-16812.297,-32146.648,-18927.37,5520.223
1318344.7170288558,-102445.68,-103101.766,-19609.254,-16478.191,-16811.402,-32147.543,-18927.775,5521.8506
1318344.7210288502,-102430.09,-103095.79,-19605.916,-16477.092,-16808.838,-32151.45,-18930.299,5521.566
1318344.7250288446,-102425.46,-103092.695,-19604.94,-16476.93,-16807.943,-32154.99,-18932.984,5516.9272
1318344.729028839,-102439.86,-103102.91,-19609.457,-16481.445,-16813.396,-32157.309,-18935.67,5508.8706
1318344.7330288333,-102458.26,-103116.09,-19616.781,-16485.76,-16816.041,-32159.994,-18938.6,5503.9062
1318344.7370288277,-102448.98,-103109.5,-19613.525,-16483.807,-16813.03,-32160.93,-18938.965,5507.4463
1318344.741028822,-102429.08,-103095.18,-19608.236,-16479.98,-16807.617,-32159.14,-18935.588,5512.6143
1318344.7450288164,-102431.195,-103098.63,-19612.225,-16483.969,-16809.814,-32160.441,-18934.611,5511.19
1318344.7490288108,-102442.914,-103102.3,-19619.1,-16487.875,-16812.379,-32161.338,-18935.791,5508.789
1318344.7530288051,-102453.05,-103101.36,-19620.402,-16489.014,-16814.25,-32161.826,-18934.49,5512.004
1318344.7570287995,-102445.44,-103095.55,-19612.875,-16485.963,-16813.03,-32161.867,-18936.076,5515.7065
1318344.7610287939,-102435.06,-103090.21,-19609.13,-16484.904,-16808.838,-32162.273,-18938.111,5514.6895
1318344.7650287882,-102435.75,-103091.96,-19614.014,-16487.102,-16809.326,-32162.436,-18937.703,5515.1777
1318344.7690287826,-102448.41,-103098.27,-19619.955,-16491.74,-16813.396,-32164.145,-18937.459,5511.9224
1318344.773028777,-102461.836,-103101.484,-19625.488,-16495.24,-16812.908,-32164.268,-18938.477,5511.19
1318344.7770287714,-102459.516,-103097.91,-19623.494,-16492.146,-16807.332,-32163.656,-18938.191,5515.5845
1318344.7810287657,-102447.92,-103091.23,-19621.705,-16489.217,-16805.096,-32162.273,-18937.297,5518.4736
1318344.78502876,-102446.984,-103096.07,-19623.78,-16492.879,-16807.74,-32161.135,-18937.744,5517.6597
1318344.7890287545,-102462.04,-103108.6,-19628.703,-16495.24,-16808.717,-32162.72,-18939.373,5517.456
1318344.7930287488,-102473.63,-103112.43,-19633.26,-16496.297,-16806.967,-32164.877,-18942.627,5515.747
1318344.7970287432,-102462.53,-103101.04,-19628.174,-16491.74,-16803.834,-32164.715,-18942.709,5518.514
1318344.8010287376,-102446.414,-103092.414,-19621.582,-16489.705,-16804.281,-32163.25,-18941.814,5521.2812
1318344.805028732,-102447.35,-103097.375,-19622.64,-16492.879,-16809.734,-32161.703,-18940.309,5519.9385
1318344.8090287263,-102463.14,-103108.36,-19629.883,-16499.676,-16815.227,-32161.338,-18940.674,5517.334
1318344.8130287207,-102468.266,-103109.78,-19633.22,-16503.621,-16816.488,-32163.006,-18943.523,5515.3
1318344.817028715,-102462.0,-103106.29,-19630.371,-16501.344,-16816.162,-32162.559,-18944.988,5513.3467
1318344.8210287094,-102454.02,-103106.04,-19629.273,-16502.727,-16814.82,-32161.582,-18945.557,5509.6436
1318344.8250287038,-102452.35,-103109.09,-19628.541,-16502.605,-16815.512,-32159.426,-18944.58,5504.72
1318344.8290286982,-102458.945,-103109.375,-19629.762,-16504.477,-16816.65,-32160.238,-18946.9,5497.5996
1318344.8330286925,-102467.734,-103112.836,-19629.965,-16507.121,-16818.686,-32160.238,-18949.098,5496.379
1318344.837028687,-102465.58,-103108.08,-19627.727,-16505.738,-16820.395,-32161.012,-18950.766,5498.657
1318344.8410286813,-102454.19,-103101.04,-19626.547,-16502.768,-16817.871,-32159.547,-18949.139,5502.1567
1318344.8450286756,-102450.65,-103099.86,-19629.924,-16505.371,-16815.35,-32159.629,-18944.988,5503.296
1318344.84902867,-102460.82,-103107.266,-19633.22,-16509.766,-16819.092,-32160.523,-18942.627,5504.8423
1318344.8530286644,-102470.87,-103111.25,-19636.11,-16509.645,-16819.744,-32160.482,-18941.936,5503.825
1318344.8570286587,-102461.71,-103107.55,-19633.627,-16506.512,-16815.838,-32159.791,-18941.406,5505.493
1318344.861028653,-102454.305,-103105.35,-19631.062,-16503.988,-16813.72,-32160.158,-18940.715,5509.603
1318344.8650286472,-102447.92,-103099.53,-19627.85,-16503.582,-16810.344,-32158.732,-18936.809,5513.55
1318344.8690286416,-102454.51,-103101.2,-19630.818,-16506.959,-16810.547,-32158.938,-18933.27,5515.3
1318344.873028636,-102473.11,-103108.195,-19635.865,-16508.586,-16812.908,-32160.32,-18935.629,5514.2417
1318344.8770286303,-102463.625,-103098.59,-19628.947,-16503.459,-16808.105,-32161.703,-18939.982,5511.8003
1318344.8810286247,-102444.95,-103086.19,-19620.2,-16501.465,-16803.752,-32160.158,-18937.379,5518.84
1318344.885028619,-102438.27,-103082.56,-19616.578,-16501.262,-16805.705,-32160.441,-18934.49,5520.63
1318344.8890286135,-102448.125,-103092.086,-19619.588,-16503.785,-16808.432,-32163.047,-18936.564,5515.91
1318344.8930286078,-102460.695,-103099.86,-19620.973,-16505.168,-16809.57,-32165.121,-18942.342,5509.481
1318344.8970286022,-102452.64,-103093.43,-19614.91,-16501.14,-16802.205,-32163.168,-18943.318,5507.772
1318344.9010285966,-102434.98,-103080.9,-19611.37,-16495.932,-16794.271,-32160.93,-18940.797,5511.6377
1318344.905028591,-102437.99,-103083.664,-19615.316,-16498.82,-16798.463,-32160.32,-18937.012,5512.8174
1318344.9090285853,-102454.06,-103096.4,-19619.873,-16504.354,-16804.484,-32159.426,-18933.188,5511.9224
1318344.9130285797,-102463.586,-103099.57,-19620.158,-16504.03,-16803.67,-32158.57,-18928.346,5514.6895
1318344.917028574,-102454.43,-103087.32,-19616.13,-16500.652,-16796.957,-32156.252,-18926.148,5520.1826
1318344.9210285684,-102441.41,-103079.555,-19614.787,-16498.455,-16792.684,-32154.502,-18923.463,5524.577
1318344.9250285628,-102444.18,-103084.19,-19619.588,-16500.773,-16794.354,-32154.014,-18920.574,5526.693
1318344.9290285571,-102459.92,-103092.125,-19626.385,-16506.47,-16798.787,-32155.193,-18922.893,5518.84
1318344.9330285515,-102464.195,-103092.086,-19625.57,-16506.512,-16800.293,-32156.78,-18925.74,5516.683
1318344.937028546,-102456.42,-103085.45,-19619.549,-16501.994,-16796.957,-32156.129,-18926.514,5518.514
1318344.9410285403,-102443.56,-103077.234,-19615.764,-16499.309,-16795.125,-32154.787,-18926.84,5519.6533
1318344.9450285346,-102441.86,-103076.42,-19617.432,-16501.1,-16794.678,-32155.6,-18925.457,5520.5894
1318344.949028529,-102455.2,-103087.85,-19619.996,-16506.023,-16799.48,-32155.64,-18923.504,5522.5425
1318344.9530285234,-102463.586,-103088.55,-19617.96,-16505.168,-16799.643,-32155.355,-18924.48,5524.577
1318344.9570285177,-102451.83,-103074.67,-19613.484,-16501.1,-16791.79,-32155.885,-18926.27,5526.164
1318344.961028512,-102436.37,-103063.6,-19609.578,-16498.047,-16787.273,-32155.52,-18925.049,5526.693
1318344.9650285065,-102442.47,-103070.805,-19614.543,-16501.22,-16792.074,-32155.438,-18923.87,5524.414
1318344.9690285008,-102459.68,-103087.28,-19620.117,-16505.9,-16797.322,-32155.64,-18923.87,5522.583
1318344.9730284952,-102459.76,-103085.414,-19622.111,-16505.291,-16794.312,-32157.676,-18927.043,5517.253
1318344.9770284896,-102445.03,-103069.664,-19615.438,-16500.896,-16788.29,-32158.896,-18928.875,5519.043
1318344.981028484,-102436.41,-103064.86,-19613.69,-16500.326,-16787.639,-32158.611,-18931.764,5517.131
1318344.9850284783,-102430.75,-103066.49,-19613.77,-16501.18,-16789.227,-32157.92,-18932.129,5512.6143
1318344.9890284727,-102442.586,-103074.18,-19617.39,-16503.541,-16791.383,-32158.244,-18933.96,5506.0225
1318344.993028467,-102452.234,-103073.086,-19620.484,-16504.395,-16790.162,-32161.338,-18938.885,5501.709
1318344.9970284614,-102447.555,-103068.445,-19617.39,-16502.809,-16790.812,-32161.785,-18939.25,5506.3477
1318345.0010284558,-102436.89,-103063.56,-19614.217,-16499.553,-16788.371,-32158.57,-18937.338,5511.3525
1318345.0050284502,-102432.62,-103063.766,-19614.014,-16500.447,-16789.633,-32157.268,-18934.285,5512.9805
1318345.0090284445,-102445.72,-103070.97,-19615.154,-16503.906,-16796.713,-32159.182,-18935.914,5506.836
1318345.013028439,-102458.414,-103080.37,-19617.473,-16505.33,-16794.354,-32161.744,-18939.25,5499.227
1318345.0170284333,-102457.234,-103082.85,-19617.799,-16503.174,-16790.406,-32160.686,-18939.453,5500.7324
1318345.0210284276,-102451.87,-103080.94,-19618.246,-16502.32,-16789.633,-32159.262,-18938.559,5501.5464
1318345.025028422,-102455.33,-103086.23,-19621.746,-16503.582,-16793.295,-32161.012,-18938.965,5498.576
1318345.0290284164,-102465.78,-103095.22,-19625.0,-16506.43,-16796.346,-32161.662,-18940.389,5496.338
1318345.0330284107,-102481.41,-103099.04,-19625.814,-16508.871,-16796.795,-32162.03,-18940.633,5498.088
1318345.0370284051,-102472.414,-103089.07,-19620.932,-16505.494,-16790.447,-32160.605,-18935.303,5505.819
1318345.0410283995,-102450.65,-103078.49,-19614.137,-16501.953,-16787.68,-32159.385,-18932.373,5512.9395
1318345.0450283939,-102448.77,-103080.08,-19615.643,-16502.768,-16789.186,-32161.256,-18932.943,5512.777
1318345.0490283882,-102462.41,-103087.32,-19622.234,-16506.186,-16793.904,-32163.941,-18936.443,5505.0864
1318345.0530283826,-102476.28,-103093.836,-19626.709,-16508.139,-16797.852,-32162.72,-18937.135,5502.4414
1318345.057028377,-102470.18,-103090.78,-19623.861,-16505.818,-16795.41,-32161.135,-18934.773,5505.5747
1318345.0610283713,-102458.5,-103081.67,-19619.71,-16504.15,-16793.66,-32162.15,-18935.994,5508.667
1318345.0650283657,-102459.44,-103082.36,-19623.617,-16505.086,-16796.143,-32163.25,-18934.896,5510.783
1318345.06902836,-102476.2,-103090.7,-19626.994,-16509.889,-16799.48,-32165.488,-18934.979,5508.342
1318345.0730283544,-102487.1,-103094.65,-19628.582,-16511.027,-16800.416,-32167.074,-18935.75,5509.1553
1318345.0770283488,-102479.01,-103088.34,-19626.547,-16508.627,-16796.63,-32165.406,-18936.605,5513.55
1318345.0810283432,-102470.99,-103085.49,-19627.727,-16507.812,-16796.387,-32164.43,-18936.646,5516.195
1318345.0850283375,-102472.91,-103091.48,-19630.494,-16510.742,-16801.514,-32164.268,-18935.018,5516.4795
1318345.089028332,-102480.92,-103093.266,-19632.527,-16512.451,-16800.984,-32163.047,-18931.967,5517.8223
1318345.093028326,-102485.15,-103091.84,-19632.895,-16513.592,-16797.771,-32163.615,-18933.229,5512.7363
1318345.0970283204,-102475.305,-103086.34,-19626.75,-16510.092,-16792.645,-32163.738,-18936.646,5509.6846
1318345.1010283148,-102460.086,-103075.32,-19624.47,-16508.83,-16791.383,-32165.041,-18940.756,5501.831
1318345.1050283092,-102462.57,-103079.836,-19627.809,-16511.639,-16797.16,-32166.139,-18943.93,5492.6353
1318345.1090283035,-102481.24,-103091.31,-19635.457,-16516.398,-16803.06,-32167.521,-18944.58,5488.1187
1318345.113028298,-102491.83,-103095.26,-19640.707,-16517.293,-16802.246,-32168.133,-18945.436,5488.1187
1318345.1170282923,-102479.74,-103085.984,-19635.418,-16513.387,-16796.55,-32169.068,-18947.55,5490.8857
1318345.1210282866,-102467.29,-103078.78,-19629.639,-16510.662,-16792.195,-32167.889,-18946.248,5496.46
1318345.125028281,-102471.97,-103085.21,-19631.512,-16513.225,-16799.195,-32169.23,-18944.377,5502.6855
1318345.1290282754,-102485.44,-103093.875,-19633.504,-16514.771,-16802.857,-32170.045,-18943.156,5506.063
1318345.1330282697,-102491.87,-103095.7,-19636.23,-16514.771,-16802.613,-32169.598,-18943.604,5508.911
1318345.137028264,-102482.99,-103090.58,-19633.057,-16514.16,-16797.566,-32169.68,-18946.656,5511.312
1318345.1410282585,-102473.76,-103087.04,-19632.283,-16514.324,-16795.574,-32167.807,-18945.436,5515.747
1318345.1450282529,-102478.11,-103089.766,-19637.777,-16515.422,-16799.398,-32167.238,-18945.271,5513.8755
1318345.1490282472,-102486.25,-103091.84,-19640.666,-16516.643,-16797.566,-32167.889,-18947.348,5510.173
1318345.1530282416,-102494.8,-103094.445,-19642.498,-16517.904,-16795.98,-32169.963,-18951.904,5508.8706
1318345.157028236,-102484.945,-103089.69,-19639.242,-16513.348,-16793.945,-32171.713,-18954.143,5508.1787
1318345.1610282303,-102469.37,-103079.51,-19633.465,-16509.156,-16792.033,-32171.021,-18952.557,5511.5967
1318345.1650282247,-102471.805,-103081.914,-19636.068,-16510.701,-16799.969,-32170.656,-18948.61,5512.9805
1318345.169028219,-102491.01,-103094.32,-19641.56,-16516.684,-16805.623,-32171.307,-18948.242,5511.76
1318345.1730282134,-102492.76,-103092.695,-19641.113,-16514.242,-16803.549,-32170.98,-18946.697,5513.713
1318345.1770282078,-102480.92,-103083.46,-19635.174,-16509.562,-16800.863,-32171.672,-18947.592,5514.974
1318345.1810282022,-102476.73,-103083.78,-19634.725,-16508.871,-16799.643,-32172.69,-18952.19,5511.9224
1318345.1850281965,-102479.336,-103092.29,-19638.55,-16511.719,-16804.24,-32174.318,-18955.607,5506.9175
1318345.189028191,-102487.76,-103097.7,-19642.213,-16514.852,-16806.438,-32174.277,-18954.549,5503.9062
1318345.1930281853,-102499.31,-103098.06,-19646.078,-16515.137,-16801.596,-32174.684,-18953.857,5505.7783
1318345.1970281797,-102491.91,-103089.805,-19641.684,-16511.8,-16795.818,-32173.504,-18955.73,5508.464
1318345.201028174,-102473.48,-103080.164,-19636.557,-16509.441,-16793.336,-32173.422,-18958.537,5506.3887
1318345.2050281684,-102473.02,-103081.18,-19638.836,-16514.363,-16798.055,-32174.521,-18959.229,5504.802
1318345.2090281628,-102488.125,-103088.34,-19642.701,-16518.393,-16801.678,-32174.113,-18958.455,5505.7783
1318345.2130281571,-102497.32,-103092.2,-19644.166,-16519.41,-16804.158,-32175.13,-18962.566,5502.8486
1318345.2170281515,-102492.516,-103091.19,-19641.887,-16518.678,-16805.096,-32175.945,-18966.064,5498.576
1318345.2210281459,-102481.53,-103088.14,-19641.684,-16517.01,-16802.979,-32172.934,-18963.094,5501.384
1318345.2250281402,-102479.45,-103089.84,-19642.213,-16518.148,-16806.926,-32172.893,-18960.408,5503.174
1318345.2290281346,-102488.65,-103096.36,-19645.71,-16521.973,-16809.938,-32174.236,-18960.938,5501.0176
1318345.233028129,-102495.04,-103094.445,-19645.549,-16522.705,-16806.723,-32175.416,-18961.467,5504.9644
1318345.2370281233,-102490.484,-103087.85,-19642.213,-16519.246,-16804.646,-32175.54,-18962.81,5510.0913
1318345.2410281177,-102476.97,-103080.04,-19638.754,-16514.73,-16803.467,-32174.846,-18961.06,5517.456
1318345.245028112,-102479.01,-103082.93,-19643.19,-16517.904,-16812.176,-32173.87,-18958.375,5517.9443
1318345.2490281065,-102499.88,-103102.22,-19652.67,-16525.717,-16817.912,-32173.016,-18955.525,5516.805
1318345.2530281008,-102510.54,-103108.766,-19654.217,-16527.344,-16817.506,-32172.486,-18955.525,5517.09
1318345.2570280952,-102492.35,-103094.61,-19646.363,-16521.973,-16809.611,-32170.777,-18957.602,5518.84
1318345.2610280896,-102477.18,-103083.414,-19641.602,-16519.002,-16808.105,-32169.963,-18960.246,5522.461
1318345.265028084,-102479.945,-103085.37,-19642.09,-16522.055,-16813.72,-32169.883,-18958.984,5522.583
1318345.2690280783,-102491.3,-103092.125,-19643.84,-16525.066,-16820.232,-32171.389,-18960.531,5519.328
1318345.2730280727,-102496.99,-103093.836,-19645.184,-16523.234,-16819.133,-32174.195,-18965.7,5517.0493
1318345.277028067,-102489.914,-103085.01,-19640.87,-16520.428,-16816.691,-32175.457,-18971.72,5513.2246
1318345.2810280614,-102477.42,-103077.03,-19639.648,-16518.719,-16813.559,-32172.934,-18972.006,5513.4277
1318345.2850280558,-102480.72,-103081.305,-19643.596,-16522.543,-16817.098,-32171.51,-18970.297,5511.7188
1318345.2890280501,-102491.13,-103089.234,-19645.916,-16527.059,-16823.201,-32173.137,-18969.238,5510.3354
1318345.2930280445,-102497.44,-103091.92,-19644.328,-16526.45,-16821.574,-32174.033,-18970.906,5508.789
1318345.2970280389,-102490.805,-103087.28,-19641.684,-16525.188,-16820.354,-32175.54,-18973.756,5506.755
1318345.3010280333,-102482.14,-103080.28,-19639.893,-16524.334,-16820.557,-32175.375,-18973.47,5509.359
1318345.3050280276,-102486.78,-103085.78,-19641.154,-16526.164,-16823.812,-32176.76,-18972.127,5509.8066
1318345.309028022,-102494.71,-103091.48,-19643.963,-16527.059,-16824.219,-32179.201,-18973.836,5508.1787
1318345.3130280164,-102495.37,-103088.016,-19642.049,-16524.74,-16824.627,-32180.258,-18976.4,5509.847
1318345.3170280107,-102486.45,-103077.15,-19639.445,-16521.443,-16819.824,-32178.508,-18978.354,5510.5796
1318345.3210280049,-102477.586,-103069.42,-19636.354,-16520.102,-16817.22,-32177.207,-18977.336,5516.5205
1318345.3250279992,-102477.91,-103075.195,-19636.922,-16522.055,-16823.771,-32176.271,-18975.3,5517.009
1318345.3290279936,-102490.12,-103084.27,-19640.87,-16525.838,-16827.434,-32178.469,-18979.168,5513.2246
1318345.333027988,-102495.69,-103084.234,-19638.998,-16526.938,-16826.863,-32179.934,-18983.766,5511.312
1318345.3370279823,-102484.42,-103080.61,-19633.545,-16523.072,-16825.887,-32179.322,-18986.451,5513.021
1318345.3410279767,-102471.48,-103075.24,-19632.08,-16520.955,-16824.342,-32178.428,-18986.775,5513.2246
1318345.345027971,-102475.34,-103079.19,-19638.225,-16524.496,-16829.06,-32178.387,-18986.004,5510.8237
1318345.3490279655,-102491.3,-103087.41,-19643.799,-16528.402,-16831.951,-32178.834,-18985.107,5505.941
1318345.3530279598,-102504.11,-103092.33,-19645.793,-16530.03,-16829.102,-32179.404,-18987.06,5502.075
1318345.3570279542,-102494.71,-103084.92,-19642.13,-16525.838,-16821.818,-32179.16,-18986.572,5505.6562
1318345.3610279486,-102481.24,-103073.695,-19637.248,-16522.055,-16820.639,-32179.201,-18985.637,5509.237
1318345.365027943,-102483.32,-103082.195,-19639.242,-16526.326,-16825.928,-32179.281,-18981.771,5511.068
1318345.3690279373,-102494.59,-103089.84,-19644.002,-16530.885,-16828.898,-32179.16,-18982.463,5508.2603
1318345.3730279317,-102496.14,-103087.445,-19645.143,-16529.094,-16825.604,-32180.99,-18985.148,5506.1035
1318345.377027926,-102485.97,-103080.164,-19643.434,-16525.188,-16823.445,-32182.7,-18986.572,5507.0396
1318345.3810279204,-102476.766,-103078.17,-19639.404,-16523.113,-16820.436,-32180.99,-18984.09,5511.76
1318345.3850279148,-102479.336,-103087.734,-19637.86,-16524.414,-16823.486,-32180.258,-18977.824,5515.4624
1318345.3890279091,-102494.76,-103097.91,-19641.398,-16530.518,-16829.998,-32180.87,-18977.092,5513.4688
1318345.3930279035,-102499.11,-103093.34,-19638.428,-16528.688,-16826.904,-32180.787,-18980.266,5510.8237
1318345.3970278979,-102482.83,-103070.234,-19631.186,-16521.078,-16815.553,-32181.275,-18980.916,5512.573
1318345.4010278923,-102464.4,-103058.15,-19624.594,-16517.334,-16809.285,-32182.375,-18978.963,5513.5093
1318345.4050278866,-102467.33,-103056.52,-19628.256,-16520.467,-16809.734,-32180.625,-18975.383,5514.1196
1318345.409027881,-102487.8,-103067.875,-19635.254,-16527.059,-16816.814,-32179.322,-18976.156,5511.0273
1318345.4130278754,-102498.375,-103073.98,-19637.371,-16528.605,-16822.145,-32180.422,-18979.168,5506.307
1318345.4170278697,-102487.23,-103065.92,-19633.504,-16524.373,-16813.72,-32181.275,-18981.445,5507.9346
1318345.421027864,-102475.43,-103058.39,-19629.762,-16519.979,-16809.164,-32181.926,-18978.8,5516.7236
1318345.4250278585,-102479.375,-103062.5,-19632.568,-16522.46,-16814.412,-32182.822,-18976.93,5515.5845
1318345.4290278528,-102490.36,-103068.93,-19635.254,-16526.775,-16818.318,-32183.92,-18976.521,5511.19
1318345.4330278472,-102494.914,-103070.84,-19634.93,-16525.799,-16819.906,-32185.508,-18981.324,5507.1616
1318345.4370278416,-102485.4,-103065.35,-19631.023,-16521.078,-16818.4,-32187.217,-18983.725,5507.772
1318345.441027836,-102473.02,-103057.13,-19625.936,-16518.637,-16817.994,-32186.77,-18981.893,5512.573
1318345.4450278303,-102470.586,-103053.39,-19626.709,-16521.77,-16816.447,-32187.705,-18979.777,5514.8115
1318345.4490278247,-102482.95,-103060.55,-19632.365,-16525.92,-16817.098,-32191.203,-18980.836,5511.2305
1318345.453027819,-102488.94,-103064.78,-19632.691,-16525.717,-16817.303,-32192.344,-18981.486,5511.1494
1318345.4570278134,-102479.086,-103056.36,-19629.883,-16522.746,-16817.342,-32191.691,-18981.527,5511.0273
1318345.4610278078,-102462.445,-103046.02,-19629.436,-16520.71,-16811.28,-32191.611,-18981.242,5511.9224
1318345.4650278022,-102463.055,-103048.99,-19633.465,-16523.926,-16811.402,-32191.977,-18978.76,5511.19
1318345.4690277965,-102482.99,-103062.09,-19642.01,-16528.28,-16816.691,-32194.297,-18978.11,5508.301
1318345.473027791,-102490.69,-103066.98,-19643.23,-16529.053,-16816.53,-32193.441,-18977.865,5507.9756
1318345.4770277853,-102481.61,-103057.91,-19636.11,-16525.39,-16812.867,-32191.936,-18977.377,5510.783
1318345.4810277796,-102468.47,-103048.26,-19629.68,-16523.438,-16808.025,-32192.506,-18977.215,5512.4106
1318345.485027774,-102465.3,-103046.92,-19631.389,-16526.043,-16809.773,-32194.094,-18976.604,5514.5264
1318345.4890277684,-102480.23,-103053.63,-19637.045,-16529.705,-16815.105,-32194.703,-18977.824,5513.55
1318345.4930277627,-102491.7,-103056.484,-19642.213,-16530.314,-16813.6,-32195.68,-18981.242,5513.3467
1318345.497027757,-102481.94,-103051.19,-19636.271,-16526.408,-16807.049,-32193.441,-18981.365,5516.4795
1318345.5010277515,-102468.914,-103047.57,-19634.562,-16526.082,-16805.258,-32190.309,-18978.354,5520.101
1318345.5050277459,-102479.29,-103060.305,-19641.195,-16531.291,-16812.947,-32188.193,-18974.691,5521.0776
1318345.5090277402,-102495.32,-103071.74,-19646.566,-16535.889,-16821.33,-32190.268,-18977.906,5515.0557
1318345.5130277346,-102499.27,-103070.31,-19644.613,-16535.523,-16821.127,-32192.791,-18979.168,5517.619
1318345.517027729,-102491.414,-103061.0,-19636.19,-16532.023,-16818.562,-32192.668,-18978.516,5521.688
1318345.5210277233,-102480.836,-103058.92,-19632.61,-16532.35,-16821.248,-32191.408,-18977.703,5525.0654
1318345.5250277177,-102482.75,-103064.25,-19637.045,-16536.988,-16828.736,-32192.344,-18978.191,5525.1875
1318345.529027712,-102497.84,-103072.47,-19642.416,-16542.318,-16833.13,-32194.094,-18978.924,5520.915
1318345.5330277064,-102502.24,-103073.2,-19642.537,-16542.115,-16831.096,-32198.162,-18984.457,5516.0728
1318345.5370277008,-102494.19,-103064.984,-19642.09,-16538.494,-16826.416,-32200.4,-18988.81,5514.6895
1318345.5410276952,-102482.38,-103055.87,-19639.73,-16535.36,-16821.941,-32199.098,-18988.12,5517.4155
1318345.5450276895,-102482.18,-103058.72,-19642.822,-16539.55,-16826.254,-32199.627,-18987.387,5517.7
1318345.5490276837,-102499.02,-103071.66,-19648.805,-16544.842,-16833.375,-32200.156,-18989.746,5511.8003
1318345.553027678,-102514.734,-103078.74,-19651.002,-16546.307,-16835.287,-32202.19,-18995.646,5502.645
1318345.5570276724,-102501.266,-103067.38,-19644.451,-16542.889,-16830.445,-32203.248,-19000.691,5498.7793
1318345.5610276668,-102479.984,-103052.45,-19638.754,-16539.754,-16821.533,-32201.783,-18998.17,5501.2207
1318345.5650276612,-102484.58,-103060.8,-19639.607,-16543.945,-16824.178,-32199.79,-18994.385,5499.105
1318345.5690276555,-102502.98,-103073.57,-19643.678,-16549.357,-16828.533,-32201.621,-18998.414,5489.746
1318345.57302765,-102506.35,-103073.57,-19645.752,-16549.928,-16826.742,-32201.945,-18998.78,5487.8745
1318345.5770276443,-102500.86,-103069.5,-19645.955,-16548.707,-16822.469,-32198.324,-18997.479,5488.5254
1318345.5810276386,-102492.44,-103064.7,-19645.102,-16550.578,-16823.406,-32196.615,-18999.676,5488.3223
1318345.585027633,-102500.734,-103074.38,-19648.926,-16556.031,-16831.096,-32198.691,-19001.1,5484.497
1318345.5890276274,-102514.9,-103077.97,-19652.67,-16558.96,-16835.205,-32197.348,-18999.35,5485.6367
1318345.5930276217,-102511.766,-103070.03,-19651.611,-16558.188,-16833.822,-32197.959,-19000.53,5485.6367
1318345.597027616,-102502.61,-103060.914,-19647.38,-16554.607,-16830.322,-32197.104,-19001.832,5486.8574
1318345.6010276105,-102497.27,-103058.15,-19647.096,-16554.078,-16827.963,-32194.541,-19000.611,5490.8447
1318345.6050276048,-102498.87,-103062.7,-19650.879,-16558.39,-16832.846,-32193.93,-18998.7,5495.321
1318345.6090275992,-102512.945,-103071.695,-19656.982,-16563.559,-16836.06,-32194.703,-19000.57,5493.1235
1318345.6130275936,-102520.63,-103073.164,-19659.262,-16564.129,-16835.287,-32194.988,-19003.582,5491.455
1318345.617027588,-102509.445,-103066.29,-19654.135,-16561.85,-16829.305,-32194.377,-19006.715,5492.513
1318345.6210275823,-102497.44,-103059.77,-19651.531,-16560.547,-16827.027,-32194.012,-19009.766,5489.7056
1318345.6250275767,-102500.77,-103066.05,-19652.508,-16565.633,-16832.113,-32193.482,-19008.871,5486.7354
1318345.629027571,-102511.68,-103072.76,-19652.752,-16570.924,-16835.816,-32192.059,-19006.307,5485.962
1318345.6330275654,-102515.51,-103071.45,-19652.14,-16571.209,-16833.66,-32189.414,-19004.436,5487.834
1318345.6370275598,-102505.17,-103061.98,-19648.723,-16567.83,-16831.422,-32187.135,-19000.611,5495.7275
1318345.6410275542,-102493.82,-103053.14,-19643.596,-16564.9,-16830.73,-32183.39,-18995.688,5502.2383
1318345.6450275485,-102501.67,-103060.47,-19647.87,-16568.562,-16836.914,-32181.357,-18990.967,5503.3774
1318345.649027543,-102517.87,-103068.89,-19652.588,-16572.55,-16838.502,-32179.81,-18987.793,5503.1333
1318345.6530275373,-102521.41,-103070.16,-19652.182,-16572.592,-16835.49,-32177.37,-18986.207,5503.9062
1318345.6570275316,-102508.99,-103062.14,-19645.346,-16568.768,-16834.229,-32177.492,-18986.898,5505.9004
1318345.661027526,-102497.766,-103056.805,-19643.31,-16567.342,-16832.234,-32177.248,-18985.271,5507.9756
1318345.6650275204,-102506.836,-103065.96,-19647.543,-16571.533,-16835.938,-32176.799,-18984.01,5504.7607
1318345.6690275148,-102517.54,-103068.41,-19647.42,-16573.934,-16839.764,-32178.102,-18986.166,5501.953
1318345.6730275091,-102520.63,-103062.664,-19645.223,-16572.674,-16839.314,-32177.41,-18987.428,5503.052
1318345.6770275035,-102514.0,-103057.09,-19641.357,-16571.9,-16836.508,-32176.31,-18986.125,5504.883
1318345.6810274979,-102502.24,-103054.08,-19641.357,-16570.477,-16833.822,-32177.37,-18987.387,5505.4526
1318345.6850274922,-102509.08,-103063.195,-19647.746,-16574.83,-16840.129,-32179.12,-18989.34,5502.116
1318345.6890274866,-102523.84,-103069.91,-19651.734,-16578.654,-16844.727,-32181.275,-18990.52,5498.21
1318345.693027481,-102526.77,-103068.445,-19652.629,-16578.654,-16844.076,-32183.27,-18993.611,5497.8843
1318345.6970274753,-102515.1,-103060.1,-19648.357,-16574.342,-16839.479,-32182.62,-18993.367,5502.889
1318345.7010274697,-102502.52,-103055.055,-19646.322,-16571.818,-16836.305,-32182.74,-18990.52,5507.6094
1318345.705027464,-102511.03,-103062.38,-19649.334,-16573.61,-16840.496,-32182.578,-18989.422,5506.5107
1318345.7090274584,-102522.14,-103065.96,-19648.805,-16575.277,-16844.768,-32184.002,-18989.46,5506.958
1318345.7130274528,-102520.96,-103064.45,-19648.316,-16574.545,-16843.873,-32185.832,-18990.723,5507.5684
1318345.7170274472,-102507.37,-103055.664,-19644.246,-16571.533,-16839.152,-32184.979,-18990.438,5510.9863
1318345.7210274416,-102493.164,-103048.305,-19641.072,-16570.883,-16838.42,-32181.887,-18986.451,5515.0557
1318345.725027436,-102492.68,-103050.5,-19642.09,-16572.998,-16842.652,-32181.154,-18981.812,5516.9272
1318345.7290274303,-102513.59,-103067.914,-19650.473,-16578.898,-16850.871,-32181.52,-18979.207,5515.0146
1318345.7330274247,-102529.75,-103076.42,-19656.414,-16581.584,-16850.953,-32183.596,-18980.957,5509.603
1318345.737027419,-102513.875,-103052.086,-19651.246,-16573.812,-16840.535,-32185.549,-18983.074,5505.0864
1318345.7410274134,-102498.82,-103038.86,-19648.967,-16569.988,-16833.984,-32185.71,-18983.48,5503.825
1318345.7450274078,-102512.414,-103052.734,-19655.152,-16575.562,-16839.967,-32186.932,-18984.05,5500.8545
1318345.7490274021,-102528.81,-103058.516,-19660.809,-16579.021,-16844.768,-32191.447,-18988.525,5493.327
1318345.7530273965,-102531.91,-103057.7,-19662.11,-16574.992,-16845.174,-32192.262,-18989.584,5492.961
1318345.7570273909,-102522.625,-103053.59,-19660.889,-16573.527,-16843.588,-32191.814,-18989.096,5494.995
1318345.7610273852,-102514.61,-103047.94,-19658.367,-16572.225,-16841.105,-32192.344,-18987.996,5497.4775
1318345.7650273796,-102520.35,-103054.445,-19660.32,-16576.13,-16846.762,-32193.035,-18984.822,5495.6055
1318345.769027374,-102536.83,-103067.02,-19666.545,-16581.055,-16852.295,-32194.053,-18984.09,5495.5244
1318345.7730273684,-102544.84,-103070.93,-19669.148,-16581.828,-16855.145,-32195.395,-18987.305,5495.5244
1318345.7770273625,-102532.43,-103059.695,-19664.633,-16579.021,-16852.295,-32197.512,-18987.469,5501.9126
1318345.7810273569,-102514.65,-103052.29,-19662.273,-16576.498,-16849.08,-32197.715,-18984.295,5512.2886
1318345.7850273512,-102524.984,-103060.305,-19667.521,-16580.242,-16851.686,-32197.55,-18981.121,5517.904
1318345.7890273456,-102542.89,-103071.45,-19674.113,-16585.043,-16854.86,-32197.348,-18981.04,5517.7817
1318345.79302734,-102541.914,-103070.44,-19671.59,-16585.164,-16857.951,-32196.9,-18982.79,5514.486
1318345.7970273343,-102535.89,-103064.45,-19666.992,-16581.91,-16856.69,-32196.453,-18985.23,5512.329
1318345.8010273287,-102525.72,-103056.52,-19661.988,-16577.312,-16854.492,-32199.139,-18987.02,5511.7188
1318345.805027323,-102530.16,-103058.39,-19665.854,-16578.898,-16857.38,-32200.725,-18984.742,5510.8237
1318345.8090273174,-102541.06,-103063.32,-19670.654,-16582.154,-16860.719,-32200.889,-18984.945,5505.2085
1318345.8130273118,-102542.65,-103061.164,-19671.59,-16581.38,-16859.01,-32202.719,-18986.816,5499.1865
1318345.8170273062,-102535.16,-103055.55,-19668.092,-16579.102,-16854.615,-32203.98,-18991.13,5494.507
1318345.8210273006,-102527.8,-103055.09,-19667.521,-16579.754,-16855.307,-32205.201,-18994.02,5491.577
1318345.825027295,-102532.516,-103061.65,-19670.166,-16582.805,-16860.23,-32205.04,-18993.246,5491.4146
1318345.8290272893,-102547.24,-103071.54,-19673.178,-16586.385,-16864.787,-32203.654,-18991.62,5492.025
1318345.8330272837,-102550.91,-103076.664,-19672.242,-16586.223,-16869.385,-32205.08,-18997.844,5483.032
1318345.837027278,-102536.91,-103068.32,-19669.88,-16582.195,-16867.27,-32207.277,-19004.191,5476.4
1318345.8410272724,-102524.13,-103058.96,-19670.695,-16580.852,-16865.357,-32205.73,-19002.32,5483.846
1318345.8450272668,-102534.305,-103068.61,-19676.717,-16584.717,-16868.734,-32203.533,-18999.838,5484.4565
1318345.8490272611,-102555.625,-103085.086,-19682.332,-16590.21,-16874.023,-32206.26,-19002.32,5478.6787
1318345.8530272555,-102558.84,-103079.96,-19681.438,-16588.746,-16874.47,-32210.49,-19008.016,5474.4062
1318345.8570272499,-102548.914,-103068.32,-19675.252,-16584.352,-16870.158,-32209.19,-19006.186,5479.9805
1318345.8610272442,-102543.17,-103066.2,-19673.219,-16583.74,-16866.293,-32206.057,-19001.424,5488.3223
1318345.8650272386,-102551.516,-103075.195,-19676.799,-16586.793,-16869.344,-32205.16,-18999.146,5488.2407
1318345.869027233,-102562.14,-103078.53,-19683.473,-16587.566,-16870.729,-32205.242,-19001.22,5485.3926
1318345.8730272274,-102561.37,-103069.91,-19683.594,-16586.914,-16866.822,-32207.846,-19004.68,5485.4736
1318345.8770272217,-102554.0,-103062.99,-19681.072,-16585.043,-16868.652,-32208.254,-19004.232,5488.5254
1318345.881027216,-102544.44,-103064.82,-19679.89,-16584.025,-16865.682,-32206.79,-19001.668,5493.612
1318345.8850272105,-102549.4,-103072.63,-19679.607,-16587.443,-16869.549,-32206.828,-18998.291,5494.1
1318345.8890272048,-102566.25,-103082.32,-19682.781,-16592.896,-16873.047,-32208.09,-19000.164,5490.316
1318345.8930271992,-102566.98,-103082.805,-19681.355,-16592.082,-16873.78,-32209.922,-19003.377,5490.5195
1318345.8970271936,-102555.625,-103075.08,-19674.48,-16587.566,-16869.14,-32209.19,-19003.947,5493.449
1318345.901027188,-102544.84,-103072.43,-19672.607,-16586.793,-16869.344,-32209.148,-19004.598,5495.931
1318345.9050271823,-102547.85,-103074.47,-19673.707,-16589.52,-16872.193,-32210.613,-19007.08,5495.036
1318345.9090271767,-102563.07,-103078.945,-19677.613,-16592.488,-16874.553,-32215.537,-19009.645,5489.38
1318345.913027171,-102565.07,-103076.09,-19675.537,-16591.676,-16873.943,-32218.182,-19009.889,5489.746
1318345.9170271654,-102553.555,-103068.2,-19671.102,-16589.234,-16871.826,-32217.246,-19010.498,5492.6353
1318345.9210271598,-102549.73,-103069.95,-19671.795,-16591.676,-16875.082,-32218.914,-19011.883,5489.746
1318345.9250271542,-102558.35,-103080.484,-19679.89,-16597.047,-16877.889,-32219.729,-19009.318,5489.0547
1318345.9290271485,-102574.22,-103091.8,-19685.832,-16602.133,-16884.033,-32221.314,-19007.895,5488.851
1318345.933027143,-102576.17,-103093.02,-19685.955,-16603.23,-16888.51,-32223.756,-19009.074,5489.7056
1318345.9370271373,-102564.25,-103082.73,-19683.064,-16599.773,-16885.824,-32223.268,-19008.953,5491.496
1318345.9410271316,-102556.6,-103080.125,-19681.6,-16598.674,-16886.76,-32223.47,-19009.156,5493.286
1318345.945027126,-102562.09,-103088.75,-19681.764,-16602.01,-16895.508,-32224.814,-19008.627,5491.74
1318345.9490271204,-102579.39,-103100.586,-19686.85,-16607.748,-16902.547,-32225.871,-19010.865,5488.851
1318345.9530271147,-102591.02,-103106.086,-19691.936,-16609.945,-16905.193,-32226.441,-19015.219,5486.247
1318345.957027109,-102583.375,-103099.77,-19690.838,-16606.893,-16904.46,-32226.035,-19018.27,5486.369
1318345.9610271035,-102573.29,-103096.805,-19688.72,-16606.893,-16905.07,-32227.053,-19020.06,5488.2
1318345.9650270978,-102577.6,-103101.04,-19690.064,-16610.475,-16909.832,-32225.709,-19019.125,5489.746
1318345.9690270922,-102588.55,-103103.4,-19689.494,-16612.59,-16912.068,-32224.936,-19016.928,5488.851
1318345.9730270866,-102596.766,-103108.6,-19691.082,-16612.672,-16914.348,-32223.756,-19016.195,5490.2344
1318345.977027081,-102589.07,-103107.914,-19688.396,-16611.37,-16917.033,-32221.518,-19015.3,5491.252
1318345.9810270753,-102579.266,-103098.48,-19684.814,-16610.88,-16916.951,-32220.785,-19015.38,5492.5537
1318345.9850270697,-102587.12,-103103.03,-19689.576,-16616.863,-16926.148,-32221.762,-19014.893,5491.74
1318345.989027064,-102601.69,-103118.86,-19696.615,-16622.396,-16928.467,-32221.965,-19018.352,5485.881
1318345.9930270584,-102602.586,-103118.9,-19699.057,-16622.885,-16929.078,-32222.658,-19025.514,5477.6206
1318345.9970270528,-102587.85,-103109.5,-19693.318,-16617.31,-16925.904,-32222.373,-19029.988,5475.7896
1318346.0010270472,-102577.766,-103107.266,-19689.373,-16615.764,-16923.299,-32219.729,-19029.705,5476.888
1318346.0050270413,-102583.984,-103112.15,-19692.953,-16619.426,-16927.857,-32218.873,-19028.523,5473.796
1318346.0090270357,-102595.99,-103117.92,-19698.527,-16622.479,-16934.734,-32220.46,-19028.158,5472.29
1318346.01302703,-102595.586,-103115.93,-19698.162,-16621.379,-16936.443,-32220.135,-19026.043,5474.162
1318346.0170270244,-102583.78,-103109.09,-19692.303,-16617.96,-16936.85,-32217.164,-19024.496,5478.801
1318346.0210270188,-102573.41,-103106.164,-19689.088,-16616.578,-16934.938,-32214.967,-19021.484,5481.9336
1318346.0250270132,-102579.72,-103108.85,-19692.22,-16620.605,-16935.914,-32216.105,-19019.979,5482.2188
1318346.0290270075,-102588.3,-103112.63,-19693.604,-16622.396,-16938.885,-32217.002,-19018.434,5482.137
1318346.033027002,-102586.836,-103111.29,-19689.738,-16618.652,-16937.908,-32215.658,-19016.602,5483.48
1318346.0370269963,-102582.195,-103107.18,-19689.209,-16615.682,-16931.844,-32214.438,-19015.34,5487.915
1318346.0410269906,-102572.8,-103102.055,-19690.186,-16614.666,-16932.414,-32214.602,-19014.404,5491.2925
1318346.045026985,-102568.12,-103102.3,-19688.924,-16617.514,-16938.03,-32217.693,-19015.178,5488.729
1318346.0490269794,-102573.0,-103103.48,-19688.762,-16620.037,-16940.838,-32218.264,-19016.398,5481.9336
1318346.0530269737,-102582.85,-103107.95,-19689.617,-16619.752,-16942.424,-32215.861,-19016.766,5479.492
1318346.057026968,-102572.76,-103098.76,-19687.947,-16614.502,-16937.867,-32215.578,-19019.002,5480.957
1318346.0610269625,-102556.484,-103091.96,-19682.658,-16611.898,-16935.223,-32216.635,-19019.328,5480.754
1318346.0650269568,-102567.75,-103101.32,-19685.832,-16614.91,-16941.61,-32216.229,-19015.137,5483.1953
1318346.0690269512,-102583.74,-103115.03,-19690.594,-16618.408,-16947.836,-32217.896,-19014.934,5481.893
1318346.0730269456,-102576.79,-103109.17,-19687.785,-16617.188,-16945.271,-32219.523,-19016.398,5482.341
1318346.07702694,-102566.0,-103097.05,-19683.105,-16613.16,-16936.85,-32217.979,-19013.957,5489.1357
1318346.0810269343,-102559.05,-103092.9,-19680.664,-16612.508,-16933.553,-32217.002,-19012.736,5493.0015
1318346.0850269287,-102563.52,-103095.18,-19684.408,-16615.438,-16934.896,-32219.32,-19015.34,5486.5317
1318346.089026923,-102578.58,-103099.9,-19691.406,-16619.14,-16934.53,-32219.523,-19014.771,5486.9795
1318346.0930269174,-102582.484,-103101.85,-19691.203,-16617.432,-16934.979,-32218.914,-19015.26,5485.6772
1318346.0970269118,-102578.17,-103097.336,-19687.338,-16612.428,-16931.479,-32218.182,-19013.55,5489.3394
1318346.1010269062,-102566.695,-103089.805,-19682.861,-16611.125,-16928.996,-32219.035,-19014.893,5487.5083
1318346.1050269005,-102572.02,-103091.19,-19683.025,-16613.77,-16931.64,-32221.314,-19016.154,5486.206
1318346.109026895,-102591.64,-103101.73,-19688.844,-16617.596,-16936.809,-32224.895,-19019.816,5483.5205
1318346.1130268893,-102596.07,-103100.34,-19687.744,-16617.025,-16934.814,-32227.744,-19020.346,5481.6084
1318346.1170268836,-102583.664,-103090.78,-19683.188,-16613.852,-16930.055,-32227.256,-19017.578,5484.8228
1318346.121026878,-102581.14,-103091.19,-19680.258,-16612.834,-16931.64,-32225.18,-19014.12,5487.59
1318346.1250268724,-102591.88,-103102.7,-19684.611,-16617.352,-16937.947,-32224.367,-19013.104,5485.881
1318346.1290268668,-102602.87,-103106.445,-19688.6,-16620.564,-16938.273,-32225.059,-19011.963,5484.172
1318346.1330268611,-102598.35,-103103.6,-19685.506,-16618.084,-16937.053,-32222.78,-19009.4,5483.846
1318346.1370268555,-102582.805,-103092.49,-19681.56,-16614.055,-16934.164,-32219.035,-19004.314,5489.0547
1318346.1410268499,-102571.66,-103090.7,-19679.525,-16614.502,-16935.018,-32218.344,-19002.809,5489.624
1318346.1450268442,-102579.51,-103100.38,-19684.326,-16618.205,-16939.494,-32219.605,-19004.07,5488.2407
1318346.1490268386,-102596.6,-103108.97,-19688.191,-16621.094,-16943.523,-32219.85,-19003.865,5485.067
1318346.153026833,-102596.64,-103101.81,-19685.223,-16618.734,-16940.715,-32220.5,-19005.615,5486.654
1318346.1570268273,-102579.72,-103091.02,-19680.46,-16614.46,-16935.955,-32220.541,-19006.389,5492.3506
1318346.1610268217,-102574.305,-103085.45,-19679.402,-16612.59,-16932.7,-32220.012,-19002.156,5500.244
1318346.165026816,-102584.11,-103087.94,-19680.543,-16615.154,-16935.67,-32220.094,-18998.373,5500.7324
1318346.1690268104,-102592.9,-103097.91,-19682.82,-16616.008,-16934.979,-32221.844,-18998.414,5499.1865
1318346.1730268048,-102598.06,-103100.23,-19685.059,-16615.316,-16935.873,-32225.303,-19002.32,5498.047
1318346.1770267992,-102589.32,-103093.67,-19682.332,-16612.02,-16933.758,-32227.865,-19005.78,5495.9717
1318346.1810267936,-102578.53,-103088.75,-19681.031,-16611.654,-16931.64,-32226.93,-19004.883,5498.9014
1318346.185026788,-102588.18,-103096.6,-19686.361,-16616.455,-16936.035,-32226.93,-19002.809,5499.878
1318346.1890267823,-102597.25,-103103.234,-19688.396,-16618.896,-16938.07,-32226.523,-19002.97,5499.8374
1318346.1930267767,-102597.25,-103099.37,-19685.71,-16616.902,-16935.506,-32226.727,-19006.186,5495.2393
1318346.197026771,-102591.19,-103091.88,-19682.984,-16612.752,-16934.205,-32227.215,-19007.812,5497.274
1318346.2010267654,-102581.18,-103085.01,-19678.793,-16611.98,-16932.658,-32224.855,-19004.354,5503.3774
1318346.2050267598,-102590.62,-103091.02,-19681.926,-16616.496,-16936.402,-32224.123,-19000.285,5505.127
1318346.2090267541,-102607.95,-103100.836,-19689.494,-16619.223,-16940.186,-32224.895,-18999.92,5505.5747
1318346.2130267485,-102610.64,-103101.36,-19694.58,-16618.45,-16941.57,-32225.791,-19001.629,5502.8486
1318346.2170267429,-102597.3,-103091.39,-19688.518,-16614.543,-16939.047,-32224.895,-19000.936,5503.988
1318346.2210267372,-102584.68,-103086.914,-19683.879,-16613.648,-16937.541,-32222.373,-18996.217,5511.0273
1318346.2250267316,-102592.0,-103097.01,-19685.182,-16618.287,-16941.61,-32221.438,-18992.432,5514.1196
1318346.229026726,-102601.16,-103103.195,-19687.541,-16621.582,-16943.768,-32222.738,-18993.652,5513.021
1318346.2330267201,-102602.13,-103100.305,-19687.459,-16620.564,-16941.57,-32223.715,-18997.926,5509.359
1318346.2370267145,-102597.414,-103095.91,-19686.85,-16616.537,-16939.82,-32225.424,-19001.1,5509.481
1318346.2410267089,-102586.39,-103090.05,-19685.75,-16614.422,-16941.285,-32227.215,-19002.686,5508.1787
1318346.2450267032,-102591.84,-103095.34,-19689.861,-16617.514,-16946.29,-32226.115,-19000.977,5509.603
1318346.2490266976,-102598.11,-103100.266,-19692.791,-16620.85,-16947.55,-32227.744,-19001.832,5512.329
1318346.253026692,-102588.46,-103092.29,-19689.047,-16618.287,-16941.162,-32230.918,-19005.9,5510.376
1318346.2570266863,-102577.195,-103081.71,-19683.676,-16616.658,-16936.688,-32233.236,-19007.691,5511.9224
1318346.2610266807,-102575.56,-103081.1,-19685.1,-16616.293,-16935.385,-32232.139,-19006.227,5515.788
1318346.265026675,-102588.14,-103095.42,-19690.838,-16620.037,-16941.895,-32234.457,-19007.0,5512.8174
1318346.2690266694,-102602.016,-103097.336,-19691.61,-16620.158,-16943.238,-32238.201,-19010.58,5505.819
1318346.2730266638,-102594.85,-103087.12,-19686.97,-16616.13,-16939.697,-32240.44,-19014.934,5498.6167
1318346.2770266582,-102576.13,-103074.79,-19682.088,-16611.084,-16932.82,-32239.951,-19016.846,5497.5586
1318346.2810266525,-102565.8,-103069.09,-19681.844,-16609.578,-16929.484,-32239.543,-19014.934,5500.57
1318346.285026647,-102573.695,-103074.836,-19687.256,-16613.24,-16932.943,-32240.031,-19010.824,5502.6855
1318346.2890266413,-102578.62,-103080.484,-19687.338,-16615.52,-16936.646,-32241.049,-19011.068,5500.0
1318346.2930266357,-102575.65,-103076.22,-19686.688,-16615.234,-16935.873,-32243.043,-19014.242,5496.582
1318346.29702663,-102567.586,-103071.25,-19685.223,-16614.217,-16933.879,-32242.88,-19014.201,5499.756
1318346.3010266244,-102561.52,-103072.11,-19684.408,-16615.602,-16937.256,-32242.514,-19012.004,5503.3774
1318346.3050266188,-102563.88,-103077.15,-19684.855,-16617.31,-16941.57,-32241.984,-19009.807,5502.8486
1318346.3090266131,-102572.19,-103079.96,-19688.191,-16619.14,-16944.012,-32242.025,-19010.498,5499.7153
1318346.3130266075,-102573.086,-103079.51,-19684.326,-16616.7,-16943.604,-32242.717,-19011.883,5498.2505
1318346.3170266019,-102566.49,-103074.38,-19680.867,-16613.607,-16938.03,-32242.473,-19013.51,5502.279
1318346.3210265962,-102562.5,-103076.22,-19680.543,-16615.113,-16935.344,-32243.125,-19013.225,5502.523
1318346.3250265906,-102564.91,-103075.93,-19683.35,-16617.39,-16934.57,-32244.06,-19013.104,5497.8843
1318346.329026585,-102571.91,-103076.99,-19689.78,-16619.71,-16940.389,-32245.729,-19013.754,5496.4194
1318346.3330265793,-102576.79,-103082.93,-19689.82,-16618.572,-16941.447,-32247.438,-19016.154,5497.518
1318346.3370265737,-102568.24,-103078.01,-19683.879,-16614.258,-16938.518,-32247.193,-19019.125,5498.169
1318346.341026568,-102557.5,-103071.91,-19677.898,-16613.648,-16934.53,-32246.34,-19018.88,5496.9077
1318346.3450265625,-102562.625,-103080.734,-19678.71,-16616.09,-16937.459,-32247.682,-19017.498,5498.169
1318346.3490265568,-102574.55,-103085.9,-19682.088,-16617.879,-16940.186,-32249.635,-19017.498,5500.57
1318346.3530265512,-102575.32,-103083.7,-19677.775,-16615.479,-16936.688,-32250.53,-19018.066,5500.3257
1318346.3570265456,-102564.45,-103073.9,-19673.625,-16610.88,-16930.096,-32249.635,-19017.537,5504.1914
1318346.36102654,-102555.914,-103070.64,-19673.016,-16610.516,-16927.287,-32250.326,-19017.701,5502.9707
1318346.3650265343,-102566.164,-103077.11,-19676.107,-16612.02,-16928.67,-32252.076,-19016.113,5502.4414
1318346.3690265287,-102579.59,-103086.875,-19679.484,-16613.934,-16932.537,-32251.547,-19013.184,5501.953
1318346.373026523,-102578.984,-103087.0,-19678.02,-16612.996,-16933.758,-32250.855,-19013.672,5502.1973
1318346.3770265174,-102564.945,-103076.336,-19674.275,-16612.225,-16931.193,-32250.611,-19015.137,5504.232
1318346.3810265118,-102559.45,-103076.46,-19672.363,-16612.02,-16931.64,-32251.506,-19013.266,5506.2256
1318346.3850265061,-102572.72,-103089.27,-19675.74,-16615.887,-16938.314,-32251.71,-19010.295,5506.633
1318346.3890265005,-102584.19,-103096.36,-19680.34,-16618.734,-16942.627,-32252.727,-19011.312,5504.924
1318346.393026495,-102580.9,-103092.9,-19678.467,-16618.328,-16937.215,-32251.426,-19012.41,5507.4463
1318346.3970264893,-102564.74,-103083.055,-19672.12,-16615.072,-16930.867,-32249.797,-19009.889,5511.6377
1318346.4010264836,-102562.34,-103083.664,-19675.537,-16617.879,-16934.082,-32249.92,-19008.953,5510.8237
1318346.405026478,-102580.0,-103095.75,-19682.455,-16624.268,-16943.115,-32252.035,-19009.033,5508.9927
1318346.4090264724,-102599.45,-103108.6,-19688.559,-16628.947,-16947.836,-32253.459,-19010.01,5506.9175
1318346.4130264667,-102599.45,-103105.516,-19684.49,-16625.691,-16945.924,-32251.914,-19010.174,5507.4463
1318346.417026461,-102589.805,-103098.63,-19681.234,-16622.273,-16943.807,-32253.5,-19013.021,5507.4463
1318346.4210264555,-102585.62,-103099.49,-19684.855,-16623.291,-16941.977,-32254.844,-19013.754,5508.708
1318346.4250264498,-102593.02,-103104.82,-19688.6,-16628.377,-16944.459,-32254.68,-19013.795,5506.6733
1318346.4290264442,-102606.125,-103109.664,-19695.271,-16631.307,-16949.83,-32256.145,-19015.79,5502.3604
1318346.4330264386,-102610.64,-103107.79,-19699.057,-16631.389,-16948.73,-32256.756,-19018.637,5502.4824
1318346.437026433,-102600.06,-103102.99,-19694.377,-16628.459,-16945.842,-32255.412,-19020.264,5503.2554
1318346.4410264273,-102595.87,-103103.64,-19692.627,-16628.826,-16946.9,-32256.918,-19020.428,5503.581
1318346.4450264217,-102603.16,-103109.375,-19692.83,-16631.674,-16952.23,-32257.732,-19018.637,5504.924
1318346.449026416,-102613.41,-103113.484,-19694.54,-16634.156,-16953.29,-32257.977,-19016.725,5504.5166
1318346.4530264104,-102611.125,-103109.945,-19691.854,-16632.568,-16950.318,-32257.65,-19017.578,5505.249
1318346.4570264048,-102599.98,-103100.95,-19689.168,-16629.191,-16945.639,-32256.877,-19016.357,5510.3354
1318346.461026399,-102587.61,-103094.77,-19686.158,-16629.518,-16946.492,-32255.494,-19013.957,5513.957
1318346.4650263933,-102594.69,-103102.09,-19688.72,-16633.871,-16950.928,-32257.53,-19013.916,5512.7363
1318346.4690263877,-102614.95,-103115.4,-19696.412,-16637.654,-16956.543,-32261.191,-19014.283,5510.132
1318346.473026382,-102611.734,-103111.86,-19696.248,-16636.639,-16954.59,-32264.365,-19019.246,5504.7607
1318346.4770263764,-102598.92,-103104.375,-19689.982,-16632.854,-16951.336,-32265.79,-19021.852,5504.72
1318346.4810263708,-102592.414,-103102.055,-19686.238,-16633.342,-16951.986,-32266.766,-19023.479,5505.697
1318346.4850263651,-102600.875,-103105.555,-19693.074,-16637.127,-16953.328,-32265.748,-19021.484,5506.836
1318346.4890263595,-102611.29,-103111.734,-19697.266,-16638.754,-16952.271,-32265.342,-19021.322,5505.615
1318346.493026354,-102607.47,-103104.945,-19691.57,-16635.213,-16950.398,-32265.463,-19022.584,5504.3135
1318346.4970263483,-102594.65,-103095.87,-19685.547,-16631.307,-16944.174,-32265.098,-19023.396,5507.1616
1318346.5010263426,-102586.63,-103096.6,-19686.035,-16632.65,-16945.883,-32265.871,-19022.87,5508.9927
1318346.505026337,-102593.67,-103105.31,-19690.512,-16636.678,-16949.178,-32267.904,-19021.16,5507.0396
1318346.5090263314,-102609.74,-103112.836,-19695.232,-16639.648,-16954.713,-32267.742,-19020.184,5505.2085
1318346.5130263257,-102613.164,-103112.1,-19698.162,-16638.021,-16954.387,-32267.498,-19021.81,5505.005
1318346.51702632,-102601.766,-103108.28,-19694.865,-16636.23,-16950.521,-32266.115,-19023.357,5505.9814
1318346.5210263145,-102596.16,-103108.28,-19691.447,-16636.027,-16952.475,-32264.365,-19019.654,5511.312
1318346.5250263088,-102602.42,-103113.164,-19693.441,-16641.928,-16962.281,-32264.445,-19015.178,5517.904
