timestamp,Fp1,Fp2,F3,Fz,F4,Cz,Pz,Oz
1396664.7393988548,-86266.16,-84009.04,-1290.324,37307.7,-5470.5405,11956.828,-5761.841,15746.013
1396664.7433988506,-86265.95,-84023.805,-1306.3965,37284.832,-5488.1187,11952.841,-5764.201,15703.9795
1396664.7473988463,-86268.27,-84033.0,-1330.2002,37249.918,-5506.755,11942.302,-5766.683,15643.066
1396664.751398842,-86268.96,-84021.77,-1324.9512,37255.086,-5495.9717,11941.488,-5765.422,15649.984
1396664.7553988378,-86268.48,-84004.36,-1298.584,37291.91,-5470.256,11951.823,-5762.9805,15716.675
1396664.7593988338,-86266.36,-84011.72,-1286.5804,37312.95,-5464.5996,11959.147,-5762.126,15747.437
1396664.7633988296,-86264.41,-84026.695,-1304.6469,37287.234,-5484.8633,11953.044,-5766.3574,15698.527
1396664.7673988254,-86269.33,-84023.4,-1333.252,37249.105,-5503.703,11939.535,-5772.2983,15630.534
1396664.7713988211,-86263.72,-84023.52,-1327.1078,37255.453,-5484.945,11937.541,-5773.4785,15640.056
1396664.7753988171,-86261.805,-84012.33,-1297.8923,37298.42,-5460.2866,11948.364,-5771.5254,15710.571
1396664.779398813,-86265.016,-84001.1,-1285.6445,37318.2,-5461.3853,11955.607,-5770.345,15741.415
1396664.7833988087,-86264.33,-84000.53,-1302.0427,37292.81,-5483.6426,11950.236,-5768.2295,15702.841
1396664.7873988044,-86269.29,-84012.945,-1329.5898,37252.156,-5505.0864,11940.023,-5766.1543,15635.946
1396664.7913988002,-86264.77,-84028.98,-1322.1843,37262.004,-5482.137,11942.221,-5761.76,15650.473
1396664.7953987962,-86266.195,-84012.74,-1298.7468,37300.863,-5459.5137,11954.956,-5758.0566,15717.001
1396664.799398792,-86268.11,-84003.99,-1287.5164,37320.19,-5451.416,11962.729,-5759.603,15741.943
1396664.8033987877,-86274.3,-84013.63,-1304.4841,37295.777,-5474.8945,11956.177,-5763.916,15699.097
1396664.8073987835,-86281.7,-84026.86,-1329.5085,37256.39,-5498.9424,11942.261,-5769.043,15634.155
1396664.8113987795,-86281.5,-84023.484,-1323.7305,37262.574,-5490.3975,11940.756,-5767.7,15642.619
1396664.8153987753,-86275.92,-84022.38,-1296.9971,37298.098,-5469.4014,11951.701,-5762.6953,15714.844
1396664.819398771,-86273.69,-84006.43,-1285.6445,37319.297,-5466.39,11961.345,-5759.1147,15747.925
1396664.8233987668,-86278.85,-84014.24,-1303.3041,37296.793,-5491.699,11955.404,-5762.8174,15700.195
1396664.8273987626,-86279.586,-84023.89,-1326.7822,37263.1,-5505.697,11941.691,-5770.3857,15635.254
1396664.8313987586,-86277.8,-84016.28,-1316.8539,37273.64,-5488.4443,11938.11,-5772.339,15642.578
1396664.8353987543,-86278.445,-84015.42,-1288.0453,37310.953,-5463.623,11949.301,-5768.4326,15712.036
1396664.83939875,-86285.445,-84009.28,-1279.7039,37324.547,-5462.728,11956.381,-5766.6016,15738.322
1396664.8433987459,-86289.35,-84011.31,-1302.1648,37295.535,-5488.4443,11951.823,-5769.084,15684.937
1396664.8473987419,-86292.52,-84030.234,-1325.9685,37260.867,-5507.894,11941.65,-5773.3564,15621.216
1396664.8513987376,-86291.75,-84023.195,-1319.8242,37268.555,-5491.9434,11940.674,-5770.8335,15635.173
1396664.8553987334,-86286.87,-84012.33,-1292.2363,37306.926,-5467.8145,11952.475,-5764.038,15713.054
1396664.8593987292,-86290.57,-84012.86,-1282.0232,37324.87,-5463.867,11959.595,-5763.713,15740.438
1396664.863398725,-86294.72,-84025.72,-1301.9207,37303.02,-5486.898,11953.857,-5766.032,15697.836
1396664.867398721,-86296.59,-84030.16,-1329.3865,37264.69,-5502.116,11943.481,-5768.0664,15639.7705
1396664.8713987167,-86295.66,-84022.26,-1326.2533,37268.96,-5491.781,11945.068,-5765.869,15649.089
1396664.8753987125,-86294.64,-84004.16,-1299.8455,37308.72,-5463.135,11957.724,-5760.376,15722.778
1396664.8793987082,-86295.62,-84002.766,-1291.4226,37328.25,-5459.2695,11962.891,-5762.37,15745.483
1396664.8833987042,-86298.51,-84012.45,-1309.7332,37299.848,-5478.597,11952.678,-5769.7754,15694.824
1396664.8873987,-86299.4,-84020.23,-1329.305,37262.125,-5492.269,11941.65,-5772.38,15634.848
1396664.8913986958,-86293.74,-84014.734,-1321.6146,37266.805,-5472.9414,11944.174,-5765.544,15651.571
1396664.8953986915,-86293.3,-84002.12,-1296.9158,37307.863,-5439.6567,11955.7705,-5760.051,15727.214
1396664.8993986875,-86294.4,-84003.95,-1287.2314,37326.418,-5443.197,11963.705,-5758.5044,15753.703
1396664.9033986833,-86295.9,-84011.27,-1304.8096,37299.316,-5477.214,11961.996,-5760.2134,15708.13
1396664.907398679,-86296.23,-84005.58,-1329.7933,37263.023,-5492.5947,11953.166,-5759.7656,15653.85
1396664.9113986748,-86295.125,-83993.05,-1325.2361,37268.96,-5472.86,11951.945,-5754.232,15669.271
1396664.9153986706,-86292.16,-83982.914,-1300.5371,37304.445,-5443.9697,11961.874,-5748.983,15744.548
1396664.9193986666,-86295.414,-83982.83,-1287.3943,37323.977,-5438.5176,11970.378,-5747.1113,15773.886
1396664.9233986624,-86299.12,-83989.305,-1309.9365,37296.305,-5465.1694,11962.646,-5755.493,15716.513
1396664.9273986581,-86293.91,-83999.35,-1335.6934,37262.574,-5487.2236,11949.423,-5762.085,15646.892
1396664.931398654,-86286.54,-83994.67,-1328.5726,37272.707,-5461.3037,11949.626,-5762.2886,15657.715
1396664.93539865,-86285.32,-83981.125,-1299.8047,37309.33,-5431.7627,11958.374,-5760.2134,15728.516
1396664.9393986457,-86296.02,-83968.43,-1288.3301,37328.86,-5436.849,11963.867,-5761.19,15757.406
1396664.9433986414,-86288.086,-83967.37,-1302.9379,37305.137,-5456.014,11960.49,-5764.323,15713.827
1396664.9473986372,-86285.65,-83980.836,-1328.9795,37265.953,-5468.4653,11951.254,-5765.9507,15649.374
1396664.951398633,-86282.19,-83979.49,-1325.2767,37272.055,-5449.6665,11952.434,-5761.882,15664.226
1396664.955398629,-86282.836,-83967.86,-1303.4261,37310.14,-5429.647,11964.478,-5759.3994,15727.295
1396664.9593986247,-86282.72,-83970.664,-1295.2068,37326.54,-5421.916,11972.738,-5758.667,15755.127
1396664.9633986205,-86282.92,-83979.66,-1311.4014,37303.387,-5433.3496,11967.123,-5764.038,15707.438
1396664.9673986163,-86287.07,-83987.02,-1334.2693,37268.434,-5445.5566,11953.857,-5771.118,15647.339
1396664.9713986123,-86286.13,-83975.71,-1330.241,37273.562,-5436.6455,11952.189,-5770.101,15660.441
1396664.975398608,-86284.06,-83961.06,-1303.3855,37311.035,-5417.0737,11962.443,-5765.0146,15731.689
1396664.9793986038,-86289.23,-83956.38,-1291.8701,37327.273,-5414.4697,11968.303,-5763.3057,15757.8125
1396664.9833985996,-86292.73,-83960.66,-1308.3904,37302.777,-5437.907,11964.355,-5766.561,15712.729
1396664.9873985953,-86294.805,-83975.266,-1332.072,37269.9,-5458.496,11955.078,-5767.8633,15648.112
1396664.9913985913,-86289.11,-83971.68,-1325.3174,37280.273,-5443.807,11957.357,-5764.1196,15661.54
1396664.995398587,-86297.08,-83956.625,-1301.3103,37317.06,-5411.54,11967.937,-5758.138,15732.138
1396664.9993985828,-86299.97,-83957.97,-1291.3005,37334.11,-5406.3315,11974.65,-5754.5576,15762.573
1396665.0033985786,-86301.72,-83965.3,-1309.082,37307.17,-5430.0537,11970.256,-5755.249,15717.855
1396665.0073985746,-86305.586,-83967.9,-1331.95,37270.47,-5452.0674,11961.467,-5755.0864,15654.745
1396665.0113985704,-86303.02,-83963.14,-1325.6836,37278.85,-5434.448,11962.6875,-5752.8076,15670.492
1396665.0153985661,-86300.01,-83957.89,-1300.0488,37316.203,-5406.8604,11972.982,-5750.57,15743.164
1396665.019398562,-86297.85,-83966.84,-1287.6791,37336.957,-5413.7373,11976.807,-5751.1396,15771.606
1396665.023398558,-86309.86,-83975.875,-1309.1635,37310.996,-5440.023,11972.86,-5753.825,15728.109
1396665.0273985537,-86336.02,-83985.35,-1342.8549,37271.484,-5461.67,11965.292,-5754.354,15664.917
1396665.0313985494,-86315.48,-83973.555,-1335.612,37278.973,-5445.15,11962.524,-5753.662,15674.4795
1396665.0353985452,-86295.375,-83963.42,-1303.3041,37318.36,-5414.0625,11971.191,-5751.4243,15739.868
1396665.039398541,-86297.445,-83964.16,-1291.3818,37338.38,-5411.784,11977.458,-5751.506,15766.235
1396665.043398537,-86309.2,-83980.555,-1309.7332,37315.633,-5433.5127,11971.762,-5752.9297,15728.231
1396665.0473985327,-86314.17,-83988.33,-1331.8279,37277.67,-5458.7812,11962.24,-5753.8657,15671.631
1396665.0513985285,-86314.984,-83987.71,-1326.1719,37282.758,-5440.2266,11962.769,-5751.506,15689.047
1396665.0553985243,-86322.31,-83981.81,-1303.182,37318.44,-5414.3066,11974.406,-5748.454,15758.749
1396665.0593985203,-86327.88,-83974.33,-1295.9799,37335.33,-5413.574,11982.138,-5749.7153,15777.629
1396665.063398516,-86334.07,-84003.95,-1315.3076,37305.34,-5438.5986,11976.481,-5755.046,15721.518
1396665.0673985118,-86330.04,-84028.24,-1338.908,37269.613,-5458.6997,11965.536,-5757.08,15656.169
1396665.0713985076,-86325.12,-84019.53,-1332.2754,37278.402,-5449.0156,11966.757,-5752.523,15672.038
1396665.0753985033,-86327.15,-84003.5,-1306.8035,37314.7,-5423.95,11977.377,-5750.366,15742.554
1396665.0793984993,-86328.78,-84001.586,-1293.2537,37337.402,-5423.95,11982.056,-5750.692,15777.019
1396665.083398495,-86328.086,-84016.36,-1311.6049,37316.0,-5444.0107,11978.964,-5752.523,15738.647
1396665.0873984909,-86327.84,-84023.195,-1339.559,37275.88,-5456.787,11966.472,-5755.697,15668.701
1396665.0913984866,-86326.625,-84018.88,-1334.6355,37279.582,-5448.6494,11964.396,-5754.5576,15677.246
1396665.0953984826,-86324.55,-84014.41,-1308.2275,37318.727,-5432.007,11975.83,-5749.3896,15747.722
1396665.0993984784,-86325.69,-84007.33,-1293.5791,37345.133,-5423.4214,11983.969,-5750.163,15777.71
1396665.1033984742,-86334.76,-84022.38,-1311.3201,37320.395,-5440.1045,11979.899,-5754.232,15731.853
1396665.10739847,-86337.98,-84036.46,-1339.9658,37282.188,-5457.9673,11969.6455,-5757.7314,15664.633
1396665.1113984657,-86331.83,-84030.73,-1334.3914,37285.605,-5445.8823,11970.134,-5755.168,15674.072
1396665.1153984617,-86324.016,-84021.08,-1304.1179,37325.97,-5422.4043,11980.591,-5750.814,15744.345
1396665.1193984575,-86331.14,-84026.66,-1297.4854,37342.977,-5423.503,11984.985,-5750.0815,15767.456
1396665.1233984532,-86338.586,-84041.016,-1318.9697,37314.58,-5457.7637,11977.865,-5753.54,15720.459
1396665.127398449,-86333.984,-84050.5,-1341.39,37280.6,-5468.1807,11965.902,-5753.1333,15666.83
1396665.131398445,-86335.086,-84032.35,-1330.9734,37290.61,-5449.585,11965.658,-5751.75,15683.635
1396665.1353984408,-86336.96,-84022.016,-1306.2338,37329.062,-5417.928,11977.661,-5748.535,15754.883
1396665.1393984365,-86332.484,-84005.21,-1294.515,37350.14,-5412.1094,11984.863,-5748.454,15782.064
1396665.1433984323,-86337.52,-84017.01,-1313.1511,37323.49,-5436.157,11980.754,-5749.2676,15736.247
1396665.147398428,-86336.51,-84041.38,-1337.321,37283.367,-5457.927,11969.523,-5752.4824,15671.306
1396665.151398424,-86331.34,-84043.74,-1333.6589,37287.844,-5456.177,11966.309,-5755.697,15673.747
1396665.1553984198,-86327.97,-84029.42,-1305.2166,37335.367,-5429.281,11978.679,-5751.628,15742.514
1396665.1593984156,-86332.4,-84025.02,-1291.7888,37355.31,-5418.376,11986.816,-5748.983,15776.489
1396665.1633984114,-86347.414,-84036.3,-1307.8613,37324.547,-5436.849,11980.347,-5751.587,15731.201
1396665.1673984074,-86348.555,-84042.445,-1330.241,37292.523,-5456.421,11968.303,-5754.72,15671.103
1396665.1713984031,-86337.32,-84040.29,-1322.6726,37301.188,-5441.5693,11967.814,-5754.0283,15684.448
1396665.175398399,-86329.35,-84031.375,-1297.3226,37339.316,-5416.5854,11977.295,-5750.7734,15753.54
1396665.1793983947,-86340.664,-84025.555,-1292.6025,37356.203,-5415.324,11983.236,-5752.4414,15771.606
1396665.1833983907,-86351.41,-84035.61,-1313.0697,37327.066,-5443.8477,11980.103,-5754.6387,15720.419
1396665.1873983864,-86363.41,-84051.88,-1336.9955,37289.676,-5463.42,11971.069,-5756.063,15658.325
1396665.1913983822,-86356.445,-84052.62,-1334.1064,37296.387,-5445.638,11969.6455,-5756.3887,15670.37
1396665.195398378,-86346.84,-84039.63,-1304.3213,37341.676,-5413.371,11982.3,-5750.0815,15747.396
1396665.1993983737,-86343.14,-84034.38,-1291.1377,37361.734,-5408.529,11988.77,-5749.675,15777.507
1396665.2033983697,-86349.66,-84044.72,-1307.8613,37336.63,-5432.17,11984.579,-5753.662,15729.614
1396665.2073983655,-86354.58,-84050.17,-1331.9906,37296.633,-5452.6777,11973.186,-5757.4873,15664.673
1396665.2113983613,-86350.67,-84041.83,-1328.8574,37300.05,-5440.145,11969.971,-5755.0864,15673.95
1396665.215398357,-86340.984,-84035.36,-1306.2338,37340.496,-5420.329,11981.079,-5750.9766,15745.077
1396665.219398353,-86340.336,-84043.78,-1291.6667,37363.527,-5415.3647,11987.793,-5752.116,15774.17
1396665.2233983488,-86350.016,-84053.23,-1308.6752,37341.31,-5434.8555,11983.603,-5754.6387,15729.452
1396665.2273983445,-86348.555,-84061.85,-1330.9326,37303.426,-5462.972,11973.877,-5756.307,15673.3
1396665.2313983403,-86350.63,-84046.92,-1325.765,37307.984,-5447.1846,11972.697,-5755.9004,15681.396
1396665.235398336,-86349.164,-84028.24,-1303.3855,37346.234,-5415.731,11982.788,-5753.9473,15746.216
1396665.239398332,-86340.54,-84034.266,-1291.3818,37363.973,-5419.3525,11990.275,-5752.9297,15771.688
1396665.2433983278,-86344.0,-84049.64,-1304.7689,37338.707,-5451.05,11985.2295,-5754.5576,15723.999
1396665.2473983236,-86344.69,-84061.12,-1328.5726,37302.98,-5465.373,11974.731,-5755.697,15662.395
1396665.2513983194,-86343.63,-84055.016,-1324.5443,37306.152,-5443.2783,11973.837,-5753.581,15682.292
1396665.2553983154,-86340.78,-84043.055,-1298.055,37344.93,-5417.7246,11984.416,-5751.2207,15754.272
1396665.2593983111,-86349.24,-84041.42,-1292.033,37358.887,-5415.487,11991.415,-5753.011,15776.815
1396665.263398307,-86347.5,-84042.89,-1310.8724,37330.77,-5432.821,11986.206,-5756.633,15731.364
1396665.2673983027,-86349.77,-84058.8,-1333.9437,37290.445,-5452.9624,11975.952,-5757.243,15663.452
1396665.2713982984,-86346.805,-84055.34,-1328.1658,37302.9,-5444.4175,11976.44,-5752.8076,15679.321
1396665.2753982944,-86339.52,-84040.695,-1300.3744,37347.25,-5414.958,11986.9795,-5748.291,15751.913
1396665.2793982902,-86340.984,-84044.35,-1289.917,37361.86,-5411.0107,11992.798,-5748.3726,15778.402
1396665.283398286,-86345.5,-84049.766,-1305.2979,37342.45,-5436.198,11986.938,-5753.337,15735.759
1396665.2873982817,-86353.31,-84056.36,-1329.5085,37304.85,-5455.7295,11975.749,-5757.65,15672.607
1396665.2913982777,-86351.484,-84046.836,-1328.2064,37308.758,-5439.7383,11972.738,-5757.4873,15678.427
1396665.2953982735,-86344.65,-84032.27,-1303.2227,37347.21,-5412.1094,11982.178,-5755.249,15744.06
1396665.2993982693,-86340.58,-84033.695,-1291.8295,37365.766,-5411.947,11990.316,-5754.476,15764.526
1396665.303398265,-86344.89,-84049.805,-1307.658,37343.63,-5438.884,11986.898,-5757.5684,15722.087
1396665.307398261,-86353.44,-84061.28,-1329.3457,37305.91,-5462.362,11974.731,-5762.0444,15656.982
1396665.3113982568,-86347.414,-84045.05,-1320.2312,37315.594,-5445.801,11970.988,-5759.9287,15669.312
1396665.3153982526,-86338.79,-84028.24,-1291.9922,37354.086,-5422.6484,11980.469,-5755.29,15746.216
1396665.3193982483,-86340.01,-84031.17,-1284.5459,37370.89,-5420.41,11988.119,-5754.0283,15771.403
1396665.323398244,-86342.41,-84036.38,-1305.7861,37345.95,-5440.1045,11984.416,-5757.4873,15725.261
1396665.32739824,-86347.82,-84057.82,-1332.072,37304.08,-5466.0645,11975.83,-5760.051,15658.0
1396665.3313982359,-86345.09,-84055.95,-1324.7885,37315.227,-5453.044,11976.074,-5756.3477,15668.051
1396665.3353982316,-86343.71,-84029.55,-1299.5605,37361.168,-5421.753,11985.881,-5753.8657,15736.45
1396665.3393982274,-86341.76,-84031.13,-1287.4349,37379.11,-5418.091,11990.072,-5755.5747,15767.172
1396665.3433982234,-86344.77,-84045.66,-1304.6062,37353.8,-5440.1855,11983.969,-5761.0273,15730.307
1396665.3473982192,-86343.914,-84046.8,-1326.7009,37319.05,-5458.415,11973.227,-5762.1665,15669.067
1396665.351398215,-86338.664,-84036.586,-1321.1263,37326.418,-5444.255,11973.267,-5759.074,15678.63
1396665.3553982107,-86342.125,-84026.164,-1299.3164,37362.918,-5423.9097,11982.666,-5756.5107,15738.363
1396665.3593982065,-86345.95,-84021.53,-1288.7777,37377.523,-5420.8174,11988.078,-5758.789,15761.108
1396665.3633982025,-86355.43,-84029.83,-1304.891,37354.37,-5440.4297,11985.596,-5758.708,15722.819
1396665.3673981982,-86359.945,-84040.164,-1324.4222,37319.297,-5455.6885,11975.424,-5761.068,15659.099
1396665.371398194,-86349.37,-84040.445,-1319.987,37327.92,-5445.1094,11976.034,-5758.7485,15678.752
1396665.3753981898,-86343.47,-84035.93,-1295.8578,37363.2,-5419.3115,11986.532,-5754.8423,15749.675
1396665.3793981858,-86349.164,-84035.81,-1288.0453,37378.785,-5417.562,11989.868,-5758.545,15772.421
1396665.3833981815,-86356.98,-84045.086,-1305.3793,37352.742,-5442.5864,11984.823,-5764.852,15723.471
1396665.3873981773,-86358.89,-84056.36,-1329.834,37311.727,-5461.955,11974.731,-5767.7817,15656.535
1396665.391398173,-86365.97,-84047.98,-1324.707,37318.277,-5446.533,11972.778,-5766.6016,15670.004
1396665.3953981688,-86363.2,-84037.68,-1298.4619,37358.523,-5409.5054,11982.788,-5761.3936,15741.903
1396665.3993981648,-86354.01,-84036.945,-1285.3597,37379.355,-5404.175,11989.177,-5760.376,15770.183
1396665.4033981606,-86352.87,-84041.22,-1302.124,37359.58,-5430.542,11984.253,-5763.5093,15726.481
1396665.4073981564,-86359.09,-84048.71,-1328.0844,37321.86,-5456.3804,11974.447,-5767.375,15662.72
1396665.4113981521,-86357.42,-84050.87,-1322.5098,37323.324,-5450.1953,11972.453,-5766.805,15668.701
1396665.4153981481,-86354.49,-84041.38,-1297.1599,37360.92,-5431.722,11983.276,-5762.4106,15730.957
1396665.419398144,-86353.44,-84037.92,-1287.8011,37382.527,-5423.462,11990.234,-5762.004,15761.435
1396665.4233981397,-86356.65,-84038.49,-1300.5371,37364.3,-5431.8037,11983.928,-5763.672,15723.227
1396665.4273981354,-86353.84,-84038.984,-1320.6381,37328.613,-5455.1597,11971.762,-5767.9854,15660.36
1396665.4313981312,-86352.79,-84034.67,-1312.3373,37334.555,-5449.463,11971.802,-5767.212,15673.747
1396665.4353981272,-86344.98,-84028.81,-1286.0922,37368.246,-5420.8174,11981.649,-5764.73,15739.299
1396665.439398123,-86339.805,-84029.46,-1275.3093,37387.453,-5420.3696,11987.549,-5762.9805,15765.056
1396665.4433981187,-86346.36,-84043.016,-1292.806,37364.504,-5455.892,11984.131,-5762.37,15722.453
1396665.4473981145,-86348.59,-84061.77,-1324.1375,37327.965,-5479.167,11971.64,-5766.439,15654.745
1396665.4513981105,-86344.65,-84045.86,-1319.4174,37336.184,-5459.2695,11969.32,-5765.869,15666.057
1396665.4553981062,-86339.234,-84030.84,-1289.4695,37375.613,-5432.3325,11980.307,-5761.678,15743.205
1396665.459398102,-86342.05,-84032.92,-1279.0527,37393.066,-5432.292,11987.631,-5760.4575,15768.799
1396665.4633980978,-86359.336,-84049.234,-1295.8171,37368.082,-5457.3975,11982.504,-5764.038,15722.575
1396665.4673980938,-86361.94,-84054.12,-1322.1029,37331.91,-5480.1436,11971.191,-5767.212,15656.413
1396665.4713980895,-86347.21,-84053.51,-1318.2373,37336.55,-5473.47,11972.168,-5764.364,15666.87
1396665.4753980853,-86345.18,-84040.086,-1294.5964,37371.38,-5452.9624,11982.829,-5760.3354,15734.172
1396665.479398081,-86348.63,-84038.66,-1284.668,37394.086,-5448.8936,11987.061,-5761.678,15758.708
1396665.4833980768,-86351.93,-84054.85,-1299.8047,37370.32,-5472.86,11982.382,-5765.9507,15717.529
1396665.4873980728,-86357.18,-84058.27,-1321.8994,37333.824,-5492.391,11972.9,-5766.6426,15657.471
1396665.4913980686,-86357.305,-84049.93,-1315.9994,37342.53,-5471.924,11971.313,-5763.021,15672.038
1396665.4953980644,-86363.04,-84039.06,-1288.2894,37379.19,-5444.702,11980.835,-5760.8643,15742.636
1396665.4993980601,-86360.15,-84044.88,-1280.1921,37396.934,-5443.8887,11988.159,-5761.0273,15766.357
1396665.5033980561,-86362.8,-84049.16,-1297.7295,37373.496,-5468.8315,11983.317,-5765.8286,15716.431
1396665.507398052,-86362.47,-84058.31,-1324.7478,37335.855,-5492.391,11971.313,-5767.904,15648.764
1396665.5113980477,-86356.695,-84060.06,-1319.0511,37341.555,-5477.1323,11968.75,-5766.2354,15659.221
1396665.5153980434,-86356.98,-84051.35,-1291.1377,37381.348,-5435.913,11979.736,-5760.3354,15737.631
1396665.5193980392,-86357.51,-84046.15,-1277.181,37399.617,-5439.25,11987.0205,-5757.528,15766.806
1396665.5233980352,-86361.984,-84047.0,-1293.9453,37378.99,-5466.1865,11982.382,-5762.899,15720.093
1396665.527398031,-86363.484,-84057.664,-1321.4926,37341.188,-5486.6133,11971.884,-5767.497,15657.512
1396665.5313980267,-86361.53,-84057.87,-1317.2201,37343.793,-5474.8945,11970.175,-5766.3574,15669.189
1396665.5353980225,-86360.96,-84048.42,-1290.8936,37380.13,-5453.8574,11979.492,-5763.835,15733.887
1396665.5393980185,-86360.48,-84053.305,-1280.8025,37397.91,-5443.9697,11986.003,-5762.0444,15753.825
1396665.5433980143,-86366.26,-84058.27,-1295.0033,37379.07,-5458.618,11982.951,-5763.1836,15714.885
1396665.54739801,-86369.875,-84065.836,-1319.7021,37344.89,-5482.7476,11971.477,-5765.991,15655.681
1396665.5513980058,-86368.414,-84053.63,-1316.1215,37352.742,-5470.0117,11970.947,-5765.422,15668.905
1396665.5553980016,-86371.625,-84048.83,-1292.4805,37388.55,-5441.4473,11981.323,-5761.3936,15737.956
1396665.5593979976,-86363.24,-84042.24,-1282.6335,37405.844,-5434.53,11986.857,-5762.37,15764.608
1396665.5633979933,-86364.83,-84050.17,-1299.2758,37381.062,-5452.9624,11984.375,-5762.4106,15721.069
1396665.567397989,-86372.16,-84052.62,-1328.6133,37338.016,-5472.86,11974.487,-5762.655,15656.779
1396665.5713979849,-86366.414,-84043.83,-1322.0623,37345.582,-5452.4336,11973.877,-5757.2837,15670.654
1396665.5753979809,-86361.78,-84036.336,-1299.7234,37383.18,-5411.54,11984.701,-5753.459,15746.826
1396665.5793979766,-86363.484,-84022.46,-1292.5619,37402.426,-5410.7666,11992.1875,-5753.988,15778.769
1396665.5833979724,-86367.35,-84033.49,-1304.6875,37379.723,-5439.2905,11988.566,-5755.7373,15738.444
1396665.5873979682,-86371.055,-84039.72,-1330.4037,37340.13,-5460.7344,11975.22,-5763.957,15672.526
1396665.591397964,-86369.67,-84036.625,-1326.6195,37344.81,-5449.26,11973.837,-5763.143,15676.107
1396665.59539796,-86362.35,-84029.79,-1298.1771,37383.668,-5428.3857,11985.2705,-5759.237,15740.397
1396665.5993979557,-86363.37,-84025.23,-1285.075,37405.52,-5420.451,11993.327,-5759.074,15771.2
1396665.6033979515,-86370.28,-84030.27,-1302.0427,37383.707,-5427.3276,11988.078,-5762.2886,15732.707
1396665.6073979472,-86366.82,-84034.305,-1324.1781,37349.406,-5445.5977,11975.546,-5768.7583,15665.731
1396665.6113979432,-86357.586,-84017.414,-1316.04,37353.68,-5434.53,11975.424,-5767.0493,15673.381
1396665.615397939,-86354.45,-84005.86,-1292.5212,37391.277,-5409.2207,11985.474,-5763.143,15747.233
1396665.6193979348,-86353.72,-84004.84,-1283.488,37411.133,-5406.291,11991.171,-5762.6143,15773.601
1396665.6233979305,-86356.53,-84019.414,-1298.5027,37387.332,-5433.635,11985.759,-5767.497,15718.344
1396665.6273979265,-86355.59,-84026.77,-1320.4753,37348.55,-5458.374,11975.058,-5769.0024,15659.709
1396665.6313979223,-86358.89,-84023.4,-1317.2607,37350.547,-5444.499,11977.499,-5765.4624,15678.142
1396665.635397918,-86353.97,-84019.01,-1292.8467,37389.242,-5406.942,11989.299,-5760.742,15749.39
1396665.6393979138,-86349.86,-84008.836,-1282.7148,37407.918,-5403.524,11996.094,-5760.376,15777.507
1396665.6433979096,-86358.16,-84017.3,-1301.1882,37387.047,-5427.409,11992.351,-5762.9805,15736.857
1396665.6473979056,-86361.49,-84044.555,-1329.0203,37348.188,-5446.9404,11980.917,-5767.456,15672.7295
1396665.6513979014,-86363.89,-84039.555,-1329.0203,37348.797,-5431.6816,11980.713,-5765.9507,15676.799
1396665.6553978971,-86363.61,-84023.27,-1302.1648,37388.797,-5402.2627,11995.036,-5757.772,15750.366
1396665.659397893,-86363.61,-84019.33,-1288.8998,37410.848,-5398.8853,12001.913,-5756.3887,15783.447
1396665.663397889,-86366.46,-84026.94,-1303.7517,37392.09,-5425.456,11996.542,-5759.847,15736.654
1396665.6673978847,-86368.49,-84044.07,-1328.6947,37357.42,-5443.3594,11986.044,-5764.8115,15669.841
1396665.6713978804,-86369.06,-84038.375,-1324.3408,37357.87,-5427.8975,11983.765,-5762.0444,15681.804
1396665.6753978762,-86366.78,-84015.99,-1299.0723,37394.004,-5405.9653,11993.205,-5759.969,15748.576
1396665.679397872,-86362.35,-84015.99,-1288.4929,37411.418,-5404.8667,12000.204,-5761.8003,15770.183
1396665.683397868,-86366.21,-84029.95,-1306.2338,37386.637,-5434.6924,11997.966,-5762.0444,15725.017
1396665.6873978637,-86368.94,-84037.31,-1330.5664,37353.273,-5448.039,11988.77,-5762.0444,15667.847
1396665.6913978595,-86363.81,-84026.33,-1324.1375,37363.16,-5421.102,11990.153,-5758.7485,15687.216
1396665.6953978552,-86355.516,-84003.54,-1297.1599,37401.9,-5401.4487,12001.059,-5755.6562,15757.162
1396665.6993978512,-86355.47,-84016.805,-1292.2771,37420.168,-5400.3096,12007.69,-5756.4697,15779.135
1396665.703397847,-86368.77,-84034.914,-1310.5062,37394.98,-5418.01,12002.89,-5759.725,15738.281
1396665.7073978428,-86368.77,-84045.49,-1334.432,37355.47,-5440.796,11992.229,-5761.882,15674.561
1396665.7113978385,-86359.42,-84037.84,-1329.9968,37358.97,-5430.949,11990.031,-5759.847,15680.664
1396665.7153978343,-86360.64,-84026.05,-1305.5828,37395.1,-5401.286,12000.163,-5755.4526,15746.582
1396665.7193978303,-86366.01,-84021.85,-1291.9515,37417.523,-5386.3936,12005.249,-5757.7314,15776.042
1396665.723397826,-86378.664,-84021.41,-1307.6172,37394.125,-5393.636,12001.303,-5760.946,15735.2705
1396665.7273978218,-86380.49,-84032.31,-1332.8857,37355.918,-5418.0503,11991.903,-5763.713,15667.44
1396665.7313978176,-86369.47,-84045.29,-1328.6133,37360.555,-5413.1675,11990.723,-5763.3057,15675.171
1396665.7353978136,-86360.96,-84040.0,-1301.7172,37399.375,-5397.746,12002.116,-5759.1147,15746.338
1396665.7393978094,-86363.98,-84029.91,-1293.2537,37418.863,-5400.7163,12008.423,-5760.417,15768.962
1396665.7433978051,-86373.945,-84047.61,-1312.2966,37395.1,-5427.3276,12002.279,-5764.323,15718.425
1396665.747397801,-86375.2,-84055.14,-1332.6416,37358.44,-5456.584,11992.514,-5764.6484,15657.187
1396665.751397797,-86370.484,-84037.68,-1324.3002,37364.055,-5434.204,11991.943,-5763.021,15672.974
1396665.7553977927,-86371.95,-84030.44,-1297.0785,37400.23,-5414.795,12002.36,-5756.714,15747.396
1396665.7593977884,-86376.43,-84032.06,-1284.79,37420.492,-5412.1504,12010.051,-5755.005,15772.095
1396665.7633977842,-86378.625,-84044.11,-1300.0082,37402.875,-5418.701,12006.145,-5756.3887,15731.486
1396665.76739778,-86373.87,-84053.914,-1327.3926,37362.836,-5440.918,11995.972,-5758.016,15671.469
1396665.771397776,-86364.95,-84044.76,-1324.707,37366.09,-5433.716,11994.345,-5757.0396,15686.32
1396665.7753977717,-86366.375,-84027.23,-1299.3978,37404.5,-5408.895,12003.418,-5753.9062,15758.22
1396665.7793977675,-86371.09,-84037.11,-1288.2488,37424.03,-5410.5225,12009.766,-5752.1567,15778.442
1396665.7833977633,-86379.03,-84054.94,-1301.5137,37403.605,-5423.259,12005.127,-5754.7607,15738.363
1396665.7873977593,-86377.85,-84059.2,-1325.2767,37365.4,-5435.669,11994.467,-5757.4873,15673.828
1396665.791397755,-86371.7,-84052.9,-1324.2188,37368.125,-5422.038,11994.141,-5754.5576,15677.938
1396665.7953977508,-86361.53,-84042.08,-1297.6888,37404.625,-5397.461,12004.232,-5749.756,15748.535
1396665.7993977466,-86369.914,-84034.51,-1285.6853,37425.17,-5400.757,12010.458,-5750.163,15779.257
1396665.8033977423,-86376.586,-84030.32,-1301.1882,37405.152,-5420.8174,12004.15,-5755.371,15739.502
1396665.8073977383,-86374.68,-84044.88,-1326.6195,37368.938,-5437.785,11991.821,-5762.1665,15669.922
1396665.811397734,-86358.89,-84056.36,-1318.0339,37373.496,-5425.0083,11989.909,-5761.312,15678.223
1396665.8153977299,-86353.766,-84036.13,-1292.7246,37412.19,-5399.8213,11998.332,-5758.545,15747.355
1396665.8193977256,-86357.99,-84036.83,-1282.7148,37431.4,-5396.159,12002.523,-5759.1147,15779.175
1396665.8233977216,-86365.766,-84049.03,-1295.6951,37410.035,-5418.7827,11999.023,-5762.004,15740.52
1396665.8273977174,-86367.555,-84053.34,-1319.2139,37373.902,-5438.2324,11990.683,-5764.201,15675.659
1396665.8313977132,-86363.57,-84053.59,-1316.8539,37375.043,-5429.1587,11991.618,-5759.3184,15679.851
1396665.835397709,-86363.33,-84057.78,-1296.4681,37409.547,-5407.7964,12002.768,-5754.5576,15745.891
1396665.8393977047,-86368.086,-84066.2,-1285.7666,37430.582,-5402.3438,12011.027,-5754.1504,15780.803
1396665.8433977007,-86367.64,-84071.62,-1297.6888,37409.586,-5418.823,12006.022,-5759.969,15738.852
1396665.8473976965,-86373.05,-84067.914,-1321.574,37371.99,-5438.7207,11993.449,-5763.713,15677.246
1396665.8513976922,-86365.32,-84065.35,-1316.4062,37377.24,-5426.2695,11992.351,-5758.342,15688.843
1396665.855397688,-86357.67,-84054.81,-1289.3474,37416.14,-5399.9434,12001.059,-5753.8657,15761.557
1396665.859397684,-86362.39,-84062.75,-1277.71,37431.113,-5402.1406,12005.9,-5756.1445,15790.283
1396665.8633976798,-86367.44,-84070.516,-1293.8232,37409.098,-5427.0835,12003.093,-5761.8003,15743.571
1396665.8673976755,-86375.37,-84082.89,-1322.8353,37368.938,-5449.951,11992.514,-5766.4795,15676.921
1396665.8713976713,-86372.36,-84073.695,-1316.5283,37373.008,-5425.4966,11991.821,-5762.2886,15690.674
1396665.875397667,-86363.98,-84059.125,-1291.8295,37415.203,-5402.181,12002.197,-5755.941,15762.695
1396665.879397663,-86367.15,-84063.27,-1280.7617,37436.566,-5401.367,12008.789,-5755.249,15786.987
1396665.8833976588,-86370.77,-84069.42,-1292.0736,37414.348,-5413.005,12006.145,-5758.667,15741.374
1396665.8873976546,-86368.94,-84073.49,-1318.2781,37374.227,-5431.6,11993.774,-5764.73,15675.7
1396665.8913976504,-86367.64,-84069.664,-1315.1449,37377.77,-5427.0835,11990.52,-5765.3403,15682.373
1396665.8953976464,-86361.45,-84053.02,-1286.7025,37415.242,-5404.46,11998.535,-5761.1494,15755.534
1396665.8993976421,-86361.984,-84045.21,-1273.7631,37433.434,-5402.9136,12006.47,-5760.783,15779.541
1396665.903397638,-86369.836,-84055.87,-1291.8295,37412.516,-5429.3213,12004.313,-5762.329,15733.398
1396665.9073976337,-86376.06,-84062.87,-1316.6912,37377.484,-5444.743,11993.53,-5763.957,15673.991
1396665.9113976297,-86376.38,-84052.414,-1313.7615,37381.062,-5427.3276,11992.717,-5761.1494,15686.279
1396665.9153976254,-86368.734,-84050.055,-1288.2488,37420.98,-5394.45,12005.453,-5753.54,15758.586
1396665.9193976212,-86366.414,-84057.375,-1276.0824,37441.082,-5393.4326,12009.726,-5754.6797,15786.418
1396665.923397617,-86379.16,-84065.11,-1288.4929,37419.477,-5411.4585,12005.29,-5760.132,15748.861
1396665.9273976127,-86396.53,-84090.66,-1318.2373,37377.28,-5442.383,11997.355,-5761.9224,15686.6455
1396665.9313976087,-86384.93,-84064.5,-1312.5,37382.242,-5424.764,11994.223,-5763.5093,15689.047
1396665.9353976045,-86358.4,-84025.555,-1282.959,37424.93,-5390.666,12002.523,-5760.132,15756.714
1396665.9393976002,-86370.69,-84047.2,-1276.4486,37441.246,-5394.3687,12011.19,-5754.9644,15788.574
1396665.943397596,-86370.52,-84053.836,-1294.5557,37420.33,-5419.3525,12005.697,-5761.3525,15740.927
1396665.947397592,-86368.82,-84057.91,-1319.8242,37380.414,-5436.8086,11994.263,-5767.375,15669.963
1396665.9513975878,-86365.69,-84043.87,-1317.2607,37384.562,-5426.595,11993.856,-5766.2764,15668.417
1396665.9553975835,-86357.47,-84026.734,-1288.8184,37424.97,-5399.455,12006.755,-5761.882,15738.607
1396665.9593975793,-86362.59,-84024.91,-1277.7914,37444.01,-5398.519,12013.835,-5762.899,15762.939
1396665.963397575,-86364.1,-84030.32,-1288.4929,37426.8,-5413.9,12007.284,-5767.578,15725.546
1396665.967397571,-86365.805,-84049.12,-1311.8896,37384.156,-5439.006,11995.402,-5771.6475,15662.72
1396665.9713975668,-86362.39,-84047.24,-1309.9773,37385.785,-5433.065,11991.74,-5771.3623,15674.846
1396665.9753975626,-86360.76,-84031.7,-1283.6101,37429.117,-5407.878,12000.773,-5766.968,15745.361
1396665.9793975584,-86372.234,-84027.8,-1275.3906,37449.992,-5399.455,12008.993,-5767.1714,15766.113
1396665.9833975544,-86377.24,-84037.03,-1289.6322,37431.766,-5417.033,12005.778,-5770.874,15724.487
1396665.9873975501,-86375.695,-84043.336,-1311.4828,37393.473,-5443.6035,11996.542,-5772.1763,15666.382
1396665.991397546,-86373.3,-84037.16,-1308.6345,37395.59,-5434.0415,11993.856,-5770.0195,15678.061
1396665.9953975417,-86372.84,-84030.88,-1285.5632,37432.78,-5418.6606,12003.5,-5765.666,15742.717
1396665.9993975374,-86375.2,-84045.21,-1274.9838,37454.508,-5421.102,12008.098,-5765.7065,15761.963
1396666.0033975334,-86382.61,-84050.945,-1288.8184,37432.21,-5429.647,12004.924,-5768.718,15721.884
1396666.0073975292,-86383.34,-84047.9,-1315.9994,37398.234,-5449.707,11994.304,-5772.054,15661.255
1396666.011397525,-86371.22,-84047.61,-1313.1511,37403.2,-5440.959,11992.717,-5770.996,15671.875
1396666.0153975207,-86364.42,-84037.766,-1287.6384,37437.297,-5415.324,12000.977,-5769.9385,15740.479
1396666.0193975167,-86368.25,-84032.39,-1272.4203,37460.207,-5403.6865,12006.511,-5768.514,15773.804
1396666.0233975125,-86371.22,-84043.625,-1282.8369,37444.05,-5426.6357,12003.5,-5769.1245,15737.875
1396666.0273975083,-86373.54,-84058.31,-1305.1758,37407.633,-5452.4336,11995.524,-5769.979,15676.188
1396666.031397504,-86375.0,-84051.96,-1304.9724,37406.94,-5446.859,11995.239,-5767.9443,15683.757
1396666.0353975,-86369.8,-84034.79,-1286.0922,37440.594,-5420.0034,12004.436,-5765.747,15745.932
1396666.0393974958,-86373.58,-84026.05,-1275.7162,37467.938,-5413.127,12009.848,-5768.1885,15772.665
1396666.0433974916,-86371.7,-84044.48,-1288.2894,37448.61,-5435.3438,12006.633,-5772.38,15733.114
1396666.0473974873,-86373.3,-84058.11,-1308.8379,37411.215,-5449.992,11996.42,-5775.5127,15668.173
1396666.051397483,-86369.8,-84052.37,-1303.5482,37412.477,-5439.9824,11994.792,-5772.746,15674.276
1396666.055397479,-86362.875,-84035.65,-1277.5879,37447.88,-5422.038,12004.436,-5768.921,15742.595
1396666.0593974749,-86365.08,-84034.47,-1267.2527,37467.164,-5418.7827,12010.62,-5769.328,15774.455
1396666.0633974706,-86371.055,-84042.32,-1282.959,37451.133,-5436.035,12007.202,-5772.258,15732.707
1396666.0673974664,-86370.94,-84049.69,-1310.2214,37410.484,-5465.576,11994.345,-5777.629,15660.971
1396666.0713974624,-86368.94,-84052.29,-1307.0068,37411.46,-5450.1953,11994.589,-5773.6816,15664.633
1396666.0753974582,-86367.234,-84039.31,-1278.9307,37452.23,-5419.8813,12007.365,-5766.439,15743.124
1396666.079397454,-86374.27,-84032.63,-1268.1478,37474.246,-5420.8984,12015.625,-5761.76,15777.263
1396666.0833974497,-86375.57,-84050.46,-1282.3894,37453.695,-5439.616,12010.132,-5762.37,15738.241
1396666.0873974455,-86378.664,-84063.56,-1309.489,37415.652,-5461.426,11998.657,-5764.9336,15677.816
1396666.0913974415,-86375.33,-84060.14,-1305.9896,37419.598,-5445.7603,11995.402,-5767.8633,15683.35
1396666.0953974372,-86368.94,-84042.65,-1278.239,37456.137,-5417.7656,12003.825,-5768.0664,15745.361
1396666.099397433,-86370.0,-84039.43,-1267.2933,37477.62,-5412.2725,12009.604,-5767.5376,15773.56
1396666.1033974288,-86367.8,-84057.945,-1284.3425,37465.17,-5437.5,12005.656,-5769.0024,15729.33
1396666.1073974248,-86371.09,-84062.83,-1309.2855,37445.926,-5462.4023,11994.263,-5773.0713,15657.919
1396666.1113974205,-86367.84,-84052.984,-1306.1931,37464.76,-5452.596,11991.943,-5771.118,15672.607
1396666.1153974163,-86363.0,-84036.22,-1280.7211,37506.43,-5421.672,12004.517,-5763.713,15749.105
1396666.119397412,-86361.62,-84023.97,-1269.165,37530.723,-5417.1553,12012.533,-5760.661,15773.642
1396666.1233974078,-86363.734,-84032.63,-1282.6335,37515.79,-5440.3076,12008.505,-5764.282,15730.632
1396666.1273974038,-86362.47,-84046.59,-1306.4373,37478.07,-5455.6074,11997.6,-5767.904,15666.626
1396666.1313973996,-86358.484,-84050.21,-1302.6531,37477.703,-5443.3594,11996.338,-5767.212,15672.485
1396666.1353973954,-86358.32,-84048.38,-1279.4597,37511.477,-5427.8975,12004.517,-5763.916,15736.044
1396666.1393973911,-86363.28,-84047.125,-1271.1182,37529.785,-5429.9727,12011.271,-5762.4106,15759.807
1396666.1433973871,-86364.625,-84041.79,-1285.8887,37515.34,-5443.1562,12007.69,-5768.3105,15718.71
1396666.1473973829,-86360.234,-84041.83,-1308.1869,37481.12,-5455.648,11995.6875,-5772.583,15661.133
1396666.1513973786,-86361.25,-84036.83,-1302.0427,37483.48,-5438.1104,11992.717,-5770.427,15676.718
1396666.1553973744,-86354.45,-84026.37,-1273.6816,37522.055,-5413.615,12003.906,-5763.713,15750.204
1396666.1593973702,-86343.47,-84039.19,-1263.5498,37538.777,-5412.557,12009.848,-5760.8237,15777.792
1396666.1633973662,-86345.38,-84053.8,-1276.3265,37520.633,-5432.414,12005.819,-5763.265,15734.294
1396666.167397362,-86350.67,-84056.48,-1299.4792,37480.633,-5458.3335,11996.013,-5769.043,15669.434
1396666.1713973577,-86353.4,-84053.43,-1300.2523,37479.41,-5446.6963,11993.53,-5767.009,15677.165
1396666.1753973535,-86354.21,-84043.336,-1277.2217,37512.004,-5426.1885,12003.052,-5760.661,15746.46
1396666.1793973495,-86352.586,-84037.36,-1262.8582,37532.27,-5423.828,12012.573,-5760.4575,15775.065
1396666.1833973452,-86364.664,-84044.31,-1278.6052,37511.844,-5439.087,12008.301,-5764.5264,15731.689
1396666.187397341,-86364.83,-84060.43,-1306.8035,37472.7,-5457.2754,11998.698,-5767.09,15666.22
1396666.1913973368,-86353.6,-84056.07,-1299.642,37478.273,-5443.5225,11997.641,-5765.259,15677.124
1396666.1953973328,-86349.98,-84057.87,-1270.1416,37517.62,-5417.806,12008.179,-5760.946,15748.82
1396666.1993973285,-86352.664,-84058.35,-1255.8594,37540.977,-5411.8247,12012.858,-5760.498,15778.442
1396666.2033973243,-86352.09,-84056.69,-1272.2168,37522.38,-5439.494,12005.981,-5763.8755,15739.014
1396666.20739732,-86353.195,-84046.39,-1298.4619,37488.895,-5457.845,11996.46,-5768.27,15675.822
1396666.2113973158,-86343.55,-84051.44,-1292.4398,37491.17,-5447.551,11995.036,-5765.0146,15684.53
1396666.2153973118,-86337.37,-84044.64,-1270.3857,37524.66,-5422.4854,12003.5,-5761.3936,15753.703
1396666.2193973076,-86343.47,-84041.22,-1264.4857,37543.215,-5418.213,12008.301,-5763.1836,15779.745
1396666.2233973034,-86354.78,-84044.92,-1282.8369,37521.242,-5434.7334,12004.436,-5767.9443,15735.393
1396666.2273972991,-86360.96,-84054.484,-1303.5482,37484.824,-5459.717,11996.013,-5772.949,15671.509
1396666.2313972951,-86355.47,-84046.67,-1295.4509,37488.363,-5456.909,11994.223,-5771.81,15681.682
1396666.235397291,-86345.664,-84045.49,-1270.7113,37523.316,-5430.176,12002.768,-5767.8633,15749.187
1396666.2393972867,-86343.305,-84046.67,-1264.7299,37545.29,-5417.3584,12009.074,-5768.148,15776.367
1396666.2433972824,-86359.74,-84072.836,-1281.5756,37524.617,-5441.976,12006.389,-5768.7583,15740.397
1396666.2473972782,-86364.95,-84077.31,-1307.5359,37485.758,-5460.327,11994.792,-5771.037,15675.415
1396666.2513972742,-86347.82,-84047.08,-1301.9613,37489.098,-5440.4297,11989.624,-5771.9727,15680.868
1396666.25539727,-86332.805,-84032.8,-1273.4375,37525.27,-5418.01,12000.0,-5765.625,15746.135
1396666.2593972657,-86347.086,-84040.77,-1260.8643,37545.33,-5415.609,12009.44,-5760.01,15778.646
1396666.2633972615,-86347.91,-84056.56,-1275.6755,37524.863,-5420.8984,12005.575,-5761.1084,15745.605
1396666.2673972575,-86352.5,-84048.14,-1301.2289,37489.016,-5440.3486,11995.361,-5763.3057,15689.779
1396666.2713972533,-86359.13,-84054.445,-1303.6296,37486.53,-5430.1353,11994.141,-5763.5093,15699.179
1396666.275397249,-86349.9,-84060.02,-1281.1687,37521.08,-5402.1406,12004.924,-5762.5327,15763.184
1396666.2793972448,-86350.95,-84060.95,-1271.0369,37540.49,-5394.206,12011.027,-5764.201,15790.731
1396666.2833972406,-86355.516,-84062.26,-1289.7543,37522.258,-5412.3535,12008.627,-5767.212,15751.221
1396666.2873972366,-86359.945,-84058.35,-1311.0759,37485.477,-5430.1353,11998.779,-5769.409,15686.728
1396666.2913972323,-86350.34,-84061.57,-1304.0771,37487.184,-5415.3647,11998.983,-5765.3,15696.005
1396666.295397228,-86342.41,-84043.87,-1279.0527,37524.05,-5386.3525,12010.01,-5759.481,15764.404
1396666.2993972239,-86340.984,-84033.77,-1267.741,37546.227,-5375.814,12016.317,-5759.847,15789.185
1396666.3033972199,-86351.08,-84041.83,-1284.139,37523.684,-5398.3154,12011.435,-5765.422,15745.81
1396666.3073972156,-86351.81,-84045.945,-1310.018,37487.305,-5408.6914,12000.977,-5769.735,15684.978
1396666.3113972114,-86345.3,-84030.36,-1308.3496,37489.83,-5395.101,12000.204,-5769.084,15690.837
1396666.3153972072,-86338.14,-84036.79,-1285.2783,37522.746,-5373.983,12010.254,-5762.899,15759.481
1396666.3193972032,-86340.7,-84041.1,-1274.2107,37542.766,-5369.222,12016.439,-5761.963,15791.708
1396666.323397199,-86351.36,-84040.125,-1285.197,37528.688,-5388.3057,12015.219,-5759.7656,15758.83
1396666.3273971947,-86351.16,-84040.57,-1308.1869,37496.22,-5407.064,12007.284,-5759.9287,15702.108
1396666.3313971905,-86344.77,-84028.24,-1308.0242,37493.613,-5390.666,12005.981,-5757.243,15708.415
1396666.3353971862,-86342.05,-84014.53,-1286.0922,37523.316,-5369.548,12016.398,-5753.54,15774.536
1396666.3393971822,-86343.02,-84021.81,-1277.4658,37541.3,-5365.967,12022.217,-5754.7607,15792.685
1396666.343397178,-86344.69,-84036.09,-1293.6199,37522.016,-5396.4033,12018.188,-5757.894,15745.565
1396666.3473971738,-86345.79,-84037.234,-1317.7084,37486.816,-5415.283,12009.644,-5760.051,15686.442
1396666.3513971695,-86343.71,-84028.445,-1313.029,37489.383,-5399.0073,12010.458,-5757.406,15694.418
1396666.3553971655,-86343.75,-84013.72,-1287.4349,37525.434,-5378.093,12020.793,-5752.3604,15766.439
1396666.3593971613,-86338.46,-84014.2,-1274.8617,37546.145,-5370.9717,12029.175,-5751.506,15801.107
1396666.363397157,-86346.07,-84028.0,-1290.0391,37526.082,-5388.021,12024.455,-5755.4526,15760.742
1396666.3673971528,-86350.38,-84038.375,-1311.9711,37487.145,-5407.2266,12012.939,-5760.5796,15691.488
1396666.3713971486,-86340.17,-84031.336,-1309.9773,37485.68,-5393.799,12011.923,-5756.999,15699.016
1396666.3753971446,-86338.18,-84016.56,-1291.4633,37521.08,-5368.1235,12022.461,-5749.878,15763.794
1396666.3793971404,-86337.77,-84010.54,-1278.5645,37547.203,-5362.59,12031.576,-5748.535,15797.16
1396666.383397136,-86340.414,-84019.21,-1289.7543,37529.055,-5374.227,12026.855,-5750.244,15761.923
1396666.3873971319,-86342.33,-84031.375,-1309.8552,37492.96,-5395.2637,12017.334,-5750.285,15707.194
1396666.3913971279,-86344.69,-84021.12,-1307.658,37496.46,-5387.7363,12016.439,-5747.762,15717.001
1396666.3953971236,-86339.84,-84016.85,-1285.5632,37530.68,-5365.6006,12027.06,-5746.338,15777.873
1396666.3993971194,-86335.57,-84022.3,-1272.6238,37551.72,-5361.328,12034.262,-5748.21,15802.775
1396666.4033971152,-86346.27,-84022.87,-1284.8308,37534.832,-5379.6797,12029.541,-5751.628,15761.841
1396666.407397111,-86351.52,-84034.47,-1311.4828,37493.9,-5403.4834,12018.677,-5754.0693,15697.876
1396666.411397107,-86343.06,-84028.2,-1307.2917,37495.973,-5389.486,12018.188,-5751.6685,15706.259
1396666.4153971027,-86341.23,-84017.09,-1284.0984,37532.473,-5361.8164,12026.733,-5750.041,15768.881
1396666.4193970985,-86334.64,-84023.32,-1273.4375,37550.742,-5363.6885,12032.797,-5751.0986,15789.307
1396666.4233970942,-86341.11,-84037.07,-1286.2142,37530.965,-5390.096,12028.809,-5756.185,15748.21
1396666.4273970902,-86348.92,-84036.5,-1310.0586,37495.08,-5401.8555,12018.759,-5761.1494,15686.89
1396666.431397086,-86352.22,-84028.61,-1308.1462,37497.723,-5387.0444,12017.131,-5759.6436,15695.883
1396666.4353970818,-86340.58,-84029.7,-1283.7322,37531.656,-5359.4565,12026.245,-5755.29,15764.282
1396666.4393970775,-86340.62,-84032.43,-1271.5251,37554.812,-5361.206,12031.698,-5753.662,15794.312
1396666.4433970733,-86342.49,-84032.92,-1279.3783,37542.035,-5380.8594,12027.954,-5758.138,15759.807
1396666.4473970693,-86343.47,-84039.836,-1303.9551,37506.145,-5396.8916,12017.05,-5763.1836,15698.364
1396666.451397065,-86339.84,-84032.43,-1302.3682,37506.676,-5384.5625,12015.178,-5761.312,15703.044
1396666.4553970608,-86336.96,-84018.6,-1280.5176,37540.324,-5360.7993,12022.624,-5760.254,15762.492
1396666.4593970566,-86342.9,-84030.32,-1273.7224,37558.96,-5358.1543,12027.914,-5761.963,15784.221
1396666.4633970526,-86344.98,-84048.664,-1285.6445,37542.562,-5373.861,12025.1875,-5765.3,15746.623
1396666.4673970484,-86350.38,-84049.32,-1311.3607,37504.8,-5399.4956,12013.876,-5768.5957,15686.89
1396666.4713970441,-86350.95,-84043.22,-1311.5234,37506.348,-5394.328,12012.248,-5766.317,15698.568
1396666.47539704,-86345.5,-84036.625,-1281.779,37542.035,-5356.527,12022.014,-5760.254,15771.118
1396666.479397036,-86348.48,-84033.9,-1269.7347,37565.105,-5351.8066,12028.972,-5759.847,15797.893
1396666.4833970317,-86352.83,-84046.51,-1285.075,37545.777,-5372.6807,12026.815,-5764.16,15753.215
1396666.4873970274,-86349.53,-84060.34,-1308.0242,37507.49,-5400.472,12014.73,-5767.8223,15687.297
1396666.4913970232,-86350.18,-84058.59,-1307.9021,37503.215,-5394.165,12012.614,-5766.3984,15692.017
1396666.495397019,-86345.016,-84042.24,-1282.2673,37542.074,-5376.506,12023.315,-5762.329,15756.958
1396666.499397015,-86350.99,-84036.38,-1270.7927,37565.51,-5377.0347,12031.698,-5760.539,15786.621
1396666.5033970107,-86353.516,-84048.305,-1285.6445,37547.69,-5378.3774,12029.867,-5759.847,15752.971
1396666.5073970065,-86348.23,-84062.664,-1308.1869,37511.434,-5395.3857,12023.601,-5759.3184,15695.557
1396666.5113970023,-86351.36,-84050.87,-1309.489,37508.426,-5386.5967,12023.153,-5756.9175,15698.975
1396666.5153969983,-86345.79,-84044.11,-1286.6619,37544.35,-5362.671,12034.831,-5752.523,15766.154
1396666.519396994,-86351.484,-84049.234,-1276.6113,37562.582,-5359.8228,12040.243,-5754.6797,15790.935
1396666.5233969898,-86356.61,-84054.69,-1290.5681,37547.363,-5379.2725,12036.215,-5758.342,15748.657
1396666.5273969856,-86355.72,-84063.4,-1315.6738,37507.69,-5403.117,12026.286,-5760.3354,15686.198
1396666.5313969813,-86355.76,-84050.945,-1315.2263,37506.227,-5391.032,12022.665,-5757.9756,15693.604
1396666.5353969773,-86348.43,-84044.97,-1288.1267,37543.05,-5368.4897,12031.982,-5754.5166,15761.882
1396666.539396973,-86349.164,-84056.36,-1276.6927,37564.047,-5370.2393,12040.649,-5753.174,15789.47
1396666.5433969689,-86362.19,-84060.43,-1293.7826,37544.477,-5387.9395,12037.15,-5755.168,15748.901
1396666.5473969646,-86359.54,-84057.87,-1314.3718,37510.742,-5399.048,12028.036,-5756.2256,15687.744
1396666.5513969606,-86359.74,-84057.25,-1312.3373,37511.8,-5389.6484,12027.019,-5752.401,15698.527
1396666.5553969564,-86353.03,-84045.984,-1286.377,37548.42,-5369.2627,12036.784,-5747.4775,15770.224
1396666.5593969522,-86355.35,-84033.77,-1272.583,37571.535,-5351.9697,12042.5625,-5747.7217,15799.927
1396666.563396948,-86349.695,-84058.516,-1285.6445,37556.684,-5370.4834,12039.511,-5748.169,15760.864
1396666.5673969437,-86349.57,-84082.52,-1311.6863,37517.457,-5395.4673,12029.338,-5749.878,15699.789
1396666.5713969397,-86351.195,-84077.07,-1313.4766,37515.383,-5387.5327,12027.1,-5748.169,15704.794
1396666.5753969355,-86346.27,-84068.12,-1289.8357,37551.312,-5359.253,12039.511,-5742.025,15768.962
1396666.5793969312,-86351.69,-84058.43,-1278.5645,37573.895,-5353.475,12044.516,-5741.618,15800.822
1396666.583396927,-86356.41,-84055.42,-1289.1439,37557.254,-5382.4873,12039.999,-5745.7275,15764.12
1396666.587396923,-86364.625,-84067.836,-1310.3435,37520.145,-5409.2207,12030.192,-5749.675,15699.992
1396666.5913969188,-86362.51,-84054.81,-1306.3965,37521.61,-5390.1777,12028.931,-5746.4194,15707.602
1396666.5953969145,-86343.67,-84048.55,-1282.5115,37556.52,-5363.4443,12036.093,-5742.269,15774.496
1396666.5993969103,-86339.805,-84056.4,-1272.1761,37578.125,-5357.666,12042.807,-5742.7573,15802.45
1396666.603396906,-86341.15,-84064.984,-1286.1736,37561.2,-5377.645,12040.243,-5746.5415,15761.271
1396666.607396902,-86347.984,-84069.79,-1308.96,37521.445,-5397.99,12029.663,-5749.0234,15693.441
1396666.6113968978,-86346.6,-84062.38,-1305.1758,37526.695,-5389.364,12026.815,-5746.9077,15704.672
1396666.6153968936,-86342.86,-84042.766,-1277.6287,37566.203,-5361.6943,12034.465,-5746.216,15773.479
1396666.6193968893,-86347.54,-84053.63,-1262.5326,37585.53,-5361.8574,12040.854,-5749.349,15799.154
1396666.6233968853,-86345.5,-84058.19,-1274.2513,37571.86,-5382.9346,12037.964,-5753.174,15768.677
1396666.627396881,-86348.23,-84057.74,-1299.8861,37532.715,-5398.397,12026.205,-5756.714,15704.672
1396666.6313968769,-86340.91,-84056.56,-1299.8455,37528.973,-5384.5625,12024.658,-5756.3887,15708.456
1396666.6353968726,-86334.92,-84047.734,-1276.8148,37562.5,-5366.903,12033.61,-5752.889,15776.408
1396666.6393968686,-86339.52,-84043.91,-1265.4216,37582.645,-5363.7695,12040.731,-5750.8545,15804.77
1396666.6433968644,-86347.17,-84057.54,-1277.3438,37570.152,-5380.127,12039.022,-5752.6855,15764.934
1396666.6473968602,-86344.52,-84059.86,-1300.6592,37538.74,-5402.4253,12029.867,-5752.3193,15701.416
1396666.651396856,-86346.6,-84045.66,-1298.0957,37533.406,-5393.962,12025.757,-5751.872,15708.008
1396666.6553968517,-86342.66,-84036.83,-1273.8445,37567.06,-5371.7856,12036.459,-5750.9766,15770.63
1396666.6593968477,-86340.78,-84054.81,-1266.8865,37587.242,-5366.333,12043.213,-5750.8955,15790.487
1396666.6633968435,-86341.39,-84059.41,-1280.7211,37570.56,-5379.3135,12040.121,-5753.459,15753.744
1396666.6673968392,-86343.836,-84064.82,-1301.0254,37534.832,-5403.524,12032.431,-5754.6797,15695.354
1396666.671396835,-86343.47,-84054.98,-1298.1365,37536.336,-5396.9727,12031.657,-5750.814,15705.485
1396666.675396831,-86340.91,-84039.67,-1275.1873,37568.44,-5372.6807,12042.155,-5746.5415,15767.212
1396666.6793968268,-86342.164,-84041.83,-1260.783,37592.9,-5355.591,12048.788,-5747.03,15798.422
1396666.6833968225,-86350.875,-84062.336,-1274.1293,37575.645,-5372.4365,12043.417,-5748.6167,15766.276
1396666.6873968183,-86351.69,-84071.66,-1300.7,37534.344,-5403.076,12032.309,-5752.8486,15699.179
1396666.691396814,-86343.836,-84055.55,-1299.764,37533.12,-5397.7866,12028.931,-5757.6904,15694.499
1396666.69539681,-86342.9,-84046.19,-1276.9369,37565.348,-5379.4355,12034.953,-5758.667,15751.587
1396666.6993968058,-86345.09,-84054.41,-1263.265,37591.023,-5370.321,12042.48,-5757.9756,15778.931
1396666.7033968016,-86351.85,-84055.75,-1275.7162,37577.84,-5384.8066,12042.074,-5759.481,15747.925
1396666.7073967974,-86343.305,-84058.39,-1300.0488,37539.188,-5402.385,12031.006,-5762.9805,15682.536
1396666.7113967934,-86341.31,-84061.77,-1298.2585,37536.785,-5394.8975,12030.518,-5761.841,15686.972
1396666.7153967891,-86340.78,-84045.66,-1273.9666,37574.016,-5377.5635,12040.039,-5756.714,15760.01
1396666.719396785,-86348.68,-84036.83,-1265.0961,37594.44,-5370.565,12045.248,-5756.429,15789.429
1396666.7233967807,-86342.66,-84050.336,-1274.9838,37578.613,-5385.376,12040.976,-5761.312,15744.345
1396666.7273967764,-86341.68,-84065.516,-1296.3461,37539.266,-5399.455,12029.948,-5763.591,15675.578
1396666.7313967724,-86347.336,-84053.51,-1291.5853,37540.652,-5388.143,12027.548,-5761.4746,15680.746
1396666.7353967682,-86345.26,-84039.67,-1270.3044,37575.074,-5366.577,12036.662,-5756.9175,15755.168
1396666.739396764,-86342.94,-84038.414,-1258.5043,37595.867,-5368.5303,12044.516,-5756.836,15783.651
1396666.7433967597,-86349.86,-84042.97,-1268.9617,37583.742,-5386.312,12042.358,-5758.2603,15748.413
1396666.7473967557,-86346.07,-84042.93,-1293.7826,37547.566,-5413.452,12030.803,-5760.8643,15685.059
1396666.7513967515,-86342.45,-84038.375,-1292.9688,37545.535,-5403.4424,12028.036,-5760.7017,15689.738
1396666.7553967473,-86340.336,-84028.08,-1270.7927,37578.37,-5381.592,12035.441,-5757.08,15760.132
1396666.759396743,-86336.63,-84033.086,-1256.9988,37598.88,-5375.407,12040.568,-5756.7954,15789.104
1396666.763396739,-86340.945,-84037.27,-1269.3279,37583.457,-5389.364,12037.313,-5760.3354,15748.739
1396666.7673967348,-86343.23,-84048.1,-1293.2943,37548.543,-5415.8125,12026.896,-5765.3403,15684.937
1396666.7713967306,-86339.4,-84039.76,-1290.7308,37546.957,-5406.9014,12025.473,-5763.835,15689.657
1396666.7753967263,-86335.29,-84027.71,-1266.1133,37582.562,-5383.667,12033.407,-5759.3994,15755.981
1396666.779396722,-86347.21,-84031.984,-1257.0394,37602.906,-5381.958,12039.714,-5758.9927,15777.019
1396666.783396718,-86346.11,-84035.41,-1270.7113,37590.008,-5394.6533,12037.395,-5760.5796,15743.815
1396666.7873967139,-86348.43,-84036.38,-1294.1895,37554.566,-5417.3584,12026.123,-5763.1836,15682.821
1396666.7913967096,-86350.55,-84028.08,-1292.7654,37554.973,-5408.6104,12023.031,-5762.899,15690.063
1396666.7953967054,-86345.91,-84019.695,-1266.1133,37595.38,-5380.412,12032.919,-5760.946,15764.934
1396666.7993967014,-86342.49,-84017.26,-1254.7201,37616.13,-5373.21,12041.179,-5760.3354,15795.41
1396666.8033966972,-86346.68,-84027.305,-1268.3105,37594.156,-5393.026,12038.859,-5763.713,15754.477
1396666.807396693,-86346.97,-84034.016,-1290.7715,37559.246,-5414.0625,12028.32,-5766.968,15690.063
1396666.8113966887,-86346.234,-84033.29,-1291.2598,37555.258,-5411.947,12026.205,-5766.1133,15687.582
1396666.8153966845,-86348.15,-84023.93,-1269.6941,37587.242,-5382.0396,12034.546,-5760.051,15758.586
1396666.8193966805,-86350.55,-84019.125,-1258.0566,37611.816,-5378.296,12040.283,-5759.4404,15788.412
1396666.8233966762,-86356.445,-84025.48,-1271.1996,37596.273,-5398.926,12036.052,-5765.1367,15742.839
1396666.827396672,-86355.59,-84030.93,-1293.8232,37558.31,-5422.7295,12024.658,-5770.1416,15684.448
1396666.8313966678,-86356.695,-84023.12,-1295.0033,37554.77,-5408.6914,12021.24,-5768.1885,15690.593
1396666.8353966638,-86353.31,-84009.89,-1271.4031,37587.81,-5384.2773,12028.769,-5763.3467,15754.639
1396666.8393966595,-86352.99,-84012.33,-1257.4056,37609.17,-5386.882,12038.168,-5762.329,15775.473
1396666.8433966553,-86356.9,-84025.44,-1271.1589,37591.96,-5407.3896,12035.197,-5764.282,15735.434
1396666.847396651,-86356.695,-84024.82,-1294.0267,37555.664,-5427.5312,12024.414,-5765.5845,15682.699
1396666.8513966468,-86353.68,-84016.65,-1295.9392,37554.484,-5418.9453,12022.665,-5762.573,15696.574
1396666.8553966428,-86347.945,-84007.734,-1272.6238,37590.25,-5402.588,12033.651,-5758.7485,15765.585
1396666.8593966386,-86348.68,-84006.88,-1259.4402,37612.633,-5394.328,12040.649,-5761.434,15792.644
1396666.8633966343,-86352.3,-84014.81,-1274.0072,37597.617,-5404.785,12038.452,-5764.323,15754.028
1396666.86739663,-86355.23,-84023.195,-1299.2351,37557.332,-5429.8506,12027.1,-5767.2935,15686.728
1396666.871396626,-86350.18,-84020.836,-1294.8406,37556.113,-5426.595,12022.665,-5766.2764,15691.65
1396666.8753966219,-86352.664,-84011.15,-1269.0837,37591.188,-5400.0654,12032.064,-5759.7656,15759.5625
1396666.8793966176,-86352.83,-84017.055,-1257.7312,37612.43,-5398.3154,12039.836,-5758.1787,15783.732
1396666.8833966134,-86349.695,-84016.73,-1270.0195,37598.473,-5417.806,12036.947,-5758.7485,15747.885
1396666.8873966092,-86352.38,-84012.984,-1294.3115,37561.484,-5438.07,12025.1875,-5762.085,15682.211
1396666.8913966052,-86357.22,-84013.72,-1296.6716,37557.13,-5431.1523,12021.933,-5762.573,15689.819
1396666.895396601,-86347.5,-84000.695,-1278.2797,37586.55,-5405.8027,12029.989,-5761.312,15748.739
1396666.8993965967,-86344.57,-84006.43,-1265.8691,37609.78,-5400.5537,12036.499,-5761.882,15772.543
1396666.9033965925,-86356.41,-84015.67,-1273.1527,37597.25,-5414.6323,12032.715,-5764.282,15738.2
1396666.9073965885,-86357.99,-84021.164,-1295.4102,37560.14,-5434.53,12025.146,-5765.9507,15679.6875
1396666.9113965842,-86353.805,-84007.734,-1293.3757,37562.83,-5420.8174,12023.112,-5763.591,15688.721
1396666.91539658,-86348.59,-83992.15,-1269.2871,37595.867,-5400.9604,12030.518,-5761.1084,15762.085
1396666.9193965758,-86348.72,-83987.305,-1259.6029,37614.016,-5404.704,12039.917,-5759.847,15787.476
1396666.9233965718,-86348.92,-83991.984,-1274.0072,37598.676,-5421.916,12037.191,-5763.835,15741.903
1396666.9273965675,-86347.62,-84006.76,-1300.3337,37560.14,-5450.643,12026.652,-5766.2354,15677.328
1396666.9313965633,-86352.83,-83993.0,-1297.4854,37559.938,-5440.796,12023.601,-5764.5674,15683.146
1396666.935396559,-86350.016,-83977.664,-1274.821,37594.85,-5418.457,12030.884,-5760.5796,15758.301
1396666.9393965548,-86341.92,-83967.53,-1262.6953,37615.766,-5407.2266,12035.849,-5761.7188,15785.116
1396666.9433965508,-86345.87,-83971.03,-1274.9838,37605.023,-5417.6436,12034.872,-5765.259,15748.698
1396666.9473965466,-86346.805,-83989.914,-1297.6888,37563.68,-5444.58,12026.571,-5765.91,15689.86
1396666.9513965424,-86343.55,-83984.58,-1299.0723,37556.723,-5440.1855,12024.089,-5763.1025,15696.045
1396666.9553965381,-86335.9,-83972.66,-1276.4893,37592.734,-5417.1553,12032.512,-5760.051,15760.539
1396666.9593965341,-86340.54,-83965.13,-1263.7126,37613.566,-5411.174,12037.476,-5763.0615,15778.076
1396666.96339653,-86355.23,-83962.37,-1276.8148,37598.55,-5422.2007,12033.8545,-5768.026,15738.2
1396666.9673965257,-86351.12,-83955.484,-1300.4558,37564.047,-5433.635,12024.618,-5770.915,15676.107
1396666.9713965214,-86342.41,-83948.2,-1297.8923,37564.25,-5415.324,12022.949,-5770.3047,15685.629
1396666.9753965172,-86333.09,-83944.7,-1273.0306,37596.64,-5387.329,12033.163,-5766.7236,15757.609
1396666.9793965132,-86341.43,-83941.33,-1261.556,37620.81,-5382.324,12041.098,-5765.9507,15785.522
1396666.983396509,-86339.36,-83947.39,-1275.35,37605.145,-5406.128,12038.737,-5769.8164,15748.129
1396666.9873965047,-86338.95,-83961.67,-1302.4496,37565.023,-5416.3413,12028.117,-5772.502,15687.419
1396666.9913965005,-86332.69,-83949.34,-1301.9207,37562.258,-5400.798,12027.141,-5771.4844,15691.569
1396666.9953964965,-86334.59,-83932.336,-1278.7273,37594.727,-5376.831,12035.482,-5766.683,15756.145
1396666.9993964923,-86340.5,-83926.27,-1268.1885,37616.21,-5372.8438,12041.342,-5767.578,15779.989
1396667.003396488,-86339.16,-83930.34,-1280.4769,37597.008,-5392.497,12038.94,-5769.7754,15746.989
1396667.0073964838,-86348.35,-83925.26,-1305.9082,37558.31,-5407.064,12027.548,-5772.339,15683.554
1396667.0113964796,-86344.69,-83922.2,-1308.431,37555.137,-5394.2466,12028.117,-5770.915,15684.001
1396667.0153964756,-86333.91,-83916.586,-1286.3363,37589.03,-5362.712,12041.626,-5765.2183,15749.309
1396667.0193964713,-86328.984,-83907.43,-1277.832,37610.027,-5372.396,12049.194,-5764.852,15780.07
1396667.023396467,-86333.58,-83911.22,-1288.2488,37596.07,-5401.164,12047.607,-5765.9507,15746.745
1396667.0273964629,-86331.99,-83920.9,-1307.658,37558.84,-5411.0923,12039.551,-5768.2295,15685.141
1396667.0313964589,-86329.305,-83914.8,-1305.2979,37558.637,-5391.3984,12038.249,-5766.4795,15696.737
1396667.0353964546,-86329.92,-83905.36,-1284.017,37592.773,-5360.6772,12047.526,-5760.2134,15766.643
1396667.0393964504,-86331.75,-83901.25,-1273.3154,37612.633,-5355.2656,12054.077,-5760.742,15791.83
1396667.0433964462,-86329.8,-83903.77,-1284.668,37597.78,-5374.4307,12048.666,-5764.5264,15750.692
1396667.0473964422,-86328.086,-83915.77,-1308.2683,37561.973,-5397.2983,12037.924,-5767.741,15685.385
1396667.051396438,-86327.4,-83901.2,-1308.1055,37558.31,-5385.417,12037.436,-5766.0728,15697.917
1396667.0553964337,-86326.87,-83893.27,-1289.7543,37583.254,-5366.8623,12046.631,-5760.742,15759.766
1396667.0593964295,-86324.99,-83884.12,-1277.3438,37609.54,-5360.759,12052.775,-5759.5215,15787.436
1396667.0633964252,-86321.86,-83894.05,-1288.1267,37600.223,-5381.4697,12050.903,-5762.655,15754.436
1396667.0673964212,-86326.7,-83905.03,-1310.9539,37561.484,-5393.84,12042.155,-5764.608,15693.319
1396667.071396417,-86322.02,-83906.3,-1311.6049,37557.7,-5387.329,12038.981,-5762.492,15698.608
1396667.0753964128,-86310.1,-83894.86,-1290.0798,37590.375,-5354.492,12049.683,-5757.528,15764.812
1396667.0793964085,-86312.3,-83881.06,-1274.2513,37613.08,-5348.9585,12057.129,-5756.9175,15793.701
1396667.0833964045,-86318.12,-83881.516,-1285.726,37596.07,-5370.7275,12054.6875,-5759.4404,15757.446
1396667.0873964003,-86321.86,-83889.0,-1315.389,37556.234,-5394.5312,12042.766,-5764.73,15692.058
1396667.091396396,-86317.43,-83893.555,-1316.0808,37556.113,-5385.2134,12040.69,-5764.201,15694.906
1396667.0953963918,-86319.26,-83888.96,-1293.6199,37586.59,-5371.867,12049.154,-5760.8643,15753.988
1396667.0993963876,-86318.61,-83883.586,-1278.3611,37607.137,-5356.12,12055.624,-5758.789,15783.529
1396667.1033963836,-86323.125,-83887.33,-1290.3646,37593.63,-5366.455,12053.142,-5760.254,15753.256
1396667.1073963793,-86324.71,-83890.71,-1314.9008,37558.35,-5389.4043,12042.196,-5764.1196,15692.668
1396667.111396375,-86314.5,-83876.63,-1309.7332,37559.57,-5378.2554,12040.202,-5761.76,15702.108
1396667.1153963709,-86310.59,-83860.64,-1284.5459,37593.914,-5352.661,12050.456,-5755.29,15776.733
1396667.1193963669,-86308.516,-83861.86,-1270.8334,37611.33,-5347.4937,12057.333,-5754.1504,15805.42
1396667.1233963626,-86311.57,-83874.76,-1286.2549,37595.99,-5368.9375,12053.467,-5755.4526,15769.9795
1396667.1273963584,-86317.266,-83877.24,-1315.1449,37558.23,-5393.3105,12041.992,-5758.5044,15706.096
1396667.1313963542,-86315.555,-83876.836,-1317.4236,37554.363,-5386.9224,12041.138,-5756.5107,15705.974
1396667.13539635,-86310.59,-83860.76,-1289.7543,37588.582,-5358.236,12052.368,-5748.9424,15776.286
1396667.139396346,-86304.734,-83860.555,-1276.0417,37610.477,-5358.032,12058.391,-5750.4883,15802.124
1396667.1433963417,-86307.62,-83871.95,-1286.0515,37597.293,-5381.1035,12054.851,-5758.138,15756.877
1396667.1473963375,-86306.195,-83884.56,-1306.4373,37560.875,-5393.026,12044.719,-5759.3184,15697.876
1396667.1513963332,-86299.65,-83878.54,-1303.182,37560.14,-5379.3135,12042.603,-5754.598,15712.769
1396667.1553963292,-86293.79,-83859.01,-1277.7507,37594.363,-5350.2197,12053.345,-5750.4478,15780.6
1396667.159396325,-86296.35,-83856.24,-1268.1478,37612.43,-5350.505,12057.414,-5756.6733,15798.869
1396667.1633963208,-86304.57,-83872.766,-1282.308,37594.32,-5369.792,12052.531,-5762.655,15751.669
1396667.1673963165,-86303.43,-83878.09,-1308.7566,37557.742,-5372.8027,12042.969,-5764.038,15691.162
1396667.1713963123,-86290.94,-83868.33,-1303.7517,37560.59,-5361.6943,12041.464,-5760.2134,15699.585
1396667.1753963083,-86285.65,-83857.625,-1277.0183,37595.582,-5350.1387,12051.025,-5754.5576,15768.2705
1396667.179396304,-86294.6,-83862.8,-1264.7299,37619.344,-5342.5703,12060.059,-5750.4478,15803.589
1396667.1833962998,-86300.26,-83867.19,-1278.5645,37604.168,-5357.7476,12057.821,-5752.9707,15768.148
1396667.1873962956,-86292.69,-83863.28,-1304.2806,37563.723,-5378.581,12044.922,-5759.969,15702.963
1396667.1913962916,-86281.09,-83856.445,-1302.7751,37559.57,-5371.5415,12041.586,-5758.952,15707.031
1396667.1953962874,-86283.98,-83857.67,-1283.2439,37590.984,-5351.278,12050.537,-5752.8076,15770.061
1396667.1993962831,-86285.04,-83861.25,-1273.0306,37615.848,-5343.1807,12057.048,-5752.645,15794.841
1396667.203396279,-86289.516,-83860.03,-1279.7039,37602.785,-5358.032,12052.084,-5755.697,15757.976
1396667.207396275,-86297.445,-83873.13,-1304.0771,37562.785,-5391.1543,12041.667,-5757.65,15699.748
1396667.2113962707,-86289.76,-83856.85,-1304.9316,37562.38,-5378.703,12040.935,-5754.6797,15709.433
1396667.2153962664,-86280.44,-83847.17,-1279.5004,37597.37,-5350.627,12049.765,-5749.634,15780.6
1396667.2193962622,-86281.62,-83856.61,-1264.5671,37616.54,-5348.4297,12056.152,-5749.2676,15806.723
1396667.223396258,-86289.23,-83868.125,-1276.4486,37602.5,-5367.676,12053.833,-5751.872,15772.217
1396667.227396254,-86286.87,-83868.57,-1301.7578,37565.145,-5385.254,12044.475,-5754.802,15709.88
1396667.2313962497,-86284.63,-83864.18,-1304.6875,37561.566,-5377.3604,12040.609,-5752.7266,15711.996
1396667.2353962455,-86280.32,-83852.5,-1285.6445,37593.387,-5354.533,12048.503,-5749.756,15777.751
1396667.2393962413,-86281.5,-83853.234,-1274.5769,37613.484,-5350.505,12055.705,-5747.64,15804.932
1396667.2433962373,-86286.5,-83851.81,-1286.0107,37596.03,-5365.1533,12052.409,-5749.878,15768.474
1396667.247396233,-86288.414,-83850.22,-1310.9131,37559.0,-5385.417,12040.935,-5751.709,15706.747
1396667.2513962288,-86286.5,-83853.92,-1314.4531,37553.508,-5384.481,12036.459,-5750.041,15712.729
1396667.2553962246,-86282.11,-83849.66,-1285.6445,37590.09,-5369.548,12046.55,-5742.798,15787.313
1396667.2593962203,-86282.68,-83848.88,-1266.7644,37615.97,-5359.131,12054.199,-5740.0312,15818.97
1396667.2633962163,-86277.43,-83856.28,-1271.932,37604.41,-5359.7007,12050.375,-5743.856,15781.82
1396667.267396212,-86280.27,-83862.06,-1298.2992,37564.13,-5379.1914,12039.836,-5747.4365,15710.165
1396667.2713962079,-86282.02,-83856.28,-1299.6013,37562.34,-5371.9893,12036.499,-5745.2803,15714.763
1396667.2753962036,-86273.44,-83835.62,-1274.0479,37597.37,-5350.4233,12044.556,-5740.3564,15786.011
1396667.2793961996,-86268.84,-83827.15,-1265.1775,37619.06,-5339.966,12050.985,-5741.008,15819.214
1396667.2833961954,-86269.45,-83836.55,-1276.0824,37604.41,-5350.7896,12047.079,-5746.7856,15777.019
1396667.2873961912,-86273.64,-83846.6,-1299.3978,37567.63,-5372.8027,12036.703,-5750.5293,15712.769
1396667.291396187,-86270.71,-83843.67,-1305.1758,37563.19,-5366.903,12034.709,-5748.657,15712.118
1396667.2953961827,-86273.07,-83833.74,-1283.0404,37594.28,-5350.7896,12042.888,-5743.4897,15777.222
1396667.2993961787,-86281.7,-83825.766,-1269.0023,37617.84,-5349.7725,12050.822,-5742.4727,15810.059
1396667.3033961745,-86278.89,-83825.89,-1278.7273,37602.336,-5367.1064,12048.544,-5744.1406,15775.513
1396667.3073961702,-86270.305,-83852.83,-1301.1068,37565.473,-5386.2715,12040.161,-5745.687,15715.007
1396667.311396166,-86269.33,-83853.27,-1297.7295,37565.023,-5368.408,12037.924,-5743.449,15723.308
1396667.315396162,-86262.086,-83836.55,-1276.0417,37595.215,-5342.7734,12047.7705,-5739.746,15788.737
1396667.3193961577,-86259.73,-83834.72,-1266.1947,37613.73,-5339.7217,12055.217,-5741.6587,15811.035
1396667.3233961535,-86265.38,-83842.82,-1277.9135,37601.24,-5360.881,12051.352,-5746.948,15770.712
1396667.3273961493,-86272.55,-83854.49,-1304.1179,37563.52,-5375.814,12039.795,-5752.0347,15701.864
1396667.3313961453,-86274.375,-83851.52,-1302.3682,37558.066,-5363.7695,12038.534,-5747.966,15709.433
1396667.335396141,-86266.234,-83826.984,-1279.3783,37590.09,-5342.082,12046.265,-5743.449,15781.128
1396667.3393961368,-86261.31,-83828.21,-1267.8223,37613.242,-5342.285,12052.938,-5743.856,15809.164
1396667.3433961326,-86264.57,-83835.62,-1275.6755,37601.766,-5357.0557,12051.066,-5746.135,15774.414
1396667.3473961283,-86268.76,-83841.39,-1298.7875,37564.94,-5387.9805,12040.649,-5748.9014,15717.651
1396667.3513961243,-86265.71,-83839.44,-1298.3806,37563.19,-5382.528,12037.313,-5744.995,15724.203
1396667.35539612,-86262.29,-83827.72,-1278.6459,37594.484,-5357.463,12045.37,-5740.8857,15786.662
1396667.3593961159,-86262.66,-83816.24,-1265.8285,37614.586,-5349.9756,12052.409,-5743.2456,15808.96
1396667.3633961116,-86264.37,-83826.945,-1277.71,37601.035,-5366.699,12051.962,-5744.792,15774.333
1396667.3673961076,-86264.65,-83839.12,-1306.9662,37562.34,-5403.4834,12041.748,-5747.4365,15704.956
1396667.3713961034,-86267.13,-83837.65,-1305.8676,37561.402,-5395.427,12036.784,-5747.152,15712.646
1396667.3753960992,-86256.8,-83822.59,-1280.6804,37593.02,-5363.973,12044.434,-5746.135,15771.811
1396667.379396095,-86264.08,-83824.266,-1270.3451,37610.516,-5362.7524,12051.066,-5746.0127,15794.189
1396667.3833960907,-86272.55,-83835.62,-1281.6976,37601.848,-5369.0186,12048.34,-5748.9424,15762.289
1396667.3873960867,-86276.125,-83850.1,-1304.2806,37565.31,-5389.6484,12038.615,-5753.581,15699.016
1396667.3913960825,-86271.12,-83839.68,-1304.2806,37564.047,-5363.5254,12037.68,-5749.878,15706.137
1396667.3953960782,-86261.11,-83823.41,-1282.8369,37596.19,-5349.6504,12046.143,-5743.6523,15779.623
1396667.399396074,-86258.63,-83819.38,-1271.3217,37615.234,-5355.184,12053.183,-5741.008,15815.186
1396667.40339607,-86261.48,-83820.44,-1284.7494,37601.074,-5379.2725,12049.4795,-5745.8906,15772.055
1396667.4073960658,-86266.08,-83829.23,-1310.5062,37564.535,-5401.8965,12039.348,-5751.18,15699.707
1396667.4113960615,-86261.97,-83825.12,-1310.669,37565.555,-5392.334,12035.849,-5750.8545,15706.137
1396667.4153960573,-86255.13,-83809.37,-1284.2205,37597.94,-5364.0137,12044.23,-5746.704,15778.402
1396667.419396053,-86258.63,-83813.64,-1271.932,37616.78,-5356.323,12050.497,-5746.704,15808.065
1396667.423396049,-86254.16,-83824.71,-1278.1982,37608.523,-5371.379,12047.323,-5749.1455,15773.682
1396667.4273960448,-86252.85,-83825.805,-1301.351,37569.906,-5397.7866,12038.737,-5751.587,15707.438
1396667.4313960406,-86244.14,-83826.17,-1301.4324,37568.32,-5391.3984,12036.743,-5751.3022,15705.688
1396667.4353960364,-86243.37,-83823.49,-1282.6742,37596.598,-5370.0767,12044.108,-5748.21,15767.172
1396667.4393960324,-86251.71,-83815.63,-1275.35,37614.91,-5366.333,12051.962,-5746.338,15791.138
1396667.4433960281,-86254.93,-83819.336,-1284.6273,37600.14,-5377.0347,12051.433,-5746.338,15760.01
1396667.447396024,-86252.24,-83829.19,-1305.0131,37568.402,-5393.677,12042.277,-5745.7686,15702.026
1396667.4513960197,-86245.2,-83830.61,-1304.6875,37569.215,-5386.9224,12037.476,-5744.507,15709.311
1396667.4553960154,-86239.18,-83828.29,-1281.0466,37599.895,-5367.4316,12044.963,-5741.74,15772.136
1396667.4593960114,-86235.64,-83814.5,-1265.3402,37622.152,-5358.724,12050.212,-5742.92,15792.807
1396667.4633960072,-86242.59,-83815.48,-1275.3906,37607.34,-5370.4023,12049.113,-5743.408,15758.423
1396667.467396003,-86247.84,-83829.555,-1302.5717,37569.094,-5401.571,12038.574,-5746.135,15702.434
1396667.4713959987,-86245.164,-83825.32,-1305.2979,37566.49,-5393.3516,12036.784,-5741.252,15715.292
1396667.4753959947,-86242.44,-83816.45,-1283.6508,37593.59,-5365.1533,12046.835,-5733.3174,15787.231
1396667.4793959905,-86235.03,-83813.03,-1268.1478,37617.758,-5361.4097,12054.973,-5728.5156,15818.97
1396667.4833959863,-86240.08,-83824.99,-1280.1514,37599.61,-5380.3306,12049.5205,-5733.48,15778.524
1396667.487395982,-86244.34,-83833.91,-1303.9551,37559.855,-5405.1514,12037.924,-5740.6416,15705.7705
1396667.491395978,-86242.15,-83826.17,-1302.7344,37562.906,-5394.8164,12036.662,-5739.665,15710.043
1396667.4953959738,-86246.7,-83812.91,-1281.1687,37594.93,-5367.798,12045.776,-5735.5957,15774.496
1396667.4993959696,-86244.67,-83812.7,-1268.514,37616.496,-5357.829,12051.636,-5732.707,15802.368
1396667.5033959653,-86237.71,-83826.83,-1273.4375,37608.562,-5368.734,12047.648,-5737.427,15770.386
1396667.507395961,-86237.555,-83834.555,-1296.2646,37571.453,-5388.2246,12037.395,-5738.9326,15713.583
1396667.511395957,-86236.66,-83824.34,-1303.1006,37564.94,-5388.143,12034.465,-5737.142,15713.664
1396667.5153959529,-86231.9,-83815.59,-1280.9652,37594.484,-5369.7104,12041.667,-5734.131,15769.531
1396667.5193959486,-86241.74,-83812.5,-1271.7285,37616.457,-5370.0767,12047.079,-5736.654,15785.767
1396667.5233959444,-86247.12,-83810.23,-1278.0355,37607.625,-5381.063,12043.905,-5740.9263,15751.059
1396667.5273959404,-86251.586,-83816.37,-1299.8455,37572.797,-5399.6177,12034.75,-5746.135,15688.11
1396667.5313959362,-86236.94,-83817.51,-1301.8799,37569.5,-5389.852,12031.901,-5746.867,15695.72
1396667.535395932,-86222.62,-83803.67,-1279.3376,37600.383,-5367.839,12041.22,-5742.0654,15763.916
1396667.5393959277,-86227.09,-83799.36,-1269.8162,37616.984,-5365.072,12049.032,-5740.7637,15792.277
1396667.5433959235,-86236.21,-83809.66,-1282.5521,37602.906,-5378.9062,12047.16,-5743.164,15757.08
1396667.5473959194,-86235.4,-83821.25,-1307.658,37567.3,-5410.8076,12034.994,-5749.2676,15692.587
1396667.5513959152,-86235.44,-83802.37,-1309.2041,37566.043,-5394.613,12034.302,-5747.03,15697.673
1396667.555395911,-86233.56,-83798.875,-1281.6162,37595.95,-5372.518,12043.091,-5740.967,15764.812
1396667.5593959067,-86230.96,-83803.06,-1267.741,37620.402,-5365.1533,12050.903,-5741.089,15792.196
1396667.5633959027,-86230.836,-83793.5,-1276.123,37610.027,-5372.03,12049.154,-5747.152,15756.958
1396667.5673958985,-86226.73,-83815.68,-1299.2758,37569.01,-5394.979,12038.412,-5751.4243,15689.047
1396667.5713958943,-86229.336,-83816.29,-1300.4965,37565.43,-5391.6016,12034.262,-5749.2676,15695.557
1396667.57539589,-86222.91,-83809.29,-1281.9824,37594.688,-5374.3086,12040.487,-5744.995,15761.068
1396667.5793958858,-86230.76,-83806.195,-1270.9961,37616.008,-5372.3145,12047.7705,-5743.6523,15786.54
1396667.5833958818,-86239.87,-83807.01,-1277.8728,37606.445,-5389.282,12043.864,-5746.948,15756.633
1396667.5873958776,-86230.72,-83816.53,-1298.5027,37572.105,-5403.402,12035.116,-5747.966,15693.97
1396667.5913958733,-86225.63,-83815.02,-1299.1943,37567.06,-5394.9385,12032.227,-5744.792,15697.0625
1396667.595395869,-86222.82,-83804.32,-1278.4017,37598.188,-5376.465,12040.365,-5741.699,15762.167
1396667.599395865,-86218.1,-83802.29,-1268.5547,37617.8,-5376.465,12047.526,-5742.269,15787.558
1396667.6033958609,-86227.91,-83814.375,-1283.6101,37602.62,-5397.461,12044.516,-5748.2505,15741.333
1396667.6073958566,-86237.47,-83815.8,-1308.3496,37570.11,-5411.133,12034.18,-5750.285,15683.432
1396667.6113958524,-86236.33,-83799.12,-1305.7861,37566.938,-5398.8037,12030.559,-5747.518,15686.564
1396667.6153958482,-86233.6,-83795.45,-1281.6976,37601.562,-5378.296,12039.307,-5742.676,15752.93
1396667.6193958442,-86229.78,-83794.4,-1270.223,37619.508,-5376.628,12046.062,-5742.5537,15783.0
1396667.62339584,-86227.46,-83802.05,-1279.948,37606.65,-5384.969,12042.888,-5746.6636,15749.838
1396667.6273958357,-86230.836,-83809.62,-1304.362,37571.047,-5402.751,12032.512,-5749.471,15686.157
1396667.6313958315,-86221.36,-83809.82,-1305.6234,37566.57,-5398.519,12030.355,-5746.867,15686.361
1396667.6353958275,-86219.61,-83804.0,-1288.4929,37595.34,-5377.6045,12038.9,-5743.856,15748.495
1396667.6393958232,-86229.54,-83802.66,-1278.117,37612.918,-5371.5415,12044.638,-5744.1,15766.806
1396667.643395819,-86230.555,-83797.28,-1284.5459,37602.5,-5383.342,12042.196,-5743.3677,15737.834
1396667.6473958148,-86230.31,-83794.03,-1306.722,37568.523,-5404.989,12033.0,-5746.0127,15680.502
1396667.6513958108,-86224.04,-83783.0,-1306.722,37565.51,-5392.4155,12031.291,-5743.5303,15689.697
1396667.6553958065,-86213.625,-83765.42,-1285.1562,37595.746,-5360.4736,12038.493,-5738.078,15761.841
1396667.6593958023,-86213.55,-83760.79,-1273.5189,37613.08,-5355.7944,12043.905,-5736.45,15789.267
1396667.663395798,-86201.26,-83758.836,-1282.1859,37600.465,-5363.4033,12040.935,-5739.4614,15750.8955
1396667.6673957938,-86204.555,-83777.914,-1310.1807,37561.688,-5380.9814,12032.919,-5742.2285,15684.611
1396667.6713957898,-86217.086,-83783.734,-1312.0525,37558.23,-5373.21,12033.813,-5737.9966,15692.424
1396667.6753957856,-86204.305,-83758.914,-1286.8246,37594.645,-5342.407,12041.342,-5734.2124,15762.736
1396667.6793957814,-86196.17,-83759.08,-1275.2686,37614.176,-5339.2334,12046.184,-5735.1484,15788.737
1396667.6833957771,-86202.234,-83767.46,-1289.7949,37603.19,-5352.1323,12045.288,-5736.6133,15756.348
1396667.6873957731,-86203.086,-83775.07,-1312.2966,37567.508,-5367.717,12035.971,-5735.962,15701.742
1396667.691395769,-86199.55,-83760.664,-1313.1104,37560.63,-5360.2295,12032.187,-5733.358,15708.7
1396667.6953957647,-86196.58,-83740.73,-1293.5791,37587.242,-5333.293,12040.976,-5728.3936,15776.245
1396667.6993957604,-86204.266,-83735.84,-1283.7322,37610.516,-5323.7305,12051.311,-5725.9116,15803.467
1396667.7033957562,-86208.87,-83741.7,-1291.3818,37600.87,-5336.548,12048.584,-5729.248,15769.816
1396667.7073957522,-86208.17,-83763.72,-1313.7207,37562.176,-5364.0137,12039.47,-5730.0215,15711.711
1396667.711395748,-86198.61,-83758.79,-1318.3187,37554.85,-5359.619,12037.436,-5729.004,15710.002
1396667.7153957437,-86192.67,-83746.79,-1298.0957,37584.15,-5326.213,12045.166,-5727.783,15771.688
1396667.7193957395,-86197.15,-83740.07,-1288.5742,37603.07,-5313.5986,12049.194,-5729.37,15796.062
1396667.7233957355,-86195.11,-83749.23,-1296.875,37590.66,-5326.335,12045.776,-5730.51,15760.661
1396667.7273957313,-86205.61,-83763.1,-1322.4691,37557.902,-5351.7256,12036.499,-5732.422,15701.091
1396667.731395727,-86203.05,-83753.18,-1322.0623,37557.332,-5341.7563,12035.727,-5729.248,15711.426
1396667.7353957228,-86193.52,-83738.65,-1301.6765,37587.85,-5318.807,12045.451,-5722.4937,15780.844
1396667.7393957186,-86198.61,-83735.35,-1292.4805,37608.156,-5311.5234,12052.409,-5721.3545,15810.263
1396667.7433957146,-86204.875,-83737.43,-1300.0896,37599.527,-5319.865,12047.241,-5726.115,15774.902
1396667.7473957103,-86204.92,-83748.74,-1323.7712,37562.99,-5344.5234,12035.686,-5731.6895,15709.514
1396667.751395706,-86202.195,-83753.74,-1324.3408,37558.31,-5336.9956,12031.901,-5731.079,15712.118
1396667.7553957019,-86194.22,-83758.51,-1305.5013,37586.832,-5318.2783,12040.405,-5725.993,15775.554
1396667.7593956979,-86191.25,-83754.11,-1297.6888,37606.324,-5319.743,12047.974,-5725.7896,15797.363
1396667.7633956936,-86198.0,-83750.86,-1305.0945,37597.414,-5331.3804,12044.678,-5729.7773,15760.01
1396667.7673956894,-86201.22,-83747.07,-1326.5789,37562.703,-5354.492,12033.691,-5734.416,15696.615
1396667.7713956852,-86199.71,-83740.93,-1326.9043,37562.5,-5348.877,12032.553,-5733.3174,15699.179
1396667.7753956812,-86189.3,-83728.15,-1303.182,37591.594,-5316.203,12041.789,-5729.248,15768.799
1396667.779395677,-86192.51,-83725.95,-1290.6494,37609.906,-5311.2793,12047.893,-5730.591,15794.027
1396667.7833956727,-86197.96,-83740.93,-1302.9785,37600.223,-5325.277,12045.288,-5736.125,15746.338
1396667.7873956684,-86205.61,-83764.33,-1330.7292,37560.875,-5351.8477,12036.011,-5738.8105,15678.061
1396667.7913956642,-86195.92,-83767.7,-1332.4789,37559.33,-5346.843,12034.018,-5736.8574,15686.483
1396667.7953956602,-86182.82,-83750.25,-1306.2338,37593.02,-5330.4854,12042.5625,-5731.8115,15757.609
1396667.799395656,-86184.0,-83744.836,-1293.7012,37613.688,-5324.951,12050.781,-5727.9053,15787.069
1396667.8033956517,-86186.89,-83742.68,-1301.0254,37605.062,-5342.3667,12049.276,-5728.475,15760.173
1396667.8073956475,-86188.52,-83751.266,-1321.3705,37567.26,-5359.7007,12039.022,-5730.062,15701.986
1396667.8113956435,-86186.08,-83736.414,-1319.8242,37561.727,-5345.9883,12037.964,-5725.383,15710.693
1396667.8153956393,-86186.16,-83724.77,-1299.0316,37592.33,-5322.3877,12047.648,-5718.221,15775.798
1396667.819395635,-86184.45,-83745.28,-1286.4177,37613.28,-5318.6035,12055.705,-5715.698,15801.555
1396667.8233956308,-86182.336,-83754.27,-1297.0785,37603.19,-5332.5605,12054.362,-5716.4307,15768.555
1396667.8273956266,-86184.53,-83761.88,-1320.1904,37567.426,-5352.458,12045.817,-5718.547,15710.979
1396667.8313956226,-86184.53,-83755.45,-1322.7947,37563.234,-5345.9473,12044.108,-5716.4717,15715.82
1396667.8353956183,-86176.555,-83737.06,-1303.7924,37591.637,-5323.039,12051.311,-5711.426,15778.483
1396667.839395614,-86180.46,-83740.805,-1295.4509,37609.418,-5326.091,12058.432,-5710.6934,15799.316
1396667.8433956099,-86187.055,-83751.1,-1307.2103,37602.703,-5344.4014,12057.577,-5712.85,15764.486
1396667.8473956059,-86192.38,-83751.67,-1328.2471,37569.54,-5363.607,12048.34,-5715.576,15707.886
1396667.8513956016,-86187.83,-83740.89,-1327.1484,37563.52,-5351.6035,12046.591,-5709.9204,15712.769
1396667.8553955974,-86190.23,-83747.64,-1306.3558,37593.223,-5318.7666,12057.455,-5701.1313,15784.424
1396667.8593955932,-86191.37,-83748.5,-1293.7012,37612.875,-5309.896,12065.186,-5700.155,15820.517
1396667.863395589,-86190.31,-83744.14,-1304.4841,37600.75,-5329.631,12061.401,-5706.95,15785.075
1396667.867395585,-86190.31,-83757.37,-1329.2236,37564.008,-5354.045,12050.537,-5710.9375,15715.902
1396667.8713955807,-86193.12,-83749.19,-1333.4554,37555.664,-5351.522,12048.3,-5708.252,15718.628
1396667.8753955765,-86187.83,-83733.6,-1312.9476,37584.39,-5335.4087,12056.274,-5703.0845,15776.408
1396667.8793955722,-86192.266,-83730.836,-1297.8923,37609.742,-5333.537,12063.3955,-5701.0093,15805.99
1396667.8833955682,-86187.83,-83732.875,-1303.9144,37601.117,-5354.7363,12060.181,-5704.631,15773.967
1396667.887395564,-86191.61,-83740.56,-1327.9216,37565.348,-5364.543,12052.165,-5708.6997,15719.849
1396667.8913955598,-86182.82,-83750.25,-1327.8809,37560.465,-5351.115,12049.724,-5705.3223,15720.093
1396667.8953955555,-86174.484,-83737.23,-1307.7393,37590.414,-5328.125,12058.838,-5699.3003,15783.569
1396667.8993955513,-86172.65,-83735.11,-1293.2129,37615.03,-5319.377,12066.244,-5698.3237,15807.943
1396667.9033955473,-86184.164,-83749.27,-1304.4434,37601.81,-5333.822,12062.338,-5704.183,15763.469
1396667.907395543,-86188.6,-83753.91,-1328.125,37567.79,-5348.348,12051.188,-5708.4556,15701.335
1396667.9113955388,-86173.34,-83747.16,-1323.8525,37565.715,-5347.575,12049.805,-5704.061,15715.902
1396667.9153955346,-86167.16,-83734.7,-1301.351,37597.332,-5323.568,12060.507,-5696.737,15783.447
1396667.9193955306,-86168.42,-83719.32,-1289.1439,37620.688,-5319.621,12068.156,-5695.5566,15813.029
1396667.9233955264,-86174.89,-83735.27,-1296.0613,37609.17,-5329.2236,12064.779,-5697.917,15778.931
1396667.9273955221,-86176.27,-83748.86,-1317.9932,37572.754,-5347.982,12054.973,-5698.812,15719.971
1396667.931395518,-86177.37,-83740.16,-1322.225,37571.207,-5343.2617,12054.321,-5695.3535,15723.227
1396667.935395514,-86171.92,-83738.445,-1306.2744,37597.535,-5328.247,12061.605,-5693.1562,15776.9375
1396667.9393955097,-86166.22,-83742.84,-1292.3992,37621.99,-5311.8086,12069.336,-5692.871,15804.729
1396667.9433955054,-86168.016,-83743.94,-1297.1599,37612.55,-5317.749,12068.156,-5694.092,15777.751
1396667.9473955012,-86176.88,-83740.52,-1317.3828,37575.81,-5344.9707,12057.617,-5697.2656,15721.802
1396667.951395497,-86172.61,-83738.445,-1318.4001,37570.926,-5342.407,12054.321,-5695.842,15721.3545
1396667.955395493,-86170.9,-83726.32,-1298.3806,37599.812,-5320.7197,12061.401,-5690.8774,15783.61
1396667.9593954887,-86168.375,-83730.96,-1288.0046,37618.164,-5316.732,12068.481,-5691.081,15807.17
1396667.9633954845,-86167.52,-83741.945,-1299.1537,37605.633,-5338.298,12066.325,-5697.795,15763.266
1396667.9673954803,-86167.12,-83760.5,-1321.1263,37572.266,-5359.5786,12058.105,-5701.091,15703.451
1396667.9713954763,-86165.49,-83760.016,-1321.3298,37567.465,-5351.0337,12055.908,-5697.3066,15711.264
1396667.975395472,-86164.11,-83744.8,-1297.8923,37602.215,-5324.585,12064.535,-5692.424,15782.756
1396667.9793954678,-86164.92,-83728.68,-1283.4066,37624.84,-5318.6445,12073.283,-5691.61,15815.186
1396667.9833954636,-86171.15,-83746.18,-1292.3584,37612.55,-5338.623,12072.266,-5693.6035,15779.135
1396667.9873954593,-86181.195,-83760.22,-1318.2781,37575.4,-5360.9214,12060.466,-5699.1377,15707.031
1396667.9913954553,-86169.97,-83754.195,-1322.6726,37568.484,-5353.231,12057.577,-5699.748,15701.01
1396667.995395451,-86157.88,-83745.57,-1301.0662,37599.977,-5319.2954,12064.779,-5695.3535,15769.572
1396667.9993954469,-86162.72,-83743.0,-1287.4756,37622.52,-5318.1562,12071.167,-5694.0107,15800.009
1396668.0033954426,-86172.53,-83732.1,-1295.6136,37614.543,-5329.59,12068.767,-5698.7305,15763.51
1396668.0073954386,-86170.66,-83749.07,-1316.5691,37581.34,-5346.924,12059.896,-5702.3926,15704.672
1396668.0113954344,-86160.85,-83746.22,-1318.8884,37575.93,-5341.675,12056.723,-5700.399,15708.7
1396668.0153954301,-86153.32,-83738.24,-1297.7703,37605.47,-5319.9873,12064.535,-5697.103,15776.286
1396668.019395426,-86161.87,-83743.695,-1287.8011,37624.105,-5320.801,12070.272,-5697.998,15800.659
1396668.0233954217,-86163.62,-83751.305,-1299.4792,37614.016,-5338.542,12068.645,-5700.7246,15756.592
1396668.0273954177,-86161.38,-83754.766,-1321.5332,37581.016,-5348.348,12060.791,-5700.1953,15700.847
1396668.0313954134,-86163.17,-83749.39,-1319.5394,37578.777,-5341.5527,12059.367,-5695.272,15710.165
1396668.0353954092,-86158.9,-83734.42,-1298.5433,37607.83,-5321.086,12066.732,-5690.4297,15775.676
1396668.039395405,-86159.43,-83731.04,-1284.9529,37627.402,-5316.6504,12073.283,-5689.087,15810.141
1396668.043395401,-86158.66,-83738.57,-1292.155,37618.492,-5333.0894,12072.104,-5690.6333,15777.304
1396668.0473953967,-86157.39,-83757.94,-1315.0635,37581.18,-5356.4863,12063.559,-5692.0166,15713.461
1396668.0513953925,-86151.125,-83755.91,-1318.3187,37575.887,-5347.046,12060.303,-5686.8086,15715.332
1396668.0553953883,-86137.695,-83737.43,-1293.0502,37608.195,-5325.155,12068.278,-5681.5596,15781.657
1396668.0593953843,-86144.45,-83733.195,-1279.541,37631.754,-5317.1797,12074.341,-5682.251,15815.593
1396668.06339538,-86148.52,-83748.62,-1288.7777,37621.91,-5333.0894,12072.429,-5683.6753,15786.337
1396668.0673953758,-86147.14,-83757.86,-1312.7441,37585.574,-5355.184,12062.053,-5686.4014,15719.89
1396668.0713953716,-86155.84,-83747.97,-1314.2904,37580.406,-5346.843,12057.333,-5684.53,15724.609
1396668.0753953673,-86151.37,-83742.27,-1297.9736,37605.875,-5326.579,12066.406,-5679.3623,15786.296
1396668.0793953633,-86143.805,-83737.59,-1284.9935,37629.438,-5321.9404,12076.457,-5678.304,15816.813
1396668.083395359,-86140.79,-83740.4,-1291.0564,37622.6,-5338.786,12074.504,-5682.9834,15781.494
1396668.0873953549,-86149.05,-83749.27,-1310.0994,37590.047,-5361.4097,12063.803,-5684.2856,15721.3955
1396668.0913953506,-86143.68,-83743.21,-1307.9021,37587.04,-5344.2383,12060.791,-5682.251,15725.464
1396668.0953953466,-86142.87,-83723.68,-1289.1846,37613.688,-5324.4224,12068.808,-5678.7925,15790.487
1396668.0993953424,-86139.37,-83732.67,-1280.2734,37631.39,-5323.7305,12071.899,-5680.542,15813.803
1396668.1033953382,-86139.2,-83749.48,-1289.0219,37622.844,-5338.094,12068.93,-5681.0713,15778.769
1396668.107395334,-86142.055,-83754.31,-1313.1511,37584.758,-5357.341,12060.913,-5684.326,15709.961
1396668.1113953297,-86143.44,-83744.14,-1314.1683,37583.78,-5341.0645,12058.838,-5683.553,15714.478
1396668.1153953257,-86139.164,-83737.63,-1288.9812,37615.4,-5323.446,12066.203,-5679.24,15779.948
1396668.1193953215,-86134.73,-83743.57,-1273.7224,37637.613,-5312.785,12073.975,-5678.711,15809.489
1396668.1233953172,-86142.055,-83738.98,-1282.7148,37629.477,-5321.859,12072.226,-5682.007,15783.61
1396668.127395313,-86140.305,-83741.87,-1305.7455,37592.246,-5349.3247,12061.157,-5684.245,15725.627
1396668.131395309,-86133.47,-83743.9,-1306.6406,37586.387,-5343.0586,12056.601,-5681.885,15728.679
1396668.1353953048,-86132.41,-83747.4,-1288.8184,37610.92,-5326.9043,12062.419,-5678.3857,15787.924
1396668.1393953005,-86134.89,-83746.83,-1279.8666,37634.605,-5321.4927,12069.458,-5679.3623,15802.897
1396668.1433952963,-86144.01,-83758.55,-1287.7197,37628.785,-5331.828,12070.395,-5679.199,15774.577
1396668.147395292,-86138.96,-83750.57,-1307.4138,37594.605,-5358.5205,12061.687,-5680.5015,15716.594
1396668.151395288,-86137.25,-83753.586,-1308.4717,37589.684,-5363.4033,12056.723,-5682.414,15716.716
1396668.1553952838,-86134.195,-83746.18,-1285.7666,37619.754,-5341.4307,12064.535,-5681.0303,15784.221
1396668.1593952796,-86133.99,-83731.445,-1272.2168,37643.027,-5325.155,12070.517,-5681.5186,15810.791
1396668.1633952754,-86136.11,-83735.76,-1284.668,37633.344,-5334.1475,12067.424,-5684.9775,15775.717
1396668.1673952714,-86137.125,-83754.11,-1309.367,37595.34,-5354.533,12056.4375,-5690.0635,15709.799
1396668.1713952671,-86142.375,-83760.83,-1313.1104,37587.65,-5347.331,12052.856,-5689.779,15707.561
1396668.175395263,-86136.88,-83752.16,-1294.6777,37621.99,-5323.12,12060.751,-5687.134,15771.566
1396668.1793952587,-86130.7,-83750.53,-1281.6162,37644.816,-5322.5913,12067.505,-5687.175,15798.91
1396668.1833952544,-86142.13,-83751.38,-1290.5681,37633.504,-5338.786,12066.895,-5686.9307,15774.252
1396668.1873952504,-86141.52,-83763.305,-1311.198,37596.76,-5359.66,12058.269,-5687.0117,15711.914
1396668.1913952462,-86135.336,-83765.75,-1310.1807,37588.83,-5356.6084,12054.484,-5683.3496,15713.217
1396668.195395242,-86131.43,-83753.664,-1289.2253,37617.105,-5343.791,12063.64,-5678.5483,15781.494
1396668.1993952377,-86137.945,-83753.336,-1277.6287,37638.184,-5336.955,12069.54,-5677.9785,15807.414
1396668.2033952337,-86137.01,-83755.45,-1282.7963,37630.496,-5345.744,12065.634,-5681.8037,15774.252
1396668.2073952295,-86138.96,-83767.91,-1305.5828,37597.7,-5360.962,12056.641,-5683.7974,15716.716
1396668.2113952253,-86133.38,-83775.96,-1306.8441,37592.164,-5357.1777,12056.926,-5677.8564,15726.889
1396668.215395221,-86129.6,-83759.97,-1287.4756,37618.33,-5331.0547,12066.366,-5671.224,15791.342
1396668.219395217,-86128.54,-83756.02,-1275.7976,37643.23,-5317.1387,12073.69,-5670.207,15816.569
1396668.2233952128,-86131.11,-83755.58,-1281.0059,37636.76,-5334.2695,12072.592,-5672.7705,15777.588
1396668.2273952086,-86134.484,-83764.41,-1303.8738,37602.5,-5358.236,12062.907,-5673.503,15722.86
1396668.2313952043,-86132.49,-83763.67,-1302.3275,37595.34,-5351.3184,12061.6455,-5670.858,15729.858
1396668.2353952,-86124.35,-83754.48,-1278.768,37625.45,-5340.129,12068.034,-5667.0737,15789.0625
1396668.239395196,-86125.734,-83745.41,-1269.9789,37644.45,-5333.293,12073.935,-5668.213,15815.186
1396668.2433951919,-86130.05,-83753.95,-1283.9355,37636.56,-5342.7734,12073.161,-5672.811,15774.902
1396668.2473951876,-86129.805,-83754.195,-1306.3558,37606.285,-5360.5146,12063.762,-5675.293,15717.163
1396668.2513951834,-86125.57,-83750.53,-1306.722,37600.832,-5354.9805,12057.943,-5673.6655,15725.098
1396668.2553951794,-86118.164,-83755.74,-1283.2031,37627.484,-5338.5825,12066.284,-5669.637,15791.423
1396668.2593951751,-86126.43,-83756.67,-1272.4203,37648.152,-5336.792,12072.876,-5668.254,15822.51
1396668.263395171,-86134.766,-83765.55,-1280.8025,37641.113,-5348.348,12071.655,-5670.41,15791.098
1396668.2673951667,-86147.26,-83781.7,-1300.415,37606.16,-5367.1064,12065.1455,-5671.8345,15731.242
1396668.2713951624,-86139.77,-83762.086,-1303.7924,37599.527,-5363.4033,12060.059,-5671.4277,15728.964
1396668.2753951584,-86108.445,-83739.46,-1282.308,37628.46,-5337.728,12062.826,-5672.038,15786.459
1396668.2793951542,-86109.78,-83741.78,-1271.5658,37649.09,-5335.9375,12069.702,-5671.1426,15814.25
1396668.28339515,-86120.164,-83738.2,-1278.2797,37642.457,-5345.622,12069.255,-5673.503,15780.966
1396668.2873951457,-86126.8,-83740.69,-1301.2289,37611.777,-5372.762,12059.896,-5674.8457,15724.121
1396668.2913951417,-86125.66,-83744.55,-1302.124,37608.887,-5366.089,12057.983,-5671.753,15732.788
1396668.2953951375,-86114.055,-83733.6,-1277.9135,37636.68,-5335.9375,12065.959,-5669.515,15796.509
1396668.2993951333,-86111.53,-83731.33,-1266.154,37658.855,-5329.712,12072.0625,-5672.3228,15817.18
1396668.303395129,-86114.95,-83727.586,-1275.5127,37649.375,-5341.4307,12069.662,-5678.3447,15781.21
1396668.3073951248,-86119.875,-83731.65,-1300.7406,37612.59,-5364.624,12059.733,-5681.885,15721.924
1396668.3113951208,-86117.8,-83746.26,-1307.9427,37600.75,-5366.0483,12056.315,-5678.1416,15722.168
1396668.3153951166,-86114.586,-83742.02,-1288.8184,37629.03,-5345.093,12063.559,-5673.625,15788.29
1396668.3193951123,-86115.32,-83736.21,-1276.1638,37657.188,-5340.373,12071.696,-5674.1943,15817.424
1396668.323395108,-86120.37,-83734.17,-1284.7494,37649.617,-5347.7783,12068.726,-5678.996,15780.762
1396668.327395104,-86118.45,-83743.164,-1303.9958,37617.88,-5365.8857,12057.78,-5684.652,15720.663
1396668.3313950999,-86117.555,-83741.91,-1305.2979,37610.637,-5357.015,12055.624,-5682.536,15727.092
1396668.3353950956,-86116.91,-83729.21,-1286.2549,37639.527,-5338.867,12063.884,-5675.537,15790.935
1396668.3393950914,-86109.78,-83729.74,-1276.6927,37659.668,-5336.1816,12071.086,-5673.6655,15819.418
1396668.3433950874,-86114.055,-83736.984,-1290.7308,37645.508,-5348.674,12069.418,-5675.8223,15780.559
1396668.3473950832,-86121.14,-83740.6,-1315.7959,37608.48,-5360.6772,12059.978,-5678.7925,15714.682
1396668.351395079,-86116.74,-83732.875,-1313.7615,37604.25,-5345.703,12057.861,-5677.7344,15723.1045
1396668.3553950747,-86118.53,-83715.375,-1294.1082,37634.117,-5325.155,12067.017,-5673.381,15785.767
1396668.3593950705,-86112.914,-83714.16,-1278.5645,37656.863,-5320.1094,12074.097,-5674.398,15817.709
1396668.3633950665,-86117.234,-83724.98,-1285.3191,37648.562,-5335.246,12072.47,-5677.7754,15792.358
1396668.3673950622,-86114.914,-83728.805,-1311.1166,37613.973,-5351.4,12063.029,-5677.9785,15730.713
1396668.371395058,-86109.91,-83728.68,-1315.4705,37604.37,-5340.7393,12061.361,-5672.7295,15731.527
1396668.3753950538,-86112.35,-83721.97,-1299.113,37630.74,-5321.9404,12067.587,-5668.9863,15788.656
1396668.3793950498,-86118.33,-83713.95,-1285.6445,37650.637,-5309.6924,12074.057,-5670.085,15816.122
1396668.3833950455,-86119.59,-83713.38,-1293.9047,37644.574,-5322.469,12072.673,-5674.6016,15788.615
1396668.3873950413,-86119.875,-83723.92,-1318.1967,37612.633,-5340.129,12063.11,-5678.1416,15729.37
1396668.391395037,-86119.34,-83720.336,-1319.987,37606.65,-5330.078,12061.32,-5674.52,15734.172
1396668.3953950328,-86115.08,-83710.37,-1299.3572,37636.355,-5301.799,12071.493,-5666.9517,15800.741
1396668.3993950288,-86103.07,-83712.73,-1287.2722,37657.84,-5296.5903,12076.701,-5664.388,15831.015
1396668.4033950246,-86101.32,-83713.42,-1296.1833,37645.914,-5305.1353,12075.236,-5664.388,15797.852
1396668.4073950204,-86112.02,-83719.16,-1322.7947,37607.79,-5332.0723,12066.162,-5669.4746,15733.358
1396668.4113950161,-86112.51,-83713.016,-1321.4926,37605.145,-5327.3926,12063.437,-5668.742,15735.718
1396668.4153950121,-86110.555,-83699.1,-1298.6248,37635.5,-5300.3745,12072.47,-5661.8247,15802.165
1396668.419395008,-86104.62,-83691.24,-1287.3129,37657.88,-5291.423,12079.956,-5657.593,15834.188
1396668.4233950037,-86103.15,-83700.4,-1296.3461,37654.01,-5298.4214,12079.387,-5659.79,15804.606
1396668.4273949994,-86099.33,-83709.76,-1320.0277,37619.67,-5317.0166,12069.336,-5663.7373,15746.786
1396668.4313949952,-86101.69,-83710.086,-1323.2015,37611.246,-5310.6284,12065.186,-5661.7026,15749.268
1396668.4353949912,-86107.1,-83705.94,-1302.0834,37637.656,-5292.44,12073.894,-5656.169,15810.751
1396668.439394987,-86103.766,-83703.695,-1289.4695,37658.734,-5280.477,12082.642,-5653.3203,15838.298
1396668.4433949827,-86103.44,-83704.305,-1295.9392,37653.727,-5291.911,12083.984,-5654.0938,15808.35
1396668.4473949785,-86106.61,-83717.98,-1317.8304,37618.367,-5312.663,12073.935,-5656.128,15750.041
1396668.4513949745,-86099.734,-83716.27,-1320.3125,37610.516,-5304.4434,12070.842,-5654.663,15753.825
1396668.4553949703,-86092.164,-83695.44,-1299.1943,37643.15,-5278.5645,12076.986,-5652.1406,15823.283
1396668.459394966,-86090.78,-83690.76,-1287.5164,37666.87,-5271.9727,12082.724,-5653.524,15848.511
1396668.4633949618,-86099.98,-83704.836,-1297.6888,37657.227,-5286.0107,12081.747,-5657.5117,15815.43
1396668.4673949576,-86104.58,-83717.0,-1321.4926,37621.01,-5307.943,12071.249,-5665.1206,15748.088
1396668.4713949536,-86106.41,-83714.89,-1321.3705,37611.777,-5298.4214,12068.848,-5664.8765,15746.135
1396668.4753949493,-86102.91,-83706.71,-1301.0662,37641.03,-5275.0244,12077.189,-5661.499,15808.879
1396668.479394945,-86101.16,-83712.2,-1287.1094,37665.242,-5273.4785,12083.334,-5662.069,15835.734
1396668.4833949408,-86104.82,-83732.75,-1295.6543,37657.918,-5294.4336,12081.015,-5669.3525,15793.986
1396668.4873949368,-86100.43,-83742.07,-1317.3422,37620.363,-5311.5645,12071.818,-5672.567,15737.0205
1396668.4913949326,-86099.29,-83724.53,-1317.5863,37614.098,-5304.199,12070.435,-5666.911,15745.769
1396668.4953949284,-86099.37,-83710.53,-1296.6309,37645.875,-5283.895,12076.864,-5660.4414,15811.523
1396668.4993949241,-86096.31,-83709.48,-1284.2205,37667.074,-5280.355,12083.496,-5660.5225,15841.635
1396668.5033949201,-86100.71,-83721.805,-1293.1722,37656.168,-5295.98,12081.95,-5664.3477,15808.676
1396668.507394916,-86106.41,-83731.164,-1314.738,37621.22,-5317.1387,12071.452,-5670.614,15745.361
1396668.5113949117,-86097.45,-83728.92,-1317.9525,37615.195,-5305.908,12066.081,-5672.445,15743.246
1396668.5153949074,-86090.21,-83719.77,-1296.224,37646.2,-5280.721,12074.911,-5668.254,15802.45
1396668.5193949032,-86093.43,-83711.59,-1285.2783,37671.47,-5266.0728,12082.4795,-5665.5273,15834.433
1396668.5233948992,-86093.836,-83708.984,-1291.9922,37665.977,-5275.5127,12082.275,-5668.2944,15804.892
1396668.527394895,-86098.266,-83725.99,-1314.4125,37630.047,-5306.0303,12075.562,-5670.044,15743.042
1396668.5313948907,-86092.66,-83730.39,-1318.156,37620.605,-5300.3745,12070.476,-5669.922,15739.787
1396668.5353948865,-86086.836,-83724.04,-1293.6199,37653.035,-5275.1465,12077.678,-5666.87,15801.84
1396668.5393948825,-86092.77,-83714.48,-1280.6804,37677.33,-5269.1245,12085.775,-5667.8877,15828.695
1396668.5433948783,-86097.13,-83711.266,-1289.6729,37665.367,-5283.1626,12084.636,-5672.933,15793.62
1396668.547394874,-86098.06,-83727.336,-1311.8896,37625.938,-5305.908,12074.016,-5676.1475,15729.696
1396668.5513948698,-86096.84,-83721.97,-1315.5518,37623.008,-5297.811,12070.761,-5671.672,15729.94
1396668.5553948656,-86088.055,-83709.27,-1292.5619,37655.965,-5275.676,12080.485,-5662.4756,15799.724
1396668.5593948616,-86082.93,-83714.234,-1278.768,37677.164,-5273.6816,12087.565,-5660.97,15830.648
1396668.5633948573,-86089.89,-83727.17,-1288.1267,37668.703,-5298.2993,12085.287,-5664.795,15794.027
1396668.567394853,-86101.24,-83731.9,-1309.9773,37635.418,-5304.9316,12075.766,-5665.3647,15738.485
1396668.5713948489,-86097.984,-83718.1,-1310.9131,37632.285,-5298.1367,12072.795,-5663.493,15743.856
1396668.5753948449,-86092.41,-83713.38,-1291.1377,37660.484,-5279.012,12080.119,-5660.36,15808.96
1396668.5793948406,-86091.15,-83719.73,-1279.3376,37679.08,-5275.92,12086.67,-5660.6445,15833.578
1396668.5833948364,-86091.555,-83715.984,-1290.5681,37669.23,-5291.626,12084.106,-5665.202,15796.428
1396668.5873948322,-86095.3,-83723.43,-1315.1449,37636.312,-5306.5186,12076.62,-5666.3413,15739.502
1396668.591394828,-86088.83,-83727.09,-1313.2324,37632.0,-5312.0527,12073.568,-5663.656,15744.263
1396668.595394824,-86081.26,-83724.98,-1290.9343,37659.914,-5282.43,12078.817,-5660.9297,15802.775
1396668.5993948197,-86080.33,-83718.914,-1277.1404,37685.184,-5272.827,12085.49,-5660.5635,15833.781
1396668.6033948155,-86089.6,-83718.914,-1283.8135,37677.777,-5287.9233,12085.002,-5665.3647,15803.223
1396668.6073948112,-86085.414,-83727.336,-1303.9958,37641.24,-5309.896,12075.847,-5669.4336,15741.089
1396668.6113948072,-86080.41,-83727.91,-1307.251,37633.3,-5304.4844,12071.127,-5668.376,15740.397
1396668.615394803,-86086.02,-83727.7,-1291.3818,37659.383,-5281.942,12079.387,-5664.9985,15797.079
1396668.6193947988,-86090.375,-83724.61,-1280.7617,37685.953,-5268.636,12085.856,-5664.7544,15826.782
1396668.6233947945,-86091.27,-83723.11,-1285.2783,37681.64,-5290.08,12084.961,-5665.853,15800.375
1396668.6273947903,-86094.73,-83730.836,-1307.1289,37649.254,-5313.5986,12075.888,-5669.393,15741.618
1396668.6313947863,-86089.73,-83733.766,-1308.9193,37641.195,-5303.2227,12073.08,-5665.6494,15751.262
1396668.635394782,-86081.46,-83737.43,-1289.7136,37666.22,-5284.0986,12079.672,-5663.33,15811.442
1396668.6393947778,-86084.92,-83731.24,-1280.3549,37685.71,-5278.4834,12084.921,-5663.9404,15830.811
1396668.6433947736,-86088.95,-83737.35,-1287.6384,37677.29,-5289.8765,12085.409,-5665.5684,15801.2295
1396668.6473947696,-86085.66,-83742.02,-1309.5703,37646.688,-5307.129,12077.841,-5667.1553,15747.803
1396668.6513947654,-86088.99,-83736.125,-1311.7676,37640.098,-5302.9785,12075.033,-5665.8936,15748.332
1396668.6553947611,-86086.914,-83724.04,-1292.684,37663.7,-5285.5225,12079.509,-5665.4053,15803.63
1396668.659394757,-86088.14,-83721.16,-1277.9135,37687.543,-5280.1514,12084.595,-5664.917,15832.846
1396668.663394753,-86086.34,-83737.14,-1285.6853,37681.805,-5292.1143,12082.072,-5668.7827,15802.49
1396668.6673947487,-86094.41,-83748.54,-1309.1635,37648.277,-5304.7285,12073.12,-5671.509,15739.136
1396668.6713947444,-86094.2,-83756.96,-1312.4594,37642.945,-5307.048,12070.557,-5669.6777,15740.683
1396668.6753947402,-86092.125,-83749.15,-1292.684,37668.297,-5286.4585,12078.817,-5664.551,15805.217
1396668.679394736,-86091.76,-83736.21,-1278.5238,37689.656,-5278.524,12085.49,-5663.6963,15832.235
1396668.683394732,-86087.61,-83734.055,-1279.9886,37687.703,-5282.837,12084.392,-5667.5215,15806.356
1396668.6873947277,-86084.234,-83747.88,-1305.4607,37652.75,-5303.996,12073.69,-5670.9395,15750.244
1396668.6913947235,-86091.02,-83757.49,-1311.2793,37646.402,-5304.5654,12069.052,-5669.6777,15753.134
1396668.6953947193,-86085.695,-83751.71,-1291.3005,37674.52,-5288.7373,12077.963,-5664.2256,15808.35
1396668.6993947153,-86088.95,-83745.2,-1283.5693,37694.254,-5282.4707,12085.287,-5664.266,15828.207
1396668.703394711,-86091.39,-83750.49,-1286.2957,37690.227,-5282.6743,12084.514,-5663.7373,15801.555
1396668.7073947068,-86095.664,-83756.516,-1306.8848,37656.94,-5302.124,12075.928,-5663.33,15745.077
1396668.7113947026,-86088.95,-83748.66,-1311.9304,37650.72,-5298.747,12074.707,-5661.0923,15748.413
1396668.7153946983,-86076.83,-83740.69,-1286.7839,37674.723,-5287.1094,12081.747,-5658.203,15818.481
1396668.7193946943,-86081.055,-83734.17,-1271.932,37695.395,-5278.4834,12089.682,-5657.1455,15851.685
1396668.72339469,-86086.02,-83737.76,-1277.5472,37690.797,-5291.423,12088.257,-5657.634,15821.533
1396668.7273946858,-86085.164,-83747.4,-1298.991,37653.81,-5310.7505,12078.207,-5659.5054,15759.155
1396668.7313946816,-86087.2,-83762.05,-1305.8269,37645.426,-5312.134,12073.08,-5656.5757,15755.453
1396668.7353946776,-86086.51,-83758.266,-1288.6963,37674.074,-5294.4746,12080.933,-5652.71,15815.674
1396668.7393946734,-86083.54,-83744.95,-1278.8086,37695.844,-5275.1465,12088.135,-5654.663,15841.635
1396668.7433946691,-86083.83,-83751.14,-1283.4473,37695.07,-5293.01,12087.118,-5661.4585,15807.211
1396668.747394665,-86090.664,-83762.62,-1305.7861,37660.81,-5314.901,12076.986,-5666.545,15741.293
1396668.7513946607,-86083.46,-83762.25,-1309.5703,37652.957,-5307.17,12072.185,-5665.6494,15743.856
1396668.7553946567,-86077.234,-83750.45,-1284.4238,37684.57,-5279.541,12079.631,-5660.5225,15817.505
1396668.7593946524,-86078.9,-83747.93,-1271.932,37705.77,-5278.6055,12085.083,-5660.6445,15844.442
1396668.7633946482,-86080.734,-83746.3,-1279.7445,37700.32,-5292.5215,12083.171,-5663.8184,15804.484
1396668.767394644,-86090.74,-83768.68,-1303.3041,37668.457,-5318.6445,12073.73,-5666.0156,15740.194
1396668.77139464,-86090.5,-83779.46,-1307.2103,37662.516,-5314.9824,12071.818,-5665.7715,15740.805
1396668.7753946357,-86087.89,-83768.84,-1288.615,37688.113,-5292.5215,12081.015,-5661.9873,15806.885
1396668.7793946315,-86088.055,-83751.586,-1277.4252,37711.832,-5283.8135,12087.81,-5662.4756,15828.939
1396668.7833946273,-86096.52,-83760.625,-1284.4238,37701.54,-5297.3228,12086.02,-5667.0737,15791.423
1396668.7873946233,-86101.766,-83771.85,-1307.4951,37667.562,-5314.7383,12076.376,-5671.55,15727.255
1396668.791394619,-86099.04,-83769.25,-1307.658,37663.086,-5307.658,12073.202,-5670.2476,15729.411
1396668.7953946148,-86097.58,-83761.35,-1290.8529,37690.555,-5286.54,12080.241,-5666.423,15792.766
1396668.7993946106,-86093.51,-83766.73,-1278.5238,37715.496,-5280.9653,12086.345,-5663.33,15829.468
1396668.8033946063,-86092.62,-83772.26,-1284.3425,37707.156,-5296.4277,12086.386,-5664.958,15799.032
1396668.8073946023,-86098.06,-83778.65,-1309.2449,37670.047,-5319.4175,12075.358,-5666.789,15738.77
1396668.811394598,-86091.555,-83773.36,-1311.7269,37664.957,-5314.8604,12071.574,-5666.911,15740.356
1396668.8153945939,-86094.445,-83770.555,-1293.2537,37691.406,-5295.858,12080.078,-5663.249,15799.276
1396668.8193945896,-86098.68,-83770.23,-1276.9369,37713.664,-5289.0625,12088.745,-5663.086,15825.317
1396668.8233945856,-86098.96,-83772.18,-1279.8666,37709.637,-5298.2993,12088.786,-5665.6904,15795.085
1396668.8273945814,-86101.93,-83782.19,-1303.5076,37676.395,-5321.6147,12079.102,-5669.0674,15738.566
1396668.8313945772,-86102.54,-83774.58,-1305.6234,37670.25,-5314.25,12074.545,-5665.975,15746.46
1396668.835394573,-86095.46,-83763.72,-1285.7666,37696.574,-5296.7124,12081.299,-5661.0107,15813.437
1396668.8393945687,-86094.61,-83765.625,-1275.9197,37715.414,-5295.6543,12087.524,-5660.1562,15838.542
1396668.8433945647,-86099.29,-83773.195,-1283.2031,37709.027,-5307.9023,12087.24,-5662.679,15804.281
1396668.8473945605,-86102.99,-83788.984,-1303.1006,37674.723,-5331.0547,12078.247,-5664.6323,15745.565
1396668.8513945562,-86108.85,-83775.19,-1307.0068,37667.81,-5326.416,12075.195,-5665.8125,15741.821
1396668.855394552,-86097.05,-83761.44,-1286.4584,37697.39,-5300.2524,12081.869,-5665.161,15802.531
1396668.859394548,-86097.375,-83762.9,-1273.4783,37718.996,-5290.08,12088.135,-5665.731,15825.277
1396668.8633945438,-86104.695,-83766.03,-1280.5583,37715.008,-5302.8975,12086.06,-5669.7593,15794.23
1396668.8673945395,-86105.31,-83777.47,-1300.5371,37680.91,-5328.939,12077.434,-5675.09,15741.049
1396668.8713945353,-86102.99,-83779.13,-1304.891,37674.44,-5321.208,12073.527,-5674.8047,15742.106
1396668.875394531,-86096.97,-83774.25,-1287.1501,37698.082,-5299.1133,12079.062,-5671.55,15803.183
1396668.879394527,-86100.34,-83767.13,-1274.2513,37722.13,-5295.2476,12086.711,-5667.44,15829.794
1396668.8833945228,-86109.3,-83768.68,-1281.2908,37716.023,-5309.448,12085.409,-5669.7188,15797.7705
1396668.8873945186,-86116.74,-83769.53,-1302.8564,37683.35,-5331.543,12076.782,-5673.218,15740.316
1396668.8913945144,-86111.9,-83785.73,-1306.3965,37675.21,-5326.335,12073.608,-5671.631,15745.81
1396668.8953945104,-86100.63,-83782.19,-1287.6791,37704.67,-5305.3794,12081.543,-5664.0625,15812.297
1396668.8993945061,-86102.87,-83781.78,-1274.6582,37728.07,-5297.2007,12088.501,-5661.865,15841.391
1396668.903394502,-86106.81,-83794.44,-1283.5693,37719.117,-5311.4424,12087.484,-5664.4287,15807.007
1396668.9073944977,-86109.09,-83796.06,-1303.0599,37686.605,-5333.5776,12078.085,-5669.0674,15742.758
1396668.9113944934,-86108.6,-83784.38,-1303.0599,37681.07,-5315.2266,12074.423,-5670.044,15743.246
1396668.9153944894,-86107.51,-83779.586,-1286.5804,37703.492,-5290.202,12081.787,-5664.266,15805.624
1396668.9193944852,-86108.93,-83783.77,-1275.9197,37726.44,-5293.2944,12088.583,-5663.9814,15835.897
1396668.923394481,-86108.97,-83783.77,-1279.948,37725.75,-5309.8145,12088.583,-5667.1143,15811.401
1396668.9273944767,-86120.12,-83789.06,-1302.4089,37690.836,-5331.8687,12079.712,-5670.8984,15753.012
1396668.9313944727,-86112.43,-83800.21,-1304.8503,37680.176,-5331.299,12074.951,-5672.5264,15748.129
1396668.9353944685,-86106.04,-83794.92,-1285.2377,37707.848,-5314.494,12081.137,-5666.789,15808.432
1396668.9393944643,-86107.055,-83791.75,-1274.5361,37732.79,-5317.424,12088.705,-5666.382,15830.974
1396668.94339446,-86114.95,-83799.73,-1280.3142,37727.742,-5337.606,12088.461,-5671.224,15798.991
1396668.947394456,-86123.66,-83804.28,-1300.6592,37693.36,-5351.2373,12081.34,-5672.8516,15741.821
1396668.9513944518,-86118.33,-83785.04,-1303.5889,37688.805,-5331.177,12077.312,-5670.2476,15746.582
1396668.9553944475,-86116.7,-83786.09,-1287.7197,37711.1,-5313.965,12083.374,-5665.039,15806.315
1396668.9593944433,-86112.39,-83804.85,-1275.7976,37733.44,-5313.1104,12089.233,-5664.3066,15832.886
1396668.963394439,-86112.35,-83821.78,-1279.0527,37730.957,-5321.8994,12090.007,-5667.196,15803.915
1396668.967394435,-86122.805,-83820.195,-1303.1414,37698.0,-5344.116,12080.038,-5671.916,15744.833
1396668.9713944308,-86119.14,-83809.086,-1307.9021,37689.008,-5331.299,12074.992,-5672.8516,15746.379
1396668.9753944266,-86114.71,-83805.95,-1288.7777,37715.984,-5312.378,12082.316,-5669.027,15805.583
1396668.9793944224,-86117.44,-83809.33,-1276.5707,37738.895,-5310.018,12088.095,-5670.1255,15831.259
1396668.9833944184,-86125.53,-83827.15,-1285.8887,37730.31,-5324.056,12085.815,-5673.95,15793.376
1396668.9873944141,-86129.6,-83838.46,-1307.9427,37698.61,-5343.0176,12078.085,-5674.398,15732.097
1396668.99139441,-86130.05,-83825.69,-1307.9427,37692.223,-5332.723,12075.562,-5672.9736,15734.579
1396668.9953944057,-86125.86,-83815.555,-1289.7543,37719.28,-5303.5483,12083.456,-5665.6494,15804.932
1396668.9993944014,-86122.32,-83807.414,-1276.2859,37744.914,-5306.2744,12089.763,-5666.992,15837.24
1396669.0033943974,-86127.28,-83823.734,-1285.5632,37737.918,-5322.225,12087.932,-5672.241,15806.315
1396669.0073943932,-86134.81,-83838.34,-1309.367,37703.29,-5337.9316,12079.59,-5676.1885,15747.6
1396669.011394389,-86128.91,-83832.766,-1309.082,37695.477,-5333.537,12074.341,-5675.334,15745.199
1396669.0153943847,-86136.35,-83830.65,-1292.7654,37719.28,-5317.1387,12080.404,-5669.5967,15806.234
1396669.0193943807,-86134.32,-83826.91,-1284.8715,37740.03,-5314.087,12088.461,-5667.033,15826.579
1396669.0233943765,-86133.47,-83820.15,-1287.4349,37738.445,-5328.7354,12087.443,-5671.3057,15790.527
1396669.0273943723,-86130.984,-83833.055,-1309.8552,37704.793,-5348.3076,12076.864,-5675.537,15731.161
1396669.031394368,-86129.31,-83839.6,-1313.5173,37696.047,-5348.796,12072.998,-5672.689,15735.922
1396669.0353943638,-86123.54,-83833.664,-1289.0625,37722.86,-5323.161,12080.933,-5667.196,15805.664
1396669.0393943598,-86127.08,-83829.35,-1275.4314,37746.34,-5314.2905,12087.321,-5669.027,15835.653
1396669.0433943556,-86129.56,-83843.14,-1284.4646,37742.15,-5332.3975,12085.693,-5673.381,15800.578
1396669.0473943513,-86134.12,-83846.88,-1309.0414,37711.223,-5351.4,12078.085,-5674.8457,15742.554
1396669.051394347,-86129.93,-83838.38,-1315.9587,37701.54,-5355.7944,12073.649,-5672.038,15737.549
1396669.055394343,-86118.33,-83827.555,-1295.6951,37728.8,-5325.9688,12080.322,-5668.376,15799.887
1396669.0593943389,-86127.89,-83820.195,-1285.4004,37749.51,-5307.658,12085.531,-5670.2476,15834.066
1396669.0633943346,-86133.1,-83828.29,-1291.748,37743.938,-5314.6973,12083.862,-5675.7812,15802.979
1396669.0673943304,-86130.21,-83833.375,-1310.018,37716.555,-5330.648,12077.189,-5677.7344,15751.343
1396669.0713943264,-86122.89,-83831.55,-1313.68,37707.277,-5326.4976,12071.493,-5676.4326,15752.686
1396669.0753943222,-86128.09,-83818.61,-1296.9564,37730.67,-5308.1055,12077.393,-5672.4854,15807.536
1396669.079394318,-86124.92,-83817.43,-1285.2377,37752.44,-5294.4336,12085.734,-5669.3115,15832.4795
1396669.0833943137,-86125.164,-83825.195,-1295.2881,37746.625,-5300.537,12085.49,-5672.7705,15792.766
1396669.0873943095,-86127.56,-83835.29,-1318.4001,37716.39,-5319.6616,12077.189,-5676.3105,15737.753
1396669.0913943055,-86128.42,-83818.61,-1321.2891,37706.22,-5310.6284,12074.626,-5671.4277,15746.176
1396669.0953943012,-86119.47,-83804.41,-1299.9268,37733.848,-5281.372,12081.665,-5667.684,15810.385
1396669.099394297,-86125.86,-83809.53,-1283.3252,37757.49,-5267.9443,12088.745,-5668.4165,15836.101
1396669.1033942928,-86132.66,-83815.48,-1292.5619,37750.203,-5276.571,12088.013,-5674.2354,15805.339
1396669.1073942888,-86125.37,-83820.07,-1317.0574,37717.367,-5301.4326,12077.148,-5679.9727,15742.514
1396669.1113942845,-86125.29,-83822.06,-1324.5037,37708.133,-5297.9736,12073.8125,-5678.874,15737.468
1396669.1153942803,-86122.234,-83809.9,-1309.0007,37738.61,-5279.6226,12081.625,-5673.828,15802.572
1396669.119394276,-86115.73,-83812.87,-1291.6667,37762.41,-5272.6646,12087.891,-5675.456,15837.973
1396669.1233942718,-86122.32,-83813.73,-1297.4854,37753.824,-5281.372,12087.6875,-5679.4844,15803.996
1396669.1273942678,-86128.83,-83817.99,-1321.574,37720.176,-5300.1304,12078.247,-5683.0244,15744.833
1396669.1313942636,-86129.64,-83816.86,-1324.1375,37708.496,-5294.8,12076.538,-5678.5483,15751.018
1396669.1353942594,-86123.78,-83807.87,-1308.4717,37731.04,-5273.3154,12083.578,-5674.1943,15809.164
1396669.1393942551,-86126.18,-83808.84,-1296.7529,37757.324,-5265.544,12088.989,-5672.8516,15834.392
1396669.1433942511,-86131.43,-83821.25,-1300.0488,37757.49,-5273.3154,12088.42,-5673.991,15807.536
1396669.147394247,-86132.29,-83828.695,-1319.0105,37725.14,-5290.08,12078.613,-5679.9727,15750.651
1396669.1513942427,-86130.82,-83819.83,-1322.1843,37717.41,-5282.837,12077.8,-5677.3276,15758.993
1396669.1553942384,-86120.04,-83816.125,-1303.7924,37742.676,-5263.0615,12087.28,-5671.4683,15824.951
1396669.1593942342,-86121.95,-83823.29,-1291.3818,37763.715,-5259.359,12094.279,-5671.224,15846.64
1396669.1633942302,-86128.79,-83823.37,-1298.7875,37757.203,-5262.899,12094.157,-5673.055,15816.0
1396669.167394226,-86135.17,-83833.09,-1324.4222,37721.19,-5279.582,12085.612,-5675.6187,15754.11
1396669.1713942217,-86129.766,-83828.82,-1324.4222,37714.195,-5282.186,12083.903,-5673.584,15755.331
1396669.1753942175,-86130.62,-83818.766,-1305.3793,37743.164,-5263.143,12091.309,-5669.3115,15822.836
1396669.1793942135,-86134.32,-83811.89,-1295.3289,37766.684,-5251.953,12097.534,-5670.2476,15848.918
1396669.1833942092,-86135.54,-83812.95,-1298.055,37765.465,-5259.1553,12095.988,-5675.3745,15815.023
1396669.187394205,-86132.66,-83823.9,-1319.5801,37731.61,-5280.6807,12086.752,-5679.077,15756.022
1396669.1913942008,-86128.055,-83834.39,-1322.0215,37721.805,-5284.7495,12085.083,-5674.4385,15760.62
1396669.1953941965,-86132.125,-83826.984,-1304.9724,37744.754,-5260.3354,12092.326,-5669.4746,15817.058
1396669.1993941925,-86130.25,-83825.93,-1293.4978,37763.062,-5254.9644,12097.168,-5671.631,15835.775
1396669.2033941883,-86129.84,-83828.66,-1300.9847,37763.062,-5263.5093,12096.965,-5675.09,15807.943
1396669.207394184,-86133.67,-83838.914,-1322.5912,37736.41,-5283.4067,12088.461,-5676.6357,15753.418
1396669.2113941798,-86132.445,-83833.46,-1324.056,37727.418,-5279.419,12086.467,-5672.038,15759.155
1396669.2153941758,-86124.72,-83833.01,-1303.1414,37752.32,-5266.7236,12093.059,-5668.62,15823.446
1396669.2193941716,-86124.27,-83834.92,-1289.2253,37774.332,-5266.3984,12099.365,-5670.2476,15847.738
1396669.2233941674,-86133.266,-83838.26,-1295.9392,37769.98,-5270.996,12096.68,-5674.398,15813.843
1396669.2273941631,-86138.06,-83840.62,-1318.156,37734.01,-5287.9233,12088.989,-5678.752,15745.402
1396669.2313941591,-86131.68,-83834.72,-1320.7601,37725.586,-5287.069,12086.467,-5677.368,15749.634
1396669.235394155,-86126.18,-83836.55,-1301.3103,37754.395,-5270.874,12094.279,-5669.5967,15819.662
1396669.2393941507,-86122.93,-83835.49,-1287.5977,37777.305,-5260.5796,12099.772,-5668.2944,15851.196
1396669.2433941464,-86130.984,-83830.77,-1291.5447,37772.79,-5261.6377,12097.534,-5673.0957,15825.644
1396669.2473941422,-86139.49,-83840.62,-1313.9242,37741.336,-5287.9233,12087.891,-5677.572,15763.957
1396669.2513941382,-86137.45,-83847.414,-1318.1152,37733.035,-5281.942,12082.764,-5677.409,15756.308
1396669.255394134,-86137.21,-83846.48,-1303.7517,37752.973,-5260.0913,12089.804,-5674.4795,15810.181
1396669.2593941297,-86138.35,-83835.21,-1289.8357,37778.445,-5258.6265,12097.29,-5674.7236,15842.692
1396669.2633941255,-86139.98,-83832.56,-1296.5496,37778.727,-5266.805,12095.947,-5677.7754,15817.993
1396669.2673941215,-86139.695,-83846.6,-1317.1794,37744.508,-5289.795,12085.979,-5680.298,15757.04
1396669.2713941173,-86142.055,-83850.1,-1321.2891,37733.805,-5294.7593,12081.909,-5680.6235,15755.249
1396669.275394113,-86140.83,-83847.62,-1300.6592,37757.285,-5268.718,12087.851,-5674.6826,15816.732
1396669.2793941088,-86142.055,-83839.97,-1284.6273,37784.586,-5251.384,12093.588,-5675.537,15847.819
1396669.2833941046,-86145.47,-83845.26,-1292.3992,37782.27,-5263.835,12091.391,-5682.5767,15816.406
1396669.2873941006,-86146.81,-83852.586,-1317.5049,37750.285,-5286.8247,12083.456,-5685.2217,15759.644
1396669.2913940963,-86148.07,-83849.734,-1322.1029,37738.527,-5282.308,12080.322,-5682.414,15762.085
1396669.295394092,-86134.445,-83844.04,-1303.9958,37759.44,-5268.3105,12086.264,-5677.287,15817.993
1396669.2993940879,-86140.79,-83840.5,-1290.8529,37785.2,-5257.65,12092.082,-5675.7407,15847.046
1396669.3033940839,-86145.19,-83858.89,-1295.044,37782.27,-5263.794,12091.96,-5676.921,15823.202
1396669.3073940796,-86141.6,-83870.2,-1313.2324,37750.57,-5283.4883,12087.646,-5678.06,15766.357
1396669.3113940754,-86135.3,-83854.375,-1318.6849,37743.57,-5267.7817,12085.327,-5675.9033,15771.851
1396669.3153940712,-86135.74,-83842.45,-1301.2289,37767.293,-5247.966,12092.978,-5670.044,15837.891
1396669.319394067,-86138.06,-83839.07,-1288.208,37792.4,-5237.834,12100.83,-5668.9453,15866.537
1396669.323394063,-86137.78,-83850.836,-1292.1143,37787.926,-5254.0283,12098.877,-5671.55,15832.886
1396669.3273940587,-86140.55,-83854.62,-1314.1277,37751.383,-5271.0776,12089.071,-5674.276,15770.874
1396669.3313940545,-86142.984,-83847.74,-1317.3828,37743.98,-5261.312,12088.745,-5670.166,15774.943
1396669.3353940502,-86132.24,-83847.49,-1298.1771,37769.207,-5248.698,12097.494,-5664.3477,15841.797
1396669.3393940462,-86135.055,-83858.65,-1288.2894,37789.957,-5250.814,12104.858,-5661.9873,15873.495
1396669.343394042,-86137.984,-83868.53,-1295.5322,37787.234,-5264.5264,12103.801,-5666.097,15844.6455
1396669.3473940378,-86145.71,-83861.78,-1317.7084,37756.348,-5282.4707,12093.588,-5671.875,15784.018
1396669.3513940335,-86146.41,-83856.2,-1319.1732,37745.85,-5284.465,12089.56,-5670.8174,15784.018
1396669.3553940295,-86145.63,-83855.305,-1300.822,37772.746,-5266.5205,12095.581,-5669.3115,15845.907
1396669.3593940253,-86145.02,-83856.57,-1288.615,37793.62,-5249.756,12103.068,-5667.2773,15872.559
1396669.363394021,-86145.39,-83856.37,-1295.166,37790.445,-5254.802,12102.661,-5670.329,15840.698
1396669.3673940168,-86144.66,-83859.01,-1314.3718,37759.523,-5276.8555,12093.262,-5671.8345,15785.238
1396669.3713940126,-86143.96,-83869.266,-1317.7084,37748.496,-5276.123,12088.623,-5671.4277,15785.075
1396669.3753940086,-86137.58,-83859.26,-1298.2992,37771.973,-5259.847,12095.703,-5669.637,15834.758
1396669.3793940044,-86140.1,-83852.5,-1287.2722,37795.453,-5249.7153,12102.295,-5670.085,15864.868
1396669.3833940001,-86144.695,-83857.14,-1289.9578,37795.98,-5265.544,12100.098,-5674.398,15841.594
1396669.387393996,-86139.164,-83870.81,-1310.5876,37763.59,-5294.2305,12089.804,-5678.1416,15782.715
1396669.391393992,-86134.28,-83866.62,-1311.4014,37754.56,-5277.2627,12086.548,-5676.5547,15782.39
1396669.3953939877,-86135.91,-83851.36,-1289.0219,37779.625,-5253.784,12092.611,-5673.218,15843.059
1396669.3993939834,-86135.7,-83849.33,-1274.5769,37806.316,-5246.5415,12097.656,-5674.927,15873.617
1396669.4033939792,-86140.586,-83847.21,-1283.366,37801.84,-5256.633,12095.053,-5682.7393,15841.228
1396669.407393975,-86142.74,-83853.15,-1306.8035,37768.395,-5278.3203,12086.548,-5687.378,15783.936
1396669.411393971,-86136.56,-83859.055,-1308.2683,37758.344,-5280.1514,12084.677,-5686.198,15774.17
1396669.4153939667,-86137.945,-83864.18,-1291.1377,37782.555,-5260.539,12091.838,-5682.414,15838.583
1396669.4193939625,-86139.2,-83858.805,-1280.1107,37808.35,-5252.1567,12099.243,-5681.5186,15870.605
1396669.4233939582,-86146.57,-83862.836,-1287.9232,37803.305,-5265.869,12099.976,-5682.2104,15844.238
1396669.4273939542,-86159.23,-83870.32,-1311.0759,37770.223,-5283.366,12093.547,-5683.3906,15792.399
1396669.43139395,-86147.71,-83858.36,-1312.4594,37763.633,-5275.2686,12089.396,-5681.1934,15790.446
1396669.4353939458,-86137.58,-83847.01,-1291.2598,37789.188,-5257.9346,12092.692,-5679.647,15843.872
1396669.4393939415,-86150.48,-83852.22,-1280.0293,37809.977,-5250.4883,12098.227,-5681.7627,15861.369
1396669.4433939373,-86156.05,-83860.234,-1286.9873,37806.97,-5258.83,12097.575,-5686.7676,15823.486
1396669.4473939333,-86152.67,-83864.18,-1309.082,37776.816,-5267.09,12090.942,-5689.616,15766.113
1396669.451393929,-86159.1,-83861.33,-1313.8428,37769.938,-5275.7163,12086.63,-5689.9824,15764.201
1396669.4553939248,-86149.54,-83856.41,-1294.393,37792.605,-5254.883,12092.611,-5685.547,15828.613
1396669.4593939206,-86151.45,-83866.46,-1288.2488,37813.477,-5247.03,12099.406,-5683.2275,15860.637
1396669.4633939166,-86158.2,-83881.266,-1296.6309,37811.2,-5262.9395,12097.534,-5685.669,15828.573
1396669.4673939124,-86163.49,-83887.086,-1314.6566,37780.52,-5286.743,12087.81,-5688.9243,15767.497
1396669.4713939081,-86168.5,-83880.86,-1316.2029,37774.17,-5282.0234,12083.781,-5688.4766,15768.759
1396669.475393904,-86171.51,-83873.45,-1300.9847,37795.777,-5262.9395,12088.949,-5684.204,15831.259
1396669.4793938997,-86166.266,-83869.914,-1288.208,37811.523,-5255.0864,12096.3955,-5682.414,15854.94
1396669.4833938957,-86167.04,-83875.125,-1293.2943,37811.605,-5264.16,12097.616,-5683.838,15827.067
1396669.4873938914,-86171.63,-83880.414,-1314.738,37782.918,-5281.82,12089.4375,-5685.466,15775.595
1396669.4913938872,-86174.69,-83877.52,-1319.458,37770.957,-5282.1455,12085.327,-5683.6753,15775.554
1396669.495393883,-86164.76,-83887.414,-1304.1992,37790.49,-5270.0605,12091.919,-5679.8096,15832.4795
1396669.499393879,-86165.41,-83888.875,-1290.2832,37817.996,-5259.8877,12100.424,-5680.42,15860.352
1396669.5033938747,-86175.055,-83885.83,-1298.1771,37817.71,-5264.73,12100.464,-5683.1055,15833.618
1396669.5073938705,-86175.945,-83890.95,-1317.2201,37788.047,-5278.4834,12092.285,-5686.035,15781.901
1396669.5113938663,-86179.2,-83887.62,-1321.8588,37780.805,-5279.175,12088.867,-5685.466,15777.507
1396669.5153938623,-86173.586,-83890.1,-1302.9785,37798.465,-5266.0728,12095.663,-5679.8096,15844.564
1396669.519393858,-86172.53,-83891.234,-1288.7777,37818.156,-5260.783,12104.289,-5676.9614,15874.39
1396669.5233938538,-86183.35,-83893.72,-1297.7703,37814.453,-5272.502,12107.056,-5676.758,15838.827
