timestamp,Fp1,Fp2,F3,Fz,F4,Cz,Pz,Oz
1395871.484228072,-48494.223,-64071.414,-15867.798,-7458.252,-15116.821,21292.44,14030.3955,-8971.884
1395871.488228068,-48507.406,-64092.98,-15873.535,-7468.3433,-15120.81,21286.703,14027.71,-8978.3125
1395871.4922280638,-48526.855,-64105.39,-15883.952,-7481.9336,-15116.74,21270.102,14022.868,-8986.45
1395871.4962280595,-48531.332,-64099.285,-15885.376,-7481.0386,-15112.59,21267.537,14021.851,-8981.894
1395871.5002280553,-48519.29,-64070.52,-15874.064,-7463.8267,-15108.806,21281.047,14023.764,-8970.215
1395871.504228051,-48516.48,-64056.316,-15866.781,-7455.77,-15109.213,21291.951,14024.78,-8963.583
1395871.508228047,-48521.77,-64070.52,-15873.251,-7464.1523,-15111.288,21284.832,14022.095,-8976.604
1395871.5122280428,-48531.375,-64092.57,-15884.196,-7476.2373,-15109.66,21268.555,14023.234,-8980.347
1395871.5162280386,-48528.81,-64085.656,-15883.993,-7475.057,-15108.358,21263.021,14023.112,-8973.918
1395871.5202280344,-48509.605,-64065.473,-15870.932,-7456.014,-15105.957,21274.943,14023.52,-8964.111
1395871.5242280304,-48508.26,-64058.473,-15865.234,-7446.452,-15109.335,21286.662,14024.902,-8959.311
1395871.528228026,-48517.215,-64074.63,-15871.216,-7458.13,-15110.8,21281.088,14021.566,-8970.256
1395871.5322280219,-48525.27,-64093.387,-15879.477,-7474.7314,-15107.016,21264.69,14018.188,-8980.185
1395871.5362280176,-48527.67,-64088.098,-15880.534,-7474.8535,-15105.0625,21260.945,14018.107,-8975.302
1395871.5402280136,-48511.64,-64056.36,-15870.036,-7457.3164,-15102.702,21275.35,14019.328,-8963.664
1395871.5442280094,-48506.31,-64057.824,-15863.403,-7447.469,-15105.713,21286.174,14020.102,-8962.6875
1395871.5482280052,-48523.48,-64082.523,-15874.064,-7457.3164,-15112.183,21279.053,14016.562,-8969.157
1395871.552228001,-48538.414,-64092.695,-15886.068,-7470.622,-15107.463,21262.29,14014.079,-8980.021
1395871.5562279967,-48537.19,-64078.207,-15885.173,-7468.3027,-15099.284,21257.08,14011.597,-8979.045
1395871.5602279927,-48527.184,-64056.97,-15876.343,-7451.538,-15097.494,21272.055,14011.76,-8969.076
1395871.5642279885,-48518.84,-64050.336,-15872.763,-7442.1797,-15099.772,21284.832,14009.521,-8974.406
1395871.5682279842,-48524.008,-64069.34,-15879.191,-7452.9624,-15103.19,21278.646,14007.854,-8984.904
1395871.57222798,-48537.68,-64092.29,-15889.812,-7469.7676,-15101.645,21262.29,14007.609,-8990.723
1395871.576227976,-48535.523,-64079.51,-15889.364,-7468.3433,-15096.191,21256.023,14007.08,-8986.857
1395871.5802279718,-48518.395,-64048.098,-15878.744,-7450.1143,-15094.442,21271.037,14011.19,-8976.074
1395871.5842279675,-48508.832,-64038.453,-15874.838,-7442.383,-15099.447,21282.635,14012.289,-8970.297
1395871.5882279633,-48517.742,-64068.645,-15881.958,-7454.305,-15102.051,21275.96,14012.207,-8975.708
1395871.592227959,-48533.45,-64100.1,-15893.555,-7470.4185,-15101.767,21258.18,14007.243,-8987.468
1395871.596227955,-48533.895,-64094.363,-15894.328,-7470.337,-15095.175,21252.117,14003.825,-8987.224
1395871.6002279508,-48519.777,-64073.04,-15882.8125,-7453.8574,-15092.407,21265.87,14007.08,-8974.162
1395871.6042279466,-48514.04,-64069.867,-15876.018,-7444.092,-15093.71,21280.518,14009.521,-8968.954
1395871.6082279424,-48520.47,-64078.004,-15881.633,-7454.305,-15098.755,21276.938,14007.976,-8976.4
1395871.6122279384,-48534.668,-64091.066,-15895.142,-7469.2383,-15100.464,21259.4,14002.523,-8989.218
1395871.6162279341,-48553.387,-64113.04,-15903.076,-7471.5986,-15100.952,21255.127,14003.988,-8984.741
1395871.62022793,-48545.086,-64092.695,-15893.637,-7452.5146,-15100.22,21271.281,14010.62,-8964.193
1395871.6242279257,-48501.953,-64037.316,-15876.303,-7436.8896,-15094.442,21279.867,14010.254,-8959.473
1395871.6282279214,-48485.11,-64031.008,-15875.692,-7445.2314,-15094.971,21271.729,14007.65,-8970.5
1395871.6322279174,-48503.703,-64050.05,-15886.638,-7460.6934,-15096.436,21255.535,14006.145,-8982.504
1395871.6362279132,-48491.254,-64040.69,-15883.667,-7456.95,-15092.814,21251.385,14006.836,-8978.394
1395871.640227909,-48459.96,-64003.83,-15871.216,-7438.3545,-15089.682,21264.16,14004.028,-8968.913
1395871.6442279047,-48437.01,-63981.69,-15861.084,-7424.642,-15087.973,21271.729,13997.844,-8969.035
1395871.6482279007,-48436.934,-63980.797,-15864.746,-7430.9897,-15088.339,21266.846,13994.385,-8978.638
1395871.6522278965,-48451.62,-63993.207,-15875.326,-7445.1094,-15084.473,21252.156,13990.52,-8988.688
1395871.6562278923,-48446.617,-63980.676,-15875.814,-7442.871,-15080.526,21243.816,13987.997,-8987.509
1395871.660227888,-48428.508,-63951.17,-15866.089,-7427.043,-15080.363,21255.168,13989.828,-8977.133
1395871.6642278838,-48417.24,-63935.14,-15860.026,-7419.1084,-15082.235,21266.725,13990.479,-8973.959
1395871.6682278798,-48413.13,-63927.37,-15860.678,-7422.6484,-15081.218,21262.371,13986.491,-8983.725
1395871.6722278756,-48427.777,-63936.242,-15869.304,-7435.3843,-15077.8,21246.826,13982.748,-8991.781
1395871.6762278713,-48433.797,-63936.117,-15871.664,-7433.879,-15073.283,21244.467,13984.335,-8986.938
1395871.680227867,-48420.74,-63915.285,-15863.811,-7417.8467,-15073.12,21257.244,13985.881,-8972.128
1395871.684227863,-48418.824,-63902.305,-15859.009,-7410.034,-15075.766,21266.805,13986.084,-8970.703
1395871.6882278589,-48433.35,-63927.9,-15867.1875,-7417.6436,-15081.625,21261.15,13985.148,-8980.51
1395871.6922278546,-48448.285,-63951.05,-15878.134,-7435.0586,-15080.933,21245.564,13982.382,-8989.218
1395871.6962278504,-48444.46,-63936.81,-15880.168,-7433.1055,-15075.114,21241.21,13980.835,-8986.938
1395871.7002278464,-48417.645,-63904.664,-15869.223,-7411.621,-15068.563,21255.291,13984.985,-8968.832
1395871.7042278422,-48405.438,-63894.25,-15864.868,-7403.3203,-15071.696,21265.748,13987.102,-8959.188
1395871.708227838,-48412.64,-63907.31,-15869.345,-7413.208,-15075.236,21261.11,13988.403,-8962.443
1395871.7122278337,-48422.12,-63919.516,-15875.937,-7425.863,-15072.673,21245.688,13986.572,-8967.123
1395871.7162278295,-48426.19,-63911.746,-15875.8955,-7423.1367,-15067.18,21240.275,13982.91,-8965.536
1395871.7202278255,-48407.758,-63883.75,-15863.119,-7406.4536,-15062.378,21253.418,13986.654,-8951.579
1395871.7242278212,-48394.656,-63875.367,-15856.283,-7397.217,-15067.465,21264.283,13989.38,-8949.057
1395871.728227817,-48409.1,-63900.84,-15863.485,-7408.773,-15072.266,21258.26,13988.607,-8961.955
1395871.7322278128,-48426.883,-63919.19,-15872.925,-7422.241,-15069.092,21244.14,13987.753,-8970.378
1395871.7362278088,-48430.664,-63911.582,-15872.559,-7420.614,-15063.518,21238.77,13984.131,-8970.012
1395871.7402278045,-48414.145,-63888.957,-15862.712,-7403.198,-15064.331,21252.076,13981.689,-8965.251
1395871.7442278003,-48402.71,-63895.754,-15855.51,-7393.1074,-15069.214,21265.3,13981.445,-8964.315
1395871.748227796,-48413.656,-63929.812,-15862.387,-7404.175,-15072.714,21259.725,13977.905,-8977.092
1395871.7522277918,-48429.77,-63938.52,-15874.594,-7419.3525,-15068.441,21242.92,13971.558,-8987.265
1395871.7562277878,-48425.984,-63924.766,-15873.657,-7418.254,-15062.744,21237.549,13969.564,-8987.346
1395871.7602277836,-48411.62,-63907.84,-15862.427,-7400.798,-15061.687,21253.377,13972.697,-8979.126
1395871.7642277793,-48403.73,-63894.53,-15853.435,-7388.5093,-15060.954,21267.578,13974.121,-8976.807
1395871.768227775,-48411.336,-63906.21,-15857.382,-7395.7114,-15064.453,21261.639,13969.523,-8988.525
1395871.772227771,-48432.293,-63929.12,-15869.995,-7415.039,-15066.813,21243.45,13963.42,-8999.512
1395871.7762277669,-48426.473,-63921.754,-15869.304,-7413.5337,-15061.728,21238.607,13965.292,-9000.204
1395871.7802277626,-48409.668,-63894.086,-15859.782,-7396.0776,-15059.286,21254.11,13970.785,-8985.962
1395871.7842277584,-48399.7,-63895.305,-15852.702,-7386.1084,-15061.85,21266.44,13972.494,-8983.928
1395871.7882277542,-48409.832,-63911.38,-15860.881,-7396.8916,-15068.726,21260.418,13970.256,-8993.246
1395871.7922277502,-48429.73,-63925.62,-15872.314,-7411.174,-15066.691,21249.146,13969.035,-8996.908
1395871.796227746,-48435.832,-63916.586,-15875.082,-7409.302,-15062.419,21245.443,13968.1,-8994.914
1395871.8002277417,-48424.113,-63898.48,-15862.793,-7393.1074,-15059.855,21258.057,13968.994,-8984.131
1395871.8042277375,-48415.367,-63890.42,-15852.336,-7381.4697,-15059.408,21269.572,13967.123,-8985.84
1395871.8082277335,-48430.867,-63905.76,-15857.992,-7392.904,-15061.972,21263.592,13963.745,-8996.826
1395871.8122277292,-48450.277,-63920.086,-15869.629,-7408.529,-15059.652,21247.314,13961.752,-9005.9
1395871.816227725,-48451.133,-63912.56,-15869.792,-7406.6978,-15054.6875,21242.758,13962.524,-9000.082
1395871.8202277208,-48438.355,-63888.227,-15861.206,-7389.323,-15053.345,21257.244,13964.682,-8985.434
1395871.8242277168,-48429.73,-63878.99,-15856.608,-7380.0864,-15059.001,21270.916,13966.35,-8983.195
1395871.8282277125,-48443.605,-63901.45,-15864.706,-7391.439,-15065.796,21266.316,13964.396,-8992.636
1395871.8322277083,-48463.707,-63924.316,-15875.448,-7409.7495,-15062.297,21249.838,13962.036,-9000.082
1395871.836227704,-48463.258,-63922.61,-15877.441,-7409.5054,-15055.664,21244.752,13962.729,-8991.781
1395871.8402276998,-48449.18,-63901.777,-15867.065,-7394.043,-15054.77,21258.992,13966.187,-8977.621
1395871.8442276958,-48447.715,-63895.67,-15861.003,-7384.6846,-15058.554,21271.688,13967.937,-8972.046
1395871.8482276916,-48465.457,-63911.055,-15866.171,-7394.043,-15063.64,21264.607,13964.519,-8983.236
1395871.8522276874,-48475.547,-63928.875,-15876.425,-7404.826,-15061.361,21248.738,13961.752,-8990.316
1395871.8562276831,-48480.594,-63924.645,-15877.319,-7404.826,-15057.821,21242.879,13962.443,-8984.253
1395871.8602276791,-48472.293,-63907.35,-15865.845,-7388.55,-15056.967,21255.9,13966.35,-8969.971
1395871.864227675,-48459.11,-63906.375,-15858.114,-7378.418,-15059.937,21266.521,13965.78,-8967.123
1395871.8682276707,-48473.594,-63924.523,-15863.892,-7387.655,-15062.297,21261.922,13964.03,-8974.854
1395871.8722276664,-48490.234,-63941.043,-15872.641,-7401.408,-15060.995,21244.385,13959.066,-8986.694
1395871.8762276622,-48482.137,-63938.844,-15871.826,-7399.984,-15057.861,21237.793,13955.038,-8986.572
1395871.8802276582,-48466.188,-63913.617,-15859.538,-7381.6733,-15055.217,21253.094,13957.357,-8975.912
1395871.884227654,-48457.03,-63900.8,-15849.65,-7370.3613,-15057.333,21264.893,13958.659,-8974.895
1395871.8882276497,-48467.285,-63912.438,-15855.185,-7380.412,-15062.297,21258.504,13957.764,-8986.572
1395871.8922276455,-48488.484,-63944.01,-15867.676,-7396.932,-15065.837,21241.902,13952.678,-8998.495
1395871.8962276415,-48483.32,-63939.293,-15865.316,-7393.1885,-15060.222,21238.281,13950.847,-8996.216
1395871.9002276373,-48463.992,-63913.21,-15852.051,-7374.0234,-15056.641,21251.873,13952.678,-8983.317
1395871.904227633,-48462.445,-63909.953,-15842.937,-7363.9326,-15058.35,21263.062,13952.393,-8978.231
1395871.9082276288,-48468.67,-63919.72,-15845.012,-7372.5586,-15064.331,21258.18,13948.405,-8989.136
1395871.9122276246,-48482.344,-63930.95,-15854.899,-7385.946,-15063.762,21244.02,13948.486,-8994.751
1395871.9162276206,-48488.527,-63932.21,-15855.957,-7382.324,-15056.193,21239.91,13951.091,-8988.7295
1395871.9202276163,-48470.543,-63917.035,-15843.14,-7361.125,-15050.537,21251.75,13951.701,-8979.614
1395871.924227612,-48457.887,-63909.344,-15835.693,-7352.9053,-15055.217,21263.021,13953.085,-8974.854
1395871.9282276079,-48472.168,-63925.457,-15841.391,-7363.4033,-15061.157,21258.504,13953.9795,-8982.178
1395871.9322276039,-48493.45,-63938.887,-15853.923,-7378.825,-15061.401,21244.14,13949.829,-8993.571
1395871.9362275996,-48488.85,-63930.383,-15853.598,-7375.285,-15054.606,21238.078,13948.486,-8991.537
1395871.9402275954,-48465.457,-63911.83,-15841.96,-7357.788,-15052.002,21251.547,13951.213,-8977.011
1395871.9442275912,-48456.79,-63902.875,-15836.874,-7349.8535,-15053.589,21264.568,13953.451,-8973.1045
1395871.948227587,-48464.805,-63921.797,-15842.326,-7357.544,-15060.059,21257.732,13949.748,-8983.603
1395871.952227583,-48479.168,-63949.75,-15855.0625,-7375.366,-15060.181,21240.031,13948.161,-8990.031
1395871.9562275787,-48478.8,-63931.848,-15855.754,-7375.366,-15054.159,21235.066,13948.12,-8986.654
1395871.9602275745,-48458.7,-63907.758,-15843.954,-7355.5503,-15053.833,21248.25,13948.8125,-8976.604
1395871.9642275702,-48452.027,-63909.953,-15839.519,-7347.3716,-15058.472,21261.23,13949.423,-8975.505
1395871.9682275662,-48459.473,-63922.812,-15844.035,-7352.824,-15059.692,21259.318,13950.521,-8984.05
1395871.972227562,-48479.453,-63937.664,-15855.591,-7368.5303,-15059.978,21244.02,13949.707,-8992.554
1395871.9762275578,-48488.445,-63938.273,-15853.76,-7367.4316,-15054.362,21239.178,13949.667,-8987.956
1395871.9802275535,-48464.844,-63909.18,-15835.653,-7347.86,-15049.4795,21251.709,13949.585,-8976.156
1395871.9842275495,-48453.535,-63904.582,-15826.66,-7337.5654,-15053.752,21261.963,13950.358,-8974.162
1395871.9882275453,-48470.906,-63925.01,-15835.165,-7349.691,-15059.937,21260.01,13951.05,-8983.684
1395871.992227541,-48487.02,-63934.98,-15846.273,-7365.7227,-15058.594,21243.246,13947.917,-8995.646
1395871.9962275368,-48484.17,-63936.117,-15847.616,-7364.299,-15054.037,21237.225,13948.08,-8990.927
1395872.0002275326,-48466.434,-63917.93,-15837.036,-7346.3545,-15051.025,21251.14,13952.556,-8975.098
1395872.0042275286,-48458.21,-63903.242,-15830.322,-7336.467,-15053.427,21262.695,13952.678,-8973.471
1395872.0082275243,-48467.695,-63919.8,-15832.561,-7345.215,-15058.065,21260.54,13948.69,-8984.66
1395872.01222752,-48486.492,-63945.56,-15842.937,-7359.66,-15057.861,21245.729,13945.883,-8993.652
1395872.0162275159,-48488.16,-63940.473,-15845.988,-7357.829,-15050.497,21239.46,13943.522,-8992.676
1395872.0202275119,-48472.21,-63921.67,-15833.822,-7341.1055,-15047.7705,21252.523,13943.481,-8979.289
1395872.0242275076,-48464.926,-63912.52,-15823.324,-7331.9907,-15053.874,21262.574,13944.011,-8975.79
1395872.0282275034,-48474.977,-63926.516,-15826.62,-7340.902,-15059.367,21258.504,13943.481,-8983.847
1395872.0322274992,-48496.504,-63950.97,-15837.646,-7357.666,-15057.617,21244.67,13939.169,-8992.676
1395872.036227495,-48499.434,-63942.426,-15836.142,-7356.1606,-15052.653,21235.596,13935.751,-8988.974
1395872.040227491,-48477.867,-63920.86,-15824.423,-7337.728,-15051.474,21246.176,13937.175,-8976.767
1395872.0442274867,-48468.67,-63928.1,-15816.61,-7330.4443,-15054.362,21257.527,13936.523,-8974.406
1395872.0482274825,-48478.477,-63948.242,-15820.068,-7335.49,-15056.519,21254.803,13935.507,-8985.312
1395872.0522274782,-48494.47,-63963.055,-15830.078,-7351.9287,-15055.908,21237.957,13932.048,-8993.408
1395872.0562274742,-48492.027,-63954.1,-15828.125,-7350.464,-15048.706,21232.137,13932.129,-8990.072
1395872.06022747,-48470.215,-63932.293,-15817.587,-7331.299,-15043.661,21247.479,13936.442,-8977.011
1395872.0642274658,-48457.97,-63921.184,-15808.798,-7321.452,-15046.753,21260.498,13940.023,-8967.733
1395872.0682274615,-48468.996,-63933.92,-15812.785,-7332.235,-15050.985,21253.297,13936.931,-8975.586
1395872.0722274573,-48485.066,-63952.11,-15824.911,-7349.6094,-15051.352,21238.566,13932.251,-8987.102
1395872.0762274533,-48488.363,-63952.598,-15827.393,-7350.9116,-15049.113,21233.195,13931.152,-8987.061
1395872.080227449,-48471.19,-63936.402,-15814.575,-7333.008,-15045.573,21246.908,13934.245,-8975.261
1395872.0842274448,-48459.11,-63922.812,-15805.176,-7317.424,-15044.597,21263.348,13938.965,-8967.651
1395872.0882274406,-48472.37,-63943.523,-15813.314,-7327.5146,-15050.009,21258.871,13938.11,-8973.349
1395872.0922274366,-48489.098,-63969.934,-15825.48,-7344.1978,-15052.246,21241.496,13935.629,-8978.964
1395872.0962274324,-48482.06,-63965.54,-15825.358,-7342.1226,-15047.567,21235.23,13934.245,-8976.604
1395872.1002274281,-48470.094,-63941.33,-15816.488,-7325.521,-15043.945,21251.424,13936.198,-8965.617
1395872.104227424,-48467.695,-63938.926,-15813.64,-7315.593,-15046.062,21264.404,13936.523,-8963.705
1395872.10822742,-48480.31,-63963.176,-15820.557,-7326.294,-15051.107,21259.074,13934.692,-8975.708
1395872.1122274157,-48503.703,-63989.258,-15832.764,-7344.6045,-15053.752,21242.146,13930.217,-8990.031
1395872.1162274114,-48503.133,-63991.496,-15834.514,-7342.041,-15050.741,21237.428,13927.856,-8991.252
1395872.1202274072,-48480.062,-63964.723,-15823.649,-7321.452,-15047.323,21251.344,13930.298,-8979.126
1395872.124227403,-48476.484,-63962.16,-15816.203,-7312.297,-15051.799,21262.86,13932.211,-8976.685
1395872.128227399,-48489.46,-63980.836,-15822.104,-7322.8354,-15056.763,21256.756,13930.095,-8986.572
1395872.1322273947,-48506.062,-63996.3,-15830.7705,-7338.9487,-15054.484,21240.072,13925.822,-8995.81
1395872.1362273905,-48504.316,-63987.062,-15829.062,-7336.3037,-15048.747,21232.342,13923.91,-8993.368
1395872.1402273863,-48485.8,-63954.754,-15816.081,-7315.918,-15045.614,21244.223,13923.503,-8983.358
1395872.1442273823,-48479.695,-63948.895,-15810.059,-7303.833,-15047.648,21259.277,13923.991,-8978.842
1395872.148227378,-48490.4,-63966.797,-15815.1045,-7311.7676,-15052.328,21256.715,13922.119,-8987.265
1395872.1522273738,-48504.19,-63989.42,-15824.951,-7327.352,-15055.38,21239.258,13917.155,-9000.204
1395872.1562273696,-48510.62,-63989.83,-15828.125,-7329.997,-15053.793,21230.957,13914.877,-8997.885
1395872.1602273653,-48498.17,-63966.027,-15818.197,-7312.9883,-15053.955,21244.71,13915.121,-8986.816
1395872.1642273613,-48488.895,-63955.977,-15811.401,-7301.351,-15058.228,21255.656,13914.755,-8992.229
1395872.168227357,-48495.08,-63968.547,-15815.593,-7307.007,-15060.913,21250.855,13915.935,-9001.303
1395872.1722273529,-48507.04,-63991.293,-15822.226,-7321.533,-15059.978,21234.01,13915.365,-9008.545
1395872.1762273486,-48503.5,-63993.777,-15821.452,-7319.824,-15055.298,21229.207,13916.626,-9001.018
1395872.1802273446,-48480.39,-63970.01,-15808.96,-7300.659,-15052.368,21244.67,13919.76,-8984.416
1395872.1842273404,-48471.438,-63966.23,-15798.828,-7290.4053,-15056.193,21257.771,13920.248,-8983.073
1395872.1882273362,-48483.562,-63988.203,-15804.077,-7297.3228,-15063.151,21251.588,13918.457,-8993.124
1395872.192227332,-48508.668,-64015.465,-15819.011,-7312.663,-15065.552,21235.475,13916.016,-9004.11
1395872.1962273277,-48513.67,-64007.45,-15820.354,-7311.8896,-15056.479,21229.451,13914.267,-9004.191
1395872.2002273237,-48479.414,-63961.02,-15802.979,-7289.3066,-15047.852,21239.95,13911.174,-8995.81
1395872.2042273195,-48447.145,-63935.754,-15791.382,-7273.397,-15047.119,21250.123,13908.203,-8993.164
1395872.2082273152,-48455.69,-63941.855,-15797.404,-7280.5586,-15051.636,21245.24,13905.64,-9003.378
1395872.212227311,-48465.457,-63947.88,-15802.856,-7294.7593,-15048.544,21228.312,13902.67,-9013.103
1395872.216227307,-48443.562,-63910.77,-15796.387,-7288.5337,-15038.005,21218.588,13899.699,-9015.015
1395872.2202273028,-48401.45,-63863.527,-15779.704,-7267.7,-15032.1455,21231.61,13902.344,-9002.238
1395872.2242272985,-48374.31,-63842.246,-15769.897,-7254.232,-15032.349,21242.229,13903.361,-8997.355
1395872.2282272943,-48350.586,-63828.82,-15768.393,-7257.1616,-15030.07,21234.66,13899.577,-9010.702
1395872.23222729,-48335.164,-63808.676,-15770.752,-7267.578,-15023.52,21216.635,13894.409,-9027.873
1395872.236227286,-48311.24,-63776.816,-15766.846,-7263.7534,-15015.747,21208.334,13888.632,-9032.187
1395872.2402272818,-48270.836,-63722.09,-15751.181,-7241.6587,-15009.644,21217.938,13885.01,-9025.065
1395872.2442272776,-48235.965,-63675.58,-15738.241,-7223.7144,-15004.761,21228.271,13882.65,-9027.832
1395872.2482272733,-48229.74,-63668.582,-15740.031,-7228.1494,-15005.656,21222.047,13877.849,-9042.807
1395872.2522272693,-48237.227,-63671.51,-15750.082,-7242.92,-15004.721,21206.625,13874.553,-9057.048
1395872.256227265,-48213.34,-63632.895,-15745.85,-7236.5723,-14996.989,21200.562,13873.251,-9056.071
1395872.2602272609,-48175.703,-63575.277,-15729.94,-7214.1113,-14987.346,21212.443,13874.472,-9042.033
1395872.2642272566,-48154.95,-63548.465,-15723.552,-7202.0674,-14987.671,21222.168,13871.501,-9039.022
1395872.2682272526,-48152.47,-63550.863,-15727.051,-7212.362,-14989.177,21215.82,13866.252,-9052.572
1395872.2722272484,-48149.824,-63552.695,-15735.148,-7227.2544,-14986.166,21199.016,13861.613,-9065.1045
1395872.2762272442,-48139.773,-63529.176,-15737.468,-7227.417,-14978.679,21192.871,13858.154,-9066.8545
1395872.28022724,-48117.312,-63490.684,-15727.295,-7208.171,-14975.017,21204.713,13859.05,-9056.479
1395872.2842272357,-48097.94,-63469.2,-15719.442,-7198.039,-14977.255,21214.764,13857.056,-9055.38
1395872.2882272317,-48089.887,-63465.82,-15724.528,-7201.294,-14975.383,21209.107,13853.842,-9068.237
1395872.2922272275,-48090.09,-63468.832,-15731.445,-7211.9956,-14972.128,21192.75,13848.837,-9077.515
1395872.2962272232,-48083.17,-63451.99,-15732.26,-7212.8906,-14967.855,21185.994,13845.419,-9082.072
1395872.300227219,-48062.95,-63419.68,-15719.768,-7194.7837,-14966.553,21200.115,13848.593,-9074.667
1395872.304227215,-48046.918,-63408.367,-15712.199,-7183.3906,-14969.727,21211.752,13851.481,-9072.836
1395872.3082272108,-48057.457,-63423.87,-15717.978,-7195.272,-14971.151,21204.346,13849.284,-9083.008
1395872.3122272065,-48072.266,-63440.35,-15729.452,-7211.263,-14967.692,21183.717,13842.407,-9097.616
1395872.3162272023,-48069.746,-63427.9,-15731.812,-7209.5137,-14959.799,21178.264,13840.292,-9101.237
1395872.320227198,-48050.418,-63403.77,-15717.57,-7194.0513,-14955.526,21192.994,13844.157,-9088.989
1395872.324227194,-48044.312,-63391.36,-15707.968,-7183.879,-14957.52,21202.637,13842.773,-9085.612
1395872.3282271898,-48053.957,-63403.28,-15715.21,-7193.0747,-14961.833,21196.33,13839.56,-9088.989
1395872.3322271856,-48066.203,-63419.64,-15726.278,-7209.2695,-14959.351,21180.908,13837.321,-9096.518
1395872.3362271814,-48068.484,-63424.645,-15725.18,-7207.2754,-14956.869,21175.781,13836.467,-9093.71
1395872.3402271774,-48049.645,-63406.7,-15713.705,-7187.7036,-14955.363,21187.256,13837.769,-9080.282
1395872.3442271731,-48039.754,-63389.977,-15707.968,-7176.8394,-14954.509,21199.178,13840.17,-9072.917
1395872.348227169,-48052.043,-63406.496,-15715.617,-7190.0635,-14958.74,21193.686,13838.989,-9081.869
1395872.3522271647,-48076.457,-63433.312,-15729.736,-7207.5605,-14958.09,21180.176,13836.589,-9093.344
1395872.3562271604,-48078.168,-63434.45,-15732.178,-7208.0894,-14951.538,21175.09,13832.886,-9094.727
1395872.3602271564,-48053.71,-63406.047,-15721.518,-7192.0166,-14948.975,21188.924,13833.171,-9086.996
1395872.3642271522,-48056.316,-63402.55,-15717.611,-7183.553,-14952.312,21200.604,13835.409,-9082.561
1395872.368227148,-48067.18,-63425.17,-15722.087,-7190.511,-14958.618,21196.004,13834.066,-9089.641
1395872.3722271437,-48080.04,-63443.035,-15729.533,-7203.7354,-14956.869,21180.135,13831.096,-9100.017
1395872.3762271397,-48081.87,-63437.99,-15728.679,-7199.87,-14950.399,21175.252,13833.334,-9095.988
1395872.3802271355,-48069.824,-63420.74,-15717.367,-7183.635,-14947.998,21187.908,13838.379,-9079.0205
1395872.3842271313,-48064.74,-63414.473,-15714.641,-7176.8394,-14949.301,21199.992,13837.729,-9073.568
1395872.388227127,-48069.54,-63430.176,-15720.134,-7185.466,-14950.195,21195.68,13836.508,-9083.618
1395872.392227123,-48084.758,-63446.574,-15730.469,-7200.5615,-14949.382,21179.322,13835.287,-9090.414
1395872.3962271188,-48090.13,-63448.527,-15731.364,-7203.6543,-14943.93,21173.016,13833.781,-9085.775
1395872.4002271146,-48078.695,-63439.008,-15719.6045,-7182.0884,-14941.936,21186.076,13836.02,-9073.975
1395872.4042271103,-48065.023,-63428.59,-15713.135,-7172.3228,-14942.912,21197.55,13839.682,-9069.052
1395872.408227106,-48078.086,-63439.7,-15721.029,-7183.3906,-14945.3125,21191.936,13838.217,-9078.776
1395872.412227102,-48093.875,-63459.473,-15730.876,-7198.2017,-14942.465,21178.102,13836.508,-9086.955
1395872.4162270979,-48093.832,-63462.2,-15731.283,-7198.568,-14937.622,21173.666,13837.932,-9081.543
1395872.4202270936,-48080.324,-63435.508,-15719.157,-7182.048,-14936.972,21187.785,13842.529,-9066.569
1395872.4242270894,-48068.24,-63426.395,-15711.711,-7171.7124,-14940.837,21198.406,13842.367,-9062.541
1395872.4282270854,-48074.504,-63439.58,-15715.576,-7178.63,-14943.237,21194.744,13843.018,-9068.481
1395872.4322270812,-48089.766,-63462.08,-15727.702,-7194.499,-14943.481,21179.24,13840.983,-9076.335
1395872.436227077,-48090.7,-63459.555,-15729.33,-7193.563,-14937.988,21173.38,13841.919,-9069.214
1395872.4402270727,-48080.812,-63441.613,-15721.151,-7178.63,-14935.954,21185.914,13843.913,-9057.089
1395872.4442270685,-48069.99,-63438.152,-15713.379,-7166.789,-14940.1045,21202.271,13846.762,-9053.061
1395872.4482270645,-48069.418,-63461.184,-15714.274,-7175.7407,-14949.789,21197.957,13843.994,-9065.186
1395872.4522270602,-48082.52,-63478.56,-15723.959,-7192.1387,-14951.701,21180.096,13839.233,-9077.678
1395872.456227056,-48080.12,-63459.68,-15722.453,-7189.006,-14938.477,21174.684,13839.804,-9072.632
1395872.4602270517,-48066.57,-63431.52,-15713.054,-7170.2476,-14934.489,21187.135,13842.204,-9059.448
1395872.4642270477,-48058.35,-63431.03,-15706.665,-7160.6445,-14939.047,21200.318,13843.628,-9054.24
1395872.4682270435,-48061.85,-63457.316,-15709.229,-7165.487,-14942.668,21196.656,13841.716,-9061.728
1395872.4722270393,-48081.668,-63485.07,-15719.157,-7180.0947,-14941.081,21181.396,13839.926,-9069.377
1395872.476227035,-48084.637,-63478.11,-15720.622,-7183.2275,-14938.64,21173.707,13839.6,-9069.092
1395872.4802270308,-48072.266,-63443.89,-15712.851,-7165.8125,-14932.699,21185.018,13839.6,-9059.123
1395872.4842270268,-48059.855,-63434.613,-15707.561,-7154.907,-14932.495,21196.533,13837.565,-9057.577
1395872.4882270226,-48068.28,-63462.16,-15711.304,-7163.778,-14937.948,21192.791,13837.932,-9062.338
1395872.4922270183,-48081.543,-63480.797,-15718.994,-7175.415,-14936.809,21181.072,13839.274,-9067.953
1395872.496227014,-48084.11,-63469.402,-15719.32,-7176.5547,-14930.42,21176.27,13839.03,-9065.471
1395872.50022701,-48074.098,-63451.01,-15709.311,-7161.784,-14930.908,21187.379,13842.407,-9052.694
1395872.5042270059,-48071.25,-63454.227,-15703.776,-7153.6055,-14935.995,21198.445,13842.692,-9054.037
1395872.5082270016,-48078.004,-63474.082,-15708.171,-7162.069,-14940.674,21193.28,13838.542,-9064.779
1395872.5122269974,-48092.41,-63499.797,-15716.594,-7176.0254,-14941.162,21177.125,13835.734,-9076.864
1395872.5162269932,-48096.355,-63499.637,-15718.222,-7176.4326,-14939.25,21171.713,13836.833,-9071.086
1395872.5202269892,-48081.055,-63467.9,-15708.984,-7160.7666,-14937.826,21185.873,13839.274,-9056.03
1395872.524226985,-48067.06,-63461.47,-15702.678,-7149.414,-14942.261,21196.86,13839.844,-9054.851
1395872.5282269807,-48081.098,-63491.418,-15711.508,-7159.912,-14949.179,21192.83,13839.926,-9062.785
1395872.5322269765,-48098.105,-63506.96,-15725.546,-7177.002,-14949.748,21174.846,13834.799,-9075.195
1395872.5362269725,-48095.418,-63500.45,-15724.569,-7174.7236,-14945.354,21169.475,13835.165,-9073.771
1395872.5402269682,-48079.266,-63468.71,-15712.729,-7156.942,-14940.756,21180.787,13836.02,-9061.523
1395872.544226964,-48079.836,-63469.605,-15707.438,-7149.9434,-14946.33,21192.547,13838.095,-9058.228
1395872.5482269598,-48096.113,-63490.316,-15714.804,-7160.848,-14953.247,21188.191,13837.6875,-9064.006
1395872.5522269558,-48110.066,-63508.953,-15724.406,-7177.0835,-14950.439,21171.713,13832.113,-9074.179
1395872.5562269515,-48107.06,-63501.67,-15723.1045,-7175.212,-14942.465,21165.812,13830.2,-9074.748
1395872.5602269473,-48087.08,-63476.848,-15712.321,-7156.535,-14941.081,21179.281,13831.828,-9065.39
1395872.564226943,-48078.777,-63474.53,-15705.526,-7146.688,-14946.452,21192.75,13834.188,-9061.523
1395872.5682269388,-48094.2,-63505.902,-15711.67,-7158.2847,-14951.457,21188.436,13831.869,-9070.923
1395872.5722269348,-48112.184,-63528.484,-15724.406,-7175.985,-14951.701,21172.12,13831.096,-9082.113
1395872.5762269306,-48110.92,-63510.906,-15723.999,-7174.3574,-14945.272,21168.824,13835.979,-9074.504
1395872.5802269264,-48100.668,-63496.055,-15715.454,-7157.837,-14943.278,21183.838,13842.814,-9055.42
1395872.5842269221,-48095.867,-63503.34,-15709.88,-7149.1294,-14947.795,21197.877,13845.297,-9050.578
1395872.5882269181,-48102.99,-63528.445,-15714.844,-7159.2207,-14955.404,21190.145,13843.71,-9062.094
1395872.592226914,-48118.816,-63549.766,-15725.871,-7175.6187,-14955.607,21172.527,13840.902,-9070.72
1395872.5962269097,-48126.508,-63547.242,-15731.323,-7175.863,-14949.219,21167.848,13840.576,-9069.58
1395872.6002269054,-48118.367,-63530.64,-15722.616,-7160.034,-14945.109,21181.031,13843.547,-9059.774
1395872.6042269012,-48114.668,-63523.6,-15714.926,-7149.6177,-14950.073,21191.977,13845.866,-9053.264
1395872.6082268972,-48117.11,-63533.855,-15717.245,-7156.616,-14952.475,21186.809,13844.6045,-9063.599
1395872.612226893,-48131.473,-63551.027,-15726.889,-7171.3057,-14951.213,21171.102,13840.78,-9073.324
1395872.6162268887,-48131.062,-63557.13,-15728.476,-7173.2993,-14947.266,21165.447,13839.274,-9075.48
1395872.6202268845,-48113.324,-63538.902,-15717.978,-7153.9717,-14943.97,21176.922,13837.729,-9068.075
1395872.6242268805,-48109.785,-63536.664,-15710.775,-7141.6016,-14946.818,21187.338,13836.792,-9065.227
1395872.6282268763,-48125.69,-63554.73,-15716.716,-7152.5474,-14953.166,21182.781,13835.368,-9073.12
1395872.632226872,-48140.79,-63568.36,-15729.858,-7167.6025,-14952.759,21168.133,13833.74,-9080.038
1395872.6362268678,-48136.883,-63558.105,-15731.323,-7167.3584,-14950.847,21164.918,13833.008,-9079.0205
1395872.6402268636,-48116.457,-63536.01,-15717.204,-7150.0654,-14946.33,21177.734,13836.63,-9065.227
1395872.6442268596,-48117.434,-63537.03,-15712.118,-7143.026,-14950.277,21187.908,13839.763,-9059.57
1395872.6482268553,-48126.71,-63559.29,-15717.001,-7151.367,-14958.293,21182.7,13839.478,-9070.3125
1395872.652226851,-48144.613,-63572.062,-15730.021,-7168.5386,-14958.862,21168.254,13835.693,-9085.043
1395872.6562268469,-48152.14,-63577.312,-15734.131,-7170.8984,-14957.031,21164.389,13837.606,-9084.799
1395872.6602268429,-48137.25,-63560.266,-15720.012,-7152.0996,-14955.282,21180.543,13842.529,-9068.808
1395872.6642268386,-48129.598,-63548.668,-15710.002,-7139.2417,-14956.665,21195.516,13845.744,-9060.222
1395872.6682268344,-48139.61,-63565.918,-15715.414,-7144.6943,-14959.311,21189.291,13842.082,-9070.028
1395872.6722268302,-48149.863,-63582.6,-15724.203,-7159.3833,-14958.496,21169.557,13835.002,-9083.74
1395872.6762268262,-48148.684,-63580.0,-15724.976,-7159.668,-14953.41,21162.273,13833.334,-9080.282
1395872.680226822,-48128.746,-63562.094,-15711.426,-7139.4453,-14952.393,21174.44,13839.03,-9065.186
1395872.6842268177,-48116.7,-63549.562,-15700.033,-7127.7266,-14956.991,21186.076,13841.919,-9059.367
1395872.6882268135,-48132.12,-63570.11,-15704.956,-7137.207,-14962.851,21183.717,13843.14,-9065.308
1395872.6922268092,-48147.95,-63591.594,-15715.292,-7154.5005,-14962.524,21169.393,13840.251,-9076.091
1395872.6962268052,-48146.812,-63583.703,-15715.983,-7152.71,-14956.015,21161.297,13837.729,-9076.457
1395872.700226801,-48129.355,-63559.53,-15704.509,-7134.237,-14950.969,21174.56,13839.315,-9064.047
1395872.7042267967,-48122.438,-63556.316,-15697.795,-7125.366,-14952.881,21185.018,13837.891,-9065.512
1395872.7082267925,-48141.113,-63578.94,-15704.794,-7133.138,-14958.049,21181.764,13835.815,-9079.509
1395872.7122267885,-48158.49,-63601.24,-15715.17,-7148.8853,-14958.659,21164.959,13831.503,-9089.844
1395872.7162267843,-48152.914,-63606.73,-15714.682,-7147.1763,-14954.509,21157.47,13829.55,-9089.519
1395872.72022678,-48136.76,-63587.2,-15702.597,-7129.598,-14951.01,21170.857,13832.194,-9079.468
1395872.7242267758,-48131.633,-63582.93,-15695.517,-7120.4023,-14955.7295,21185.223,13834.311,-9073.771
1395872.7282267716,-48145.875,-63591.105,-15703.207,-7129.9644,-14964.926,21180.217,13828.776,-9082.805
1395872.7322267676,-48163.7,-63607.06,-15714.804,-7143.3105,-14965.048,21164.998,13830.444,-9089.519
1395872.7362267633,-48164.31,-63606.203,-15714.396,-7143.1885,-14958.578,21161.215,13837.729,-9082.764
1395872.740226759,-48139.16,-63582.156,-15699.504,-7123.3726,-14952.189,21175.334,13844.442,-9070.19
1395872.7442267549,-48138.715,-63583.66,-15694.54,-7115.967,-14960.693,21187.908,13849.243,-9065.023
1395872.7482267509,-48154.46,-63607.504,-15701.579,-7124.3896,-14970.5,21180.99,13848.796,-9076.294
1395872.7522267466,-48170.453,-63628.703,-15713.054,-7138.713,-14972.534,21163.045,13846.965,-9085.612
1395872.7562267424,-48171.51,-63619.914,-15713.664,-7138.3467,-14967.692,21156.17,13847.534,-9083.984
1395872.7602267382,-48148.074,-63589.52,-15699.382,-7118.4897,-14962.524,21168.457,13851.034,-9071.127
1395872.764226734,-48132.61,-63579.59,-15691.366,-7105.9165,-14961.142,21179.646,13854.533,-9062.46
1395872.76822673,-48144.37,-63592.41,-15697.998,-7114.095,-14965.698,21174.44,13853.3125,-9071.899
1395872.7722267257,-48158.125,-63613.934,-15708.822,-7129.1504,-14966.431,21157.674,13846.3955,-9090.536
1395872.7762267215,-48152.957,-63606.445,-15707.886,-7128.784,-14959.473,21151.45,13844.279,-9090.088
1395872.7802267172,-48138.55,-63582.195,-15696.289,-7112.793,-14956.625,21164.877,13849.731,-9076.864
1395872.7842267132,-48129.76,-63569.297,-15688.3545,-7102.1323,-14958.049,21177.043,13853.231,-9071.899
1395872.788226709,-48135.418,-63597.656,-15696.086,-7112.2236,-14965.495,21171.998,13851.318,-9083.537
1395872.7922267048,-48151.695,-63623.09,-15707.927,-7127.523,-14964.233,21158.0,13848.959,-9093.669
1395872.7962267005,-48154.707,-63612.55,-15709.514,-7126.0986,-14956.828,21151.123,13848.511,-9091.838
1395872.8002266963,-48135.01,-63590.05,-15697.592,-7107.137,-14953.898,21164.998,13853.801,-9079.102
1395872.8042266923,-48128.133,-63591.758,-15692.424,-7099.162,-14960.083,21177.002,13856.608,-9073.527
1395872.808226688,-48145.266,-63621.055,-15700.847,-7107.585,-14964.763,21173.178,13854.899,-9084.106
1395872.8122266838,-48164.96,-63646.73,-15710.043,-7123.454,-14963.013,21158.285,13854.818,-9091.96
1395872.8162266796,-48160.848,-63640.06,-15708.781,-7122.274,-14956.584,21151.855,13855.632,-9088.501
1395872.8202266756,-48140.547,-63615.562,-15695.679,-7101.156,-14954.672,21167.156,13862.183,-9072.348
1395872.8242266714,-48131.188,-63603.273,-15687.541,-7090.576,-14958.049,21181.438,13866.415,-9066.569
1395872.8282266671,-48143.19,-63617.395,-15693.034,-7099.243,-14961.345,21177.49,13866.74,-9073.405
1395872.832226663,-48158.45,-63635.62,-15704.509,-7114.543,-14959.595,21159.994,13864.462,-9081.299
1395872.836226659,-48156.617,-63633.508,-15705.2,-7115.9263,-14956.869,21151.164,13860.312,-9081.096
1395872.8402266547,-48144.574,-63610.965,-15695.272,-7099.365,-14955.241,21161.824,13859.294,-9070.068
1395872.8442266504,-48133.223,-63597.414,-15687.419,-7087.2803,-14956.909,21173.055,13859.009,-9064.697
1395872.8482266462,-48140.42,-63607.547,-15692.18,-7094.9707,-14959.961,21169.719,13856.161,-9075.358
1395872.852226642,-48158.45,-63635.46,-15706.828,-7112.1826,-14961.304,21152.67,13853.3125,-9086.345
1395872.856226638,-48154.95,-63629.19,-15709.636,-7110.881,-14956.828,21146.932,13852.377,-9085.856
1395872.8602266337,-48135.664,-63599.285,-15696.208,-7093.75,-14955.282,21161.703,13855.469,-9076.782
1395872.8642266295,-48135.133,-63600.344,-15689.697,-7086.792,-14962.851,21175.863,13860.026,-9070.272
1395872.8682266253,-48146.566,-63615.766,-15693.481,-7094.1978,-14965.454,21171.63,13858.603,-9075.358
1395872.8722266213,-48163.535,-63633.508,-15703.654,-7106.4453,-14962.6875,21155.682,13854.126,-9085.246
1395872.876226617,-48167.24,-63632.45,-15702.2705,-7104.5737,-14956.747,21149.414,13854.614,-9082.316
1395872.8802266128,-48151.41,-63613.895,-15690.471,-7088.7046,-14955.811,21161.336,13858.765,-9070.923
1395872.8842266086,-48146.973,-63602.05,-15683.269,-7078.532,-14957.642,21174.072,13864.34,-9066.04
1395872.8882266043,-48160.035,-63628.5,-15689.372,-7086.7515,-14965.048,21173.219,13867.392,-9071.696
1395872.8922266003,-48188.152,-63657.39,-15704.184,-7105.51,-14967.041,21158.936,13867.554,-9081.381
1395872.896226596,-48192.465,-63659.508,-15704.712,-7106.3643,-14960.49,21155.152,13868.734,-9079.062
1395872.9002265919,-48175.703,-63640.992,-15693.93,-7085.8564,-14958.781,21167.195,13869.385,-9070.72
1395872.9042265876,-48163.86,-63636.477,-15684.367,-7075.3174,-14961.548,21178.143,13867.636,-9072.429
1395872.9082265836,-48167.605,-63655.152,-15686.523,-7084.188,-14965.576,21172.73,13865.356,-9080.566
1395872.9122265794,-48182.58,-63672.85,-15695.476,-7098.2666,-14961.996,21157.146,13865.845,-9085.165
1395872.9162265752,-48183.473,-63668.906,-15696.696,-7098.104,-14954.468,21151.367,13866.618,-9079.834
1395872.920226571,-48176.27,-63644.53,-15689.453,-7080.892,-14950.603,21164.674,13870.361,-9066.0
1395872.9242265667,-48175.215,-63629.316,-15683.35,-7069.9463,-14952.026,21176.799,13870.524,-9065.349
1395872.9282265627,-48189.863,-63643.15,-15689.169,-7080.526,-14958.212,21172.283,13868.693,-9075.073
1395872.9322265584,-48199.547,-63654.22,-15700.317,-7095.2964,-14961.101,21152.791,13862.061,-9089.396
1395872.9362265542,-48200.44,-63648.316,-15701.335,-7095.093,-14958.09,21144.043,13854.533,-9092.8955
1395872.94022655,-48188.234,-63627.24,-15691.203,-7076.701,-14956.584,21156.861,13854.899,-9081.177
1395872.944226546,-48180.83,-63621.46,-15683.35,-7068.8477,-14962.81,21169.88,13854.736,-9077.393
1395872.9482265417,-48189.453,-63642.457,-15685.995,-7077.0674,-14968.994,21166.545,13856.934,-9082.683
1395872.9522265375,-48206.83,-63663.82,-15697.47,-7092.7734,-14968.588,21148.926,13856.934,-9091.635
1395872.9562265333,-48206.258,-63652.63,-15699.911,-7092.7734,-14963.013,21140.463,13858.073,-9088.501
1395872.960226529,-48193.727,-63633.71,-15692.424,-7073.6084,-14958.578,21153.973,13863.933,-9074.26
1395872.964226525,-48178.184,-63631.473,-15683.35,-7062.9883,-14962.321,21166.586,13866.293,-9072.836
1395872.9682265208,-48183.39,-63646.28,-15688.3955,-7070.7603,-14969.442,21163.045,13867.717,-9081.869
1395872.9722265166,-48201.785,-63663.78,-15702.637,-7088.786,-14969.6455,21147.176,13864.624,-9092.978
1395872.9762265123,-48201.5,-63653.85,-15706.909,-7089.9253,-14962.851,21140.584,13861.9795,-9091.391
1395872.9802265083,-48183.35,-63622.805,-15696.167,-7071.6963,-14958.944,21154.256,13862.671,-9080.363
1395872.984226504,-48170.98,-63618.98,-15687.541,-7062.3374,-14962.606,21166.627,13863.241,-9078.451
1395872.9882264999,-48182.414,-63635.297,-15691.8545,-7070.15,-14967.814,21159.506,13859.009,-9089.315
1395872.9922264956,-48202.56,-63648.645,-15704.794,-7084.1064,-14965.536,21141.684,13855.998,-9097.616
1395872.9962264916,-48208.17,-63637.047,-15708.334,-7082.9673,-14961.02,21135.783,13854.533,-9095.297
1395873.0002264874,-48191.12,-63610.516,-15697.714,-7065.674,-14960.287,21153.646,13860.596,-9077.556
1395873.0042264832,-48179.363,-63603.438,-15689.982,-7054.403,-14962.565,21167.195,13865.642,-9068.156
1395873.008226479,-48187.95,-63621.582,-15697.551,-7064.087,-14969.564,21163.25,13864.218,-9074.992
1395873.0122264747,-48204.348,-63640.625,-15708.862,-7079.305,-14965.698,21144.816,13859.619,-9085.734
1395873.0162264707,-48207.645,-63632.285,-15711.345,-7078.9795,-14957.438,21135.783,13853.394,-9090.007
1395873.0202264665,-48193.035,-63605.266,-15701.701,-7060.2217,-14951.986,21149.293,13853.964,-9081.299
1395873.0242264622,-48181.844,-63592.45,-15693.441,-7047.2007,-14955.078,21162.03,13857.097,-9076.823
1395873.028226458,-48184.33,-63618.33,-15696.655,-7054.6064,-14958.822,21158.326,13856.527,-9083.212
1395873.032226454,-48206.746,-63648.277,-15710.368,-7072.8354,-14960.693,21141.521,13855.713,-9088.176
1395873.0362264498,-48207.684,-63631.27,-15709.677,-7069.214,-14951.335,21136.516,13858.195,-9083.456
1395873.0402264455,-48188.52,-63597.902,-15697.876,-7050.2524,-14944.946,21148.723,13862.549,-9070.395
1395873.0442264413,-48186.484,-63595.055,-15692.18,-7042.684,-14949.789,21160.93,13866.415,-9062.704
1395873.048226437,-48195.965,-63601.93,-15699.911,-7050.212,-14955.404,21156.453,13868.49,-9069.499
1395873.052226433,-48213.46,-63621.543,-15713.542,-7066.732,-14954.102,21139.73,13864.665,-9078.776
1395873.0562264288,-48214.316,-63615.562,-15716.024,-7066.162,-14950.114,21133.709,13864.706,-9076.416
1395873.0602264246,-48193.77,-63596.805,-15704.509,-7050.863,-14947.266,21143.514,13868.042,-9066.406
1395873.0642264204,-48182.78,-63590.984,-15697.185,-7037.6387,-14949.301,21155.314,13869.06,-9060.303
1395873.0682264164,-48198.73,-63608.277,-15703.247,-7046.0615,-14952.026,21151.49,13864.909,-9070.354
1395873.0722264121,-48218.02,-63629.07,-15713.257,-7063.965,-14949.138,21135.58,13859.823,-9087.484
1395873.076226408,-48211.793,-63620.85,-15712.077,-7064.331,-14944.784,21129.395,13862.997,-9084.88
1395873.0802264037,-48188.64,-63583.824,-15697.266,-7040.3647,-14936.483,21145.143,13870.402,-9067.221
1395873.0842263994,-48182.863,-63559.33,-15690.918,-7028.768,-14931.967,21159.1,13871.176,-9064.616
1395873.0882263954,-48196.37,-63573.45,-15699.504,-7038.452,-14935.995,21156.373,13871.582,-9073.853
1395873.0922263912,-48210.98,-63605.023,-15712.646,-7053.833,-14938.559,21141.398,13868.327,-9081.584
1395873.096226387,-48207.234,-63598.27,-15711.548,-7054.769,-14935.547,21133.465,13864.055,-9080.566
1395873.1002263827,-48192.832,-63583.418,-15703.085,-7040.324,-14934.286,21146.363,13866.618,-9068.319
1395873.1042263787,-48191.61,-63580.285,-15697.673,-7030.8027,-14939.372,21159.424,13868.327,-9066.0
1395873.1082263745,-48208.863,-63582.805,-15703.166,-7038.33,-14940.471,21155.193,13866.618,-9075.073
1395873.1122263703,-48222.37,-63595.01,-15711.589,-7050.7407,-14937.053,21138.713,13863.403,-9080.852
1395873.116226366,-48221.926,-63594.117,-15712.321,-7052.2056,-14933.96,21132.61,13862.265,-9073.894
1395873.120226362,-48203.816,-63566.45,-15703.288,-7034.546,-14928.508,21148.56,13867.351,-9058.024
1395873.1242263578,-48198.69,-63551.312,-15696.574,-7023.3154,-14928.549,21160.604,13872.6,-9050.375
1395873.1282263536,-48210.53,-63568.08,-15700.399,-7028.0356,-14932.577,21155.559,13874.675,-9053.833
1395873.1322263493,-48224.57,-63594.445,-15709.799,-7046.1836,-14934.855,21138.63,13873.251,-9062.948
1395873.136226345,-48221.68,-63599.61,-15711.548,-7047.811,-14929.77,21133.26,13872.966,-9061.972
1395873.140226341,-48204.715,-63581.42,-15701.416,-7028.524,-14930.176,21142.742,13871.582,-9052.612
1395873.1442263369,-48201.01,-63573.04,-15693.115,-7017.497,-14934.042,21156.697,13874.512,-9045.776
1395873.1482263326,-48207.234,-63580.363,-15696.981,-7023.3564,-14937.5,21156.78,13874.675,-9052.328
1395873.1522263284,-48224.285,-63602.133,-15709.88,-7038.615,-14936.6455,21140.584,13868.815,-9068.034
1395873.1562263244,-48222.09,-63596.6,-15712.81,-7039.6323,-14928.183,21131.307,13866.415,-9069.255
1395873.1602263201,-48203.656,-63575.89,-15700.847,-7023.5596,-14922.7705,21144.451,13871.623,-9058.472
1395873.164226316,-48202.477,-63584.598,-15696.045,-7014.038,-14929.077,21157.594,13876.587,-9051.799
1395873.1682263117,-48208.863,-63604.74,-15699.097,-7023.0713,-14934.692,21152.303,13877.6045,-9058.635
1395873.1722263074,-48218.63,-63623.78,-15707.113,-7038.574,-14936.931,21135.01,13873.576,-9071.167
1395873.1762263034,-48220.176,-63618.086,-15708.659,-7037.9233,-14931.234,21127.97,13873.698,-9068.237
1395873.1802262992,-48197.918,-63583.375,-15697.51,-7018.799,-14924.194,21138.957,13876.099,-9056.763
1395873.184226295,-48192.793,-63583.293,-15691.284,-7010.376,-14928.874,21153.809,13878.906,-9052.612
1395873.1882262907,-48203.9,-63612.51,-15697.958,-7020.345,-14937.5,21151.123,13875.57,-9060.873
1395873.1922262867,-48215.17,-63632.652,-15708.456,-7036.9062,-14937.826,21133.953,13871.094,-9071.859
1395873.1962262825,-48217.33,-63626.547,-15712.606,-7038.005,-14933.146,21126.588,13871.501,-9069.377
1395873.2002262783,-48197.31,-63601.035,-15699.829,-7019.6943,-14926.514,21138.184,13875.366,-9055.38
1395873.204226274,-48186.28,-63594.973,-15694.052,-7009.1147,-14929.443,21148.926,13877.197,-9046.184
1395873.2082262698,-48197.88,-63620.445,-15701.335,-7017.456,-14936.809,21145.346,13879.436,-9049.561
1395873.2122262658,-48214.03,-63636.965,-15713.501,-7032.43,-14935.791,21130.33,13878.093,-9055.014
1395873.2162262616,-48208.66,-63627.688,-15713.257,-7031.942,-14928.386,21123.982,13878.622,-9048.503
1395873.2202262573,-48194.094,-63605.918,-15703.085,-7015.2183,-14924.805,21136.719,13884.277,-9034.343
1395873.224226253,-48190.758,-63598.676,-15699.138,-7007.894,-14928.427,21149.334,13887.858,-9032.064
1395873.228226249,-48203.004,-63613.242,-15706.421,-7017.578,-14933.757,21144.94,13886.435,-9041.992
1395873.2322262449,-48225.02,-63632.285,-15717.692,-7034.424,-14933.513,21128.582,13884.44,-9050.415
1395873.2362262406,-48222.293,-63634.402,-15719.6455,-7035.604,-14928.345,21122.03,13881.47,-9051.27
1395873.2402262364,-48198.934,-63609.254,-15705.933,-7016.683,-14925.212,21133.627,13882.202,-9040.8125
1395873.2442262322,-48191.164,-63599.0,-15697.632,-7004.11,-14926.962,21145.508,13881.674,-9039.551
1395873.2482262282,-48210.492,-63621.867,-15703.207,-7014.8926,-14931.804,21142.09,13880.209,-9049.683
1395873.252226224,-48231.242,-63646.527,-15714.478,-7033.122,-14932.943,21130.86,13880.656,-9059.082
1395873.2562262197,-48230.348,-63635.297,-15714.071,-7031.6978,-14927.368,21125.123,13881.836,-9056.274
1395873.2602262155,-48213.016,-63601.035,-15703.898,-7013.3057,-14923.666,21134.848,13881.714,-9046.265
1395873.2642262115,-48204.023,-63589.64,-15694.824,-7002.5635,-14928.223,21146.078,13880.778,-9043.01
1395873.2682262072,-48217.0,-63604.7,-15699.667,-7010.2134,-14934.978,21142.863,13876.75,-9053.305
1395873.272226203,-48230.062,-63628.297,-15710.571,-7027.751,-14937.256,21126.547,13872.803,-9071.167
1395873.2762261988,-48231.812,-63626.426,-15713.461,-7031.169,-14929.973,21120.281,13874.35,-9068.889
1395873.2802261948,-48216.39,-63608.277,-15703.044,-7013.835,-14928.955,21131.512,13878.418,-9051.962
1395873.2842261905,-48208.133,-63609.01,-15698.608,-7003.581,-14932.536,21142.416,13883.545,-9041.301
1395873.2882261863,-48217.734,-63618.652,-15703.085,-7010.946,-14934.855,21139.527,13883.952,-9046.794
1395873.292226182,-48230.062,-63628.703,-15715.414,-7025.7163,-14934.814,21121.338,13881.674,-9056.356
1395873.2962261778,-48230.145,-63624.594,-15716.391,-7027.629,-14930.502,21114.87,13882.324,-9050.456
1395873.3002261738,-48220.34,-63605.105,-15707.968,-7009.7656,-14929.77,21128.418,13886.068,-9034.709
1395873.3042261696,-48215.17,-63597.617,-15700.562,-6998.739,-14933.065,21138.469,13889.201,-9027.832
1395873.3082261654,-48223.023,-63615.766,-15706.015,-7009.5625,-14943.075,21132.691,13889.12,-9038.696
1395873.3122261611,-48240.234,-63638.266,-15719.971,-7027.6694,-14944.174,21117.596,13886.801,-9051.433
1395873.3162261571,-48239.258,-63627.81,-15719.89,-7024.4956,-14935.71,21111.898,13883.627,-9049.602
1395873.320226153,-48224.285,-63602.5,-15708.049,-7006.063,-14935.303,21125.936,13886.475,-9034.75
1395873.3242261487,-48215.535,-63606.977,-15700.969,-6997.925,-14942.302,21136.434,13886.882,-9036.54
1395873.3282261444,-48221.477,-63633.18,-15704.875,-7005.4526,-14950.684,21130.9,13886.435,-9046.509
1395873.3322261402,-48237.633,-63652.754,-15713.989,-7020.63,-14948.08,21117.352,13885.824,-9056.152
1395873.3362261362,-48237.387,-63642.254,-15711.426,-7020.101,-14937.541,21112.63,13888.388,-9050.537
1395873.340226132,-48215.984,-63616.375,-15695.639,-7001.7905,-14932.943,21125.488,13891.032,-9038.208
1395873.3442261277,-48212.77,-63621.625,-15689.047,-6992.4316,-14939.25,21135.824,13890.829,-9035.197
1395873.3482261235,-48222.496,-63650.434,-15693.93,-7002.3193,-14945.557,21131.795,13888.998,-9044.638
1395873.3522261195,-48237.918,-63667.36,-15705.7295,-7016.3984,-14948.608,21117.31,13885.214,-9052.043
1395873.3562261153,-48235.76,-63657.797,-15707.4795,-7016.4795,-14942.302,21109.416,13884.399,-9046.306
1395873.360226111,-48219.566,-63633.06,-15695.557,-6999.634,-14938.11,21122.518,13886.76,-9032.349
1395873.3642261068,-48213.055,-63624.676,-15687.094,-6988.363,-14942.749,21134.889,13889.445,-9030.681
1395873.3682261026,-48221.926,-63637.086,-15690.837,-6996.257,-14944.702,21129.232,13886.557,-9043.376
1395873.3722260986,-48239.46,-63652.47,-15700.439,-7010.742,-14943.319,21111.572,13880.9,-9057.292
1395873.3762260943,-48243.043,-63657.188,-15702.189,-7012.37,-14940.023,21104.168,13878.744,-9055.746
1395873.38022609,-48225.14,-63637.74,-15689.819,-6994.914,-14936.605,21119.426,13883.179,-9043.62
1395873.3842260859,-48212.73,-63626.914,-15680.461,-6985.1074,-14942.18,21130.615,13886.068,-9037.313
1395873.3882260819,-48225.586,-63641.562,-15688.11,-6991.699,-14946.411,21125.326,13886.353,-9041.098
1395873.3922260776,-48242.88,-63658.57,-15700.114,-7005.8594,-14944.946,21107.137,13882.284,-9052.409
1395873.3962260734,-48248.863,-63653.77,-15702.393,-7006.592,-14938.518,21100.586,13884.848,-9047.485
1395873.4002260691,-48237.145,-63632.367,-15690.186,-6987.7524,-14936.6455,21114.34,13891.235,-9031.982
1395873.4042260651,-48225.953,-63624.105,-15678.996,-6977.7427,-14941.895,21127.645,13893.2705,-9027.873
1395873.408226061,-48232.625,-63644.29,-15682.821,-6986.45,-14948.12,21123.291,13891.724,-9034.587
1395873.4122260567,-48253.664,-63674.6,-15694.743,-7003.9062,-14950.847,21106.283,13890.341,-9045.166
1395873.4162260524,-48261.11,-63671.836,-15698.202,-7006.3477,-14944.296,21099.203,13890.219,-9043.864
1395873.4202260482,-48246.785,-63642.133,-15687.948,-6987.793,-14938.803,21112.834,13892.822,-9032.023
1395873.4242260442,-48234.62,-63639.04,-15679.525,-6975.464,-14942.831,21123.738,13894.287,-9026.408
1395873.42822604,-48242.35,-63660.973,-15682.414,-6981.6895,-14948.405,21116.252,13892.05,-9038.615
1395873.4322260357,-48260.785,-63680.87,-15694.54,-6997.2334,-14947.998,21099.488,13885.214,-9053.793
1395873.4362260315,-48260.945,-63676.883,-15695.109,-6998.3726,-14941.65,21091.96,13883.708,-9053.711
1395873.4402260275,-48246.83,-63651.98,-15683.228,-6977.987,-14938.3955,21105.307,13887.573,-9042.725
1395873.4442260233,-48239.91,-63645.793,-15676.107,-6967.9365,-14943.319,21119.426,13890.015,-9039.958
1395873.448226019,-48251.223,-63663.496,-15680.583,-6975.383,-14949.382,21118.693,13891.439,-9048.625
1395873.4522260148,-48265.83,-63681.48,-15692.871,-6993.327,-14947.144,21104.371,13890.707,-9060.019
1395873.4562260106,-48265.625,-63682.05,-15695.842,-6993.9375,-14945.557,21097.78,13889.526,-9057.577
1395873.4602260066,-48257.324,-63666.79,-15686.117,-6975.057,-14943.197,21110.88,13892.375,-9046.387
1395873.4642260023,-48252.523,-63658.57,-15677.734,-6965.698,-14943.767,21123.006,13897.38,-9040.976
1395873.468225998,-48258.75,-63669.11,-15682.495,-6976.278,-14951.213,21114.34,13892.66,-9053.589
1395873.4722259939,-48268.27,-63682.617,-15691.977,-6989.421,-14950.317,21096.395,13887.98,-9064.209
1395873.4762259899,-48275.84,-63682.742,-15694.54,-6988.4443,-14945.72,21091.105,13889.73,-9056.152
1395873.4802259856,-48268.395,-63662.805,-15684.57,-6973.348,-14944.702,21105.592,13893.393,-9040.894
1395873.4842259814,-48268.066,-63658.41,-15676.352,-6964.437,-14949.545,21117.473,13895.305,-9034.668
1395873.4882259772,-48274.336,-63676.35,-15677.816,-6970.6626,-14952.148,21112.996,13891.154,-9044.353
1395873.492225973,-48292.48,-63704.43,-15690.43,-6987.9966,-14957.153,21097.576,13888.103,-9053.142
1395873.496225969,-48307.863,-63709.758,-15693.848,-6990.8857,-14955.526,21093.465,13889.242,-9048.747
1395873.5002259647,-48292.074,-63676.965,-15682.251,-6970.378,-14948.405,21107.178,13891.398,-9038.574
1395873.5042259605,-48281.13,-63659.1,-15675.537,-6961.1816,-14949.097,21116.455,13891.032,-9034.709
1395873.5082259562,-48295.207,-63676.516,-15682.658,-6970.703,-14954.428,21109.62,13889.73,-9041.83
1395873.5122259522,-48315.145,-63694.38,-15693.522,-6984.8228,-14953.166,21093.303,13886.679,-9053.467
1395873.516225948,-48317.547,-63690.473,-15694.54,-6985.84,-14950.317,21087.078,13884.115,-9055.99
1395873.5202259438,-48297.16,-63665.203,-15679.973,-6966.39,-14947.673,21100.262,13884.888,-9049.438
1395873.5242259395,-48284.668,-63652.793,-15671.0205,-6953.4507,-14949.748,21110.027,13882.284,-9052.816
1395873.5282259353,-48295.574,-63674.684,-15675.456,-6962.3213,-14956.747,21103.271,13878.947,-9065.308
1395873.5322259313,-48316.0,-63702.56,-15687.582,-6982.2188,-14958.659,21085.857,13874.472,-9079.0205
1395873.536225927,-48313.4,-63706.668,-15688.599,-6981.9746,-14955.404,21079.834,13873.21,-9079.956
1395873.5402259228,-48298.586,-63686.363,-15679.159,-6965.007,-14953.288,21094.523,13876.994,-9072.348
1395873.5442259186,-48300.62,-63678.957,-15673.503,-6954.7935,-14956.34,21107.83,13883.139,-9072.0625
1395873.5482259146,-48307.863,-63697.188,-15677.328,-6965.373,-14962.851,21105.307,13883.301,-9079.712
1395873.5522259104,-48323.406,-63713.055,-15689.697,-6980.754,-14963.257,21089.64,13880.981,-9084.351
1395873.5562259061,-48328.168,-63706.91,-15693.686,-6981.527,-14958.862,21083.334,13880.656,-9077.148
1395873.560225902,-48315.39,-63688.76,-15680.786,-6963.135,-14954.672,21096.844,13886.841,-9057.821
1395873.564225898,-48310.305,-63683.35,-15672.974,-6951.05,-14955.526,21109.945,13892.538,-9046.184
1395873.5682258937,-48321.98,-63702.11,-15676.677,-6961.3853,-14963.949,21106.893,13892.131,-9049.154
1395873.5722258894,-48335.652,-63724.12,-15684.286,-6978.5156,-14967.123,21091.473,13890.503,-9055.868
1395873.5762258852,-48341.434,-63723.918,-15688.192,-6979.289,-14963.135,21084.229,13891.154,-9052.368
1395873.580225881,-48321.574,-63683.27,-15674.968,-6958.944,-14956.34,21095.662,13892.375,-9039.714
1395873.584225877,-48310.184,-63669.152,-15667.114,-6947.632,-14957.927,21107.625,13892.782,-9038.127
1395873.5882258727,-48329.957,-63699.992,-15674.4795,-6958.008,-14963.054,21103.475,13892.497,-9046.997
1395873.5922258685,-48354.047,-63724.652,-15688.07,-6977.458,-14963.827,21086.385,13888.347,-9055.339
1395873.5962258643,-48351.605,-63717.082,-15688.151,-6975.057,-14957.886,21080.201,13885.417,-9056.519
1395873.6002258603,-48327.68,-63690.51,-15672.038,-6955.4854,-14954.834,21094.32,13890.178,-9048.137
1395873.604225856,-48315.31,-63683.15,-15662.191,-6945.964,-14957.683,21104.371,13891.968,-9042.929
1395873.6082258518,-48332.97,-63707.074,-15672.079,-6957.479,-14962.932,21098.592,13887.695,-9058.391
1395873.6122258476,-48357.992,-63731.406,-15684.978,-6973.9585,-14966.472,21083.416,13884.766,-9071.371
1395873.6162258433,-48364.625,-63733.848,-15689.128,-6975.871,-14963.949,21076.62,13884.115,-9072.47
1395873.6202258393,-48344.402,-63714.438,-15676.514,-6958.9844,-14961.223,21091.35,13889.16,-9060.913
1395873.624225835,-48336.754,-63706.91,-15667.358,-6946.4927,-14962.077,21103.027,13893.799,-9054.443
1395873.6282258308,-48347.82,-63719.523,-15670.329,-6952.6777,-14963.745,21098.553,13891.357,-9062.948
1395873.6322258266,-48363.934,-63729.902,-15682.943,-6971.802,-14965.739,21080.77,13885.173,-9075.725
1395873.6362258226,-48373.863,-63730.55,-15689.006,-6974.935,-14965.251,21075.277,13883.22,-9078.044
1395873.6402258184,-48363.73,-63717.164,-15679.403,-6958.659,-14962.443,21088.908,13886.557,-9067.302
1395873.6442258141,-48352.742,-63715.375,-15671.875,-6948.4053,-14967.245,21097.941,13886.271,-9063.965
1395873.64822581,-48367.758,-63731.812,-15676.352,-6957.1533,-14973.552,21092.773,13884.929,-9070.801
1395873.6522258057,-48385.664,-63751.875,-15688.192,-6971.802,-14974.325,21076.863,13881.999,-9079.428
1395873.6562258017,-48387.98,-63755.86,-15691.569,-6971.965,-14972.412,21070.271,13879.68,-9073.446
1395873.6602257974,-48375.9,-63737.145,-15681.519,-6955.6885,-14978.923,21084.393,13879.477,-9058.554
1395873.6642257932,-48374.434,-63727.54,-15673.584,-6944.824,-14996.989,21095.541,13875.0,-9058.065
1395873.668225789,-48391.277,-63742.758,-15678.549,-6951.05,-15002.6045,21090.74,13867.147,-9069.702
1395873.672225785,-48407.35,-63764.69,-15688.437,-6966.6343,-15000.163,21072.145,13860.8,-9076.782
1395873.6762257807,-48405.723,-63756.96,-15688.518,-6965.78,-14993.124,21064.617,13859.497,-9071.33
1395873.6802257765,-48395.145,-63739.465,-15680.868,-6948.7305,-14990.805,21078.045,13861.288,-9056.03
1395873.6842257723,-48391.48,-63731.57,-15675.009,-6938.1514,-14992.717,21089.193,13860.881,-9053.508
1395873.6882257683,-48404.34,-63748.66,-15678.955,-6945.4346,-14995.728,21083.455,13856.649,-9065.512
1395873.692225764,-48411.215,-63772.746,-15688.029,-6961.833,-14994.995,21066.447,13851.522,-9075.847
1395873.6962257598,-48408.938,-63771.08,-15688.762,-6962.6465,-14990.52,21057.21,13847.697,-9073.73
1395873.7002257556,-48397.625,-63749.758,-15676.27,-6945.2314,-14988.892,21071.29,13850.464,-9060.71
1395873.7042257513,-48387.25,-63735.84,-15668.091,-6931.844,-14990.927,21082.723,13852.214,-9060.141
1395873.7082257473,-48388.594,-63738.28,-15672.282,-6938.558,-14994.141,21076.66,13846.599,-9074.626
1395873.712225743,-48402.06,-63758.996,-15682.902,-6954.3457,-14995.6875,21060.1,13840.373,-9089.315
1395873.7162257389,-48409.383,-63762.902,-15685.466,-6956.6245,-14993.286,21053.793,13841.35,-9085.409
1395873.7202257346,-48393.434,-63739.586,-15677.775,-6940.3486,-14997.274,21068.441,13848.186,-9067.912
1395873.7242257306,-48382.812,-63730.023,-15672.648,-6930.42,-15005.453,21082.684,13852.865,-9060.344
1395873.7282257264,-48396.406,-63739.79,-15680.298,-6938.6396,-15009.399,21080.607,13851.44,-9067.871
1395873.7322257222,-48421.47,-63762.695,-15692.668,-6956.34,-15010.051,21065.918,13850.058,-9074.626
1395873.736225718,-48419.23,-63760.703,-15691.569,-6959.1064,-15008.179,21058.432,13852.295,-9067.221
1395873.7402257137,-48391.36,-63732.992,-15676.84,-6942.0166,-15006.104,21072.592,13856.853,-9048.218
1395873.7442257097,-48377.035,-63720.582,-15667.074,-6929.199,-15007.731,21085.857,13859.782,-9037.191
1395873.7482257055,-48385.133,-63727.62,-15675.131,-6936.198,-15010.783,21078.736,13852.661,-9046.713
1395873.7522257012,-48400.96,-63738.65,-15687.907,-6950.2363,-15009.44,21062.459,13846.273,-9058.513
1395873.756225697,-48401.29,-63728.723,-15691.081,-6951.9453,-15005.656,21056.234,13845.744,-9054.606
1395873.760225693,-48382.855,-63701.582,-15683.92,-6936.3203,-15001.587,21069.174,13848.918,-9040.854
1395873.7642256888,-48372.316,-63687.01,-15678.549,-6926.4326,-15005.127,21082.195,13849.365,-9041.504
1395873.7682256845,-48376.547,-63701.297,-15683.228,-6931.0713,-15004.599,21081.951,13850.058,-9049.072
1395873.7722256803,-48398.926,-63724.45,-15697.714,-6947.0625,-15005.656,21066.936,13850.546,-9057.048
1395873.776225676,-48402.508,-63718.71,-15699.911,-6947.795,-15000.041,21060.385,13850.668,-9059.57
1395873.780225672,-48375.734,-63690.066,-15684.367,-6929.5654,-14993.571,21072.55,13854.086,-9047.852
1395873.7842256678,-48363.895,-63684.938,-15678.549,-6921.997,-14997.722,21080.975,13854.94,-9049.968
1395873.7882256636,-48375.613,-63693.523,-15682.983,-6930.298,-15000.651,21076.945,13851.278,-9062.826
1395873.7922256594,-48385.785,-63699.79,-15689.535,-6942.627,-14993.774,21063.314,13847.575,-9074.382
1395873.7962256554,-48388.918,-63700.035,-15692.993,-6943.5225,-14988.159,21056.031,13845.459,-9072.917
1395873.8002256511,-48378.746,-63682.617,-15686.85,-6927.368,-14986.491,21068.318,13847.006,-9057.333
1395873.804225647,-48373.984,-63681.52,-15680.298,-6916.1787,-14989.177,21079.834,13846.965,-9052.694
1395873.8082256427,-48381.023,-63698.49,-15683.269,-6926.229,-14991.049,21074.383,13840.129,-9065.715
1395873.8122256384,-48395.633,-63720.176,-15695.231,-6942.993,-14989.746,21055.867,13834.758,-9076.986
1395873.8162256344,-48394.004,-63715.332,-15697.795,-6943.3594,-14982.748,21051.19,13835.856,-9072.51
1395873.8202256302,-48375.45,-63682.414,-15688.314,-6924.6826,-14978.027,21064.82,13844.727,-9049.5205
1395873.824225626,-48362.918,-63670.94,-15680.298,-6913.2896,-14980.551,21079.06,13852.173,-9038.33
1395873.8282256217,-48368.98,-63682.008,-15681.4375,-6920.6543,-14984.091,21077.719,13855.388,-9037.15
1395873.8322256177,-48379.355,-63693.2,-15690.39,-6933.431,-14982.056,21060.67,13853.76,-9041.301
1395873.8362256135,-48378.664,-63681.234,-15693.034,-6933.1055,-14974.081,21051.596,13853.964,-9034.668
1395873.8402256093,-48361.086,-63656.78,-15683.35,-6917.7656,-14970.541,21065.47,13856.812,-9022.421
1395873.844225605,-48359.703,-63648.766,-15679.525,-6909.8716,-14973.145,21080.69,13857.829,-9020.752
1395873.848225601,-48373.047,-63665.61,-15685.791,-6917.033,-14976.97,21079.184,13852.458,-9036.255
1395873.8522255968,-48393.477,-63685.266,-15700.114,-6935.018,-14976.767,21061.688,13844.36,-9057.251
1395873.8562255925,-48396.363,-63675.99,-15702.922,-6940.9995,-14973.022,21056.682,13842.001,-9061.401
1395873.8602255883,-48372.76,-63644.453,-15690.796,-6927.043,-14969.401,21069.459,13845.825,-9050.049
1395873.864225584,-48356.977,-63633.914,-15681.56,-6917.3994,-14970.907,21081.463,13849.65,-9048.34
1395873.86822558,-48367.676,-63654.137,-15687.338,-6927.4497,-14975.139,21080.16,13853.271,-9051.921
1395873.8722255758,-48387.25,-63668.176,-15698.08,-6944.377,-14970.175,21065.838,13855.103,-9057.414
1395873.8762255716,-48385.176,-63661.746,-15696.574,-6944.4175,-14959.106,21061.605,13856.934,-9053.589
1395873.8802255674,-48370.04,-63639.69,-15685.71,-6928.955,-14958.252,21072.713,13859.823,-9036.703
1395873.8842255634,-48355.715,-63624.31,-15674.398,-6916.748,-14961.914,21085.125,13859.294,-9033.813
1395873.8882255591,-48366.54,-63638.184,-15678.874,-6922.8926,-14968.791,21081.951,13852.133,-9046.306
1395873.892225555,-48387.695,-63662.438,-15693.441,-6941.488,-14968.791,21062.744,13843.506,-9061.239
1395873.8962255507,-48389.977,-63666.586,-15698.894,-6943.4004,-14960.979,21055.258,13841.594,-9058.635
1395873.9002255464,-48379.11,-63645.754,-15688.64,-6926.9614,-14957.764,21069.418,13847.372,-9039.307
1395873.9042255424,-48370.934,-63635.664,-15678.915,-6916.0156,-14960.734,21083.74,13852.58,-9028.931
1395873.9082255382,-48382.082,-63640.87,-15685.995,-6923.9097,-14967.407,21079.63,13854.086,-9031.047
1395873.912225534,-48402.02,-63653.242,-15697.958,-6940.3076,-14963.949,21064.656,13851.237,-9039.429
1395873.9162255297,-48405.805,-63651.164,-15703.695,-6941.3657,-14958.049,21059.734,13850.261,-9036.703
1395873.9202255257,-48390.75,-63643.11,-15694.052,-6925.3745,-14957.072,21071.9,13851.034,-9024.658
1395873.9242255215,-48387.207,-63647.258,-15686.89,-6915.5684,-14960.815,21083.74,13850.79,-9024.536
1395873.9282255173,-48396.895,-63659.344,-15694.336,-6923.0146,-14964.355,21078.98,13849.65,-9031.698
1395873.932225513,-48412.844,-63667.074,-15705.526,-6939.7383,-14960.897,21063.396,13844.809,-9048.3
1395873.9362255088,-48418.62,-63664.715,-15709.595,-6942.668,-14958.781,21056.967,13843.059,-9050.537
1395873.9402255048,-48406.13,-63640.707,-15697.836,-6927.6123,-14960.083,21068.36,13845.663,-9038.005
1395873.9442255006,-48396.77,-63627.77,-15686.32,-6916.26,-14957.724,21077.596,13845.053,-9038.859
1395873.9482254963,-48401.207,-63634.277,-15690.186,-6919.5557,-14958.252,21071.9,13843.75,-9046.631
1395873.952225492,-48415.285,-63651.816,-15702.597,-6937.0117,-14960.124,21054.688,13838.217,-9057.983
1395873.956225488,-48413.902,-63651.652,-15702.8,-6937.622,-14956.177,21048.422,13836.386,-9059.204
1395873.9602254839,-48396.484,-63629.926,-15689.331,-6921.224,-14953.125,21064.006,13839.966,-9049.968
1395873.9642254796,-48390.137,-63616.496,-15684.733,-6913.005,-14953.288,21077.516,13839.844,-9051.188
1395873.9682254754,-48401.816,-63627.08,-15692.749,-6921.753,-14960.165,21074.83,13837.81,-9065.715
1395873.9722254712,-48420.168,-63651.41,-15703.654,-6937.541,-14961.508,21060.914,13835.409,-9073.853
1395873.9762254672,-48422.12,-63650.15,-15707.113,-6938.6396,-14957.235,21054.646,13834.188,-9067.871
1395873.980225463,-48397.22,-63619.63,-15694.824,-6918.7827,-14953.085,21067.668,13838.949,-9050.741
1395873.9842254587,-48392.5,-63617.516,-15689.575,-6909.139,-14954.794,21077.963,13842.448,-9040.771
1395873.9882254545,-48409.18,-63646.61,-15697.021,-6919.2305,-14961.792,21073.242,13841.757,-9040.039
1395873.9922254505,-48422.324,-63662.395,-15703.735,-6933.5938,-14959.27,21058.473,13840.251,-9042.318
1395873.9962254462,-48420.695,-63652.387,-15703.288,-6933.9194,-14952.353,21050.781,13837.443,-9037.639
1395874.000225442,-48403.28,-63630.13,-15689.779,-6915.5684,-14951.05,21064.617,13840.983,-9022.095
1395874.0042254378,-48395.305,-63626.67,-15681.274,-6905.721,-14952.841,21077.516,13844.116,-9020.061
1395874.0082254338,-48405.234,-63642.742,-15685.263,-6913.574,-14956.787,21074.79,13843.588,-9025.839
1395874.0122254295,-48420.695,-63658.203,-15697.0625,-6929.077,-14957.642,21055.135,13838.339,-9035.075
1395874.0162254253,-48421.918,-63651.086,-15700.155,-6931.3154,-14952.556,21046.916,13835.979,-9037.842
1395874.020225421,-48414.836,-63626.67,-15694.336,-6915.6904,-14954.387,21061.158,13837.6875,-9031.82
1395874.0242254168,-48416.79,-63628.094,-15692.383,-6905.8027,-14961.426,21076.416,13839.56,-9036.987
1395874.0282254128,-48434.57,-63648.562,-15701.01,-6917.9688,-14971.802,21073.65,13839.193,-9049.276
1395874.0322254086,-48446.94,-63667.402,-15710.205,-6934.245,-14970.581,21059.611,13835.246,-9062.582
1395874.0362254044,-48445.395,-63664.39,-15708.7,-6933.6753,-14966.064,21052.531,13836.63,-9061.564
1395874.0402254001,-48430.95,-63640.504,-15694.702,-6914.551,-14963.664,21065.594,13839.844,-9051.107
1395874.0442253961,-48424.48,-63633.18,-15685.629,-6903.0356,-14966.797,21077.84,13844.198,-9050.456
1395874.048225392,-48434.043,-63641.195,-15690.756,-6912.883,-14970.337,21075.154,13843.222,-9064.494
1395874.0522253877,-48451.785,-63663.496,-15702.475,-6929.199,-14971.3545,21059.693,13840.454,-9073.935
1395874.0562253834,-48457.97,-63666.098,-15704.834,-6931.3154,-14967.57,21052.328,13839.152,-9072.876
1395874.0602253792,-48443.973,-63645.47,-15692.302,-6912.3535,-14960.124,21067.668,13845.907,-9054.647
1395874.0642253752,-48428.754,-63628.582,-15683.269,-6900.7163,-14962.729,21078.654,13845.703,-9044.149
1395874.068225371,-48431.97,-63624.92,-15687.338,-6906.169,-14967.57,21073.975,13843.669,-9048.015
1395874.0722253667,-48448.61,-63644.33,-15699.423,-6922.7705,-14965.82,21059.49,13842.489,-9050.741
1395874.0762253625,-48449.547,-63645.062,-15703.369,-6924.3164,-14958.252,21056.234,13846.762,-9041.464
1395874.0802253585,-48439.58,-63628.746,-15694.662,-6910.4414,-14956.015,21071.004,13854.696,-9019.735
1395874.0842253543,-48436.77,-63631.758,-15688.07,-6900.2686,-14961.101,21082.928,13857.26,-9008.749
1395874.08822535,-48445.19,-63645.836,-15688.232,-6906.006,-14964.56,21078.777,13854.411,-9016.5205
1395874.0922253458,-48454.145,-63650.598,-15694.743,-6920.044,-14960.979,21061.85,13851.278,-9026.286
1395874.0962253415,-48448.773,-63641.523,-15694.133,-6916.0566,-14955.526,21052.979,13848.999,-9023.926
1395874.1002253375,-48434.207,-63621.055,-15684.448,-6898.8447,-14955.811,21063.803,13848.511,-9015.991
1395874.1042253333,-48428.71,-63618.574,-15679.199,-6890.788,-14958.984,21075.236,13847.087,-9017.294
1395874.108225329,-48442.26,-63637.13,-15686.117,-6901.286,-14964.396,21071.33,13843.344,-9031.128
1395874.1122253248,-48464.52,-63661.785,-15699.097,-6919.027,-14965.088,21056.234,13840.902,-9048.096
1395874.1162253208,-48466.96,-63663.574,-15701.498,-6920.329,-14961.345,21047.73,13840.17,-9049.316
1395874.1202253166,-48445.273,-63640.91,-15689.616,-6901.5303,-14955.404,21060.262,13843.344,-9039.551
1395874.1242253124,-48434.53,-63626.75,-15682.048,-6889.282,-14958.7,21071.533,13844.36,-9041.545
1395874.1282253081,-48448.57,-63643.23,-15689.047,-6898.4375,-14968.425,21066.406,13843.262,-9054.118
1395874.1322253041,-48464.07,-63665.082,-15700.888,-6915.283,-14968.14,21049.44,13840.088,-9065.959
1395874.1362253,-48473.797,-63660.566,-15702.189,-6917.9688,-14964.152,21043.092,13838.095,-9061.728
1395874.1402252957,-48465.58,-63639.69,-15690.837,-6902.385,-14963.257,21056.6,13840.495,-9048.747
1395874.1442252914,-48455.16,-63628.34,-15683.554,-6890.8286,-14966.472,21068.36,13843.75,-9041.708
1395874.1482252872,-48458.09,-63639.934,-15685.507,-6896.1997,-14972.982,21064.373,13839.844,-9055.339
1395874.1522252832,-48476.605,-63667.688,-15697.0625,-6912.313,-14975.22,21045.654,13831.909,-9070.964
1395874.156225279,-48479.98,-63669.11,-15698.73,-6912.4756,-14967.773,21039.592,13832.846,-9066.813
1395874.1602252747,-48459.758,-63641.727,-15689.006,-6894.8975,-14965.617,21053.02,13837.28,-9051.27
1395874.1642252705,-48450.074,-63637.902,-15684.164,-6884.1553,-14968.71,21066.936,13839.966,-9044.027
1395874.1682252665,-48464.438,-63659.06,-15692.546,-6893.3516,-14975.22,21064.006,13839.478,-9049.113
1395874.1722252623,-48479.25,-63674.727,-15702.23,-6911.133,-14974.528,21046.59,13835.897,-9058.024
1395874.176225258,-48475.14,-63666.223,-15700.766,-6909.465,-14967.529,21039.592,13837.851,-9049.357
1395874.1802252538,-48463.543,-63650.598,-15690.268,-6893.4736,-14967.529,21051.229,13843.344,-9029.989
1395874.1842252496,-48463.625,-63640.707,-15682.699,-6883.586,-14972.006,21063.07,13846.68,-9022.461
1395874.1882252456,-48469.28,-63650.676,-15684.774,-6894.4907,-14976.889,21059.734,13841.064,-9034.424
1395874.1922252413,-48489.055,-63669.273,-15698.405,-6909.6274,-14977.255,21044.922,13833.578,-9051.758
1395874.196225237,-48487.305,-63653.402,-15699.097,-6909.831,-14969.482,21037.354,13832.113,-9049.5205
1395874.2002252329,-48469.117,-63629.52,-15688.477,-6893.718,-14967.733,21050.213,13836.914,-9034.18
1395874.2042252289,-48464.844,-63634.81,-15682.821,-6885.254,-14971.843,21063.762,13841.96,-9026.042
1395874.2082252246,-48473.348,-63655.03,-15686.076,-6889.4453,-14974.203,21058.594,13840.17,-9034.587
1395874.2122252204,-48491.58,-63678.387,-15698.161,-6903.9717,-14976.034,21041.26,13835.287,-9044.882
1395874.2162252162,-48493.816,-63670.94,-15699.016,-6903.076,-14970.459,21035.197,13833.984,-9041.179
1395874.220225212,-48478.438,-63647.83,-15686.931,-6886.2715,-14965.454,21047.69,13836.304,-9029.013
1395874.224225208,-48468.75,-63637.94,-15678.671,-6874.9595,-14966.675,21060.303,13835.49,-9035.278
1395874.2282252037,-48483.24,-63661.133,-15684.937,-6885.051,-14972.209,21056.64,13832.846,-9047.812
1395874.2322251995,-48500.613,-63689.21,-15695.842,-6899.8213,-14970.988,21039.021,13828.451,-9062.785
1395874.2362251952,-48494.387,-63685.875,-15695.068,-6899.984,-14965.373,21031.738,13828.369,-9061.605
1395874.2402251912,-48479.168,-63661.664,-15683.879,-6882.5684,-14964.682,21044.475,13833.456,-9051.392
1395874.244225187,-48470.297,-63648.36,-15676.962,-6870.4834,-14967.814,21057.332,13836.02,-9048.625
1395874.2482251828,-48486.004,-63666.426,-15680.298,-6877.8076,-14974.325,21054.443,13835.165,-9058.676
1395874.2522251785,-48505.74,-63698.367,-15690.512,-6895.427,-14978.394,21039.348,13833.496,-9067.587
1395874.2562251743,-48511.76,-63705.0,-15693.441,-6897.5425,-14976.44,21032.35,13833.822,-9066.65
1395874.2602251703,-48493.777,-63676.637,-15679.77,-6877.3193,-14972.372,21044.557,13836.101,-9054.6875
1395874.264225166,-48484.703,-63662.273,-15671.184,-6865.194,-14972.29,21054.77,13835.571,-9052.043
1395874.2682251618,-48498.863,-63684.246,-15678.183,-6872.7217,-14979.614,21048.828,13830.485,-9064.453
1395874.2722251576,-48522.625,-63703.207,-15690.552,-6889.73,-14980.632,21032.268,13826.213,-9074.789
1395874.2762251536,-48524.742,-63693.93,-15691.081,-6888.3057,-14972.412,21026.123,13827.881,-9068.156
1395874.2802251494,-48510.094,-63670.695,-15681.804,-6873.983,-14971.884,21038.656,13831.869,-9050.985
1395874.2842251451,-48501.508,-63667.81,-15675.903,-6862.468,-14978.72,21051.555,13834.636,-9043.864
1395874.288225141,-48505.13,-63688.844,-15677.246,-6869.2627,-14985.596,21046.875,13832.397,-9053.386
1395874.292225137,-48520.387,-63714.03,-15687.094,-6886.4746,-14983.969,21029.908,13827.922,-9066.691
1395874.2962251327,-48518.8,-63704.266,-15687.826,-6887.004,-14976.685,21024.7,13825.725,-9066.8545
1395874.3002251284,-48506.758,-63680.664,-15676.636,-6869.5884,-14975.464,21036.785,13825.114,-9057.658
1395874.3042251242,-48504.76,-63671.55,-15671.794,-6860.9214,-14979.818,21050.375,13824.423,-9058.798
1395874.30822512,-48515.06,-63684.367,-15678.589,-6868.5303,-14982.341,21046.916,13821.899,-9067.993
1395874.312225116,-48531.66,-63703.37,-15689.657,-6885.62,-14982.463,21031.332,13819.255,-9078.207
1395874.3162251117,-48533.285,-63697.797,-15690.39,-6885.62,-14975.952,21024.902,13821.045,-9073.649
1395874.3202251075,-48512.41,-63676.8,-15678.061,-6867.1064,-14973.145,21038.738,13827.434,-9060.588
1395874.3242251032,-48508.18,-63672.57,-15671.672,-6857.341,-14977.499,21050.701,13828.939,-9056.682
1395874.3282250992,-48523.03,-63691.082,-15675.293,-6863.6885,-14983.887,21046.346,13827.678,-9066.813
1395874.332225095,-48540.812,-63717.613,-15684.448,-6878.662,-14985.515,21031.453,13824.138,-9081.096
1395874.3362250908,-48538.617,-63706.91,-15685.344,-6878.3774,-14979.98,21025.432,13822.0625,-9080.7705
1395874.3402250865,-48519.94,-63677.043,-15674.194,-6860.433,-14976.97,21037.191,13824.87,-9066.284
1395874.3442250823,-48512.453,-63672.65,-15668.091,-6851.3594,-14982.666,21049.52,13827.963,-9060.669
1395874.3482250783,-48525.516,-63689.332,-15674.113,-6862.834,-14988.078,21048.422,13826.782,-9072.185
1395874.352225074,-48541.953,-63706.34,-15684.367,-6877.9297,-14984.416,21034.465,13825.725,-9077.434
1395874.3562250698,-48541.75,-63701.38,-15686.931,-6876.994,-14976.767,21026.855,13825.358,-9073.771
1395874.3602250656,-48534.996,-63690.758,-15679.159,-6862.0605,-14977.743,21038.574,13829.102,-9057.536
1395874.3642250616,-48531.617,-63693.727,-15670.451,-6850.952,-14983.276,21051.393,13834.147,-9046.916
1395874.3682250574,-48529.42,-63705.08,-15671.469,-6855.754,-14986.857,21045.777,13831.299,-9052.368
1395874.3722250531,-48534.996,-63719.523,-15680.461,-6871.501,-14985.962,21029.012,13824.667,-9062.988
1395874.376225049,-48543.5,-63721.805,-15682.007,-6872.396,-14982.788,21021.893,13822.754,-9058.065
1395874.3802250447,-48536.418,-63707.113,-15674.113,-6855.0215,-14982.626,21036.215,13826.254,-9041.626
1395874.3842250407,-48528.605,-63701.297,-15667.847,-6845.134,-14987.834,21051.473,13828.085,-9037.028
1395874.3882250364,-48534.383,-63715.54,-15669.597,-6850.749,-14991.211,21048.299,13825.114,-9050.537
1395874.3922250322,-48552.98,-63737.754,-15682.455,-6866.5366,-14989.421,21033.814,13823.894,-9061.768
1395874.396225028,-48564.656,-63745.85,-15688.437,-6870.7275,-14983.195,21027.14,13826.498,-9056.967
1395874.400225024,-48550.293,-63733.277,-15677.979,-6854.7363,-14983.725,21038.697,13831.95,-9040.976
1395874.4042250197,-48539.188,-63722.332,-15668.905,-6844.035,-14986.857,21048.625,13834.921,-9037.72
1395874.4082250155,-48542.32,-63728.07,-15673.381,-6849.243,-14990.479,21045.574,13833.537,-9048.95
1395874.4122250113,-48556.926,-63744.1,-15685.913,-6863.8105,-14990.561,21028.768,13829.55,-9058.513
1395874.4162250073,-48559.41,-63739.383,-15686.401,-6863.159,-14983.806,21022.38,13830.7295,-9055.339
1395874.420225003,-48549.316,-63727.05,-15676.107,-6848.348,-14981.934,21035.523,13835.897,-9039.999
1395874.4242249988,-48545.086,-63726.156,-15669.963,-6838.5825,-14985.434,21049.154,13835.571,-9038.615
1395874.4282249946,-48553.348,-63739.91,-15674.724,-6845.866,-14992.636,21045.045,13832.153,-9050.049
1395874.4322249903,-48567.832,-63762.004,-15685.385,-6861.6943,-14995.565,21028.117,13828.9795,-9058.31
1395874.4362249863,-48570.395,-63757.938,-15686.32,-6860.433,-14988.7295,21022.625,13828.9795,-9054.81
1395874.440224982,-48553.875,-63730.51,-15677.043,-6842.163,-14984.579,21034.262,13831.584,-9040.8125
1395874.4442249779,-48546.1,-63712.89,-15671.428,-6831.014,-14983.725,21045.166,13832.683,-9038.127
1395874.4482249736,-48558.72,-63726.645,-15678.467,-6837.3213,-14989.462,21043.54,13829.834,-9047.241
1395874.4522249696,-48583.133,-63758.832,-15691.691,-6855.3467,-14994.223,21028.85,13829.265,-9052.897
1395874.4562249654,-48585.086,-63760.254,-15691.122,-6854.8994,-14991.455,21025.229,13831.137,-9047.201
1395874.4602249612,-48568.81,-63733.523,-15679.159,-6839.0303,-14984.131,21040.203,13835.775,-9034.587
1395874.464224957,-48564.617,-63725.344,-15673.91,-6827.1895,-14987.875,21050.496,13836.02,-9032.349
1395874.4682249527,-48575.523,-63746.746,-15681.804,-6834.839,-14992.351,21045.29,13832.072,-9041.382
1395874.4722249487,-48592.0,-63775.516,-15694.865,-6851.0337,-14993.164,21029.176,13828.369,-9050.009
1395874.4762249445,-48598.555,-63772.83,-15696.371,-6851.888,-14993.205,21022.217,13827.719,-9049.357
1395874.4802249402,-48587.242,-63742.312,-15684.814,-6836.2227,-14990.316,21034.912,13828.613,-9040.446
1395874.484224936,-48587.73,-63735.84,-15679.729,-6827.8403,-14993.734,21046.102,13828.817,-9040.609
1395874.488224932,-48599.324,-63747.926,-15685.71,-6834.6763,-15000.407,21041.627,13825.236,-9053.63
1395874.4922249278,-48613.934,-63765.137,-15697.266,-6851.0337,-15000.122,21026.938,13822.754,-9062.785
1395874.4962249235,-48617.23,-63772.586,-15697.104,-6854.2075,-14995.85,21022.176,13824.26,-9060.588
1395874.5002249193,-48601.93,-63748.496,-15685.303,-6836.589,-14993.408,21033.082,13828.451,-9050.578
1395874.504224915,-48591.473,-63738.28,-15677.979,-6823.6084,-14994.67,21043.092,13829.997,-9044.638
1395874.508224911,-48598.31,-63751.06,-15680.502,-6830.3223,-14998.617,21039.836,13828.166,-9051.474
1395874.5122249068,-48610.027,-63773.36,-15690.796,-6846.802,-15000.977,21024.129,13822.388,-9063.884
1395874.5162249026,-48613.65,-63777.47,-15694.092,-6848.8364,-14995.972,21015.38,13821.127,-9066.8545
1395874.5202248984,-48595.34,-63755.94,-15682.617,-6830.9736,-14989.909,21028.85,13826.701,-9054.851
1395874.5242248944,-48594.117,-63757.895,-15676.311,-6822.8354,-14994.873,21041.871,13829.631,-9049.887
1395874.5282248901,-48612.145,-63782.066,-15681.396,-6829.1016,-15002.401,21038.086,13829.346,-9051.2295
1395874.532224886,-48627.08,-63794.76,-15690.878,-6843.099,-15001.913,21022.42,13826.05,-9058.513
1395874.5362248817,-48623.902,-63782.35,-15690.552,-6843.425,-14996.054,21015.584,13824.911,-9053.996
1395874.5402248774,-48609.945,-63752.85,-15676.921,-6825.399,-14992.758,21029.95,13826.986,-9039.0625
1395874.5442248734,-48604.82,-63747.195,-15669.434,-6812.8257,-14993.368,21042.604,13828.573,-9036.011
1395874.5482248692,-48615.48,-63758.426,-15673.178,-6820.3125,-14998.21,21038.941,13827.026,-9043.539
1395874.552224865,-48639.812,-63780.844,-15686.605,-6838.9487,-15004.232,21021.893,13823.69,-9053.915
1395874.5562248607,-48648.64,-63789.797,-15690.837,-6842.204,-15003.622,21015.137,13822.876,-9054.851
1395874.5602248567,-48626.465,-63769.816,-15683.1875,-6827.474,-15001.099,21027.873,13824.382,-9046.265
1395874.5642248525,-48606.73,-63754.355,-15673.828,-6814.4126,-15002.075,21042.684,13827.678,-9040.976
1395874.5682248482,-48610.23,-63761.273,-15676.474,-6820.7603,-15003.703,21040.406,13827.353,-9050.293
1395874.572224844,-48628.5,-63771.61,-15686.401,-6835.8154,-14999.96,21027.303,13825.847,-9057.617
1395874.57622484,-48627.484,-63762.086,-15688.314,-6838.298,-14996.826,21019.654,13826.538,-9051.677
1395874.5802248358,-48610.395,-63738.324,-15679.6875,-6822.103,-14995.81,21031.82,13829.306,-9041.83
1395874.5842248315,-48606.73,-63732.992,-15674.398,-6810.832,-14998.413,21043.865,13831.421,-9037.68
1395874.5882248273,-48617.88,-63748.293,-15680.42,-6818.0747,-15001.221,21038.615,13828.491,-9047.893
1395874.592224823,-48627.156,-63750.773,-15691.977,-6834.717,-14995.81,21022.38,13823.283,-9060.751
1395874.596224819,-48617.72,-63735.027,-15693.034,-6833.9033,-14986.694,21017.822,13824.097,-9056.723
1395874.6002248148,-48603.72,-63715.254,-15681.682,-6816.488,-14982.951,21033.773,13828.857,-9039.795
1395874.6042248106,-48599.45,-63705.285,-15676.147,-6807.943,-14986.735,21045.086,13829.59,-9036.703
1395874.6082248064,-48611.207,-63720.83,-15683.432,-6816.284,-14991.781,21039.836,13827.637,-9047.445
1395874.6122248024,-48629.395,-63741.742,-15694.865,-6831.665,-14992.554,21024.049,13824.707,-9054.932
1395874.6162247981,-48635.945,-63734.62,-15699.423,-6834.188,-14987.265,21017.781,13823.161,-9052.694
1395874.620224794,-48617.637,-63696.86,-15691.284,-6817.383,-14983.154,21029.826,13826.132,-9037.964
1395874.6242247897,-48604.777,-63683.555,-15683.554,-6805.1353,-14982.788,21040.324,13826.945,-9032.553
1395874.6282247854,-48615.195,-63702.598,-15688.518,-6812.9478,-14986.41,21036.703,13824.992,-9039.592
1395874.6322247814,-48631.758,-63727.133,-15698.446,-6829.061,-14987.346,21021.16,13822.592,-9049.235
1395874.6362247772,-48640.34,-63724.652,-15699.667,-6831.299,-14981.364,21016.766,13822.998,-9045.044
1395874.640224773,-48624.35,-63697.43,-15688.681,-6817.22,-14977.946,21029.053,13828.654,-9028.809
1395874.6442247687,-48612.836,-63683.35,-15678.711,-6803.874,-14979.086,21039.307,13831.421,-9029.46
1395874.6482247647,-48618.816,-63688.6,-15681.193,-6807.2104,-14982.341,21036.662,13829.794,-9042.074
1395874.6522247605,-48635.094,-63708.09,-15694.336,-6822.9575,-14981.486,21021.322,13825.195,-9054.118
1395874.6562247563,-48642.17,-63714.234,-15696.493,-6826.66,-14975.586,21016.357,13826.457,-9048.178
1395874.660224752,-48626.832,-63692.914,-15684.367,-6809.326,-14966.919,21029.338,13829.672,-9036.621
1395874.6642247478,-48616.7,-63674.766,-15677.45,-6797.8516,-14966.635,21039.592,13828.085,-9035.278
1395874.6682247438,-48634.97,-63690.227,-15682.211,-6803.752,-14974.447,21035.686,13827.148,-9042.44
1395874.6722247396,-48651.9,-63709.066,-15692.343,-6819.336,-14974.813,21021.648,13824.463,-9053.264
1395874.6762247353,-48645.59,-63697.062,-15692.424,-6820.3125,-14966.105,21016.033,13820.068,-9058.391
1395874.680224731,-48627.973,-63679.08,-15683.554,-6803.6704,-14961.833,21027.02,13818.93,-9049.927
1395874.684224727,-48618.855,-63674.97,-15677.084,-6793.5386,-14963.42,21039.633,13819.133,-9047.241
1395874.6882247229,-48630.37,-63691.367,-15682.251,-6802.9785,-14968.913,21034.912,13816.732,-9056.763
1395874.6922247186,-48647.625,-63716.797,-15694.743,-6819.092,-14970.663,21019.613,13817.749,-9062.988
1395874.6962247144,-48642.215,-63713.42,-15695.476,-6818.441,-14964.355,21014.568,13819.336,-9056.804
1395874.7002247104,-48622.113,-63686.402,-15683.838,-6802.7344,-14960.368,21025.27,13819.702,-9042.358
1395874.7042247062,-48615.805,-63668.867,-15677.246,-6791.992,-14959.555,21035.28,13818.848,-9036.499
1395874.708224702,-48622.64,-63673.26,-15682.007,-6797.4043,-14961.548,21031.941,13818.278,-9042.644
1395874.7122246977,-48641.195,-63687.91,-15694.052,-6816.162,-14962.24,21015.91,13812.826,-9051.066
1395874.7162246935,-48644.043,-63684.816,-15696.615,-6816.6504,-14956.625,21009.48,13813.762,-9044.475
1395874.7202246895,-48626.668,-63661.906,-15687.582,-6798.869,-14952.841,21021.2,13817.465,-9030.681
1395874.7242246852,-48617.027,-63658.977,-15682.17,-6788.615,-14957.235,21033.162,13816.244,-9032.471
1395874.728224681,-48635.05,-63678.062,-15686.605,-6796.631,-14962.24,21032.064,13815.959,-9042.521
1395874.7322246768,-48654.625,-63687.176,-15697.876,-6811.076,-14959.555,21015.38,13812.5,-9051.514
1395874.7362246728,-48646.973,-63677.207,-15700.521,-6812.3374,-14952.759,21005.86,13809.57,-9050.375
1395874.7402246685,-48626.344,-63652.184,-15688.3545,-6795.8984,-14948.364,21019.084,13812.948,-9039.877
1395874.7442246643,-48616.62,-63639.285,-15678.467,-6780.1514,-14948.202,21032.35,13819.052,-9030.681
1395874.74822466,-48632.938,-63655.03,-15685.669,-6788.9,-14953.247,21029.094,13818.197,-9037.109
1395874.7522246558,-48663.7,-63687.707,-15698.894,-6808.838,-14955.933,21014.283,13815.959,-9049.5205
1395874.7562246518,-48658.53,-63687.297,-15698.527,-6807.6987,-14952.759,21006.307,13815.023,-9047.485
1395874.7602246476,-48638.31,-63664.55,-15686.279,-6791.1377,-14949.87,21018.434,13817.912,-9034.994
1395874.7642246434,-48633.06,-63653.2,-15679.606,-6781.372,-14950.969,21032.39,13820.19,-9032.268
1395874.7682246391,-48639.977,-63650.676,-15684.326,-6785.482,-14950.277,21029.176,13820.109,-9041.26
1395874.7722246351,-48658.367,-63666.668,-15697.592,-6801.2695,-14949.097,21012.492,13818.319,-9052.328
1395874.776224631,-48669.516,-63674.48,-15704.062,-6803.3447,-14944.133,21005.086,13817.627,-9049.398
1395874.7802246267,-48663.574,-63655.273,-15695.761,-6784.79,-14941.977,21017.457,13819.824,-9034.79
1395874.7842246224,-48654.258,-63652.305,-15684.896,-6773.641,-14948.08,21029.908,13819.865,-9029.46
1395874.7882246182,-48656.984,-63660.402,-15687.907,-6782.4707,-14953.573,21029.094,13816.813,-9041.057
1395874.7922246142,-48670.695,-63664.473,-15697.0625,-6797.3228,-14950.236,21015.178,13815.1455,-9048.178
1395874.79622461,-48669.72,-63658.082,-15699.504,-6799.4795,-14945.15,21007.65,13814.25,-9045.614
1395874.8002246057,-48656.13,-63642.99,-15690.186,-6782.6743,-14943.319,21020.508,13821.005,-9028.972
1395874.8042246015,-48653.484,-63642.54,-15681.03,-6770.427,-14946.045,21032.838,13825.073,-9022.949
1395874.8082245975,-48656.17,-63663.902,-15683.065,-6776.9775,-14952.23,21030.03,13822.185,-9030.273
1395874.8122245932,-48669.92,-63674.156,-15694.458,-6790.9346,-14952.353,21013.307,13819.092,-9038.981
1395874.816224589,-48668.5,-63659.426,-15694.499,-6790.609,-14947.348,21005.086,13818.319,-9039.145
1395874.8202245848,-48649.58,-63628.34,-15683.757,-6775.9604,-14944.621,21018.922,13822.388,-9028.076
1395874.8242245805,-48642.375,-63620.973,-15677.979,-6768.3516,-14947.551,21031.006,13826.05,-9020.468
1395874.8282245765,-48652.14,-63639.445,-15681.112,-6775.35,-14949.992,21027.547,13826.213,-9025.595
1395874.8322245723,-48672.16,-63654.137,-15692.139,-6789.1035,-14949.87,21012.86,13826.904,-9034.262
1395874.836224568,-48672.65,-63651.004,-15693.481,-6788.574,-14943.93,21005.535,13827.881,-9031.25
1395874.8402245638,-48656.25,-63631.633,-15683.879,-6772.0137,-14941.04,21017.578,13829.468,-9017.66
1395874.8442245598,-48647.504,-63625.9,-15676.799,-6761.3525,-14946.127,21027.996,13829.509,-9017.985
1395874.8482245556,-48659.465,-63643.23,-15679.647,-6767.456,-14952.475,21024.902,13828.085,-9030.314
1395874.8522245514,-48678.223,-63669.883,-15691.162,-6783.203,-14953.288,21008.098,13825.928,-9041.586
1395874.8562245471,-48676.637,-63668.254,-15692.424,-6782.1455,-14949.179,21000.691,13823.975,-9039.592
1395874.8602245431,-48664.062,-63644.574,-15680.38,-6765.544,-14946.533,21012.695,13824.138,-9028.402
1395874.864224539,-48660.24,-63639.773,-15673.381,-6756.4697,-14949.585,21025.35,13825.399,-9024.984
1395874.8682245347,-48671.47,-63657.594,-15680.502,-6766.439,-14956.828,21022.502,13821.655,-9037.15
1395874.8722245304,-48698.527,-63691.977,-15695.231,-6783.325,-14961.914,21004.68,13816.284,-9054.037
1395874.8762245262,-48698.61,-63689.21,-15696.045,-6783.8135,-14954.0205,20993.49,13812.134,-9056.519
1395874.8802245222,-48668.297,-63649.902,-15682.333,-6766.4795,-14948.364,21004.762,13810.466,-9046.794
1395874.884224518,-48660.688,-63638.754,-15673.788,-6754.9644,-14950.928,21019.246,13811.768,-9042.236
1395874.8882245137,-48681.074,-63661.543,-15679.077,-6762.7363,-14958.334,21017.254,13810.344,-9051.921
1395874.8922245095,-48702.434,-63675.62,-15689.901,-6777.751,-14960.002,21004.436,13808.757,-9061.6455
1395874.8962245055,-48698.203,-63664.918,-15690.023,-6778.8496,-14953.817,20996.014,13805.908,-9064.25
1395874.9002245013,-48678.508,-63640.42,-15679.606,-6761.7188,-14946.94,21005.818,13807.902,-9054.525
1395874.904224497,-48676.027,-63638.47,-15672.079,-6752.9297,-14952.434,21018.758,13810.344,-9050.537
1395874.9082244928,-48692.586,-63657.637,-15679.565,-6760.3354,-14962.484,21017.09,13810.873,-9058.472
1395874.9122244886,-48714.277,-63675.01,-15692.424,-6776.5303,-14961.589,21002.076,13805.38,-9072.51
1395874.9162244846,-48715.945,-63669.477,-15693.319,-6775.472,-14954.875,20993.164,13802.206,-9073.283
1395874.9202244803,-48700.727,-63653.242,-15683.228,-6757.9346,-14952.067,21005.33,13805.095,-9060.913
1395874.924224476,-48688.438,-63639.285,-15674.4795,-6745.443,-14953.41,21021.078,13808.432,-9053.305
1395874.9282244719,-48696.37,-63657.88,-15677.531,-6752.767,-14958.374,21018.678,13809.937,-9059.489
1395874.9322244679,-48711.02,-63680.098,-15688.559,-6769.165,-14958.659,21004.354,13809.204,-9069.011
1395874.9362244636,-48705.69,-63672.0,-15690.471,-6769.328,-14951.823,20997.03,13810.466,-9063.273
1395874.9402244594,-48690.43,-63655.07,-15681.03,-6754.1504,-14949.463,21007.244,13813.965,-9049.357
1395874.9442244552,-48681.562,-63647.707,-15673.991,-6743.5303,-14952.434,21018.678,13815.552,-9040.894
1395874.948224451,-48688.113,-63663.496,-15678.711,-6751.6685,-14958.862,21014.324,13815.023,-9047.648
1395874.952224447,-48700.36,-63674.684,-15689.372,-6768.3105,-14958.862,20997.355,13814.169,-9053.508
1395874.9562244427,-48697.145,-63659.223,-15689.453,-6767.7817,-14951.498,20991.496,13815.471,-9047.934
1395874.9602244385,-48687.38,-63643.555,-15679.973,-6750.6514,-14950.399,21004.842,13819.092,-9036.784
1395874.9642244342,-48691.816,-63657.27,-15674.724,-6742.025,-14957.438,21017.781,13823.202,-9029.623
1395874.9682244302,-48705.73,-63667.277,-15678.752,-6747.518,-14962.24,21015.463,13825.48,-9029.907
1395874.972224426,-48716.637,-63675.703,-15691.61,-6762.5327,-14960.409,20998.7,13819.499,-9043.945
1395874.9762244218,-48717.938,-63680.176,-15692.261,-6764.8115,-14954.794,20993.043,13818.522,-9041.504
1395874.9802244175,-48699.016,-63662.273,-15680.99,-6748.2505,-14952.556,21004.68,13820.639,-9030.233
1395874.9842244133,-48690.35,-63658.69,-15672.893,-6735.6772,-14958.049,21017.13,13824.423,-9025.513
1395874.9882244093,-48706.18,-63674.97,-15678.467,-6744.3037,-14966.797,21013.51,13825.236,-9035.93
1395874.992224405,-48727.05,-63697.188,-15692.627,-6761.7188,-14968.669,20996.46,13821.981,-9048.056
1395874.9962244008,-48725.344,-63691.816,-15692.302,-6760.01,-14961.914,20989.096,13820.435,-9044.922
1395875.0002243966,-48707.684,-63663.008,-15680.298,-6741.6587,-14956.218,21000.814,13822.0625,-9030.314
1395875.0042243926,-48704.1,-63649.254,-15672.079,-6728.76,-14959.717,21012.207,13825.928,-9024.048
1395875.0082243884,-48712.605,-63657.39,-15674.724,-6734.945,-14962.036,21007.732,13824.016,-9035.6045
1395875.0122243841,-48725.63,-63688.965,-15685.873,-6750.4478,-14961.996,20991.984,13821.208,-9047.404
1395875.01622438,-48733.97,-63700.074,-15689.86,-6753.215,-14959.595,20984.863,13821.533,-9048.625
1395875.0202243759,-48723.797,-63688.805,-15682.78,-6738.2407,-14958.293,20997.518,13823.202,-9037.558
1395875.0242243716,-48713.137,-63680.543,-15675.497,-6728.801,-14962.362,21008.871,13824.789,-9032.227
1395875.0282243674,-48717.57,-63695.56,-15676.677,-6734.5786,-14969.849,21004.803,13821.615,-9044.067
1395875.0322243632,-48740.48,-63715.742,-15686.401,-6751.058,-14970.947,20990.52,13820.761,-9052.572
1395875.036224359,-48742.11,-63709.066,-15688.477,-6754.0283,-14965.292,20983.277,13821.33,-9048.096
1395875.040224355,-48723.39,-63685.06,-15677.531,-6737.427,-14962.036,20996.623,13825.277,-9034.18
1395875.0442243507,-48718.63,-63683.637,-15671.835,-6725.749,-14968.384,21010.824,13830.526,-9030.884
1395875.0482243465,-48730.51,-63704.797,-15677.124,-6735.718,-14972.29,21008.465,13831.218,-9040.161
1395875.0522243422,-48743.004,-63718.547,-15688.3955,-6749.349,-14968.506,20992.27,13826.66,-9051.88
1395875.0562243382,-48736.207,-63702.56,-15689.494,-6748.2505,-14961.182,20980.592,13821.493,-9055.217
1395875.060224334,-48726.688,-63677.043,-15681.641,-6733.846,-14961.63,20992.27,13822.632,-9041.708
1395875.0642243298,-48728.23,-63675.78,-15676.84,-6722.6973,-14965.048,21004.803,13824.504,-9036.54
1395875.0682243255,-48738.363,-63687.38,-15681.845,-6729.2075,-14968.832,21002.482,13823.242,-9042.521
1395875.0722243213,-48759.24,-63706.83,-15693.441,-6745.8496,-14969.523,20986.857,13821.615,-9052.368
1395875.0762243173,-48761.965,-63709.19,-15695.964,-6750.122,-14966.064,20978.8,13821.859,-9047.689
1395875.080224313,-48744.754,-63689.13,-15688.965,-6734.945,-14962.565,20992.107,13823.69,-9038.452
1395875.0842243088,-48737.145,-63685.184,-15679.362,-6723.796,-14962.81,21005.291,13825.928,-9031.454
1395875.0882243046,-48747.56,-63698.773,-15682.983,-6730.306,-14967.611,21000.408,13823.486,-9038.818
1395875.0922243006,-48763.836,-63716.92,-15694.011,-6745.8496,-14967.285,20982.625,13819.133,-9051.758
1395875.0962242964,-48762.25,-63711.59,-15695.231,-6744.873,-14961.67,20976.238,13818.034,-9053.508
1395875.1002242921,-48748.617,-63691.855,-15682.617,-6728.0273,-14960.124,20989.746,13822.51,-9040.283
1395875.104224288,-48744.832,-63690.88,-15674.398,-6716.1865,-14966.472,21001.588,13824.829,-9037.395
1395875.1082242837,-48761.477,-63700.97,-15680.014,-6724.8945,-14972.616,20998.943,13822.592,-9050.456
1395875.1122242797,-48782.227,-63722.617,-15693.563,-6740.967,-14972.819,20983.521,13819.296,-9063.151
1395875.1162242754,-48783.53,-63725.668,-15692.424,-6740.6416,-14967.489,20977.662,13820.109,-9060.425
1395875.1202242712,-48764.285,-63698.367,-15680.908,-6725.3013,-14966.431,20988.525,13823.242,-9045.085
1395875.124224267,-48754.03,-63685.547,-15673.584,-6713.135,-14972.494,21001.912,13826.213,-9038.981
1395875.128224263,-48767.254,-63698.49,-15679.403,-6719.7266,-14978.027,20999.553,13827.026,-9045.451
1395875.1322242587,-48787.723,-63720.582,-15692.627,-6735.9214,-14979.33,20985.88,13824.585,-9053.508
1395875.1362242545,-48791.14,-63718.02,-15697.266,-6738.851,-14975.464,20982.38,13823.894,-9050.456
1395875.1402242503,-48785.89,-63698.45,-15688.843,-6725.0166,-14972.86,20996.258,13825.969,-9038.127
1395875.1442242463,-48779.176,-63688.64,-15681.152,-6712.9316,-14974.406,21008.424,13828.735,-9033.773
1395875.148224242,-48786.867,-63700.035,-15682.861,-6717.8955,-14977.783,21002.85,13825.439,-9042.196
1395875.1522242378,-48807.82,-63720.46,-15693.319,-6731.4453,-14978.109,20985.107,13822.836,-9053.508
1395875.1562242336,-48809.9,-63722.535,-15695.476,-6734.0903,-14974.365,20977.174,13822.47,-9052.043
1395875.1602242293,-48790.855,-63700.277,-15684.326,-6715.0474,-14969.971,20991.658,13828.654,-9037.476
1395875.1642242253,-48782.023,-63692.547,-15674.276,-6704.753,-14973.755,21004.72,13830.119,-9031.779
1395875.168224221,-48789.96,-63708.863,-15678.386,-6711.467,-14978.068,21000.123,13826.945,-9042.399
1395875.1722242169,-48807.254,-63729.37,-15690.349,-6730.0215,-14978.923,20984.742,13823.405,-9055.258
1395875.1762242126,-48814.168,-63724.043,-15694.946,-6732.8696,-14977.295,20976.93,13822.144,-9052.856
1395875.1802242086,-48798.87,-63699.426,-15682.821,-6713.623,-14974.528,20987.549,13825.114,-9036.459
1395875.1842242044,-48784.59,-63687.746,-15672.893,-6703.044,-14974.609,20998.982,13825.928,-9032.431
1395875.1882242002,-48795.82,-63710.043,-15677.084,-6709.839,-14980.388,20996.541,13826.742,-9041.708
1395875.192224196,-48814.375,-63734.01,-15685.995,-6723.0635,-14981.283,20983.154,13826.864,-9048.462
1395875.1962241917,-48818.44,-63732.586,-15688.721,-6725.952,-14976.074,20977.377,13829.875,-9046.265
1395875.2002241877,-48805.098,-63708.133,-15679.159,-6710.083,-14973.186,20989.584,13835.653,-9033.203
1395875.2042241835,-48796.266,-63695.844,-15672.038,-6699.0156,-14977.743,21002.076,13837.6875,-9028.972
1395875.2082241792,-48802.246,-63716.066,-15673.91,-6703.7354,-14981.12,20999.105,13835.693,-9037.72
1395875.212224175,-48816.652,-63745.402,-15683.879,-6721.639,-14984.05,20982.83,13831.503,-9050.293
1395875.216224171,-48815.797,-63737.184,-15685.385,-6722.982,-14977.295,20976.115,13832.438,-9044.841
1395875.2202241668,-48802.125,-63718.1,-15672.323,-6705.648,-14974.203,20987.102,13835.246,-9032.593
1395875.2242241625,-48798.383,-63715.13,-15666.626,-6693.7256,-14979.614,20998.17,13833.456,-9034.14
1395875.2282241583,-48816.895,-63732.586,-15672.445,-6703.247,-14982.788,20995.809,13830.7705,-9042.358
1395875.232224154,-48844.93,-63761.027,-15686.198,-6720.5405,-14988.159,20980.754,13827.881,-9053.955
1395875.23622415,-48841.23,-63753.867,-15686.605,-6718.5874,-14983.684,20974.08,13827.2705,-9052.49
1395875.2402241458,-48808.027,-63715.09,-15673.584,-6700.073,-14976.278,20984.213,13825.603,-9043.701
1395875.2442241416,-48797.363,-63706.707,-15667.358,-6690.3076,-14979.899,20996.95,13826.294,-9042.644
1395875.2482241374,-48816.203,-63727.297,-15673.178,-6697.998,-14986.288,20995.117,13828.247,-9046.265
1395875.2522241333,-48837.73,-63751.832,-15682.495,-6712.9316,-14986.654,20980.428,13828.9795,-9050.415
1395875.256224129,-48835.98,-63756.797,-15682.821,-6713.623,-14982.178,20973.064,13829.875,-9048.95
1395875.2602241249,-48821.82,-63743.37,-15673.503,-6699.463,-14980.713,20983.766,13832.031,-9035.522
1395875.2642241206,-48815.676,-63723.27,-15668.376,-6689.087,-14982.219,20995.2,13832.113,-9034.099
1395875.2682241164,-48824.547,-63725.71,-15672.934,-6694.4175,-14985.596,20992.84,13828.857,-9045.858
1395875.2722241124,-48848.023,-63755.414,-15684.652,-6711.0596,-14991.089,20979.533,13825.033,-9056.479
1395875.2762241082,-48855.145,-63769.33,-15686.809,-6713.7046,-14988.444,20975.057,13827.353,-9051.596
1395875.280224104,-48833.7,-63750.367,-15673.096,-6695.638,-14983.969,20986.857,13832.275,-9038.859
1395875.2842240997,-48814.656,-63731.04,-15662.15,-6681.2744,-14981.975,20998.902,13834.799,-9035.563
1395875.2882240957,-48830.445,-63745.2,-15668.457,-6689.4126,-14986.166,20994.629,13831.747,-9047.445
1395875.2922240915,-48849.773,-63766.93,-15679.606,-6705.5664,-14987.671,20977.498,13827.026,-9061.361
1395875.2962240872,-48857.465,-63771.895,-15681.234,-6706.421,-14981.689,20969.686,13826.335,-9058.635
1395875.300224083,-48845.785,-63753.5,-15670.451,-6691.04,-14979.736,20979.574,13829.387,-9042.399
1395875.304224079,-48831.42,-63740.645,-15659.465,-6677.49,-14983.969,20992.146,13831.503,-9037.354
1395875.3082240748,-48842.043,-63757.324,-15664.104,-6684.4077,-14989.828,20988.281,13832.561,-9043.783
1395875.3122240705,-48861.37,-63771.324,-15675.944,-6701.416,-14988.241,20972.941,13832.072,-9051.88
1395875.3162240663,-48863.08,-63770.793,-15679.565,-6702.6367,-14983.969,20967.408,13834.351,-9046.387
1395875.320224062,-48850.996,-63752.2,-15668.905,-6686.6455,-14981.812,20981.975,13840.698,-9027.954
1395875.324224058,-48846.316,-63748.617,-15662.395,-6677.165,-14982.056,20996.99,13844.971,-9019.613
1395875.3282240538,-48855.67,-63759.035,-15667.685,-6683.3906,-14986.816,20995.037,13841.919,-9030.192
1395875.3322240496,-48869.63,-63786.133,-15678.955,-6697.673,-14988.322,20979.248,13836.833,-9043.01
1395875.3362240454,-48865.156,-63780.844,-15679.24,-6698.69,-14981.364,20971.191,13835.409,-9040.8125
1395875.3402240414,-48850.63,-63752.117,-15668.539,-6681.6816,-14976.97,20980.428,13835.979,-9028.076
1395875.3442240371,-48850.344,-63751.59,-15665.283,-6674.7236,-14981.323,20991.863,13837.321,-9024.821
1395875.348224033,-48864.543,-63773.156,-15671.794,-6683.187,-14989.868,20990.438,13836.264,-9037.924
1395875.3522240287,-48878.258,-63792.688,-15679.118,-6697.632,-14992.514,20978.924,13835.571,-9044.149
1395875.3562240244,-48882.324,-63792.562,-15680.42,-6698.3643,-14989.055,20974.244,13838.501,-9038.818
1395875.3602240204,-48867.15,-63764.61,-15670.451,-6679.077,-14984.823,20985.88,13840.454,-9027.832
1395875.3642240162,-48860.273,-63751.914,-15662.476,-6667.2773,-14985.2295,20999.105,13842.57,-9020.02
1395875.368224012,-48870.81,-63770.184,-15665.243,-6676.2695,-14991.089,20997.559,13842.204,-9033.773
1395875.3722240077,-48880.453,-63796.633,-15675.293,-6690.3486,-14991.293,20981.324,13841.269,-9043.823
1395875.3762240037,-48883.75,-63798.953,-15679.606,-6694.255,-14988.892,20972.656,13841.269,-9040.08
1395875.3802239995,-48872.52,-63770.1,-15671.143,-6679.077,-14986.044,20983.643,13842.326,-9028.891
1395875.3842239953,-48872.64,-63757.57,-15662.842,-6665.7715,-14986.857,20995.564,13843.832,-9028.036
1395875.388223991,-48886.027,-63782.84,-15668.01,-6672.6074,-14992.595,20993.205,13842.8955,-9035.6045
1395875.3922239868,-48892.457,-63802.94,-15676.352,-6687.744,-14994.223,20977.865,13841.105,-9042.236
1395875.3962239828,-48890.34,-63797.69,-15679.321,-6689.4126,-14991.537,20969.686,13839.355,-9041.057
1395875.4002239786,-48877.363,-63781.902,-15669.638,-6670.532,-14988.485,20979.86,13841.96,-9030.192
1395875.4042239743,-48871.582,-63782.023,-15662.313,-6660.97,-14993.002,20988.404,13838.664,-9028.769
1395875.40822397,-48884.523,-63799.36,-15667.196,-6667.562,-14998.617,20983.562,13834.677,-9039.714
1395875.412223966,-48905.316,-63816.164,-15677.368,-6684.9365,-14998.332,20965.617,13830.607,-9053.508
1395875.4162239619,-48898.97,-63813.234,-15676.433,-6683.6753,-14989.99,20960.084,13829.265,-9054.037
1395875.4202239576,-48879.234,-63787.11,-15663.981,-6665.283,-14987.265,20975.586,13833.008,-9042.929
1395875.4242239534,-48873.7,-63768.965,-15654.989,-6654.012,-14991.13,20990.234,13836.792,-9036.865
1395875.4282239494,-48881.51,-63778.242,-15657.837,-6657.7964,-14993.408,20987.875,13839.03,-9042.318
1395875.4322239452,-48906.82,-63805.91,-15669.434,-6677.002,-14993.042,20972.25,13837.606,-9053.223
1395875.436223941,-48910.973,-63800.742,-15670.98,-6679.077,-14989.218,20964.031,13833.7,-9057.048
1395875.4402239367,-48891.156,-63773.562,-15658.936,-6661.9062,-14985.515,20974.65,13832.886,-9046.591
1395875.4442239325,-48882.12,-63767.336,-15649.455,-6650.798,-14990.601,20987.916,13835.897,-9038.493
1395875.4482239285,-48891.277,-63772.42,-15653.239,-6654.704,-14993.571,20988.404,13837.932,-9044.067
1395875.4522239242,-48908.0,-63794.273,-15665.365,-6670.6953,-14993.652,20972.86,13833.7,-9056.763
1395875.45622392,-48911.215,-63807.496,-15670.126,-6675.0083,-14994.467,20965.861,13830.893,-9058.594
1395875.4602239158,-48891.6,-63783.652,-15658.936,-6656.7793,-14990.112,20979.248,13835.287,-9045.898
1395875.4642239118,-48880.86,-63768.35,-15651.652,-6645.7114,-14990.723,20991.334,13838.501,-9039.511
1395875.4682239075,-48892.78,-63784.75,-15656.088,-6651.8555,-14996.501,20988.934,13839.152,-9043.945
1395875.4722239033,-48910.156,-63804.28,-15668.701,-6669.149,-15000.163,20969.441,13832.4795,-9057.211
1395875.476223899,-48909.914,-63803.875,-15670.492,-6672.567,-14997.641,20962.361,13830.648,-9055.705
1395875.4802238948,-48893.598,-63779.504,-15662.517,-6656.7383,-14998.251,20975.506,13834.839,-9041.22
1395875.4842238908,-48888.594,-63769.98,-15657.797,-6649.4956,-15004.15,20988.404,13836.833,-9037.313
1395875.4882238866,-48896.324,-63783.855,-15661.865,-6655.8433,-15013.469,20986.043,13833.74,-9048.096
1395875.4922238823,-48903.363,-63794.92,-15672.485,-6667.8877,-15014.201,20971.436,13828.044,-9061.157
1395875.496223878,-48905.805,-63793.906,-15677.043,-6668.9863,-15008.83,20964.438,13829.631,-9055.908
1395875.500223874,-48890.75,-63769.37,-15667.807,-6653.89,-15005.168,20974.568,13834.106,-9043.783
1395875.5042238699,-48879.844,-63754.965,-15661.499,-6643.3105,-15005.819,20985.19,13835.165,-9043.254
1395875.5082238656,-48889.12,-63762.902,-15667.603,-6651.042,-15006.633,20982.83,13832.235,-9053.915
1395875.5122238614,-48903.605,-63788.21,-15678.874,-6664.592,-15005.087,20968.385,13829.712,-9063.232
1395875.5162238572,-48897.586,-63788.293,-15678.915,-6665.039,-15000.163,20961.467,13829.59,-9061.564
1395875.5202238532,-48880.37,-63769.777,-15668.498,-6650.228,-14996.379,20972.86,13832.153,-9048.503
1395875.524223849,-48869.957,-63757.203,-15662.72,-6638.6313,-14995.483,20984.295,13833.496,-9042.725
1395875.5282238447,-48870.16,-63760.824,-15665.161,-6642.7,-14991.699,20985.23,13834.758,-9049.113
1395875.5322238405,-48889.406,-63785.727,-15677.124,-6657.064,-14991.74,20970.338,13837.24,-9052.084
1395875.5362238365,-48900.92,-63785.44,-15682.699,-6662.5166,-14987.915,20962.932,13840.007,-9044.922
1395875.5402238322,-48883.71,-63760.46,-15675.09,-6646.7285,-14985.2705,20976.197,13844.238,-9028.524
1395875.544223828,-48864.95,-63747.234,-15665.935,-6637.451,-14990.723,20988.281,13846.3545,-9022.502
1395875.5482238238,-48865.926,-63760.05,-15668.132,-6643.026,-14991.496,20986.207,13846.477,-9026.815
1395875.5522238195,-48879.68,-63779.707,-15680.42,-6660.9297,-14988.037,20968.018,13842.8955,-9036.418
1395875.5562238155,-48879.07,-63774.58,-15685.629,-6661.947,-14981.161,20958.578,13842.123,-9033.569
1395875.5602238113,-48855.633,-63738.406,-15677.246,-6643.84,-14972.778,20974.285,13846.477,-9020.468
1395875.564223807,-48852.785,-63737.145,-15673.706,-6636.312,-14978.027,20989.34,13848.837,-9019.003
1395875.5682238028,-48871.297,-63765.098,-15680.42,-6644.6533,-14986.166,20987.06,13845.093,-9030.559
1395875.5722237988,-48881.918,-63788.74,-15689.819,-6659.343,-14989.055,20972.088,13841.391,-9042.603
1395875.5762237946,-48878.094,-63783.45,-15688.803,-6657.756,-14982.219,20965.373,13844.279,-9038.452
1395875.5802237904,-48864.504,-63758.547,-15678.223,-6639.282,-14981.323,20976.197,13848.267,-9026.774
1395875.5842237861,-48854.777,-63748.17,-15672.16,-6628.418,-14984.091,20988.322,13849.731,-9026.123
1395875.5882237821,-48862.184,-63761.883,-15675.619,-6632.65,-14987.143,20985.88,13849.203,-9034.058
1395875.592223778,-48878.46,-63777.426,-15687.704,-6648.967,-14987.549,20970.988,13847.412,-9042.318
1395875.5962237737,-48884.074,-63777.55,-15692.993,-6654.338,-14986.003,20963.299,13847.087,-9042.847
1395875.6002237694,-48873.984,-63758.832,-15683.065,-6639.6895,-14983.684,20977.824,13851.726,-9030.844
1395875.6042237652,-48868.33,-63746.992,-15677.124,-6627.767,-14983.684,20990.764,13854.004,-9024.984
1395875.6082237612,-48867.35,-63749.15,-15678.183,-6631.307,-14983.398,20987.957,13850.993,-9029.989
1395875.612223757,-48879.64,-63770.02,-15690.1045,-6649.7397,-14981.771,20970.418,13846.64,-9039.551
1395875.6162237527,-48886.273,-63771.445,-15694.052,-6652.2217,-14978.109,20964.559,13847.331,-9035.686
1395875.6202237485,-48869.55,-63752.117,-15682.902,-6635.5796,-14974.731,20977.621,13850.261,-9022.99
1395875.6242237445,-48858.93,-63746.094,-15675.822,-6624.919,-14976.726,20990.357,13854.208,-9015.666
1395875.6282237403,-48870.65,-63758.75,-15679.77,-6630.127,-14980.632,20985.475,13854.289,-9023.682
1395875.632223736,-48885.38,-63774.496,-15689.535,-6645.793,-14979.452,20969.727,13851.889,-9032.675
1395875.6362237318,-48882.0,-63772.34,-15689.86,-6645.0605,-14970.215,20966.92,13855.347,-9024.699
1395875.6402237276,-48868.98,-63750.855,-15682.821,-6629.5166,-14965.82,20979.777,13857.382,-9013.388
1395875.6442237236,-48862.918,-63746.83,-15676.921,-6620.4023,-14969.727,20991.252,13858.603,-9012.248
1395875.6482237193,-48866.984,-63763.39,-15679.077,-6626.058,-14975.139,20988.607,13856.527,-9020.264
1395875.652223715,-48880.37,-63783.164,-15689.047,-6639.282,-14976.97,20972.615,13854.736,-9026.367
1395875.6562237109,-48879.68,-63764.082,-15689.738,-6638.9976,-14969.482,20965.82,13854.858,-9023.479
1395875.6602237069,-48861.37,-63731.934,-15680.095,-6622.1113,-14963.461,20977.459,13857.422,-9010.458
1395875.6642237026,-48856.16,-63736.74,-15674.643,-6611.2876,-14965.78,20990.154,13859.579,-9006.511
1395875.6682236984,-48863.484,-63755.86,-15677.531,-6618.5713,-14971.884,20987.184,13857.91,-9013.306
1395875.6722236942,-48887.453,-63780.07,-15691.447,-6638.021,-14973.837,20970.785,13854.289,-9024.333
1395875.67622369,-48892.09,-63776.98,-15694.662,-6640.1367,-14967.001,20961.914,13852.092,-9024.17
1395875.680223686,-48867.188,-63738.977,-15681.112,-6620.2393,-14959.758,20973.512,13852.661,-9012.085
1395875.6842236817,-48857.18,-63727.54,-15673.91,-6607.341,-14961.02,20985.271,13853.394,-9011.597
1395875.6882236775,-48864.383,-63739.87,-15677.653,-6611.2876,-14965.454,20986.328,13854.818,-9019.125
1395875.6922236732,-48882.246,-63758.996,-15688.925,-6627.4824,-14964.478,20971.803,13853.394,-9026.693
1395875.6962236692,-48886.19,-63753.215,-15690.796,-6629.11,-14959.473,20964.6,13852.051,-9024.577
1395875.700223665,-48874.51,-63724.406,-15683.716,-6615.3975,-14960.165,20972.332,13852.661,-9012.939
1395875.7042236608,-48864.137,-63712.688,-15676.066,-6604.9805,-14963.42,20982.38,13854.411,-9011.027
1395875.7082236565,-48872.56,-63729.617,-15679.199,-6611.125,-14968.059,20981.242,13855.429,-9020.549
1395875.7122236525,-48883.465,-63742.92,-15690.349,-6627.3604,-14966.187,20966.432,13852.905,-9028.361
1395875.7162236483,-48881.594,-63738.934,-15694.336,-6629.6797,-14961.589,20959.758,13851.5625,-9025.31
1395875.720223644,-48862.55,-63727.99,-15682.78,-6611.776,-14957.031,20972.82,13856.364,-9009.848
1395875.7242236398,-48853.844,-63719.566,-15673.706,-6600.342,-14959.514,20982.625,13857.382,-9006.022
1395875.7282236356,-48864.625,-63737.875,-15677.49,-6607.91,-14964.274,20977.215,13855.021,-9014.853
1395875.7322236316,-48878.746,-63753.746,-15687.907,-6622.7217,-14964.478,20960.896,13851.5625,-9020.224
1395875.7362236273,-48883.26,-63751.223,-15691.284,-6625.0,-14959.758,20954.549,13851.278,-9016.398
1395875.740223623,-48871.258,-63738.49,-15682.617,-6611.5723,-14958.537,20965.373,13853.72,-9006.796
1395875.7442236189,-48869.266,-63736.492,-15679.81,-6600.505,-14961.833,20976.686,13853.3125,-9006.145
1395875.7482236149,-48876.426,-63754.805,-15684.692,-6604.8584,-14967.082,20975.79,13853.516,-9013.103
1395875.7522236106,-48887.207,-63771.203,-15691.325,-6617.8794,-14966.716,20960.205,13850.058,-9022.38
1395875.7562236064,-48890.06,-63772.22,-15692.912,-6620.7275,-14963.054,20951.54,13848.715,-9019.328
1395875.7602236022,-48874.434,-63753.785,-15685.1,-6608.358,-14961.914,20961.955,13851.522,-9004.558
1395875.764223598,-48868.164,-63739.055,-15678.955,-6595.744,-14963.623,20974.773,13855.713,-8999.1455
1395875.768223594,-48876.305,-63750.367,-15683.065,-6601.0337,-14967.937,20970.703,13853.516,-9010.051
1395875.7722235897,-48894.207,-63767.17,-15693.808,-6618.2456,-14968.75,20953.207,13849.243,-9022.868
1395875.7762235855,-48898.766,-63774.945,-15696.777,-6622.6807,-14965.251,20946.574,13849.65,-9020.02
1395875.7802235812,-48885.742,-63760.785,-15687.338,-6609.253,-14964.193,20958.62,13853.3125,-9007.528
1395875.7842235772,-48873.375,-63738.363,-15677.124,-6597.046,-14965.861,20970.826,13853.882,-9006.755
1395875.788223573,-48878.418,-63742.8,-15679.159,-6601.156,-14970.337,20969.361,13849.487,-9018.433
1395875.7922235688,-48898.195,-63776.98,-15690.023,-6617.5537,-14972.494,20956.463,13845.419,-9030.803
1395875.7962235645,-48900.434,-63782.637,-15690.552,-6618.286,-14966.96,20951.416,13845.053,-9029.501
1395875.8002235603,-48886.07,-63761.883,-15682.577,-6602.702,-14965.251,20961.508,13845.866,-9019.572
1395875.8042235563,-48869.062,-63745.445,-15675.415,-6589.885,-14966.675,20971.477,13845.215,-9016.684
1395875.808223552,-48871.094,-63759.277,-15679.077,-6596.029,-14969.401,20970.094,13846.721,-9023.153
1395875.8122235478,-48885.742,-63784.18,-15690.837,-6611.8164,-14969.727,20954.998,13846.3545,-9031.738
1395875.8162235436,-48887.86,-63781.09,-15693.808,-6614.543,-14965.78,20948.04,13848.1045,-9026.815
1395875.8202235396,-48877.973,-63754.844,-15685.507,-6598.5107,-14960.368,20961.223,13854.208,-9009.44
1395875.8242235354,-48870.242,-63750.082,-15679.159,-6587.2803,-14961.752,20974.488,13858.806,-9002.157
1395875.8282235311,-48873.78,-63761.883,-15682.861,-6593.7095,-14966.309,20972.006,13857.951,-9004.924
1395875.832223527,-48886.8,-63780.684,-15690.756,-6610.4736,-14965.251,20956.99,13854.208,-9015.463
1395875.8362235227,-48889.406,-63783.0,-15691.04,-6612.427,-14962.118,20950.36,13855.185,-9011.19
1395875.8402235187,-48873.617,-63759.973,-15680.664,-6594.6045,-14957.927,20963.623,13859.416,-8997.6
1395875.8442235144,-48863.566,-63755.008,-15674.805,-6582.1943,-14960.693,20974.977,13859.213,-8996.745
1395875.8482235102,-48868.613,-63767.742,-15677.246,-6586.914,-14964.233,20973.186,13857.138,-9006.836
1395875.852223506,-48890.42,-63782.434,-15686.361,-6601.3594,-14965.942,20958.293,13852.987,-9016.846
1395875.856223502,-48893.35,-63777.02,-15688.925,-6603.0684,-14960.653,20950.115,13850.668,-9017.863
1395875.8602234977,-48875.41,-63749.27,-15678.874,-6586.467,-14955.811,20961.629,13853.882,-9008.667
1395875.8642234935,-48877.117,-63748.21,-15674.194,-6577.3926,-14960.897,20973.348,13855.957,-9007.69
1395875.8682234893,-48890.83,-63771.812,-15679.159,-6585.653,-14966.472,20970.662,13853.72,-9017.863
1395875.8722234853,-48907.15,-63789.188,-15691.772,-6599.7725,-14967.001,20954.754,13847.412,-9032.187
1395875.876223481,-48908.285,-63785.28,-15694.621,-6602.214,-14961.06,20947.021,13844.035,-9035.034
1395875.8802234768,-48892.17,-63778.16,-15682.739,-6583.9033,-14958.578,20958.496,13849.447,-9017.416
1395875.8842234726,-48884.97,-63777.1,-15672.201,-6571.8184,-14962.28,20969.809,13852.743,-9011.76
1395875.8882234683,-48890.26,-63783.855,-15673.096,-6579.753,-14965.495,20968.75,13852.377,-9020.427
1395875.8922234643,-48903.445,-63799.848,-15685.995,-6596.4355,-14966.757,20954.549,13850.383,-9028.769
1395875.89622346,-48904.34,-63795.777,-15689.616,-6599.4873,-14964.56,20947.918,13850.424,-9023.926
1395875.9002234559,-48886.598,-63776.855,-15677.409,-6582.3975,-14960.49,20958.416,13853.3125,-9010.336
1395875.9042234516,-48881.55,-63773.97,-15669.394,-6572.4287,-14964.152,20970.826,13853.923,-9005.819
1395875.9082234476,-48892.99,-63785.44,-15674.724,-6579.2646,-14967.489,20967.938,13849.895,-9014.404
1395875.9122234434,-48911.62,-63810.957,-15687.419,-6593.5874,-14967.773,20952.678,13846.965,-9020.224
1395875.9162234392,-48913.496,-63812.83,-15689.779,-6597.1274,-14961.996,20946.412,13848.063,-9013.428
1395875.920223435,-48897.176,-63791.14,-15679.077,-6581.6245,-14959.799,20957.805,13849.487,-9000.57
1395875.9242234307,-48895.59,-63787.805,-15673.218,-6570.4756,-14966.105,20969.523,13849.284,-8999.797
1395875.9282234267,-48908.043,-63802.207,-15678.671,-6577.0264,-14970.866,20965.74,13845.541,-9010.539
1395875.9322234225,-48916.832,-63817.71,-15688.762,-6590.698,-14969.238,20950.398,13842.082,-9022.299
1395875.9362234182,-48920.37,-63810.184,-15692.424,-6593.3433,-14964.111,20944.377,13842.001,-9021.362
1395875.940223414,-48913.94,-63795.94,-15683.757,-6579.468,-14964.396,20957.723,13845.175,-9011.19
1395875.94422341,-48908.938,-63798.016,-15674.438,-6569.702,-14970.175,20969.809,13848.145,-9009.237
1395875.9482234058,-48919.72,-63813.6,-15677.694,-6574.178,-14974.162,20969.564,13850.424,-9018.881
1395875.9522234015,-48937.785,-63832.562,-15688.559,-6589.9253,-14974.813,20954.754,13847.494,-9030.884
1395875.9562233973,-48942.547,-63838.176,-15690.349,-6590.8613,-14970.622,20946.574,13846.802,-9027.019
1395875.960223393,-48925.863,-63817.75,-15678.549,-6574.382,-14967.448,20956.502,13847.575,-9016.602
1395875.964223389,-48912.723,-63801.84,-15670.736,-6561.239,-14968.872,20964.479,13847.534,-9016.073
1395875.9682233848,-48926.758,-63812.5,-15676.433,-6568.3594,-14974.325,20960.816,13846.3955,-9024.455
1395875.9722233806,-48943.688,-63832.277,-15689.901,-6583.008,-14975.139,20946.168,13843.14,-9031.779
1395875.9762233763,-48949.383,-63840.332,-15695.517,-6586.1816,-14971.477,20939.453,13841.513,-9033.773
1395875.9802233723,-48940.43,-63820.438,-15683.228,-6569.7837,-14971.802,20953.207,13844.238,-9022.217
1395875.984223368,-48935.47,-63812.01,-15673.584,-6561.157,-14976.5625,20964.764,13846.558,-9013.347
1395875.9882233639,-48939.414,-63817.668,-15674.113,-6563.3955,-14979.086,20963.299,13845.337,-9019.409
1395875.9922233596,-48952.68,-63835.41,-15683.635,-6577.23,-14979.126,20946.818,13841.105,-9027.588
1395875.9962233554,-48956.91,-63831.91,-15685.873,-6579.1426,-14974.528,20938.965,13840.698,-9022.38
1395876.0002233514,-48942.305,-63807.824,-15674.805,-6562.5815,-14971.232,20952.23,13844.279,-9006.022
1395876.0042233472,-48931.03,-63799.48,-15666.423,-6550.7812,-14973.511,20963.867,13846.3955,-8998.495
1395876.008223343,-48939.496,-63815.35,-15668.742,-6555.949,-14973.755,20960.002,13843.832,-9004.3545
1395876.0122233387,-48956.746,-63836.793,-15679.159,-6570.7603,-14974.609,20942.547,13839.152,-9012.085
1395876.0162233347,-48965.617,-63840.66,-15686.483,-6575.1143,-14970.541,20934.693,13837.769,-9013.144
1395876.0202233305,-48952.35,-63833.375,-15676.2295,-6561.5645,-14969.727,20948.934,13841.105,-9005.087
1395876.0242233262,-48942.26,-63824.06,-15666.545,-6550.8223,-14971.3545,20963.705,13845.988,-9001.343
1395876.028223322,-48959.11,-63836.914,-15668.173,-6556.4375,-14976.5625,20963.055,13847.9,-9008.505
1395876.032223318,-48979.37,-63860.11,-15680.583,-6571.533,-14980.021,20948.201,13848.267,-9014.648
1395876.0362233138,-48981.203,-63864.953,-15683.676,-6575.765,-14978.394,20941.57,13850.912,-9008.057
1395876.0402233095,-48960.938,-63838.34,-15669.841,-6559.0415,-14973.633,20953.328,13855.0625,-8993.164
1395876.0442233053,-48943.32,-63821.86,-15659.912,-6544.8813,-14972.982,20962.037,13853.3125,-8991.089
1395876.048223301,-48956.016,-63840.17,-15664.226,-6549.276,-14976.115,20959.717,13851.074,-8996.664
1395876.052223297,-48971.438,-63859.418,-15674.927,-6565.1855,-14978.842,20943.807,13847.168,-9011.475
1395876.0562232928,-48980.31,-63855.836,-15678.142,-6567.302,-14973.022,20937.42,13843.547,-9015.951
1395876.0602232886,-48980.797,-63844.65,-15674.602,-6554.8506,-14974.365,20950.36,13847.006,-9003.866
1395876.0642232844,-48972.94,-63842.613,-15668.213,-6544.6777,-14980.754,20962.729,13850.261,-8999.187
1395876.0682232804,-48976.277,-63855.633,-15671.225,-6550.1304,-14984.294,20961.508,13850.871,-9006.47
1395876.0722232761,-48992.066,-63877.85,-15680.705,-6566.4473,-14985.189,20945.883,13848.796,-9014.445
1395876.076223272,-48994.508,-63879.76,-15682.821,-6567.0576,-14978.598,20937.541,13847.046,-9013.428
1395876.0802232677,-48981.285,-63859.215,-15671.428,-6551.473,-14973.552,20949.057,13851.44,-8997.07
1395876.0842232634,-48965.617,-63845.5,-15660.563,-6539.836,-14976.97,20960.613,13851.196,-8994.629
1395876.0882232594,-48970.582,-63854.37,-15663.696,-6543.01,-14981.608,20958.74,13849.406,-9004.395
1395876.0922232552,-48992.35,-63878.95,-15676.758,-6557.6987,-14983.887,20944.012,13847.209,-9012.817
1395876.096223251,-48996.543,-63880.656,-15678.874,-6558.879,-14978.801,20936.564,13847.534,-9009.644
1395876.1002232467,-48984.215,-63857.832,-15667.888,-6541.7075,-14974.365,20947.348,13851.685,-8991.862
1395876.1042232427,-48977.906,-63844.77,-15661.255,-6532.308,-14975.464,20957.643,13851.889,-8984.579
1395876.1082232385,-48985.15,-63846.926,-15661.459,-6535.848,-14976.278,20953.898,13848.999,-8996.501
1395876.1122232343,-48994.223,-63862.227,-15667.644,-6552.3276,-14977.539,20938.355,13843.547,-9013.225
1395876.11622323,-48994.957,-63864.016,-15670.207,-6555.705,-14974.854,20929.932,13841.635,-9012.899
1395876.1202232258,-48978.438,-63846.19,-15660.116,-6538.656,-14971.762,20941.814,13845.378,-8996.542
1395876.1242232218,-48970.38,-63834.395,-15653.117,-6527.181,-14973.552,20952.596,13847.9,-8990.561
1395876.1282232176,-48988.527,-63847.414,-15658.773,-6532.064,-14976.645,20951.701,13847.656,-8994.589
1395876.1322232133,-49010.176,-63867.027,-15669.108,-6548.828,-14977.011,20939.656,13846.477,-9002.401
1395876.136223209,-49007.367,-63863.77,-15670.004,-6550.6187,-14974.813,20931.316,13845.988,-9002.482
1395876.140223205,-48990.438,-63844.363,-15659.872,-6533.773,-14972.006,20942.22,13849.731,-8989.868
1395876.1442232009,-48987.59,-63845.38,-15654.46,-6524.6177,-14976.481,20953.084,13851.074,-8988.485
1395876.1482231966,-48997.03,-63857.14,-15658.488,-6529.0527,-14980.0625,20952.19,13850.464,-8998.82
1395876.1522231924,-49014.363,-63870.934,-15666.87,-6544.027,-14980.957,20939.535,13850.342,-9010.051
1395876.1562231884,-49021.16,-63875.57,-15670.41,-6546.102,-14977.987,20931.967,13851.196,-9010.01
1395876.1602231842,-49008.26,-63858.81,-15660.889,-6530.1924,-14976.4,20942.465,13854.574,-8996.745
1395876.16422318,-48992.598,-63844.402,-15649.17,-6515.9507,-14977.458,20955.445,13856.567,-8995.85
1395876.1682231757,-49002.44,-63859.945,-15650.879,-6523.3154,-14983.806,20954.143,13857.992,-9001.506
1395876.1722231715,-49025.72,-63886.56,-15667.358,-6543.132,-14987.671,20940.268,13855.551,-9010.092
1395876.1762231675,-49036.5,-63894.004,-15673.056,-6546.8345,-14984.416,20932.17,13854.533,-9006.958
1395876.1802231632,-49029.83,-63883.344,-15665.771,-6531.535,-14983.806,20943.523,13854.411,-8996.013
1395876.184223159,-49015.707,-63875.41,-15654.257,-6516.805,-14984.782,20956.014,13852.946,-8994.914
1395876.1882231547,-49019.816,-63883.18,-15655.762,-6521.0776,-14990.194,20951.904,13849.406,-9005.941
1395876.1922231507,-49038.94,-63900.96,-15666.464,-6536.174,-14991.211,20936.402,13847.412,-9016.562
