timestamp,Fp1,Fp2,F3,Fz,F4,Cz,Pz,Oz
1395901.5001966953,-52049.156,-64113.69,-16308.757,-4315.4707,-16187.582,20424.684,13640.056,-7415.2427
1395901.504196691,-52048.75,-64119.71,-16309.489,-4316.6504,-16187.745,20425.984,13640.666,-7409.465
1395901.5081966869,-52053.914,-64122.766,-16309.571,-4313.4766,-16191.651,20426.717,13634.074,-7420.7764
1395901.5121966829,-52051.35,-64114.504,-16308.31,-4308.757,-16192.343,20424.195,13626.872,-7430.176
1395901.5161966786,-52055.91,-64110.56,-16310.914,-4311.6865,-16191.407,20419.88,13624.39,-7433.0244
1395901.5201966744,-52057.945,-64109.66,-16313.3955,-4315.715,-16190.959,20416.504,13626.547,-7421.55
1395901.5241966702,-52054.688,-64112.918,-16311.646,-4315.145,-16191.529,20414.877,13627.768,-7415.202
1395901.5281966662,-52055.38,-64107.26,-16310.588,-4310.466,-16193.767,20416.219,13625.244,-7423.828
1395901.532196662,-52060.832,-64112.55,-16308.473,-4307.6987,-16195.72,20417.928,13624.35,-7426.799
1395901.5361966577,-52070.395,-64125.246,-16308.513,-4310.1807,-16195.964,20415.203,13627.6455,-7421.55
1395901.5401966535,-52072.594,-64125.613,-16308.351,-4312.622,-16194.906,20413.574,13631.552,-7412.3535
1395901.5441966492,-52069.133,-64122.355,-16306.112,-4315.4297,-16194.093,20413.574,13631.958,-7409.587
1395901.5481966452,-52072.836,-64126.223,-16306.56,-4313.1104,-16197.551,20413.29,13626.099,-7419.0674
1395901.552196641,-52076.54,-64123.54,-16310.1,-4309.123,-16199.098,20413.533,13621.582,-7426.921
1395901.5561966368,-52078.94,-64120.688,-16309.449,-4310.7505,-16196.94,20411.012,13621.786,-7427.002
1395901.5601966325,-52073.855,-64115.195,-16309.733,-4312.2153,-16194.418,20408.447,13623.576,-7419.3115
1395901.5641966285,-52074.547,-64111.41,-16310.385,-4311.361,-16193.522,20408.773,13625.61,-7413.5337
1395901.5681966243,-52080.527,-64120.85,-16309.896,-4307.6987,-16195.72,20411.988,13624.187,-7419.4746
1395901.57219662,-52078.207,-64133.06,-16308.839,-4305.0947,-16197.185,20414.145,13621.745,-7428.874
1395901.5761966158,-52083.824,-64139.527,-16313.722,-4309.001,-16196.046,20411.377,13621.46,-7431.1934
1395901.5801966118,-52089.6,-64136.395,-16316.366,-4311.727,-16195.436,20410.076,13625.407,-7420.8174
1395901.5841966076,-52093.71,-64133.18,-16315.553,-4310.954,-16197.348,20409.668,13627.279,-7415.1206
1395901.5881966033,-52091.473,-64134.2,-16312.419,-4304.647,-16197.267,20410.768,13623.983,-7421.875
1395901.592196599,-52089.926,-64131.473,-16309.611,-4300.7407,-16199.464,20411.621,13618.49,-7431.3154
1395901.5961965949,-52099.45,-64140.91,-16313.559,-4305.0537,-16203.898,20409.262,13617.106,-7435.588
1395901.6001965909,-52103.438,-64138.43,-16314.413,-4307.617,-16203.817,20406.982,13620.6875,-7426.0254
1395901.6041965866,-52101.605,-64140.22,-16313.355,-4307.129,-16200.725,20406.453,13622.6,-7421.3057
1395901.6081965824,-52101.484,-64143.027,-16311.931,-4302.816,-16198.568,20408.082,13618.979,-7423.869
1395901.6121965782,-52104.13,-64142.5,-16310.751,-4297.0786,-16200.236,20407.43,13613.7295,-7432.007
1395901.6161965742,-52102.785,-64147.098,-16312.948,-4299.3574,-16200.603,20405.111,13615.112,-7432.7803
1395901.62019657,-52106.367,-64141.645,-16315.431,-4303.467,-16198.8125,20403.89,13619.467,-7422.7295
1395901.6241965657,-52114.016,-64140.14,-16317.831,-4305.583,-16198.976,20402.547,13619.955,-7419.4336
1395901.6281965615,-52114.543,-64143.76,-16315.349,-4300.7407,-16202.353,20405.03,13619.629,-7424.1943
1395901.6321965572,-52114.707,-64142.54,-16310.629,-4296.7124,-16203.817,20406.332,13618.408,-7429.4434
1395901.6361965532,-52108.727,-64137.453,-16311.524,-4296.631,-16201.742,20403.809,13617.798,-7430.2573
1395901.640196549,-52103.477,-64144.168,-16312.989,-4300.985,-16201.783,20401.408,13621.46,-7420.573
1395901.6441965448,-52109.785,-64149.863,-16315.39,-4303.0195,-16201.376,20401.367,13623.169,-7413.9
1395901.6481965405,-52118.652,-64149.254,-16314.332,-4300.9443,-16203.898,20402.264,13620.199,-7420.329
1395901.6521965365,-52119.996,-64149.66,-16311.28,-4295.7764,-16204.794,20402.588,13615.967,-7427.5312
1395901.6561965323,-52119.305,-64147.18,-16311.117,-4296.0205,-16201.661,20400.96,13615.479,-7425.7812
1395901.660196528,-52126.914,-64146.49,-16313.966,-4301.229,-16200.318,20397.299,13618.896,-7416.8296
1395901.6641965238,-52130.453,-64141.156,-16314.169,-4301.799,-16199.26,20398.52,13622.355,-7410.1157
1395901.6681965196,-52131.633,-64140.63,-16308.879,-4296.102,-16201.661,20403.932,13625.244,-7411.174
1395901.6721965156,-52132.527,-64137.98,-16307.862,-4290.5273,-16202.882,20403.32,13623.495,-7418.498
1395901.6761965114,-52138.957,-64145.387,-16312.216,-4290.609,-16203.451,20398.967,13621.786,-7420.1255
1395901.6801965071,-52142.375,-64153.117,-16314.454,-4293.7827,-16203.776,20396.973,13624.594,-7411.5806
1395901.684196503,-52139.57,-64152.875,-16312.094,-4294.271,-16204.591,20397.176,13627.075,-7405.3955
1395901.688196499,-52138.348,-64154.95,-16310.1,-4290.9346,-16206.544,20398.805,13627.075,-7408.0
1395901.6921964947,-52140.06,-64160.81,-16308.146,-4284.7495,-16210.165,20399.293,13623.007,-7417.4805
1395901.6961964904,-52143.395,-64166.465,-16309.855,-4287.1504,-16210.328,20394.654,13622.519,-7419.4336
1395901.7001964862,-52143.395,-64161.582,-16309.449,-4290.2427,-16208.456,20394.207,13625.082,-7409.0986
1395901.7041964822,-52146.16,-64159.793,-16311.402,-4293.0503,-16210.287,20393.922,13623.901,-7410.1157
1395901.708196478,-52147.79,-64160.44,-16309.164,-4289.3066,-16213.258,20395.549,13620.972,-7417.6436
1395901.7121964737,-52148.074,-64157.594,-16306.642,-4284.912,-16214.112,20394.898,13615.967,-7423.95
1395901.7161964695,-52146.28,-64156.13,-16309.123,-4285.848,-16212.403,20389.934,13612.956,-7424.7236
1395901.7201964653,-52150.96,-64157.676,-16312.989,-4289.592,-16209.352,20384.848,13614.136,-7416.789
1395901.7241964613,-52150.105,-64167.93,-16311.524,-4288.1675,-16207.805,20383.627,13616.252,-7412.5977
1395901.728196457,-52144.453,-64173.26,-16308.146,-4280.5586,-16210.165,20385.254,13613.7295,-7415.6494
1395901.7321964528,-52145.348,-64172.977,-16307.211,-4278.8086,-16212.932,20385.742,13608.358,-7419.922
1395901.7361964486,-52144.492,-64178.836,-16308.351,-4280.5176,-16212.932,20382.203,13609.131,-7416.748
1395901.7401964446,-52138.023,-64164.594,-16307.496,-4281.291,-16207.032,20382.365,13613.688,-7408.6104
1395901.7441964403,-52134.402,-64160.81,-16306.071,-4279.46,-16203.858,20383.748,13616.943,-7402.507
1395901.748196436,-52145.55,-64164.51,-16305.949,-4274.292,-16208.985,20384.562,13613.119,-7411.377
1395901.7521964319,-52146.484,-64158.0,-16304.403,-4270.549,-16212.362,20385.986,13608.969,-7420.085
1395901.7561964276,-52149.902,-64156.21,-16306.071,-4273.0713,-16213.258,20383.504,13606.73,-7424.7236
1395901.7601964236,-52157.35,-64158.246,-16310.792,-4278.5645,-16215.333,20382.406,13607.91,-7421.753
1395901.7641964194,-52162.64,-64156.13,-16314.25,-4279.989,-16216.96,20383.3,13610.393,-7417.2773
1395901.7681964152,-52164.062,-64157.473,-16312.379,-4272.2983,-16218.1,20387.29,13610.474,-7423.259
1395901.772196411,-52166.707,-64172.04,-16311.728,-4266.439,-16220.378,20388.916,13607.097,-7432.8613
1395901.776196407,-52171.31,-64181.97,-16314.006,-4264.8926,-16222.616,20388.672,13607.016,-7433.879
1395901.7801964027,-52174.36,-64183.598,-16316.8955,-4268.026,-16220.907,20388.428,13610.474,-7426.921
1395901.7841963985,-52175.133,-64185.1,-16317.994,-4269.613,-16220.012,20388.51,13613.892,-7421.916
1395901.7881963942,-52173.22,-64184.734,-16313.233,-4262.655,-16219.768,20390.057,13613.037,-7425.7812
1395901.79219639,-52174.887,-64188.844,-16314.454,-4257.6094,-16224.528,20389.12,13608.643,-7438.965
1395901.796196386,-52178.184,-64183.72,-16316.366,-4258.342,-16223.634,20386.883,13609.741,-7436.6865
1395901.8001963818,-52182.82,-64178.957,-16317.546,-4261.312,-16220.582,20384.969,13611.206,-7429.0366
1395901.8041963775,-52185.547,-64174.035,-16318.156,-4261.2305,-16219.483,20384.36,13612.102,-7425.863
1395901.8081963733,-52181.684,-64167.523,-16314.86,-4255.3306,-16220.5,20386.15,13612.224,-7431.112
1395901.8121963693,-52180.42,-64171.633,-16314.332,-4250.4883,-16222.047,20386.678,13607.91,-7435.262
1395901.816196365,-52181.97,-64182.496,-16319.337,-4251.628,-16225.343,20381.633,13603.842,-7435.669
1395901.8201963608,-52187.46,-64189.457,-16321.29,-4254.4355,-16227.702,20379.477,13606.161,-7429.24
1395901.8241963566,-52192.465,-64192.914,-16320.842,-4255.819,-16228.923,20380.656,13609.619,-7425.212
1395901.8281963523,-52196.414,-64198.49,-16320.231,-4251.872,-16233.725,20382.447,13606.201,-7432.2104
1395901.8321963483,-52202.312,-64204.062,-16319.662,-4248.0063,-16235.434,20383.79,13603.476,-7437.7036
1395901.836196344,-52200.36,-64216.15,-16319.906,-4251.7905,-16237.224,20382.812,13604.655,-7435.0586
1395901.8401963399,-52202.84,-64216.39,-16325.766,-4255.2085,-16239.096,20381.43,13606.608,-7424.764
1395901.8441963356,-52208.984,-64219.117,-16328.166,-4255.2085,-16240.724,20380.209,13606.649,-7423.055
1395901.8481963316,-52212.2,-64224.125,-16325.847,-4250.4478,-16242.717,20379.883,13602.946,-7429.9727
1395901.8521963274,-52214.152,-64225.832,-16325.521,-4246.46,-16243.734,20379.07,13596.11,-7439.8604
1395901.8561963232,-52215.047,-64225.63,-16327.76,-4247.518,-16241.7,20376.953,13595.134,-7438.5986
1395901.860196319,-52214.6,-64218.344,-16328.898,-4252.4824,-16238.7705,20374.92,13600.586,-7427.9785
1395901.864196315,-52219.605,-64213.707,-16328.695,-4256.755,-16241.13,20372.967,13599.447,-7425.8223
1395901.8681963107,-52224.0,-64221.56,-16325.847,-4252.767,-16242.229,20374.92,13596.191,-7434.7334
1395901.8721963065,-52222.94,-64219.605,-16323.08,-4243.408,-16240.275,20376.832,13593.1,-7441.5283
1395901.8761963022,-52216.96,-64211.508,-16327.067,-4243.856,-16241.537,20374.105,13591.472,-7441.325
1395901.880196298,-52215.7,-64211.793,-16328.98,-4247.762,-16244.02,20371.46,13594.6455,-7431.7627
1395901.884196294,-52216.92,-64215.7,-16325.969,-4247.396,-16245.321,20373.047,13595.581,-7425.659
1395901.8881962898,-52220.01,-64222.375,-16322.47,-4242.8794,-16247.722,20376.953,13594.931,-7431.234
1395901.8921962855,-52243.9,-64246.586,-16327.638,-4246.053,-16257.04,20378.174,13593.181,-7440.8774
1395901.8961962813,-52263.105,-64263.594,-16334.677,-4250.9766,-16263.103,20376.547,13597.168,-7441.203
1395901.9001962773,-52241.863,-64234.945,-16331.259,-4249.9595,-16254.884,20369.793,13597.982,-7436.361
1395901.904196273,-52223.633,-64220.746,-16326.498,-4248.6167,-16248.251,20367.799,13598.063,-7429.891
1395901.9081962688,-52226.727,-64219.402,-16322.511,-4243.1235,-16248.78,20369.223,13597.9,-7434.896
1395901.9121962646,-52217.367,-64209.883,-16315.471,-4236.328,-16248.332,20369.426,13593.384,-7443.685
1395901.9161962604,-52221.113,-64219.035,-16318.075,-4238.9326,-16250.285,20368.084,13594.116,-7439.8193
1395901.9201962564,-52229.414,-64220.746,-16321.046,-4243.0015,-16249.675,20365.357,13597.575,-7432.9023
1395901.9241962521,-52226.93,-64217.004,-16318.36,-4243.205,-16249.757,20365.113,13598.349,-7432.9023
1395901.928196248,-52234.17,-64217.41,-16319.54,-4241.333,-16250.163,20366.658,13595.175,-7441.2437
1395901.9321962437,-52232.098,-64207.44,-16317.18,-4235.5146,-16251.303,20367.596,13593.832,-7445.923
1395901.9361962397,-52218.875,-64188.273,-16313.518,-4231.8525,-16244.182,20364.422,13593.14,-7444.5396
1395901.9401962354,-52213.38,-64174.645,-16312.745,-4236.8164,-16242.351,20360.678,13594.401,-7439.494
1395901.9441962312,-52218.02,-64180.258,-16313.844,-4239.909,-16239.787,20363.281,13596.762,-7433.0244
1395901.948196227,-52225.75,-64191.0,-16311.809,-4233.9683,-16240.275,20368.611,13599.447,-7431.5186
1395901.9521962227,-52227.133,-64201.418,-16308.717,-4227.8647,-16243.043,20370.076,13598.796,-7437.663
1395901.9561962187,-52222.168,-64185.63,-16307.821,-4228.3936,-16237.265,20368.123,13599.081,-7438.192
1395901.9601962145,-52216.15,-64177.29,-16309.367,-4232.788,-16229.208,20364.828,13602.539,-7426.473
1395901.9641962103,-52217.49,-64197.31,-16309.611,-4234.7007,-16231.324,20365.316,13606.161,-7416.5854
1395901.968196206,-52219.81,-64198.61,-16307.74,-4231.9336,-16235.637,20367.676,13606.283,-7420.41
1395901.972196202,-52228.8,-64193.605,-16307.211,-4226.3594,-16231.935,20371.053,13604.208,-7426.8394
1395901.9761961978,-52238.242,-64209.92,-16309.652,-4229.2075,-16236.41,20367.432,13603.027,-7429.8506
1395901.9801961936,-52236.168,-64223.715,-16309.652,-4233.48,-16238.363,20364.705,13604.98,-7421.1426
1395901.9841961893,-52242.516,-64212.242,-16308.351,-4234.4565,-16234.01,20364.299,13606.039,-7416.545
1395901.988196185,-52254.438,-64209.395,-16307.414,-4231.079,-16233.888,20367.39,13605.713,-7422.8516
1395901.992196181,-52270.957,-64224.895,-16307.618,-4231.7305,-16239.909,20368.205,13606.12,-7428.1006
1395901.9961961769,-52282.227,-64235.273,-16312.826,-4236.5317,-16242.636,20364.096,13605.957,-7425.293
1395902.0001961726,-52286.133,-64250.45,-16316.651,-4240.1123,-16241.7,20363.81,13610.759,-7411.377
1395902.0041961684,-52304.445,-64283.53,-16320.028,-4244.2627,-16242.839,20365.316,13618.612,-7401.001
1395902.0081961644,-52310.547,-64286.906,-16317.587,-4241.374,-16246.989,20365.357,13618.815,-7400.1875
1395902.0121961602,-52325.48,-64294.883,-16316.773,-4239.299,-16251.872,20365.846,13617.961,-7405.2734
1395902.016196156,-52356.242,-64335.9,-16324.098,-4243.8965,-16258.83,20367.799,13620.321,-7405.477
1395902.0201961517,-52365.6,-64346.195,-16324.911,-4249.4307,-16260.011,20367.758,13622.07,-7396.688
1395902.0241961477,-52375.367,-64361.41,-16323.487,-4250.163,-16263.591,20371.135,13629.232,-7383.016
1395902.0281961435,-52394.613,-64387.902,-16323.283,-4251.18,-16272.462,20374.268,13631.877,-7379.11
1395902.0321961392,-52403.934,-64386.8,-16321.859,-4249.4307,-16276.612,20375.896,13627.686,-7381.429
1395902.036196135,-52415.242,-64404.38,-16326.132,-4252.6855,-16278.565,20376.344,13629.436,-7377.645
1395902.0401961308,-52430.586,-64443.523,-16331.381,-4257.5684,-16282.105,20375.691,13634.399,-7370.2803
1395902.0441961267,-52448.773,-64465.902,-16337.729,-4261.556,-16286.947,20378.094,13637.533,-7364.177
1395902.0481961225,-52457.074,-64467.082,-16339.804,-4260.051,-16293.173,20381.959,13635.62,-7366.455
1395902.0521961183,-52468.305,-64472.535,-16342.448,-4257.894,-16300.985,20384.766,13634.115,-7371.704
1395902.056196114,-52483.4,-64488.934,-16347.901,-4263.7534,-16303.956,20382.936,13634.481,-7370.565
1395902.06019611,-52490.6,-64503.34,-16352.662,-4268.799,-16303.061,20382.527,13639.282,-7360.4736
1395902.0641961058,-52489.543,-64511.8,-16353.72,-4271.8916,-16306.193,20384.074,13643.677,-7353.4346
1395902.0681961016,-52484.66,-64518.11,-16350.993,-4268.5547,-16309.367,20387.86,13642.497,-7358.2764
1395902.0721960973,-52498.293,-64532.023,-16355.266,-4267.375,-16312.297,20390.38,13640.544,-7366.374
1395902.076196093,-52507.61,-64537.19,-16359.538,-4267.741,-16313.233,20390.87,13643.474,-7363.363
1395902.080196089,-52510.418,-64534.14,-16363.2,-4274.536,-16312.826,20390.096,13645.834,-7353.6787
1395902.0841960849,-52505.414,-64534.06,-16364.828,-4276.7744,-16315.187,20391.277,13646.159,-7352.336
1395902.0881960806,-52495.363,-64528.16,-16360.23,-4270.752,-16313.518,20390.748,13645.02,-7354.5737
1395902.0921960764,-52496.176,-64534.547,-16361.125,-4266.5205,-16310.1,20389.934,13641.806,-7360.1074
1395902.0961960724,-52502.156,-64538.82,-16364.747,-4267.5376,-16306.926,20383.912,13637.777,-7363.8916
1395902.1001960682,-52503.46,-64525.188,-16365.52,-4271.444,-16307.536,20383.912,13640.829,-7353.475
1395902.104196064,-52506.51,-64522.953,-16365.846,-4272.217,-16306.071,20387.86,13645.386,-7344.5234
1395902.1081960597,-52502.727,-64520.1,-16363.7705,-4269.043,-16307.618,20389.08,13645.061,-7345.825
1395902.1121960555,-52499.637,-64515.91,-16361.9795,-4264.8115,-16307.048,20388.51,13644.247,-7347.168
1395902.1161960515,-52503.83,-64521.04,-16365.072,-4265.625,-16307.862,20386.475,13646.892,-7341.2275
1395902.1201960472,-52509.48,-64520.754,-16367.961,-4270.0605,-16305.502,20385.295,13652.182,-7329.2646
1395902.124196043,-52510.62,-64522.055,-16367.433,-4272.4204,-16302.735,20385.906,13656.088,-7319.621
1395902.1281960388,-52509.727,-64523.074,-16366.374,-4268.677,-16304.159,20386.475,13654.257,-7323.039
1395902.1321960348,-52507.203,-64520.305,-16364.055,-4266.5205,-16304.403,20387.33,13651.611,-7329.6714
1395902.1361960305,-52502.89,-64520.387,-16364.34,-4267.4155,-16302.816,20386.395,13651.896,-7330.0376
1395902.1401960263,-52504.598,-64524.418,-16366.415,-4270.9556,-16304.403,20386.475,13653.728,-7323.8936
1395902.144196022,-52508.832,-64535.035,-16367.311,-4273.926,-16305.583,20388.754,13657.309,-7316.854
1395902.148196018,-52513.51,-64536.83,-16366.049,-4271.3623,-16306.682,20391.887,13657.593,-7323.4863
1395902.1521960138,-52516.113,-64530.64,-16367.147,-4266.0728,-16307.048,20393.107,13655.925,-7332.723
1395902.1561960096,-52518.516,-64526.652,-16369.914,-4268.148,-16303.549,20391.805,13655.925,-7330.6074
1395902.1601960054,-52521.812,-64526.938,-16371.949,-4273.397,-16302.247,20389.08,13657.878,-7319.702
1395902.1641960011,-52527.305,-64529.016,-16373.902,-4275.1465,-16303.468,20388.836,13658.977,-7319.4175
1395902.1681959971,-52525.39,-64527.47,-16371.623,-4270.1826,-16303.956,20389.934,13656.21,-7327.6367
1395902.172195993,-52521.08,-64529.504,-16370.28,-4265.7065,-16305.624,20389.568,13651.611,-7336.3037
1395902.1761959887,-52525.434,-64527.754,-16373.861,-4265.869,-16304.851,20388.428,13650.635,-7332.601
1395902.1801959844,-52526.938,-64521.445,-16375.163,-4270.915,-16300.741,20385.498,13652.466,-7325.277
1395902.1841959804,-52527.59,-64516.848,-16376.059,-4272.4204,-16295.207,20383.342,13653.198,-7321.6963
1395902.1881959762,-52528.934,-64507.895,-16374.105,-4268.026,-16295.329,20382.447,13647.99,-7327.108
1395902.192195972,-52530.355,-64507.043,-16373.983,-4265.3403,-16293.539,20382.936,13643.84,-7333.7812
1395902.1961959677,-52530.887,-64505.902,-16373.739,-4263.7534,-16293.173,20382.527,13643.107,-7333.74
1395902.2001959635,-52533.45,-64504.723,-16377.198,-4264.364,-16292.359,20381.348,13644.775,-7325.8467
1395902.2041959595,-52537.11,-64510.133,-16379.029,-4268.2295,-16294.108,20380.78,13644.369,-7322.2656
1395902.2081959553,-52538.29,-64518.76,-16379.884,-4268.8804,-16297.079,20380.168,13640.381,-7329.183
1395902.212195951,-52538.25,-64529.38,-16377.523,-4261.434,-16295.817,20381.592,13638.062,-7332.5195
1395902.2161959468,-52539.55,-64524.78,-16379.273,-4261.882,-16296.55,20380.494,13637.573,-7329.3457
1395902.2201959428,-52544.11,-64510.867,-16380.656,-4266.2764,-16293.58,20379.883,13640.503,-7320.7197
1395902.2241959386,-52546.062,-64510.05,-16380.453,-4269.084,-16293.539,20381.633,13643.962,-7313.9243
1395902.2281959343,-52547.04,-64518.19,-16377.687,-4264.73,-16293.58,20385.457,13642.66,-7321.411
1395902.23219593,-52548.87,-64524.906,-16378.663,-4262.004,-16294.027,20384.197,13638.632,-7330.4443
1395902.2361959259,-52552.777,-64527.957,-16381.145,-4264.486,-16295.126,20381.186,13639.975,-7324.504
1395902.2401959219,-52559.004,-64528.117,-16384.197,-4270.0605,-16293.62,20380.209,13641.968,-7321.208
1395902.2441959176,-52559.367,-64534.914,-16386.395,-4268.7583,-16292.277,20381.633,13644.897,-7318.2783
1395902.2481959134,-52564.375,-64536.703,-16385.54,-4266.3574,-16295.411,20384.686,13645.061,-7320.2314
1395902.2521959092,-52566.69,-64538.25,-16385.783,-4263.794,-16296.713,20384.277,13641.968,-7328.166
1395902.2561959052,-52571.047,-64539.348,-16387.98,-4266.1133,-16295.655,20381.389,13642.253,-7327.8403
1395902.260195901,-52574.832,-64538.496,-16391.072,-4271.159,-16296.55,20379.395,13645.915,-7317.0576
1395902.2641958967,-52578.168,-64537.52,-16391.033,-4272.2983,-16295.492,20381.023,13648.804,-7309.6924
1395902.2681958925,-52581.42,-64546.184,-16387.94,-4267.456,-16295.614,20385.295,13648.682,-7312.5
1395902.2721958882,-52590.58,-64569.62,-16387.818,-4265.2183,-16302.328,20387.33,13647.909,-7319.214
1395902.2761958842,-52587.605,-64565.84,-16388.266,-4264.038,-16298.869,20385.662,13646.606,-7318.9697
1395902.28019588,-52585.33,-64552.9,-16391.113,-4265.544,-16290.162,20382.283,13646.77,-7315.2266
1395902.2841958757,-52589.113,-64555.383,-16394.125,-4268.3516,-16289.43,20381.55,13649.455,-7313.3955
1395902.2881958715,-52592.695,-64547.445,-16392.904,-4264.6895,-16289.226,20384.48,13647.705,-7318.4004
1395902.2921958675,-52599.855,-64549.684,-16391.033,-4258.911,-16288.534,20386.883,13647.746,-7321.8184
1395902.2961958633,-52614.79,-64559.33,-16394.043,-4261.434,-16292.196,20385.254,13647.543,-7318.8477
1395902.300195859,-52616.254,-64562.504,-16394.287,-4263.7534,-16288.331,20382.121,13649.496,-7308.187
1395902.3041958548,-52617.8,-64569.664,-16393.555,-4265.0146,-16285.116,20382.244,13650.554,-7302.368
1395902.3081958508,-52621.582,-64574.26,-16394.084,-4261.76,-16286.418,20383.383,13645.468,-7311.6865
1395902.3121958466,-52622.52,-64576.582,-16393.922,-4257.4463,-16288.981,20382.812,13641.928,-7318.8887
1395902.3161958423,-52623.457,-64576.05,-16393.88,-4258.0566,-16290.08,20381.43,13641.928,-7319.906
1395902.320195838,-52622.97,-64567.1,-16394.41,-4260.62,-16285.075,20381.104,13643.84,-7314.4126
1395902.3241958339,-52619.305,-64568.688,-16395.06,-4260.498,-16284.221,20380.168,13645.061,-7304.525
1395902.3281958299,-52624.594,-64577.477,-16393.514,-4256.429,-16285.279,20380.086,13643.84,-7306.722
1395902.3321958256,-52622.97,-64574.75,-16389.69,-4252.1567,-16283.61,20380.574,13639.975,-7317.668
1395902.3361958214,-52624.715,-64569.582,-16390.137,-4252.9707,-16285.279,20377.85,13640.3,-7314.7383
1395902.3401958172,-52630.7,-64567.223,-16393.148,-4258.5044,-16287.68,20378.053,13644.938,-7304.3213
1395902.3441958132,-52633.426,-64568.566,-16394.49,-4260.4575,-16286.012,20377.727,13644.938,-7304.8506
1395902.348195809,-52634.848,-64571.414,-16393.596,-4256.5513,-16286.988,20378.947,13639.486,-7310.14
1395902.3521958047,-52633.63,-64572.227,-16391.48,-4251.709,-16287.3545,20379.191,13636.679,-7314.901
1395902.3561958005,-52636.273,-64581.06,-16394.734,-4254.598,-16286.866,20376.75,13636.801,-7314.6973
1395902.3601957962,-52640.953,-64591.676,-16397.908,-4259.3994,-16285.157,20375.814,13640.056,-7306.356
1395902.3641957922,-52646.242,-64587.04,-16399.008,-4263.143,-16286.5,20373.861,13640.991,-7302.368
1395902.368195788,-52652.266,-64586.875,-16399.7,-4260.539,-16289.836,20375.123,13638.835,-7308.431
1395902.3721957838,-52659.14,-64584.434,-16399.578,-4255.249,-16293.214,20377.238,13634.97,-7317.668
1395902.3761957795,-52659.953,-64581.668,-16400.229,-4253.703,-16292.399,20378.094,13636.801,-7314.616
1395902.3801957755,-52659.383,-64586.875,-16401.611,-4254.232,-16289.714,20378.133,13642.172,-7303.955
1395902.3841957713,-52658.855,-64589.4,-16402.02,-4257.5684,-16289.267,20376.629,13645.671,-7295.3696
1395902.388195767,-52656.21,-64587.688,-16399.09,-4254.6387,-16289.796,20378.053,13643.433,-7300.7812
1395902.3921957628,-52655.723,-64593.387,-16398.316,-4251.18,-16288.9,20378.662,13637.736,-7313.1104
1395902.3961957586,-52660.605,-64597.66,-16400.188,-4254.924,-16290.365,20376.912,13636.23,-7314.901
1395902.4001957546,-52666.344,-64590.496,-16402.467,-4259.8066,-16290.121,20374.838,13636.027,-7310.425
1395902.4041957504,-52664.43,-64594.08,-16401.652,-4258.9927,-16289.063,20374.838,13636.638,-7304.8506
1395902.4081957461,-52664.105,-64591.92,-16399.455,-4256.4697,-16291.952,20374.92,13634.033,-7309.367
1395902.412195742,-52670.535,-64592.45,-16399.414,-4256.1035,-16296.144,20372.967,13628.581,-7317.749
1395902.416195738,-52666.63,-64592.53,-16399.21,-4255.941,-16296.632,20370.564,13627.36,-7316.854
1395902.4201957337,-52665.73,-64591.555,-16401.287,-4257.7314,-16293.986,20370.443,13630.859,-7308.3496
1395902.4241957294,-52666.586,-64590.742,-16402.264,-4260.417,-16291.545,20371.217,13633.22,-7302.572
1395902.4281957252,-52669.11,-64589.4,-16400.066,-4256.6733,-16290.284,20372.152,13630.29,-7309.001
1395902.4321957212,-52670.74,-64598.676,-16400.025,-4250.6514,-16292.033,20373.047,13624.268,-7320.842
1395902.436195717,-52672.49,-64605.105,-16400.758,-4252.9707,-16295.736,20371.258,13621.582,-7324.504
1395902.4401957127,-52676.473,-64610.477,-16402.467,-4257.528,-16297.608,20369.426,13624.35,-7315.2266
1395902.4441957085,-52686.523,-64615.48,-16404.744,-4258.2603,-16293.905,20369.223,13627.849,-7306.6
1395902.4481957043,-52684.57,-64616.09,-16399.822,-4251.587,-16292.807,20372.273,13626.059,-7309.7334
1395902.4521957003,-52683.555,-64615.97,-16397.543,-4246.053,-16294.108,20372.762,13621.176,-7319.133
1395902.456195696,-52688.64,-64611.86,-16399.578,-4246.2974,-16295.817,20371.053,13617.595,-7327.6367
1395902.4601956918,-52686.85,-64614.992,-16400.229,-4247.8843,-16293.498,20369.385,13620.361,-7321.411
1395902.4641956876,-52688.4,-64608.117,-16398.846,-4251.465,-16292.766,20366.902,13623.495,-7314.2905
1395902.4681956836,-52690.27,-64602.133,-16395.793,-4247.6807,-16293.58,20367.27,13621.46,-7318.197
1395902.4721956793,-52694.258,-64604.332,-16397.055,-4243.408,-16295.533,20366.375,13615.561,-7328.9795
1395902.476195675,-52698.367,-64604.21,-16400.188,-4243.8154,-16293.214,20364.096,13611.898,-7332.5195
1395902.4801956709,-52705.73,-64604.047,-16403.32,-4247.0703,-16294.3125,20362.793,13615.112,-7327.5146
1395902.4841956666,-52708.09,-64605.266,-16404.379,-4247.518,-16295.614,20361.898,13617.514,-7321.6147
1395902.4881956626,-52708.133,-64602.62,-16402.629,-4242.391,-16294.3125,20363.484,13616.455,-7323.242
1395902.4921956584,-52704.1,-64607.098,-16397.908,-4237.834,-16293.986,20363.078,13615.031,-7327.3115
1395902.4961956542,-52698.934,-64607.992,-16395.264,-4237.549,-16289.592,20361.98,13616.374,-7324.951
1395902.50019565,-52704.348,-64614.953,-16399.617,-4243.042,-16292.196,20358.602,13618.205,-7318.197
1395902.504195646,-52711.996,-64610.355,-16400.676,-4244.1406,-16293.539,20358.033,13618.083,-7312.866
1395902.5081956417,-52714.844,-64605.266,-16397.38,-4238.607,-16295.858,20361.287,13615.438,-7321.574
1395902.5121956374,-52717.367,-64608.24,-16397.787,-4233.5615,-16299.235,20362.996,13612.631,-7331.177
1395902.5161956332,-52719.035,-64611.574,-16400.229,-4235.1074,-16300.131,20362.305,13612.102,-7329.956
1395902.520195629,-52724.164,-64615.766,-16404.094,-4241.211,-16298.503,20359.13,13615.153,-7318.1562
1395902.524195625,-52728.027,-64614.953,-16404.094,-4241.699,-16298.381,20357.586,13618.408,-7311.7676
1395902.5281956207,-52729.617,-64612.266,-16400.635,-4236.6133,-16297.812,20361.857,13619.182,-7313.4766
1395902.5321956165,-52727.703,-64613.61,-16397.096,-4228.882,-16295.289,20365.602,13617.514,-7316.7725
1395902.5361956123,-52723.836,-64615.44,-16395.752,-4228.597,-16295.248,20364.46,13614.543,-7319.0107
1395902.5401956083,-52721.805,-64613.812,-16395.752,-4231.893,-16296.347,20361.98,13618.286,-7310.2217
1395902.544195604,-52725.098,-64612.59,-16395.916,-4233.2764,-16296.957,20361.736,13619.141,-7304.9316
1395902.5481955998,-52730.105,-64610.8,-16395.143,-4229.7773,-16301.026,20363.16,13617.392,-7309.6113
1395902.5521955956,-52739.91,-64624.516,-16395.71,-4227.9463,-16304.688,20362.672,13616.577,-7314.8193
1395902.5561955913,-52752.035,-64621.34,-16401.002,-4232.7476,-16302.735,20361.37,13617.065,-7316.162
1395902.5601955873,-52745.117,-64609.418,-16401.855,-4234.172,-16297.323,20358.725,13620.891,-7305.2573
1395902.564195583,-52734.297,-64596.195,-16403.809,-4233.9683,-16293.458,20357.38,13621.582,-7304.24
1395902.5681955789,-52733.36,-64594.2,-16404.582,-4231.893,-16294.027,20359.05,13616.903,-7313.2734
1395902.5721955746,-52742.066,-64593.266,-16404.908,-4228.801,-16295.533,20361.084,13611.9795,-7323.0796
1395902.5761955706,-52747.6,-64589.926,-16407.023,-4227.336,-16291.952,20359.416,13608.032,-7326.823
1395902.5801955664,-52750.125,-64585.86,-16409.424,-4228.8413,-16290.65,20356.975,13609.335,-7320.516
1395902.5841955622,-52748.17,-64588.22,-16407.47,-4230.998,-16289.755,20355.062,13612.183,-7316.976
1395902.588195558,-52750.816,-64598.43,-16405.926,-4229.8994,-16291.586,20355.836,13610.352,-7320.394
1395902.592195554,-52748.09,-64598.473,-16403.523,-4225.9116,-16293.864,20354.127,13605.388,-7329.6714
1395902.5961955497,-52748.375,-64595.543,-16405.682,-4227.417,-16296.062,20353.436,13602.946,-7332.4385
1395902.6001955455,-52759.156,-64605.266,-16409.547,-4232.3,-16295.411,20352.947,13606.283,-7322.673
1395902.6041955412,-52761.19,-64600.59,-16409.424,-4232.2593,-16293.905,20352.906,13609.253,-7319.2954
1395902.608195537,-52766.24,-64598.15,-16409.506,-4227.661,-16293.254,20353.68,13606.934,-7327.0264
1395902.612195533,-52770.633,-64609.824,-16408.65,-4223.2666,-16294.638,20354.33,13602.743,-7331.706
1395902.6161955288,-52770.996,-64607.63,-16409.668,-4224.04,-16299.195,20352.703,13602.743,-7329.875
1395902.6201955245,-52772.79,-64604.453,-16409.912,-4228.3125,-16299.684,20351.93,13605.347,-7318.8887
1395902.6241955203,-52772.098,-64603.64,-16408.732,-4229.248,-16300.741,20353.354,13609.579,-7313.68
1395902.6281955163,-52772.504,-64608.848,-16406.902,-4224.691,-16298.585,20355.104,13607.219,-7322.2656
1395902.632195512,-52778.117,-64609.867,-16407.512,-4221.395,-16298.869,20354.207,13603.109,-7330.2817
1395902.6361955078,-52783.082,-64608.523,-16410.889,-4223.5923,-16299.4795,20351.766,13601.889,-7331.014
1395902.6401955036,-52779.83,-64613.203,-16411.418,-4225.83,-16299.154,20350.79,13604.614,-7323.8525
1395902.6441954994,-52777.832,-64622.234,-16409.791,-4224.2026,-16296.794,20351.074,13606.649,-7319.702
1395902.6481954954,-52782.473,-64616.336,-16408.488,-4219.4014,-16302.491,20350.994,13602.743,-7325.8057
1395902.6521954911,-52784.953,-64612.715,-16407.105,-4214.5996,-16302.165,20351.562,13599.325,-7333.4556
1395902.656195487,-52785.566,-64611.004,-16407.553,-4215.6577,-16300.822,20350.383,13599.203,-7332.0312
1395902.6601954827,-52789.39,-64611.086,-16408.65,-4221.3545,-16301.515,20348.227,13601.034,-7322.754
1395902.6641954787,-52797.12,-64613.363,-16409.059,-4222.29,-16302.572,20348.756,13602.011,-7319.9463
1395902.6681954744,-52801.35,-64621.543,-16408.244,-4218.628,-16304.322,20352.947,13601.685,-7326.294
1395902.6721954702,-52802.816,-64619.223,-16407.146,-4214.803,-16302.45,20351.441,13597.168,-7336.3447
1395902.676195466,-52807.457,-64617.598,-16407.43,-4215.902,-16305.99,20350.83,13598.674,-7336.1816
1395902.6801954617,-52807.17,-64616.945,-16410.889,-4219.93,-16307.496,20348.836,13603.149,-7324.707
1395902.6841954577,-52806.152,-64621.46,-16413.9,-4221.2324,-16307.78,20347.332,13603.638,-7320.638
1395902.6881954535,-52806.234,-64624.105,-16411.865,-4216.024,-16306.112,20349.691,13604.33,-7322.551
1395902.6921954493,-52806.64,-64630.984,-16407.35,-4209.3506,-16305.177,20351.521,13602.011,-7328.166
1395902.696195445,-52807.863,-64627.65,-16407.35,-4210.8564,-16305.787,20351.277,13600.749,-7331.665
1395902.700195441,-52806.805,-64620.85,-16407.635,-4213.8267,-16303.752,20348.836,13604.94,-7322.876
1395902.7041954368,-52808.637,-64624.39,-16406.617,-4215.2915,-16303.386,20344.97,13603.964,-7318.2783
1395902.7081954326,-52809.816,-64624.84,-16403.85,-4210.775,-16305.909,20344.768,13599.772,-7323.9746
1395902.7121954283,-52811.973,-64620.65,-16403.768,-4203.9795,-16306.4375,20344.361,13595.907,-7331.5024
1395902.7161954243,-52813.64,-64623.414,-16404.623,-4204.4272,-16305.787,20342.326,13593.669,-7335.897
1395902.72019542,-52818.035,-64630.25,-16407.594,-4209.188,-16305.583,20339.64,13598.022,-7327.759
1395902.7241954159,-52821.656,-64630.168,-16410.156,-4212.199,-16310.019,20340.74,13600.83,-7325.4805
1395902.7281954116,-52820.723,-64629.844,-16406.535,-4205.77,-16307.862,20344.28,13599.976,-7331.218
1395902.7321954074,-52825.887,-64633.305,-16405.273,-4198.4053,-16308.351,20347.209,13596.518,-7339.2334
1395902.7361954034,-52829.67,-64633.63,-16408.244,-4198.8525,-16307.048,20343.67,13593.791,-7339.5186
1395902.7401953992,-52830.566,-64630.74,-16411.377,-4200.6025,-16308.839,20339.803,13592.855,-7335.653
1395902.744195395,-52831.098,-64631.066,-16410.97,-4202.0264,-16309.978,20340.943,13594.401,-7335.1646
1395902.7481953907,-52832.645,-64632.61,-16408.326,-4198.9746,-16311.524,20342.732,13593.954,-7342.489
1395902.7521953867,-52836.875,-64642.824,-16407.553,-4196.086,-16314.657,20342.855,13592.041,-7349.365
1395902.7561953824,-52843.465,-64647.22,-16411.377,-4198.4053,-16315.227,20340.088,13590.048,-7350.749
1395902.7601953782,-52847.453,-64650.027,-16413.86,-4200.6836,-16313.314,20338.664,13592.123,-7337.9316
1395902.764195374,-52854.902,-64655.316,-16415.486,-4202.108,-16318.6045,20338.582,13594.482,-7328.044
1395902.7681953697,-52855.67,-64652.426,-16412.639,-4198.4053,-16313.844,20337.81,13591.635,-7335.9785
1395902.7721953657,-52852.215,-64643.15,-16409.22,-4191.854,-16317.506,20338.299,13588.176,-7344.686
1395902.7761953615,-52850.3,-64634.035,-16411.377,-4189.8193,-16319.987,20337.688,13587.769,-7344.1978
1395902.7801953573,-52855.43,-64638.31,-16416.139,-4197.51,-16320.476,20335.125,13589.844,-7338.135
1395902.784195353,-52860.965,-64637.777,-16417.4,-4200.399,-16318.93,20333.496,13590.129,-7332.4385
1395902.788195349,-52863.242,-64641.277,-16415.365,-4198.4863,-16319.54,20334.025,13585.571,-7340.454
1395902.7921953448,-52873.25,-64639.367,-16412.477,-4194.621,-16320.639,20336.793,13581.584,-7347.453
1395902.7961953406,-52880.293,-64636.19,-16414.104,-4194.702,-16322.633,20337.525,13581.909,-7346.029
1395902.8001953363,-52884.93,-64638.633,-16417.766,-4199.178,-16324.626,20334.432,13585.368,-7338.2163
1395902.804195332,-52889.57,-64647.504,-16420.654,-4200.277,-16326.701,20333.62,13587.973,-7333.822
1395902.808195328,-52891.277,-64644.9,-16420.086,-4197.347,-16327.271,20334.637,13584.677,-7342.489
1395902.8121953239,-52895.305,-64642.094,-16420.207,-4193.4814,-16327.556,20335.857,13582.886,-7348.5923
1395902.8161953196,-52899.984,-64647.383,-16424.031,-4194.906,-16328.776,20335.084,13583.659,-7345.744
1395902.8201953154,-52903.28,-64646.242,-16426.107,-4197.632,-16329.509,20334.188,13587.851,-7336.548
1395902.8241953114,-52904.5,-64641.645,-16425.496,-4196.8184,-16328.329,20334.92,13591.96,-7330.6074
1395902.8281953072,-52906.453,-64642.05,-16423.625,-4195.638,-16328.288,20335.896,13588.745,-7334.758
1395902.832195303,-52913.7,-64648.6,-16423.504,-4192.9526,-16332.602,20334.676,13584.311,-7343.3027
1395902.8361952987,-52917.402,-64649.906,-16424.846,-4191.4473,-16331.666,20333.74,13586.467,-7343.913
1395902.8401952945,-52919.434,-64649.54,-16426.637,-4194.0107,-16330.567,20332.234,13589.4375,-7334.5947
1395902.8441952905,-52921.715,-64649.336,-16428.143,-4195.7603,-16331.259,20331.87,13587.81,-7330.3223
1395902.8481952862,-52921.957,-64646.242,-16425.781,-4194.377,-16335.694,20333.21,13584.066,-7334.6357
1395902.852195282,-52922.934,-64650.395,-16423.992,-4191.8135,-16337.973,20333.984,13579.956,-7344.0757
1395902.8561952778,-52923.625,-64643.027,-16424.275,-4194.1733,-16335.531,20331.543,13580.566,-7343.1396
1395902.8601952738,-52930.95,-64628.137,-16425.252,-4196.208,-16334.962,20331.219,13585.653,-7332.0312
1395902.8641952695,-52937.176,-64635.258,-16427.246,-4194.824,-16332.968,20330.73,13586.142,-7330.0376
1395902.8681952653,-52939.414,-64645.754,-16425.701,-4189.6973,-16334.025,20332.479,13584.514,-7338.135
1395902.872195261,-52943.562,-64645.59,-16424.031,-4185.0586,-16335.734,20333.416,13580.363,-7344.4014
1395902.876195257,-52946.086,-64641.277,-16424.113,-4187.4595,-16334.474,20330.852,13580.241,-7343.1807
1395902.8801952528,-52950.562,-64641.074,-16425.334,-4191.4062,-16333.781,20330.852,13586.345,-7331.6245
1395902.8841952486,-52953.086,-64641.156,-16425.863,-4192.2607,-16333.049,20329.63,13591.269,-7321.737
1395902.8881952444,-52949.79,-64639.652,-16425.008,-4186.157,-16335.45,20331.584,13590.536,-7325.155
1395902.8921952401,-52950.727,-64634.28,-16424.805,-4181.7627,-16337.647,20333.943,13585.368,-7338.7046
1395902.8961952361,-52952.477,-64631.918,-16427.734,-4182.292,-16336.02,20331.34,13583.903,-7336.548
1395902.900195232,-52952.637,-64638.918,-16427.125,-4184.4077,-16337.118,20329.266,13587.28,-7326.66
1395902.9041952277,-52956.22,-64644.207,-16426.473,-4186.7676,-16337.118,20329.957,13588.095,-7325.8057
1395902.9081952234,-52960.574,-64644.168,-16425.172,-4184.774,-16339.4375,20331.014,13585.449,-7332.845
1395902.9121952194,-52962.402,-64642.01,-16426.352,-4180.8677,-16345.826,20328.777,13579.834,-7342.6924
1395902.9161952152,-52960.695,-64642.215,-16429.525,-4182.17,-16347.331,20327.148,13578.695,-7344.808
1395902.920195211,-52966.35,-64641.887,-16435.385,-4186.361,-16349.447,20325.562,13581.584,-7338.542
1395902.9241952067,-52982.91,-64651.574,-16441.895,-4193.441,-16357.057,20327.678,13584.636,-7332.9673
1395902.9281952025,-52983.848,-64661.625,-16442.303,-4192.098,-16362.346,20331.746,13583.822,-7338.7046
1395902.9321951985,-52964.113,-64641.887,-16435.75,-4181.7627,-16358.603,20332.887,13579.794,-7343.9536
1395902.9361951943,-52953.777,-64630.293,-16433.27,-4180.2573,-16358.399,20330.607,13576.62,-7342.5703
1395902.94019519,-52954.184,-64631.51,-16436.28,-4185.588,-16360.108,20329.143,13579.916,-7334.839
1395902.9441951858,-52960.043,-64644.25,-16438.07,-4186.7676,-16362.428,20329.63,13585.043,-7327.596
1395902.9481951818,-52958.133,-64640.547,-16433.514,-4181.926,-16364.381,20330.77,13581.787,-7333.74
1395902.9521951776,-52964.766,-64643.68,-16434.611,-4179.9316,-16367.351,20331.625,13577.434,-7344.157
1395902.9561951733,-52966.555,-64645.184,-16437.215,-4181.1523,-16370.402,20329.754,13576.945,-7345.703
1395902.960195169,-52972.453,-64650.11,-16442.342,-4187.5815,-16371.217,20328.29,13581.462,-7336.1816
1395902.9641951649,-52972.74,-64638.754,-16441.61,-4186.9307,-16368.693,20329.346,13586.06,-7326.9453
1395902.9681951609,-52967.367,-64624.35,-16439.738,-4182.8613,-16367.066,20331.055,13584.514,-7329.468
1395902.9721951566,-52966.758,-64620.77,-16438.844,-4177.6123,-16367.188,20333.822,13581.259,-7335.246
1395902.9761951524,-52971.68,-64617.883,-16442.139,-4178.2227,-16368.571,20333.008,13582.072,-7334.2285
1395902.9801951481,-52975.63,-64614.3,-16445.354,-4180.705,-16366.496,20330.486,13585.734,-7322.4287
1395902.9841951441,-52980.918,-64613.285,-16445.924,-4185.6284,-16366.171,20330.486,13588.013,-7317.424
1395902.98819514,-52981.0,-64616.008,-16445.68,-4183.1465,-16367.392,20332.967,13585.9375,-7323.8936
1395902.9921951357,-52983.074,-64615.113,-16446.209,-4176.677,-16369.304,20335.205,13584.514,-7328.6133
1395902.9961951314,-52987.875,-64616.09,-16449.342,-4178.304,-16368.531,20335.45,13587.158,-7324.0967
1395903.0001951272,-52986.086,-64608.24,-16450.562,-4181.7627,-16363.852,20334.066,13591.635,-7312.663
1395903.0041951232,-52987.875,-64605.188,-16452.557,-4183.5127,-16363.7295,20332.602,13593.872,-7313.0293
1395903.008195119,-52989.543,-64600.26,-16453.125,-4181.1934,-16364.462,20334.84,13592.489,-7319.6616
1395903.0121951147,-52991.902,-64595.01,-16454.102,-4177.4497,-16366.537,20336.06,13590.82,-7325.6836
1395903.0161951105,-52995.04,-64593.426,-16456.34,-4179.647,-16368.287,20335.613,13591.919,-7321.6147
1395903.0201951065,-52997.07,-64593.793,-16459.229,-4183.838,-16367.758,20333.66,13595.297,-7311.361
1395903.0241951023,-53001.59,-64598.066,-16460.734,-4184.8555,-16367.473,20334.066,13598.063,-7308.0244
1395903.028195098,-53010.215,-64601.2,-16458.984,-4181.478,-16365.072,20336.223,13594.32,-7316.6504
1395903.0321950938,-53015.098,-64593.508,-16457.684,-4176.5137,-16364.381,20338.135,13592.204,-7323.2017
1395903.0361950898,-53024.375,-64590.008,-16462.037,-4179.769,-16363.566,20338.014,13592.978,-7319.58
1395903.0401950856,-53030.234,-64584.8,-16466.553,-4184.0415,-16362.509,20335.613,13593.588,-7311.5234
1395903.0441950813,-53039.797,-64593.547,-16467.814,-4186.483,-16364.299,20335.531,13595.134,-7309.4893
1395903.048195077,-53043.54,-64598.473,-16466.105,-4182.658,-16364.543,20339.314,13592.529,-7317.5864
1395903.0521950729,-53041.098,-64600.71,-16465.17,-4178.304,-16364.584,20339.6,13587.891,-7326.335
1395903.0561950689,-53045.82,-64601.32,-16469.076,-4180.1353,-16369.223,20335.37,13585.124,-7329.875
1395903.0601950646,-53056.277,-64599.246,-16471.844,-4185.466,-16367.595,20335.408,13588.379,-7320.028
1395903.0641950604,-53061.484,-64603.11,-16475.342,-4188.68,-16367.758,20335.043,13591.146,-7314.9414
1395903.0681950562,-53065.43,-64603.926,-16476.686,-4186.6455,-16369.589,20336.873,13589.844,-7318.197
1395903.0721950522,-53066.855,-64604.453,-16476.115,-4182.2104,-16373.414,20338.99,13588.013,-7325.277
1395903.076195048,-53077.23,-64610.68,-16478.516,-4184.4893,-16375.163,20337.443,13587.81,-7326.335
1395903.0801950437,-53089.684,-64611.613,-16482.463,-4186.727,-16374.757,20336.955,13594.116,-7315.8774
1395903.0841950395,-53097.37,-64610.72,-16483.725,-4188.6396,-16375.204,20338.502,13599.772,-7309.652
1395903.0881950352,-53100.383,-64611.492,-16485.23,-4186.7676,-16378.378,20339.723,13597.575,-7315.959
1395903.0921950312,-53102.95,-64613.12,-16485.596,-4182.2104,-16380.168,20340.7,13591.513,-7326.6196
1395903.096195027,-53106.527,-64615.156,-16485.76,-4182.821,-16381.063,20339.355,13591.472,-7327.108
1395903.1001950228,-53116.17,-64621.016,-16489.99,-4188.843,-16382.406,20336.955,13594.157,-7314.575
1395903.1041950185,-53122.887,-64622.074,-16492.596,-4191.976,-16381.674,20336.873,13595.459,-7309.326
1395903.1081950145,-53124.434,-64622.97,-16491.984,-4187.378,-16382.203,20337.078,13591.146,-7320.5977
1395903.1121950103,-53124.637,-64624.96,-16493.693,-4183.1465,-16383.871,20335.408,13586.182,-7331.6245
1395903.116195006,-53125.855,-64619.875,-16492.879,-4182.048,-16383.952,20334.393,13584.473,-7330.9736
1395903.1201950018,-53128.34,-64615.195,-16495.646,-4188.2734,-16386.19,20333.984,13589.111,-7319.214
1395903.1241949976,-53134.645,-64618.9,-16498.535,-4192.098,-16386.76,20334.148,13592.163,-7312.541
1395903.1281949936,-53138.105,-64619.184,-16496.46,-4186.198,-16385.906,20334.352,13587.646,-7323.6494
1395903.1321949894,-53138.184,-64622.03,-16496.053,-4179.769,-16388.104,20333.496,13581.462,-7334.7983
1395903.1361949851,-53142.05,-64619.266,-16499.188,-4180.949,-16387.695,20332.195,13578.817,-7339.1113
1395903.140194981,-53147.625,-64616.824,-16501.75,-4185.7505,-16387.41,20329.51,13581.665,-7329.183
1395903.144194977,-53152.832,-64623.66,-16504.11,-4186.9307,-16387.41,20329.346,13583.252,-7325.6836
1395903.1481949727,-53149.902,-64628.95,-16503.5,-4183.879,-16389.242,20328.98,13580.363,-7332.601
1395903.1521949684,-53149.984,-64633.63,-16501.912,-4179.24,-16389.445,20329.102,13578.003,-7341.39
1395903.1561949642,-53153.77,-64636.234,-16503.338,-4179.3623,-16389.324,20329.102,13576.864,-7340.8203
1395903.1601949602,-53157.88,-64630.09,-16505.209,-4182.373,-16387.29,20327.719,13579.468,-7333.2114
1395903.164194956,-53155.965,-64624.88,-16503.297,-4181.234,-16383.098,20328.94,13581.665,-7326.782
1395903.1681949517,-53151.652,-64630.008,-16501.547,-4176.3105,-16382.406,20330.73,13581.665,-7325.765
1395903.1721949475,-53151.613,-64626.1,-16503.256,-4172.8516,-16383.261,20331.178,13581.381,-7327.0674
1395903.1761949433,-53152.754,-64621.176,-16507.08,-4174.3574,-16381.877,20330.037,13582.275,-7325.8467
1395903.1801949393,-53158.043,-64622.355,-16508.465,-4178.996,-16381.063,20328.29,13584.229,-7320.272
1395903.184194935,-53161.46,-64620.812,-16510.295,-4182.129,-16380.046,20327.027,13587.199,-7311.035
1395903.1881949308,-53161.055,-64617.72,-16508.871,-4177.6123,-16381.471,20328.816,13585.449,-7314.372
1395903.1921949266,-53162.438,-64622.887,-16510.377,-4172.7295,-16382.569,20330.12,13582.194,-7320.6787
1395903.1961949226,-53168.254,-64627.035,-16515.748,-4177.816,-16386.354,20328.125,13579.062,-7322.632
1395903.2001949183,-53170.777,-64618.9,-16515.178,-4179.1587,-16384.93,20329.63,13584.188,-7313.07
1395903.204194914,-53174.766,-64622.562,-16515.34,-4178.3857,-16384.156,20330.77,13590.373,-7304.3213
1395903.2081949099,-53179.61,-64624.473,-16515.463,-4175.863,-16386.76,20330.322,13590.21,-7309.53
1395903.2121949056,-53183.473,-64621.137,-16514.363,-4170.736,-16388.836,20330.363,13586.467,-7315.3076
1395903.2161949016,-53188.6,-64619.426,-16517.457,-4169.4336,-16387.127,20329.957,13585.653,-7315.1045
1395903.2201948974,-53197.31,-64622.723,-16519.41,-4174.642,-16385.418,20330.281,13589.03,-7305.542
1395903.2241948931,-53200.32,-64626.75,-16519.125,-4177.409,-16386.395,20329.63,13595.663,-7300.049
1395903.228194889,-53198.0,-64626.59,-16519.287,-4173.055,-16386.719,20330.852,13594.401,-7304.769
1395903.232194885,-53197.062,-64621.055,-16518.31,-4166.301,-16386.76,20332.316,13589.315,-7311.7676
1395903.2361948807,-53196.656,-64629.355,-16518.637,-4169.271,-16390.625,20330.69,13589.396,-7307.9023
1395903.2401948764,-53196.656,-64633.63,-16521.363,-4171.916,-16392.049,20330.486,13593.994,-7295.532
1395903.2441948722,-53197.918,-64634.035,-16522.258,-4172.445,-16391.56,20331.34,13597.697,-7290.4053
1395903.248194868,-53207.645,-64639.652,-16525.146,-4171.672,-16392.498,20332.154,13595.459,-7300.4966
1395903.252194864,-53214.766,-64642.01,-16525.514,-4168.1724,-16392.498,20332.154,13590.536,-7309.245
1395903.2561948597,-53218.26,-64642.215,-16529.908,-4169.4336,-16393.799,20328.492,13589.682,-7311.239
1395903.2601948555,-53227.418,-64641.4,-16531.006,-4171.753,-16394.94,20328.37,13594.6455,-7301.595
1395903.2641948513,-53235.11,-64647.992,-16534.627,-4175.09,-16396.893,20326.783,13593.466,-7300.049
1395903.2681948473,-53236.777,-64647.465,-16536.703,-4170.9395,-16398.438,20328.084,13587.606,-7307.414
1395903.272194843,-53236.086,-64648.6,-16534.059,-4165.8125,-16400.514,20328.816,13582.031,-7314.901
1395903.2761948388,-53235.8,-64652.02,-16533.773,-4164.3066,-16401.043,20326.54,13583.212,-7311.6865
1395903.2801948346,-53244.71,-64655.195,-16537.436,-4169.5967,-16404.012,20327.516,13590.454,-7300.863
1395903.2841948303,-53257.406,-64651.652,-16543.213,-4174.1133,-16406.697,20326.986,13591.838,-7297.689
1395903.2881948263,-53251.344,-64639.285,-16543.742,-4168.6606,-16405.885,20326.092,13585.815,-7307.9023
1395903.292194822,-53249.27,-64639.73,-16545.492,-4160.604,-16407.512,20328.29,13582.031,-7314.372
1395903.2961948179,-53251.793,-64637.21,-16547.81,-4159.79,-16406.617,20326.58,13581.828,-7313.2734
1395903.3001948136,-53251.914,-64634.035,-16550.701,-4163.493,-16404.785,20324.3,13584.025,-7307.7803
1395903.3041948096,-53259.24,-64641.766,-16553.102,-4166.219,-16405.844,20323.895,13584.636,-7305.0537
1395903.3081948054,-53261.516,-64640.79,-16554.12,-4163.005,-16409.18,20325.115,13580.7705,-7309.9365
1395903.3121948012,-53258.586,-64637.492,-16551.555,-4158.4067,-16409.871,20325.48,13577.881,-7317.668
1395903.316194797,-53262.41,-64635.785,-16552.857,-4158.895,-16407.838,20323.854,13577.963,-7316.5693
1395903.320194793,-53267.254,-64634.36,-16554.443,-4162.313,-16409.588,20322.469,13580.933,-7303.5483
1395903.3241947887,-53271.527,-64641.277,-16556.926,-4166.301,-16413.33,20322.266,13584.311,-7295.7764
1395903.3281947845,-53273.805,-64651.652,-16556.479,-4166.26,-16415.447,20324.586,13582.724,-7300.9033
1395903.3321947802,-53274.254,-64652.062,-16555.176,-4162.4756,-16419.027,20325.887,13581.503,-7308.065
1395903.336194776,-53271.2,-64649.54,-16557.537,-4161.662,-16418.254,20327.271,13584.921,-7307.414
1395903.340194772,-53267.254,-64647.83,-16560.547,-4163.249,-16414.754,20327.312,13591.879,-7297.119
1395903.3441947678,-53271.973,-64642.742,-16563.03,-4166.504,-16415.527,20325.562,13592.692,-7291.504
1395903.3481947635,-53276.492,-64644.94,-16562.623,-4164.592,-16418.01,20326.295,13589.233,-7295.6953
1395903.3521947593,-53279.785,-64646.73,-16561.32,-4160.5635,-16421.143,20327.23,13585.368,-7304.4434
1395903.3561947553,-53282.96,-64646.0,-16561.32,-4159.831,-16423.91,20328.084,13587.851,-7301.4326
1395903.360194751,-53284.59,-64641.81,-16562.176,-4162.4756,-16421.346,20329.143,13590.21,-7294.5557
1395903.3641947468,-53283.773,-64641.24,-16564.209,-4161.662,-16418.295,20329.305,13590.129,-7291.7075
1395903.3681947426,-53288.86,-64645.1,-16566.0,-4159.2207,-16422.363,20329.549,13589.641,-7293.579
1395903.3721947384,-53291.992,-64645.145,-16563.6,-4155.6396,-16424.072,20329.754,13588.501,-7298.462
1395903.3761947344,-53293.133,-64640.098,-16563.314,-4156.047,-16423.016,20328.045,13589.396,-7299.3574
1395903.3801947301,-53298.3,-64645.062,-16567.791,-4161.9062,-16422.69,20326.172,13593.994,-7291.0156
1395903.384194726,-53302.043,-64648.6,-16569.459,-4165.202,-16424.602,20326.66,13596.965,-7287.842
1395903.3881947217,-53296.59,-64642.785,-16568.36,-4159.3833,-16425.62,20329.06,13596.721,-7289.9985
1395903.3921947177,-53289.676,-64635.746,-16567.342,-4154.7446,-16428.834,20332.154,13594.482,-7293.254
1395903.3961947134,-53285.973,-64632.61,-16569.459,-4154.8667,-16429.2,20332.643,13592.978,-7293.701
1395903.4001947092,-53288.656,-64635.703,-16573.69,-4158.366,-16428.914,20330.525,13595.419,-7285.36
1395903.404194705,-53295.41,-64639.12,-16575.398,-4161.2144,-16430.34,20331.258,13599.609,-7276.8965
1395903.4081947007,-53300.008,-64642.01,-16573.73,-4158.773,-16434.57,20331.99,13598.186,-7283.0405
1395903.4121946967,-53299.645,-64633.305,-16572.469,-4152.588,-16435.303,20331.707,13593.466,-7288.452
1395903.4161946925,-53304.402,-64632.61,-16575.725,-4154.948,-16437.867,20329.754,13592.733,-7288.574
1395903.4201946883,-53307.66,-64638.918,-16579.63,-4161.0107,-16438.924,20329.346,13597.087,-7280.5586
1395903.424194684,-53306.926,-64646.527,-16580.975,-4162.7607,-16438.477,20329.875,13598.063,-7276.4487
1395903.42819468,-53311.65,-64654.83,-16582.031,-4159.6274,-16442.059,20330.77,13593.994,-7282.634
1395903.4321946758,-53311.445,-64656.902,-16581.258,-4154.907,-16444.865,20331.137,13589.844,-7292.684
1395903.4361946716,-53313.965,-64655.684,-16583.537,-4156.25,-16447.307,20328.898,13589.315,-7295.41
1395903.4401946673,-53314.902,-64659.59,-16586.752,-4161.3364,-16447.55,20329.59,13594.768,-7283.529
1395903.4441946633,-53310.344,-64661.055,-16588.46,-4163.493,-16447.062,20331.34,13596.924,-7278.3203
1395903.448194659,-53308.027,-64659.547,-16587.77,-4159.587,-16447.307,20331.787,13594.687,-7285.034
1395903.4521946548,-53310.426,-64653.688,-16585.652,-4154.5005,-16450.398,20331.746,13590.251,-7292.7246
1395903.4561946506,-53308.637,-64651.9,-16586.508,-4152.2627,-16449.748,20331.055,13590.658,-7293.9453
1395903.4601946464,-53306.97,-64652.59,-16590.21,-4158.8135,-16448.242,20330.77,13597.331,-7280.1924
1395903.4641946424,-53306.64,-64648.848,-16593.059,-4160.6855,-16444.865,20330.363,13599.976,-7277.507
1395903.4681946381,-53312.867,-64650.312,-16595.135,-4158.4883,-16449.26,20330.648,13595.541,-7285.482
1395903.472194634,-53313.477,-64653.04,-16595.623,-4155.1514,-16452.8,20332.684,13589.804,-7293.335
1395903.4761946297,-53310.1,-64654.504,-16597.291,-4155.3145,-16454.834,20330.934,13588.42,-7293.457
1395903.4801946257,-53306.03,-64655.195,-16600.871,-4160.3193,-16454.834,20326.904,13591.716,-7284.1797
1395903.4841946214,-53312.094,-64658.367,-16603.068,-4164.388,-16456.543,20324.219,13594.687,-7279.7446
1395903.4881946172,-53315.84,-64664.758,-16601.848,-4161.8247,-16456.666,20329.021,13594.89,-7283.1626
1395903.492194613,-53314.7,-64669.152,-16600.668,-4156.657,-16458.455,20330.322,13591.146,-7289.4287
1395903.4961946087,-53314.656,-64664.27,-16602.783,-4157.6743,-16461.914,20328.004,13589.355,-7290.324
1395903.5001946047,-53317.26,-64665.812,-16604.574,-4162.964,-16463.014,20325.807,13594.198,-7278.28
1395903.5041946005,-53322.062,-64669.76,-16605.713,-4165.487,-16465.74,20324.748,13598.389,-7271.8506
1395903.5081945963,-53320.56,-64668.46,-16603.68,-4158.6914,-16469.361,20326.945,13596.762,-7276.5303
1395903.512194592,-53318.24,-64672.61,-16601.156,-4152.2217,-16468.344,20328.898,13592.367,-7287.0283
1395903.516194588,-53313.07,-64672.445,-16600.342,-4154.1343,-16464.07,20326.66,13590.942,-7290.1206
1395903.5201945838,-53315.918,-64670.332,-16603.842,-4157.3896,-16465.088,20325.154,13593.994,-7279.5005
1395903.5241945796,-53320.312,-64677.9,-16605.55,-4160.8887,-16466.838,20324.545,13596.721,-7276.571
1395903.5281945753,-53324.22,-64686.65,-16605.389,-4158.0,-16470.174,20327.23,13594.89,-7282.837
1395903.532194571,-53322.715,-64682.984,-16605.51,-4154.6226,-16470.297,20329.428,13590.617,-7293.254
1395903.536194567,-53315.188,-64675.05,-16604.29,-4155.355,-16468.344,20329.51,13587.891,-7294.8813
1395903.5401945629,-53320.64,-64678.996,-16606.854,-4159.9937,-16468.588,20327.8,13590.414,-7288.9
1395903.5441945586,-53325.277,-64685.914,-16606.73,-4162.191,-16470.256,20326.742,13595.053,-7280.111
1395903.5481945544,-53330.895,-64687.055,-16605.957,-4158.9766,-16470.582,20327.84,13593.466,-7283.8545
1395903.5521945504,-53336.59,-64687.258,-16604.004,-4154.0527,-16467.57,20332.316,13590.942,-7290.6904
1395903.5561945462,-53337.65,-64691.164,-16603.475,-4155.355,-16470.582,20333.008,13592.489,-7288.2896
1395903.560194542,-53339.52,-64688.684,-16604.818,-4158.6914,-16475.098,20332.275,13599.609,-7277.751
1395903.5641945377,-53341.23,-64688.805,-16607.342,-4159.465,-16477.01,20332.154,13602.499,-7272.461
1395903.5681945335,-53336.305,-64690.84,-16608.684,-4157.2676,-16476.807,20333.578,13599.691,-7274.9434
1395903.5721945295,-53331.22,-64694.094,-16609.66,-4152.873,-16477.377,20335.002,13594.971,-7283.6104
1395903.5761945252,-53334.19,-64698.734,-16611.125,-4154.216,-16478.516,20333.578,13592.8955,-7287.5977
1395903.580194521,-53340.13,-64692.875,-16613.81,-4158.244,-16477.703,20334.31,13597.616,-7278.9307
1395903.5841945168,-53347.25,-64694.867,-16615.438,-4159.668,-16479.94,20336.834,13600.464,-7275.676
1395903.5881945128,-53343.344,-64692.875,-16612.996,-4153.3613,-16476.197,20338.705,13598.186,-7279.6226
1395903.5921945085,-53330.934,-64687.867,-16610.596,-4147.705,-16475.424,20338.826,13593.466,-7288.005
1395903.5961945043,-53331.465,-64689.13,-16611.98,-4149.536,-16481.201,20336.223,13589.6,-7291.748
1395903.6001945,-53330.77,-64688.273,-16612.02,-4154.2563,-16476.645,20332.684,13591.635,-7282.878
1395903.604194496,-53330.324,-64685.754,-16611.94,-4155.6396,-16472.656,20333.375,13595.744,-7273.153
1395903.6081944918,-53338.543,-64694.176,-16614.014,-4154.216,-16475.586,20335.205,13594.89,-7278.076
1395903.6121944876,-53338.586,-64695.926,-16611.775,-4149.3735,-16476.97,20337.361,13591.716,-7286.784
1395903.6161944834,-53339.6,-64694.418,-16612.752,-4148.519,-16476.277,20336.264,13590.129,-7289.592
1395903.6201944791,-53344.363,-64695.316,-16615.723,-4154.541,-16475.139,20332.887,13589.152,-7283.203
1395903.6241944751,-53341.758,-64690.84,-16615.072,-4154.826,-16476.766,20332.234,13591.797,-7277.995
1395903.628194471,-53339.97,-64686.363,-16614.502,-4149.048,-16479.33,20332.643,13589.926,-7281.6978
1395903.6321944667,-53336.266,-64680.137,-16613.607,-4146.159,-16476.686,20332.684,13585.327,-7289.4287
1395903.6361944624,-53330.65,-64673.832,-16616.252,-4145.996,-16475.506,20333.496,13582.927,-7293.254
1395903.6401944584,-53333.62,-64673.504,-16621.623,-4152.059,-16477.215,20332.887,13586.548,-7284.912
1395903.6441944542,-53338.38,-64684.367,-16624.105,-4157.715,-16479.29,20333.943,13591.675,-7277.181
1395903.64819445,-53337.973,-64681.684,-16620.076,-4156.535,-16478.924,20337.81,13593.059,-7279.5005
1395903.6521944457,-53334.72,-64679.04,-16618.205,-4151.4487,-16480.713,20339.111,13591.513,-7285.726
1395903.6561944415,-53338.91,-64682.293,-16622.355,-4152.7915,-16480.592,20335.979,13591.064,-7284.9937
1395903.6601944375,-53345.137,-64683.72,-16625.896,-4158.244,-16481.283,20336.467,13596.3955,-7275.757
1395903.6641944333,-53348.39,-64680.668,-16626.14,-4159.8716,-16480.51,20337.973,13599.569,-7271.9727
1395903.668194429,-53347.535,-64681.195,-16625.164,-4156.7793,-16483.44,20337.322,13597.128,-7275.5537
1395903.6721944248,-53343.793,-64677.613,-16624.268,-4151.8555,-16484.457,20338.908,13594.401,-7280.111
1395903.6761944208,-53338.258,-64675.785,-16624.105,-4149.7397,-16482.83,20340.252,13596.436,-7278.3203
1395903.6801944165,-53341.637,-64671.88,-16626.385,-4153.3203,-16484.742,20340.008,13602.661,-7268.514
1395903.6841944123,-53342.652,-64674.113,-16627.97,-4154.7446,-16483.398,20342.123,13604.777,-7264.8115
1395903.688194408,-53346.723,-64675.742,-16627.441,-4153.4424,-16486.898,20343.994,13603.271,-7269.45
1395903.6921944038,-53346.926,-64674.562,-16626.668,-4150.3906,-16490.764,20344.28,13599.895,-7278.4424
1395903.6961943998,-53347.414,-64671.105,-16626.75,-4151.693,-16492.27,20346.03,13600.627,-7275.3906
1395903.7001943956,-53352.5,-64676.15,-16630.047,-4157.1455,-16493.816,20345.826,13603.638,-7266.8867
1395903.7041943914,-53352.01,-64689.09,-16631.389,-4159.5054,-16492.555,20346.111,13606.12,-7264.038
1395903.7081943871,-53353.395,-64692.63,-16632.65,-4155.8433,-16493.002,20348.836,13607.341,-7263.957
1395903.7121943831,-53351.605,-64690.31,-16631.756,-4149.9023,-16494.588,20351.238,13603.882,-7268.677
1395903.716194379,-53352.54,-64686.73,-16630.127,-4149.984,-16493.979,20349.812,13601.889,-7269.043
1395903.7201943747,-53356.367,-64682.66,-16631.795,-4154.46,-16494.914,20348.756,13606.12,-7257.2837
1395903.7241943704,-53359.66,-64678.59,-16634.156,-4156.6978,-16495.117,20346.477,13606.039,-7256.714
1395903.7281943664,-53361.004,-64678.67,-16632.447,-4152.2217,-16495.729,20347.291,13602.865,-7264.282
1395903.7321943622,-53361.25,-64675.336,-16631.062,-4145.752,-16497.152,20347.941,13599.609,-7267.009
1395903.736194358,-53360.516,-64669.844,-16629.273,-4143.0664,-16493.164,20348.836,13601.034,-7263.021
1395903.7401943537,-53363.895,-64672.367,-16629.314,-4146.7695,-16494.385,20348.47,13604.248,-7256.633
1395903.7441943495,-53371.95,-64678.305,-16632.0,-4152.0996,-16495.32,20347.941,13607.422,-7252.9707
1395903.7481943455,-53369.67,-64675.66,-16629.273,-4148.1934,-16491.62,20350.709,13608.032,-7254.1914
1395903.7521943413,-53368.37,-64668.95,-16626.791,-4141.805,-16490.805,20353.557,13604.777,-7258.3823
1395903.756194337,-53369.062,-64666.914,-16626.994,-4142.5376,-16493.043,20354.29,13602.783,-7261.9224
1395903.7601943328,-53368.938,-64670.86,-16628.744,-4147.99,-16494.67,20353.924,13606.161,-7253.4995
1395903.7641943288,-53367.8,-64673.42,-16629.72,-4151.693,-16495.443,20353.557,13607.626,-7251.18
1395903.7681943246,-53360.68,-64673.22,-16629.639,-4147.217,-16496.99,20356.201,13606.323,-7256.2256
1395903.7721943203,-53364.34,-64669.395,-16633.545,-4142.212,-16498.17,20358.684,13600.098,-7265.0557
1395903.776194316,-53367.8,-64662.438,-16639.771,-4144.328,-16501.059,20357.586,13595.988,-7270.874
1395903.7801943119,-53365.93,-64655.887,-16642.945,-4149.7397,-16502.97,20356.324,13596.518,-7265.259
1395903.7841943079,-53367.555,-64657.23,-16645.467,-4154.419,-16506.307,20354.248,13597.616,-7260.7017
1395903.7881943036,-53372.56,-64655.4,-16646.2,-4152.9136,-16513.348,20356.16,13598.227,-7262.8174
1395903.7921942994,-53381.227,-64654.34,-16647.705,-4150.879,-16516.277,20360.555,13596.68,-7265.096
1395903.7961942952,-53367.35,-64649.7,-16644.451,-4150.35,-16516.072,20361.287,13595.622,-7262.899
1395903.8001942912,-53352.5,-64634.77,-16641.887,-4150.757,-16512.451,20359.13,13598.022,-7255.6562
1395903.804194287,-53357.63,-64632.203,-16643.84,-4153.6865,-16512.533,20355.998,13598.959,-7248.3726
1395903.8081942827,-53357.75,-64632.816,-16645.184,-4152.0996,-16512.451,20356.404,13597.128,-7252.9707
1395903.8121942785,-53352.746,-64628.746,-16647.99,-4151.2046,-16513.184,20358.277,13593.547,-7261.7188
1395903.8161942742,-53352.664,-64622.03,-16650.432,-4152.629,-16514.04,20358.562,13592.978,-7262.329
1395903.8201942702,-53350.18,-64618.656,-16651.57,-4155.884,-16514.648,20358.928,13595.825,-7254.2725
1395903.824194266,-53350.305,-64623.496,-16653.2,-4159.79,-16516.602,20359.05,13597.494,-7251.75
1395903.8281942618,-53346.316,-64618.41,-16651.57,-4155.8433,-16514.648,20362.06,13595.947,-7256.836
1395903.8321942575,-53346.273,-64607.707,-16651.652,-4150.9604,-16515.26,20362.508,13592.163,-7262.9805
1395903.8361942535,-53348.633,-64603.926,-16654.623,-4152.873,-16513.021,20360.148,13589.885,-7262.9395
1395903.8401942493,-53343.875,-64596.234,-16659.18,-4159.139,-16509.521,20358.48,13591.024,-7255.7783
1395903.844194245,-53344.688,-64591.35,-16660.727,-4163.656,-16509.36,20359.05,13591.024,-7251.465
1395903.8481942408,-53341.555,-64596.03,-16662.068,-4161.418,-16510.824,20359.334,13587.402,-7260.783
1395903.8521942366,-53338.707,-64602.785,-16663.371,-4157.0234,-16510.906,20361.613,13584.27,-7270.671
1395903.8561942326,-53336.305,-64600.87,-16663.697,-4155.8433,-16510.295,20362.916,13585.205,-7270.223
1395903.8601942284,-53336.875,-64595.297,-16665.527,-4160.4004,-16508.139,20362.508,13588.217,-7263.6313
1395903.8641942241,-53340.82,-64594.85,-16667.44,-4160.97,-16504.11,20361.084,13591.187,-7255.046
1395903.86819422,-53335.207,-64584.8,-16666.424,-4153.8086,-16498.494,20361.695,13588.176,-7259.359
1395903.872194216,-53331.586,-64576.297,-16664.389,-4150.472,-16500.326,20363.322,13583.822,-7268.3105
1395903.8761942117,-53333.457,-64575.48,-16664.55,-4154.989,-16501.344,20364.096,13584.229,-7268.514
1395903.8801942074,-53333.21,-64576.133,-16668.66,-4161.7026,-16501.303,20363.078,13588.786,-7259.6436
1395903.8841942032,-53340.414,-64579.348,-16674.56,-4165.8125,-16502.809,20360.434,13589.804,-7258.586
1395903.8881941992,-53349.49,-64579.145,-16675.781,-4164.592,-16503.947,20362.02,13587.077,-7262.329
1395903.892194195,-53347.82,-64572.594,-16676.84,-4159.1797,-16501.547,20361.37,13581.991,-7268.84
1395903.8961941907,-53343.26,-64572.348,-16677.938,-4159.1797,-16498.373,20360.922,13582.072,-7268.4326
1395903.9001941865,-53343.914,-64570.883,-16681.396,-4165.202,-16498.006,20358.928,13586.304,-7258.0977
1395903.9041941823,-53345.703,-64569.38,-16684.45,-4169.8813,-16495.484,20359.213,13588.583,-7252.645
1395903.9081941782,-53343.06,-64570.234,-16682.781,-4167.9688,-16496.705,20361.613,13587.891,-7254.924
1395903.912194174,-53342.45,-64563.64,-16679.037,-4163.2896,-16497.152,20364.014,13585.083,-7258.7485
1395903.9161941698,-53339.234,-64556.645,-16680.705,-4163.656,-16494.996,20365.846,13588.054,-7252.3193
1395903.9201941655,-53337.85,-64558.15,-16687.297,-4170.1255,-16496.014,20364.258,13593.1,-7243.612
1395903.9241941615,-53338.22,-64555.34,-16690.633,-4174.642,-16494.629,20362.06,13596.11,-7238.9326
1395903.9281941573,-53334.84,-64552.695,-16686.482,-4173.0146,-16493.572,20362.672,13595.175,-7241.9434
1395903.932194153,-53331.258,-64545.902,-16684.611,-4170.532,-16491.7,20363.77,13593.303,-7249.797
1395903.9361941488,-53335.734,-64546.88,-16687.703,-4174.968,-16492.596,20364.502,13593.71,-7251.0176
1395903.9401941446,-53343.223,-64553.996,-16693.807,-4180.0947,-16491.17,20364.584,13595.622,-7244.1406
1395903.9441941406,-53342.57,-64557.293,-16695.436,-4183.7974,-16489.096,20364.137,13597.86,-7239.299
1395903.9481941364,-53339.6,-64552.86,-16693.768,-4180.339,-16492.758,20364.91,13595.907,-7245.321
1395903.9521941321,-53342.082,-64548.016,-16692.586,-4175.9443,-16493.734,20368.287,13594.727,-7250.122
1395903.956194128,-53340.09,-64544.027,-16693.36,-4172.7705,-16492.473,20369.508,13595.337,-7249.7153
1395903.960194124,-53340.902,-64542.2,-16696.615,-4179.891,-16493.164,20365.193,13597.25,-7244.9546
1395903.9641941197,-53340.902,-64544.355,-16698.812,-4185.7505,-16492.432,20368.043,13601.196,-7240.7637
1395903.9681941154,-53335.98,-64545.086,-16695.72,-4182.7803,-16489.38,20370.89,13603.109,-7242.1064
1395903.9721941112,-53335.613,-64549.156,-16695.965,-4178.711,-16490.846,20370.688,13599.487,-7249.3086
1395903.976194107,-53332.684,-64552.41,-16698.08,-4179.769,-16492.879,20370.525,13597.25,-7250.122
1395903.980194103,-53332.48,-64554.242,-16700.807,-4185.8726,-16493.164,20367.676,13599.691,-7242.798
1395903.9841940987,-53338.543,-64557.984,-16703.533,-4191.1216,-16493.572,20364.422,13600.22,-7241.577
1395903.9881940945,-53337.12,-64554.04,-16700.398,-4188.192,-16490.602,20364.217,13596.518,-7246.0127
1395903.9921940903,-53331.707,-64548.383,-16698.73,-4181.2744,-16491.252,20364.258,13590.82,-7253.988
1395903.9961940863,-53325.156,-64546.39,-16700.318,-4183.7974,-16492.96,20365.602,13590.332,-7253.174
1395904.000194082,-53325.035,-64548.707,-16702.596,-4187.541,-16491.62,20366.13,13595.5,-7241.252
1395904.0041940778,-53333.293,-64551.598,-16707.357,-4188.2324,-16490.234,20366.74,13599.406,-7235.189
1395904.0081940736,-53329.55,-64540.652,-16707.643,-4184.4893,-16485.434,20366.902,13596.64,-7240.7637
1395904.0121940696,-53328.33,-64535.2,-16705.445,-4181.7627,-16483.602,20368.979,13593.588,-7248.4946
1395904.0161940653,-53327.637,-64536.99,-16706.584,-4185.0586,-16486.94,20369.182,13593.506,-7246.948
1395904.020194061,-53326.297,-64543.742,-16709.025,-4191.3657,-16489.46,20369.67,13595.907,-7237.3457
1395904.0241940569,-53329.023,-64540.938,-16711.996,-4197.1436,-16488.24,20368.979,13599.772,-7231.9336
1395904.0281940526,-53328.613,-64533.652,-16711.264,-4195.1094,-16486.451,20370.688,13598.877,-7233.6426
1395904.0321940486,-53325.684,-64532.594,-16708.74,-4189.128,-16485.637,20373.17,13596.924,-7240.072
1395904.0361940444,-53325.887,-64538.902,-16708.904,-4188.1104,-16485.19,20373.129,13596.3545,-7241.699
1395904.0401940402,-53328.613,-64537.926,-16714.193,-4195.028,-16487.916,20371.258,13598.755,-7232.5034
1395904.044194036,-53332.4,-64535.523,-16717.164,-4198.8936,-16489.014,20371.623,13603.638,-7223.796
1395904.048194032,-53335.45,-64529.176,-16715.617,-4194.9873,-16489.91,20371.623,13600.424,-7228.475
1395904.0521940277,-53335.246,-64528.85,-16715.17,-4192.2607,-16487.387,20370.402,13595.825,-7236.6133
1395904.0561940235,-53335.37,-64528.85,-16717.082,-4193.319,-16485.76,20368.531,13594.116,-7235.1484
1395904.0601940192,-53337.73,-64528.08,-16719.238,-4198.4863,-16483.521,20367.96,13598.593,-7224.162
1395904.064194015,-53340.742,-64532.676,-16720.826,-4203.695,-16484.295,20365.52,13601.278,-7219.2383
1395904.068194011,-53338.3,-64527.223,-16715.455,-4198.7715,-16483.44,20368.043,13601.5625,-7220.134
1395904.0721940068,-53332.805,-64523.562,-16713.217,-4192.79,-16482.707,20369.1,13599.284,-7222.3716
1395904.0761940025,-53330.73,-64525.27,-16714.111,-4193.2783,-16481.486,20368.328,13598.267,-7221.4766
1395904.0801939983,-53333.17,-64525.434,-16716.553,-4197.8354,-16480.754,20369.426,13601.115,-7215.78
1395904.0841939943,-53342.57,-64528.89,-16720.053,-4201.986,-16480.55,20368.287,13602.214,-7212.9316
1395904.08819399,-53345.95,-64527.67,-16720.297,-4197.795,-16480.389,20367.596,13601.848,-7217.6514
1395904.0921939858,-53346.477,-64529.055,-16719.93,-4193.929,-16482.463,20366.537,13596.721,-7223.226
1395904.0961939816,-53340.332,-64532.51,-16717.977,-4193.034,-16481.486,20367.27,13596.965,-7220.703
1395904.1001939774,-53332.97,-64527.223,-16718.303,-4195.7197,-16478.23,20366.658,13601.318,-7209.961
1395904.1041939734,-53332.316,-64525.027,-16721.477,-4198.8525,-16477.215,20366.62,13604.248,-7205.241
1395904.1081939691,-53331.992,-64524.496,-16719.361,-4196.208,-16480.428,20365.967,13602.865,-7211.141
1395904.112193965,-53329.957,-64516.074,-16717.773,-4190.3486,-16482.91,20365.805,13598.227,-7220.0522
1395904.1161939607,-53330.16,-64511.64,-16720.459,-4189.7383,-16484.416,20366.7,13598.063,-7220.622
1395904.1201939567,-53334.066,-64516.766,-16721.844,-4193.6035,-16482.951,20366.537,13601.034,-7215.129
1395904.1241939524,-53336.426,-64519.492,-16723.553,-4196.6147,-16483.113,20364.625,13601.359,-7216.4307
1395904.1281939482,-53336.875,-64513.227,-16719.85,-4194.4175,-16482.178,20366.17,13600.017,-7221.3135
1395904.132193944,-53336.062,-64510.215,-16716.064,-4187.663,-16480.469,20368.164,13599.691,-7224.284
1395904.1361939397,-53332.156,-64509.402,-16716.229,-4188.0293,-16480.592,20368.855,13599.976,-7223.5107
1395904.1401939357,-53319.746,-64507.33,-16719.361,-4192.668,-16479.94,20368.531,13600.993,-7219.32
1395904.1441939315,-53320.723,-64504.56,-16721.72,-4193.2373,-16479.492,20367.514,13602.011,-7218.913
1395904.1481939272,-53315.715,-64496.83,-16719.686,-4189.575,-16478.76,20367.635,13599.487,-7222.534
1395904.152193923,-53304.89,-64479.21,-16717.0,-4184.0415,-16479.33,20369.1,13594.482,-7229.7773
1395904.156193919,-53293.945,-64461.223,-16716.229,-4183.635,-16479.248,20369.996,13591.187,-7233.358
1395904.1601939148,-53288.21,-64441.977,-16715.088,-4185.1807,-16474.568,20368.084,13592.855,-7227.214
1395904.1641939105,-53272.746,-64433.27,-16710.938,-4183.431,-16470.094,20365.967,13593.791,-7224.691
1395904.1681939063,-53251.71,-64419.926,-16705.607,-4179.118,-16468.465,20366.252,13590.698,-7229.248
1395904.1721939023,-53224.246,-64396.445,-16700.318,-4172.038,-16467.408,20365.113,13583.456,-7244.507
1395904.176193898,-53198.49,-64371.46,-16695.639,-4169.1084,-16468.262,20362.508,13578.939,-7250.7324
1395904.1801938938,-53178.55,-64342.613,-16694.662,-4171.102,-16460.857,20359.822,13579.509,-7243.8154
1395904.1841938896,-53160.566,-64314.293,-16688.07,-4170.4917,-16456.258,20358.318,13578.451,-7241.333
1395904.1881938854,-53150.676,-64289.27,-16680.95,-4164.3066,-16456.584,20357.422,13571.818,-7251.7905
1395904.1921938814,-53139.285,-64268.395,-16678.143,-4154.541,-16453.045,20355.877,13564.006,-7263.1025
1395904.1961938771,-53120.484,-64242.96,-16674.236,-4150.35,-16450.725,20352.947,13559.001,-7268.718
1395904.200193873,-53110.76,-64243.613,-16673.787,-4154.1343,-16452.8,20350.057,13560.303,-7263.713
1395904.2041938687,-53108.6,-64234.582,-16675.008,-4157.5522,-16451.904,20347.332,13559.692,-7265.91
1395904.2081938647,-53102.05,-64215.09,-16670.654,-4150.1465,-16447.51,20348.836,13555.502,-7273.4375
1395904.2121938604,-53104.168,-64222.332,-16671.713,-4144.6533,-16449.342,20349.65,13552.979,-7279.216
1395904.2161938562,-53106.12,-64224.652,-16672.893,-4144.084,-16453.125,20350.424,13554.932,-7275.5537
1395904.220193852,-53106.324,-64217.652,-16674.031,-4148.7227,-16455.037,20348.104,13560.1,-7261.5967
1395904.2241938477,-53111.777,-64224.734,-16674.602,-4153.6055,-16453.29,20347.291,13562.866,-7254.72
1395904.2281938437,-53128.297,-64248.21,-16676.107,-4152.588,-16456.584,20350.79,13561.401,-7259.1553
1395904.2321938395,-53142.133,-64265.707,-16680.014,-4149.17,-16462.402,20351.197,13553.183,-7270.874
1395904.2361938353,-53147.664,-64280.113,-16680.664,-4146.566,-16461.67,20351.277,13554.606,-7265.666
1395904.240193831,-53154.785,-64283.207,-16682.049,-4152.832,-16462.85,20350.871,13560.547,-7253.9473
1395904.244193827,-53165.938,-64293.297,-16684.53,-4159.6274,-16463.42,20351.521,13566.447,-7243.612
1395904.2481938228,-53170.332,-64294.516,-16686.768,-4155.111,-16461.71,20354.248,13564.819,-7246.9893
1395904.2521938186,-53176.27,-64301.19,-16685.629,-4150.2686,-16461.385,20356.771,13563.477,-7253.215
1395904.2561938143,-53188.844,-64323.082,-16687.908,-4153.28,-16464.64,20360.393,13566.813,-7250.0815
1395904.26019381,-53198.49,-64339.03,-16692.586,-4158.366,-16465.088,20360.922,13571.086,-7242.0654
1395904.264193806,-53207.234,-64351.156,-16697.795,-4161.9873,-16467.041,20357.91,13569.743,-7240.194
1395904.2681938019,-53212.484,-64359.418,-16700.074,-4159.9937,-16467.367,20359.172,13567.627,-7245.2393
1395904.2721937976,-53220.867,-64365.195,-16699.707,-4156.5757,-16468.344,20361.125,13566.04,-7249.756
1395904.2761937934,-53227.906,-64370.363,-16700.604,-4156.291,-16471.07,20360.963,13567.383,-7246.2974
1395904.2801937894,-53234.375,-64374.555,-16704.59,-4159.3833,-16471.232,20359.172,13572.307,-7235.189
1395904.2841937852,-53244.55,-64404.38,-16711.385,-4162.1504,-16470.623,20359.701,13576.091,-7230.7944
1395904.288193781,-53250.69,-64400.516,-16711.467,-4160.034,-16471.314,20362.387,13575.236,-7233.724
1395904.2921937767,-53258.87,-64383.508,-16711.996,-4157.2676,-16474.977,20362.508,13574.789,-7236.003
1395904.2961937725,-53268.11,-64390.14,-16710.979,-4157.959,-16471.883,20361.287,13573.446,-7236.8164
1395904.3001937685,-53272.87,-64400.883,-16713.543,-4161.662,-16468.75,20358.643,13575.562,-7230.7944
1395904.3041937642,-53275.84,-64409.547,-16714.6,-4166.423,-16470.094,20356.73,13577.719,-7229.045
1395904.30819376,-53284.1,-64416.71,-16712.2,-4163.2896,-16469.85,20357.79,13575.684,-7236.1655
1395904.3121937558,-53288.94,-64420.82,-16709.717,-4157.756,-16473.633,20359.05,13571.371,-7245.036
1395904.3161937518,-53286.62,-64424.24,-16709.27,-4155.925,-16474.65,20360.148,13571.94,-7243.7744
1395904.3201937475,-53289.105,-64429.242,-16714.152,-4161.947,-16474.773,20358.277,13574.87,-7236.6943
1395904.3241937433,-53291.26,-64434.29,-16716.188,-4166.1787,-16472.412,20357.178,13577.393,-7233.724
1395904.328193739,-53294.19,-64442.63,-16715.373,-4162.883,-16474.812,20359.416,13578.085,-7237.427
1395904.332193735,-53297.773,-64442.02,-16715.252,-4158.651,-16480.062,20362.184,13575.033,-7242.2285
1395904.3361937308,-53297.566,-64446.7,-16717.488,-4158.325,-16481.61,20364.299,13576.579,-7239.258
1395904.3401937266,-53297.977,-64452.477,-16720.012,-4162.2314,-16480.836,20364.99,13583.496,-7225.5454
1395904.3441937224,-53307.21,-64460.33,-16723.918,-4166.911,-16482.504,20363.81,13586.833,-7218.872
1395904.3481937181,-53311.77,-64467.938,-16723.674,-4166.7075,-16485.719,20363.24,13582.357,-7225.505
1395904.3521937141,-53310.957,-64464.36,-16722.86,-4163.33,-16488.24,20363.566,13579.143,-7232.463
1395904.35619371,-53314.58,-64465.293,-16724.936,-4162.5977,-16488.69,20363.607,13578.776,-7234.5786
1395904.3601937057,-53319.258,-64467.53,-16726.36,-4167.7656,-16488.16,20361.816,13582.072,-7230.4688
1395904.3641937014,-53325.36,-64473.715,-16728.068,-4169.027,-16488.404,20362.305,13585.043,-7226.4814
1395904.3681936974,-53330.73,-64475.59,-16727.336,-4161.865,-16488.893,20362.875,13583.944,-7227.824
1395904.3721936932,-53329.67,-64469.73,-16725.75,-4156.657,-16490.643,20362.06,13580.241,-7232.0967
1395904.376193689,-53321.98,-64482.668,-16724.691,-4158.5693,-16489.95,20361.451,13581.299,-7230.754
1395904.3801936847,-53322.633,-64478.234,-16728.027,-4162.4756,-16489.137,20360.678,13585.612,-7219.116
1395904.3841936805,-53328.33,-64469.89,-16728.15,-4165.487,-16489.34,20363.607,13591.187,-7211.3447
1395904.3881936765,-53327.312,-64462.04,-16725.18,-4163.656,-16491.375,20363.525,13589.274,-7215.4136
1395904.3921936722,-53328.29,-64460.125,-16724.61,-4160.1562,-16490.887,20363.69,13587.118,-7218.872
1395904.396193668,-53330.566,-64461.1,-16726.93,-4158.366,-16493.896,20364.95,13588.217,-7216.024
1395904.4001936638,-53330.49,-64455.445,-16730.104,-4160.726,-16491.984,20363.81,13592.651,-7205.3633
1395904.4041936598,-53328.047,-64459.11,-16730.916,-4161.9062,-16489.91,20361.98,13593.954,-7203.6543
1395904.4081936555,-53330.12,-64472.78,-16728.8,-4158.651,-16490.56,20359.863,13589.071,-7209.9204
1395904.4121936513,-53330.527,-64481.812,-16724.977,-4155.6396,-16491.62,20359.416,13583.659,-7216.3086
1395904.416193647,-53327.11,-64482.914,-16722.82,-4155.599,-16493.572,20360.719,13583.7,-7211.8735
1395904.4201936428,-53327.56,-64480.594,-16724.854,-4160.8076,-16493.123,20361.166,13587.932,-7198.568
1395904.4241936388,-53329.918,-64491.17,-16725.383,-4163.5337,-16490.723,20359.578,13591.105,-7193.6035
1395904.4281936346,-53330.85,-64479.617,-16725.424,-4159.1797,-16493.734,20360.23,13589.926,-7197.917
1395904.4321936304,-53325.277,-64483.684,-16721.639,-4152.466,-16487.305,20360.637,13586.345,-7205.1597
1395904.4361936261,-53325.36,-64506.676,-16721.844,-4150.92,-16487.916,20360.066,13585.856,-7206.0957
1395904.4401936221,-53324.586,-64490.316,-16725.057,-4154.175,-16495.932,20357.625,13586.67,-7200.399
1395904.444193618,-53327.516,-64478.355,-16729.9,-4158.0,-16496.867,20356.975,13588.298,-7195.4756
1395904.4481936137,-53329.67,-64487.51,-16727.459,-4156.006,-16496.014,20358.887,13589.233,-7199.626
1395904.4521936094,-53331.34,-64485.027,-16722.656,-4149.9434,-16496.053,20360.637,13586.548,-7210.368
1395904.4561936054,-53337.61,-64496.3,-16721.72,-4146.6064,-16494.996,20360.84,13585.246,-7210.1646
1395904.4601936012,-53342.285,-64493.37,-16723.309,-4148.1934,-16491.13,20360.475,13587.851,-7201.579
1395904.464193597,-53343.75,-64494.387,-16724.244,-4149.9434,-16488.69,20358.602,13587.565,-7198.242
1395904.4681935927,-53340.617,-64503.34,-16722.168,-4146.6064,-16495.973,20361.166,13587.158,-7200.399
1395904.4721935885,-53335.734,-64492.96,-16720.826,-4141.968,-16498.455,20362.469,13582.52,-7208.7812
1395904.4761935845,-53338.016,-64475.344,-16719.97,-4139.852,-16500.488,20363.484,13582.235,-7213.2163
1395904.4801935803,-53345.625,-64473.918,-16723.389,-4144.043,-16502.809,20360.516,13583.008,-7210.1646
1395904.484193576,-53354.25,-64484.05,-16724.568,-4147.868,-16501.424,20358.033,13586.06,-7207.113
1395904.4881935718,-53355.797,-64485.027,-16721.68,-4145.345,-16500.896,20358.277,13582.846,-7209.432
1395904.4921935678,-53355.062,-64481.527,-16720.662,-4138.55,-16502.156,20358.521,13580.485,-7209.88
1395904.4961935636,-53354.656,-64483.727,-16722.127,-4138.55,-16505.168,20357.992,13580.648,-7210.2866
1395904.5001935593,-53359.863,-64491.336,-16725.83,-4143.392,-16507.895,20357.016,13585.287,-7201.579
1395904.504193555,-53367.066,-64495.445,-16727.865,-4146.444,-16505.371,20358.154,13590.048,-7195.1094
1395904.5081935509,-53360.72,-64477.785,-16723.674,-4142.456,-16501.22,20357.219,13585.327,-7203.6543
1395904.5121935469,-53352.906,-64470.664,-16721.232,-4137.248,-16503.256,20355.55,13577.841,-7215.5356
1395904.5161935426,-53360.273,-64473.023,-16721.07,-4136.19,-16507.812,20358.113,13579.0205,-7212.6465
1395904.5201935384,-53357.75,-64469.363,-16723.43,-4138.916,-16508.83,20358.318,13583.944,-7206.136
1395904.5241935342,-53351.24,-64467.29,-16746.95,-4142.741,-16508.504,20354.94,13583.7,-7205.648
1395904.5281935302,-53353.234,-64474.734,-16771.281,-4139.16,-16506.715,20354.656,13581.259,-7211.9956
1395904.532193526,-53355.676,-64474.45,-16775.594,-4132.9756,-16503.541,20355.062,13577.026,-7219.32
1395904.5361935217,-53350.223,-64464.52,-16777.02,-4130.371,-16509.645,20353.557,13575.888,-7213.501
1395904.5401935175,-53348.066,-64458.09,-16780.193,-4131.3477,-16509.848,20352.215,13578.41,-7205.241
1395904.5441935132,-53353.312,-64461.02,-16782.635,-4133.342,-16511.19,20348.553,13580.7705,-7203.532
1395904.5481935092,-53355.43,-64468.47,-16781.617,-4130.0864,-16512.166,20347.656,13580.444,-7207.6826
1395904.552193505,-53356.773,-64471.273,-16780.803,-4127.4824,-16510.701,20349.488,13580.974,-7210.531
1395904.5561935008,-53363.566,-64473.15,-16783.691,-4130.4526,-16511.19,20350.3,13579.997,-7210.124
1395904.5601934965,-53362.47,-64468.754,-16786.256,-4132.9756,-16510.295,20350.098,13583.456,-7202.2705
1395904.5641934925,-53364.055,-64460.453,-16786.459,-4132.0396,-16509.074,20348.227,13586.223,-7191.9355
1395904.5681934883,-53365.93,-64454.43,-16783.936,-4127.523,-16510.05,20347.738,13583.7,-7193.7666
1395904.572193484,-53356.242,-64436.28,-16780.152,-4121.0127,-16508.342,20346.6,13578.451,-7201.0093
1395904.5761934798,-53351.28,-64428.508,-16779.297,-4118.8154,-16506.633,20347.127,13577.434,-7201.335
1395904.5801934756,-53352.703,-64434.53,-16781.861,-4125.163,-16508.383,20344.89,13580.038,-7193.1562
1395904.5841934716,-53356.367,-64443.363,-16785.156,-4128.988,-16507.65,20342.57,13582.642,-7186.361
1395904.5881934674,-53355.062,-64440.88,-16783.611,-4126.4243,-16508.545,20341.879,13580.974,-7190.7554
1395904.5921934631,-53349.285,-64431.723,-16779.42,-4118.6523,-16506.836,20345.947,13580.485,-7193.034
1395904.596193459,-53349.49,-64427.004,-16778.28,-4115.5195,-16506.104,20347.127,13581.787,-7187.5
1395904.600193455,-53344.77,-64424.277,-16780.232,-4117.798,-16502.076,20344.89,13584.839,-7184.001
1395904.6041934507,-53345.83,-64414.633,-16783.0,-4121.053,-16503.297,20343.791,13586.67,-7178.7925
1395904.6081934464,-53346.844,-64410.44,-16783.123,-4117.717,-16503.377,20342.732,13585.368,-7182.7803
1395904.6121934422,-53345.38,-64411.38,-16781.941,-4111.7354,-16503.541,20344.605,13581.706,-7194.906
1395904.6161934382,-53342.33,-64409.75,-16781.494,-4110.067,-16501.709,20345.744,13578.044,-7198.2017
1395904.620193434,-53343.184,-64405.113,-16784.344,-4114.299,-16498.902,20345.215,13579.428,-7190.552
1395904.6241934297,-53343.63,-64407.39,-16786.58,-4116.8623,-16499.715,20344.197,13581.299,-7186.971
1395904.6281934255,-53345.703,-64407.637,-16787.924,-4116.089,-16499.227,20344.727,13580.648,-7190.6333
1395904.6321934212,-53347.332,-64404.016,-16790.242,-4109.8228,-16498.006,20341.635,13574.219,-7203.5728
1395904.6361934172,-53346.4,-64401.125,-16790.61,-4107.1777,-16496.664,20340.78,13573.08,-7206.177
1395904.640193413,-53344.16,-64403.73,-16795.207,-4110.3926,-16497.438,20341.023,13576.782,-7199.056
1395904.6441934088,-53345.38,-64400.473,-16797.975,-4112.386,-16497.396,20340.455,13578.613,-7195.394
1395904.6481934045,-53345.215,-64386.883,-16794.475,-4109.253,-16495.729,20339.967,13575.725,-7199.056
1395904.6521934005,-53345.664,-64382.45,-16793.295,-4101.1963,-16492.879,20339.193,13573.202,-7201.823
1395904.6561933963,-53345.99,-64374.434,-16794.393,-4096.2324,-16491.09,20339.52,13570.72,-7199.382
1395904.660193392,-53346.52,-64368.613,-16794.8,-4100.342,-16488.525,20336.629,13571.289,-7196.2485
1395904.6641933878,-53352.094,-64368.33,-16802.205,-4105.5503,-16488.322,20331.87,13572.958,-7195.0684
1395904.6681933836,-53355.062,-64364.79,-16802.613,-4105.184,-16488.893,20328.207,13569.458,-7201.9043
1395904.6721933796,-53349.49,-64365.113,-16799.275,-4099.162,-16489.34,20330.77,13567.139,-7204.2236
1395904.6761933754,-53346.6,-64365.727,-16798.055,-4098.3887,-16486.98,20332.316,13569.214,-7198.8525
1395904.6801933711,-53346.113,-64353.8,-16798.625,-4100.871,-16481.69,20330.934,13572.429,-7192.0576
1395904.684193367,-53347.008,-64350.06,-16798.096,-4100.6675,-16479.94,20331.87,13574.545,-7189.331
1395904.688193363,-53347.293,-64346.07,-16794.434,-4096.3545,-16476.604,20332.113,13573.405,-7192.424
1395904.6921933587,-53342.57,-64342.207,-16791.951,-4091.8784,-16476.521,20332.479,13570.598,-7198.161
1395904.6961933544,-53337.16,-64349.203,-16792.889,-4090.617,-16476.807,20332.44,13568.563,-7196.533
1395904.7001933502,-53335.41,-64350.547,-16797.975,-4094.4011,-16473.918,20332.275,13568.767,-7193.8887
1395904.704193346,-53339.887,-64358.402,-16799.44,-4099.0806,-16472.453,20329.143,13568.97,-7193.807
1395904.708193342,-53341.555,-64355.31,-16799.846,-4095.9475,-16474.08,20328.533,13565.918,-7198.3643
1395904.7121933377,-53336.223,-64344.363,-16796.834,-4088.4197,-16473.836,20329.59,13562.378,-7205.3633
1395904.7161933335,-53332.93,-64341.92,-16797.12,-4085.4087,-16474.162,20328.572,13562.256,-7202.1484
1395904.7201933293,-53332.562,-64339.805,-16798.26,-4090.3323,-16473.43,20327.352,13566.162,-7193.6445
1395904.7241933253,-53331.586,-64340.58,-16799.236,-4094.3198,-16470.297,20325.48,13567.221,-7193.8887
1395904.728193321,-53327.8,-64342.695,-16800.375,-4092.0818,-16467.773,20324.016,13564.697,-7201.294
1395904.7321933168,-53321.004,-64337.12,-16797.81,-4084.9204,-16465.414,20324.707,13562.297,-7207.113
1395904.7361933126,-53319.258,-64333.05,-16798.38,-4081.3804,-16465.455,20324.748,13562.46,-7205.2
1395904.7401933086,-53323.367,-64334.758,-16800.293,-4083.8218,-16467.938,20324.422,13564.25,-7196.737
1395904.7441933043,-53328.207,-64333.863,-16799.357,-4086.3853,-16464.111,20324.504,13566.813,-7192.0166
1395904.7481933,-53330.527,-64337.85,-16797.363,-4080.8108,-16461.834,20326.66,13567.017,-7195.638
1395904.7521932959,-53328.33,-64338.258,-16797.16,-4076.6604,-16461.182,20327.557,13561.239,-7208.74
1395904.7561932916,-53327.11,-64337.406,-16796.346,-4072.1438,-16458.62,20330.445,13562.175,-7208.5776
1395904.7601932876,-53328.29,-64333.742,-16799.113,-4074.4224,-16455.566,20330.445,13565.715,-7199.992
1395904.7641932834,-53327.395,-64336.43,-16801.107,-4078.0845,-16452.271,20329.916,13569.58,-7195.7197
1395904.7681932792,-53321.82,-64332.156,-16800.62,-4075.114,-16453.777,20332.643,13571.533,-7193.807
1395904.772193275,-53312.46,-64319.543,-16799.56,-4070.272,-16454.834,20333.822,13563.965,-7204.7935
1395904.776193271,-53311.523,-64319.99,-16798.951,-4068.156,-16453.004,20333.008,13559.814,-7209.3506
1395904.7801932667,-53314.25,-64327.07,-16803.02,-4071.0452,-16454.875,20332.031,13561.157,-7202.3115
1395904.7841932625,-53314.78,-64329.594,-16803.06,-4072.9575,-16452.8,20331.137,13564.128,-7198.446
1395904.7881932582,-53314.047,-64332.645,-16800.904,-4070.7195,-16451.863,20331.87,13563.599,-7200.4395
1395904.792193254,-53305.46,-64332.277,-16798.055,-4066.325,-16450.807,20332.398,13558.879,-7209.3916
1395904.79619325,-53301.473,-64332.156,-16796.957,-4062.134,-16450.154,20332.887,13557.211,-7208.049
1395904.8001932458,-53313.438,-64333.5,-16803.63,-4067.4644,-16449.666,20329.834,13559.408,-7202.3926
1395904.8041932415,-53315.88,-64334.965,-16805.867,-4071.696,-16448.242,20328.004,13562.378,-7195.6787
1395904.8081932373,-53317.996,-64330.85,-16802.857,-4068.8884,-16448.242,20328.084,13560.547,-7200.6025
1395904.8121932333,-53315.27,-64325.117,-16800.09,-4064.2905,-16448.812,20330.078,13559.896,-7203.939
1395904.816193229,-53312.95,-64327.92,-16796.875,-4060.0994,-16448.324,20332.805,13563.762,-7197.225
1395904.8201932248,-53317.508,-64323.895,-16799.725,-4065.3079,-16444.133,20331.258,13567.261,-7186.8896
1395904.8241932206,-53314.168,-64320.395,-16803.143,-4067.4644,-16443.197,20328.492,13570.598,-7182.373
1395904.8281932164,-53310.996,-64328.9,-16801.555,-4063.5989,-16445.312,20330.242,13573.12,-7183.1055
1395904.8321932124,-53308.758,-64320.11,-16800.008,-4057.8616,-16444.54,20334.107,13572.226,-7189.4126
1395904.8361932081,-53301.96,-64310.754,-16796.795,-4053.0193,-16443.97,20333.7,13568.278,-7191.4062
1395904.8401932039,-53303.836,-64315.84,-16801.717,-4059.0007,-16444.418,20328.045,13567.871,-7183.9194
1395904.8441931996,-53301.473,-64315.715,-16803.914,-4062.8665,-16440.309,20323.324,13566.895,-7183.716
1395904.8481931956,-53299.074,-64321.453,-16804.078,-4061.849,-16442.506,20323.406,13562.907,-7193.3594
1395904.8521931914,-53299.277,-64323.938,-16801.799,-4055.6235,-16444.783,20327.312,13561.361,-7200.5615
1395904.8561931872,-53296.59,-64319.5,-16800.822,-4051.8801,-16443.848,20328.94,13560.629,-7200.5615
1395904.860193183,-53299.93,-64316.652,-16802.205,-4053.9958,-16442.303,20328.492,13565.756,-7187.541
1395904.8641931787,-53303.914,-64315.676,-16803.223,-4056.2747,-16442.668,20329.875,13569.458,-7181.5596
1395904.8681931747,-53298.992,-64315.15,-16798.748,-4052.4905,-16443.156,20331.584,13566.895,-7184.53
1395904.8721931705,-53296.957,-64319.297,-16795.777,-4048.0144,-16444.947,20331.746,13563.232,-7190.2266
1395904.8761931662,-53300.62,-64317.18,-16795.613,-4045.858,-16444.947,20331.584,13562.053,-7189.1685
1395904.880193162,-53310.305,-64324.06,-16798.096,-4050.7815,-16446.697,20329.549,13564.291,-7183.0244
1395904.884193158,-53315.84,-64331.016,-16801.596,-4054.362,-16447.713,20327.516,13565.471,-7184.8145
1395904.8881931538,-53316.855,-64329.715,-16798.951,-4050.4558,-16446.736,20329.51,13563.843,-7190.4707
1395904.8921931495,-53317.63,-64330.65,-16794.598,-4043.0503,-16449.627,20331.137,13561.198,-7193.2783
1395904.8961931453,-53318.484,-64332.156,-16792.236,-4040.4868,-16449.586,20332.805,13562.988,-7189.8193
1395904.9001931413,-53323.61,-64334.027,-16793.416,-4045.1255,-16448.771,20333.375,13569.54,-7178.4263
1395904.904193137,-53325.24,-64332.6,-16796.51,-4049.642,-16449.748,20329.51,13568.93,-7179.9727
1395904.9081931328,-53324.42,-64335.574,-16797.363,-4048.2993,-16451.824,20329.834,13567.993,-7185.5063
1395904.9121931286,-53321.617,-64339.52,-16795.574,-4043.742,-16453.41,20331.746,13564.819,-7193.7666
1395904.9161931244,-53321.086,-64336.71,-16797.283,-4042.6433,-16450.44,20333.7,13565.268,-7190.837
1395904.9201931204,-53321.492,-64333.375,-16799.969,-4046.224,-16450.725,20331.625,13567.343,-7181.234
1395904.9241931161,-53327.312,-64328.9,-16800.822,-4049.5608,-16448.812,20328.533,13569.824,-7177.816
1395904.928193112,-53326.05,-64331.3,-16799.072,-4046.7124,-16448.242,20327.719,13565.674,-7184.082
1395904.9321931077,-53318.156,-64333.215,-16796.346,-4038.3708,-16450.195,20325.887,13560.629,-7192.424
1395904.9361931037,-53316.734,-64333.906,-16795.736,-4036.4585,-16449.057,20327.719,13561.442,-7190.0635
1395904.9401930994,-53319.258,-64335.125,-16797.363,-4042.277,-16446.9,20327.475,13564.657,-7181.478
1395904.9441930952,-53326.582,-64344.85,-16800.701,-4045.3696,-16448.201,20327.434,13567.993,-7177.5312
1395904.948193091,-53330.363,-64348.594,-16799.275,-4041.7888,-16450.521,20330.201,13568.848,-7177.165
1395904.9521930867,-53325.848,-64336.71,-16794.11,-4033.8137,-16450.48,20331.096,13565.918,-7184.082
1395904.9561930827,-53317.914,-64323.57,-16791.098,-4028.768,-16448.771,20330.648,13564.413,-7187.134
1395904.9601930785,-53326.5,-64331.87,-16793.783,-4035.5227,-16450.969,20329.346,13567.546,-7179.8506
1395904.9641930743,-53334.23,-64343.266,-16796.834,-4040.3647,-16451.783,20326.457,13569.052,-7177.7344
1395904.96819307,-53328.9,-64336.754,-16791.83,-4031.4128,-16450.766,20329.59,13567.017,-7184.896
1395904.972193066,-53327.883,-64332.113,-16786.865,-4025.513,-16449.219,20332.154,13561.931,-7195.923
1395904.9761930618,-53325.81,-64328.047,-16784.344,-4023.7224,-16446.371,20330.201,13558.798,-7196.33
1395904.9801930576,-53321.777,-64319.62,-16785.564,-4024.699,-16444.703,20329.998,13559.774,-7187.663
1395904.9841930533,-53326.66,-64326.457,-16790.04,-4028.1985,-16445.68,20327.312,13561.198,-7182.414
1395904.988193049,-53331.016,-64334.27,-16791.871,-4025.635,-16446.86,20328.29,13559.937,-7187.0527
1395904.992193045,-53330.28,-64332.113,-16791.016,-4020.9963,-16449.91,20329.387,13557.048,-7193.563
1395904.9961930409,-53326.66,-64326.094,-16788.574,-4018.799,-16449.871,20329.957,13558.065,-7192.546
1395905.0001930366,-53327.07,-64327.8,-16790.527,-4021.8508,-16449.057,20329.346,13563.029,-7179.3213
1395905.0041930324,-53338.3,-64329.145,-16792.562,-4025.4722,-16451.375,20328.084,13567.139,-7170.0034
1395905.0081930284,-53340.742,-64323.652,-16789.592,-4021.0776,-16448.486,20329.184,13565.308,-7176.5137
1395905.0121930242,-53335.734,-64324.223,-16789.104,-4015.8286,-16447.592,20327.596,13558.96,-7185.3027
1395905.01619302,-53331.543,-64333.703,-16788.371,-4014.445,-16448.324,20326.742,13558.391,-7183.553
1395905.0201930157,-53332.684,-64336.996,-16790.61,-4018.555,-16447.469,20325.643,13562.663,-7175.7812
1395905.0241930117,-53335.816,-64341.676,-16793.172,-4021.6472,-16446.209,20324.951,13565.308,-7171.4277
1395905.0281930075,-53338.055,-64345.137,-16791.992,-4017.4155,-16444.783,20326.986,13562.012,-7174.5605
1395905.0321930032,-53339.684,-64350.547,-16791.139,-4014.6892,-16451.05,20328.084,13557.048,-7183.3906
1395905.036192999,-53335.656,-64347.414,-16791.83,-4009.1555,-16450.969,20327.88,13556.4375,-7186.239
1395905.0401929948,-53330.977,-64341.676,-16793.133,-4010.2947,-16450.074,20326.58,13560.019,-7176.1885
1395905.0441929908,-53333.984,-64351.645,-16795.533,-4015.5032,-16451.783,20325.44,13561.972,-7167.44
1395905.0481929865,-53335.734,-64349.734,-16793.377,-4013.021,-16453.004,20321.453,13557.333,-7175.659
1395905.0521929823,-53340.902,-64353.844,-16789.592,-4006.9583,-16454.225,20320.883,13553.915,-7182.5767
1395905.056192978,-53345.785,-64354.21,-16788.738,-4005.7375,-16456.219,20320.232,13553.223,-7181.234
1395905.060192974,-53341.637,-64348.188,-16789.021,-4006.6733,-16452.922,20320.76,13557.17,-7171.1836
1395905.0641929698,-53342.773,-64346.805,-16788.127,-4008.9114,-16454.549,20320.11,13560.344,-7164.266
1395905.0681929656,-53339.805,-64345.22,-16786.58,-4004.0286,-16457.602,20320.557,13558.228,-7170.044
1395905.0721929614,-53334.516,-64342.082,-16784.344,-3998.576,-16459.352,20320.271,13553.874,-7180.705
1395905.076192957,-53338.3,-64340.54,-16785.076,-3997.4365,-16459.229,20321.086,13553.427,-7181.6816
1395905.080192953,-53338.46,-64344.32,-16787.842,-4000.8953,-16459.555,20319.783,13556.682,-7172.3228
1395905.0841929489,-53344.523,-64357.18,-16790.568,-4002.767,-16457.44,20317.059,13559.286,-7169.6777
1395905.0881929446,-53343.508,-64353.926,-16786.621,-3999.5933,-16455.363,20318.28,13558.391,-7170.7764
1395905.0921929404,-53337.566,-64343.184,-16781.697,-3993.164,-16455.322,20319.906,13555.42,-7173.706
1395905.0961929364,-53335.168,-64338.746,-16780.965,-3987.3862,-16452.516,20319.05,13554.077,-7175.09
1395905.1001929322,-53337.04,-64342.9,-16784.139,-3988.607,-16449.016,20315.594,13556.356,-7170.3696
1395905.104192928,-53338.3,-64348.023,-16785.035,-3992.5132,-16453.328,20311.564,13556.03,-7168.8643
1395905.1081929237,-53335.53,-64338.383,-16783.0,-3991.4146,-16455.934,20310.832,13552.816,-7174.1943
1395905.1121929195,-53335.816,-64330.934,-16779.664,-3984.2124,-16456.91,20313.559,13551.555,-7177.7754
1395905.1161929155,-53333.824,-64338.055,-16779.053,-3981.893,-16459.188,20315.064,13551.677,-7178.4263
1395905.1201929112,-53335.33,-64345.46,-16781.78,-3986.898,-16459.352,20313.803,13553.589,-7169.7593
1395905.124192907,-53343.305,-64343.1,-16783.611,-3991.862,-16459.473,20311.482,13553.874,-7170.166
1395905.1281929028,-53343.59,-64343.426,-16781.902,-3987.671,-16460.572,20312.703,13552.368,-7176.1885
1395905.1321928988,-53337.08,-64343.63,-16777.588,-3978.7598,-16457.44,20314.861,13552.897,-7176.473
1395905.1361928945,-53332.195,-64336.387,-16773.113,-3974.4468,-16452.922,20316.691,13556.152,-7169.6777
1395905.1401928903,-53331.098,-64331.383,-16771.81,-3976.9287,-16449.871,20314.617,13560.954,-7159.465
1395905.144192886,-53335.004,-64337.406,-16773.396,-3980.7537,-16449.871,20313.355,13564.86,-7156.942
1395905.1481928818,-53332.277,-64348.105,-16773.846,-3980.3875,-16450.562,20312.256,13561.523,-7161.9873
1395905.1521928778,-53330.977,-64348.555,-16774.455,-3974.0398,-16452.516,20312.744,13557.292,-7169.7188
1395905.1561928736,-53327.273,-64349.53,-16775.27,-3971.11,-16454.346,20312.541,13556.112,-7168.01
1395905.1601928694,-53325.562,-64347.332,-16777.426,-3973.2666,-16455.322,20312.176,13559.204,-7160.6445
1395905.1641928651,-53329.184,-64348.066,-16780.885,-3977.295,-16456.951,20309.896,13561.361,-7157.6743
1395905.1681928611,-53332.684,-64338.34,-16778.932,-3973.8364,-16458.09,20309.367,13560.71,-7161.296
1395905.172192857,-53332.156,-64329.918,-16776.367,-3967.3667,-16459.107,20308.27,13554.729,-7171.7124
1395905.1761928527,-53334.19,-64333.906,-16777.303,-3964.6812,-16455.852,20308.146,13553.711,-7170.6953
1395905.1801928484,-53330.977,-64341.188,-16779.256,-3967.6514,-16455.242,20305.217,13556.071,-7164.144
1395905.1841928444,-53334.19,-64356.45,-16779.95,-3971.5984,-16459.92,20305.584,13559.692,-7158.366
1395905.1881928402,-53345.625,-64368.574,-16780.152,-3968.75,-16463.014,20310.303,13561.564,-7158.7324
1395905.192192836,-53342.33,-64345.258,-16776.693,-3960.205,-16456.584,20311.809,13559.082,-7161.174
1395905.1961928317,-53317.793,-64313.926,-16769.451,-3953.532,-16448.61,20308.797,13554.647,-7162.1504
1395905.2001928275,-53313.273,-64301.883,-16771.24,-3954.956,-16445.8,20307.332,13553.874,-7159.79
1395905.2041928235,-53324.832,-64306.4,-16777.264,-3960.0017,-16445.027,20303.996,13555.908,-7159.017
1395905.2081928193,-53325.36,-64310.67,-16775.92,-3956.787,-16445.15,20300.213,13551.636,-7167.4805
1395905.212192815,-53313.316,-64280.97,-16771.648,-3948.405,-16445.232,20298.219,13544.475,-7178.9146
1395905.2161928108,-53308.96,-64265.707,-16770.02,-3944.7021,-16443.97,20297.69,13544.23,-7179.525
1395905.2201928068,-53314.09,-64263.266,-16774.21,-3949.463,-16443.768,20298.584,13549.072,-7170.8984
1395905.2241928026,-53307.863,-64248.05,-16775.555,-3951.7822,-16439.291,20296.834,13549.235,-7168.335
1395905.2281927983,-53300.984,-64250.164,-16776.408,-3947.225,-16439.209,20294.719,13544.475,-7174.0723
1395905.232192794,-53302.695,-64254.6,-16777.182,-3942.7898,-16440.309,20294.312,13539.795,-7181.3154
1395905.2361927899,-53302.777,-64251.06,-16779.867,-3939.494,-16441.082,20294.922,13538.818,-7180.949
1395905.2401927859,-53300.54,-64243.734,-16780.03,-3938.5173,-16439.291,20293.58,13540.8125,-7173.706
1395905.2441927816,-53306.97,-64251.184,-16780.232,-3944.0513,-16441.936,20291.383,13542.033,-7170.4917
1395905.2481927774,-53315.066,-64262.332,-16780.03,-3942.6677,-16443.645,20291.219,13540.039,-7173.34
1395905.2521927732,-53312.01,-64266.645,-16778.158,-3935.6284,-16441.814,20291.871,13534.099,-7182.007
1395905.2561927692,-53316.082,-64274.742,-16778.484,-3932.4546,-16442.342,20293.621,13532.634,-7183.9194
1395905.260192765,-53322.55,-64275.676,-16781.17,-3935.1401,-16443.523,20292.318,13534.343,-7177.2056
1395905.2641927607,-53327.883,-64277.305,-16784.22,-3942.2202,-16447.55,20287.965,13534.18,-7175.6187
1395905.2681927565,-53330.363,-64279.258,-16782.268,-3940.7146,-16451.416,20289.43,13531.494,-7183.553
1395905.2721927522,-53327.07,-64274.254,-16780.193,-3934.1636,-16448.486,20288.25,13524.943,-7193.9697
1395905.2761927482,-53324.22,-64261.68,-16778.523,-3927.6938,-16443.686,20289.918,13522.705,-7194.255
1395905.280192744,-53323.49,-64267.254,-16779.42,-3929.362,-16446.941,20289.47,13527.466,-7185.5063
1395905.2841927398,-53325.277,-64279.055,-16780.64,-3933.3496,-16452.719,20287.965,13532.1045,-7178.182
1395905.2881927355,-53327.11,-64287.477,-16780.07,-3932.6987,-16454.834,20286.906,13533.163,-7179.077
1395905.2921927315,-53326.336,-64292.645,-16777.223,-3926.0662,-16453.777,20290.08,13533.081,-7179.4434
1395905.2961927273,-53324.668,-64285.402,-16777.14,-3922.4854,-16454.305,20291.139,13533.285,-7178.752
1395905.300192723,-53324.18,-64274.457,-16778.443,-3925.3745,-16452.596,20288.209,13536.418,-7171.3867
1395905.3041927188,-53328.453,-64282.23,-16779.46,-3928.2227,-16452.393,20284.953,13534.099,-7173.0957
1395905.3081927146,-53329.754,-64289.31,-16779.135,-3923.991,-16453.695,20283.732,13529.379,-7180.217
1395905.3121927106,-53332.562,-64290.164,-16775.758,-3918.7012,-16453.451,20283.855,13525.146,-7187.0527
1395905.3161927063,-53338.543,-64284.465,-16774.455,-3914.5103,-16452.352,20283.855,13524.496,-7186.1167
1395905.320192702,-53343.832,-64288.496,-16776.693,-3917.033,-16451.986,20282.35,13527.1,-7179.0366
1395905.3241926979,-53348.227,-64290.53,-16779.705,-3921.5088,-16450.154,20282.309,13531.006,-7172.9736
1395905.3281926939,-53348.145,-64290.53,-16777.588,-3917.684,-16452.922,20283.326,13527.548,-7179.9727
1395905.3321926896,-53347.496,-64289.348,-16776.205,-3909.5867,-16454.51,20283.65,13523.315,-7188.1104
1395905.3361926854,-53351.44,-64289.023,-16776.082,-3906.25,-16456.543,20283.326,13521.484,-7185.3438
1395905.3401926812,-53356.773,-64296.348,-16777.426,-3908.3252,-16454.63,20280.965,13522.217,-7177.287
1395905.3441926772,-53355.348,-64295.777,-16778.646,-3911.9873,-16452.88,20278.2,13520.59,-7176.799
1395905.348192673,-53355.88,-64297.527,-16779.094,-3913.737,-16453.37,20277.873,13518.026,-7180.6235
1395905.3521926687,-53353.926,-64298.547,-16775.27,-3906.779,-16454.387,20276.205,13512.899,-7190.1855
1395905.3561926645,-53353.516,-64298.87,-16769.084,-3902.4253,-16453.207,20275.473,13514.526,-7187.4595
1395905.3601926602,-53358.24,-64302.74,-16769.451,-3904.1748,-16454.184,20276.611,13522.665,-7174.1943
1395905.3641926562,-53369.875,-64309.734,-16773.56,-3908.4067,-16456.625,20277.873,13527.588,-7168.9863
1395905.368192652,-53379.113,-64324.668,-16774.09,-3907.8777,-16459.555,20278.646,13528.605,-7172.689
1395905.3721926478,-53372.97,-64324.344,-16769.857,-3898.397,-16457.967,20278.85,13524.74,-7178.711
1395905.3761926435,-53363.0,-64307.742,-16763.266,-3891.8865,-16456.463,20279.379,13521.811,-7178.1006
1395905.3801926395,-53363.406,-64298.87,-16765.38,-3898.1528,-16456.951,20280.926,13527.222,-7170.329
1395905.3841926353,-53366.742,-64297.406,-16767.049,-3902.4658,-16456.746,20279.908,13529.867,-7172.0786
1395905.388192631,-53371.707,-64297.04,-16765.219,-3900.7976,-16458.334,20279.256,13528.972,-7175.8223
1395905.3921926268,-53375.125,-64291.465,-16763.062,-3894.694,-16460.328,20280.6,13526.611,-7180.339
1395905.3961926226,-53367.516,-64287.07,-16764.607,-3889.608,-16460.816,20281.17,13523.804,-7181.3965
1395905.4001926186,-53367.473,-64287.76,-16767.904,-3894.4092,-16463.99,20281.414,13525.554,-7175.049
1395905.4041926144,-53375.9,-64290.45,-16772.828,-3900.5535,-16465.496,20279.379,13527.426,-7170.8984
1395905.4081926101,-53382.203,-64297.0,-16773.438,-3898.275,-16465.414,20277.426,13525.146,-7173.462
1395905.412192606,-53375.043,-64291.383,-16770.875,-3893.8804,-16466.432,20276.082,13520.02,-7180.013
1395905.416192602,-53376.184,-64280.277,-16770.672,-3889.8113,-16465.943,20278.564,13519.328,-7181.5596
1395905.4201925977,-53380.496,-64276.652,-16775.188,-3894.043,-16463.217,20277.182,13522.095,-7174.2354
1395905.4241925934,-53386.883,-64278.324,-16779.744,-3899.7397,-16462.361,20275.35,13524.414,-7171.3867
1395905.4281925892,-53388.55,-64276.9,-16780.477,-3897.2168,-16462.281,20274.658,13523.56,-7174.0317
1395905.432192585,-53388.023,-64268.23,-16778.605,-3889.4043,-16462.281,20276.287,13519.857,-7182.536
1395905.436192581,-53386.76,-64260.418,-16777.996,-3887.6548,-16460.408,20276.938,13518.393,-7184.2856
1395905.4401925767,-53387.98,-64258.223,-16780.844,-3891.439,-16458.455,20276.693,13522.461,-7174.764
1395905.4441925725,-53388.227,-64253.91,-16781.658,-3893.7988,-16456.91,20275.514,13524.414,-7167.1553
1395905.4481925683,-53388.023,-64245.363,-16781.453,-3891.3574,-16454.143,20275.635,13521.566,-7170.7764
1395905.4521925643,-53384.484,-64238.324,-16780.03,-3886.0679,-16452.963,20276.043,13517.212,-7179.403
1395905.45619256,-53376.1,-64224.49,-16776.287,-3883.1787,-16447.998,20278.973,13516.643,-7177.816
1395905.4601925558,-53376.75,-64221.273,-16778.361,-3887.6953,-16446.492,20277.02,13517.578,-7172.567
1395905.4641925516,-53379.6,-64224.816,-16781.047,-3892.212,-16444.947,20272.46,13518.433,-7170.7764
1395905.4681925476,-53378.543,-64223.715,-16780.03,-3888.5498,-16443.074,20270.672,13516.235,-7176.677
1395905.4721925433,-53381.715,-64217.492,-16778.2,-3881.7139,-16442.098,20270.02,13512.777,-7185.3438
1395905.476192539,-53380.293,-64212.12,-16778.24,-3877.767,-16441.57,20271.363,13512.939,-7185.018
1395905.4801925349,-53381.51,-64210.734,-16779.256,-3879.7202,-16439.941,20273.072,13518.066,-7175.537
1395905.4841925306,-53382.203,-64213.586,-16781.494,-3886.5967,-16438.6,20271.404,13518.637,-7173.218
1395905.4881925266,-53383.26,-64221.684,-16782.186,-3885.0505,-16438.885,20270.102,13512.939,-7178.1416
1395905.4921925224,-53381.227,-64221.477,-16781.494,-3876.2615,-16435.588,20269.654,13506.633,-7186.605
1395905.4961925182,-53373.58,-64209.477,-16776.814,-3869.5884,-16430.908,20271.525,13508.017,-7182.7803
1395905.500192514,-53372.277,-64208.418,-16779.867,-3873.5352,-16429.2,20266.684,13508.749,-7178.833
1395905.50419251,-53374.594,-64214.03,-16783.285,-3876.0173,-16426.229,20263.348,13508.871,-7178.9146
1395905.5081925057,-53371.543,-64213.543,-16783.53,-3874.1863,-16427.531,20262.492,13503.866,-7183.2275
1395905.5121925015,-53368.164,-64208.418,-16779.988,-3868.7744,-16427.693,20262.898,13498.861,-7192.668
1395905.5161924972,-53366.254,-64205.69,-16778.646,-3865.0718,-16431.56,20264.648,13498.576,-7192.8306
1395905.520192493,-53368.734,-64211.02,-16781.088,-3869.2627,-16428.914,20263.713,13504.069,-7181.478
1395905.524192489,-53373.58,-64222.82,-16784.547,-3874.7559,-16426.229,20262.777,13505.575,-7178.874
1395905.5281924848,-53376.547,-64212.324,-16782.594,-3872.1519,-16427.287,20266.033,13506.714,-7180.786
1395905.5321924805,-53376.547,-64211.47,-16781.535,-3867.2283,-16427.857,20266.357,13503.459,-7188.4766
1395905.5361924763,-53369.67,-64207.766,-16783.488,-3862.915,-16427.613,20267.13,13499.023,-7192.79
1395905.5401924723,-53364.625,-64203.13,-16784.1,-3866.5366,-16427.654,20265.748,13499.553,-7187.4595
1395905.544192468,-53375.49,-64206.586,-16787.762,-3873.1284,-16428.264,20263.754,13500.326,-7184.9365
1395905.5481924638,-53384.36,-64204.797,-16787.191,-3869.9138,-16427.654,20263.021,13498.779,-7189.901
1395905.5521924596,-53385.133,-64203.492,-16784.059,-3865.316,-16425.457,20262.41,13495.443,-7196.1265
1395905.5561924553,-53386.68,-64200.97,-16786.785,-3863.2,-16426.434,20264.852,13494.426,-7198.161
1395905.5601924513,-53385.254,-64200.523,-16793.377,-3867.9607,-16428.387,20267.213,13496.664,-7195.1904
1395905.564192447,-53386.926,-64204.145,-16794.354,-3873.0469,-16425.74,20267.172,13502.36,-7191.203
1395905.5681924429,-53389.812,-64205.773,-16793.05,-3869.9546,-16425.945,20265.26,13504.191,-7191.2437
1395905.5721924386,-53387.207,-64194.215,-16786.785,-3861.9385,-16422.607,20266.195,13502.727,-7193.115
1395905.5761924346,-53380.82,-64184.043,-16783.53,-3857.5034,-16418.945,20267.945,13504.965,-7186.971
1395905.5801924304,-53379.152,-64180.79,-16784.424,-3859.4158,-16416.504,20270.102,13510.376,-7176.799
1395905.5841924262,-53385.094,-64181.562,-16787.191,-3862.1826,-16413.371,20267.578,13511.19,-7173.747
1395905.588192422,-53389.324,-64186.2,-16786.621,-3858.48,-16411.215,20266.236,13507.528,-7181.6406
1395905.5921924177,-53383.344,-64185.832,-16784.912,-3854.004,-16410.97,20266.887,13502.482,-7187.0117
1395905.5961924137,-53379.965,-64176.273,-16784.871,-3850.2197,-16409.871,20267.863,13503.459,-7185.0996
1395905.6001924095,-53382.812,-64176.11,-16786.133,-3851.522,-16406.129,20265.666,13508.342,-7173.625
1395905.6041924052,-53388.43,-64185.14,-16786.865,-3855.5095,-16402.223,20263.55,13510.864,-7169.149
1395905.608192401,-53390.383,-64185.387,-16787.8,-3852.3357,-16402.059,20262.98,13508.261,-7174.52
1395905.612192397,-53391.277,-64183.473,-16788.656,-3849.4468,-16404.867,20260.05,13500.285,-7186.076
1395905.6161923928,-53387.82,-64186.484,-16787.11,-3847.2495,-16403.85,20262.371,13501.221,-7185.2217
1395905.6201923885,-53386.844,-64185.1,-16786.336,-3851.4812,-16404.379,20262.736,13505.9,-7176.595
1395905.6241923843,-53390.42,-64195.64,-16786.541,-3855.2654,-16405.193,20260.986,13508.261,-7173.4214
1395905.6281923803,-53392.215,-64197.758,-16786.377,-3850.4233,-16404.5,20262.166,13505.005,-7178.2227
1395905.632192376,-53394.94,-64191.203,-16784.303,-3846.517,-16403.32,20262.166,13498.495,-7187.866
1395905.6361923718,-53390.137,-64187.297,-16781.861,-3842.57,-16402.1,20262.615,13496.582,-7189.6973
1395905.6401923676,-53388.39,-64183.15,-16784.709,-3846.151,-16400.838,20263.184,13500.244,-7181.0713
1395905.6441923634,-53393.84,-64183.555,-16788.697,-3851.5625,-16402.467,20258.668,13500.61,-7178.4263
1395905.6481923594,-53395.715,-64184.938,-16786.541,-3850.7488,-16403.564,20258.953,13502.035,-7177.816
1395905.6521923551,-53390.79,-64189.17,-16783.406,-3843.6687,-16402.914,20259.033,13499.512,-7182.292
1395905.656192351,-53383.06,-64186.08,-16780.885,-3837.4023,-16403.646,20259.969,13496.948,-7184.5703
1395905.6601923467,-53383.63,-64191.125,-16785.848,-3840.9019,-16402.223,20257.895,13496.338,-7183.187
1395905.6641923427,-53391.81,-64197.88,-16790.121,-3845.9473,-16403.158,20255.535,13498.169,-7181.5596
1395905.6681923384,-53397.504,-64196.82,-16787.354,-3840.9019,-16403.158,20256.47,13499.105,-7183.0244
1395905.6721923342,-53395.836,-64189.945,-16783.326,-3834.9204,-16402.426,20257.895,13495.524,-7193.3594
1395905.67619233,-53393.23,-64185.14,-16782.309,-3830.8513,-16401.531,20259.033,13496.745,-7191.854
1395905.6801923257,-53395.145,-64189.58,-16782.797,-3834.7983,-16400.432,20259.889,13501.628,-7177.409
1395905.6841923217,-53395.67,-64205.242,-16781.902,-3840.4136,-16401.246,20259.318,13505.981,-7169.2305
1395905.6881923175,-53394.94,-64206.22,-16779.42,-3837.1177,-16401.002,20261.15,13507.324,-7170.044
1395905.6921923133,-53395.145,-64195.03,-16779.256,-3832.1128,-16399.902,20260.174,13500.8955,-7182.048
1395905.696192309,-53391.195,-64185.426,-16779.46,-3828.9795,-16397.055,20259.889,13497.763,-7183.6753
1395905.700192305,-53394.41,-64186.81,-16781.861,-3833.0078,-16396.078,20258.709,13501.384,-7175.09
1395905.7041923008,-53404.38,-64193.77,-16783.773,-3837.5652,-16396.484,20256.715,13503.012,-7170.858
1395905.7081922966,-53406.21,-64200.277,-16783.203,-3834.9204,-16399.902,20255.291,13498.291,-7177.0835
1395905.7121922923,-53406.457,-64201.867,-16782.268,-3829.834,-16400.799,20256.023,13494.629,-7186.7676
1395905.716192288,-53405.4,-64196.047,-16783.285,-3826.7417,-16399.984,20259.889,13495.321,-7186.727
1395905.720192284,-53413.37,-64202.19,-16786.947,-3829.956,-16398.193,20261.8,13500.082,-7177.2056
1395905.7241922799,-53414.918,-64210.29,-16790.162,-3833.0078,-16397.543,20257.61,13502.36,-7171.4683
1395905.7281922756,-53411.46,-64208.66,-16787.965,-3827.5962,-16399.373,20256.795,13502.849,-7172.4854
1395905.7321922714,-53409.668,-64203.94,-16785.238,-3822.5098,-16400.025,20256.674,13498.576,-7181.3965
1395905.7361922674,-53405.723,-64194.664,-16783.488,-3817.9119,-16398.113,20255.86,13494.223,-7182.658
1395905.7401922632,-53401.938,-64190.15,-16784.018,-3820.0278,-16398.275,20255.78,13494.223,-7175.659
1395905.744192259,-53407.676,-64202.56,-16787.72,-3828.3691,-16399.252,20253.906,13496.704,-7173.4214
1395905.7481922547,-53408.367,-64205.812,-16785.93,-3825.1548,-16398.885,20252.523,13494.223,-7183.1465
1395905.7521922507,-53410.645,-64207.6,-16783.488,-3818.3188,-16396.2,20253.865,13489.543,-7195.394
1395905.7561922465,-53413.37,-64210.574,-16781.494,-3815.4297,-16398.072,20254.639,13486.9795,-7195.923
1395905.7601922422,-53416.18,-64210.29,-16783.488,-3819.2139,-16400.146,20254.68,13490.561,-7185.425
1395905.764192238,-53422.49,-64214.887,-16786.785,-3824.1375,-16400.31,20252.076,13494.06,-7179.403
1395905.7681922338,-53422.812,-64218.266,-16786.053,-3821.6553,-16400.594,20250.977,13493.286,-7183.96
1395905.7721922297,-53423.83,-64229.574,-16783.326,-3815.7554,-16401.082,20251.668,13489.584,-7191.5283
1395905.7761922255,-53425.457,-64237.1,-16780.232,-3812.1338,-16397.38,20255.047,13489.624,-7188.6396
1395905.7801922213,-53428.754,-64229.777,-16784.139,-3818.6443,-16395.63,20253.215,13492.392,-7178.589
1395905.784192217,-53433.188,-64231.12,-16786.5,-3822.3877,-16395.143,20251.14,13496.298,-7172.9736
1395905.788192213,-53438.4,-64229.902,-16783.611,-3818.9292,-16396.12,20253.012,13496.948,-7176.3916
1395905.7921922088,-53439.617,-64225.18,-16781.047,-3813.558,-16398.682,20254.803,13493.49,-7185.14
1395905.7961922046,-53434.9,-64225.63,-16780.03,-3809.6924,-16400.39,20255.697,13490.031,-7185.2217
1395905.8001922003,-53433.23,-64222.535,-16781.088,-3812.0117,-16399.455,20255.047,13495.28,-7171.509
1395905.804192196,-53434.53,-64231.73,-16783.895,-3816.0808,-16399.09,20251.953,13499.309,-7168.01
1395905.808192192,-53431.438,-64233.605,-16782.39,-3811.605,-16398.846,20252.035,13498.373,-7174.6016
1395905.8121921879,-53432.863,-64229.82,-16780.844,-3807.2104,-16400.229,20254.803,13496.013,-7178.9146
1395905.8161921836,-53432.13,-64229.656,-16778.973,-3803.833,-16400.717,20255.209,13495.199,-7178.467
1395905.8201921794,-53435.793,-64228.234,-16782.715,-3808.838,-16400.025,20253.256,13497.6,-7172.6484
1395905.8241921754,-53442.26,-64237.43,-16788.9,-3814.1685,-16398.723,20250.326,13500.814,-7168.132
1395905.8281921712,-53445.723,-64241.17,-16788.615,-3812.0117,-16399.21,20251.303,13500.0,-7171.5903
1395905.832192167,-53440.918,-64237.875,-16785.645,-3804.6875,-16395.346,20252.564,13500.488,-7172.567
1395905.8361921627,-53432.824,-64229.902,-16781.17,-3798.0957,-16393.922,20250.164,13503.174,-7166.992
1395905.8401921585,-53434.695,-64223.715,-16781.902,-3801.229,-16393.393,20249.227,13503.296,-7159.0576
1395905.8441921545,-53441.816,-64228.477,-16784.912,-3807.0068,-16395.549,20247.03,13503.256,-7157.878
1395905.8481921502,-53443.035,-64230.145,-16784.547,-3805.0132,-16396.037,20246.826,13499.064,-7164.388
1395905.852192146,-53442.59,-64228.395,-16780.273,-3797.8923,-16394.816,20248.291,13494.385,-7172.4854
1395905.8561921418,-53449.14,-64226.117,-16779.705,-3794.5557,-16396.932,20249.594,13494.629,-7173.95
1395905.8601921378,-53455.61,-64233.117,-16783.691,-3800.8628,-16399.943,20248.535,13500.082,-7165.324
1395905.8641921335,-53454.633,-64237.348,-16783.367,-3803.06,-16396.648,20248.17,13505.371,-7156.9014
1395905.8681921293,-53451.742,-64234.133,-16782.674,-3799.5605,-16392.781,20248.535,13505.005,-7159.302
1395905.872192125,-53452.11,-64237.023,-16781.576,-3790.6902,-16393.719,20249.594,13500.082,-7166.911
1395905.8761921208,-53450.277,-64236.086,-16783.326,-3786.4585,-16396.24,20248.332,13496.826,-7167.3584
1395905.8801921168,-53455.773,-64232.668,-16786.947,-3793.2944,-16397.137,20243.693,13497.844,-7163.4116
1395905.8841921126,-53464.766,-64237.348,-16789.592,-3799.52,-16395.834,20239.055,13497.274,-7160.8887
1395905.8881921084,-53469.727,-64242.027,-16787.232,-3795.7764,-16396.443,20238.201,13497.233,-7163.4116
1395905.8921921041,-53467.246,-64246.664,-16784.465,-3790.6902,-16402.344,20240.234,13495.524,-7169.7593
1395905.8961921001,-53464.48,-64248.457,-16781.78,-3787.1501,-16403.035,20243.49,13498.454,-7167.0737
1395905.900192096,-53468.305,-64246.504,-16784.018,-3791.7888,-16399.984,20245.076,13502.768,-7153.646
1395905.9041920917,-53475.71,-64249.72,-16788.371,-3797.16,-16399.09,20240.643,13506.063,-7148.926
1395905.9081920874,-53481.652,-64252.566,-16788.574,-3792.8062,-16399.984,20239.543,13506.633,-7150.9604
1395905.9121920834,-53474.164,-64256.145,-16785.645,-3785.1562,-16398.396,20242.635,13502.197,-7160.1973
1395905.9161920792,-53467.53,-64256.066,-16781.535,-3780.1514,-16394.654,20244.182,13499.309,-7163.9814
1395905.920192075,-53473.555,-64251.67,-16780.559,-3784.2205,-16396.2,20243.775,13501.425,-7156.413
1395905.9241920707,-53479.13,-64259.36,-16783.326,-3788.086,-16395.793,20242.717,13503.54,-7154.012
1395905.9281920665,-53477.824,-64256.96,-16782.309,-3785.9702,-16395.102,20243.205,13499.39,-7159.6274
1395905.9321920625,-53473.51,-64245.242,-16776.043,-3777.9136,-16397.38,20244.305,13494.833,-7165.9346
1395905.9361920583,-53472.375,-64236.574,-16773.52,-3773.1528,-16397.787,20244.752,13492.92,-7167.806
1395905.940192054,-53470.625,-64232.06,-16775.879,-3775.1465,-16396.648,20243.979,13494.507,-7161.621
1395905.9441920498,-53471.19,-64239.18,-16779.338,-3777.9136,-16399.455,20241.09,13496.42,-7158.366
1395905.9481920458,-53475.426,-64247.277,-16778.076,-3777.6287,-16401.57,20239.625,13496.094,-7161.377
1395905.9521920416,-53477.215,-64246.055,-16773.438,-3770.7927,-16400.838,20242.473,13494.548,-7165.283
1395905.9561920373,-53477.664,-64243.938,-16773.723,-3766.5203,-16401.775,20244.1,13493.774,-7163.9814
1395905.960192033,-53481.082,-64247.113,-16775.799,-3768.1072,-16398.396,20243.084,13494.67,-7158.895
1395905.9641920289,-53478.438,-64251.14,-16777.426,-3770.5078,-16396.648,20237.996,13494.467,-7158.8545
1395905.9681920249,-53475.223,-64241.824,-16775.555,-3767.741,-16396.281,20235.922,13489.299,-7168.9453
1395905.9721920206,-53470.83,-64231.324,-16771.363,-3760.0505,-16394.531,20237.469,13485.8,-7177.002
1395905.9761920164,-53459.312,-64216.594,-16767.254,-3755.0457,-16392.822,20238.893,13484.416,-7175.415
1395905.9801920122,-53450.766,-64202.19,-16768.678,-3757.1616,-16392.498,20235.555,13486.45,-7167.318
1395905.9841920082,-53439.13,-64180.383,-16769.857,-3758.6265,-16385.945,20233.48,13490.356,-7162.9233
1395905.988192004,-53433.555,-64163.293,-16766.602,-3753.7437,-16378.541,20234.701,13491.577,-7164.388
1395905.9921919997,-53400.434,-64134.484,-16756.348,-3741.4146,-16379.721,20233.928,13484.131,-7175.7812
1395905.9961919955,-53359.66,-64097.21,-16744.955,-3733.602,-16374.919,20229.371,13473.145,-7184.896
1395906.0001919912,-53327.395,-64058.598,-16738.973,-3731.5269,-16371.623,20224.854,13468.588,-7186.8086
1395906.0041919872,-53300.863,-64027.223,-16735.23,-3730.957,-16367.311,20220.703,13466.919,-7188.1514
1395906.008191983,-53279.46,-63996.543,-16728.68,-3725.4639,-16363.363,20217.244,13463.501,-7194.092
1395906.0121919787,-53253.543,-63966.637,-16717.814,-3715.454,-16360.922,20218.588,13458.781,-7205.119
1395906.0161919745,-53225.465,-63936.77,-16708.822,-3706.2175,-16360.108,20216.879,13453.817,-7210.7344
1395906.0201919705,-53204.793,-63920.74,-16706.258,-3707.7637,-16360.393,20215.088,13456.543,-7203.817
1395906.0241919663,-53192.305,-63912.438,-16703.98,-3712.2803,-16359.742,20210.816,13457.438,-7199.585
1395906.028191962,-53174.6,-63894.207,-16697.836,-3709.0251,-16359.05,20209.596,13453.776,-7206.584
1395906.0321919578,-53176.598,-63893.027,-16693.768,-3703.2878,-16362.387,20212.158,13451.538,-7210.449
1395906.0361919538,-53162.76,-63883.223,-16686.076,-3695.1091,-16362.997,20211.549,13450.766,-7210.897
1395906.0401919496,-53154.176,-63886.152,-16685.018,-3698.4458,-16363.933,20209.88,13452.922,-7205.404
1395906.0441919453,-53160.973,-63893.68,-16688.924,-3705.6072,-16366.212,20208.863,13456.543,-7204.2646
1395906.048191941,-53159.26,-63893.555,-16686.076,-3703.2065,-16364.869,20206.055,13451.091,-7213.501
1395906.0521919369,-53166.14,-63906.13,-16684.53,-3697.9575,-16371.705,20206.258,13446.859,-7218.2617
1395906.0561919329,-53168.703,-63911.906,-16682.17,-3696.981,-16375.611,20207.154,13447.144,-7214.9253
1395906.0601919286,-53169.637,-63922.203,-16682.088,-3699.6257,-16374.431,20207.357,13451.742,-7203.044
1395906.0641919244,-53184.98,-63934.9,-16690.145,-3707.8044,-16377.116,20206.219,13456.543,-7196.737
1395906.0681919202,-53183.027,-63943.727,-16686.768,-3706.7058,-16378.256,20204.225,13455.688,-7204.468
1395906.0721919162,-53184.734,-63961.957,-16683.432,-3702.0264,-16380.046,20204.346,13452.189,-7213.094
1395906.076191912,-53205.812,-63994.59,-16686.28,-3703.0845,-16387.574,20207.764,13452.515,-7209.9204
1395906.0801919077,-53222.82,-64000.285,-16690.064,-3708.374,-16390.951,20208.66,13456.259,-7199.951
1395906.0841919035,-53248.535,-64008.63,-16696.86,-3716.1865,-16394.125,20207.44,13457.52,-7196.0044
1395906.0881918992,-53265.668,-64039.676,-16700.643,-3718.0583,-16394.695,20207.764,13457.275,-7200.2363
1395906.0921918952,-53264.0,-64055.83,-16697.877,-3713.0127,-16397.38,20209.025,13457.561,-7204.956
1395906.096191891,-53278.973,-64072.43,-16701.375,-3712.2397,-16398.64,20213.664,13461.02,-7199.341
1395906.1001918868,-53298.504,-64095.01,-16708.049,-3716.146,-16403.035,20214.275,13466.391,-7188.192
1395906.1041918825,-53316.082,-64123.09,-16714.764,-3721.0693,-16403.117,20211.873,13468.75,-7181.722
1395906.1081918785,-53326.215,-64145.348,-16717.205,-3721.9646,-16403.117,20210.857,13467.937,-7184.001
1395906.1121918743,-53331.707,-64163.496,-16716.635,-3717.2852,-16409.1,20214.967,13467.733,-7186.4424
1395906.11619187,-53340.13,-64159.02,-16721.518,-3715.2915,-16408.611,20216.879,13468.75,-7183.5938
1395906.1201918658,-53352.336,-64168.215,-16726.441,-3718.8315,-16405.355,20215.984,13473.308,-7172.689
1395906.1241918616,-53368.004,-64188.03,-16733.357,-3724.8535,-16405.518,20214.6,13479.248,-7162.435
1395906.1281918576,-53377.566,-64199.992,-16734.498,-3720.744,-16401.205,20215.658,13477.905,-7166.1787
1395906.1321918534,-53393.066,-64205.977,-16735.637,-3718.5059,-16406.006,20216.92,13475.058,-7170.085
1395906.1361918491,-53404.176,-64212.65,-16735.719,-3715.5762,-16407.553,20219.158,13475.342,-7167.562
1395906.140191845,-53414.96,-64215.742,-16737.387,-3719.808,-16407.553,20218.1,13478.557,-7161.662
1395906.144191841,-53424.848,-64230.266,-16741.781,-3725.0977,-16409.139,20214.6,13477.092,-7159.912
1395906.1481918367,-53437.38,-64255.82,-16744.14,-3726.0742,-16408.936,20214.559,13474.65,-7163.8594
1395906.1521918324,-53445.598,-64270.43,-16742.799,-3722.2495,-16411.785,20217.855,13473.999,-7171.0615
1395906.1561918282,-53451.824,-64275.92,-16743.734,-3718.4653,-16413.738,20222.088,13476.481,-7169.8
1395906.160191824,-53465.008,-64287.395,-16748.414,-3724.284,-16416.057,20223.023,13479.655,-7164.0625
1395906.16419182,-53476.32,-64285.81,-16748.455,-3728.7192,-16416.912,20222.127,13482.382,-7159.9937
1395906.1681918157,-53483.074,-64286.785,-16747.193,-3726.7253,-16415.975,20222.412,13484.131,-7160.4004
1395906.1721918115,-53488.77,-64295.94,-16748.576,-3722.8599,-16418.945,20224.732,13481.894,-7166.626
1395906.1761918073,-53492.066,-64297.04,-16749.635,-3718.9536,-16421.102,20227.621,13481.812,-7165.283
1395906.1801918033,-53501.547,-64302.453,-16752.197,-3723.1445,-16427.246,20230.469,13489.34,-7148.6816
1395906.184191799,-53506.676,-64307.58,-16758.098,-3731.1606,-16431.844,20228.719,13494.345,-7140.91
1395906.1881917948,-53508.14,-64303.754,-16758.22,-3729.4922,-16432.332,20225.627,13490.927,-7147.6646
