timestamp,Fp1,Fp2,F3,Fz,F4,Cz,Pz,Oz
955932.7376632672,-8342.123,-35839.887,10291.26,6062.378,6128.7437,-17125.611,-10449.87,17568.441
955932.7416632634,-8338.461,-35838.83,10293.701,6068.034,6125.6104,-17120.24,-10449.911,17562.215
955932.7456632598,-8331.177,-35839.56,10303.02,6076.986,6123.4946,-17112.06,-10442.465,17565.268
955932.749663256,-8334.921,-35841.637,10300.944,6074.463,6126.6685,-17105.957,-10442.587,17565.838
955932.7536632522,-8344.157,-35843.06,10292.847,6067.302,6124.8374,-17100.057,-10448.771,17560.75
955932.7576632485,-8350.22,-35847.453,10290.08,6065.4297,6122.1924,-17095.297,-10450.725,17559.979
955932.7616632447,-8335.246,-35844.688,10293.945,6071.6963,6126.5464,-17090.008,-10443.359,17570.965
955932.7656632409,-8325.847,-35834.88,10301.84,6079.1426,6134.9287,-17085.287,-10431.4375,17574.707
955932.7696632372,-8331.869,-35838.664,10298.91,6073.934,6133.545,-17082.602,-10435.466,17572.104
955932.7736632334,-8338.908,-35847.13,10289.917,6065.389,6127.889,-17079.346,-10442.058,17573.365
955932.7776632296,-8344.687,-35851.277,10283.936,6060.71,6116.333,-17077.8,-10449.951,17571.777
955932.781663226,-8335.571,-35841.39,10290.8125,6067.871,6116.089,-17074.627,-10447.714,17569.988
955932.7856632222,-8323.73,-35835.125,10300.049,6074.0967,6125.4478,-17068.768,-10444.377,17566.406
955932.7896632184,-8323.935,-35835.777,10299.643,6071.167,6125.6514,-17064.576,-10446.33,17561.158
955932.7936632147,-8335.083,-35843.75,10294.149,6062.0117,6119.3037,-17061.117,-10450.847,17558.797
955932.7976632109,-8335.815,-35840.496,10296.753,6063.7617,6116.9434,-17055.096,-10446.371,17570.8
955932.8016632071,-8318.604,-35831.746,10307.658,6071.7773,6123.413,-17047.893,-10439.901,17582.316
955932.8056632034,-8310.1,-35824.06,10312.622,6076.2534,6128.825,-17037.436,-10431.193,17589.682
955932.8096631996,-8310.71,-35822.51,10310.1,6072.9575,6124.105,-17031.006,-10426.718,17594.117
955932.8136631958,-8318.645,-35824.832,10304.892,6063.965,6115.967,-17021.77,-10427.328,17595.988
955932.817663192,-8325.358,-35826.5,10297.812,6057.4546,6109.5786,-17020.916,-10435.425,17585.693
955932.8216631884,-8316.813,-35819.254,10304.403,6065.674,6117.676,-17016.56,-10429.892,17592.611
955932.8256631846,-8303.711,-35805.95,10317.017,6077.5146,6130.046,-17010.295,-10424.683,17593.67
955932.8296631809,-8308.838,-35815.27,10316.284,6073.7305,6125.0815,-17006.512,-10429.565,17587.361
955932.8336631771,-8322.714,-35834.637,10304.118,6062.256,6114.0547,-17002.727,-10441.162,17577.23
955932.8376631733,-8323.894,-35836.387,10300.131,6059.896,6111.776,-16997.682,-10445.517,17578.166
955932.8416631696,-8315.878,-35830.16,10309.001,6068.9697,6113.5254,-16991.822,-10438.884,17581.828
955932.8456631658,-8306.03,-35819.99,10317.505,6079.997,6121.338,-16987.793,-10434.082,17580.037
955932.849663162,-8310.466,-35821.492,10313.232,6076.335,6120.2393,-16986.41,-10440.634,17574.342
955932.8536631583,-8323.73,-35833.293,10300.578,6062.5,6108.5615,-16989.666,-10450.603,17571.492
955932.8576631545,-8326.864,-35835.695,10295.37,6059.9365,6112.386,-16988.729,-10450.928,17571.574
955932.8616631508,-8320.964,-35828.695,10302.368,6068.4814,6119.7104,-16986.775,-10445.964,17570.924
955932.8656631471,-8314.413,-35819.742,10308.96,6075.0327,6121.7856,-16983.236,-10441.936,17569.662
955932.8696631433,-8318.278,-35827.477,10308.676,6070.923,6119.1406,-16982.3,-10442.221,17571.33
955932.8736631395,-8323.039,-35836.14,10301.84,6061.8896,6112.1826,-16983.113,-10445.761,17570.8
955932.8776631358,-8328.207,-35841.434,10298.178,6060.7505,6113.729,-16982.625,-10447.551,17570.883
955932.881663132,-8329.428,-35845.094,10300.415,6067.0576,6115.5195,-16979.695,-10442.383,17572.145
955932.8856631282,-8318.686,-35833.133,10306.4375,6073.568,6121.338,-16978.15,-10440.308,17571.248
955932.8896631245,-8313.437,-35826.62,10306.967,6071.859,6121.338,-16979.248,-10444.946,17564.656
955932.8936631207,-8326.579,-35839.438,10297.16,6061.971,6117.717,-16972.941,-10452.515,17555.867
955932.897663117,-8338.298,-35849.203,10287.231,6056.6406,6116.1704,-16965.455,-10451.904,17559.734
955932.9016631133,-8329.184,-35839.438,10297.485,6067.668,6123.413,-16958.496,-10439.941,17567.506
955932.9056631095,-8320.272,-35826.62,10306.152,6074.2188,6124.5933,-16957.44,-10431.071,17574.26
955932.9096631057,-8322.185,-35824.465,10304.973,6072.103,6120.931,-16957.52,-10430.339,17575.684
955932.913663102,-8332.275,-35841.27,10297.241,6063.8022,6111.5723,-16957.031,-10432.414,17574.26
955932.9176630982,-8337.484,-35852.133,10292.318,6059.7334,6109.782,-16954.305,-10438.477,17573.568
955932.9216630944,-8337.973,-35850.547,10296.062,6063.68,6113.037,-16950.236,-10437.175,17573.121
955932.9256630907,-8328.207,-35843.668,10305.298,6073.039,6117.269,-16944.256,-10427.49,17581.99
955932.9296630869,-8330.688,-35844.77,10302.531,6068.8887,6122.5586,-16945.027,-10427.734,17585.693
955932.9336630831,-8341.513,-35857.26,10290.649,6055.339,6109.253,-16944.012,-10434.164,17584.88
955932.9376630795,-8346.313,-35862.02,10285.278,6051.1475,6099.7725,-16939.453,-10437.094,17585.37
955932.9416630757,-8345.297,-35858.805,10289.592,6057.9023,6108.6836,-16933.758,-10432.211,17591.146
955932.9456630719,-8330.404,-35847.25,10298.706,6068.319,6119.995,-16931.64,-10428.63,17587.646
955932.9496630682,-8320.557,-35840.13,10303.508,6071.4927,6121.6636,-16927.693,-10426.27,17589.031
955932.9536630644,-8330.038,-35846.805,10294.353,6060.547,6118.0015,-16927.531,-10433.432,17585.37
955932.9576630606,-8328.329,-35848.39,10293.498,6060.5063,6113.9326,-16922.69,-10435.873,17584.148
955932.9616630569,-8321.493,-35844.77,10302.775,6068.7256,6116.781,-16915.61,-10429.24,17584.596
955932.9656630531,-8322.592,-35844.81,10302.043,6068.319,6119.67,-16918.457,-10432.211,17574.992
955932.9696630493,-8325.114,-35847.7,10299.194,6063.5986,6115.56,-16918.377,-10436.89,17568.727
955932.9736630456,-8333.374,-35854.777,10293.417,6057.7803,6109.05,-16915.121,-10442.017,17568.604
955932.9776630419,-8338.298,-35857.992,10291.342,6055.217,6108.114,-16913.25,-10443.604,17567.668
955932.9816630381,-8323.202,-35846.19,10300.619,6065.715,6116.9844,-16908.488,-10436.32,17572.021
955932.9856630344,-8308.146,-35825.36,10308.676,6075.9688,6130.29,-16904.95,-10431.479,17578.654
955932.9896630306,-8311.198,-35827.066,10309.245,6074.382,6126.953,-16907.43,-10431.763,17580.69
955932.9936630268,-8324.748,-35849.246,10303.264,6063.192,6107.585,-16906.209,-10439.779,17578.572
955932.9976630231,-8314.86,-35847.13,10304.037,6063.1514,6108.114,-16904.053,-10444.743,17569.906
955933.0016630193,-8303.874,-35831.137,10308.35,6070.801,6116.618,-16902.14,-10440.674,17567.262
955933.0056630155,-8289.145,-35810.63,10316.8545,6082.1943,6128.6216,-16899.455,-10432.373,17574.707
955933.0096630118,-8284.099,-35804.89,10321.94,6086.7515,6135.2134,-16894.37,-10427.694,17575.521
955933.013663008,-8317.343,-35829.633,10304.037,6070.0684,6122.8027,-16890.504,-10432.78,17579.469
955933.0176630043,-8334.229,-35852.297,10296.062,6061.5234,6114.1357,-16888.672,-10434.123,17582.113
955933.0216630006,-8319.865,-35847.047,10306.682,6069.9873,6118.4897,-16887.248,-10430.461,17584.107
955933.0256629968,-8306.4375,-35831.746,10313.314,6077.8403,6133.464,-16883.057,-10426.311,17588.582
955933.029662993,-8312.826,-35835.45,10308.716,6071.8184,6130.615,-16882.0,-10431.804,17584.066
955933.0336629893,-8329.631,-35852.176,10299.032,6062.907,6118.327,-16877.117,-10435.669,17580.893
955933.0376629855,-8344.809,-35861.98,10289.673,6056.5596,6114.99,-16874.146,-10440.715,17579.51
955933.0416629817,-8337.891,-35858.727,10299.561,6065.796,6112.9966,-16868.205,-10431.601,17586.182
955933.045662978,-8339.111,-35864.95,10305.461,6069.906,6114.9497,-16868.611,-10427.49,17588.543
955933.0496629742,-8340.495,-35871.664,10303.915,6065.918,6115.8447,-16865.113,-10433.879,17580.975
955933.0536629705,-8356.079,-35894.207,10294.8,6053.7925,6106.0386,-16863.078,-10446.249,17569.215
955933.0576629668,-8369.67,-35912.8,10286.215,6043.6606,6091.838,-16863.852,-10453.044,17564.494
955933.061662963,-8359.579,-35907.145,10293.823,6049.764,6087.4023,-16861.287,-10445.883,17569.215
955933.0656629592,-8352.295,-35905.6,10302.287,6057.0884,6090.7393,-16857.666,-10439.047,17573.486
955933.0696629555,-8359.294,-35909.832,10300.944,6054.3213,6093.9536,-16855.021,-10440.063,17570.15
955933.0736629517,-8365.316,-35913.74,10293.579,6046.672,6088.3384,-16852.133,-10446.289,17567.668
955933.0776629479,-8367.758,-35914.227,10292.685,6046.2646,6089.1523,-16847.412,-10444.743,17571.209
955933.0816629442,-8361.572,-35917.32,10302.49,6053.06,6088.094,-16843.832,-10438.518,17574.707
955933.0856629404,-8357.016,-35913.777,10312.053,6063.1514,6093.4653,-16836.508,-10430.054,17583.578
955933.0896629366,-8362.265,-35915.57,10305.908,6062.785,6094.157,-16834.473,-10433.879,17581.258
955933.093662933,-8374.472,-35927.86,10294.638,6062.9883,6090.8203,-16833.334,-10439.941,17577.516
955933.0976629292,-8389.567,-35945.64,10287.476,6062.2153,6090.007,-16835.613,-10441.813,17579.672
955933.1016629254,-8379.3545,-35943.89,10298.706,6070.516,6091.716,-16836.71,-10439.087,17582.44
955933.1056629217,-8377.768,-35943.605,10300.334,6077.4336,6091.0645,-16832.846,-10433.798,17585.49
955933.1096629179,-8392.578,-35957.887,10290.69,6070.3125,6081.0547,-16832.643,-10441.04,17578.98
955933.1136629141,-8396.525,-35961.305,10285.808,6065.1045,6077.8403,-16829.713,-10445.435,17587.402
955933.1176629104,-8400.554,-35968.1,10286.703,6066.5283,6076.2534,-16824.016,-10438.477,17607.342
955933.1216629066,-8390.341,-35967.203,10296.265,6075.6025,6084.717,-16820.72,-10437.541,17595.662
955933.1256629028,-8373.861,-35953.207,10306.641,6085.205,6094.6455,-16819.662,-10436.687,17576.904
955933.1296628991,-8378.174,-35952.395,10301.433,6080.4854,6088.786,-16819.947,-10438.681,17572.877
955933.1336628954,-8393.881,-35971.64,10288.737,6067.0576,6078.003,-16820.72,-10447.47,17573.854
955933.1376628916,-8400.676,-35983.727,10284.343,6063.68,6071.0044,-16818.035,-10452.434,17570.354
955933.1416628879,-8397.868,-35982.42,10292.929,6074.707,6075.887,-16812.176,-10440.39,17581.787
955933.1456628841,-8378.784,-35967.613,10308.554,6089.2744,6087.6875,-16807.902,-10428.955,17587.037
955933.1496628803,-8372.966,-35963.176,10310.507,6091.39,6087.5654,-16806.723,-10429.281,17585.775
955933.1536628766,-8397.055,-35979.574,10296.875,6078.532,6079.1016,-16807.293,-10437.5,17586.793
955933.1576628728,-8408.569,-35992.473,10290.609,6072.917,6076.9043,-16810.873,-10437.866,17593.465
955933.161662869,-8388.021,-35988.527,10305.014,6081.34,6085.4087,-16806.479,-10429.403,17602.05
955933.1656628653,-8386.882,-35987.836,10312.622,6085.9785,6096.3135,-16803.67,-10424.357,17606.61
955933.1696628616,-8398.886,-35993.492,10301.677,6078.532,6101.6035,-16806.926,-10427.979,17604.615
955933.1736628579,-8407.349,-35989.543,10288.696,6068.563,6084.31,-16806.193,-10434.001,17602.824
955933.1776628541,-8426.962,-36009.81,10286.459,6065.1855,6076.294,-16801.514,-10432.373,17603.475
955933.1816628503,-8437.134,-36030.355,10271.566,6069.9873,6083.293,-16795.207,-10423.3,17609.904
955933.1856628465,-8430.217,-36026.33,10288.696,6075.5615,6087.7686,-16792.766,-10417.033,17613.648
955933.1896628428,-8426.474,-36023.6,10289.022,6070.801,6076.538,-16792.521,-10418.132,17611.451
955933.193662839,-8455.811,-36048.79,10277.263,6059.448,6065.674,-16788.29,-10420.614,17610.922
955933.1976628352,-8481.12,-36072.55,10281.82,6057.9834,6081.7466,-16783.611,-10417.807,17617.27
955933.2016628315,-8500.57,-36092.53,10280.3955,6059.123,6074.056,-16781.047,-10410.889,17622.03
955933.2056628277,-8494.711,-36105.67,10268.107,6060.913,6067.3423,-16779.053,-10405.844,17627.238
955933.209662824,-8504.11,-36113.85,10265.097,6056.6,6071.411,-16776.855,-10405.966,17630.086
955933.2136628203,-8532.023,-36116.293,10250.204,6042.033,6045.2476,-16777.426,-10411.418,17633.3
955933.2176628165,-8545.776,-36127.2,10245.769,6035.6855,6034.302,-16778.2,-10411.418,17638.428
955933.2216628127,-8552.124,-36132.45,10255.249,6045.573,6048.218,-16771.729,-10400.839,17648.438
955933.225662809,-8550.903,-36135.133,10261.353,6051.351,6048.381,-16768.514,-10392.212,17656.576
955933.2296628052,-8556.193,-36147.91,10258.464,6048.828,6049.276,-16771.12,-10390.585,17659.832
955933.2336628014,-8577.189,-36170.047,10246.338,6034.139,6040.039,-16775.676,-10400.269,17647.746
955933.2376627977,-8589.355,-36181.03,10239.909,6029.216,6036.621,-16776.002,-10405.518,17644.734
955933.2416627939,-8586.752,-36178.062,10245.769,6037.3535,6044.2305,-16771.893,-10397.909,17665.486
955933.2456627901,-8581.015,-36172.85,10253.866,6045.3696,6050.415,-16768.066,-10397.095,17648.967
955933.2496627865,-8591.594,-36184.125,10249.553,6040.8936,6049.0723,-16766.195,-10399.658,17643.555
955933.2536627827,-8609.782,-36196.414,10237.427,6029.1343,6041.504,-16767.13,-10403.891,17650.35
955933.257662779,-8612.712,-36197.348,10236.654,6028.6865,6035.075,-16769.287,-10402.588,17651.814
955933.2616627752,-8610.637,-36189.25,10243.449,6037.3945,6041.1377,-16764.201,-10393.148,17647.299
955933.2656627714,-8608.032,-36181.887,10246.867,6042.0737,6047.445,-16759.197,-10389.323,17650.39
955933.2696627676,-8614.99,-36188.805,10239.136,6032.878,6040.8125,-16762.045,-10395.508,17649.537
955933.2736627639,-8629.558,-36201.133,10225.83,6018.0664,6026.367,-16761.922,-10401.896,17647.42
955933.2776627601,-8635.702,-36202.35,10217.733,6014.5674,6021.0776,-16761.354,-10402.1,17654.176
955933.2816627563,-8627.89,-36191.082,10225.627,6023.5596,6016.8867,-16754.842,-10390.788,17666.098
955933.2856627527,-8620.077,-36187.176,10233.48,6028.3613,6027.5474,-16754.72,-10381.674,17666.748
955933.2896627489,-8622.03,-36191.285,10230.957,6025.676,6028.3203,-16754.72,-10382.731,17665.568
955933.2936627452,-8637.329,-36201.785,10219.727,6013.835,6022.0947,-16755.047,-10389.893,17663.006
955933.2976627414,-8649.13,-36208.17,10210.531,6005.7373,6014.9336,-16758.709,-10394.247,17658.244
955933.3016627376,-8641.562,-36199.016,10217.001,6016.968,6018.514,-16757.771,-10386.841,17664.715
955933.3056627339,-8638.55,-36190.27,10226.034,6024.333,6025.3096,-16757.854,-10384.644,17664.47
955933.3096627301,-8637.329,-36193.035,10226.318,6022.1763,6021.6475,-16754.477,-10385.864,17663.086
955933.3136627263,-8643.759,-36207.645,10219.849,6015.5845,6025.1875,-16751.344,-10392.741,17657.715
955933.3176627225,-8650.879,-36213.42,10215.698,6011.434,6018.84,-16750.326,-10398.356,17653.932
955933.3216627188,-8642.375,-36210.855,10227.214,6022.5425,6020.915,-16749.635,-10389.812,17661.256
955933.3256627151,-8635.336,-36210.125,10234.782,6030.3955,6026.5303,-16749.227,-10380.859,17668.783
955933.3296627114,-8635.905,-36211.957,10233.073,6026.6523,6026.571,-16750.611,-10381.308,17666.057
955933.3336627076,-8645.956,-36222.047,10222.656,6016.683,6024.9023,-16754.436,-10391.317,17662.395
955933.3376627038,-8652.995,-36234.906,10215.576,6010.9863,6024.089,-16757.895,-10393.555,17662.883
955933.3416627,-8647.258,-36236.94,10222.412,6017.619,6028.768,-16758.139,-10386.638,17667.156
955933.3456626963,-8640.991,-36234.66,10229.858,6025.757,6041.667,-16756.023,-10380.127,17667.236
955933.3496626925,-8651.408,-36245.65,10226.156,6023.3154,6036.2144,-16751.18,-10376.831,17673.748
955933.3536626888,-8656.088,-36257.73,10219.931,6015.625,6025.1875,-16753.174,-10384.481,17663.697
955933.357662685,-8636.3125,-36247.805,10223.349,6015.5845,6022.461,-16759.236,-10398.845,17643.88
955933.3616626812,-8626.994,-36239.91,10231.323,6024.536,6024.8213,-16758.912,-10394.938,17642.049
955933.3656626776,-8624.675,-36245.523,10235.962,6026.7334,6021.24,-16760.742,-10394.653,17642.254
955933.3696626738,-8614.218,-36244.996,10235.962,6023.763,6020.874,-16766.113,-10404.745,17639.404
955933.37366267,-8614.868,-36248.617,10231.812,6016.805,6017.4155,-16766.887,-10410.808,17636.76
955933.3776626663,-8623.779,-36259.36,10226.359,6014.486,6015.3403,-16764.201,-10411.011,17636.557
955933.3816626625,-8611.166,-36252.28,10237.265,6025.8384,6017.9854,-16761.883,-10405.559,17641.846
955933.3856626587,-8602.051,-36254.56,10241.537,6031.047,6018.026,-16758.586,-10400.229,17649.334
955933.389662655,-8616.74,-36274.293,10231.486,6021.037,6010.8643,-16760.174,-10403.239,17640.625
955933.3936626512,-8627.197,-36286.5,10222.087,6013.5093,6006.2256,-16760.621,-10410.563,17628.826
955933.3976626474,-8632.609,-36293.824,10217.855,6010.9053,6006.0225,-16761.395,-10413.778,17630.453
955933.4016626436,-8620.81,-36287.07,10228.19,6020.752,6008.423,-16761.23,-10403.809,17640.463
955933.40566264,-8610.107,-36281.984,10235.759,6027.181,6010.661,-16760.54,-10397.095,17646.973
955933.4096626362,-8614.746,-36290.652,10230.754,6021.24,6010.295,-16763.754,-10404.948,17638.916
955933.4136626325,-8626.018,-36307.617,10223.593,6010.8643,5998.657,-16765.504,-10411.865,17633.3
955933.4176626287,-8629.028,-36312.137,10222.453,6012.1665,6000.5293,-16762.533,-10415.69,17632.162
955933.4216626249,-8616.821,-36302.164,10232.056,6024.0073,6012.0444,-16758.504,-10408.773,17638.916
955933.4256626212,-8610.678,-36295.125,10240.601,6031.942,6019.1245,-16754.639,-10399.984,17649.09
955933.4296626174,-8612.59,-36303.47,10238.607,6027.954,6019.409,-16754.518,-10401.855,17649.861
955933.4336626136,-8617.514,-36312.137,10233.398,6020.345,6008.6265,-16756.674,-10408.569,17643.352
955933.4376626099,-8621.054,-36315.145,10230.876,6016.7646,6004.3945,-16760.621,-10414.551,17639.69
955933.4416626062,-8613.811,-36310.426,10236.003,6024.211,6015.3403,-16759.033,-10410.6045,17644.816
955933.4456626024,-8604.614,-36306.152,10241.903,6030.6807,6021.8506,-16758.709,-10408.041,17647.625
955933.4496625987,-8610.759,-36317.996,10235.434,6023.153,6015.1777,-16760.701,-10412.395,17636.678
955933.4536625949,-8625.488,-36334.84,10222.575,6009.8066,6008.545,-16761.11,-10420.858,17630.656
955933.4576625911,-8633.911,-36341.637,10220.5,6006.958,6003.8657,-16761.354,-10423.218,17633.342
955933.4616625874,-8622.07,-36336.426,10228.923,6016.5205,6011.8003,-16756.186,-10411.337,17647.46
955933.4656625836,-8605.021,-36326.945,10241.008,6029.0527,6015.544,-16753.012,-10399.17,17650.838
955933.4696625798,-8609.579,-36327.598,10239.787,6025.798,6011.2715,-16754.11,-10402.263,17642.578
955933.473662576,-8623.82,-36340.535,10228.354,6013.591,6002.075,-16757.121,-10417.358,17633.016
955933.4776625723,-8636.923,-36351.32,10215.942,6008.2603,5996.867,-16754.395,-10428.183,17627.117
955933.4816625686,-8641.195,-36354.82,10215.17,6011.5967,6001.343,-16749.512,-10418.457,17634.686
955933.4856625649,-8629.639,-36350.953,10225.668,6017.7,5999.1455,-16747.03,-10409.18,17641.277
955933.4896625611,-8611.532,-36340.332,10232.748,6017.4155,6001.3022,-16752.605,-10415.08,17631.959
955933.4936625573,-8616.008,-36345.582,10226.318,6009.3994,5993.286,-16754.803,-10421.835,17630.086
955933.4976625536,-8630.453,-36359.254,10223.022,6006.9175,5986.0435,-16758.057,-10423.91,17629.924
955933.5016625498,-8626.221,-36361.98,10230.469,6014.16,5991.9434,-16757.812,-10421.387,17633.18
955933.505662546,-8615.153,-36356.12,10236.247,6018.5547,5994.5884,-16759.725,-10419.638,17635.01
955933.5096625423,-8620.158,-36359.418,10232.178,6014.6484,5995.158,-16758.22,-10419.76,17632.283
955933.5136625385,-8639.323,-36374.758,10219.157,5998.9424,5984.4565,-16761.922,-10429.159,17626.832
955933.5176625347,-8645.468,-36381.88,10217.367,5994.5884,5983.48,-16762.736,-10430.786,17622.234
955933.5216625311,-8632.487,-36366.414,10225.871,6005.005,5989.3394,-16758.748,-10425.985,17621.99
955933.5256625273,-8624.431,-36358.074,10232.056,6012.4106,5985.4736,-16757.527,-10419.882,17622.03
955933.5296625235,-8628.337,-36360.68,10229.614,6009.5215,5993.612,-16755.738,-10421.225,17616.781
955933.5336625198,-8637.045,-36368.855,10220.093,6000.0815,5982.463,-16755.982,-10429.118,17615.926
955933.537662516,-8638.062,-36375.082,10218.262,5999.105,5975.3013,-16753.541,-10430.786,17613.445
955933.5416625122,-8630.209,-36369.793,10226.237,6009.1553,5983.236,-16754.11,-10426.107,17612.752
955933.5456625085,-8622.314,-36360.11,10236.166,6017.497,5998.047,-16752.4,-10421.591,17617.39
955933.5496625047,-8620.85,-36361.246,10236.9795,6014.852,6000.285,-16752.4,-10422.974,17619.06
955933.5536625009,-8629.395,-36383.426,10229.777,6007.202,5994.5884,-16750.164,-10428.549,17618.45
955933.5576624973,-8637.695,-36393.066,10220.175,6000.0815,5996.338,-16750.611,-10432.617,17616.7
955933.5616624935,-8629.272,-36378.336,10225.586,6007.9346,6001.994,-16751.873,-10428.508,17618.328
955933.5656624897,-8621.094,-36362.875,10230.754,6014.73,6000.7324,-16751.424,-10422.038,17623.047
955933.569662486,-8631.022,-36369.793,10223.1045,6006.714,5991.9844,-16755.615,-10427.043,17620.158
955933.5736624822,-8636.719,-36379.234,10216.105,5998.169,5977.824,-16756.062,-10432.414,17616.943
955933.5776624784,-8638.347,-36380.29,10215.617,5997.8843,5979.0854,-16755.535,-10431.479,17618.652
955933.5816624747,-8630.29,-36378.176,10223.389,6006.2256,5989.0137,-16752.889,-10424.805,17622.518
955933.5856624709,-8621.013,-36378.543,10230.713,6013.957,5995.2393,-16747.111,-10418.783,17624.064
955933.5896624671,-8623.82,-36379.07,10227.702,6009.1553,5989.502,-16745.646,-10420.288,17624.268
955933.5936624634,-8640.585,-36389.977,10215.617,5995.931,5976.522,-16750.041,-10434.042,17617.717
955933.5976624597,-8644.206,-36397.746,10212.932,5992.4727,5974.162,-16755.209,-10439.86,17611.736
955933.6016624559,-8632.162,-36388.387,10219.971,6000.0,5977.214,-16756.55,-10433.879,17613.201
955933.6056624522,-8623.983,-36381.676,10226.929,6007.121,5981.4453,-16755.371,-10428.142,17615.682
955933.6096624484,-8631.47,-36390.42,10218.71,5999.5117,5975.342,-16760.742,-10437.094,17608.766
955933.6136624446,-8642.66,-36398.03,10211.345,5992.676,5968.3027,-16759.604,-10442.058,17607.87
955933.6176624409,-8642.66,-36397.586,10211.63,5995.036,5969.157,-16757.04,-10442.017,17603.516
955933.6216624371,-8635.173,-36391.848,10218.262,6000.7734,5972.8193,-16754.436,-10436.85,17611.98
955933.6256624333,-8630.859,-36390.668,10220.947,6003.2554,5976.074,-16757.244,-10432.699,17616.943
955933.6296624296,-8635.946,-36396.85,10214.56,5996.379,5972.2495,-16761.15,-10436.198,17610.678
955933.6336624258,-8649.984,-36413.617,10201.742,5981.405,5963.135,-16763.184,-10447.917,17602.295
955933.6376624221,-8655.64,-36419.312,10198.12,5980.0215,5959.066,-16764.363,-10449.789,17601.238
955933.6416624184,-8644.125,-36409.75,10209.88,5992.513,5964.8438,-16759.686,-10440.268,17606.324
955933.6456624146,-8629.843,-36399.902,10218.466,6000.2036,5973.226,-16758.465,-10438.192,17600.139
955933.6496624108,-8637.695,-36404.91,10211.182,5990.9263,5966.024,-16761.027,-10442.993,17596.355
955933.6536624071,-8649.089,-36412.273,10201.376,5981.893,5957.113,-16758.871,-10449.138,17595.256
955933.6576624033,-8653.198,-36412.516,10198.649,5982.2593,5960.1646,-16757.568,-10451.457,17593.385
955933.6616623995,-8640.991,-36407.39,10209.799,5993.5303,5969.93,-16755.818,-10444.458,17598.104
955933.6656623958,-8628.296,-36398.48,10219.32,6002.9707,5975.0977,-16753.5,-10439.616,17598.512
955933.669662392,-8629.517,-36400.84,10217.489,6000.2036,5973.633,-16752.197,-10440.308,17599.447
955933.6736623883,-8639.812,-36413.656,10210.897,5990.1123,5964.3965,-16750.53,-10447.836,17598.633
955933.6776623846,-8647.095,-36421.43,10204.102,5983.114,5961.141,-16755.047,-10457.438,17589.355
955933.6816623808,-8644.287,-36419.35,10207.072,5986.247,5962.484,-16751.873,-10453.573,17590.373
955933.685662377,-8639.689,-36417.4,10211.101,5992.147,5969.3604,-16747.438,-10447.673,17595.5
955933.6896623733,-8650.595,-36426.312,10203.9795,5985.2295,5962.4434,-16749.35,-10454.468,17588.014
955933.6936623695,-8660.645,-36440.797,10195.761,5975.0977,5948.5273,-16749.92,-10460.165,17587.932
955933.6976623657,-8661.54,-36444.99,10193.726,5973.918,5939.4126,-16748.414,-10462.321,17590.74
955933.701662362,-8656.006,-36437.867,10201.091,5983.114,5943.7256,-16749.635,-10454.956,17595.867
955933.7056623582,-8645.468,-36428.59,10210.002,5991.089,5953.003,-16749.715,-10448.975,17593.547
955933.7096623544,-8645.915,-36436.523,10206.259,5987.915,5951.9043,-16746.582,-10452.312,17585.938
955933.7136623508,-8660.238,-36451.457,10193.034,5974.8535,5940.3486,-16749.023,-10463.908,17576.824
955933.717662347,-8668.783,-36448.527,10187.094,5969.2793,5936.6455,-16749.635,-10468.872,17570.068
955933.7216623432,-8667.074,-36438.438,10191.162,5975.1387,5939.6567,-16749.309,-10465.454,17572.877
955933.7256623395,-8658.203,-36433.676,10197.714,5982.9917,5946.981,-16748.332,-10459.514,17580.404
955933.7296623357,-8656.779,-36442.02,10196.493,5977.824,5944.9463,-16749.146,-10463.135,17574.627
955933.733662332,-8665.649,-36453.41,10190.349,5970.6626,5939.8604,-16750.041,-10471.3545,17566.936
955933.7376623282,-8671.713,-36461.793,10184.448,5965.495,5936.157,-16752.727,-10475.505,17565.145
955933.7416623244,-8665.731,-36458.17,10190.837,5971.1104,5937.9883,-16748.535,-10467.204,17573.162
955933.7456623206,-8657.187,-36451.375,10198.527,5980.3877,5939.6973,-16739.096,-10457.235,17582.56
955933.7496623169,-8670.614,-36458.17,10193.645,5972.412,5937.0933,-16739.137,-10461.874,17574.83
955933.7536623132,-8674.235,-36460.086,10183.838,5962.6465,5934.204,-16742.514,-10475.261,17564.78
955933.7576623095,-8665.649,-36450.44,10182.78,5963.623,5932.658,-16745.158,-10480.185,17564.373
955933.7616623057,-8662.313,-36440.633,10189.047,5971.924,5939.6567,-16742.879,-10470.5,17576.01
955933.7656623019,-8647.949,-36422.812,10199.301,5982.0967,5953.939,-16738.12,-10457.927,17588.623
955933.7696622981,-8650.391,-36428.55,10195.761,5976.1963,5951.579,-16739.87,-10460.653,17581.096
955933.7736622944,-8663.168,-36440.188,10186.6455,5965.5356,5943.8477,-16740.602,-10467.937,17572.754
955933.7776622906,-8663.534,-36440.836,10185.1,5965.617,5942.546,-16741.7,-10469.6045,17575.195
955933.7816622868,-8657.187,-36431.844,10190.593,5976.8066,5946.289,-16739.828,-10461.548,17584.107
955933.7856622831,-8646.444,-36423.668,10197.021,5985.3926,5948.812,-16738.078,-10454.102,17589.275
955933.7896622793,-8647.665,-36427.613,10194.946,5981.201,5948.6494,-16736.572,-10461.996,17574.383
955933.7936622757,-8661.337,-36444.62,10185.995,5971.802,5943.2373,-16734.62,-10469.076,17567.098
955933.7976622719,-8665.405,-36454.793,10184.774,5968.2617,5938.6396,-16735.107,-10470.134,17570.312
955933.8016622681,-8656.657,-36440.227,10194.255,5976.4,5948.934,-16731.893,-10461.792,17582.52
955933.8056622643,-8647.136,-36428.1,10199.504,5979.3296,5956.136,-16735.799,-10463.217,17575.928
955933.8096622606,-8648.967,-36434.57,10197.226,5973.8364,5951.0093,-16739.543,-10466.675,17575.318
955933.8136622568,-8660.727,-36445.355,10186.076,5963.9487,5943.2373,-16741.578,-10473.186,17568.645
955933.817662253,-8657.593,-36442.14,10189.331,5968.9536,5942.098,-16737.02,-10469.157,17573.771
955933.8216622493,-8648.764,-36432.78,10195.883,5978.923,5944.133,-16734.457,-10461.874,17580.73
955933.8256622455,-8646.933,-36431.723,10199.626,5981.3643,5948.6084,-16734.742,-10457.846,17586.385
955933.8296622419,-8655.6,-36437.906,10193.115,5972.738,5943.685,-16736.207,-10463.989,17581.543
955933.8336622381,-8668.295,-36445.395,10183.554,5961.019,5928.0195,-16737.549,-10478.882,17563.396
955933.8376622343,-8668.457,-36444.785,10181.4375,5960.449,5927.49,-16739.502,-10481.527,17565.145
955933.8416622306,-8657.471,-36436.605,10191.366,5970.622,5933.757,-16740.193,-10471.68,17574.098
955933.8456622268,-8650.635,-36429.04,10198.405,5976.1963,5938.558,-16740.398,-10465.454,17577.963
955933.849662223,-8652.385,-36429.363,10196.452,5974.3247,5938.4766,-16740.275,-10466.716,17577.312
955933.8536622192,-8660.849,-36440.31,10187.297,5964.9253,5934.2856,-16741.7,-10476.929,17572.186
955933.8576622155,-8658.407,-36440.39,10187.338,5965.617,5937.3374,-16738.648,-10476.726,17570.8
955933.8616622117,-8652.222,-36443.24,10191.406,5971.1104,5941.976,-16735.799,-10470.459,17576.213
955933.865662208,-8645.142,-36439.25,10198.935,5976.8066,5945.394,-16736.125,-10467.163,17575.604
955933.8696622043,-8645.712,-36433.84,10194.499,5973.2666,5945.801,-16736.41,-10471.029,17571.777
955933.8736622005,-8653.605,-36442.832,10184.774,5964.071,5938.7617,-16738.525,-10479.492,17565.756
955933.8776621968,-8655.559,-36440.797,10185.141,5964.681,5933.1465,-16738.322,-10480.795,17567.586
955933.881662193,-8653.972,-36437.703,10187.826,5967.7734,5927.694,-16743.205,-10480.632,17564.006
955933.8856621892,-8647.136,-36428.67,10190.43,5971.843,5928.3447,-16742.146,-10476.767,17567.668
955933.8896621855,-8651.896,-36431.113,10185.995,5966.838,5929.0366,-16738.322,-10477.783,17566.61
955933.8936621817,-8664.714,-36440.676,10177.572,5957.113,5924.6826,-16737.428,-10485.922,17558.064
955933.8976621779,-8660.197,-36438.07,10181.4375,5959.7983,5929.1587,-16731.73,-10482.951,17555.543
955933.9016621741,-8644.45,-36427.86,10194.377,5974.813,5941.203,-16720.215,-10468.018,17569.418
955933.9056621704,-8632.568,-36420.535,10205.811,5985.962,5948.6084,-16714.234,-10458.13,17579.59
955933.9096621667,-8639.893,-36435.14,10201.132,5978.882,5947.795,-16714.6,-10463.989,17576.66
955933.913662163,-8656.006,-36444.54,10185.995,5965.495,5934.123,-16716.188,-10475.302,17567.18
955933.9176621592,-8660.6045,-36438.56,10178.793,5959.839,5928.833,-16717.0,-10485.678,17550.781
955933.9216621554,-8644.653,-36422.49,10191.732,5974.04,5941.8945,-16711.508,-10475.302,17562.5
955933.9256621517,-8635.376,-36414.023,10200.521,5983.073,5945.4346,-16710.125,-10463.949,17577.475
955933.9296621479,-8644.369,-36420.94,10193.767,5976.115,5940.593,-16712.605,-10470.337,17571.656
955933.9336621441,-8652.832,-36433.473,10187.134,5969.2383,5934.448,-16711.385,-10474.731,17569.174
955933.9376621403,-8654.501,-36449.26,10185.059,5966.7563,5934.123,-16710.37,-10475.952,17569.418
955933.9416621366,-8653.891,-36448.65,10188.3955,5970.9883,5939.25,-16711.264,-10471.558,17571.98
955933.9456621329,-8642.334,-36424.44,10197.266,5980.3467,5949.0156,-16708.863,-10466.635,17570.72
955933.9496621292,-8643.515,-36421.957,10193.645,5975.057,5946.045,-16708.74,-10471.477,17566.121
955933.9536621254,-8659.506,-36436.24,10181.967,5962.6465,5938.1104,-16710.979,-10480.021,17564.453
955933.9576621216,-8656.332,-36434.0,10182.333,5964.071,5939.575,-16708.334,-10477.661,17572.795
955933.9616621179,-8645.996,-36424.03,10192.424,5978.4346,5949.829,-16702.516,-10463.908,17581.951
955933.9656621141,-8632.487,-36409.668,10202.475,5989.502,5955.9326,-16698.04,-10457.235,17579.51
955933.9696621103,-8643.352,-36414.957,10195.068,5981.649,5951.864,-16698.365,-10466.675,17566.244
955933.9736621066,-8664.633,-36436.16,10177.246,5965.7393,5941.7725,-16702.8,-10480.021,17556.479
955933.9776621028,-8666.464,-36444.5,10173.381,5961.67,5938.6396,-16704.549,-10483.765,17554.2
955933.981662099,-8652.019,-36433.594,10186.117,5972.209,5944.58,-16699.79,-10478.882,17554.363
955933.9856620954,-8645.02,-36425.54,10191.936,5978.6787,5949.341,-16697.43,-10475.83,17561.605
955933.9896620916,-8649.13,-36431.52,10185.1,5972.86,5946.411,-16698.854,-10477.946,17562.215
955933.9936620878,-8654.135,-36441.45,10180.339,5965.617,5939.7383,-16701.01,-10484.091,17555.379
955933.9976620841,-8653.32,-36441.977,10179.81,5967.5293,5940.959,-16701.336,-10487.102,17551.717
955934.0016620803,-8651.571,-36435.465,10182.089,5971.395,5945.394,-16702.148,-10485.2295,17559.408
955934.0056620765,-8646.525,-36434.816,10184.937,5974.04,5950.9277,-16704.875,-10484.985,17558.473
955934.0096620728,-8644.653,-36448.65,10182.251,5969.4014,5947.225,-16703.94,-10490.438,17553.955
955934.013662069,-8657.39,-36460.855,10174.235,5959.0254,5936.9307,-16703.125,-10499.228,17547.934
955934.0176620652,-8661.377,-36454.145,10171.875,5958.9033,5934.2856,-16702.107,-10498.088,17546.102
955934.0216620615,-8651.815,-36447.836,10181.479,5967.326,5937.0117,-16702.148,-10493.449,17534.139
955934.0256620578,-8645.02,-36437.664,10189.779,5972.86,5937.866,-16699.3,-10488.974,17534.994
955934.029662054,-8652.792,-36449.504,10181.641,5963.379,5931.3154,-16700.725,-10493.002,17540.73
955934.0336620503,-8667.969,-36459.88,10170.695,5951.579,5925.1304,-16704.875,-10499.756,17540.812
955934.0376620465,-8673.462,-36457.48,10164.836,5947.5913,5915.6904,-16707.846,-10504.761,17542.645
955934.0416620427,-8657.471,-36441.203,10176.188,5959.1475,5921.224,-16703.533,-10495.85,17548.87
955934.045662039,-8649.862,-36437.99,10180.949,5963.908,5930.583,-16703.166,-10487.712,17554.77
955934.0496620352,-8653.402,-36443.562,10179.159,5960.0425,5928.6704,-16703.37,-10488.525,17556.193
955934.0536620314,-8659.953,-36451.418,10173.259,5953.288,5921.753,-16701.172,-10493.774,17552.287
955934.0576620277,-8663.859,-36454.227,10169.475,5950.643,5926.799,-16700.928,-10496.216,17544.271
955934.0616620239,-8653.809,-36454.1,10177.043,5957.5605,5929.6875,-16698.69,-10492.717,17551.514
955934.0656620202,-8646.24,-36446.574,10183.024,5964.681,5932.5767,-16694.459,-10486.45,17555.584
955934.0696620165,-8656.088,-36450.887,10176.88,5955.1597,5929.525,-16698.771,-10493.164,17547.12
955934.0736620127,-8664.877,-36462.28,10167.318,5944.9873,5922.16,-16704.143,-10500.977,17547.04
955934.0776620089,-8663.818,-36463.22,10170.939,5948.4053,5926.107,-16703.248,-10500.366,17546.225
955934.0816620052,-8652.06,-36454.062,10181.926,5958.9844,5927.816,-16702.027,-10493.612,17549.52
955934.0856620014,-8642.863,-36446.207,10188.029,5963.664,5926.1475,-16701.701,-10494.467,17546.307
955934.0896619976,-8649.455,-36450.035,10179.77,5956.34,5926.2695,-16701.213,-10499.797,17549.846
955934.0936619939,-8662.395,-36459.027,10166.26,5945.1094,5924.8457,-16699.992,-10500.977,17547.69
955934.0976619901,-8669.067,-36467.57,10159.587,5941.325,5920.3696,-16701.13,-10506.348,17542.36
955934.1016619864,-8661.459,-36457.36,10166.992,5951.172,5922.7295,-16699.871,-10502.075,17545.29
955934.1056619827,-8655.844,-36455.12,10171.428,5954.4272,5923.0146,-16699.91,-10496.094,17545.086
955934.1096619789,-8659.18,-36473.88,10168.579,5947.998,5922.038,-16703.045,-10499.431,17536.865
955934.1136619751,-8669.597,-36494.426,10159.384,5939.6973,5914.8765,-16704.021,-10504.599,17532.268
955934.1176619714,-8671.103,-36478.844,10159.628,5940.8774,5911.052,-16703.37,-10502.768,17537.883
955934.1216619676,-8660.767,-36456.22,10166.545,5948.69,5912.1504,-16702.23,-10497.152,17546.266
955934.1256619638,-8653.891,-36449.42,10169.8,5952.108,5913.0454,-16704.834,-10497.233,17541.668
955934.1296619601,-8660.563,-36455.973,10163.249,5943.1562,5919.8813,-16708.416,-10504.313,17535.28
955934.1336619563,-8672.934,-36466.715,10153.891,5934.123,5916.87,-16710.287,-10512.37,17530.193
955934.1376619525,-8675.253,-36477.867,10152.466,5932.7393,5909.261,-16709.799,-10511.149,17539.186
955934.1416619489,-8658.691,-36471.926,10165.487,5945.394,5918.0503,-16705.81,-10501.262,17546.916
955934.1456619451,-8652.182,-36466.15,10173.381,5953.2065,5921.5903,-16701.742,-10496.216,17548.828
955934.1496619413,-8664.307,-36472.008,10163.127,5943.563,5909.546,-16706.055,-10501.628,17534.709
955934.1536619376,-8671.225,-36477.54,10154.663,5934.001,5903.4834,-16706.178,-10506.552,17530.396
955934.1576619338,-8670.898,-36476.81,10153.687,5933.5938,5906.0874,-16705.77,-10510.458,17529.42
955934.16166193,-8669.719,-36471.56,10158.488,5938.436,5909.831,-16708.13,-10509.5625,17527.059
955934.1656619263,-8661.052,-36464.4,10164.958,5944.377,5911.377,-16707.52,-10508.22,17532.064
955934.1696619225,-8657.1455,-36464.316,10164.714,5944.9463,5913.656,-16704.875,-10507.162,17530.64
955934.1736619187,-8668.661,-36472.74,10157.023,5936.971,5905.721,-16706.828,-10511.638,17529.95
955934.177661915,-8668.62,-36474.855,10158.366,5937.0527,5901.5303,-16706.055,-10509.888,17534.832
955934.1816619113,-8661.947,-36470.176,10166.748,5944.9873,5908.244,-16703.736,-10504.721,17533.895
955934.1856619075,-8661.54,-36463.055,10169.8,5948.8936,5911.174,-16701.416,-10504.843,17534.832
955934.1896619038,-8662.964,-36461.1,10161.703,5942.424,5907.5522,-16704.59,-10514.323,17529.256
955934.1936619,-8671.713,-36470.99,10154.053,5931.926,5901.042,-16707.398,-10521.484,17527.71
955934.1976618962,-8677.002,-36478.516,10148.4375,5928.7925,5898.967,-16707.52,-10517.66,17534.627
955934.2016618925,-8666.667,-36469.156,10156.982,5938.1514,5900.9604,-16704.06,-10509.074,17539.918
955934.2056618887,-8652.832,-36457.723,10167.521,5949.26,5908.1626,-16697.389,-10499.187,17541.586
955934.2096618849,-8652.385,-36456.625,10166.423,5945.5977,5906.616,-16698.486,-10499.1455,17544.719
955934.2136618812,-8667.5625,-36475.79,10154.379,5933.7974,5899.536,-16700.604,-10509.318,17535.768
955934.2176618775,-8680.298,-36498.17,10147.624,5927.49,5894.1245,-16703.328,-10519.328,17526.693
955934.2216618737,-8670.004,-36493.164,10151.327,5931.885,5896.3623,-16706.463,-10518.921,17522.217
955934.22566187,-8664.836,-36474.527,10156.291,5937.2153,5900.635,-16702.84,-10511.76,17523.805
955934.2296618662,-8670.492,-36470.95,10151.042,5932.129,5893.3516,-16703.166,-10511.719,17526.734
955934.2336618624,-8676.107,-36473.227,10143.066,5924.1133,5886.5967,-16706.746,-10517.497,17525.229
955934.2376618587,-8680.176,-36476.605,10140.829,5922.4043,5880.534,-16711.06,-10521.037,17522.217
955934.2416618549,-8668.376,-36465.496,10152.06,5933.5938,5897.339,-16709.025,-10513.754,17529.664
955934.2456618511,-8658.732,-36457.805,10160.441,5943.7666,5907.959,-16705.566,-10509.604,17531.658
955934.2496618474,-8665.365,-36467.855,10154.135,5937.0527,5915.039,-16706.91,-10515.422,17527.182
955934.2536618436,-8673.828,-36476.48,10146.24,5927.7754,5909.5054,-16707.723,-10522.136,17529.541
955934.25766184,-8674.968,-36469.402,10147.665,5926.4326,5891.8867,-16707.602,-10521.811,17526.246
955934.2616618362,-8664.226,-36457.36,10160.034,5937.3374,5895.508,-16702.719,-10509.359,17539.998
955934.2656618324,-8659.099,-36452.477,10164.307,5941.732,5903.28,-16703.248,-10503.784,17541.219
955934.2696618286,-8667.888,-36459.027,10156.616,5931.1523,5898.8853,-16708.822,-10514.486,17535.36
955934.2736618249,-8675.944,-36472.453,10145.59,5921.0615,5888.6313,-16710.002,-10520.874,17537.762
955934.2776618211,-8678.874,-36475.87,10141.032,5920.329,5887.777,-16710.938,-10525.146,17533.895
955934.2816618173,-8672.607,-36468.06,10146.362,5926.0664,5894.979,-16710.572,-10517.253,17529.46
955934.2856618136,-8663.208,-36462.605,10153.28,5931.6406,5895.915,-16707.195,-10509.807,17533.0
955934.2896618098,-8667.807,-36467.977,10148.4375,5926.351,5886.1084,-16701.742,-10511.841,17533.53
955934.293661806,-8677.897,-36478.07,10143.921,5921.509,5875.7324,-16695.72,-10512.573,17539.227
955934.2976618024,-8672.404,-36474.45,10146.2,5924.4385,5884.9287,-16691.936,-10508.83,17542.848
955934.3016617986,-8660.889,-36465.375,10153.972,5931.3154,5889.323,-16692.668,-10506.308,17547.12
955934.3056617948,-8659.302,-36462.28,10156.169,5933.6753,5889.2417,-16697.145,-10505.371,17543.58
955934.3096617911,-8663.94,-36468.875,10151.083,5928.996,5889.282,-16695.191,-10508.301,17535.604
955934.3136617873,-8672.445,-36478.11,10144.816,5920.0034,5887.573,-16692.18,-10512.207,17541.545
955934.3176617835,-8674.805,-36476.523,10143.066,5918.01,5889.608,-16696.736,-10513.266,17541.016
955934.3216617798,-8664.104,-36463.055,10154.135,5928.3857,5894.5723,-16693.848,-10506.633,17542.604
955934.325661776,-8658.366,-36459.72,10159.628,5934.53,5897.827,-16692.383,-10501.587,17541.79
955934.3296617722,-8670.044,-36468.1,10152.141,5928.589,5895.101,-16691.854,-10507.202,17536.947
955934.3336617686,-8681.274,-36479.332,10139.404,5916.667,5886.4746,-16691.57,-10518.759,17534.912
955934.3376617648,-8679.77,-36479.13,10138.184,5915.5684,5884.8877,-16690.268,-10517.863,17540.121
955934.341661761,-8676.27,-36480.754,10142.334,5921.0615,5884.847,-16690.918,-10511.108,17537.883
955934.3456617573,-8671.184,-36486.574,10146.281,5926.2695,5888.916,-16689.494,-10507.69,17538.412
955934.3496617535,-8670.654,-36486.246,10144.45,5922.8926,5884.5215,-16685.955,-10511.557,17537.395
955934.3536617497,-8683.554,-36492.35,10135.58,5910.2783,5877.9297,-16683.35,-10519.613,17529.217
955934.357661746,-8689.209,-36490.64,10133.871,5910.5635,5881.5107,-16681.56,-10518.759,17530.803
955934.3616617422,-8674.561,-36473.633,10143.188,5922.689,5889.4043,-16680.543,-10511.719,17535.36
955934.3656617384,-8666.667,-36466.31,10149.048,5927.8975,5883.423,-16681.193,-10509.929,17533.244
955934.3696617347,-8671.713,-36471.723,10144.694,5922.241,5880.819,-16682.293,-10515.991,17526.693
955934.373661731,-8684.57,-36487.348,10131.145,5909.465,5876.0986,-16686.361,-10527.914,17514.04
955934.3776617273,-8683.024,-36487.184,10131.186,5912.1504,5880.005,-16685.506,-10525.513,17521.24
955934.3816617235,-8672.648,-36476.402,10143.393,5923.828,5883.0977,-16681.885,-10516.643,17530.193
955934.3856617197,-8663.33,-36472.332,10151.123,5930.664,5886.841,-16681.396,-10516.928,17527.547
955934.389661716,-8663.168,-36470.906,10147.461,5925.334,5885.3354,-16679.566,-10520.102,17529.135
955934.3936617122,-8676.025,-36484.336,10138.184,5914.5103,5875.8955,-16679.158,-10524.374,17528.361
955934.3976617084,-8684.082,-36489.91,10132.8125,5909.343,5876.4243,-16676.799,-10527.222,17525.432
955934.4016617046,-8671.875,-36475.832,10142.578,5920.288,5891.195,-16670.451,-10517.375,17534.75
955934.4056617009,-8664.47,-36465.78,10150.798,5926.677,5893.148,-16666.871,-10511.638,17533.855
955934.4096616971,-8663.574,-36458.54,10149.862,5923.462,5886.556,-16663.738,-10515.625,17527.264
955934.4136616935,-8670.817,-36468.59,10144.572,5917.0737,5881.1445,-16663.25,-10523.356,17524.781
955934.4176616897,-8679.24,-36473.836,10141.846,5912.5977,5876.384,-16663.697,-10525.473,17525.229
955934.4216616859,-8672.7705,-36470.99,10145.752,5917.4805,5882.8535,-16662.477,-10519.043,17531.697
955934.4256616822,-8661.011,-36466.96,10153.32,5924.398,5890.8286,-16661.947,-10512.939,17532.105
955934.4296616784,-8665.609,-36467.613,10144.491,5917.2773,5889.282,-16661.377,-10518.433,17525.432
955934.4336616746,-8681.4375,-36478.965,10129.517,5902.2627,5871.338,-16667.848,-10531.047,17522.664
955934.4376616708,-8688.192,-36485.72,10127.116,5899.984,5865.2344,-16666.748,-10533.122,17525.758
955934.4416616671,-8680.136,-36477.094,10136.19,5911.296,5876.2617,-16664.266,-10524.699,17526.611
955934.4456616633,-8669.597,-36468.387,10147.055,5922.038,5884.8066,-16660.93,-10515.178,17536.377
955934.4496616595,-8674.724,-36472.574,10139.445,5911.9062,5878.2554,-16667.033,-10526.327,17524.537
955934.4536616559,-8682.536,-36481.203,10136.435,5907.9185,5873.332,-16665.324,-10527.182,17525.27
955934.4576616521,-8688.64,-36487.184,10132.406,5904.8667,5867.961,-16662.436,-10527.344,17525.879
955934.4616616484,-8684.937,-36490.6,10134.604,5907.2266,5865.6006,-16663.453,-10525.961,17519.94
955934.4656616446,-8675.171,-36482.992,10142.375,5914.2256,5872.396,-16660.32,-10523.886,17518.352
955934.4696616408,-8681.193,-36485.434,10138.591,5907.634,5870.4023,-16660.156,-10530.884,17513.713
955934.473661637,-8693.645,-36496.99,10128.581,5896.1997,5859.945,-16663.697,-10537.802,17511.354
955934.4776616333,-8692.871,-36500.082,10126.181,5895.345,5857.341,-16665.691,-10539.185,17506.348
955934.4816616295,-8688.518,-36493.57,10133.586,5903.9717,5862.712,-16664.145,-10532.1045,17506.348
955934.4856616257,-8680.136,-36493.082,10138.266,5910.5635,5874.5527,-16662.68,-10527.751,17506.715
955934.4896616221,-8679.6875,-36488.242,10134.033,5906.8604,5873.698,-16664.877,-10532.471,17499.146
955934.4936616183,-8686.728,-36489.707,10128.256,5899.7803,5860.718,-16664.348,-10534.79,17504.07
955934.4976616146,-8685.71,-36487.47,10131.186,5901.815,5860.0264,-16663.086,-10534.506,17510.58
955934.5016616108,-8680.095,-36481.242,10135.336,5906.942,5863.9326,-16664.145,-10536.784,17510.701
955934.505661607,-8671.347,-36476.605,10143.352,5913.452,5868.7744,-16663.33,-10530.355,17508.465
955934.5096616033,-8678.508,-36483.195,10138.632,5906.9824,5868.8965,-16665.895,-10532.797,17510.01
955934.5136615995,-8691.61,-36499.51,10125.8545,5894.206,5858.5615,-16668.742,-10539.633,17506.633
955934.5176615957,-8692.79,-36507.45,10122.559,5891.4795,5856.242,-16670.777,-10539.511,17507.65
955934.521661592,-8686.809,-36500.246,10128.215,5898.2344,5859.8228,-16669.19,-10530.07,17517.13
955934.5256615882,-8677.694,-36487.71,10136.719,5907.308,5865.56,-16667.604,-10525.961,17515.096
955934.5296615845,-8679.24,-36485.84,10136.19,5908.325,5866.8623,-16665.527,-10525.879,17516.113
955934.5336615808,-8689.209,-36491.66,10127.36,5898.6816,5857.0967,-16665.283,-10535.522,17509.318
955934.537661577,-8690.227,-36493.082,10124.716,5895.3047,5855.876,-16666.342,-10538.94,17508.709
955934.5416615732,-8681.723,-36483.523,10131.836,5904.5005,5865.3564,-16664.51,-10530.111,17516.44
955934.5456615695,-8679.443,-36479.25,10136.19,5909.261,5867.025,-16664.795,-10525.31,17521.443
955934.5496615657,-8683.146,-36486.168,10128.784,5900.7163,5855.5503,-16668.133,-10531.942,17515.625
955934.5536615619,-8689.819,-36495.688,10122.437,5891.6426,5843.994,-16673.299,-10539.022,17511.23
955934.5576615582,-8688.599,-36493.33,10125.082,5896.118,5844.5234,-16671.713,-10539.104,17507.691
955934.5616615544,-8680.176,-36485.965,10132.895,5906.047,5852.58,-16668.172,-10529.826,17520.752
955934.5656615506,-8672.648,-36474.527,10135.58,5910.8887,5860.311,-16666.748,-10526.083,17517.254
955934.569661547,-8688.437,-36487.145,10124.1455,5901.245,5854.126,-16669.8,-10529.46,17512.127
955934.5736615432,-8710.693,-36507.242,10108.684,5886.678,5844.0757,-16669.516,-10535.522,17509.4
955934.5776615394,-8696.696,-36501.305,10116.008,5887.492,5844.6045,-16671.713,-10541.789,17503.541
955934.5816615357,-8667.685,-36477.867,10135.946,5901.0825,5851.6035,-16673.748,-10537.313,17506.795
955934.5856615319,-8656.698,-36467.57,10144.531,5910.36,5855.9165,-16671.59,-10532.187,17510.742
955934.5896615281,-8667.358,-36478.76,10137.939,5902.7915,5845.703,-16670.33,-10534.506,17508.953
955934.5936615244,-8683.96,-36493.777,10126.791,5889.974,5833.6997,-16671.795,-10544.516,17494.549
955934.5976615206,-8693.93,-36501.14,10123.291,5887.451,5835.083,-16671.55,-10546.103,17490.398
955934.6016615168,-8693.075,-36499.715,10128.54,5892.8633,5844.3604,-16672.527,-10536.784,17498.535
955934.6056615132,-8675.537,-36485.395,10140.503,5901.123,5849.04,-16670.086,-10533.691,17505.209
955934.6096615094,-8673.788,-36486.86,10137.329,5897.4204,5846.843,-16671.184,-10538.371,17503.256
955934.6136615056,-8684.855,-36498.902,10128.784,5889.852,5840.2915,-16672.283,-10543.986,17497.762
955934.6176615019,-8689.86,-36504.438,10124.878,5886.76,5833.293,-16671.834,-10550.049,17494.426
955934.6216614981,-8679.77,-36490.234,10132.69,5895.8335,5833.618,-16667.318,-10543.173,17498.291
955934.6256614943,-8672.241,-36480.145,10140.747,5901.6523,5835.775,-16668.824,-10536.093,17502.768
955934.6296614906,-8681.396,-36488.2,10131.877,5893.1885,5831.828,-16668.54,-10539.795,17500.203
955934.6336614868,-8696.533,-36500.895,10120.077,5882.202,5821.574,-16669.557,-10549.602,17492.717
955934.637661483,-8701.05,-36505.617,10119.67,5882.324,5817.5864,-16670.492,-10553.183,17485.84
955934.6416614793,-8689.616,-36497.926,10131.267,5892.497,5827.4336,-16665.568,-10542.277,17495.973
955934.6456614756,-8673.137,-36492.27,10141.846,5901.6523,5829.997,-16663.738,-10533.773,17503.582
955934.6496614718,-8680.298,-36502.035,10133.83,5892.375,5830.0376,-16668.66,-10539.022,17502.482
955934.6536614681,-8690.227,-36509.684,10123.942,5884.1147,5826.416,-16670.898,-10545.817,17498.943
955934.6576614643,-8692.505,-36510.99,10122.6,5884.725,5821.737,-16671.346,-10547.363,17498.943
955934.6616614605,-8686.768,-36501.26,10131.186,5893.0664,5826.823,-16670.533,-10541.911,17504.883
955934.6656614568,-8680.786,-36494.387,10141.154,5900.9604,5835.2866,-16668.01,-10536.54,17509.604
955934.669661453,-8683.635,-36501.914,10135.905,5894.4907,5830.892,-16668.01,-10538.615,17508.668
955934.6736614492,-8691.65,-36509.074,10127.197,5886.1494,5827.2705,-16667.928,-10545.37,17505.656
955934.6776614455,-8693.604,-36510.336,10122.519,5886.068,5828.369,-16667.44,-10547.974,17506.674
955934.6816614417,-8684.367,-36504.56,10131.592,5896.0776,5834.2695,-16667.725,-10544.108,17504.639
955934.685661438,-8676.107,-36495.117,10141.317,5902.5474,5839.5996,-16669.19,-10542.644,17499.146
955934.6896614343,-8679.037,-36496.055,10137.736,5899.17,5835.531,-16670.086,-10547.445,17494.264
955934.6936614305,-8685.141,-36499.96,10129.883,5892.8223,5832.3975,-16670.33,-10551.433,17496.99
955934.6976614267,-8685.954,-36503.785,10128.906,5891.1543,5832.1533,-16667.115,-10552.246,17501.953
955934.701661423,-8680.502,-36498.25,10136.557,5899.1294,5839.4775,-16665.121,-10546.428,17507.244
955934.7056614192,-8676.433,-36497.152,10139.12,5902.2217,5840.1694,-16667.889,-10544.678,17504.965
955934.7096614154,-8680.99,-36505.984,10132.284,5894.613,5831.787,-16670.166,-10550.009,17502.076
955934.7136614117,-8689.738,-36519.004,10125.61,5886.556,5826.9043,-16668.54,-10556.682,17500.652
955934.7176614079,-8691.8545,-36522.707,10126.506,5887.248,5830.526,-16665.324,-10556.396,17505.818
955934.7216614042,-8679.199,-36514.69,10135.58,5897.746,5837.972,-16663.86,-10549.154,17509.074
955934.7256614005,-8672.323,-36503.95,10143.352,5903.9307,5840.902,-16662.8,-10543.986,17508.992
955934.7296613967,-8680.176,-36509.117,10137.736,5897.258,5836.589,-16663.086,-10547.567,17507.527
955934.7336613929,-8691.8545,-36512.613,10128.947,5890.3403,5835.4087,-16661.459,-10552.084,17508.3
955934.7376613892,-8695.15,-36513.023,10123.413,5884.8877,5828.247,-16661.459,-10560.222,17500.773
955934.7416613854,-8686.523,-36507.242,10131.145,5891.1543,5828.044,-16660.115,-10557.211,17497.64
955934.7456613816,-8682.089,-36504.76,10136.027,5894.9385,5831.543,-16663.33,-10555.99,17489.178
955934.7496613779,-8689.494,-36517.457,10130.778,5886.76,5827.474,-16665.895,-10563.11,17481.08
955934.7536613741,-8701.498,-36534.914,10117.351,5875.366,5814.8604,-16667.889,-10575.195,17472.941
955934.7576613703,-8707.561,-36535.93,10112.427,5875.692,5817.098,-16665.365,-10576.986,17471.559
955934.7616613667,-8696.655,-36528.2,10122.844,5887.6143,5825.765,-16664.062,-10567.831,17478.15
955934.7656613629,-8683.472,-36519.45,10134.644,5899.6177,5832.7637,-16662.312,-10556.071,17486.94
955934.7696613591,-8686.605,-36526.57,10127.401,5892.456,5821.6147,-16662.273,-10559.57,17484.13
955934.7736613554,-8696.045,-36538.047,10118.164,5879.2725,5808.716,-16662.557,-10571.533,17480.51
955934.7776613516,-8692.871,-36530.438,10119.385,5880.5747,5813.314,-16658.57,-10568.481,17484.295
955934.7816613478,-8687.622,-36520.266,10127.401,5887.9805,5826.579,-16652.67,-10557.007,17497.6
955934.7856613441,-8685.954,-36512.453,10131.348,5890.5845,5828.8984,-16652.791,-10550.822,17503.418
955934.7896613403,-8689.331,-36516.156,10130.859,5887.6143,5827.8,-16650.473,-10552.043,17501.832
955934.7936613365,-8703.166,-36529.785,10121.501,5879.232,5820.1904,-16650.35,-10556.315,17501.385
955934.7976613328,-8703.369,-36534.344,10121.989,5880.4526,5820.638,-16648.846,-10554.892,17504.477
955934.8016613291,-8695.354,-36528.445,10128.418,5887.5327,5826.7417,-16645.793,-10547.038,17510.742
955934.8056613253,-8683.879,-36520.062,10134.5625,5892.6597,5828.7764,-16643.23,-10541.22,17513.957
955934.8096613216,-8687.419,-36524.008,10128.459,5882.6094,5821.574,-16647.055,-10548.991,17508.79
955934.8136613178,-8689.209,-36524.21,10117.106,5873.535,5815.7554,-16648.396,-10562.46,17493.816
955934.817661314,-8689.941,-36524.54,10114.624,5873.047,5813.07,-16649.617,-10569.906,17485.23
955934.8216613103,-8666.667,-36508.26,10130.575,5887.655,5822.673,-16645.305,-10563.07,17490.723
955934.8256613065,-8644.572,-36486.004,10142.334,5896.932,5828.003,-16648.396,-10562.134,17490.398
955934.8296613027,-8631.552,-36473.227,10136.3125,5890.8286,5828.003,-16652.467,-10575.399,17476.521
955934.833661299,-8626.75,-36465.17,10128.418,5883.911,5827.1895,-16654.623,-10584.514,17469.523
955934.8376612952,-8609.457,-36449.832,10133.993,5887.573,5831.543,-16651.855,-10583.944,17472.047
955934.8416612915,-8573.568,-36418.742,10149.943,5899.658,5833.6997,-16650.066,-10576.945,17480.957
955934.8456612878,-8541.382,-36386.72,10161.865,5913.005,5843.8315,-16650.066,-10576.05,17475.953
955934.849661284,-8529.013,-36370.89,10160.971,5911.9062,5842.8955,-16654.176,-10587.932,17455.893
955934.8536612802,-8523.112,-36360.758,10153.239,5902.9136,5841.512,-16659.994,-10605.021,17442.586
955934.8576612765,-8512.004,-36349.527,10153.361,5905.0293,5849.3247,-16662.273,-10608.276,17442.871
955934.8616612727,-8495.117,-36330.812,10162.272,5915.6904,5855.428,-16662.273,-10604.126,17448.242
955934.8656612689,-8474.406,-36304.973,10172.079,5924.2354,5861.776,-16663.656,-10603.842,17443.28
955934.8696612652,-8478.394,-36310.387,10165.731,5915.4463,5853.8413,-16666.748,-10611.898,17436.2
955934.8736612614,-8489.258,-36329.55,10156.047,5907.756,5847.6562,-16666.219,-10619.548,17427.125
955934.8776612577,-8486.532,-36329.02,10157.512,5912.0283,5851.074,-16659.871,-10617.758,17431.682
955934.881661254,-8481.12,-36322.266,10166.87,5920.6543,5857.0967,-16653.564,-10608.765,17442.75
955934.8856612502,-8480.632,-36322.47,10171.794,5923.95,5859.5786,-16650.31,-10599.772,17446.209
955934.8896612464,-8495.728,-36322.715,10164.958,5915.731,5855.754,-16649.129,-10600.302,17451.092
955934.8936612427,-8525.879,-36345.38,10145.834,5899.0073,5840.129,-16652.914,-10613.525,17439.129
955934.8976612389,-8540.283,-36369.266,10140.381,5892.1714,5833.13,-16654.297,-10615.886,17439.209
955934.9016612351,-8539.714,-36371.094,10145.59,5901.245,5843.75,-16650.92,-10603.516,17442.627
955934.9056612314,-8542.847,-36380.496,10157.512,5909.8716,5854.2075,-16644.207,-10591.35,17449.342
955934.9096612276,-8559.164,-36395.145,10154.094,5904.419,5847.6157,-16642.701,-10594.442,17447.836
955934.9136612238,-8573.975,-36409.996,10139.038,5895.9556,5829.2646,-16638.387,-10592.367,17460.002
955934.9176612202,-8581.218,-36414.188,10140.137,5894.5312,5821.9404,-16633.953,-10584.473,17469.035
955934.9216612164,-8581.299,-36413.453,10142.741,5898.4785,5824.4224,-16633.709,-10581.869,17472.697
955934.9256612126,-8588.664,-36420.047,10142.09,5897.5425,5826.213,-16629.598,-10581.869,17468.994
955934.9296612089,-8609.538,-36440.555,10130.778,5886.2715,5821.0044,-16629.639,-10586.874,17463.908
955934.9336612051,-8635.336,-36466.188,10118.774,5874.7153,5815.511,-16632.732,-10595.297,17459.799
955934.9376612013,-8645.712,-36474.324,10115.764,5872.3145,5807.8613,-16632.732,-10596.965,17457.887
955934.9416611976,-8633.952,-36467.33,10128.662,5884.7656,5820.028,-16630.086,-10586.386,17469.035
955934.9456611938,-8628.418,-36462.16,10135.214,5890.259,5824.1377,-16628.988,-10581.259,17474.488
955934.94966119,-8642.05,-36472.86,10125.8545,5879.802,5818.929,-16626.18,-10582.602,17476.562
955934.9536611863,-8663.412,-36493.938,10109.741,5865.0312,5806.6406,-16628.785,-10586.467,17476.727
955934.9576611826,-8667.5625,-36499.43,10108.725,5864.8276,5804.769,-16626.22,-10585.612,17474.488
955934.9616611789,-8659.994,-36494.223,10118.612,5874.5527,5813.5176,-16620.77,-10576.05,17481.445
955934.9656611751,-8652.304,-36494.508,10127.89,5882.324,5818.4004,-16619.914,-10570.19,17480.469
955934.9696611713,-8665.283,-36506.266,10121.46,5872.8438,5810.832,-16620.688,-10573.853,17474.977
955934.9736611675,-8684.896,-36522.42,10107.992,5859.8228,5799.276,-16621.99,-10585.205,17473.186
955934.9776611638,-8691.569,-36531.94,10102.499,5855.835,5797.0786,-16622.193,-10593.018,17470.662
955934.98166116,-8689.331,-36526.734,10108.195,5863.6475,5806.722,-16618.287,-10583.334,17477.621
955934.9856611562,-8685.995,-36516.4,10114.462,5871.338,5811.1167,-16618.816,-10577.312,17485.637
955934.9896611525,-8693.075,-36520.67,10107.666,5864.8276,5802.9785,-16623.7,-10583.944,17476.766
955934.9936611488,-8700.439,-36532.227,10100.871,5855.5503,5793.9453,-16623.982,-10586.589,17475.75
955934.997661145,-8701.254,-36533.977,10104.289,5859.131,5790.609,-16617.025,-10582.52,17482.83
955935.0016611413,-8700.399,-36535.32,10108.969,5866.0483,5796.346,-16616.293,-10579.184,17482.016
955935.0056611375,-8701.213,-36539.188,10110.026,5867.5537,5796.55,-16616.822,-10573.08,17483.357
955935.0096611338,-8713.135,-36550.824,10100.261,5857.0557,5791.545,-16615.764,-10577.556,17481.04
955935.01366113,-8720.419,-36556.887,10093.832,5848.5107,5791.423,-16613.078,-10585.979,17472.615
955935.0176611262,-8718.954,-36559.082,10093.222,5848.8364,5787.679,-16612.02,-10587.118,17469.768
955935.0216611224,-8708.984,-36551.027,10103.394,5858.6836,5787.557,-16607.545,-10577.637,17481.201
955935.0256611187,-8695.109,-36537.477,10114.543,5871.135,5801.7173,-16603.354,-10566.488,17490.031
955935.0296611149,-8703.003,-36545.29,10107.666,5862.9966,5798.1367,-16606.486,-10570.557,17486.695
955935.0336611113,-8719.442,-36557.58,10096.558,5851.8066,5788.8184,-16608.113,-10576.823,17486.736
955935.0376611075,-8716.431,-36555.46,10096.965,5853.8413,5787.1094,-16605.428,-10574.057,17491.62
955935.0416611037,-8706.381,-36553.793,10104.818,5858.8867,5788.6963,-16605.307,-10563.681,17500.732
955935.0456611,-8702.2705,-36554.688,10112.183,5862.9966,5791.26,-16602.947,-10562.46,17486.898
955935.0496610962,-8710.002,-36559.367,10103.19,5854.126,5784.6274,-16604.777,-10571.045,17479.818
955935.0536610924,-8711.02,-36561.16,10097.575,5849.569,5781.616,-16604.736,-10575.766,17485.352
955935.0576610886,-8711.508,-36565.594,10096.762,5851.1963,5784.424,-16602.986,-10572.754,17489.543
955935.0616610849,-8712.443,-36567.06,10101.481,5855.957,5791.504,-16598.633,-10570.15,17493.734
955935.0656610811,-8707.357,-36556.766,10106.039,5860.1074,5797.8926,-16598.309,-10567.709,17496.053
955935.0696610773,-8714.804,-36558.434,10096.273,5851.6035,5779.1343,-16602.54,-10575.562,17488.363
955935.0736610737,-8724.895,-36569.05,10083.74,5841.3086,5765.381,-16607.342,-10586.63,17475.506
955935.0776610699,-8728.149,-36573.406,10081.787,5840.576,5777.466,-16607.463,-10589.763,17473.715
955935.0816610662,-8722.9,-36565.715,10089.682,5848.7144,5785.4414,-16604.9,-10584.636,17479.86
955935.0856610624,-8710.205,-36556.234,10101.44,5858.5205,5790.202,-16604.248,-10578.166,17481.121
955935.0896610586,-8716.879,-36562.664,10097.046,5853.5156,5783.203,-16607.098,-10583.781,17481.69
955935.0936610549,-8730.144,-36572.55,10088.054,5845.5,5779.297,-16609.254,-10592.163,17475.953
955935.0976610511,-8733.073,-36579.55,10087.077,5844.116,5785.848,-16606.404,-10594.157,17479.451
955935.1016610473,-8720.825,-36572.88,10094.564,5849.7725,5787.1094,-16603.639,-10583.252,17486.898
955935.1056610435,-8705.811,-36563.19,10101.767,5857.015,5781.9824,-16602.459,-10577.637,17491.822
955935.1096610399,-8712.81,-36567.14,10097.087,5850.383,5772.6646,-16606.69,-10582.316,17489.258
955935.1136610361,-8724.447,-36573.73,10090.536,5842.2446,5781.6978,-16605.877,-10587.036,17487.102
955935.1176610324,-8722.778,-36573.203,10090.373,5843.628,5778.9717,-16602.377,-10585.612,17489.625
955935.1216610286,-8715.21,-36564.86,10095.337,5849.691,5772.258,-16603.027,-10583.171,17494.752
955935.1256610248,-8712.077,-36559.695,10099.569,5853.231,5777.0996,-16603.8,-10580.893,17497.479
955935.129661021,-8724.203,-36567.098,10089.763,5842.7734,5777.995,-16606.854,-10591.391,17485.555
955935.1336610173,-8734.985,-36577.637,10079.59,5832.5195,5771.444,-16606.121,-10595.256,17480.389
955935.1376610135,-8730.469,-36574.18,10081.218,5833.822,5769.4907,-16601.521,-10593.832,17483.357
955935.1416610098,-8719.238,-36563.965,10091.594,5845.6626,5780.884,-16596.111,-10585.409,17489.746
955935.145661006,-8713.542,-36556.48,10097.738,5852.336,5785.848,-16596.436,-10581.747,17492.676
955935.1496610023,-8715.292,-36553.223,10095.703,5849.6504,5783.651,-16594.809,-10585.612,17491.62
955935.1536609986,-8725.058,-36559.734,10091.146,5842.2446,5779.216,-16595.135,-10590.983,17482.992
955935.1576609948,-8725.505,-36562.258,10094.32,5842.611,5780.1924,-16594.768,-10590.739,17475.3
955935.161660991,-8721.599,-36555.95,10101.359,5849.365,5782.9185,-16593.914,-10582.4795,17478.475
955935.1656609873,-8712.932,-36553.59,10106.771,5851.9697,5781.535,-16594.564,-10581.055,17475.83
955935.1696609835,-8714.4375,-36558.473,10099.203,5844.4014,5779.2563,-16593.873,-10587.24,17471.273
955935.1736609797,-8720.622,-36563.19,10089.763,5837.7686,5771.322,-16592.855,-10595.215,17474.53
955935.177660976,-8716.146,-36560.387,10092.529,5841.1865,5771.81,-16592.977,-10596.762,17473.592
955935.1816609722,-8704.428,-36554.04,10100.424,5850.6675,5781.9014,-16593.629,-10594.523,17473.877
955935.1856609684,-8698.8125,-36548.3,10103.882,5855.2246,5786.377,-16591.146,-10594.401,17467.896
955935.1896609648,-8711.63,-36554.65,10095.175,5847.4937,5774.658,-16593.182,-10600.505,17459.637
955935.193660961,-8721.558,-36564.535,10085.775,5839.193,5769.287,-16593.709,-10603.516,17459.758
955935.1976609572,-8722.616,-36566.734,10087.769,5840.617,5768.962,-16591.756,-10601.848,17459.066
955935.2016609535,-8713.054,-36557.82,10097.9,5851.6035,5775.228,-16589.885,-10595.744,17462.281
955935.2056609497,-8703.003,-36544.68,10105.835,5860.067,5787.3535,-16589.723,-10588.786,17464.275
955935.2096609459,-8712.565,-36553.59,10096.436,5848.9585,5782.2676,-16588.99,-10599.162,17461.385
955935.2136609422,-8723.022,-36562.99,10082.438,5837.158,5770.4673,-16589.559,-10609.985,17455.404
955935.2176609384,-8728.882,-36566.45,10076.376,5833.4556,5763.0615,-16590.658,-10610.393,17456.38
955935.2216609346,-8718.344,-36559.977,10088.542,5844.32,5763.713,-16586.59,-10599.65,17459.88
955935.2256609309,-8709.473,-36553.996,10095.988,5851.074,5766.8457,-16579.021,-10591.064,17465.535
955935.2296609272,-8717.529,-36559.977,10088.257,5843.221,5765.4624,-16583.008,-10597.412,17462.24
955935.2336609234,-8720.419,-36563.844,10085.734,5839.803,5764.6895,-16581.707,-10599.936,17456.91
955935.2376609197,-8719.238,-36563.64,10088.867,5839.5996,5764.974,-16578.695,-10598.471,17455.566
955935.2416609159,-8712.321,-36557.008,10094.768,5845.5405,5767.5376,-16579.875,-10596.599,17450.766
955935.2456609121,-8707.602,-36557.254,10096.069,5848.9585,5770.874,-16580.566,-10594.32,17458.781
955935.2496609084,-8715.373,-36566.406,10085.653,5836.2227,5764.282,-16583.293,-10602.987,17457.479
955935.2536609046,-8724.04,-36573.242,10077.2705,5828.3286,5758.911,-16585.043,-10609.741,17445.72
955935.2576609008,-8722.006,-36576.703,10078.125,5829.468,5755.412,-16582.764,-10607.056,17446.004
955935.261660897,-8710.327,-36566.406,10087.118,5838.542,5760.173,-16580.037,-10594.727,17459.473
955935.2656608934,-8699.992,-36555.176,10096.436,5847.534,5768.026,-16573.568,-10583.822,17471.273
955935.2696608896,-8711.752,-36561.117,10089.071,5839.3555,5763.1836,-16572.389,-10591.187,17462.932
955935.2736608859,-8727.661,-36578.125,10076.132,5827.474,5750.041,-16573.527,-10604.289,17449.504
955935.2776608821,-8732.341,-36582.195,10074.219,5827.5557,5750.163,-16576.58,-10610.148,17443.115
955935.2816608783,-8720.337,-36572.957,10080.933,5835.9375,5754.3945,-16577.107,-10607.748,17442.912
955935.2856608746,-8710.49,-36565.066,10086.386,5840.495,5754.598,-16576.092,-10604.37,17446.086
955935.2896608708,-8711.589,-36565.633,10085.205,5837.2397,5754.476,-16571.127,-10605.021,17448.854
955935.293660867,-8714.641,-36569.094,10082.031,5832.3164,5755.9004,-16567.75,-10609.945,17445.354
955935.2976608633,-8714.56,-36572.55,10082.316,5833.822,5754.5576,-16568.238,-10608.643,17444.783
955935.3016608595,-8710.531,-36568.035,10085.775,5841.39,5762.004,-16566.326,-10606.161,17445.191
955935.3056608558,-8708.334,-36564.496,10087.077,5844.6455,5768.4736,-16564.861,-10607.707,17443.482
955935.3096608521,-8712.443,-36568.44,10083.862,5839.193,5764.73,-16565.512,-10610.515,17442.953
955935.3136608483,-8721.069,-36579.227,10075.725,5827.9624,5753.703,-16566.447,-10612.631,17443.604
955935.3176608445,-8718.547,-36577.555,10074.829,5825.9688,5754.7607,-16566.0,-10607.422,17452.271
955935.3216608408,-8701.294,-36558.676,10090.536,5839.7627,5764.16,-16556.805,-10591.919,17470.906
955935.325660837,-8701.01,-36559.855,10092.001,5842.041,5760.539,-16555.584,-10590.495,17472.697
955935.3296608332,-8711.996,-36571.207,10081.991,5834.717,5756.6733,-16554.078,-10602.051,17465.008
955935.3336608295,-8728.557,-36585.33,10072.185,5825.8467,5744.9546,-16557.049,-10617.106,17450.115
955935.3376608257,-8732.219,-36593.875,10071.818,5824.341,5738.729,-16556.234,-10619.711,17447.795
955935.3416608219,-8715.048,-36579.305,10082.642,5835.897,5749.0645,-16552.775,-10609.375,17453.248
955935.3456608183,-8697.266,-36560.875,10092.041,5846.517,5759.3184,-16549.154,-10601.5625,17459.066
955935.3496608145,-8702.067,-36565.39,10086.182,5841.1055,5752.4824,-16544.434,-10603.923,17453.898
955935.3536608107,-8719.89,-36583.824,10075.114,5827.8,5748.413,-16545.41,-10610.515,17451.172
955935.357660807,-8726.522,-36592.33,10076.132,5826.701,5749.797,-16539.959,-10610.434,17452.596
955935.3616608032,-8724.162,-36590.78,10082.357,5835.7344,5758.708,-16534.791,-10606.201,17451.416
955935.3656607994,-8712.81,-36581.992,10088.339,5844.4824,5765.788,-16536.662,-10607.341,17445.395
955935.3696607957,-8714.355,-36583.133,10086.426,5839.3965,5757.406,-16538.697,-10614.502,17439.738
955935.3736607919,-8718.344,-36580.566,10078.573,5833.252,5752.0347,-16536.744,-10618.042,17442.18
955935.3776607881,-8709.961,-36573.12,10084.188,5838.135,5757.08,-16531.332,-10616.171,17443.28
955935.3816607845,-8706.909,-36569.05,10088.501,5843.0176,5762.777,-16527.588,-10609.985,17454.957
955935.3856607807,-8702.8,-36569.906,10092.285,5846.5986,5763.672,-16524.252,-10601.44,17463.502
955935.389660777,-8702.759,-36571.74,10087.769,5841.716,5758.016,-16522.543,-10604.736,17459.88
955935.3936607732,-8715.861,-36581.3,10078.695,5832.113,5754.3945,-16526.57,-10613.485,17454.266
955935.3976607694,-8720.419,-36588.582,10076.416,5831.95,5755.371,-16525.758,-10614.299,17453.94
955935.4016607656,-8713.542,-36584.027,10081.503,5839.0303,5759.5215,-16523.031,-10613.281,17452.434
955935.4056607619,-8704.184,-36575.48,10088.949,5843.547,5761.882,-16521.12,-10608.562,17457.031
955935.4096607581,-8707.438,-36580.85,10085.409,5837.036,5757.894,-16521.852,-10613.241,17458.416
955935.4136607543,-8709.351,-36583.133,10082.846,5833.659,5754.8423,-16516.113,-10612.875,17463.908
955935.4176607506,-8705.282,-36581.055,10085.205,5835.7344,5751.384,-16512.127,-10605.144,17466.268
955935.4216607469,-8698.975,-36576.457,10091.919,5841.39,5758.586,-16508.18,-10595.866,17475.627
955935.4256607431,-8693.604,-36573.69,10095.134,5843.669,5759.237,-16506.104,-10593.954,17476.238
955935.4296607394,-8697.795,-36580.895,10086.142,5836.141,5756.4697,-16506.55,-10600.668,17466.96
955935.4336607356,-8707.072,-36591.27,10077.067,5829.061,5756.592,-16509.93,-10612.224,17457.031
955935.4376607318,-8709.839,-36592.164,10080.485,5835.205,5760.8237,-16507.61,-10610.515,17464.559
955935.4416607281,-8706.665,-36586.47,10086.508,5841.838,5763.794,-16509.848,-10608.358,17465.496
955935.4456607243,-8700.358,-36582.03,10089.152,5842.489,5762.8174,-16511.11,-10608.765,17462.037
955935.4496607205,-8698.608,-36577.965,10086.711,5837.728,5759.5625,-16509.033,-10611.328,17457.643
955935.4536607168,-8713.745,-36587.2,10074.911,5826.4976,5751.6685,-16511.11,-10620.199,17455.607
955935.457660713,-8720.012,-36590.09,10072.266,5824.178,5748.21,-16510.701,-10619.995,17458.008
955935.4616607093,-8707.561,-36584.11,10082.397,5832.0723,5750.041,-16505.371,-10611.288,17461.59
955935.4656607056,-8696.371,-36575.6,10090.292,5841.39,5753.784,-16501.14,-10605.225,17464.6
955935.4696607018,-8703.369,-36582.52,10085.856,5837.5654,5749.797,-16500.53,-10610.352,17461.508
955935.473660698,-8716.757,-36595.215,10076.945,5827.5146,5741.618,-16505.291,-10622.07,17455.363
955935.4776606943,-8718.832,-36596.395,10078.451,5829.305,5741.1704,-16504.11,-10625.773,17449.951
955935.4816606905,-8713.664,-36592.285,10084.595,5834.3506,5744.5884,-16503.826,-10623.251,17449.871
955935.4856606867,-8703.085,-36586.63,10087.81,5838.542,5751.75,-16500.0,-10617.025,17454.834
955935.489660683,-8707.113,-36595.133,10080.7705,5832.8857,5745.2803,-16498.902,-10623.291,17449.91
955935.4936606792,-8713.745,-36604.86,10075.603,5828.41,5736.8164,-16496.379,-10630.168,17442.303
955935.4976606754,-8708.049,-36597.656,10078.695,5833.049,5737.956,-16492.555,-10622.152,17450.318
955935.5016606718,-8694.621,-36580.73,10090.698,5844.6045,5747.152,-16482.951,-10604.899,17467.488
955935.505660668,-8690.878,-36577.312,10092.163,5845.744,5749.5527,-16480.754,-10603.027,17471.559
955935.5096606642,-8699.301,-36584.598,10082.846,5837.6465,5748.1284,-16484.05,-10614.868,17461.305
955935.5136606605,-8706.096,-36590.66,10074.016,5829.712,5746.379,-16488.729,-10625.488,17453.37
955935.5176606567,-8704.265,-36590.535,10079.59,5830.648,5743.8154,-16483.113,-10621.745,17457.316
955935.521660653,-8692.058,-36578.816,10088.664,5839.5996,5746.582,-16477.986,-10612.956,17464.723
955935.5256606492,-8685.059,-36572.31,10093.872,5843.221,5746.9077,-16476.197,-10608.887,17468.1
955935.5296606454,-8699.707,-36582.805,10084.106,5831.7466,5737.6304,-16476.197,-10615.764,17460.45
955935.5336606416,-8710.205,-36597.496,10074.911,5822.1846,5734.3345,-16474.244,-10622.192,17460.572
955935.537660638,-8719.768,-36615.887,10067.221,5813.9243,5725.83,-16473.756,-10624.838,17458.496
955935.5416606342,-8717.611,-36612.836,10071.737,5820.4756,5727.214,-16471.965,-10614.909,17461.629
955935.5456606305,-8705.688,-36598.51,10079.875,5829.834,5737.3457,-16471.03,-10608.195,17462.81
955935.5496606267,-8702.23,-36595.99,10080.607,5827.7183,5736.328,-16468.791,-10611.247,17462.484
955935.5536606229,-8709.677,-36601.645,10075.155,5824.2188,5737.7524,-16465.21,-10617.229,17457.643
955935.5576606191,-8710.775,-36601.32,10076.05,5828.8984,5742.025,-16462.729,-10617.025,17459.27
955935.5616606154,-8707.031,-36594.81,10083.293,5835.327,5744.0596,-16463.867,-10612.061,17462.2
955935.5656606116,-8708.334,-36590.457,10083.171,5838.4604,5747.5586,-16463.46,-10607.992,17465.535
955935.5696606078,-8709.758,-36599.203,10078.654,5831.95,5747.152,-16460.246,-10611.206,17463.705
955935.5736606041,-8717.937,-36609.906,10068.97,5820.272,5742.5537,-16455.16,-10615.805,17465.617
955935.5776606004,-8721.965,-36614.34,10067.424,5818.197,5738.1187,-16452.678,-10615.031,17466.756
955935.5816605967,-8711.792,-36601.44,10081.015,5831.7466,5750.8545,-16447.592,-10604.208,17473.064
955935.5856605929,-8705.078,-36590.58,10089.071,5840.454,5760.7017,-16446.371,-10597.412,17475.18
955935.5896605891,-8708.293,-36599.938,10082.927,5834.4727,5754.7607,-16446.777,-10604.98,17469.076
955935.5936605853,-8717.692,-36612.59,10074.789,5826.2534,5742.2285,-16445.191,-10612.712,17471.111
955935.5976605816,-8718.344,-36613.04,10076.457,5828.41,5742.513,-16443.115,-10613.525,17475.994
955935.6016605778,-8715.414,-36604.777,10082.438,5834.066,5744.873,-16441.121,-10607.585,17477.54
955935.605660574,-8708.781,-36604.37,10084.311,5833.6997,5739.502,-16440.553,-10603.394,17479.412
955935.6096605703,-8712.443,-36609.78,10076.945,5827.2705,5735.881,-16440.553,-10607.097,17476.074
955935.6136605665,-8722.372,-36616.66,10068.522,5820.6787,5734.0903,-16440.47,-10607.219,17483.725
955935.6176605629,-8722.168,-36615.887,10069.214,5821.6963,5736.776,-16437.664,-10600.668,17495.281
955935.6216605591,-8709.351,-36599.04,10081.625,5834.554,5749.9595,-16432.537,-10592.611,17495.85
955935.6256605553,-8701.294,-36587.08,10088.786,5840.8203,5758.301,-16432.781,-10593.506,17494.996
955935.6296605516,-8709.677,-36596.844,10085.49,5830.648,5741.9844,-16431.234,-10599.813,17495.646
955935.6336605478,-8718.994,-36605.145,10077.353,5822.51,5739.624,-16429.484,-10607.138,17487.102
955935.637660544,-8719.931,-36611.086,10076.091,5822.225,5738.485,-16426.84,-10605.957,17494.182
955935.6416605402,-8714.885,-36606.895,10080.322,5826.335,5739.909,-16424.602,-10600.749,17500.732
955935.6456605365,-8709.473,-36592.9,10082.724,5832.357,5748.21,-16424.725,-10595.663,17501.709
955935.6496605327,-8710.368,-36590.66,10079.712,5825.6836,5741.252,-16422.404,-10595.947,17507.0
955935.6536605291,-8713.989,-36600.26,10076.091,5819.9873,5736.45,-16423.26,-10601.318,17500.773
955935.6576605253,-8712.158,-36594.117,10074.789,5820.964,5736.247,-16423.992,-10601.848,17502.605
955935.6616605215,-8697.021,-36576.99,10081.015,5830.8516,5744.629,-16419.76,-10593.222,17507.406
955935.6656605178,-8683.31,-36570.965,10091.187,5838.257,5756.714,-16417.277,-10588.745,17505.86
955935.669660514,-8689.779,-36571.902,10088.786,5833.049,5757.772,-16414.47,-10592.367,17504.436
955935.6736605102,-8691.162,-36570.152,10081.747,5825.1953,5749.0645,-16416.871,-10599.569,17500.773
955935.6776605065,-8684.408,-36568.766,10080.7295,5826.864,5747.8843,-16419.11,-10602.092,17496.176
955935.6816605027,-8663.412,-36550.008,10089.071,5835.0425,5748.8203,-16421.225,-10603.231,17493.896
955935.6856604989,-8641.724,-36525.434,10096.884,5842.041,5754.883,-16418.945,-10607.178,17497.6
955935.6896604951,-8639.079,-36518.758,10086.345,5835.5713,5751.506,-16422.242,-10617.798,17490.234
955935.6936604915,-8640.544,-36519.004,10079.346,5824.6665,5733.2764,-16422.201,-10623.657,17481.16
955935.6976604877,-8629.639,-36504.234,10080.811,5828.044,5737.142,-16418.54,-10617.432,17484.254
955935.701660484,-8610.962,-36481.406,10088.054,5837.2803,5752.401,-16418.904,-10617.106,17476.766
955935.7056604802,-8595.825,-36469.566,10094.849,5843.1396,5773.5596,-16419.719,-10620.28,17472.453
955935.7096604764,-8597.046,-36466.84,10091.797,5837.362,5767.9854,-16420.451,-10626.384,17473.715
955935.7136604727,-8606.445,-36467.246,10090.495,5833.7812,5760.9053,-16420.533,-10630.046,17471.639
955935.7176604689,-8602.458,-36466.105,10095.175,5839.6406,5766.1133,-16415.691,-10631.389,17466.268
955935.7216604651,-8597.372,-36455.04,10104.086,5848.3076,5774.292,-16410.28,-10623.332,17474.324
955935.7256604614,-8598.471,-36458.336,10105.51,5849.5283,5767.578,-16406.047,-10614.95,17477.662
955935.7296604576,-8610.189,-36475.75,10095.785,5841.1055,5754.232,-16407.512,-10618.246,17467.0
955935.7336604539,-8626.303,-36495.445,10083.13,5829.3457,5747.966,-16411.174,-10623.983,17471.559
955935.7376604502,-8628.744,-36489.383,10081.787,5828.166,5743.408,-16407.838,-10622.437,17479.98
955935.7416604464,-8624.064,-36473.836,10089.804,5838.8267,5747.2334,-16400.717,-10610.718,17489.95
955935.7456604426,-8628.052,-36470.703,10093.71,5845.703,5753.093,-16396.77,-10604.818,17492.39
955935.7496604389,-8638.306,-36485.11,10090.902,5841.39,5756.063,-16397.99,-10610.84,17484.01
955935.7536604351,-8655.355,-36509.93,10082.153,5830.4443,5753.9473,-16397.258,-10617.798,17481.445
955935.7576604313,-8666.138,-36522.83,10069.824,5826.66,5758.3823,-16395.102,-10617.025,17480.021
955935.7616604276,-8666.301,-36525.555,10073.771,5831.3804,5757.9346,-16393.922,-10609.375,17482.057
955935.7656604238,-8664.551,-36525.637,10084.555,5838.664,5751.6685,-16387.574,-10602.051,17486.98
955935.7696604201,-8678.264,-36547.61,10079.794,5829.59,5734.294,-16383.424,-10605.917,17484.05
955935.7736604164,-8691.977,-36568.24,10074.911,5821.289,5734.294,-16381.511,-10609.945,17482.26
955935.7776604126,-8702.067,-36580.77,10075.277,5820.842,5726.4404,-16378.012,-10604.696,17494.67
955935.7816604088,-8695.15,-36579.67,10083.334,5830.078,5737.386,-16374.797,-10597.168,17502.4
955935.7856604051,-8692.709,-36580.203,10088.42,5834.5947,5743.9375,-16373.495,-10594.36,17504.639
955935.7896604013,-8708.293,-36593.26,10081.096,5826.416,5742.6353,-16375.163,-10598.796,17504.436
955935.7936603975,-8714.03,-36597.496,10079.265,5823.3237,5732.544,-16375.692,-10604.574,17500.611
955935.7976603938,-8717.407,-36604.047,10078.329,5824.5444,5730.6724,-16375.285,-10604.086,17503.988
955935.80166039,-8718.303,-36607.3,10077.026,5826.6196,5736.1655,-16373.658,-10594.687,17509.4
955935.8056603862,-8716.472,-36604.25,10079.0205,5830.2817,5742.6353,-16367.514,-10586.792,17511.557
955935.8096603826,-8729.655,-36617.594,10067.139,5818.7256,5736.8164,-16369.833,-10596.721,17501.953
955935.8136603788,-8742.961,-36630.047,10058.676,5809.6924,5735.0264,-16370.606,-10600.058,17502.605
955935.817660375,-8741.415,-36631.105,10061.564,5811.8086,5737.671,-16370.484,-10598.593,17507.568
955935.8216603713,-8728.964,-36624.51,10072.021,5823.039,5741.496,-16363.16,-10587.81,17517.457
955935.8256603675,-8721.029,-36620.117,10079.468,5829.834,5739.0547,-16358.521,-10579.59,17522.664
955935.8296603637,-8732.382,-36630.74,10071.086,5817.098,5726.7256,-16358.277,-10586.63,17516.236
955935.83366036,-8745.81,-36642.906,10062.094,5806.3965,5716.5527,-16357.219,-10596.802,17507.691
955935.8376603562,-8749.187,-36650.066,10064.413,5807.536,5714.559,-16355.429,-10598.918,17506.592
955935.8416603524,-8742.106,-36650.473,10070.028,5813.884,5719.2383,-16355.021,-10594.931,17509.807
955935.8456603487,-8736.694,-36645.1,10072.388,5819.1733,5725.952,-16356.039,-10591.96,17508.586
955935.849660345,-8744.507,-36647.543,10064.819,5811.971,5719.2383,-16355.021,-10598.227,17497.518
955935.8536603412,-8747.681,-36646.89,10062.338,5808.3906,5717.8955,-16351.686,-10602.783,17494.385
955935.8576603375,-8740.316,-36642.824,10068.481,5813.9243,5719.442,-16343.669,-10596.599,17505.168
955935.8616603337,-8732.097,-36633.547,10075.603,5823.8936,5729.248,-16339.56,-10589.071,17513.266
955935.8656603299,-8732.666,-36630.82,10076.01,5825.765,5733.7646,-16340.495,-10586.792,17511.598
955935.8696603262,-8740.438,-36641.766,10068.522,5815.9995,5723.5107,-16344.483,-10597.982,17492.676
955935.8736603224,-8746.46,-36650.88,10060.141,5807.129,5716.0645,-16349.732,-10611.044,17482.342
955935.8776603186,-8742.1875,-36648.234,10064.047,5809.4077,5718.384,-16348.349,-10606.405,17489.705
955935.8816603149,-8731.242,-36640.098,10077.393,5820.923,5717.326,-16341.594,-10589.355,17508.098
955935.8856603111,-8721.3955,-36631.836,10084.147,5826.2534,5720.0522,-16337.565,-10575.928,17524.008
955935.8896603074,-8727.783,-36635.703,10080.119,5820.0684,5716.268,-16338.054,-10583.049,17513.875
955935.8936603037,-8744.345,-36650.555,10071.33,5809.245,5707.5195,-16334.311,-10590.82,17505.656
955935.8976602999,-8747.314,-36650.88,10070.72,5808.431,5703.247,-16332.887,-10590.983,17510.783
955935.9016602961,-8729.94,-36632.04,10085.897,5823.8936,5719.7676,-16328.898,-10582.235,17521.893
955935.9056602924,-8723.796,-36624.88,10094.36,5829.834,5730.591,-16328.41,-10581.828,17519.49
955935.9096602886,-8735.515,-36636.598,10083.171,5816.7725,5728.3936,-16333.049,-10595.256,17511.434
955935.9136602848,-8744.345,-36648.926,10071.655,5805.42,5726.8477,-16335.002,-10604.004,17506.186
955935.9176602811,-8734.741,-36646.73,10078.9795,5811.7676,5728.2715,-16328.288,-10596.762,17515.87
955935.9216602773,-8718.872,-36628.582,10090.251,5826.986,5728.2715,-16322.307,-10585.571,17526.205
955935.9256602736,-8708.74,-36618.938,10095.703,5835.246,5733.8867,-16320.191,-10577.759,17529.217
955935.9296602699,-8718.344,-36629.438,10089.844,5826.3755,5726.6846,-16322.348,-10583.13,17526.367
955935.9336602661,-8730.469,-36638.227,10071.696,5816.081,5718.7095,-16319.662,-10585.165,17522.42
955935.9376602623,-8732.178,-36638.918,10068.604,5812.541,5712.972,-16314.25,-10588.542,17522.502
955935.9416602586,-8726.115,-36631.145,10071.167,5817.22,5721.1914,-16314.169,-10592.123,17517.416
955935.9456602548,-8720.907,-36624.594,10077.515,5821.6553,5722.2495,-16311.524,-10590.78,17511.639
955935.949660251,-8736.572,-36631.96,10069.296,5815.145,5722.4937,-16314.535,-10600.952,17501.709
955935.9536602473,-8745.972,-36641.52,10058.757,5808.1465,5724.813,-16315.553,-10608.684,17491.822
955935.9576602435,-8741.374,-36643.434,10059.652,5810.954,5725.2197,-16314.413,-10609.904,17487.916
955935.9616602397,-8734.985,-36632.57,10067.058,5819.4175,5727.783,-16315.1045,-10603.516,17494.67
955935.9656602361,-8732.26,-36627.24,10072.226,5823.3237,5724.4062,-16310.466,-10601.4,17499.92
955935.9696602323,-8736.532,-36631.43,10068.237,5816.8135,5719.2793,-16308.839,-10606.486,17496.623
955935.9736602285,-8751.791,-36646.28,10056.03,5803.833,5705.6074,-16312.297,-10615.153,17489.787
955935.9776602248,-8751.994,-36650.188,10056.641,5802.043,5708.252,-16312.135,-10614.909,17492.188
955935.981660221,-8734.416,-36638.633,10070.15,5813.314,5713.0537,-16309.286,-10603.476,17497.723
955935.9856602172,-8717.814,-36621.785,10083.374,5822.673,5719.035,-16303.712,-10591.064,17504.598
955935.9896602135,-8718.75,-36624.797,10081.706,5819.5396,5721.8833,-16298.91,-10590.495,17504.11
955935.9936602097,-8730.469,-36631.797,10074.423,5809.8555,5715.8203,-16298.463,-10593.425,17504.803
955935.9976602059,-8738.078,-36631.633,10070.679,5807.007,5713.0127,-16293.661,-10590.78,17508.83
955936.0016602022,-8735.026,-36634.562,10078.288,5813.4766,5710.205,-16285.768,-10581.747,17508.953
955936.0056601985,-8721.802,-36635.867,10087.973,5816.8135,5708.252,-16284.709,-10581.137,17507.977
955936.0096601947,-8715.983,-36634.277,10084.392,5809.896,5705.892,-16288.453,-10594.32,17500.244
955936.013660191,-8723.633,-36639.773,10076.904,5801.758,5698.6084,-16292.074,-10603.679,17497.682
955936.0176601872,-8728.923,-36644.98,10076.62,5801.5547,5695.516,-16291.871,-10604.492,17501.1
955936.0216601834,-8720.947,-36633.504,10085.653,5808.3496,5702.0674,-16289.836,-10599.65,17501.873
955936.0256601797,-8708.944,-36623.82,10095.947,5815.267,5706.299,-16290.324,-10592.367,17502.523
955936.0296601759,-8704.834,-36626.14,10097.087,5813.9243,5706.34,-16287.436,-10593.303,17501.994
955936.0336601721,-8712.484,-36634.89,10092.285,5810.3438,5703.41,-16282.472,-10597.982,17495.729
955936.0376601684,-8716.919,-36645.59,10086.874,5807.2104,5701.05,-16280.192,-10603.027,17489.87
955936.0416601647,-8707.642,-36637.613,10090.21,5815.3486,5703.288,-16278.972,-10601.318,17494.549
955936.045660161,-8709.351,-36637.94,10087.321,5817.424,5698.0796,-16275.92,-10603.3125,17488.852
955936.0496601572,-8714.926,-36642.09,10081.543,5812.5,5695.4756,-16273.153,-10608.073,17484.62
955936.0536601534,-8718.588,-36645.348,10080.893,5810.14,5695.923,-16274.821,-10616.496,17477.377
955936.0576601496,-8718.547,-36644.656,10084.677,5812.744,5700.6025,-16272.299,-10612.834,17482.91
955936.0616601459,-8702.434,-36635.785,10100.139,5826.823,5715.576,-16266.439,-10597.128,17492.514
955936.0656601421,-8693.726,-36631.188,10107.26,5832.9673,5718.669,-16263.388,-10593.344,17488.934
955936.0696601383,-8702.556,-36643.434,10097.087,5820.1904,5707.357,-16266.195,-10601.97,17491.496
955936.0736601346,-8713.176,-36653.605,10089.966,5811.4424,5699.3003,-16264.975,-10608.562,17492.758
955936.0776601308,-8712.729,-36654.297,10091.064,5811.361,5700.3174,-16261.842,-10608.643,17493.246
955936.0816601272,-8701.457,-36647.055,10099.243,5819.255,5700.9277,-16261.109,-10605.388,17494.873
955936.0856601234,-8699.382,-36639.85,10099.203,5822.103,5702.9624,-16261.149,-10601.278,17500.447
955936.0896601196,-8710.612,-36651.492,10088.786,5812.297,5696.859,-16261.068,-10610.107,17488.934
955936.0936601158,-8716.716,-36659.63,10084.555,5807.617,5697.3877,-16256.593,-10609.335,17498.129
955936.0976601121,-8713.664,-36651.41,10091.187,5812.866,5704.7935,-16255.128,-10602.377,17505.25
955936.1016601083,-8701.986,-36636.15,10102.58,5822.469,5709.188,-16251.506,-10592.407,17508.83
955936.1056601045,-8696.655,-36632.977,10106.12,5823.8936,5708.537,-16252.076,-10588.461,17507.771
955936.1096601008,-8709.025,-36642.945,10094.931,5810.791,5697.469,-16256.1045,-10597.9,17503.377
955936.113660097,-8718.262,-36648.6,10088.461,5801.8394,5691.61,-16255.128,-10605.754,17498.902
955936.1176600932,-8716.716,-36649.457,10089.885,5804.403,5694.0513,-16249.96,-10603.476,17498.129
955936.1216600896,-8707.031,-36646.688,10095.297,5812.9478,5696.737,-16244.955,-10597.697,17502.32
955936.1256600858,-8700.644,-36647.137,10099.121,5817.9526,5697.8354,-16241.415,-10594.32,17500.57
955936.129660082,-8710.043,-36656.13,10092.407,5809.5703,5693.115,-16239.34,-10601.278,17496.46
955936.1336600783,-8711.996,-36659.426,10092.245,5805.3794,5691.732,-16235.108,-10605.0625,17489.46
955936.1376600745,-8706.177,-36652.793,10095.256,5807.617,5695.028,-16233.073,-10600.424,17493.611
955936.1416600707,-8696.493,-36637.98,10105.388,5820.0684,5705.7295,-16229.411,-10590.658,17504.598
955936.145660067,-8689.616,-36636.395,10109.741,5823.6494,5707.2754,-16233.521,-10590.088,17503.094
955936.1496600632,-8695.517,-36645.145,10103.3125,5816.488,5696.33,-16238.485,-10598.308,17490.398
955936.1536600594,-8708.049,-36651.125,10095.175,5808.635,5688.8022,-16238.7705,-10606.323,17487.752
955936.1576600558,-8709.229,-36654.42,10093.303,5806.9663,5685.3843,-16236.857,-10611.613,17487.916
955936.161660052,-8694.784,-36643.637,10103.109,5816.976,5691.6504,-16233.684,-10606.323,17491.293
955936.1656600483,-8691.8545,-36638.633,10103.801,5821.2485,5695.923,-16234.579,-10604.777,17490.805
955936.1696600445,-8702.312,-36645.633,10093.791,5813.314,5693.4004,-16232.463,-10610.718,17485.678
955936.1736600407,-8714.355,-36656.168,10085.734,5803.752,5690.267,-16232.179,-10619.263,17477.947
955936.177660037,-8715.21,-36659.305,10088.583,5806.722,5696.0044,-16234.457,-10616.699,17484.783
955936.1816600332,-8708.008,-36649.617,10095.175,5818.319,5706.3804,-16231.039,-10604.818,17498.738
955936.1856600294,-8695.109,-36635.867,10100.22,5826.2534,5710.205,-16228.679,-10601.604,17499.105
955936.1896600256,-8703.247,-36639.773,10092.692,5817.505,5705.4854,-16229.086,-10612.061,17493.896
955936.1936600219,-8715.739,-36649.863,10085.734,5809.001,5701.05,-16227.621,-10621.582,17488.322
955936.1976600182,-8714.071,-36644.168,10088.339,5811.483,5699.056,-16222.982,-10619.467,17491.049
955936.2016600145,-8708.578,-36636.516,10093.1,5815.918,5696.8994,-16218.425,-10614.014,17495.85
955936.2056600107,-8710.979,-36637.125,10090.129,5816.4062,5703.0845,-16220.744,-10618.449,17486.572
955936.2096600069,-8719.768,-36643.84,10084.27,5811.6865,5703.4507,-16220.378,-10624.35,17482.342
955936.2136600032,-8728.109,-36648.64,10081.096,5805.8677,5696.208,-16221.803,-10626.547,17481.854
955936.2176599994,-8722.29,-36646.973,10082.153,5809.367,5694.499,-16219.89,-10618.408,17492.635
955936.2216599956,-8709.433,-36635.215,10091.105,5819.133,5706.787,-16212.729,-10607.178,17499.756
955936.2256599918,-8706.787,-36629.19,10093.872,5822.0625,5710.205,-16213.583,-10605.0625,17504.03
955936.2296599881,-8712.28,-36639.08,10084.473,5809.4077,5699.3003,-16217.123,-10615.805,17496.826
955936.2336599843,-8713.42,-36642.133,10081.747,5804.647,5698.2017,-16209.921,-10618.449,17493.855
955936.2376599807,-8712.729,-36636.72,10081.015,5809.082,5702.8,-16202.353,-10615.072,17496.297
955936.2416599769,-8700.439,-36625.53,10094.849,5821.0044,5710.8154,-16195.68,-10605.957,17503.297
955936.2456599731,-8691.772,-36622.355,10102.458,5824.9106,5706.584,-16193.6045,-10600.342,17508.953
955936.2496599694,-8701.945,-36633.79,10095.256,5815.674,5704.1016,-16194.621,-10611.572,17497.111
955936.2536599656,-8710.979,-36644.125,10087.606,5808.553,5701.05,-16191.366,-10616.008,17497.723
955936.2576599618,-8711.833,-36645.71,10087.199,5810.018,5700.4395,-16187.704,-10612.265,17504.477
955936.261659958,-8705.933,-36641.4,10093.181,5819.0107,5708.6997,-16185.466,-10606.161,17510.01
955936.2656599543,-8692.505,-36628.785,10101.767,5826.294,5710.49,-16182.008,-10598.145,17510.418
955936.2696599505,-8692.993,-36627.117,10095.622,5822.0625,5710.1646,-16178.02,-10601.97,17501.953
955936.2736599467,-8707.846,-36636.598,10082.52,5811.727,5703.003,-16176.921,-10611.9795,17497.193
955936.2776599431,-8713.176,-36639.65,10081.137,5812.541,5703.2065,-16177.247,-10618.693,17492.96
955936.2816599393,-8706.218,-36637.74,10088.217,5817.7085,5705.404,-16176.433,-10614.299,17497.396
955936.2856599356,-8703.369,-36637.125,10092.773,5818.6035,5700.1143,-16173.585,-10611.938,17494.996
955936.2896599318,-8717.529,-36648.684,10083.049,5809.367,5688.192,-16172.526,-10614.177,17495.443
955936.293659928,-8735.2705,-36662.516,10070.598,5799.3164,5676.799,-16172.038,-10618.571,17499.309
955936.2976599243,-8729.94,-36665.082,10075.806,5805.664,5679.769,-16166.098,-10613.892,17502.768
955936.3016599205,-8697.754,-36644.125,10092.082,5821.045,5696.0044,-16159.953,-10601.4,17515.625
955936.3056599167,-8679.362,-36629.56,10103.882,5826.864,5704.875,-16158.937,-10599.447,17512.86
955936.309659913,-8694.133,-36642.496,10095.297,5817.7085,5698.5273,-16156.657,-10604.899,17509.4
955936.3136599093,-8705.893,-36651.207,10086.508,5811.4014,5691.5693,-16150.92,-10607.544,17511.312
955936.3176599055,-8706.543,-36652.02,10088.949,5812.866,5693.3594,-16146.811,-10606.445,17511.76
955936.3216599018,-8697.266,-36643.27,10094.931,5819.133,5702.3115,-16143.881,-10599.772,17515.422
955936.325659898,-8689.006,-36632.773,10099.772,5823.039,5706.014,-16142.213,-10595.744,17517.049
955936.3296598942,-8698.446,-36636.92,10092.611,5815.145,5696.2485,-16143.026,-10600.505,17518.148
955936.3336598905,-8711.589,-36645.387,10082.561,5805.786,5692.2607,-16141.847,-10607.788,17511.15
955936.3376598867,-8710.693,-36644.938,10085.815,5810.3027,5699.9106,-16135.946,-10603.19,17515.38
955936.3416598829,-8703.532,-36637.29,10091.635,5818.4814,5701.335,-16135.946,-10595.256,17524.455
955936.3456598792,-8696.859,-36634.402,10096.518,5820.801,5701.213,-16136.027,-10589.4375,17529.826
955936.3496598754,-8707.642,-36645.633,10088.135,5810.3027,5692.5864,-16136.72,-10602.092,17519.898
955936.3536598717,-8717.611,-36653.688,10080.933,5802.6123,5690.267,-16137.736,-10611.41,17512.98
955936.357659868,-8715.78,-36652.75,10085.571,5802.8975,5686.4014,-16134.074,-10611.938,17514.445
955936.3616598642,-8705.526,-36641.074,10097.046,5814.372,5692.912,-16130.209,-10602.905,17525.473
955936.3656598604,-8701.823,-36641.113,10098.837,5816.162,5694.2954,-16131.063,-10603.068,17525.066
955936.3696598567,-8715.617,-36657.105,10086.345,5803.182,5689.2905,-16133.668,-10613.2,17520.305
955936.3736598529,-8725.749,-36666.22,10076.945,5795.41,5675.863,-16132.609,-10616.537,17520.223
955936.3776598491,-8722.9,-36660.605,10078.776,5799.4795,5677.7344,-16127.6045,-10611.41,17522.502
955936.3816598454,-8720.988,-36654.137,10081.706,5804.4434,5682.007,-16125.285,-10604.94,17522.625
955936.3856598416,-8717.082,-36650.15,10087.158,5810.791,5683.5938,-16123.902,-10598.43,17524.861
955936.3896598378,-8722.819,-36659.02,10081.991,5803.711,5684.7334,-16123.698,-10600.261,17526.693
955936.3936598342,-8733.236,-36672.65,10075.644,5794.3115,5679.6875,-16123.617,-10606.323,17529.379
955936.3976598304,-8733.073,-36677.207,10077.963,5796.0615,5678.874,-16120.077,-10600.464,17532.105
955936.4016598266,-8726.645,-36673.22,10082.235,5803.3447,5682.7393,-16116.7,-10594.32,17539.959
955936.4056598229,-8722.697,-36672.812,10088.664,5804.9316,5686.198,-16116.456,-10589.152,17549.44
955936.4096598191,-8731.405,-36673.22,10083.09,5798.1772,5680.705,-16113.974,-10597.494,17543.986
955936.4136598153,-8745.932,-36679.973,10072.592,5788.127,5668.9863,-16112.224,-10607.056,17538.209
955936.4176598116,-8742.758,-36678.875,10074.585,5789.1035,5668.701,-16108.562,-10606.161,17541.342
955936.4216598078,-8734.497,-36668.785,10082.846,5797.3633,5669.393,-16102.418,-10598.308,17541.545
955936.425659804,-8727.824,-36665.73,10087.321,5803.06,5678.996,-16103.19,-10594.238,17534.018
955936.4296598004,-8738.485,-36675.54,10078.288,5791.4634,5673.828,-16104.33,-10596.762,17531.494
955936.4336597966,-8748.861,-36683.434,10068.481,5783.366,5671.916,-16104.086,-10607.91,17526.326
955936.4376597928,-8747.925,-36687.38,10070.761,5785.848,5673.4214,-16101.237,-10603.027,17532.064
955936.4416597891,-8736.328,-36677.652,10082.805,5796.102,5682.9834,-16097.494,-10595.134,17541.139
955936.4456597853,-8731.771,-36672.04,10086.467,5800.7,5690.1045,-16096.64,-10593.71,17540.61
955936.4496597815,-8745.483,-36680.176,10076.945,5792.033,5678.182,-16098.1045,-10600.627,17533.895
955936.4536597778,-8752.238,-36690.348,10069.092,5784.912,5671.875,-16100.587,-10608.398,17524.984
955936.457659774,-8749.431,-36688.844,10071.777,5789.022,5674.6016,-16095.216,-10605.266,17526.082
955936.4616597702,-8743.449,-36685.223,10079.102,5797.282,5678.3857,-16088.217,-10598.022,17535.36
955936.4656597665,-8734.131,-36672.895,10084.799,5802.409,5684.6924,-16082.235,-10595.337,17538.086
955936.4696597628,-8746.338,-36683.473,10076.01,5793.091,5680.298,-16081.3,-10602.133,17526.611
955936.473659759,-8757.8125,-36694.824,10067.261,5782.0234,5672.16,-16083.497,-10610.922,17523.846
955936.4776597553,-8754.028,-36693.89,10067.424,5783.529,5674.6016,-16082.154,-10609.091,17529.217
955936.4816597515,-8745.728,-36692.832,10075.439,5791.748,5672.3228,-16080.485,-10600.749,17535.809
955936.4856597477,-8734.701,-36682.17,10080.607,5796.672,5675.537,-16078.858,-10598.227,17539.307
955936.489659744,-8737.0205,-36684.207,10077.353,5788.615,5669.0674,-16079.794,-10606.771,17528.2
955936.4936597402,-8739.665,-36684.246,10072.144,5783.4883,5668.1724,-16080.852,-10613.852,17518.555
955936.4976597364,-8733.887,-36679.527,10072.876,5784.912,5668.01,-16082.398,-10612.265,17525.799
955936.5016597327,-8712.646,-36663.29,10087.118,5799.0723,5673.7876,-16077.353,-10601.034,17534.709
955936.5056597289,-8681.479,-36644.168,10096.965,5812.378,5681.3154,-16076.01,-10597.616,17536.824
955936.5096597252,-8680.38,-36633.87,10090.861,5804.7285,5678.874,-16081.015,-10614.868,17519.49
955936.5136597215,-8682.333,-36630.902,10082.927,5795.41,5671.672,-16083.619,-10623.739,17503.906
955936.5176597177,-8672.079,-36619.223,10084.555,5796.875,5673.95,-16081.625,-10628.296,17497.193
955936.5216597139,-8648.315,-36589.56,10097.575,5809.2856,5682.8613,-16080.404,-10626.465,17499.432
955936.5256597102,-8623.82,-36569.46,10105.551,5817.912,5692.0576,-16082.194,-10623.169,17500.0
955936.5296597064,-8618.042,-36565.105,10100.383,5811.6455,5687.2153,-16084.474,-10628.337,17491.375
955936.5336597026,-8616.699,-36558.023,10093.954,5803.996,5683.4717,-16085.979,-10641.684,17478.312
955936.5376596989,-8608.114,-36547.406,10094.971,5806.6,5686.7676,-16087.81,-10652.019,17466.553
955936.5416596951,-8592.367,-36530.805,10106.12,5816.8135,5697.876,-16086.142,-10647.217,17465.861
955936.5456596913,-8577.2705,-36516.848,10119.141,5824.1377,5700.1143,-16083.171,-10638.184,17479.533
955936.5496596877,-8576.416,-36516.4,10119.467,5825.399,5698.446,-16077.516,-10632.69,17489.99
955936.5536596839,-8589.4375,-36530.926,10107.951,5814.8193,5691.5693,-16078.166,-10640.137,17490.357
955936.5576596801,-8600.586,-36542.195,10104.533,5809.326,5682.6987,-16078.451,-10644.653,17489.666
955936.5616596764,-8604.899,-36548.016,10107.666,5813.6396,5682.414,-16073.8125,-10636.923,17492.352
955936.5656596726,-8610.84,-36556.56,10106.73,5816.162,5689.209,-16072.836,-10631.389,17497.111
955936.5696596688,-8625.57,-36574.832,10100.912,5810.3027,5695.7197,-16072.429,-10633.871,17499.064
955936.5736596651,-8635.498,-36577.516,10092.8955,5804.199,5705.526,-16073.446,-10639.12,17492.39
955936.5776596613,-8637.167,-36569.95,10093.14,5807.617,5703.8984,-16069.987,-10633.423,17496.541
955936.5816596575,-8637.085,-36568.523,10099.813,5814.128,5697.5913,-16061.687,-10624.39,17501.588
955936.5856596539,-8644.857,-36574.18,10101.074,5812.297,5684.082,-16061.239,-10620.158,17498.982
955936.5896596501,-8658.8955,-36584.758,10095.663,5804.525,5675.334,-16060.873,-10627.116,17493.734
955936.5936596463,-8671.428,-36595.62,10086.996,5799.927,5676.0664,-16056.479,-10631.267,17499.676
955936.5976596426,-8678.711,-36605.51,10087.443,5797.5264,5675.293,-16054.322,-10629.272,17507.324
955936.6016596388,-8677.653,-36607.83,10092.611,5805.0947,5681.0303,-16051.759,-10617.31,17517.13
955936.605659635,-8675.212,-36614.87,10097.412,5808.96,5682.129,-16050.131,-10613.892,17519.857
955936.6096596313,-8685.425,-36628.094,10090.658,5799.154,5674.1133,-16051.759,-10626.262,17501.791
955936.6136596275,-8699.504,-36641.6,10081.625,5789.3066,5663.493,-16052.125,-10634.929,17492.84
955936.6176596237,-8702.353,-36642.008,10082.153,5792.0737,5664.795,-16048.463,-10629.15,17503.094
955936.62165962,-8690.186,-36633.465,10093.303,5805.3794,5678.63,-16045.004,-10618.449,17507.61
955936.6256596163,-8686.809,-36633.832,10096.68,5808.3496,5682.821,-16045.004,-10611.125,17511.557
955936.6296596125,-8700.195,-36648.723,10089.274,5795.98,5668.701,-16045.777,-10611.776,17514.283
955936.6336596088,-8706.625,-36659.06,10086.711,5792.3584,5661.133,-16040.65,-10610.2295,17521.932
955936.637659605,-8717.814,-36666.91,10080.2,5789.958,5661.3364,-16039.186,-10616.699,17515.422
955936.6416596012,-8718.222,-36667.156,10081.259,5791.667,5663.778,-16041.708,-10622.763,17514.324
955936.6456595975,-8708.862,-36660.81,10085.165,5795.6543,5670.288,-16041.22,-10615.072,17521.729
955936.6496595937,-8714.682,-36672.0,10080.038,5787.883,5663.9404,-16043.458,-10618.124,17520.793
955936.6536595899,-8725.302,-36683.105,10073.486,5781.0874,5653.4834,-16042.359,-10618.774,17520.184
955936.6576595862,-8725.912,-36684.53,10077.23,5787.313,5658.4473,-16038.331,-10614.706,17521.729
955936.6616595824,-8718.384,-36678.957,10085.693,5799.276,5673.747,-16032.268,-10606.853,17524.008
955936.6656595787,-8715.861,-36676.598,10088.339,5801.351,5675.4966,-16030.314,-10597.575,17527.996
955936.669659575,-8724.325,-36681.316,10082.886,5793.132,5665.8125,-16027.263,-10599.772,17519.084
955936.6736595712,-8737.224,-36684.652,10068.278,5782.9185,5652.9136,-16026.246,-10610.352,17513.55
955936.6776595674,-8742.717,-36687.297,10067.261,5782.7964,5653.768,-16029.623,-10614.096,17509.686
955936.6816595637,-8733.236,-36682.414,10078.369,5790.731,5657.9185,-16028.199,-10606.812,17520.428
955936.6856595599,-8720.988,-36674.156,10088.867,5799.4795,5657.2266,-16019.45,-10599.121,17529.867
955936.6896595561,-8722.494,-36678.062,10084.717,5795.8174,5657.959,-16021.159,-10605.957,17521.12
955936.6936595524,-8735.2705,-36685.63,10077.434,5787.3535,5658.7324,-16025.636,-10612.834,17521.852
955936.6976595486,-8737.671,-36689.414,10073.8125,5784.261,5655.884,-16025.351,-10610.312,17530.477
955936.701659545,-8725.139,-36679.566,10083.456,5793.7827,5663.9,-16022.99,-10603.271,17525.146
955936.7056595412,-8719.32,-36672.363,10087.321,5797.2007,5671.4277,-16025.473,-10608.48,17515.992
955936.7096595374,-8731.283,-36681.684,10078.613,5788.005,5663.8184,-16028.605,-10613.974,17516.154
955936.7136595336,-8744.467,-36691.246,10068.604,5777.954,5658.8135,-16030.519,-10625.366,17516.195
955936.7176595299,-8743.449,-36693.074,10067.831,5779.541,5660.482,-16028.524,-10626.018,17513.51
955936.7216595261,-8735.596,-36690.758,10074.992,5786.0923,5665.8125,-16027.751,-10616.211,17517.863
955936.7256595223,-8729.33,-36685.344,10081.055,5787.964,5657.1045,-16022.014,-10607.422,17529.256
955936.7296595186,-8736.532,-36687.625,10074.585,5781.0874,5648.519,-16021.566,-10613.159,17532.268
955936.7336595148,-8744.345,-36693.605,10067.993,5776.123,5647.054,-16021.119,-10616.903,17531.82
955936.737659511,-8742.392,-36693.277,10071.655,5779.46,5656.2095,-16018.312,-10612.793,17539.795
955936.7416595074,-8732.219,-36687.83,10082.642,5789.9985,5663.656,-16016.276,-10603.068,17542.645
955936.7456595036,-8727.783,-36679.566,10084.147,5792.562,5666.626,-16015.748,-10597.982,17549.154
955936.7496594999,-8731.161,-36678.875,10083.049,5788.005,5665.5273,-16014.364,-10603.598,17544.393
955936.7536594961,-8741.049,-36685.996,10071.899,5777.873,5660.238,-16014.283,-10614.95,17535.4
955936.7576594923,-8742.717,-36689.293,10068.604,5774.17,5657.1045,-16013.347,-10618.734,17533.895
955936.7616594885,-8732.097,-36683.637,10076.538,5782.7964,5657.878,-16013.0625,-10616.374,17534.588
955936.7656594848,-8726.156,-36678.793,10083.334,5790.5684,5650.472,-16008.383,-10610.922,17536.256
955936.769659481,-8732.504,-36685.1,10080.2,5787.4756,5652.71,-16003.785,-10612.183,17531.941
955936.7736594772,-8734.945,-36690.51,10077.2705,5784.424,5654.541,-16001.059,-10611.084,17539.795
955936.7776594735,-8730.021,-36685.59,10080.648,5787.2725,5661.418,-15997.355,-10609.741,17549.48
955936.7816594698,-8725.668,-36681.316,10087.036,5794.8,5669.637,-15996.135,-10601.97,17552.205
955936.785659466,-8721.884,-36681.926,10088.664,5796.2646,5668.091,-15997.722,-10596.64,17552.775
955936.7896594623,-8736.003,-36693.89,10076.376,5783.122,5662.2725,-16002.157,-10608.317,17545.492
955936.7936594585,-8744.507,-36696.82,10069.214,5775.798,5658.081,-15996.704,-10616.008,17538.168
955936.7976594548,-8746.42,-36693.93,10069.58,5776.6523,5653.6865,-15997.355,-10618.693,17530.518
955936.801659451,-8738.241,-36687.055,10076.823,5785.1157,5652.71,-15991.089,-10608.765,17536.336
955936.8056594472,-8726.848,-36678.957,10084.839,5794.5967,5661.3364,-15983.236,-10596.558,17546.143
955936.8096594434,-8731.527,-36686.28,10077.759,5786.947,5664.266,-15986.003,-10599.081,17541.463
955936.8136594397,-8741.699,-36691.406,10069.54,5776.6113,5654.216,-15988.892,-10611.288,17535.523
955936.817659436,-8746.379,-36692.586,10071.045,5777.2217,5646.81,-15988.2,-10610.434,17540.771
955936.8216594323,-8738.281,-36689.94,10077.515,5783.6914,5645.793,-15986.9795,-10609.091,17539.998
955936.8256594285,-8731.894,-36687.055,10079.712,5787.0283,5650.92,-15984.823,-10609.294,17535.076
955936.8296594247,-8741.089,-36698.324,10072.714,5780.2734,5654.419,-15985.2295,-10616.252,17531.414
955936.833659421,-8746.176,-36703.656,10068.522,5773.763,5645.915,-15986.41,-10620.605,17529.338
955936.8376594172,-8740.275,-36696.004,10071.655,5778.7275,5647.746,-15981.486,-10614.258,17534.344
955936.8416594134,-8733.969,-36689.496,10081.462,5788.4116,5652.303,-15975.139,-10602.783,17547.242
955936.8456594096,-8729.94,-36688.56,10089.03,5792.033,5654.338,-15971.68,-10600.424,17548.87
955936.8496594059,-8740.927,-36695.027,10079.794,5785.1562,5652.507,-15972.738,-10610.107,17534.424
955936.8536594021,-8754.924,-36701.62,10068.93,5776.8965,5648.967,-15974.528,-10620.728,17518.148
955936.8576593985,-8756.999,-36708.09,10070.15,5777.466,5637.085,-15972.29,-10615.438,17530.844
955936.8616593947,-8741.008,-36700.4,10082.561,5787.313,5643.514,-15970.134,-10606.975,17537.15
955936.8656593909,-8725.383,-36686.688,10089.4375,5791.911,5654.46,-15969.32,-10605.347,17538.25
955936.8696593872,-8742.758,-36700.727,10078.288,5782.5117,5651.693,-15971.762,-10614.136,17530.355
955936.8736593834,-8755.046,-36714.03,10069.296,5773.967,5648.2344,-15973.674,-10622.03,17530.273
955936.8776593796,-8758.464,-36716.473,10069.214,5773.763,5641.561,-15973.022,-10626.018,17528.402
955936.8816593759,-8748.454,-36707.848,10076.457,5783.325,5651.7334,-15972.575,-10626.994,17517.049
955936.8856593721,-8740.072,-36702.434,10078.369,5784.7495,5651.7744,-15973.552,-10625.326,17515.3
955936.8896593683,-8746.826,-36707.926,10073.283,5777.181,5645.223,-15973.755,-10628.418,17514.486
955936.8936593645,-8748.047,-36709.8,10071.574,5774.6177,5644.084,-15972.372,-10629.843,17515.828
955936.8976593609,-8747.641,-36710.53,10067.627,5774.292,5640.991,-15969.442,-10625.57,17519.166
955936.9016593571,-8742.839,-36709.27,10074.219,5780.884,5644.0024,-15963.786,-10617.106,17527.914
955936.9056593534,-8743.124,-36705.406,10077.841,5785.1973,5650.92,-15959.229,-10614.99,17527.588
955936.9096593496,-8753.418,-36712.484,10069.58,5774.9023,5645.671,-15962.729,-10625.8545,17520.996
955936.9136593458,-8756.999,-36716.96,10064.087,5768.148,5638.7534,-15966.391,-10631.755,17518.066
955936.917659342,-8752.279,-36709.637,10068.848,5771.2812,5634.8066,-15964.804,-10627.319,17524.537
955936.9216593383,-8744.182,-36696.574,10077.963,5780.884,5646.0776,-15962.28,-10619.141,17532.146
955936.9256593345,-8735.2295,-36695.72,10085.205,5785.604,5650.594,-15958.252,-10612.793,17536.336
955936.9296593308,-8738.566,-36705.28,10079.468,5777.588,5641.805,-15959.514,-10621.094,17532.186
955936.933659327,-8745.81,-36707.723,10071.981,5772.1357,5636.963,-15960.449,-10626.709,17530.64
955936.9376593233,-8745.077,-36703.613,10075.399,5776.3267,5638.4688,-15955.566,-10621.013,17534.139
955936.9416593196,-8737.224,-36696.453,10081.177,5782.6743,5647.2983,-15953.451,-10614.258,17540.486
955936.9456593158,-8735.148,-36694.95,10079.468,5782.308,5646.8916,-15956.747,-10618.652,17528.361
955936.949659312,-8748.942,-36706.383,10067.099,5771.7695,5636.068,-15958.74,-10629.069,17520.467
955936.9536593083,-8761.027,-36717.285,10057.089,5764.16,5629.3135,-15956.096,-10635.783,17521.566
955936.9576593045,-8765.259,-36721.11,10057.739,5766.1133,5629.802,-15956.869,-10640.747,17507.162
955936.9616593007,-8757.609,-36716.188,10068.481,5774.9023,5638.591,-15956.95,-10637.573,17512.94
955936.965659297,-8749.431,-36708.945,10075.195,5780.3145,5646.1997,-15960.287,-10636.882,17514.568
955936.9696592932,-8750.57,-36705.08,10071.615,5775.1875,5641.6426,-15959.839,-10640.625,17507.283
955936.9736592895,-8751.628,-36707.723,10066.8545,5769.409,5632.365,-15958.537,-10639.934,17517.416
955936.9776592858,-8744.06,-36701.336,10073.8125,5774.9023,5635.8643,-15957.031,-10631.633,17529.053
955936.981659282,-8736.613,-36691.773,10080.2,5782.1045,5646.6064,-15957.602,-10628.337,17529.176
955936.9856592782,-8731.039,-36683.84,10083.822,5786.8247,5653.768,-15956.503,-10623.657,17525.96
955936.9896592745,-8734.823,-36686.77,10080.607,5780.2734,5647.0137,-15955.038,-10624.553,17523.152
955936.9936592707,-8754.924,-36707.438,10066.447,5766.3574,5639.486,-15960.043,-10635.458,17515.828
955936.9976592669,-8767.497,-36726.766,10054.118,5750.936,5618.5303,-15969.727,-10645.63,17504.639
955937.0016592632,-8764.486,-36724.895,10055.339,5754.0283,5612.5083,-15967.692,-10638.51,17508.26
955937.0056592594,-8768.759,-36723.31,10049.561,5753.703,5611.8164,-15966.96,-10635.824,17509.48
955937.0096592556,-8778.158,-36729.086,10043.783,5748.0063,5604.411,-15969.238,-10643.962,17503.947
955937.013659252,-8787.109,-36731.73,10038.371,5742.0654,5604.126,-15970.5,-10651.693,17502.605
955937.0176592482,-8790.365,-36735.92,10032.512,5742.798,5612.8745,-15974.284,-10652.182,17500.855
955937.0216592444,-8777.873,-36727.742,10044.108,5749.878,5620.565,-15976.196,-10649.821,17509.441
955937.0256592407,-8772.665,-36722.086,10048.056,5750.3257,5622.5586,-15982.951,-10650.351,17511.76
955937.0296592369,-8784.587,-36733.035,10038.493,5740.804,5616.008,-15984.701,-10655.355,17504.883
955937.0336592331,-8788.005,-36735.84,10035.238,5738.8105,5614.421,-15978.964,-10656.698,17500.57
955937.0376592294,-8782.553,-36734.418,10038.33,5742.839,5611.7354,-15973.186,-10654.541,17504.232
955937.0416592256,-8772.38,-36731.242,10048.991,5754.2725,5614.543,-15970.947,-10648.4375,17508.465
955937.0456592218,-8773.886,-36730.754,10049.602,5756.4697,5613.6885,-15965.454,-10646.525,17509.115
955937.049659218,-8784.506,-36745.363,10040.283,5744.0186,5605.591,-15964.315,-10655.925,17498.414
955937.0536592144,-8797.648,-36757.45,10033.813,5734.538,5594.7266,-15965.088,-10662.68,17489.137
955937.0576592106,-8804.647,-36760.336,10030.192,5730.4688,5593.5874,-15962.199,-10656.779,17499.47
955937.0616592069,-8795.207,-36756.88,10039.104,5736.5317,5593.791,-15955.241,-10643.148,17514.486
955937.0656592031,-8789.022,-36751.344,10045.329,5743.1235,5599.121,-15951.62,-10638.388,17513.266
955937.0696591993,-8802.409,-36759.32,10036.54,5737.142,5597.168,-15954.794,-10647.217,17505.86
955937.0736591956,-8810.385,-36767.133,10031.86,5733.6426,5599.6094,-15958.13,-10653.402,17506.55
955937.0776591918,-8810.059,-36768.883,10032.431,5735.189,5603.719,-15961.752,-10653.972,17505.209
955937.081659188,-8801.188,-36762.168,10037.069,5741.781,5604.6143,-15961.792,-10645.59,17512.33
955937.0856591843,-8797.607,-36757.203,10041.342,5744.792,5601.156,-15958.008,-10639.853,17516.643
955937.0896591806,-8803.833,-36759.81,10036.255,5736.8574,5598.1855,-15957.683,-10643.188,17519.328
955937.0936591768,-8806.396,-36764.934,10034.14,5733.602,5600.83,-15956.259,-10643.962,17523.723
955937.0976591731,-8803.345,-36764.934,10036.621,5737.671,5606.242,-15952.189,-10642.375,17524.578
955937.1016591693,-8798.259,-36764.08,10041.952,5743.8965,5607.015,-15955.038,-10640.503,17526.002
955937.1056591655,-8799.235,-36767.457,10042.888,5745.2803,5607.137,-15957.194,-10640.422,17524.658
955937.1096591618,-8814.779,-36777.957,10031.576,5735.3926,5595.5405,-15959.799,-10650.391,17507.04
955937.113659158,-8817.627,-36769.37,10021.444,5728.923,5593.872,-15959.066,-10660.197,17492.635
955937.1176591542,-8805.136,-36757.082,10026.733,5732.666,5596.802,-15953.166,-10651.693,17509.36
955937.1216591505,-8795.248,-36752.93,10041.667,5742.2285,5602.987,-15947.673,-10633.545,17526.49
955937.1256591467,-8789.917,-36750.57,10048.991,5747.1924,5611.491,-15942.953,-10623.251,17534.344
955937.129659143,-8802.49,-36759.605,10042.155,5741.455,5607.422,-15942.668,-10627.482,17526.205
955937.1336591393,-8822.104,-36772.22,10029.053,5729.533,5601.156,-15948.324,-10642.944,17514.12
955937.1376591355,-8823.242,-36771.363,10026.449,5729.126,5600.505,-15948.039,-10645.752,17516.887
955937.1416591317,-8810.873,-36762.125,10035.849,5739.258,5606.4453,-15946.493,-10637.37,17528.443
955937.145659128,-8807.495,-36755.984,10035.36,5740.1123,5603.76,-15948.608,-10639.934,17523.926
955937.1496591242,-8813.721,-36761.477,10023.723,5726.9697,5591.1865,-15954.672,-10649.74,17510.498
955937.1536591204,-8820.964,-36773.64,10017.253,5718.0176,5586.833,-15955.893,-10650.31,17514.201
955937.1576591167,-8821.208,-36776.004,10021.444,5722.168,5593.3027,-15953.003,-10641.439,17527.1
955937.1616591129,-8799.194,-36757.203,10042.358,5738.973,5605.998,-15944.743,-10622.763,17540.61
955937.1656591091,-8782.227,-36744.184,10056.112,5749.3896,5615.3975,-15938.11,-10614.99,17542.115
955937.1696591055,-8796.428,-36755.74,10042.236,5737.427,5611.491,-15946.33,-10634.074,17527.508
955937.1736591017,-8813.518,-36768.066,10026.571,5724.121,5598.5107,-15953.166,-10652.588,17510.092
955937.177659098,-8816.895,-36771.73,10024.048,5723.4297,5599.935,-15950.155,-10656.657,17508.992
955937.1816590942,-8811.279,-36770.914,10028.442,5732.015,5598.2666,-15947.551,-10647.868,17517.986
955937.1856590904,-8813.762,-36774.984,10025.269,5731.6084,5592.082,-15949.26,-10651.164,17508.586
955937.1896590866,-8830.607,-36785.973,10012.045,5719.0757,5582.235,-15952.108,-10662.313,17498.576
955937.1936590829,-8835.49,-36789.31,10009.196,5713.623,5580.2817,-15949.829,-10665.283,17497.844
955937.1976590791,-8822.917,-36783.164,10020.264,5721.1104,5586.67,-15947.348,-10655.233,17508.953
955937.2016590753,-8805.908,-36764.16,10037.842,5737.1826,5603.353,-15943.481,-10638.51,17527.467
955937.2056590717,-8799.072,-36757.04,10046.225,5741.9844,5609.131,-15944.621,-10635.864,17528.158
955937.2096590679,-8804.321,-36762.168,10040.8125,5737.142,5609.0903,-15944.784,-10642.7,17523.967
955937.2136590641,-8810.141,-36768.15,10032.959,5730.835,5602.173,-15947.104,-10652.06,17513.348
955937.2176590604,-8817.79,-36775.92,10027.507,5726.4814,5593.425,-15945.883,-10658.122,17507.732
955937.2216590566,-8819.54,-36780.64,10025.595,5726.9697,5585.897,-15943.319,-10657.023,17507.04
955937.2256590528,-8822.388,-36783.773,10021.688,5724.6094,5580.892,-15946.127,-10658.813,17500.203
955937.2296590491,-8834.27,-36795.9,10008.871,5710.002,5572.795,-15943.808,-10662.354,17495.564
955937.2336590453,-8839.56,-36800.906,10004.232,5703.532,5571.289,-15943.278,-10660.238,17500.367
955937.2376590415,-8832.764,-36792.848,10014.404,5711.9956,5580.6074,-15941.528,-10649.577,17513.184
955937.2416590378,-8812.785,-36773.195,10033.041,5729.6553,5597.575,-15938.64,-10637.695,17521.729
955937.2456590341,-8798.666,-36760.742,10044.23,5739.502,5603.6787,-15938.721,-10636.353,17516.113
955937.2496590303,-8802.043,-36763.43,10040.69,5735.5957,5600.952,-15943.237,-10646.2,17501.262
955937.2536590266,-8814.494,-36772.707,10030.844,5725.6675,5593.221,-15946.208,-10653.728,17498.494
955937.2576590228,-8820.476,-36777.06,10025.351,5721.5576,5588.7046,-15945.395,-10661.052,17501.14
955937.261659019,-8812.175,-36769.938,10029.013,5725.83,5594.808,-15945.19,-10659.14,17500.082
955937.2656590153,-8813.681,-36773.6,10025.961,5723.8364,5592.0005,-15946.655,-10662.272,17491.781
955937.2696590115,-8824.951,-36787.395,10017.619,5715.007,5578.125,-15943.889,-10667.969,17484.863
955937.2736590077,-8830.404,-36791.465,10015.463,5710.6934,5572.917,-15942.017,-10667.074,17486.004
955937.277659004,-8823.486,-36783.69,10024.333,5717.326,5579.6714,-15940.715,-10655.437,17499.146
955937.2816590002,-8811.279,-36775.027,10037.72,5728.3125,5587.036,-15934.611,-10639.934,17514.486
955937.2856589966,-8805.217,-36773.926,10039.958,5730.306,5591.5938,-15939.006,-10645.386,17508.424
955937.2896589928,-8818.034,-36780.887,10029.419,5722.575,5588.3384,-15943.563,-10661.581,17493.938
955937.293658989,-8830.119,-36786.62,10018.474,5716.5527,5582.845,-15946.005,-10671.062,17485.719
955937.2976589852,-8831.625,-36787.07,10013.225,5714.437,5574.0156,-15946.655,-10679.932,17474.895
955937.3016589815,-8825.806,-36780.805,10016.806,5719.93,5567.1797,-15945.068,-10676.188,17474.732
955937.3056589777,-8816.244,-36775.594,10023.112,5725.952,5577.7183,-15939.291,-10666.423,17478.8
955937.309658974,-8820.964,-36784.508,10016.602,5717.5293,5574.382,-15939.697,-10667.5625,17480.266
955937.3136589702,-8829.875,-36795.94,10010.539,5708.171,5567.546,-15941.732,-10669.353,17488.893
955937.3176589664,-8827.475,-36795.9,10013.184,5708.13,5567.3423,-15940.715,-10665.568,17492.432
955937.3216589626,-8820.028,-36790.0,10022.624,5715.698,5571.9404,-15939.982,-10657.675,17496.582
955937.325658959,-8815.186,-36786.133,10030.722,5719.8486,5575.0327,-15940.063,-10655.111,17497.682
955937.3296589552,-8812.094,-36783.45,10028.809,5719.32,5575.1143,-15937.216,-10658.447,17501.668
955937.3336589515,-8818.319,-36788.535,10023.926,5714.885,5573.812,-15937.826,-10668.417,17495.85
955937.3376589477,-8818.726,-36786.867,10023.356,5715.4136,5577.23,-15938.151,-10671.875,17494.832
955937.3416589439,-8813.925,-36781.047,10029.216,5720.256,5578.41,-15936.85,-10667.807,17491.984
955937.3456589401,-8816.325,-36784.098,10028.442,5718.7095,5578.532,-15935.913,-10670.41,17485.88
955937.3496589364,-8822.307,-36786.094,10021.892,5713.9487,5579.7935,-15936.157,-10673.869,17487.996
955937.3536589326,-8828.898,-36788.777,10016.235,5709.2285,5575.3584,-15934.326,-10672.363,17491.17
955937.3576589288,-8823.446,-36785.973,10019.775,5710.9785,5573.568,-15933.31,-10669.271,17490.887
955937.3616589252,-8808.269,-36774.58,10032.797,5721.273,5575.6025,-15927.653,-10653.972,17505.453
955937.3656589214,-8805.298,-36770.508,10037.476,5725.2607,5582.235,-15926.352,-10648.682,17501.953
955937.3696589177,-8817.302,-36781.047,10028.728,5718.547,5585.6934,-15926.636,-10654.013,17492.27
955937.3736589139,-8829.509,-36793.254,10017.782,5708.8623,5581.0547,-15923.666,-10658.122,17494.344
955937.3776589101,-8836.101,-36796.305,10013.347,5707.0723,5582.6416,-15923.503,-10663.168,17487.752
955937.3816589063,-8830.2,-36793.582,10015.625,5713.257,5589.885,-15924.316,-10662.395,17491.21
955937.3856589026,-8823.935,-36787.152,10021.933,5716.919,5599.813,-15924.765,-10659.14,17498.332
955937.3896588988,-8828.776,-36789.188,10019.531,5712.362,5589.6406,-15924.316,-10664.185,17490.52
955937.393658895,-8832.724,-36789.188,10018.433,5707.6416,5586.5073,-15924.438,-10668.539,17485.107
955937.3976588913,-8828.817,-36784.344,10024.984,5709.717,5581.0957,-15927.206,-10663.94,17496.135
955937.4016588876,-8815.878,-36770.508,10035.319,5721.2324,5579.753,-15923.462,-10653.524,17511.963
955937.4056588839,-8805.705,-36765.22,10039.226,5723.7144,5578.532,-15923.91,-10653.158,17511.312
955937.4096588801,-8811.564,-36777.47,10031.576,5713.0127,5568.1562,-15927.612,-10662.476,17493.938
955937.4136588763,-8823.405,-36787.8,10021.281,5703.532,5562.0117,-15925.741,-10665.527,17490.846
955937.4176588726,-8828.491,-36793.05,10017.212,5701.2534,5559.652,-15922.282,-10666.138,17491.09
955937.4216588688,-8824.219,-36785.402,10024.699,5710.1646,5570.3535,-15917.358,-10660.482,17496.42
955937.425658865,-8824.341,-36785.32,10025.92,5714.3555,5586.1006,-15917.074,-10657.227,17497.64
955937.4296588612,-8832.846,-36794.84,10020.793,5708.9844,5586.3037,-15917.807,-10659.018,17497.926
955937.4336588575,-8836.508,-36800.254,10015.3,5703.7764,5584.066,-15918.01,-10661.052,17498.902
955937.4376588537,-8829.916,-36790.242,10020.752,5710.083,5581.462,-15913.981,-10657.715,17502.482
955937.4416588501,-8821.167,-36781.25,10027.995,5717.407,5584.839,-15914.999,-10653.524,17501.994
955937.4456588463,-8821.615,-36782.27,10027.426,5713.745,5578.044,-15920.166,-10658.244,17496.705
955937.4496588425,-8825.317,-36784.953,10026.408,5709.066,5572.795,-15918.132,-10660.4,17495.688
955937.4536588388,-8827.719,-36792.605,10024.536,5707.3164,5565.7554,-15916.22,-10664.877,17488.525
955937.457658835,-8835.083,-36803.387,10020.102,5702.23,5556.1523,-15918.417,-10673.137,17475.18
955937.4616588312,-8828.166,-36797.363,10026.774,5710.1646,5560.3438,-15914.958,-10668.539,17486.572
955937.4656588275,-8824.789,-36794.027,10029.948,5713.379,5565.674,-15915.894,-10667.5625,17491.049
955937.4696588237,-8835.693,-36802.004,10022.339,5706.218,5564.372,-15916.667,-10673.34,17484.986
955937.4736588199,-8841.675,-36806.277,10014.812,5698.7305,5562.175,-15915.527,-10680.624,17476.766
955937.4776588163,-8839.396,-36805.22,10015.788,5701.335,5569.9873,-15916.464,-10676.27,17484.578
955937.4816588125,-8828.247,-36795.492,10024.577,5710.002,5581.95,-15916.83,-10664.795,17496.785
955937.4856588087,-8821.859,-36788.453,10029.216,5716.3086,5584.88,-15917.318,-10658.61,17500.53
955937.489658805,-8835.693,-36798.91,10021.078,5707.845,5574.992,-15917.196,-10667.196,17494.71
955937.4936588012,-8851.5625,-36809.938,10012.655,5699.3003,5565.7554,-15918.417,-10673.991,17494.67
955937.4976587974,-8846.518,-36807.945,10017.253,5702.5557,5563.884,-15916.586,-10674.887,17492.879
955937.5016587937,-8835.815,-36799.562,10022.909,5707.845,5570.7603,-15911.296,-10684.774,17494.955
955937.5056587899,-8830.852,-36795.086,10027.182,5710.8154,5574.26,-15908.366,-10698.486,17500.53
955937.5096587861,-8838.989,-36802.652,10019.9795,5701.05,5568.807,-15911.621,-10717.651,17497.803
955937.5136587824,-8847.616,-36814.535,10013.225,5695.2314,5563.07,-15913.493,-10730.754,17499.838
955937.5176587787,-8840.698,-36810.547,10019.735,5701.9453,5563.8022,-15911.215,-10731.364,17507.162
955937.5216587749,-8830.485,-36798.383,10029.826,5711.1816,5570.394,-15906.291,-10730.347,17511.312
955937.5256587712,-8827.353,-36793.375,10031.576,5711.711,5573.8936,-15907.471,-10738.322,17509.645
955937.5296587674,-8837.729,-36798.3,10023.804,5703.7354,5570.394,-15911.093,-10748.861,17502.809
955937.5336587636,-8846.232,-36805.95,10015.747,5694.336,5560.425,-15910.563,-10757.406,17496.99
955937.5376587599,-8843.059,-36803.996,10018.433,5699.585,5567.79,-15909.018,-10759.196,17494.385
955937.5416587561,-8833.578,-36793.703,10026.611,5709.2695,5580.404,-15907.1045,-10753.988,17499.635
955937.5456587523,-8833.7,-36795.29,10024.74,5707.845,5582.601,-15905.803,-10754.639,17496.094
955937.5496587486,-8840.82,-36801.883,10019.572,5699.9106,5574.3003,-15904.623,-10760.539,17490.479
955937.5536587448,-8847.412,-36809.938,10011.923,5692.5864,5559.4077,-15903.483,-10767.131,17489.87
955937.5576587411,-8848.186,-36809.285,10013.184,5693.7256,5559.4077,-15901.978,-10767.253,17492.879
955937.5616587374,-8839.6,-36799.52,10022.827,5703.8984,5559.0415,-15899.577,-10761.557,17498.291
955937.5656587336,-8836.548,-36797.934,10026.978,5707.2754,5561.5645,-15896.77,-10756.267,17506.55
955937.5696587298,-8840.007,-36803.266,10021.281,5703.044,5562.866,-15894.9795,-10757.284,17503.094
955937.5736587261,-8847.209,-36810.426,10012.329,5693.0747,5556.0713,-15898.845,-10767.578,17497.682
955937.5776587223,-8845.053,-36804.85,10014.853,5695.842,5555.6235,-15901.123,-10768.799,17501.873
955937.5816587185,-8839.193,-36797.73,10019.857,5703.6543,5564.6973,-15897.705,-10764.812,17507.812
955937.5856587148,-8835.409,-36794.72,10022.421,5707.6416,5570.1904,-15896.281,-10765.056,17505.412
955937.589658711,-8846.029,-36800.293,10014.567,5699.463,5564.9414,-15898.52,-10774.414,17496.785
955937.5936587072,-8859.904,-36810.184,10004.517,5690.145,5554.24,-15901.815,-10782.1045,17496.135
