timestamp,Fp1,Fp2,F3,Fz,F4,Cz,Pz,Oz
952351.0153224893,-102836.06,-173372.52,-9573.242,-23135.459,-5888.021,-46775.555,-11415.568,31000.326
952351.019322485,-102839.36,-173369.72,-9578.41,-23128.541,-5877.3604,-46774.78,-11411.621,30997.967
952351.0233224806,-102841.23,-173368.83,-9558.798,-23129.111,-5863.4443,-46786.746,-11418.986,31030.885
952351.0273224763,-102834.11,-173368.25,-9554.606,-23136.354,-5865.316,-46793.297,-11425.659,31047.324
952351.0313224718,-102839.195,-173373.66,-9565.674,-23143.678,-5882.08,-46787.11,-11420.858,31019.125
952351.0353224674,-102841.35,-173377.66,-9583.903,-23141.357,-5890.381,-46778.2,-11411.011,30988.73
952351.0393224631,-102836.47,-173371.47,-9587.321,-23131.186,-5882.121,-46775.84,-11402.954,30996.135
952351.0433224587,-102835.94,-173367.48,-9571.289,-23130.006,-5873.332,-46785.08,-11405.111,31035.482
952351.0473224544,-102844.28,-173380.3,-9563.273,-23142.254,-5881.958,-46792.074,-11411.581,31046.63
952351.05132245,-102848.11,-173384.12,-9577.719,-23146.648,-5896.6475,-46787.723,-11414.673,31018.393
952351.0553224457,-102844.445,-173378.83,-9593.344,-23141.766,-5893.392,-46778.32,-11405.273,30990.723
952351.0593224413,-102839.73,-173369.6,-9582.275,-23132.162,-5882.9346,-46778.2,-11399.374,30998.78
952351.063322437,-102837.65,-173364.55,-9556.967,-23129.355,-5866.252,-46787.234,-11401.978,31041.22
952351.0673224326,-102837.164,-173366.75,-9546.225,-23137.045,-5864.502,-46793.785,-11406.942,31060.873
952351.0713224283,-102836.555,-173372.16,-9555.095,-23144.207,-5876.831,-46788.13,-11403.687,31042.033
952351.075322424,-102834.76,-173367.39,-9574.707,-23138.916,-5882.8125,-46777.832,-11398.193,31013.348
952351.0793224196,-102833.375,-173364.7,-9578.898,-23130.78,-5874.3896,-46776.777,-11395.468,31016.277
952351.0833224152,-102832.805,-173369.23,-9560.669,-23131.959,-5860.881,-46786.176,-11395.59,31062.217
952351.0873224109,-102832.69,-173371.9,-9548.666,-23141.154,-5860.759,-46792.562,-11400.106,31082.846
952351.0913224065,-102837.12,-173377.66,-9564.575,-23146.729,-5869.1816,-46787.68,-11402.141,31056.846
952351.0953224022,-102838.3,-173372.69,-9575.684,-23140.545,-5870.931,-46779.137,-11393.515,31031.455
952351.0993223977,-102827.234,-173364.5,-9573.69,-23130.535,-5863.4033,-46777.387,-11386.679,31039.959
952351.1033223934,-102825.28,-173359.62,-9555.095,-23130.371,-5860.0264,-46786.746,-11389.853,31080.283
952351.107322389,-102830.85,-173363.38,-9549.072,-23142.742,-5867.7573,-46790.938,-11396.525,31093.018
952351.1113223847,-102841.48,-173372.56,-9572.998,-23149.496,-5877.9297,-46787.8,-11395.956,31064.006
952351.1153223803,-102840.17,-173368.5,-9588.705,-23142.375,-5884.2773,-46777.47,-11387.289,31032.879
952351.119322376,-102833.87,-173361.3,-9582.805,-23133.22,-5876.506,-46776.41,-11385.946,31036.947
952351.1233223716,-102832.28,-173364.42,-9561.6455,-23137.777,-5865.316,-46788.656,-11392.538,31070.395
952351.1273223673,-102837.12,-173368.78,-9553.101,-23147.258,-5876.831,-46794.434,-11400.1875,31083.457
952351.1313223629,-102840.17,-173375.73,-9568.156,-23150.635,-5887.6953,-46789.51,-11399.414,31053.672
952351.1353223586,-102841.8,-173378.34,-9587.036,-23146.81,-5886.882,-46780.64,-11390.666,31023.723
952351.1393223542,-102839.97,-173377.97,-9582.153,-23138.795,-5879.7607,-46779.258,-11385.986,31026.979
952351.1433223499,-102837.61,-173375.73,-9557.129,-23136.68,-5869.873,-46789.023,-11394.491,31062.582
952351.1473223455,-102841.44,-173378.67,-9552.856,-23145.916,-5871.135,-46794.883,-11394.857,31075.195
952351.1513223412,-102845.09,-173380.7,-9564.697,-23151.693,-5886.0273,-46788.617,-11391.562,31048.666
952351.1553223368,-102837.0,-173371.6,-9581.665,-23147.34,-5890.0557,-46781.008,-11385.702,31017.295
952351.1593223325,-102831.83,-173364.39,-9581.584,-23136.23,-5879.5166,-46779.42,-11380.656,31022.096
952351.163322328,-102835.33,-173366.17,-9567.79,-23138.836,-5873.454,-46788.414,-11384.604,31057.293
952351.1673223237,-102842.33,-173375.3,-9563.11,-23151.328,-5879.0693,-46795.41,-11392.782,31067.547
952351.1713223193,-102846.11,-173381.23,-9572.876,-23158.203,-5886.882,-46793.582,-11392.7,31043.824
952351.175322315,-102841.31,-173377.69,-9589.071,-23152.467,-5894.1245,-46783.938,-11387.817,31015.586
952351.1793223106,-102837.734,-173372.08,-9582.235,-23140.504,-5885.7017,-46781.09,-11378.134,31028.2
952351.1833223063,-102841.76,-173375.2,-9566.406,-23143.475,-5879.0283,-46791.016,-11378.825,31071.615
952351.1873223019,-102851.93,-173383.67,-9558.513,-23154.094,-5883.016,-46798.34,-11386.353,31086.875
952351.1913222976,-102853.16,-173387.22,-9563.437,-23157.797,-5896.1997,-46793.133,-11387.573,31063.07
952351.1953222932,-102849.25,-173382.78,-9581.503,-23151.246,-5900.3096,-46784.1,-11382.895,31033.53
952351.1993222889,-102843.06,-173378.67,-9576.701,-23142.66,-5892.0493,-46783.57,-11380.168,31037.436
952351.2033222845,-102839.766,-173380.98,-9556.926,-23141.969,-5882.4463,-46792.44,-11385.376,31072.389
952351.2073222802,-102848.23,-173394.05,-9552.653,-23152.344,-5898.1934,-46799.766,-11391.032,31082.316
952351.2113222758,-102850.836,-173397.8,-9569.133,-23157.92,-5906.494,-46795.41,-11391.846,31052.49
952351.2153222715,-102843.914,-173390.8,-9584.066,-23150.39,-5901.4487,-46785.156,-11385.824,31021.484
952351.2193222671,-102838.055,-173384.69,-9584.147,-23140.016,-5886.0273,-46785.035,-11382.609,31026.775
952351.2233222628,-102835.58,-173381.47,-9562.012,-23140.707,-5875.6514,-46794.273,-11384.521,31069.377
952351.2273222583,-102840.54,-173382.4,-9551.677,-23150.96,-5889.73,-46800.215,-11391.724,31080.283
952351.2313222539,-102845.42,-173388.27,-9569.946,-23158.652,-5902.4253,-46793.945,-11391.724,31051.555
952351.2353222496,-102842.37,-173384.89,-9589.926,-23152.305,-5901.815,-46783.203,-11388.388,31019.125
952351.2393222452,-102845.13,-173382.45,-9583.618,-23142.172,-5892.212,-46784.547,-11388.835,31022.666
952351.2433222409,-102846.234,-173381.8,-9558.105,-23142.742,-5877.0347,-46797.08,-11390.869,31061.117
952351.2473222365,-102841.76,-173382.17,-9540.976,-23151.084,-5886.882,-46805.137,-11397.258,31075.36
952351.2513222322,-102846.07,-173383.39,-9553.386,-23152.955,-5896.159,-46799.6,-11394.328,31050.701
952351.2553222278,-102846.16,-173384.86,-9577.067,-23150.596,-5897.6646,-46789.715,-11385.742,31020.143
952351.2593222235,-102840.82,-173382.61,-9582.275,-23145.916,-5889.7705,-46787.56,-11379.3545,31024.822
952351.2633222191,-102839.03,-173382.12,-9565.268,-23147.666,-5880.2085,-46796.227,-11381.592,31063.803
952351.2673222148,-102842.37,-173385.83,-9561.523,-23157.064,-5884.7656,-46801.758,-11384.929,31078.248
952351.2713222104,-102845.625,-173390.19,-9575.928,-23161.377,-5899.414,-46796.51,-11385.986,31052.002
952351.2753222061,-102851.61,-173390.02,-9587.484,-23157.715,-5902.71,-46786.176,-11380.046,31021.566
952351.2793222017,-102851.81,-173387.62,-9589.641,-23148.031,-5895.508,-46786.055,-11376.628,31029.908
952351.2833221974,-102846.64,-173387.7,-9568.563,-23146.934,-5886.9224,-46797.16,-11381.47,31069.703
952351.287322193,-102850.23,-173396.73,-9565.959,-23157.879,-5900.3096,-46805.746,-11388.632,31082.44
952351.2913221887,-102850.71,-173398.69,-9576.945,-23161.053,-5914.958,-46800.008,-11385.742,31058.879
952351.2953221842,-102848.836,-173391.08,-9589.844,-23155.518,-5916.382,-46789.918,-11381.633,31027.344
952351.2993221799,-102849.86,-173390.47,-9587.729,-23147.746,-5908.773,-46788.13,-11374.472,31030.6
952351.3033221755,-102853.36,-173391.61,-9566.61,-23149.17,-5897.2983,-46799.36,-11379.477,31070.273
952351.3073221712,-102853.84,-173390.95,-9560.588,-23155.518,-5887.5327,-46804.688,-11387.004,31086.955
952351.3113221668,-102855.47,-173394.62,-9573.364,-23161.865,-5903.2393,-46800.215,-11386.679,31058.555
952351.3153221625,-102857.75,-173390.62,-9591.024,-23159.059,-5916.8296,-46790.12,-11381.063,31026.164
952351.3193221581,-102858.69,-173390.34,-9588.705,-23150.514,-5908.122,-46790.203,-11378.052,31031.373
952351.3233221538,-102847.7,-173382.9,-9568.237,-23148.031,-5890.1777,-46798.953,-11381.186,31072.021
952351.3273221494,-102844.08,-173383.75,-9563.437,-23158.447,-5896.322,-46805.258,-11386.516,31086.996
952351.3313221451,-102842.77,-173390.27,-9576.335,-23166.424,-5909.79,-46800.863,-11380.331,31057.373
952351.3353221407,-102838.42,-173378.9,-9587.321,-23159.465,-5907.064,-46791.18,-11373.413,31028.402
952351.3393221364,-102836.43,-173372.03,-9576.782,-23150.31,-5898.4375,-46791.06,-11371.42,31034.385
952351.343322132,-102843.55,-173381.56,-9558.676,-23153.32,-5890.259,-46800.05,-11373.535,31070.312
952351.3473221277,-102854.66,-173393.69,-9560.385,-23166.748,-5897.5425,-46805.098,-11379.069,31080.445
952351.3513221233,-102864.75,-173398.48,-9587.646,-23171.592,-5908.366,-46799.6,-11382.487,31050.498
952351.355322119,-102865.16,-173393.23,-9606.812,-23163.9,-5904.419,-46789.594,-11372.641,31020.02
952351.3593221145,-102852.38,-173382.53,-9601.889,-23153.443,-5895.63,-46788.94,-11370.646,31026.164
952351.3633221101,-102848.88,-173385.06,-9577.881,-23156.047,-5891.3984,-46800.54,-11375.57,31062.379
952351.3673221058,-102853.88,-173389.25,-9573.8125,-23168.092,-5896.2812,-46805.83,-11383.749,31072.307
952351.3713221014,-102861.78,-173394.22,-9588.135,-23171.266,-5905.925,-46798.383,-11382.568,31039.512
952351.3753220971,-102869.14,-173401.7,-9605.551,-23167.074,-5905.4365,-46789.145,-11367.554,31011.8
952351.3793220927,-102863.734,-173396.48,-9591.472,-23159.506,-5898.763,-46788.25,-11363.688,31025.635
952351.3833220884,-102851.445,-173385.27,-9568.4,-23157.879,-5887.8174,-46798.016,-11366.699,31071.738
952351.387322084,-102849.37,-173387.78,-9564.453,-23167.562,-5890.91,-46802.125,-11369.507,31089.723
952351.3913220797,-102860.6,-173399.22,-9584.839,-23174.725,-5903.6055,-46795.29,-11366.943,31064.78
952351.3953220753,-102868.37,-173403.12,-9610.352,-23169.11,-5916.667,-46786.133,-11360.84,31033.53
952351.399322071,-102870.08,-173397.8,-9608.195,-23160.645,-5913.33,-46784.668,-11355.754,31040.771
952351.4033220666,-102869.43,-173398.94,-9587.769,-23163.818,-5906.8604,-46794.395,-11359.213,31076.498
952351.4073220623,-102868.82,-173404.6,-9579.143,-23174.113,-5911.7026,-46802.125,-11365.683,31088.908
952351.411322058,-102875.49,-173415.81,-9596.436,-23177.857,-5921.509,-46795.207,-11364.014,31063.762
952351.4153220536,-102876.51,-173416.31,-9608.928,-23170.94,-5921.7124,-46782.594,-11354.045,31030.682
952351.4193220492,-102875.57,-173412.48,-9603.354,-23162.314,-5911.2144,-46781.453,-11350.546,31035.441
952351.4233220449,-102871.5,-173406.9,-9577.515,-23162.803,-5899.4956,-46793.582,-11359.253,31073.242
952351.4273220404,-102874.31,-173410.94,-9571.533,-23170.045,-5907.3486,-46799.766,-11367.88,31081.707
952351.4313220361,-102878.5,-173415.58,-9587.769,-23176.637,-5923.706,-46794.965,-11369.873,31046.184
952351.4353220317,-102881.43,-173419.31,-9609.131,-23173.504,-5931.844,-46788.008,-11368.979,31007.732
952351.4393220274,-102887.82,-173429.81,-9620.605,-23170.736,-5926.88,-46789.188,-11371.704,31003.785
952351.443322023,-102891.52,-173431.64,-9607.097,-23172.363,-5919.0674,-46800.008,-11372.925,31044.434
952351.4473220187,-102902.59,-173438.81,-9601.237,-23183.758,-5921.997,-46805.91,-11375.814,31059.287
952351.4513220143,-102907.96,-173443.61,-9612.997,-23188.396,-5937.3374,-46798.953,-11375.692,31028.32
952351.45532201,-102892.46,-173428.84,-9623.535,-23181.723,-5940.3076,-46792.562,-11372.681,30997.723
952351.4593220056,-102885.7,-173420.58,-9610.2705,-23172.771,-5934.652,-46792.156,-11366.455,31008.018
952351.4633220013,-102890.875,-173427.9,-9590.21,-23174.316,-5927.043,-46801.758,-11367.758,31043.945
952351.4673219969,-102906.54,-173454.8,-9590.21,-23187.705,-5937.744,-46807.008,-11371.298,31059.814
952351.4713219926,-102916.914,-173464.61,-9615.438,-23195.354,-5949.056,-46803.223,-11371.989,31031.088
952351.4753219882,-102905.64,-173443.05,-9630.493,-23186.809,-5942.546,-46794.883,-11367.758,31000.611
952351.4793219839,-102894.94,-173429.0,-9620.036,-23174.969,-5932.5767,-46797.04,-11364.99,31012.574
952351.4833219795,-102891.52,-173425.67,-9597.331,-23172.363,-5922.282,-46808.72,-11367.839,31053.387
952351.4873219752,-102893.195,-173426.64,-9587.646,-23181.031,-5924.927,-46814.21,-11372.681,31066.244
952351.4913219707,-102895.39,-173428.52,-9604.533,-23186.443,-5939.8193,-46807.945,-11370.728,31037.965
952351.4953219664,-102894.58,-173428.55,-9622.314,-23181.52,-5948.039,-46797.242,-11362.061,31008.18
952351.499321962,-102895.35,-173426.92,-9618.124,-23172.771,-5936.035,-46797.242,-11359.823,31011.963
952351.5033219577,-102902.14,-173428.6,-9597.941,-23173.992,-5921.794,-46809.41,-11364.706,31048.504
952351.5073219533,-102906.375,-173439.95,-9585.205,-23185.791,-5927.8975,-46814.863,-11368.815,31062.95
952351.511321949,-102900.15,-173443.45,-9600.708,-23189.941,-5949.87,-46808.594,-11368.9375,31032.594
952351.5153219446,-102902.34,-173449.02,-9615.479,-23183.96,-5957.601,-46799.44,-11363.444,31001.14
952351.5193219403,-102909.06,-173452.84,-9617.554,-23178.305,-5939.779,-46800.62,-11357.219,31005.78
952351.5233219359,-102903.0,-173437.42,-9595.378,-23178.752,-5920.9395,-46812.5,-11362.387,31040.04
952351.5273219316,-102895.875,-173431.23,-9583.293,-23188.193,-5929.7285,-46819.176,-11369.67,31055.34
952351.5313219272,-102902.47,-173439.02,-9604.818,-23195.312,-5943.685,-46813.355,-11369.873,31026.002
952351.5353219229,-102911.3,-173439.5,-9627.482,-23188.72,-5949.87,-46801.19,-11362.793,30998.7
952351.5393219185,-102902.266,-173434.9,-9616.171,-23177.816,-5942.871,-46798.992,-11355.998,31009.562
952351.5433219142,-102885.99,-173428.6,-9588.989,-23177.734,-5935.8726,-46810.06,-11359.741,31045.004
952351.5473219098,-102889.77,-173436.61,-9588.705,-23191.57,-5941.732,-46815.023,-11363.403,31061.035
952351.5513219055,-102901.414,-173449.75,-9605.673,-23198.121,-5959.1475,-46808.72,-11359.009,31027.955
952351.555321901,-102903.61,-173443.69,-9624.594,-23192.465,-5958.8623,-46799.97,-11353.598,30997.07
952351.5593218966,-102892.78,-173423.75,-9615.072,-23181.113,-5936.3203,-46800.293,-11351.156,31008.994
952351.5633218923,-102892.26,-173423.55,-9593.181,-23183.229,-5920.0034,-46812.785,-11360.962,31047.934
952351.5673218879,-102899.21,-173437.06,-9588.664,-23196.045,-5930.2573,-46818.402,-11367.27,31056.275
952351.5713218836,-102904.99,-173447.64,-9618.286,-23202.393,-5952.881,-46810.344,-11360.718,31024.822
952351.5753218792,-102907.07,-173447.16,-9641.806,-23195.477,-5954.061,-46800.984,-11353.842,30999.512
952351.5793218749,-102900.39,-173430.02,-9637.248,-23184.775,-5934.6924,-46799.24,-11348.633,31012.695
952351.5833218705,-102891.32,-173418.22,-9611.491,-23185.344,-5919.637,-46811.81,-11352.905,31053.752
952351.5873218662,-102887.9,-173418.22,-9600.302,-23195.232,-5919.271,-46818.77,-11358.806,31068.97
952351.5913218618,-102895.96,-173425.25,-9615.194,-23201.945,-5935.8726,-46811.89,-11355.225,31040.977
952351.5953218575,-102898.93,-173425.05,-9632.162,-23197.104,-5947.347,-46802.53,-11348.063,31012.818
952351.5993218531,-102893.234,-173421.27,-9625.732,-23186.89,-5938.3545,-46803.67,-11342.855,31024.74
952351.6033218488,-102898.805,-173429.2,-9608.5205,-23189.982,-5924.8047,-46815.43,-11346.924,31060.752
952351.6073218444,-102906.74,-173430.1,-9608.032,-23200.033,-5925.1304,-46822.188,-11351.645,31076.416
952351.6113218401,-102904.34,-173424.69,-9621.46,-23201.824,-5935.5063,-46817.668,-11353.598,31049.928
952351.6153218357,-102896.77,-173417.77,-9631.592,-23194.824,-5943.6035,-46809.773,-11349.569,31014.69
952351.6193218314,-102892.01,-173415.05,-9617.758,-23185.67,-5933.1055,-46808.027,-11342.611,31022.787
952351.6233218269,-102896.2,-173419.48,-9588.176,-23185.508,-5921.1426,-46816.246,-11344.482,31065.105
952351.6273218226,-102907.11,-173432.5,-9590.129,-23197.998,-5931.7627,-46821.25,-11349.813,31079.55
952351.6313218182,-102911.54,-173438.81,-9611.654,-23203.818,-5948.69,-46814.13,-11346.313,31052.531
952351.6353218139,-102902.75,-173432.3,-9633.383,-23196.086,-5956.665,-46805.91,-11341.879,31018.922
952351.6393218095,-102897.914,-173432.58,-9629.395,-23189.617,-5953.6133,-46807.09,-11341.716,31022.625
952351.6433218052,-102901.94,-173439.86,-9606.242,-23191.855,-5938.2324,-46818.93,-11345.744,31056.64
952351.6473218008,-102901.49,-173436.53,-9596.924,-23199.219,-5936.4424,-46825.684,-11352.539,31067.262
952351.6513217965,-102903.89,-173438.48,-9608.847,-23204.102,-5950.155,-46819.094,-11351.481,31039.836
952351.6553217921,-102911.5,-173445.2,-9627.035,-23200.725,-5953.8574,-46807.7,-11342.651,31013.836
952351.6593217878,-102906.05,-173430.22,-9625.204,-23191.977,-5943.1562,-46807.54,-11337.851,31022.584
952351.6633217834,-102892.3,-173415.33,-9607.91,-23192.018,-5930.5015,-46818.402,-11344.482,31058.473
952351.6673217791,-102892.336,-173422.53,-9607.91,-23203.654,-5942.871,-46823.367,-11349.936,31069.133
952351.6713217747,-102898.03,-173430.75,-9622.152,-23209.555,-5958.944,-46813.76,-11346.273,31041.18
952351.6753217704,-102906.62,-173443.81,-9639.364,-23205.81,-5967.489,-46803.793,-11339.641,31010.092
952351.679321766,-102912.48,-173450.73,-9637.533,-23199.383,-5960.368,-46805.137,-11333.212,31016.887
952351.6833217617,-102908.164,-173438.2,-9607.748,-23196.982,-5946.737,-46815.227,-11336.508,31058.27
952351.6873217572,-102910.73,-173442.22,-9600.505,-23205.81,-5948.2017,-46820.723,-11342.814,31073.65
952351.6913217528,-102912.07,-173449.34,-9616.171,-23211.508,-5960.368,-46816.0,-11340.536,31048.26
952351.6953217485,-102909.23,-173446.3,-9639.73,-23205.81,-5967.082,-46806.03,-11337.565,31018.352
952351.6993217441,-102909.305,-173449.19,-9638.998,-23197.836,-5958.822,-46804.89,-11335.449,31026.328
952351.7033217398,-102912.07,-173450.33,-9616.333,-23201.133,-5946.6147,-46816.773,-11340.861,31066.691
952351.7073217354,-102919.64,-173454.03,-9604.045,-23213.502,-5952.2705,-46824.832,-11350.586,31080.73
952351.7113217311,-102928.19,-173463.8,-9615.356,-23218.791,-5972.29,-46818.117,-11347.656,31054.443
952351.7153217267,-102922.81,-173464.0,-9632.528,-23212.2,-5977.2544,-46808.027,-11336.304,31028.973
952351.7193217224,-102914.35,-173455.28,-9627.849,-23202.475,-5962.484,-46807.293,-11329.387,31038.574
952351.723321718,-102919.84,-173462.08,-9604.736,-23205.404,-5950.1953,-46817.793,-11337.24,31077.475
952351.7273217137,-102934.086,-173475.31,-9606.323,-23218.018,-5955.0376,-46824.707,-11342.611,31090.576
952351.7313217093,-102937.34,-173475.72,-9625.937,-23220.623,-5966.919,-46817.465,-11338.583,31060.67
952351.735321705,-102937.18,-173472.5,-9643.393,-23212.037,-5968.1807,-46804.73,-11329.102,31031.332
952351.7393217006,-102940.31,-173477.06,-9635.539,-23204.834,-5960.124,-46803.957,-11322.795,31039.55
952351.7433216963,-102948.77,-173488.89,-9614.828,-23209.352,-5951.782,-46811.566,-11326.742,31076.783
952351.747321692,-102967.49,-173505.9,-9615.642,-23218.426,-5959.432,-46816.246,-11331.747,31089.805
952351.7513216875,-102976.04,-173516.44,-9636.719,-23224.854,-5978.882,-46810.875,-11331.096,31061.035
952351.7553216831,-102968.18,-173514.66,-9649.902,-23218.344,-5983.8867,-46801.516,-11323.69,31030.682
952351.7593216788,-102975.43,-173519.53,-9644.857,-23213.867,-5976.9287,-46802.125,-11319.133,31039.268
952351.7633216744,-102994.47,-173534.8,-9624.431,-23218.75,-5967.8145,-46811.445,-11325.277,31083.904
952351.7673216701,-103010.09,-173552.3,-9618.205,-23232.3,-5967.8955,-46816.043,-11334.717,31100.139
952351.7713216657,-103013.76,-173563.97,-9640.219,-23238.648,-5980.306,-46809.043,-11325.317,31075.766
952351.7753216614,-103023.03,-173570.08,-9663.086,-23234.498,-5992.5947,-46799.6,-11313.314,31045.451
952351.779321657,-103030.07,-173572.16,-9654.745,-23224.041,-5978.76,-46799.113,-11311.32,31058.555
952351.7833216527,-103033.57,-173585.9,-9624.105,-23225.627,-5966.96,-46807.902,-11314.087,31101.523
952351.7873216483,-103046.305,-173607.92,-9618.815,-23237.184,-5976.5625,-46812.703,-11318.808,31116.537
952351.791321644,-103062.22,-173619.84,-9643.474,-23243.693,-5990.2754,-46805.543,-11315.552,31090.129
952351.7953216396,-103071.336,-173619.6,-9670.695,-23240.031,-5996.1753,-46795.492,-11308.228,31062.46
952351.7993216353,-103082.85,-173632.94,-9670.288,-23231.812,-5991.699,-46794.19,-11299.683,31076.904
952351.8033216309,-103079.47,-173647.1,-9645.183,-23230.186,-5979.167,-46803.754,-11301.758,31120.646
952351.8073216266,-103084.03,-173659.95,-9640.747,-23243.084,-5986.328,-46808.516,-11304.565,31136.436
952351.8113216222,-103108.89,-173681.28,-9657.675,-23250.977,-5997.5996,-46799.97,-11301.433,31112.346
952351.8153216179,-103119.14,-173696.3,-9678.183,-23244.873,-5998.291,-46788.617,-11292.521,31085.043
952351.8193216134,-103117.96,-173704.52,-9667.603,-23237.06,-5982.951,-46788.29,-11287.272,31096.803
952351.8233216091,-103127.08,-173712.0,-9647.136,-23243.37,-5981.649,-46797.69,-11288.33,31139.04
952351.8273216047,-103146.65,-173734.47,-9648.886,-23257.691,-5996.623,-46803.223,-11294.556,31149.496
952351.8313216004,-103165.29,-173750.98,-9671.265,-23262.412,-6007.324,-46797.527,-11291.87,31123.902
952351.835321596,-103171.23,-173760.9,-9691.04,-23255.25,-6005.412,-46788.574,-11283.529,31096.355
952351.8393215917,-103173.47,-173765.62,-9676.799,-23244.873,-5993.9375,-46789.43,-11281.738,31109.742
952351.8433215873,-103182.13,-173778.66,-9650.065,-23249.229,-5987.59,-46799.887,-11283.773,31153.973
952351.847321583,-103199.71,-173795.42,-9646.892,-23262.412,-6000.122,-46804.12,-11289.673,31165.568
952351.8513215786,-103209.76,-173812.02,-9663.737,-23268.596,-6013.672,-46797.16,-11287.517,31138.348
952351.8553215743,-103212.94,-173815.92,-9685.751,-23262.86,-6018.4326,-46786.46,-11277.67,31109.54
952351.8593215699,-103215.336,-173810.23,-9683.1875,-23251.953,-6011.2305,-46786.867,-11272.624,31118.531
952351.8633215656,-103222.82,-173812.95,-9663.168,-23255.088,-6002.0347,-46796.145,-11275.31,31158.814
952351.8673215612,-103232.51,-173824.42,-9655.314,-23269.451,-6004.3945,-46800.906,-11281.494,31172.324
952351.8713215569,-103235.195,-173829.92,-9674.765,-23273.072,-6020.4673,-46793.99,-11279.379,31147.137
952351.8753215525,-103237.555,-173833.17,-9696.899,-23267.904,-6030.5176,-46783.613,-11270.183,31120.117
952351.8793215482,-103239.83,-173835.62,-9695.272,-23261.271,-6018.026,-46783.0,-11265.463,31129.314
952351.8833215437,-103247.48,-173838.39,-9676.27,-23265.3,-6007.7314,-46795.535,-11274.089,31168.133
952351.8873215393,-103257.86,-173851.36,-9677.775,-23278.77,-6017.7,-46802.125,-11279.989,31178.02
952351.891321535,-103260.3,-173863.08,-9700.603,-23284.873,-6032.308,-46796.184,-11277.914,31149.658
952351.8953215306,-103256.8,-173854.83,-9713.379,-23278.77,-6031.9824,-46785.36,-11270.02,31119.264
952351.8993215263,-103255.375,-173845.8,-9705.485,-23268.475,-6018.5547,-46783.49,-11264.12,31128.338
952351.9033215219,-103264.08,-173855.72,-9686.483,-23273.154,-6010.376,-46794.477,-11267.985,31166.504
952351.9073215176,-103273.03,-173869.39,-9677.409,-23285.889,-6020.3047,-46798.26,-11271.606,31177.979
952351.9113215132,-103280.805,-173879.48,-9699.951,-23290.895,-6045.7764,-46790.203,-11266.643,31147.38
952351.9153215089,-103284.43,-173874.56,-9720.093,-23285.156,-6048.625,-46782.918,-11256.999,31119.14
952351.9193215045,-103280.73,-173871.88,-9713.501,-23274.414,-6038.615,-46783.613,-11255.575,31132.244
952351.9233215002,-103285.0,-173875.9,-9686.931,-23274.863,-6028.8086,-46793.582,-11259.521,31176.514
952351.9273214958,-103290.37,-173875.73,-9682.17,-23284.018,-6030.6807,-46798.75,-11265.544,31190.674
952351.9313214915,-103291.586,-173880.9,-9701.172,-23288.86,-6047.567,-46790.12,-11262.533,31161.418
952351.9353214871,-103289.35,-173880.95,-9716.35,-23284.668,-6052.49,-46778.605,-11254.3545,31130.941
952351.9393214828,-103292.69,-173885.83,-9714.722,-23276.611,-6044.4746,-46779.83,-11251.465,31138.998
952351.9433214784,-103298.99,-173893.92,-9692.953,-23278.85,-6035.6445,-46791.953,-11257.121,31178.143
952351.9473214741,-103300.01,-173895.95,-9686.32,-23286.256,-6032.186,-46796.836,-11263.713,31194.336
952351.9513214696,-103303.06,-173897.19,-9708.171,-23293.701,-6039.673,-46789.348,-11265.381,31166.22
952351.9553214653,-103300.945,-173891.89,-9721.3955,-23286.621,-6046.997,-46777.266,-11259.44,31137.777
952351.9593214609,-103295.33,-173883.34,-9712.565,-23276.043,-6033.4473,-46776.41,-11257.202,31147.91
952351.9633214566,-103297.24,-173889.2,-9691.366,-23280.64,-6022.6646,-46786.133,-11263.754,31183.594
952351.9673214522,-103306.234,-173900.8,-9693.481,-23296.062,-6037.6387,-46792.156,-11271.525,31193.076
952351.9713214479,-103312.46,-173909.27,-9713.664,-23299.357,-6055.583,-46785.32,-11269.125,31164.795
952351.9753214435,-103311.164,-173907.19,-9731.608,-23293.377,-6057.4546,-46774.902,-11259.888,31137.656
952351.9793214392,-103308.516,-173901.05,-9720.541,-23285.523,-6045.8174,-46774.54,-11256.592,31145.793
952351.9833214348,-103313.68,-173910.36,-9700.644,-23291.016,-6033.203,-46785.24,-11263.591,31179.12
952351.9873214305,-103322.63,-173924.81,-9698.73,-23300.701,-6043.8643,-46789.96,-11268.393,31190.918
952351.9913214261,-103326.664,-173929.2,-9718.181,-23306.846,-6062.256,-46783.652,-11266.113,31161.826
952351.9953214218,-103329.8,-173936.25,-9746.826,-23303.06,-6070.4346,-46773.926,-11259.44,31130.127
952351.9993214174,-103330.53,-173939.9,-9738.159,-23292.441,-6062.7036,-46775.35,-11254.761,31141.684
952352.0033214131,-103333.01,-173939.66,-9712.6875,-23296.184,-6056.722,-46786.133,-11258.423,31182.578
952352.0073214087,-103339.32,-173943.73,-9701.904,-23305.137,-6055.339,-46792.766,-11262.289,31195.15
952352.0113214044,-103339.52,-173944.55,-9713.542,-23307.373,-6062.419,-46786.38,-11260.58,31170.166
952352.0153213999,-103335.86,-173943.77,-9729.086,-23298.992,-6069.2954,-46776.246,-11254.313,31138.55
952352.0193213955,-103335.94,-173939.7,-9723.959,-23290.771,-6058.6753,-46778.242,-11251.018,31145.672
952352.0233213912,-103334.805,-173941.9,-9702.393,-23293.336,-6049.7236,-46788.777,-11254.802,31184.123
952352.0273213868,-103340.7,-173953.98,-9699.992,-23306.64,-6057.617,-46795.29,-11264.323,31191.732
952352.0313213825,-103344.77,-173957.56,-9721.436,-23310.67,-6072.795,-46789.594,-11263.591,31160.238
952352.0353213781,-103342.57,-173952.6,-9736.45,-23301.678,-6071.6147,-46780.07,-11254.68,31127.646
952352.0393213738,-103340.54,-173949.42,-9736.084,-23294.922,-6058.757,-46782.066,-11251.303,31137.127
952352.0433213694,-103338.664,-173949.34,-9712.769,-23296.998,-6045.044,-46794.434,-11257.487,31178.467
952352.0473213651,-103338.055,-173954.97,-9705.038,-23307.861,-6054.0366,-46802.004,-11263.876,31188.355
952352.0513213607,-103338.09,-173954.31,-9714.519,-23312.744,-6069.214,-46794.637,-11262.777,31156.576
952352.0553213564,-103333.625,-173949.14,-9729.777,-23304.932,-6073.8936,-46783.53,-11254.028,31123.088
952352.059321352,-103330.61,-173943.73,-9729.33,-23295.615,-6060.466,-46785.605,-11250.163,31129.111
952352.0633213477,-103332.766,-173945.44,-9716.635,-23299.154,-6051.5547,-46800.418,-11255.453,31170.207
952352.0673213433,-103336.76,-173948.33,-9716.064,-23308.473,-6064.1685,-46806.97,-11261.23,31185.588
952352.071321339,-103339.12,-173948.38,-9737.427,-23312.46,-6083.171,-46799.562,-11258.708,31158.203
952352.0753213346,-103335.33,-173938.97,-9747.559,-23306.438,-6084.31,-46787.883,-11248.413,31130.412
952352.0793213302,-103340.91,-173939.45,-9742.392,-23298.3,-6068.807,-46786.133,-11242.636,31141.44
952352.0833213258,-103343.266,-173942.39,-9720.215,-23301.23,-6056.0713,-46795.332,-11246.054,31181.885
952352.0873213215,-103328.66,-173936.66,-9704.956,-23308.35,-6057.373,-46801.434,-11253.54,31192.953
952352.0913213171,-103320.6,-173928.44,-9718.588,-23308.96,-6074.178,-46797.04,-11254.11,31160.117
952352.0953213128,-103315.68,-173918.17,-9728.476,-23301.27,-6072.9575,-46788.535,-11246.948,31127.85
952352.0993213084,-103307.54,-173911.5,-9713.827,-23291.26,-6056.356,-46788.656,-11242.432,31138.389
952352.1033213041,-103303.71,-173910.66,-9690.349,-23293.662,-6044.3115,-46798.098,-11244.792,31178.59
952352.1073212997,-103309.125,-173921.56,-9693.319,-23304.607,-6051.921,-46806.152,-11254.599,31187.664
952352.1113212954,-103313.195,-173927.17,-9717.285,-23307.822,-6065.1855,-46800.09,-11255.127,31156.047
952352.115321291,-103312.26,-173922.78,-9739.828,-23299.44,-6069.377,-46788.656,-11247.192,31121.746
952352.1193212867,-103307.375,-173917.4,-9730.998,-23289.023,-6056.8037,-46790.04,-11246.013,31130.291
952352.1233212823,-103307.09,-173918.34,-9704.875,-23291.586,-6042.6436,-46799.562,-11251.465,31170.533
952352.127321278,-103309.9,-173923.83,-9704.387,-23301.107,-6047.2007,-46807.58,-11255.046,31184.814
952352.1313212736,-103310.23,-173924.53,-9717.245,-23306.396,-6067.668,-46801.15,-11253.703,31157.512
952352.1353212693,-103307.87,-173919.97,-9730.957,-23297.812,-6074.748,-46791.465,-11246.582,31123.291
952352.1393212649,-103305.26,-173915.7,-9717.448,-23292.766,-6060.1807,-46791.668,-11243.9375,31132.324
952352.1433212606,-103309.94,-173925.05,-9694.052,-23298.463,-6051.799,-46801.84,-11252.116,31165.324
952352.1473212561,-103314.78,-173932.38,-9693.93,-23306.193,-6063.4766,-46806.926,-11257.324,31178.508
952352.1513212518,-103314.45,-173929.94,-9719.32,-23308.96,-6079.2646,-46800.09,-11252.319,31150.025
952352.1553212474,-103312.95,-173926.31,-9747.274,-23302.37,-6081.218,-46790.49,-11246.013,31120.525
952352.1593212431,-103313.234,-173927.73,-9741.984,-23293.418,-6069.4175,-46792.074,-11243.979,31129.314
952352.1633212387,-103316.0,-173924.44,-9715.251,-23295.615,-6061.239,-46803.957,-11252.482,31163.494
952352.1673212344,-103321.21,-173929.78,-9705.241,-23309.896,-6068.807,-46811.363,-11260.417,31174.072
952352.17132123,-103323.65,-173931.97,-9727.987,-23314.982,-6082.3975,-46803.633,-11254.3545,31144.94
952352.1753212257,-103322.836,-173926.64,-9743.53,-23308.31,-6080.2,-46795.613,-11246.582,31114.014
952352.1793212213,-103317.586,-173920.98,-9734.701,-23301.025,-6065.3486,-46798.543,-11246.948,31122.396
952352.183321217,-103318.52,-173924.64,-9709.311,-23302.572,-6059.367,-46809.613,-11254.191,31160.035
952352.1873212126,-103321.29,-173928.47,-9705.974,-23311.484,-6068.685,-46814.535,-11258.017,31170.492
952352.1913212083,-103320.48,-173925.5,-9725.017,-23315.553,-6081.299,-46809.367,-11257.243,31144.451
952352.1953212039,-103315.11,-173918.27,-9744.589,-23306.193,-6083.822,-46798.707,-11251.059,31114.422
952352.1993211996,-103306.234,-173917.4,-9742.88,-23297.975,-6069.621,-46798.75,-11247.233,31123.78
952352.2033211952,-103310.02,-173923.19,-9730.307,-23302.572,-6064.087,-46811.117,-11254.313,31158.447
952352.2073211909,-103313.03,-173928.19,-9723.227,-23312.42,-6072.0625,-46817.305,-11261.801,31168.295
952352.2113211864,-103313.44,-173927.38,-9741.903,-23317.791,-6085.775,-46813.316,-11263.51,31134.318
952352.215321182,-103309.414,-173922.05,-9757.162,-23308.676,-6087.362,-46802.492,-11256.958,31100.303
952352.2193211777,-103307.17,-173914.97,-9741.821,-23301.27,-6073.283,-46804.527,-11253.296,31109.172
952352.2233211733,-103311.85,-173917.94,-9720.947,-23305.95,-6067.0576,-46817.02,-11257.487,31150.84
952352.227321169,-103319.26,-173924.61,-9715.007,-23316.285,-6073.7305,-46821.94,-11264.079,31162.436
952352.2313211646,-103323.2,-173928.8,-9738.77,-23321.045,-6086.467,-46816.0,-11261.516,31124.879
952352.2353211603,-103317.79,-173924.2,-9755.656,-23310.426,-6085.775,-46807.863,-11254.15,31094.238
952352.2393211559,-103315.516,-173922.38,-9749.023,-23303.59,-6067.3423,-46810.63,-11251.994,31107.057
952352.2433211516,-103316.61,-173923.06,-9728.354,-23308.717,-6053.752,-46822.957,-11260.254,31148.805
952352.2473211472,-103317.55,-173923.02,-9721.151,-23317.627,-6061.6865,-46828.25,-11268.148,31163.086
952352.2513211429,-103317.06,-173919.72,-9740.438,-23321.697,-6077.8,-46820.64,-11266.195,31133.586
952352.2553211385,-103314.62,-173917.16,-9757.365,-23314.78,-6096.029,-46812.83,-11259.399,31101.768
952352.2593211342,-103312.42,-173913.9,-9750.814,-23304.688,-6090.251,-46815.676,-11257.772,31112.184
952352.2633211298,-103317.71,-173920.25,-9728.149,-23311.076,-6073.242,-46828.004,-11268.148,31144.654
952352.2673211255,-103320.27,-173925.47,-9722.941,-23321.982,-6084.839,-46834.637,-11272.746,31151.531
952352.2713211211,-103319.664,-173926.97,-9740.845,-23325.766,-6096.8833,-46828.574,-11269.165,31123.7
952352.2753211167,-103314.09,-173919.84,-9758.179,-23316.406,-6094.808,-46818.117,-11261.068,31099.285
952352.2793211123,-103309.734,-173911.75,-9752.116,-23305.299,-6082.5605,-46819.62,-11256.674,31112.998
952352.283321108,-103310.836,-173912.64,-9732.91,-23312.053,-6077.7183,-46829.47,-11261.271,31151.49
952352.2873211036,-103313.64,-173918.22,-9724.609,-23324.057,-6085.083,-46833.17,-11265.3,31162.273
952352.2913210993,-103314.21,-173920.53,-9743.408,-23327.557,-6099.5283,-46825.32,-11264.975,31129.803
952352.2953210949,-103314.54,-173920.42,-9762.451,-23322.389,-6103.8413,-46816.164,-11256.186,31095.297
952352.2993210906,-103311.32,-173918.7,-9754.599,-23313.273,-6082.0723,-46817.793,-11253.947,31110.557
952352.3033210862,-103314.74,-173926.56,-9728.557,-23316.936,-6070.5977,-46827.883,-11258.342,31153.605
952352.3073210819,-103323.94,-173937.42,-9724.325,-23329.387,-6074.0156,-46833.21,-11265.625,31164.145
952352.3113210775,-103324.79,-173936.2,-9746.338,-23332.969,-6084.0254,-46827.35,-11266.765,31131.309
952352.3153210732,-103319.586,-173932.34,-9764.853,-23326.213,-6094.6455,-46816.69,-11256.389,31099.162
952352.3193210688,-103319.586,-173936.4,-9760.702,-23318.156,-6085.8564,-46816.895,-11252.279,31108.928
952352.3233210645,-103324.75,-173938.69,-9740.356,-23325.115,-6079.753,-46828.656,-11259.929,31146.81
952352.3273210601,-103328.49,-173940.31,-9732.585,-23335.125,-6089.3965,-46833.457,-11265.625,31158.611
952352.3313210558,-103329.23,-173939.95,-9749.187,-23338.46,-6107.8696,-46824.016,-11261.271,31124.473
952352.3353210514,-103326.375,-173934.17,-9764.812,-23332.072,-6112.834,-46814.008,-11253.378,31094.32
952352.3393210471,-103326.055,-173931.48,-9754.843,-23322.998,-6095.5405,-46816.246,-11249.309,31106.486
952352.3433210426,-103326.74,-173931.81,-9730.917,-23324.627,-6088.623,-46828.37,-11255.981,31146.16
952352.3473210383,-103330.41,-173939.98,-9723.959,-23333.293,-6097.6157,-46834.312,-11264.282,31154.053
952352.3513210339,-103333.375,-173946.62,-9750.0,-23338.299,-6110.6367,-46828.777,-11263.672,31117.758
952352.3553210296,-103331.83,-173945.61,-9765.097,-23330.566,-6108.236,-46819.824,-11256.063,31082.969
952352.3593210252,-103329.35,-173942.02,-9757.69,-23321.818,-6087.972,-46822.594,-11252.93,31093.629
952352.3633210208,-103330.04,-173936.4,-9732.3,-23324.627,-6079.3867,-46834.11,-11259.115,31132.041
952352.3673210165,-103331.18,-173940.23,-9724.04,-23333.822,-6083.2114,-46840.375,-11267.334,31138.225
952352.3713210121,-103331.586,-173942.14,-9744.019,-23336.875,-6094.1978,-46831.992,-11263.794,31108.521
952352.3753210078,-103328.695,-173937.83,-9758.708,-23328.654,-6102.051,-46821.21,-11255.127,31079.55
952352.3793210034,-103324.71,-173933.06,-9745.524,-23320.232,-6098.3887,-46825.074,-11252.727,31092.855
952352.3833209991,-103324.875,-173933.16,-9718.913,-23324.627,-6085.775,-46834.066,-11255.127,31133.994
952352.3873209947,-103329.555,-173938.03,-9718.506,-23334.88,-6090.8613,-46838.258,-11262.858,31142.13
952352.3913209904,-103332.36,-173943.73,-9741.781,-23338.055,-6110.4736,-46831.953,-11263.266,31108.928
952352.395320986,-103332.234,-173941.9,-9760.702,-23333.537,-6122.1924,-46822.754,-11256.958,31074.3
952352.3993209817,-103325.69,-173937.47,-9759.277,-23324.016,-6111.4097,-46825.605,-11255.331,31087.158
952352.4033209773,-103324.016,-173938.64,-9740.52,-23326.58,-6094.2383,-46836.793,-11260.051,31128.053
952352.4073209729,-103329.76,-173945.64,-9733.154,-23339.396,-6101.156,-46842.0,-11265.666,31141.928
952352.4113209685,-103328.9,-173942.02,-9741.537,-23342.205,-6108.073,-46835.004,-11265.625,31116.74
952352.4153209642,-103327.11,-173935.92,-9759.807,-23335.205,-6106.9746,-46825.4,-11257.446,31086.02
952352.4193209598,-103326.87,-173932.9,-9759.481,-23327.271,-6097.046,-46827.07,-11251.181,31100.22
952352.4233209555,-103329.96,-173939.3,-9746.054,-23332.602,-6088.257,-46837.973,-11256.714,31137.045
952352.4273209511,-103336.23,-173945.4,-9744.548,-23342.938,-6097.8193,-46840.945,-11261.923,31147.014
952352.4313209468,-103336.47,-173941.73,-9764.445,-23345.826,-6116.008,-46832.93,-11257.08,31118.572
952352.4353209424,-103333.984,-173936.73,-9780.6,-23337.402,-6117.1875,-46823.49,-11249.96,31086.102
952352.4393209381,-103333.664,-173934.9,-9767.741,-23327.922,-6102.9463,-46826.582,-11247.6,31099.121
952352.4433209337,-103332.4,-173934.17,-9742.106,-23332.846,-6088.42,-46838.992,-11253.581,31141.074
952352.4473209294,-103334.516,-173939.55,-9738.363,-23344.97,-6094.442,-46845.258,-11260.58,31149.984
952352.451320925,-103334.39,-173939.38,-9760.824,-23350.262,-6111.206,-46838.34,-11258.83,31115.031
952352.4553209207,-103331.38,-173934.5,-9782.797,-23342.896,-6110.6772,-46827.84,-11249.512,31082.113
952352.4593209163,-103328.125,-173929.58,-9777.548,-23333.578,-6097.86,-46830.65,-11245.199,31097.697
952352.463320912,-103328.125,-173932.9,-9748.739,-23337.12,-6090.7393,-46841.188,-11248.007,31144.492
952352.4673209076,-103328.33,-173937.14,-9739.99,-23349.162,-6098.796,-46846.6,-11250.977,31155.111
952352.4713209033,-103327.11,-173937.22,-9755.127,-23350.627,-6111.2876,-46840.17,-11250.773,31126.14
952352.4753208988,-103324.95,-173932.02,-9772.624,-23342.123,-6109.66,-46829.875,-11244.182,31094.809
952352.4793208945,-103319.7,-173925.83,-9764.364,-23332.398,-6092.163,-46832.52,-11243.571,31103.516
952352.4833208901,-103320.6,-173927.78,-9737.631,-23337.81,-6088.3384,-46844.2,-11249.1455,31140.3
952352.4873208858,-103322.836,-173936.0,-9736.572,-23349.57,-6099.284,-46849.734,-11255.941,31153.076
952352.4913208814,-103318.52,-173936.0,-9755.209,-23353.639,-6110.3926,-46839.64,-11249.594,31129.15
952352.4953208771,-103315.27,-173929.28,-9775.839,-23344.361,-6114.0137,-46829.918,-11240.234,31100.627
952352.4993208727,-103313.44,-173925.25,-9768.474,-23333.213,-6099.7314,-46830.934,-11237.0205,31112.916
952352.5033208684,-103319.336,-173932.55,-9751.303,-23339.479,-6091.8784,-46840.863,-11241.537,31148.113
952352.507320864,-103328.01,-173945.48,-9743.083,-23352.295,-6100.5454,-46846.68,-11246.379,31152.264
952352.5113208597,-103326.91,-173937.88,-9755.493,-23352.947,-6115.7637,-46839.03,-11245.891,31125.326
952352.5153208553,-103323.24,-173928.19,-9769.45,-23344.605,-6118.978,-46830.0,-11237.834,31097.168
952352.519320851,-103320.195,-173927.58,-9764.404,-23335.205,-6105.4688,-46829.836,-11233.887,31106.08
952352.5233208466,-103322.02,-173932.05,-9742.31,-23338.217,-6091.5938,-46842.816,-11238.974,31144.248
952352.5273208423,-103326.5,-173942.02,-9737.59,-23351.604,-6101.766,-46850.344,-11248.535,31154.135
952352.5313208379,-103329.836,-173943.77,-9766.602,-23357.707,-6119.9546,-46843.1,-11249.309,31121.787
952352.5353208336,-103328.49,-173939.86,-9786.215,-23347.617,-6123.7793,-46832.113,-11240.601,31089.438
952352.5393208291,-103328.49,-173938.0,-9782.675,-23339.805,-6115.072,-46836.47,-11238.2,31098.186
952352.5433208247,-103329.96,-173943.66,-9756.796,-23344.32,-6108.48,-46848.836,-11248.21,31135.865
952352.5473208204,-103331.67,-173948.25,-9749.634,-23354.86,-6113.037,-46855.105,-11256.389,31143.516
952352.551320816,-103333.414,-173948.4,-9765.097,-23359.904,-6128.174,-46847.453,-11254.15,31110.719
952352.5553208117,-103329.555,-173941.66,-9776.327,-23350.22,-6133.2603,-46838.137,-11247.111,31081.91
952352.5593208073,-103326.83,-173934.94,-9765.747,-23337.81,-6112.142,-46840.17,-11244.548,31096.72
952352.563320803,-103330.94,-173940.06,-9743.286,-23344.28,-6100.0977,-46850.79,-11249.756,31135.783
952352.5673207986,-103333.055,-173946.38,-9740.153,-23354.98,-6105.184,-46855.918,-11256.674,31146.484
952352.5713207943,-103335.05,-173945.77,-9756.958,-23359.66,-6121.948,-46848.473,-11255.168,31115.234
952352.5753207899,-103329.15,-173940.36,-9781.047,-23348.674,-6122.6807,-46838.91,-11247.519,31083.496
952352.5793207856,-103325.97,-173943.33,-9775.432,-23339.193,-6108.724,-46841.72,-11245.605,31090.049
952352.5833207812,-103333.664,-173952.81,-9757.243,-23348.023,-6106.242,-46852.582,-11254.028,31123.291
952352.5873207769,-103338.914,-173953.53,-9761.108,-23355.348,-6116.008,-46857.137,-11263.062,31132.324
952352.5913207725,-103338.95,-173954.72,-9782.39,-23357.951,-6127.9707,-46850.02,-11263.672,31103.76
952352.5953207682,-103336.63,-173953.25,-9796.306,-23350.668,-6134.725,-46839.805,-11253.581,31069.947
952352.5993207638,-103334.44,-173951.98,-9776.978,-23343.223,-6130.9814,-46842.082,-11245.402,31080.486
952352.6033207594,-103336.06,-173952.77,-9748.779,-23348.47,-6118.8154,-46853.598,-11251.059,31117.88
952352.607320755,-103337.04,-173953.7,-9742.88,-23355.348,-6121.379,-46858.684,-11257.895,31128.053
952352.6113207507,-103335.414,-173953.7,-9764.975,-23357.992,-6130.2085,-46851.277,-11255.981,31097.576
952352.6153207463,-103334.48,-173958.14,-9783.691,-23354.574,-6135.9053,-46840.742,-11248.21,31067.547
952352.619320742,-103337.65,-173957.69,-9776.611,-23348.064,-6127.4824,-46843.344,-11243.53,31077.678
952352.6233207376,-103342.33,-173958.78,-9762.614,-23353.027,-6121.582,-46856.16,-11252.6455,31112.916
952352.6273207333,-103346.97,-173967.25,-9760.458,-23363.893,-6121.0938,-46862.55,-11260.742,31125.45
952352.6313207289,-103345.3,-173967.86,-9779.297,-23367.96,-6132.243,-46853.72,-11255.941,31098.918
952352.6353207246,-103340.5,-173960.53,-9793.62,-23358.521,-6132.8125,-46844.44,-11251.181,31068.564
952352.6393207202,-103333.58,-173952.08,-9782.349,-23349.53,-6119.1,-46847.293,-11250.163,31077.8
952352.6433207159,-103334.48,-173951.38,-9754.599,-23353.924,-6106.771,-46858.81,-11255.615,31111.37
952352.6473207115,-103343.02,-173959.64,-9750.122,-23367.432,-6118.734,-46864.46,-11260.824,31117.352
952352.6513207072,-103346.52,-173964.73,-9771.811,-23371.543,-6140.3403,-46855.918,-11257.609,31085.205
952352.6553207028,-103344.89,-173958.88,-9794.434,-23363.16,-6140.1777,-46845.664,-11250.326,31055.46
952352.6593206985,-103342.05,-173953.5,-9781.494,-23355.55,-6124.7153,-46849.082,-11247.559,31068.28
952352.6633206941,-103342.66,-173954.23,-9762.614,-23360.352,-6117.025,-46861.004,-11253.581,31105.877
952352.6673206898,-103343.55,-173954.06,-9761.516,-23370.158,-6123.4946,-46866.78,-11257.202,31121.094
952352.6713206853,-103342.53,-173954.19,-9776.855,-23372.031,-6129.0283,-46856.445,-11250.61,31096.965
952352.675320681,-103339.93,-173950.94,-9793.051,-23365.56,-6138.143,-46844.117,-11241.699,31067.668
952352.6793206766,-103337.32,-173948.94,-9788.086,-23355.918,-6127.767,-46846.64,-11239.014,31080.283
952352.6833206723,-103337.28,-173950.0,-9772.827,-23360.271,-6120.158,-46858.6,-11247.03,31117.799
952352.6873206679,-103342.37,-173957.16,-9767.334,-23372.07,-6124.0234,-46863.65,-11252.116,31127.482
952352.6913206636,-103344.37,-173962.78,-9786.743,-23377.197,-6135.8237,-46855.105,-11247.519,31099.57
952352.6953206592,-103340.414,-173961.64,-9805.258,-23369.223,-6138.55,-46845.664,-11238.933,31071.086
952352.6993206549,-103336.266,-173952.89,-9795.492,-23358.604,-6127.645,-46848.105,-11234.457,31082.236
952352.7033206505,-103343.875,-173959.84,-9779.785,-23367.637,-6130.5747,-46861.453,-11244.223,31111.777
952352.7073206462,-103348.836,-173968.88,-9774.414,-23377.523,-6139.486,-46867.188,-11252.686,31115.357
952352.7113206418,-103348.35,-173966.31,-9783.488,-23379.191,-6148.763,-46859.297,-11251.628,31086.143
952352.7153206374,-103342.66,-173958.95,-9796.184,-23368.652,-6149.048,-46848.31,-11243.53,31056.846
952352.7193206331,-103338.99,-173953.94,-9785.849,-23359.742,-6135.417,-46850.63,-11240.805,31069.988
952352.7233206287,-103338.664,-173958.02,-9762.777,-23364.91,-6125.407,-46862.55,-11248.373,31111.166
952352.7273206244,-103337.484,-173964.53,-9753.093,-23374.35,-6135.742,-46866.254,-11254.232,31121.95
952352.73132062,-103339.97,-173961.88,-9767.09,-23376.75,-6148.5596,-46857.016,-11250.041,31094.688
952352.7353206156,-103339.6,-173953.22,-9781.088,-23368.572,-6148.3564,-46846.395,-11241.821,31065.594
952352.7393206112,-103342.734,-173955.4,-9774.862,-23362.387,-6140.1777,-46849.855,-11241.008,31077.922
952352.7433206069,-103346.805,-173959.89,-9758.057,-23365.723,-6133.0566,-46862.957,-11252.686,31115.56
952352.7473206025,-103348.555,-173959.03,-9754.11,-23372.682,-6140.1777,-46866.742,-11255.656,31126.22
952352.7513205982,-103348.68,-173960.78,-9778.361,-23374.512,-6150.1875,-46857.504,-11251.831,31101.4
952352.7553205938,-103340.7,-173954.06,-9797.404,-23367.352,-6147.0137,-46846.07,-11239.706,31074.871
952352.7593205895,-103340.5,-173946.22,-9788.371,-23360.352,-6133.789,-46850.914,-11237.671,31081.219
952352.7633205851,-103353.72,-173953.1,-9770.468,-23364.625,-6127.6045,-46861.74,-11242.758,31115.723
952352.7673205808,-103357.875,-173964.81,-9767.172,-23376.832,-6136.0273,-46865.52,-11246.46,31127.482
952352.7713205764,-103343.47,-173960.9,-9786.133,-23378.947,-6155.111,-46858.4,-11245.361,31092.367
952352.7753205721,-103334.6,-173952.31,-9794.882,-23368.613,-6153.4834,-46848.188,-11237.956,31061.24
952352.7793205677,-103330.94,-173950.86,-9786.337,-23357.83,-6133.342,-46850.832,-11232.91,31078.207
952352.7833205634,-103332.805,-173958.22,-9763.347,-23361.207,-6128.174,-46862.266,-11240.683,31118.205
952352.787320559,-103334.15,-173959.6,-9758.545,-23373.576,-6134.9287,-46867.92,-11248.942,31124.797
952352.7913205547,-103341.76,-173968.47,-9777.385,-23379.559,-6155.5586,-46860.027,-11246.582,31089.64
952352.7953205503,-103338.46,-173963.34,-9799.235,-23372.52,-6154.704,-46850.87,-11238.241,31063.273
952352.7993205459,-103333.78,-173957.0,-9787.109,-23365.113,-6136.841,-46853.395,-11234.416,31083.172
952352.8033205415,-103332.805,-173957.81,-9757.772,-23366.781,-6125.3257,-46865.195,-11239.462,31121.502
952352.8073205372,-103334.68,-173961.88,-9752.727,-23375.732,-6132.4873,-46869.387,-11244.548,31132.08
952352.8113205328,-103334.92,-173962.89,-9764.12,-23378.826,-6146.4844,-46860.92,-11240.723,31103.11
952352.8153205285,-103334.03,-173957.89,-9784.831,-23373.17,-6151.2046,-46851.766,-11233.603,31075.521
952352.8193205241,-103333.984,-173956.75,-9778.483,-23363.607,-6142.741,-46855.51,-11229.858,31086.467
952352.8233205198,-103340.414,-173964.0,-9763.876,-23369.59,-6137.6143,-46868.246,-11238.688,31119.834
952352.8273205154,-103346.56,-173969.2,-9762.614,-23379.72,-6141.8457,-46874.066,-11247.437,31133.79
952352.8313205111,-103347.13,-173971.03,-9785.522,-23383.994,-6158.4883,-46864.668,-11239.706,31105.918
952352.8353205067,-103341.44,-173968.95,-9797.363,-23376.914,-6156.4536,-46854.168,-11231.161,31075.4
952352.8393205024,-103338.055,-173964.53,-9792.033,-23368.37,-6142.456,-46857.547,-11230.754,31085.125
952352.843320498,-103340.336,-173965.86,-9776.571,-23375.082,-6135.295,-46869.1,-11238.078,31119.426
952352.8473204937,-103343.95,-173977.83,-9768.718,-23384.521,-6142.131,-46873.293,-11246.094,31130.412
952352.8513204893,-103344.57,-173979.78,-9789.714,-23387.451,-6151.815,-46864.87,-11242.351,31096.152
952352.855320485,-103341.64,-173973.47,-9802.287,-23378.662,-6152.2627,-46855.227,-11235.2295,31064.902
952352.8593204806,-103341.23,-173973.03,-9789.389,-23370.037,-6139.079,-46858.24,-11238.241,31079.428
952352.8633204763,-103343.06,-173974.38,-9770.996,-23375.488,-6129.4355,-46869.14,-11237.387,31120.281
952352.8673204718,-103345.42,-173973.88,-9770.468,-23384.4,-6133.6265,-46872.56,-11237.468,31136.11
952352.8713204674,-103347.05,-173972.3,-9795.451,-23389.568,-6151.8555,-46862.875,-11232.26,31110.8
952352.8753204631,-103342.25,-173964.53,-9813.151,-23379.477,-6154.582,-46850.87,-11223.389,31082.275
952352.8793204587,-103338.95,-173961.34,-9797.607,-23367.148,-6140.991,-46853.598,-11221.965,31097.006
952352.8833204544,-103345.5,-173972.9,-9776.571,-23375.123,-6131.4697,-46867.11,-11228.109,31132.854
952352.88732045,-103348.555,-173977.9,-9775.473,-23386.354,-6135.254,-46872.64,-11231.445,31141.195
952352.8913204457,-103345.95,-173970.5,-9791.138,-23386.191,-6153.3203,-46864.18,-11224.976,31115.928
952352.8953204413,-103341.02,-173965.38,-9803.915,-23377.238,-6153.198,-46854.574,-11217.611,31088.299
952352.899320437,-103337.69,-173964.48,-9784.221,-23368.896,-6140.8286,-46859.01,-11221.965,31100.383
952352.9033204326,-103339.195,-173967.61,-9760.905,-23376.67,-6134.1963,-46872.113,-11230.429,31136.924
952352.9073204283,-103345.38,-173975.75,-9759.929,-23388.592,-6145.2637,-46876.914,-11236.044,31143.88
952352.9113204239,-103346.84,-173976.28,-9787.028,-23389.404,-6167.2773,-46865.562,-11230.429,31111.695
952352.9153204196,-103346.93,-173972.42,-9808.269,-23379.559,-6171.672,-46856.285,-11224.528,31076.701
952352.9193204152,-103346.93,-173970.7,-9801.27,-23371.664,-6154.785,-46863.406,-11234.416,31088.135
952352.9233204109,-103347.13,-173970.22,-9774.13,-23375.732,-6142.578,-46873.945,-11238.688,31127.89
952352.9273204065,-103352.13,-173974.17,-9766.317,-23386.271,-6151.693,-46877.156,-11240.683,31132.568
952352.9313204021,-103355.19,-173977.95,-9789.958,-23389.934,-6166.7075,-46867.188,-11236.694,31096.72
952352.9353203977,-103355.96,-173980.03,-9814.616,-23385.05,-6171.9565,-46857.832,-11232.951,31057.008
952352.9393203934,-103356.086,-173976.08,-9804.118,-23376.344,-6161.377,-46862.836,-11235.067,31066.326
952352.943320389,-103354.984,-173974.98,-9778.728,-23379.72,-6150.1465,-46875.45,-11242.351,31104.697
952352.9473203847,-103356.125,-173981.08,-9768.881,-23389.975,-6154.0938,-46879.438,-11244.914,31116.863
952352.9513203803,-103356.24,-173981.78,-9783.203,-23392.66,-6160.36,-46870.566,-11240.764,31090.617
952352.955320376,-103350.266,-173974.98,-9805.054,-23382.812,-6162.1504,-46858.887,-11232.585,31064.982
952352.9593203716,-103346.93,-173973.39,-9800.212,-23377.238,-6155.9653,-46862.836,-11229.167,31081.992
952352.9633203673,-103348.27,-173977.88,-9780.844,-23382.121,-6154.175,-46873.984,-11234.294,31120.322
952352.9673203629,-103355.15,-173987.27,-9779.338,-23395.02,-6164.1035,-46879.395,-11240.764,31124.594
952352.9713203586,-103357.51,-173984.47,-9798.462,-23394.451,-6179.9727,-46870.566,-11238.852,31093.018
952352.9753203542,-103353.36,-173977.78,-9816.162,-23384.93,-6181.0713,-46860.477,-11229.818,31067.791
952352.9793203499,-103345.87,-173969.16,-9800.456,-23378.256,-6166.87,-46866.17,-11225.139,31085.125
952352.9833203455,-103345.625,-173967.86,-9777.873,-23382.732,-6157.308,-46876.1,-11232.26,31125.488
952352.9873203412,-103345.83,-173974.86,-9771.322,-23393.84,-6162.3535,-46879.926,-11238.159,31132.447
952352.9913203368,-103347.45,-173977.1,-9791.138,-23394.736,-6171.224,-46872.355,-11236.654,31103.883
952352.9953203325,-103344.04,-173968.44,-9808.757,-23385.54,-6178.1006,-46863.895,-11232.463,31073.121
952352.999320328,-103344.77,-173967.94,-9804.037,-23381.268,-6170.288,-46870.81,-11234.985,31081.26
952353.0033203237,-103347.45,-173973.84,-9786.621,-23385.498,-6162.1504,-46882.45,-11237.427,31119.752
952353.0073203193,-103352.5,-173984.58,-9787.191,-23397.38,-6170.9395,-46886.965,-11245.524,31127.564
952353.011320315,-103352.3,-173986.25,-9807.861,-23402.508,-6186.6865,-46878.258,-11241.171,31096.965
952353.0153203106,-103349.37,-173984.98,-9824.667,-23395.225,-6190.7554,-46867.15,-11232.951,31063.803
952353.0193203063,-103350.47,-173985.97,-9816.447,-23388.266,-6179.9316,-46872.805,-11236.247,31072.918
952353.0233203019,-103355.555,-173989.62,-9787.883,-23394.695,-6171.346,-46885.703,-11246.786,31105.307
952353.0273202976,-103358.04,-173993.61,-9782.1455,-23404.582,-6175.212,-46888.266,-11253.012,31112.346
952353.0313202932,-103361.414,-173997.4,-9802.938,-23407.553,-6182.129,-46878.418,-11252.93,31082.357
952353.0353202889,-103358.32,-173992.8,-9825.073,-23403.076,-6188.436,-46869.875,-11244.751,31050.578
952353.0393202845,-103360.03,-173988.61,-9814.291,-23393.027,-6178.1416,-46874.023,-11241.862,31064.982
952353.0433202802,-103363.28,-173990.84,-9794.841,-23397.502,-6170.41,-46885.38,-11246.908,31105.51
952353.0473202758,-103365.93,-173995.05,-9799.154,-23407.35,-6178.4263,-46890.34,-11252.441,31115.072
952353.0513202715,-103368.29,-173997.94,-9821.249,-23410.4,-6193.5225,-46882.164,-11249.878,31085.166
952353.0553202671,-103368.984,-173995.53,-9840.373,-23406.617,-6200.2363,-46873.008,-11242.147,31053.346
952353.0593202627,-103366.91,-173990.97,-9826.294,-23399.293,-6189.006,-46876.793,-11240.356,31070.477
952353.0633202583,-103369.47,-173996.06,-9801.311,-23402.385,-6186.2793,-46888.31,-11247.152,31111.816
952353.0673202539,-103377.12,-174012.86,-9790.08,-23416.424,-6201.986,-46892.62,-11252.808,31117.393
952353.0713202496,-103382.49,-174014.73,-9814.535,-23418.865,-6210.6123,-46883.63,-11247.844,31084.717
952353.0753202452,-103367.19,-173987.52,-9828.776,-23406.861,-6197.632,-46873.863,-11244.06,31052.084
952353.0793202409,-103359.5,-173973.97,-9819.092,-23398.316,-6175.4966,-46880.574,-11249.675,31060.832
952353.0833202365,-103364.914,-173979.53,-9796.428,-23405.193,-6168.2944,-46893.27,-11255.534,31098.023
952353.0873202322,-103372.52,-173988.86,-9794.638,-23418.986,-6183.757,-46897.91,-11261.3125,31102.133
952353.0913202278,-103377.445,-173996.27,-9818.481,-23423.422,-6210.368,-46889.0,-11260.376,31065.715
952353.0953202235,-103375.125,-173995.12,-9831.991,-23414.104,-6216.7563,-46878.133,-11251.587,31041.465
952353.0993202191,-103375.41,-173995.05,-9816.366,-23405.723,-6193.115,-46883.63,-11250.326,31058.717
952353.1033202148,-103377.32,-173997.89,-9796.753,-23411.094,-6184.6924,-46895.387,-11257.243,31093.791
952353.1073202104,-103379.27,-174001.95,-9794.516,-23421.348,-6196.086,-46897.586,-11258.505,31103.11
952353.1113202061,-103377.16,-173997.64,-9820.068,-23425.742,-6204.9155,-46887.574,-11253.174,31078.736
952353.1153202017,-103374.39,-173991.66,-9838.908,-23418.418,-6207.845,-46878.215,-11246.582,31052.246
952353.1193201974,-103373.375,-173990.48,-9829.102,-23410.28,-6193.7256,-46883.223,-11246.908,31068.645
952353.123320193,-103375.734,-173995.36,-9804.199,-23418.05,-6191.2437,-46894.453,-11253.906,31107.627
952353.1273201886,-103380.375,-174003.6,-9794.597,-23429.281,-6203.166,-46899.66,-11258.464,31118.45
952353.1313201842,-103382.57,-174004.56,-9814.901,-23430.95,-6215.007,-46891.848,-11257.65,31085.166
952353.1353201799,-103377.36,-173994.31,-9836.182,-23420.451,-6210.8154,-46881.88,-11251.587,31054.24
952353.1393201755,-103369.55,-173983.69,-9822.958,-23409.506,-6194.0107,-46885.133,-11249.472,31067.424
952353.1433201712,-103371.46,-173988.33,-9800.781,-23415.691,-6187.8257,-46897.016,-11256.348,31100.22
952353.1473201668,-103377.36,-173997.36,-9803.955,-23426.88,-6193.6445,-46901.9,-11264.404,31105.998
952353.1513201625,-103377.52,-173996.83,-9826.254,-23429.281,-6211.0596,-46891.766,-11261.149,31074.951
952353.1553201581,-103372.73,-173990.84,-9835.246,-23419.76,-6206.5024,-46882.367,-11252.6045,31046.184
952353.1593201538,-103369.39,-173983.97,-9824.057,-23411.906,-6192.749,-46887.617,-11250.488,31061.361
952353.1633201494,-103368.49,-173984.98,-9802.368,-23417.033,-6185.262,-46896.934,-11254.477,31100.953
952353.1673201451,-103375.086,-173992.39,-9805.258,-23428.305,-6192.098,-46900.027,-11258.586,31106.975
952353.1713201407,-103377.52,-173989.83,-9831.218,-23429.2,-6204.712,-46891.36,-11255.656,31074.79
952353.1753201364,-103372.84,-173988.89,-9847.046,-23420.451,-6203.247,-46880.902,-11247.396,31046.225
952353.179320132,-103370.69,-173984.34,-9825.603,-23413.453,-6186.198,-46886.152,-11246.379,31059.043
952353.1833201277,-103369.63,-173980.92,-9795.044,-23417.93,-6179.281,-46897.543,-11250.407,31102.947
952353.1873201233,-103370.85,-173982.8,-9788.737,-23426.84,-6190.593,-46898.4,-11254.965,31112.59
952353.191320119,-103371.14,-173984.55,-9809.57,-23429.281,-6201.7417,-46887.82,-11250.163,31082.195
952353.1953201145,-103370.89,-173980.06,-9826.538,-23423.707,-6198.3643,-46879.723,-11245.81,31054.81
952353.1993201101,-103368.94,-173972.12,-9823.853,-23415.936,-6182.3325,-46884.117,-11243.774,31071.006
952353.2033201058,-103369.914,-173976.53,-9803.915,-23419.639,-6177.3276,-46895.957,-11249.1455,31111.533
952353.2073201014,-103376.305,-173980.77,-9802.694,-23431.438,-6191.081,-46900.27,-11255.29,31115.234
952353.2113200971,-103381.63,-173985.56,-9825.928,-23435.67,-6212.1177,-46890.18,-11251.669,31080.404
952353.2153200927,-103378.336,-173984.27,-9840.983,-23427.898,-6209.432,-46882.367,-11246.704,31045.98
952353.2193200884,-103373.375,-173984.78,-9825.888,-23418.213,-6194.7837,-46889.082,-11247.641,31059.164
952353.223320084,-103375.94,-173990.56,-9811.157,-23423.584,-6186.4014,-46901.938,-11258.057,31093.182
952353.2273200797,-103378.7,-173994.44,-9815.756,-23432.7,-6189.6567,-46905.805,-11267.741,31099.65
952353.2313200753,-103375.2,-173994.06,-9836.304,-23435.02,-6199.0156,-46895.43,-11263.306,31067.627
952353.235320071,-103372.69,-173986.78,-9850.302,-23429.77,-6204.9155,-46887.207,-11256.918,31037.518
952353.2393200666,-103371.83,-173980.77,-9837.851,-23421.348,-6197.754,-46893.8,-11259.481,31049.602
952353.2433200623,-103374.07,-173985.48,-9820.598,-23428.752,-6192.912,-46904.785,-11266.317,31079.428
952353.2473200579,-103379.16,-173993.3,-9809.245,-23438.438,-6192.912,-46907.758,-11271.933,31084.27
952353.2513200536,-103380.5,-173990.61,-9826.945,-23439.941,-6205.892,-46897.055,-11267.7,31055.42
952353.2553200492,-103373.7,-173982.88,-9839.844,-23428.428,-6218.425,-46887.777,-11259.766,31028.564
952353.2593200448,-103370.24,-173978.64,-9830.688,-23419.883,-6208.415,-46893.312,-11261.068,31039.756
952353.2633200404,-103374.72,-173987.52,-9811.117,-23429.2,-6198.568,-46906.375,-11269.409,31075.4
952353.2673200361,-103378.055,-173999.56,-9809.408,-23440.797,-6199.5444,-46909.63,-11275.106,31084.758
952353.2713200317,-103377.24,-173992.36,-9828.857,-23441.855,-6212.9316,-46899.984,-11271.606,31054.566
952353.2753200274,-103372.52,-173982.27,-9850.424,-23435.14,-6218.5874,-46892.54,-11265.137,31024.62
952353.279320023,-103370.98,-173984.02,-9838.095,-23426.963,-6208.7812,-46898.723,-11265.625,31039.268
952353.2833200187,-103376.34,-173992.48,-9816.895,-23431.926,-6201.091,-46909.668,-11271.362,31081.504
952353.2873200143,-103380.414,-174001.52,-9812.256,-23441.936,-6211.2227,-46914.88,-11278.931,31089.031
952353.29132001,-103380.984,-174005.22,-9825.521,-23445.883,-6227.702,-46903.402,-11274.496,31059.082
952353.2953200056,-103381.11,-174003.47,-9850.017,-23438.477,-6229.94,-46893.92,-11268.596,31026.287
952353.2993200013,-103380.78,-174001.39,-9841.472,-23430.87,-6214.966,-46899.78,-11264.893,31044.516
952353.3033199969,-103381.68,-174003.27,-9819.499,-23436.523,-6207.7637,-46910.566,-11267.863,31089.316
952353.3073199926,-103380.01,-174000.5,-9816.813,-23444.297,-6209.4727,-46912.926,-11270.59,31102.174
952353.3113199882,-103384.08,-174003.3,-9842.448,-23447.754,-6226.156,-46904.38,-11266.195,31069.621
952353.3153199839,-103386.4,-174005.38,-9860.148,-23442.059,-6227.214,-46895.508,-11258.383,31033.773
952353.3193199795,-103384.08,-173997.89,-9842.163,-23432.252,-6212.199,-46901.816,-11260.824,31049.887
952353.323319975,-103383.67,-174001.55,-9814.128,-23438.72,-6209.554,-46912.19,-11265.625,31085.531
952353.3273199707,-103395.02,-174025.97,-9816.162,-23452.068,-6218.7095,-46913.168,-11268.962,31089.885
952353.3313199664,-103399.21,-174027.6,-9835.856,-23455.322,-6230.1025,-46903.035,-11265.137,31053.71
952353.335319962,-103386.6,-174002.53,-9856.12,-23445.354,-6226.5625,-46895.957,-11261.149,31018.107
952353.3393199577,-103378.055,-173993.7,-9846.843,-23435.264,-6210.083,-46903.934,-11263.591,31034.629
952353.3433199533,-103386.805,-173997.89,-9830.607,-23441.773,-6209.6357,-46916.668,-11271.403,31071.697
952353.347319949,-103389.94,-174005.25,-9828.532,-23452.88,-6215.78,-46921.184,-11278.972,31083.293
952353.3513199446,-103385.09,-174003.67,-9844.727,-23451.783,-6223.674,-46912.273,-11275.065,31054.607
952353.3553199403,-103380.58,-173997.89,-9854.004,-23443.36,-6227.987,-46902.1,-11269.897,31024.943
952353.3593199359,-103377.484,-173990.97,-9831.421,-23435.629,-6211.711,-46906.617,-11265.137,31038.371
952353.3633199316,-103380.01,-173994.11,-9804.77,-23444.053,-6203.288,-46917.97,-11267.7,31075.074
952353.3673199272,-103384.766,-173998.38,-9804.565,-23455.975,-6208.822,-46921.47,-11273.234,31081.26
952353.3713199229,-103387.29,-174003.14,-9834.839,-23459.107,-6221.7207,-46914.39,-11273.031,31048.91
952353.3753199185,-103384.93,-174000.33,-9852.499,-23448.08,-6227.417,-46904.99,-11264.648,31020.02
952353.3793199142,-103381.516,-174000.86,-9845.744,-23436.076,-6211.426,-46911.258,-11265.707,31036.826
952353.3833199098,-103382.04,-174000.5,-9826.579,-23441.855,-6208.008,-46923.504,-11274.292,31075.4
952353.3873199055,-103377.24,-173995.86,-9821.981,-23451.213,-6215.78,-46926.27,-11272.543,31083.822
952353.391319901,-103377.04,-173993.58,-9843.75,-23454.469,-6224.813,-46915.57,-11267.7,31052.94
952353.3953198966,-103375.734,-173988.0,-9866.537,-23445.883,-6225.0166,-46905.355,-11259.318,31019.775
952353.3993198923,-103376.266,-173983.53,-9849.854,-23437.988,-6211.019,-46912.11,-11259.807,31034.303
952353.4033198879,-103378.46,-173991.5,-9823.242,-23445.312,-6200.5615,-46923.543,-11265.341,31072.43
952353.4073198836,-103382.04,-174002.16,-9821.249,-23458.252,-6208.4556,-46928.062,-11270.956,31081.055
952353.4113198792,-103384.484,-174006.72,-9843.994,-23459.19,-6225.2607,-46919.355,-11268.026,31045.371
952353.4153198749,-103387.414,-174007.5,-9870.81,-23454.469,-6230.51,-46911.176,-11260.905,31011.924
952353.4193198705,-103386.97,-174002.86,-9857.626,-23447.062,-6218.0176,-46917.277,-11262.899,31030.07
952353.4233198662,-103386.766,-174004.69,-9836.833,-23452.76,-6213.2163,-46927.734,-11264.079,31071.168
952353.4273198618,-103390.47,-174010.98,-9832.846,-23463.379,-6221.5986,-46931.074,-11265.015,31083.334
952353.4313198575,-103390.99,-174007.94,-9853.271,-23465.74,-6230.5503,-46920.086,-11261.23,31053.996
952353.4353198531,-103388.15,-174003.88,-9869.873,-23458.496,-6226.888,-46910.24,-11254.313,31022.46
952353.4393198488,-103384.65,-173999.92,-9861.491,-23448.04,-6213.4604,-46916.953,-11254.3545,31035.441
952353.4433198444,-103387.984,-173999.89,-9839.355,-23452.719,-6203.044,-46930.504,-11262.126,31069.703
952353.4473198401,-103393.31,-174004.48,-9839.396,-23465.049,-6210.7344,-46934.57,-11268.2295,31074.098
952353.4513198357,-103397.26,-174007.33,-9865.967,-23468.467,-6228.9634,-46926.555,-11266.928,31047.12
952353.4553198313,-103393.72,-174000.38,-9881.633,-23458.74,-6232.585,-46917.81,-11256.47,31017.54
952353.4593198269,-103391.69,-173995.45,-9865.805,-23451.783,-6217.2446,-46925.496,-11256.552,31033.326
952353.4633198226,-103392.055,-173996.83,-9840.658,-23455.04,-6205.119,-46936.08,-11262.858,31074.139
952353.4673198182,-103396.37,-174005.38,-9846.558,-23465.21,-6219.157,-46939.008,-11268.148,31081.748
952353.4713198139,-103399.54,-174008.62,-9865.112,-23468.71,-6234.416,-46928.348,-11262.573,31050.213
952353.4753198095,-103394.984,-173996.55,-9880.981,-23460.816,-6235.1074,-46917.035,-11252.93,31017.904
952353.4793198052,-103396.08,-173995.36,-9866.781,-23456.787,-6226.9697,-46921.918,-11253.296,31028.688
952353.4833198008,-103403.37,-174001.42,-9841.35,-23463.502,-6220.6626,-46935.223,-11266.398,31060.547
952353.4873197965,-103403.98,-174006.11,-9838.705,-23471.559,-6217.204,-46939.21,-11270.996,31065.918
952353.4913197921,-103401.66,-174005.38,-9861.654,-23472.047,-6232.341,-46927.777,-11262.777,31035.809
952353.4953197878,-103396.164,-174001.02,-9874.187,-23462.281,-6235.84,-46916.992,-11248.169,31010.986
952353.4993197834,-103392.625,-173995.08,-9861.613,-23457.154,-6221.6797,-46924.113,-11247.192,31029.176
952353.5033197791,-103393.76,-173997.31,-9840.78,-23462.525,-6212.9316,-46934.9,-11252.6045,31064.982
952353.5073197747,-103396.57,-174004.69,-9836.345,-23473.227,-6220.9473,-46938.723,-11258.423,31068.604
952353.5113197704,-103397.055,-174006.72,-9867.798,-23477.377,-6237.6304,-46930.46,-11256.308,31037.03
952353.515319766,-103392.42,-174002.97,-9889.404,-23466.96,-6244.4663,-46917.766,-11245.605,31013.916
952353.5193197617,-103386.92,-173994.44,-9873.007,-23459.514,-6228.5566,-46922.363,-11242.839,31033.773
952353.5233197572,-103392.01,-173999.44,-9856.039,-23466.146,-6221.4355,-46935.06,-11249.797,31068.768
952353.5273197528,-103400.03,-174010.1,-9854.492,-23478.842,-6230.062,-46939.94,-11256.755,31070.15
952353.5313197485,-103401.21,-174014.4,-9877.482,-23480.389,-6244.1816,-46928.59,-11251.669,31038.78
952353.5353197441,-103399.78,-174009.77,-9895.02,-23469.564,-6250.7734,-46918.66,-11247.111,31010.05
952353.5393197398,-103399.3,-174008.42,-9886.19,-23463.135,-6237.5083,-46925.293,-11248.454,31024.74
952353.5433197354,-103399.055,-174010.83,-9866.781,-23468.588,-6221.639,-46934.492,-11251.994,31064.291
952353.5473197311,-103394.49,-174003.8,-9857.26,-23477.012,-6224.284,-46936.934,-11253.581,31075.44
952353.5513197267,-103394.125,-174002.0,-9874.634,-23476.482,-6237.7524,-46926.96,-11248.657,31046.836
952353.5553197224,-103392.375,-173995.66,-9895.02,-23468.182,-6247.8027,-46917.48,-11243.042,31014.854
952353.559319718,-103395.02,-173990.94,-9878.012,-23462.729,-6240.967,-46923.75,-11245.483,31027.14
952353.5633197137,-103398.93,-173999.8,-9855.469,-23470.785,-6239.177,-46936.81,-11256.47,31057.049
952353.5673197093,-103402.59,-174008.72,-9848.063,-23480.674,-6251.465,-46942.18,-11266.765,31063.803
952353.571319705,-103403.52,-174008.34,-9860.2295,-23480.266,-6261.2305,-46932.13,-11255.9,31034.994
952353.5753197006,-103399.09,-174001.75,-9874.309,-23469.768,-6258.1787,-46921.023,-11243.164,31008.83
952353.5793196963,-103397.305,-174000.2,-9869.67,-23464.355,-6239.99,-46928.184,-11245.361,31025.555
952353.5833196919,-103397.79,-174002.05,-9858.073,-23467.855,-6234.2124,-46939.047,-11252.075,31059.775
952353.5873196875,-103403.164,-174012.1,-9860.312,-23481.486,-6246.216,-46940.145,-11254.436,31066.326
952353.5913196831,-103412.36,-174025.44,-9884.318,-23484.62,-6261.963,-46928.914,-11248.861,31034.588
952353.5953196788,-103406.74,-174009.12,-9897.217,-23473.674,-6258.83,-46920.82,-11238.037,31005.006
952353.5993196744,-103394.01,-173987.67,-9885.051,-23461.955,-6231.6895,-46928.957,-11242.432,31021.484
952353.6033196701,-103399.21,-173994.52,-9860.759,-23469.564,-6229.818,-46941.816,-11252.808,31058.555
952353.6073196657,-103408.77,-174012.9,-9859.253,-23483.562,-6235.5146,-46945.844,-11256.267,31065.635
952353.6113196614,-103403.164,-174014.17,-9870.036,-23484.13,-6242.1875,-46934.53,-11251.384,31036.133
952353.615319657,-103399.26,-174004.2,-9882.854,-23475.139,-6251.872,-46926.555,-11246.379,31003.297
952353.6193196527,-103396.94,-173995.28,-9861.206,-23467.367,-6242.513,-46933.188,-11247.274,31014.121
952353.6233196483,-103397.71,-173999.69,-9841.96,-23474.61,-6240.0312,-46945.027,-11254.11,31049.277
952353.627319644,-103400.15,-174007.33,-9851.481,-23484.863,-6245.0767,-46948.082,-11259.074,31056.967
952353.6313196396,-103404.09,-174007.86,-9874.919,-23484.457,-6252.3604,-46938.355,-11254.639,31025.107
952353.6353196353,-103400.68,-174004.56,-9894.206,-23475.912,-6258.911,-46929.65,-11244.467,30996.826
952353.6393196309,-103396.28,-174001.22,-9875.407,-23463.828,-6243.2456,-46933.35,-11241.821,31013.836
952353.6433196266,-103400.35,-174004.28,-9855.835,-23472.617,-6234.5786,-46945.477,-11248.576,31049.725
952353.6473196222,-103409.305,-174017.75,-9863.607,-23484.742,-6247.925,-46950.117,-11254.558,31054.12
952353.6513196178,-103413.414,-174022.47,-9883.749,-23487.428,-6263.8755,-46941.652,-11250.977,31022.46
952353.6553196134,-103409.586,-174015.62,-9893.2295,-23477.418,-6261.882,-46931.805,-11244.263,30995.443
952353.659319609,-103408.41,-174008.88,-9877.971,-23469.32,-6246.704,-46938.68,-11249.96,31010.215
952353.6633196047,-103410.0,-174006.6,-9854.94,-23474.365,-6237.956,-46949.26,-11258.505,31045.371
952353.6673196004,-103405.52,-174009.2,-9850.749,-23481.812,-6246.6636,-46951.99,-11256.511,31051.514
952353.671319596,-103403.2,-174010.3,-9876.628,-23486.248,-6256.592,-46941.61,-11249.268,31021.973
952353.6753195917,-103403.98,-174003.22,-9899.414,-23479.656,-6262.126,-46932.21,-11241.171,30989.422
952353.6793195873,-103402.75,-173997.97,-9889.689,-23471.07,-6249.227,-46938.76,-11241.374,31005.371
952353.683319583,-103410.41,-174005.33,-9867.839,-23478.027,-6244.792,-46949.707,-11247.355,31042.604
952353.6873195786,-103414.88,-174013.84,-9865.683,-23486.98,-6252.075,-46953.004,-11251.465,31050.375
952353.6913195743,-103416.67,-174014.94,-9882.162,-23489.34,-6265.747,-46943.24,-11249.064,31018.596
952353.6953195699,-103412.97,-174008.14,-9899.943,-23480.795,-6270.9556,-46931.97,-11237.753,30993.287
952353.6993195656,-103405.44,-173999.56,-9879.639,-23470.826,-6256.633,-46937.625,-11232.748,31013.428
952353.7033195612,-103405.195,-174006.67,-9859.579,-23475.303,-6248.535,-46950.32,-11237.834,31053.102
952353.7073195569,-103407.48,-174014.17,-9858.48,-23486.328,-6256.755,-46954.227,-11244.67,31055.828
952353.7113195525,-103412.97,-174016.81,-9887.451,-23492.514,-6273.926,-46947.188,-11246.582,31020.752
952353.7153195482,-103413.05,-174013.14,-9911.581,-23486.572,-6278.8496,-46939.25,-11243.693,30988.363
952353.7193195437,-103413.05,-174014.61,-9896.729,-23480.836,-6264.5264,-46947.51,-11243.815,31001.059
952353.7233195393,-103416.836,-174024.7,-9874.431,-23489.014,-6256.836,-46958.78,-11247.233,31037.354
952353.727319535,-103415.77,-174022.83,-9866.252,-23498.535,-6260.8643,-46960.777,-11251.059,31048.748
952353.7313195306,-103413.82,-174020.95,-9891.154,-23500.244,-6277.4253,-46951.094,-11250.773,31016.602
952353.7353195263,-103412.766,-174014.69,-9905.314,-23489.99,-6277.954,-46943.93,-11246.257,30989.38
952353.7393195219,-103412.6,-174013.64,-9890.585,-23483.725,-6259.6436,-46950.44,-11241.618,31009.604
952353.7433195176,-103415.2,-174020.27,-9869.67,-23490.684,-6252.8076,-46961.02,-11246.623,31044.639
952353.7473195132,-103417.97,-174025.39,-9867.758,-23501.832,-6266.968,-46963.3,-11249.838,31049.887
952353.7513195089,-103420.695,-174028.16,-9891.928,-23504.883,-6281.616,-46953.613,-11243.368,31018.027
952353.7553195045,-103416.67,-174025.39,-9909.343,-23494.71,-6280.1924,-46943.402,-11235.067,30993.37
952353.7593195002,-103415.445,-174028.77,-9901.245,-23488.607,-6268.0664,-46951.785,-11238.037,31009.93
952353.7633194958,-103423.14,-174033.73,-9891.276,-23498.17,-6266.1133,-46965.375,-11246.176,31039.633
952353.7673194915,-103430.55,-174038.66,-9896.159,-23507.568,-6277.0186,-46966.23,-11246.338,31040.203
952353.7713194871,-103429.41,-174034.95,-9911.621,-23506.715,-6287.3945,-46957.48,-11242.025,31008.018
952353.7753194828,-103427.21,-174031.62,-9928.467,-23500.45,-6288.086,-46949.22,-11234.335,30980.186
952353.7793194784,-103426.84,-174030.94,-9911.459,-23493.775,-6272.868,-46954.59,-11234.213,30999.105
952353.783319474,-103431.89,-174032.16,-9884.115,-23500.855,-6265.422,-46965.13,-11241.821,31040.691
952353.7873194696,-103432.984,-174033.45,-9879.639,-23510.703,-6280.1924,-46966.51,-11242.961,31050.578
952353.7913194653,-103433.84,-174037.89,-9899.13,-23512.695,-6297.0786,-46956.668,-11239.055,31019.531
952353.7953194609,-103433.76,-174040.4,-9921.835,-23505.088,-6304.0366,-46948.285,-11232.382,30985.475
952353.7993194566,-103441.86,-174053.27,-9912.761,-23503.785,-6299.968,-46954.793,-11231.445,31000.814
952353.8033194522,-103444.91,-174050.95,-9894.897,-23507.65,-6285.6445,-46966.758,-11236.247,31042.236
952353.8073194479,-103438.68,-174033.9,-9898.642,-23514.242,-6288.452,-46971.234,-11243.612,31049.236
952353.8113194435,-103439.62,-174032.56,-9925.903,-23516.684,-6303.752,-46961.14,-11238.159,31015.666
952353.8153194392,-103441.57,-174032.64,-9944.092,-23511.271,-6299.398,-46952.434,-11229.98,30984.254
952353.8193194348,-103432.78,-174021.08,-9925.578,-23503.947,-6280.3955,-46959.72,-11233.725,31001.506
952353.8233194305,-103431.44,-174023.0,-9907.187,-23509.197,-6275.5127,-46971.883,-11241.537,31037.965
952353.8273194261,-103431.28,-174026.25,-9899.17,-23518.23,-6281.7793,-46973.39,-11243.449,31042.4
952353.8313194218,-103436.77,-174031.1,-9922.16,-23520.957,-6296.346,-46963.582,-11233.847,31015.057
952353.8353194174,-103437.14,-174031.75,-9939.738,-23511.598,-6302.002,-46954.47,-11227.092,30985.84
952353.8393194131,-103435.14,-174027.14,-9922.648,-23506.389,-6284.831,-46962.324,-11232.341,30998.902
952353.8433194087,-103435.71,-174029.42,-9899.089,-23512.533,-6275.879,-46976.074,-11239.95,31036.418
952353.8473194042,-103438.07,-174032.36,-9899.984,-23520.875,-6280.6396,-46976.973,-11243.734,31044.8
952353.8513193999,-103436.61,-174029.83,-9925.781,-23520.957,-6291.1787,-46965.617,-11237.549,31015.137
952353.8553193955,-103431.64,-174025.84,-9943.686,-23513.266,-6298.6655,-46956.22,-11230.957,30983.766
952353.8593193912,-103431.766,-174024.38,-9927.897,-23507.61,-6294.027,-46965.008,-11237.265,30996.746
952353.8633193868,-103434.94,-174028.36,-9906.291,-23514.69,-6288.2896,-46976.402,-11241.781,31033.367
952353.8673193825,-103436.0,-174037.08,-9900.879,-23526.45,-6292.3584,-46977.664,-11242.839,31043.377
952353.8713193781,-103434.05,-174038.78,-9920.817,-23528.2,-6306.8037,-46966.39,-11234.823,31014.61
952353.8753193738,-103433.76,-174039.27,-9939.413,-23521.525,-6311.1167,-46955.65,-11225.22,30988.322
952353.8793193694,-103434.086,-174034.31,-9925.619,-23515.098,-6293.823,-46963.79,-11225.546,31003.785
952353.8833193651,-103440.39,-174039.06,-9912.883,-23524.414,-6287.2725,-46976.766,-11233.5205,31035.361
952353.8873193607,-103447.67,-174044.16,-9914.267,-23535.686,-6302.124,-46978.844,-11236.735,31045.533
952353.8913193564,-103444.586,-174042.53,-9929.24,-23535.768,-6319.2954,-46967.0,-11230.144,31020.387
952353.895319352,-103438.44,-174033.61,-9937.541,-23525.676,-6320.964,-46958.457,-11223.755,30992.148
952353.8993193477,-103436.24,-174032.19,-9917.847,-23519.328,-6299.1133,-46965.58,-11224.609,31010.742
952353.9033193433,-103441.125,-174039.36,-9900.757,-23527.182,-6289.5103,-46977.54,-11231.934,31045.086
952353.907319339,-103444.664,-174042.12,-9899.658,-23536.133,-6293.498,-46977.703,-11233.969,31051.758
952353.9113193346,-103450.65,-174046.11,-9923.462,-23539.592,-6311.2793,-46966.35,-11227.987,31021.404
952353.9153193302,-103450.4,-174044.11,-9947.632,-23532.064,-6318.441,-46958.58,-11219.157,30992.066
952353.9193193258,-103443.89,-174036.62,-9930.827,-23521.973,-6300.456,-46966.637,-11222.738,31004.518
952353.9233193215,-103446.945,-174038.75,-9909.221,-23527.305,-6291.667,-46977.742,-11231.242,31031.943
952353.9273193171,-103455.0,-174046.23,-9905.07,-23541.545,-6302.409,-46981.57,-11237.305,31031.902
952353.9313193128,-103455.57,-174044.08,-9918.498,-23542.645,-6318.685,-46972.984,-11232.91,31002.97
952353.9353193084,-103449.99,-174035.53,-9940.959,-23533.773,-6326.864,-46962.605,-11222.738,30975.871
952353.9393193041,-103447.35,-174035.56,-9935.588,-23525.676,-6309.5703,-46968.1,-11221.273,30993.164
952353.9433192997,-103446.375,-174040.66,-9919.922,-23532.309,-6297.4043,-46980.266,-11229.574,31030.03
952353.9473192954,-103449.47,-174049.94,-9917.44,-23541.465,-6301.6357,-46982.668,-11233.643,31037.965
952353.951319291,-103451.91,-174051.23,-9933.1875,-23540.691,-6311.3203,-46971.76,-11228.557,31009.156
952353.9553192867,-103450.16,-174045.98,-9946.045,-23530.885,-6318.2373,-46963.504,-11223.308,30984.457
952353.9593192823,-103448.86,-174046.92,-9929.037,-23524.658,-6311.2793,-46971.844,-11225.464,30999.432
952353.963319278,-103451.99,-174048.19,-9909.912,-23532.92,-6307.129,-46984.703,-11233.195,31036.256
952353.9673192736,-103453.53,-174046.31,-9911.906,-23541.545,-6309.1636,-46985.312,-11235.84,31046.104
952353.9713192693,-103456.38,-174051.52,-9939.128,-23543.174,-6324.0156,-46974.49,-11231.364,31013.998
952353.9753192649,-103455.77,-174048.6,-9956.381,-23536.174,-6327.0264,-46964.56,-11224.813,30980.186
952353.9793192605,-103459.11,-174054.28,-9945.598,-23532.594,-6317.627,-46970.543,-11226.848,30996.543
952353.9833192561,-103465.375,-174066.0,-9915.487,-23538.412,-6306.722,-46982.26,-11231.853,31031.7
952353.9873192518,-103465.13,-174064.22,-9906.169,-23548.504,-6307.658,-46984.703,-11236.857,31037.68
952353.9913192474,-103463.3,-174059.05,-9926.718,-23547.324,-6315.8774,-46973.51,-11229.899,31004.924
952353.995319243,-103459.27,-174056.48,-9948.283,-23537.842,-6317.505,-46963.137,-11221.802,30975.586
952353.9993192387,-103460.734,-174056.03,-9933.879,-23532.553,-6304.891,-46969.727,-11221.273,30987.346
952354.0033192344,-103460.45,-174058.97,-9913.127,-23538.047,-6306.6,-46980.227,-11228.354,31020.184
952354.00731923,-103462.12,-174063.89,-9916.667,-23547.73,-6314.9414,-46983.195,-11230.51,31028.2
952354.0113192257,-103461.34,-174059.94,-9937.826,-23546.957,-6320.5566,-46973.918,-11224.813,30999.879
952354.0153192213,-103456.42,-174046.34,-9948.69,-23535.32,-6316.8945,-46966.51,-11220.541,30972.982
952354.019319217,-103454.266,-174043.9,-9931.519,-23527.1,-6295.573,-46973.836,-11222.331,30990.234
952354.0233192126,-103458.13,-174047.94,-9912.15,-23535.645,-6298.5435,-46984.742,-11228.027,31027.14
952354.0273192083,-103463.38,-174050.05,-9915.527,-23546.592,-6315.2266,-46986.37,-11232.422,31030.355
952354.0313192039,-103465.58,-174054.66,-9938.3955,-23547.283,-6338.5825,-46976.402,-11229.858,30996.135
952354.0353191996,-103462.61,-174054.05,-9954.062,-23538.86,-6342.2446,-46969.28,-11223.837,30967.979
952354.0393191952,-103459.48,-174052.42,-9932.455,-23530.803,-6323.5273,-46977.215,-11224.365,30983.684
952354.0433191909,-103460.25,-174053.23,-9911.133,-23536.582,-6314.901,-46987.715,-11233.358,31021.973
952354.0473191864,-103466.555,-174056.97,-9909.221,-23547.201,-6320.4346,-46989.34,-11237.509,31028.117
952354.051319182,-103464.93,-174055.9,-9925.7,-23548.625,-6328.6543,-46978.965,-11231.771,30996.95
952354.0553191777,-103459.48,-174051.44,-9944.784,-23538.818,-6326.2534,-46968.875,-11221.884,30970.5
952354.0593191733,-103460.62,-174055.67,-9933.676,-23532.023,-6317.8306,-46974.734,-11221.762,30983.398
952354.063319169,-103463.625,-174058.39,-9918.091,-23538.9,-6319.377,-46989.137,-11231.12,31014.934
952354.0673191646,-103462.69,-174055.67,-9914.429,-23545.86,-6321.859,-46992.39,-11232.26,31029.258
952354.0713191603,-103459.64,-174053.47,-9929.606,-23545.736,-6330.4443,-46980.55,-11222.819,31005.006
952354.0753191559,-103456.67,-174045.53,-9941.65,-23535.441,-6327.5557,-46969.566,-11216.716,30977.947
952354.0793191516,-103453.45,-174040.25,-9924.887,-23526.408,-6305.705,-46976.645,-11217.651,30991.863
952354.0833191472,-103454.875,-174048.02,-9903.524,-23533.408,-6298.5435,-46989.383,-11226.97,31023.316
952354.0873191429,-103460.53,-174057.95,-9908.813,-23545.371,-6312.9478,-46990.848,-11231.364,31027.385
952354.0913191385,-103461.76,-174057.3,-9930.583,-23545.29,-6334.6357,-46978.027,-11222.046,30997.926
952354.0953191342,-103457.12,-174044.97,-9948.894,-23534.873,-6331.3804,-46969.402,-11214.478,30972.656
952354.0993191298,-103452.195,-174036.55,-9927.694,-23528.605,-6308.065,-46976.156,-11215.902,30991.09
952354.1033191255,-103453.25,-174040.48,-9912.069,-23534.588,-6304.891,-46988.65,-11226.726,31017.62
952354.1073191211,-103456.1,-174048.52,-9923.706,-23543.174,-6316.488,-46990.6,-11232.178,31019.531
952354.1113191167,-103454.72,-174048.6,-9945.435,-23544.475,-6328.491,-46979.047,-11228.149,30988.486
952354.1153191123,-103450.28,-174040.66,-9950.684,-23533.814,-6326.3755,-46969.44,-11218.994,30958.822
952354.119319108,-103449.55,-174038.05,-9935.141,-23528.688,-6318.563,-46977.05,-11218.791,30974.447
952354.1233191036,-103452.07,-174040.2,-9913.168,-23533.164,-6311.8086,-46988.203,-11220.785,31014.854
952354.1273190993,-103453.29,-174041.42,-9911.987,-23543.174,-6313.0293,-46988.812,-11220.785,31029.746
952354.1313190949,-103447.88,-174038.78,-9933.879,-23542.645,-6323.812,-46976.36,-11212.036,31009.562
952354.1353190906,-103443.69,-174031.75,-9943.075,-23534.791,-6324.4224,-46967.043,-11200.317,30985.027
952354.1393190862,-103442.75,-174032.97,-9924.602,-23528.484,-6307.5767,-46973.715,-11203.044,31000.244
952354.1433190819,-103443.89,-174033.1,-9907.309,-23534.385,-6303.467,-46984.5,-11211.711,31034.18
952354.1473190775,-103449.99,-174039.56,-9910.686,-23543.498,-6314.453,-46986.98,-11215.861,31040.895
952354.1513190732,-103450.195,-174041.31,-9938.843,-23546.387,-6326.2534,-46974.734,-11210.409,31010.377
952354.1553190688,-103447.35,-174036.14,-9958.944,-23539.715,-6324.0156,-46965.58,-11203.41,30981.201
952354.1593190645,-103445.68,-174033.58,-9936.198,-23531.414,-6311.1167,-46974.082,-11207.031,31003.012
952354.1633190601,-103445.27,-174037.2,-9907.634,-23536.094,-6304.24,-46983.727,-11210.368,31040.283
952354.1673190558,-103451.58,-174048.52,-9903.524,-23545.777,-6313.3545,-46983.523,-11208.171,31043.213
952354.1713190514,-103450.28,-174042.2,-9924.072,-23546.998,-6323.242,-46972.414,-11204.387,31008.668
952354.175319047,-103443.98,-174032.27,-9943.278,-23541.22,-6326.0093,-46964.97,-11199.219,30976.318
952354.1793190426,-103444.38,-174030.89,-9926.433,-23536.053,-6313.5176,-46973.473,-11201.416,30990.316
952354.1833190382,-103449.79,-174035.77,-9910.93,-23541.016,-6310.71,-46983.97,-11207.194,31023.072
952354.1873190339,-103457.32,-174045.9,-9915.202,-23550.498,-6326.579,-46985.92,-11210.002,31021.445
952354.1913190295,-103456.99,-174048.02,-9936.117,-23547.893,-6336.2227,-46976.36,-11206.95,30989.543
952354.1953190252,-103453.125,-174044.03,-9956.218,-23537.598,-6330.1597,-46967.53,-11202.637,30962.729
952354.1993190208,-103456.67,-174043.78,-9943.075,-23530.273,-6308.9194,-46973.43,-11199.911,30983.969
952354.2033190165,-103464.84,-174054.4,-9924.357,-23537.883,-6303.874,-46986.125,-11208.049,31020.02
952354.2073190121,-103463.18,-174061.97,-9922.363,-23549.602,-6314.128,-46990.645,-11214.763,31024.537
952354.2113190078,-103448.125,-174049.2,-9938.437,-23547.04,-6324.3003,-46979.656,-11210.327,30998.902
952354.2153190034,-103440.59,-174043.42,-9948.364,-23537.883,-6324.951,-46969.484,-11200.195,30976.604
952354.2193189991,-103445.07,-174046.19,-9930.054,-23534.465,-6311.9307,-46977.297,-11199.504,30994.914
952354.2233189947,-103446.62,-174048.55,-9908.447,-23540.406,-6310.3027,-46988.61,-11206.137,31029.664
952354.2273189904,-103447.8,-174053.39,-9900.879,-23548.016,-6322.9575,-46991.58,-11209.188,31031.535
952354.231318986,-103448.0,-174051.39,-9924.643,-23551.88,-6332.0312,-46981.69,-11201.823,30999.268
952354.2353189817,-103448.94,-174051.77,-9948.242,-23543.54,-6327.596,-46972.25,-11193.4,30968.385
952354.2393189773,-103448.53,-174052.62,-9941.895,-23536.947,-6307.536,-46979.86,-11197.592,30984.254
952354.2433189729,-103449.266,-174053.03,-9923.462,-23542.441,-6298.7876,-46990.113,-11202.515,31020.143
952354.2473189685,-103451.945,-174051.31,-9921.794,-23549.48,-6308.635,-46990.4,-11208.252,31028.89
952354.2513189642,-103449.38,-174046.8,-9942.302,-23549.195,-6317.668,-46979.13,-11197.632,31001.75
952354.2553189598,-103444.586,-174040.08,-9955.933,-23542.197,-6320.1094,-46970.176,-11189.657,30968.588
952354.2593189555,-103447.63,-174038.5,-9941.488,-23537.03,-6304.3623,-46979.82,-11196.167,30980.062
952354.2633189511,-103455.695,-174050.55,-9921.916,-23544.068,-6305.908,-46990.4,-11206.543,31010.986
952354.2673189468,-103457.234,-174056.69,-9923.218,-23553.346,-6316.5283,-46993.086,-11211.101,31012.736
952354.2713189424,-103453.53,-174052.58,-9940.349,-23551.393,-6324.6665,-46983.4,-11205.363,30985.393
952354.2753189381,-103450.97,-174047.12,-9950.766,-23541.18,-6319.702,-46972.7,-11199.016,30958.904
952354.2793189337,-103451.09,-174045.7,-9935.425,-23534.465,-6303.3447,-46980.43,-11206.421,30975.059
952354.2833189294,-103455.57,-174047.2,-9917.807,-23540.936,-6296.509,-46992.473,-11209.147,31009.727
952354.287318925,-103455.37,-174050.42,-9916.138,-23550.66,-6306.844,-46992.637,-11209.147,31018.352
952354.2913189207,-103452.11,-174050.7,-9939.331,-23550.701,-6321.3706,-46981.773,-11203.573,30988.648
952354.2953189163,-103454.02,-174045.73,-9961.752,-23543.54,-6325.155,-46973.145,-11194.946,30960.246
952354.299318912,-103458.58,-174047.28,-9954.102,-23540.977,-6313.0293,-46980.594,-11194.174,30976.197
952354.3033189076,-103461.59,-174055.7,-9933.716,-23548.504,-6305.9897,-46991.457,-11199.382,31015.992
952354.3073189032,-103464.234,-174060.34,-9929.403,-23556.682,-6307.2104,-46991.66,-11198.446,31027.06
952354.3113188988,-103460.984,-174057.17,-9946.574,-23554.322,-6309.245,-46978.516,-11188.273,31001.629
952354.3153188945,-103452.97,-174048.6,-9950.439,-23545.29,-6310.791,-46968.547,-11182.577,30977.336
952354.3193188901,-103451.5,-174041.6,-9935.995,-23537.11,-6299.6826,-46976.402,-11185.385,30992.27
952354.3233188858,-103451.055,-174040.2,-9914.551,-23540.203,-6294.3115,-46987.59,-11192.546,31026.693
952354.3273188814,-103453.414,-174044.28,-9917.888,-23552.531,-6309.2856,-46988.895,-11196.005,31033.244
952354.331318877,-103453.45,-174045.78,-9939.819,-23553.428,-6323.69,-46977.785,-11189.209,31002.117
952354.3353188727,-103449.95,-174044.64,-9948.039,-23541.748,-6318.3594,-46969.117,-11180.298,30975.994
952354.3393188684,-103449.67,-174041.02,-9932.495,-23534.059,-6296.875,-46978.273,-11185.507,30991.049
952354.343318864,-103449.95,-174039.84,-9914.836,-23541.139,-6289.917,-46991.05,-11193.4,31023.316
952354.3473188597,-103453.66,-174047.81,-9917.685,-23550.416,-6302.6123,-46993.33,-11196.737,31028.037
952354.3513188553,-103453.945,-174053.55,-9940.063,-23551.514,-6317.7085,-46982.91,-11191.977,30995.729
952354.355318851,-103450.28,-174050.38,-9958.537,-23543.133,-6311.198,-46975.02,-11183.879,30965.252
952354.3593188466,-103450.89,-174053.72,-9944.906,-23538.656,-6303.182,-46983.035,-11187.419,30979.33
952354.3633188423,-103451.91,-174058.23,-9919.8,-23545.492,-6299.7236,-46995.242,-11198.8125,31013.51
952354.3673188379,-103453.53,-174063.28,-9913.818,-23552.94,-6310.8726,-46995.85,-11205.526,31020.713
952354.3713188334,-103453.414,-174057.55,-9932.129,-23551.514,-6318.4004,-46983.195,-11192.343,30991.13
952354.3753188291,-103450.69,-174046.27,-9947.226,-23542.156,-6314.5347,-46974.652,-11182.373,30966.879
952354.3793188247,-103446.13,-174039.47,-9928.142,-23535.605,-6297.3633,-46983.113,-11183.554,30986.695
952354.3833188204,-103447.8,-174042.69,-9908.732,-23542.441,-6287.9233,-46994.266,-11190.878,31021.281
952354.387318816,-103448.125,-174048.34,-9910.93,-23553.184,-6303.304,-46994.184,-11193.034,31024.09
952354.3913188117,-103451.58,-174053.55,-9937.338,-23554.852,-6322.2656,-46983.684,-11188.721,30987.51
952354.3953188073,-103450.81,-174049.61,-9951.823,-23543.457,-6322.347,-46974.734,-11183.35,30962.77
952354.399318803,-103449.22,-174048.06,-9932.333,-23538.047,-6305.6235,-46982.91,-11181.885,30985.19
952354.4033187986,-103452.11,-174051.77,-9906.332,-23545.695,-6294.922,-46993.41,-11186.972,31023.275
952354.4073187943,-103453.53,-174057.55,-9908.407,-23556.967,-6298.991,-46992.23,-11187.378,31036.297
952354.4113187899,-103453.695,-174058.28,-9936.972,-23558.514,-6306.0713,-46978.07,-11177.328,31009.645
952354.4153187856,-103454.96,-174055.22,-9957.724,-23549.56,-6304.6064,-46968.223,-11168.335,30981.283
952354.4193187812,-103457.93,-174055.42,-9944.133,-23546.021,-6293.9453,-46976.605,-11171.347,30997.355
952354.4233187769,-103463.586,-174061.36,-9920.532,-23550.781,-6286.865,-46987.633,-11176.025,31029.541
952354.4273187725,-103462.89,-174062.42,-9920.41,-23559.938,-6294.4336,-46988.527,-11178.061,31034.22
952354.4313187682,-103460.125,-174058.16,-9942.912,-23560.385,-6311.849,-46975.79,-11173.096,31004.68
952354.4353187638,-103454.06,-174052.78,-9955.038,-23550.904,-6305.705,-46967.9,-11164.389,30977.703
952354.4393187594,-103455.28,-174050.78,-9938.029,-23547.04,-6290.08,-46977.62,-11169.394,30990.967
952354.443318755,-103457.69,-174052.58,-9918.498,-23554.77,-6287.5166,-46987.996,-11175.741,31023.846
952354.4473187507,-103459.35,-174055.9,-9924.276,-23562.42,-6307.129,-46987.67,-11179.24,31026.123
952354.4513187463,-103460.695,-174058.19,-9948.568,-23563.926,-6323.446,-46977.54,-11174.398,30993.408
952354.455318742,-103457.195,-174054.25,-9959.595,-23555.014,-6320.7197,-46971.07,-11168.051,30966.025
952354.4593187376,-103453.375,-174049.97,-9937.338,-23548.748,-6306.3965,-46981.367,-11170.329,30983.725
952354.4633187333,-103454.06,-174048.47,-9910.156,-23553.428,-6298.991,-46992.92,-11179.321,31019.816
952354.4673187289,-103458.664,-174050.17,-9910.034,-23562.988,-6305.9897,-46994.63,-11184.489,31021.893
952354.4713187246,-103460.86,-174047.94,-9935.873,-23563.273,-6317.302,-46983.684,-11179.321,30995.117
952354.4753187202,-103455.695,-174040.94,-9961.63,-23554.81,-6321.086,-46975.02,-11169.108,30974.691
952354.4793187159,-103454.875,-174046.31,-9953.41,-23550.701,-6305.3794,-46981.57,-11166.016,30994.873
952354.4833187115,-103460.94,-174055.34,-9933.024,-23557.822,-6299.927,-46991.66,-11173.178,31031.21
952354.4873187072,-103465.78,-174060.34,-9926.352,-23569.174,-6313.3955,-46994.793,-11175.578,31040.568
952354.4913187028,-103464.69,-174060.67,-9948.771,-23567.912,-6324.2188,-46983.93,-11168.335,31010.254
952354.4953186985,-103461.19,-174058.03,-9959.595,-23557.578,-6317.1797,-46973.918,-11160.4,30982.707
952354.4993186941,-103458.83,-174055.39,-9940.674,-23551.719,-6304.6064,-46982.383,-11163.33,31004.477
952354.5033186896,-103459.76,-174059.25,-9920.736,-23558.025,-6304.4844,-46994.02,-11171.306,31039.268
952354.5073186853,-103461.96,-174064.05,-9917.888,-23566.447,-6315.145,-46994.59,-11173.544,31042.441
952354.511318681,-103465.3,-174073.98,-9940.43,-23566.732,-6329.305,-46984.05,-11166.708,31009.074
952354.5153186766,-103464.4,-174067.31,-9963.461,-23560.832,-6326.213,-46978.027,-11163.127,30975.912
952354.5193186722,-103470.5,-174068.97,-9952.881,-23554.729,-6312.622,-46987.47,-11167.277,30987.957
952354.5233186679,-103475.38,-174075.4,-9939.291,-23562.5,-6310.3843,-46999.555,-11170.898,31019.328
952354.5273186635,-103478.68,-174082.61,-9942.261,-23572.674,-6323.2017,-47001.426,-11176.025,31021.078
952354.5313186592,-103481.0,-174083.42,-9958.74,-23574.912,-6328.9795,-46992.027,-11172.689,30984.62
952354.5353186548,-103475.1,-174076.22,-9972.697,-23564.494,-6325.3584,-46983.727,-11171.143,30956.951
952354.5393186505,-103474.25,-174067.47,-9948.527,-23558.105,-6308.553,-46991.457,-11175.7,30972.617
952354.5433186461,-103481.29,-174070.0,-9934.123,-23568.197,-6306.926,-47004.273,-11183.105,31007.08
952354.5473186418,-103490.195,-174079.06,-9946.533,-23579.875,-6318.807,-47008.344,-11187.826,31011.598
952354.5513186374,-103494.67,-174085.5,-9970.663,-23579.59,-6333.9844,-46998.332,-11181.396,30978.842
952354.5553186331,-103493.086,-174083.75,-9985.556,-23571.29,-6338.094,-46991.54,-11177.084,30953.045
952354.5593186287,-103491.945,-174084.84,-9969.238,-23567.22,-6318.929,-47001.387,-11182.821,30975.791
952354.5633186244,-103495.61,-174087.89,-9951.498,-23574.912,-6307.7803,-47013.715,-11188.803,31014.04
952354.56731862,-103496.99,-174091.89,-9959.677,-23584.229,-6319.133,-47014.324,-11187.012,31019.695
952354.5713186156,-103495.85,-174091.44,-9984.985,-23585.084,-6337.3213,-47002.402,-11178.996,30989.787
952354.5753186112,-103495.24,-174088.95,-9998.657,-23578.37,-6334.9204,-46995.73,-11171.997,30964.438
952354.5793186069,-103495.65,-174088.02,-9981.771,-23574.3,-6319.865,-47006.836,-11174.276,30981.486
952354.5833186025,-103500.33,-174095.62,-9958.049,-23583.293,-6319.458,-47017.78,-11182.739,31013.51
952354.5873185982,-103504.03,-174099.17,-9958.13,-23594.361,-6330.7295,-47019.656,-11188.762,31014.527
952354.5913185938,-103508.22,-174098.67,-9980.307,-23596.152,-6342.0005,-47010.133,-11186.6455,30977.377
952354.5953185895,-103507.49,-174093.39,-9997.314,-23586.102,-6341.2275,-47004.03,-11180.99,30944.947
952354.5993185851,-103506.15,-174089.94,-9983.725,-23581.584,-6329.183,-47013.957,-11185.954,30958.496
952354.6033185808,-103511.31,-174096.89,-9966.35,-23591.553,-6329.183,-47028.08,-11197.388,30983.969
952354.6073185764,-103514.0,-174103.69,-9973.308,-23600.18,-6340.1694,-47028.89,-11200.847,30982.3
952354.6113185721,-103511.64,-174100.83,-9996.989,-23596.6,-6351.4,-47018.72,-11198.853,30947.836
952354.6153185677,-103511.48,-174093.19,-10013.713,-23590.129,-6356.7305,-47013.184,-11197.795,30912.518
952354.6193185634,-103509.195,-174090.22,-9995.932,-23585.246,-6343.547,-47021.324,-11199.341,30931.357
952354.623318559,-103514.0,-174096.23,-9978.76,-23595.379,-6336.711,-47033.043,-11203.247,30969.238
952354.6273185547,-103523.32,-174108.97,-9983.358,-23607.342,-6351.4,-47033.652,-11202.515,30978.232
952354.6313185503,-103522.625,-174108.44,-9996.501,-23603.15,-6364.0137,-47021.445,-11194.092,30953.736
952354.6353185459,-103511.72,-174094.69,-10007.121,-23594.443,-6359.8228,-47014.65,-11187.012,30931.56
952354.6393185415,-103506.02,-174087.69,-9992.27,-23591.432,-6345.1743,-47024.496,-11190.1455,30951.377
952354.6433185372,-103508.266,-174094.05,-9973.227,-23599.041,-6335.9375,-47034.832,-11197.104,30989.219
952354.6473185328,-103511.84,-174097.58,-9976.318,-23611.125,-6347.046,-47034.547,-11198.853,30997.764
952354.6513185285,-103512.984,-174099.4,-10000.366,-23609.66,-6362.5083,-47023.03,-11190.023,30969.89
952354.6553185241,-103511.31,-174096.81,-10019.409,-23599.406,-6371.053,-47016.887,-11184.814,30940.756
952354.6593185198,-103514.08,-174098.36,-10006.348,-23594.809,-6360.6772,-47023.887,-11189.047,30955.975
952354.6633185154,-103517.42,-174107.92,-9979.655,-23601.035,-6350.2607,-47035.81,-11196.167,30989.625
952354.667318511,-103521.0,-174118.05,-9977.458,-23613.16,-6358.9683,-47039.797,-11200.114,30992.188
952354.6713185067,-103520.76,-174119.44,-9998.251,-23613.12,-6369.5884,-47029.094,-11194.418,30957.072
952354.6753185024,-103520.19,-174115.73,-10016.928,-23603.312,-6368.6523,-47020.305,-11184.774,30927.979
952354.679318498,-103521.2,-174115.03,-10001.831,-23599.53,-6344.564,-47027.875,-11188.925,30944.58
952354.6833184937,-103519.17,-174119.52,-9977.173,-23607.139,-6337.5654,-47040.45,-11198.364,30976.115
952354.6873184893,-103519.01,-174118.7,-9970.053,-23615.479,-6347.534,-47042.727,-11203.654,30978.395
952354.691318485,-103516.52,-174111.78,-9991.374,-23614.625,-6359.375,-47032.188,-11197.388,30946.982
952354.6953184806,-103513.43,-174111.86,-10011.882,-23605.592,-6360.718,-47022.91,-11188.192,30918.701
952354.6993184761,-103511.11,-174105.64,-10000.122,-23599.854,-6348.633,-47030.234,-11190.186,30935.182
952354.7033184718,-103513.59,-174105.67,-9981.283,-23606.73,-6343.547,-47042.81,-11198.242,30966.92
952354.7073184674,-103518.195,-174111.98,-9987.0205,-23616.09,-6352.6206,-47044.312,-11200.236,30970.459
952354.7113184631,-103523.03,-174115.2,-10008.708,-23617.066,-6367.5537,-47032.918,-11192.912,30941.203
952354.7153184587,-103519.82,-174110.36,-10023.153,-23607.422,-6362.468,-47024.17,-11184.896,30918.701
952354.7193184544,-103514.85,-174108.53,-9999.634,-23600.994,-6339.071,-47031.902,-11187.785,30944.541
952354.72331845,-103515.47,-174111.1,-9973.999,-23607.057,-6325.7246,-47043.418,-11196.94,30983.807
952354.7273184457,-103518.76,-174115.89,-9969.931,-23614.746,-6332.723,-47042.93,-11196.371,30995.037
952354.7313184413,-103515.95,-174108.81,-9995.361,-23612.021,-6349.447,-47030.844,-11187.216,30971.803
952354.735318437,-103510.38,-174098.03,-10011.882,-23604.248,-6346.273,-47023.926,-11180.095,30948.61
952354.7393184326,-103507.86,-174095.67,-9994.548,-23601.768,-6334.31,-47033.652,-11184.489,30967.041
952354.7433184283,-103512.25,-174103.4,-9971.313,-23611.736,-6335.4087,-47044.844,-11189.616,31001.709
952354.7473184239,-103519.734,-174115.56,-9973.022,-23620.566,-6352.824,-47044.027,-11188.803,31007.121
952354.7513184196,-103518.35,-174118.2,-9994.141,-23619.14,-6364.543,-47033.57,-11181.601,30978.842
952354.7553184152,-103514.65,-174111.94,-10011.516,-23609.904,-6363.2,-47025.434,-11173.991,30954.672
952354.7593184109,-103515.71,-174110.6,-9999.553,-23605.104,-6336.467,-47034.547,-11178.671,30970.785
952354.7633184065,-103516.195,-174108.48,-9976.5625,-23611.004,-6322.5913,-47047.203,-11189.087,31000.205
952354.7673184021,-103516.56,-174108.73,-9977.987,-23619.467,-6328.125,-47046.633,-11191.772,31001.67
952354.7713183977,-103515.95,-174103.84,-9998.535,-23618.734,-6341.0645,-47033.33,-11183.228,30968.059
952354.7753183934,-103513.67,-174100.11,-10011.801,-23609.092,-6345.093,-47024.09,-11175.456,30941.488
952354.779318389,-103515.18,-174102.67,-9995.972,-23603.883,-6333.0894,-47032.43,-11176.514,30957.154
952354.7833183847,-103517.7,-174105.47,-9976.196,-23610.23,-6321.981,-47042.195,-11184.57,30988.893
952354.7873183803,-103520.71,-174113.05,-9983.195,-23621.502,-6335.124,-47042.684,-11185.873,30989.746
952354.791318376,-103517.7,-174113.45,-10008.383,-23620.973,-6350.7896,-47031.21,-11181.356,30956.543
952354.7953183716,-103509.69,-174104.58,-10017.944,-23606.283,-6345.1743,-47021.973,-11172.852,30932.373
952354.7993183673,-103505.91,-174100.88,-9995.321,-23600.098,-6328.166,-47029.83,-11173.381,30954.307
952354.8033183629,-103508.55,-174102.47,-9978.027,-23607.707,-6326.864,-47040.324,-11179.403,30987.266
952354.8073183586,-103508.75,-174105.11,-9974.528,-23617.229,-6340.2915,-47039.88,-11180.054,30991.863
952354.8113183542,-103510.99,-174105.47,-9994.833,-23617.107,-6352.783,-47029.99,-11174.846,30961.143
952354.8153183499,-103508.06,-174099.58,-10009.196,-23607.748,-6350.342,-47022.79,-11169.475,30938.03
952354.8193183455,-103503.5,-174095.1,-9995.158,-23604.086,-6334.2695,-47031.7,-11169.8,30964.682
952354.8233183412,-103506.19,-174102.22,-9977.173,-23612.916,-6330.526,-47042.156,-11174.846,31001.709
952354.8273183368,-103513.47,-174117.19,-9982.544,-23623.535,-6344.9707,-47042.074,-11177.938,31004.883
952354.8313183323,-103523.03,-174126.92,-10004.843,-23624.023,-6359.538,-47030.805,-11168.295,30976.4
952354.835318328,-103518.15,-174113.48,-10012.085,-23612.916,-6355.1025,-47026.207,-11162.069,30952.434
952354.8393183236,-103503.99,-174094.4,-9989.665,-23605.918,-6343.099,-47034.953,-11166.545,30969.035
952354.8433183193,-103508.79,-174103.69,-9971.3955,-23614.951,-6343.669,-47045.94,-11172.974,30998.984
952354.847318315,-103511.36,-174108.33,-9968.344,-23622.438,-6354.8994,-47048.383,-11175.619,31004.111
952354.8513183106,-103505.54,-174102.22,-9992.758,-23620.89,-6364.787,-47036.418,-11167.074,30975.059
952354.8553183062,-103503.18,-174103.08,-10009.359,-23613.037,-6362.9966,-47028.484,-11158.977,30950.074
952354.8593183019,-103504.84,-174106.48,-9997.844,-23610.19,-6347.9414,-47037.234,-11162.517,30964.723
952354.8633182975,-103508.305,-174109.17,-9981.567,-23618.45,-6354.533,-47048.3,-11168.498,30992.107
952354.8673182932,-103512.62,-174115.2,-9982.138,-23626.791,-6371.704,-47048.992,-11171.875,30992.637
952354.8713182888,-103514.98,-174112.64,-10002.768,-23624.838,-6385.62,-47037.723,-11166.342,30963.379
952354.8753182845,-103509.56,-174105.77,-10018.188,-23614.99,-6384.969,-47030.152,-11159.424,30939.658
952354.8793182801,-103506.23,-174102.7,-10005.412,-23609.824,-6364.909,-47038.74,-11164.714,30955.771
952354.8833182758,-103509.484,-174105.84,-9987.427,-23617.229,-6360.9214,-47049.727,-11171.631,30986.533
952354.8873182714,-103508.06,-174108.97,-9984.863,-23627.197,-6367.0654,-47050.09,-11174.113,30990.723
952354.8913182671,-103511.195,-174111.38,-10010.214,-23629.15,-6381.958,-47041.707,-11172.485,30957.684
952354.8953182627,-103510.09,-174112.75,-10028.239,-23621.623,-6378.093,-47035.81,-11163.9,30930.258
952354.8993182583,-103509.93,-174112.44,-10005.737,-23617.393,-6362.549,-47045.777,-11167.5625,30949.951
952354.9033182539,-103513.76,-174112.8,-9980.795,-23622.723,-6347.453,-47057.09,-11175.253,30981.486
952354.9073182496,-103515.914,-174110.56,-9981.242,-23629.191,-6353.6787,-47056.113,-11178.142,30987.305
952354.9113182452,-103518.44,-174108.23,-10006.348,-23630.209,-6373.9424,-47045.86,-11172.974,30957.928
952354.9153182409,-103516.484,-174105.92,-10017.375,-23621.299,-6372.762,-47039.227,-11165.324,30933.146
952354.9193182365,-103514.65,-174103.16,-10005.087,-23617.717,-6354.126,-47047.49,-11166.667,30952.19
952354.9233182322,-103520.35,-174112.44,-9994.548,-23627.768,-6352.0103,-47060.14,-11173.95,30980.795
952354.9273182278,-103525.88,-174118.7,-10004.232,-23635.54,-6365.438,-47061.117,-11180.868,30982.586
952354.9313182235,-103526.9,-174120.08,-10025.351,-23634.727,-6382.08,-47048.87,-11174.072,30952.516
952354.9353182191,-103526.01,-174116.62,-10032.187,-23625.244,-6381.999,-47038.21,-11165.161,30929.893
952354.9393182148,-103523.32,-174114.47,-10016.113,-23623.21,-6368.612,-47047.977,-11167.5625,30952.475
952354.9433182104,-103527.67,-174122.48,-9994.589,-23631.47,-6368.9375,-47060.02,-11174.032,30981.73
952354.9473182061,-103535.81,-174135.22,-9999.553,-23641.766,-6385.946,-47061.523,-11176.025,30983.236
952354.9513182017,-103537.64,-174134.16,-10019.613,-23639.527,-6394.7754,-47049.727,-11168.864,30956.34
952354.9553181974,-103533.45,-174126.84,-10031.006,-23630.25,-6389.9336,-47042.24,-11163.981,30933.635
952354.959318193,-103531.3,-174127.2,-10014.038,-23627.482,-6374.2676,-47052.45,-11170.41,30951.621
952354.9633181886,-103534.63,-174129.81,-9997.274,-23635.05,-6362.6304,-47066.203,-11177.856,30984.66
952354.9673181842,-103536.46,-174129.31,-10004.68,-23645.143,-6371.338,-47065.105,-11176.596,30990.357
952354.9713181799,-103536.26,-174127.77,-10028.158,-23642.742,-6385.7017,-47053.266,-11167.399,30960.45
952354.9753181755,-103538.58,-174127.28,-10044.516,-23631.715,-6386.1084,-47047.895,-11165.8125,30925.66
952354.9793181712,-103541.305,-174127.97,-10028.809,-23631.348,-6371.053,-47060.1,-11175.7,30933.758
952354.9833181668,-103538.7,-174129.11,-10006.714,-23639.16,-6361.45,-47071.86,-11187.704,30966.676
952354.9873181625,-103540.57,-174134.4,-10006.145,-23650.432,-6375.0815,-47071.617,-11190.959,30968.955
952354.9913181581,-103540.81,-174132.98,-10026.001,-23647.91,-6390.096,-47061.445,-11183.798,30936.564
952354.9953181538,-103536.99,-174129.0,-10035.238,-23637.127,-6386.3525,-47053.55,-11181.112,30911.947
952354.9993181494,-103534.55,-174128.5,-10013.672,-23631.877,-6365.0312,-47063.477,-11188.273,30929.363
952355.003318145,-103535.445,-174129.31,-9989.787,-23638.469,-6358.724,-47074.668,-11189.535,30963.217
952355.0073181407,-103537.36,-174131.77,-9989.624,-23647.299,-6373.9014,-47074.06,-11187.948,30966.838
952355.0113181364,-103538.25,-174131.56,-10013.103,-23645.184,-6390.259,-47061.89,-11181.03,30934.082
952355.015318132,-103540.33,-174131.31,-10032.309,-23638.389,-6399.0073,-47053.914,-11175.578,30906.088
952355.0193181277,-103539.39,-174134.28,-10018.107,-23634.277,-6386.5156,-47063.965,-11178.833,30926.637
952355.0233181233,-103539.92,-174137.25,-9995.199,-23641.236,-6374.349,-47076.254,-11185.385,30960.002
952355.0273181188,-103543.17,-174139.08,-9997.396,-23647.91,-6384.3184,-47075.074,-11190.634,30967.164
952355.0313181145,-103540.81,-174131.8,-10026.571,-23647.746,-6396.7285,-47065.797,-11186.157,30937.826
952355.0353181101,-103537.27,-174127.48,-10038.005,-23639.568,-6393.27,-47060.63,-11176.596,30913.941
952355.0393181058,-103537.16,-174125.1,-10019.531,-23637.127,-6377.7266,-47068.645,-11176.677,30934.287
952355.0433181014,-103539.266,-174128.1,-9998.332,-23643.637,-6370.8496,-47078.574,-11181.926,30965.984
952355.0473180971,-103540.33,-174136.03,-9999.228,-23650.352,-6379.5576,-47076.336,-11180.746,30973.553
952355.0513180927,-103537.73,-174134.81,-10022.868,-23648.926,-6390.1777,-47062.582,-11169.312,30947.959
952355.0553180884,-103532.39,-174127.81,-10035.563,-23638.998,-6393.0664,-47056.64,-11161.54,30923.219
952355.059318084,-103532.59,-174127.97,-10013.632,-23634.318,-6378.6216,-47066.816,-11164.226,30944.377
952355.0633180797,-103535.32,-174130.1,-9994.589,-23642.213,-6373.454,-47077.477,-11173.3,30971.273
952355.0673180753,-103541.71,-174138.47,-9998.861,-23653.32,-6385.8643,-47077.8,-11172.689,30968.547
952355.071318071,-103537.73,-174135.83,-10015.991,-23649.863,-6400.757,-47065.676,-11166.952,30939.617
952355.0753180666,-103534.06,-174128.3,-10036.337,-23638.266,-6399.455,-47058.676,-11158.325,30913.982
952355.0793180623,-103534.95,-174127.16,-10018.188,-23635.174,-6372.8027,-47070.07,-11166.667,30932.129
952355.0833180579,-103537.88,-174129.64,-9996.582,-23645.875,-6369.426,-47081.625,-11178.02,30963.99
952355.0873180536,-103541.22,-174132.81,-9995.158,-23655.234,-6381.307,-47080.812,-11179.973,30961.955
952355.0913180492,-103540.04,-174129.61,-10017.375,-23650.758,-6393.7583,-47069.582,-11175.578,30923.79
952355.0953180448,-103538.45,-174130.95,-10037.313,-23644.898,-6393.8804,-47063.887,-11172.648,30891.725
952355.0993180404,-103538.7,-174134.2,-10028.605,-23640.3,-6380.5747,-47075.523,-11179.037,30911.541
952355.1033180361,-103539.31,-174139.66,-10014.934,-23645.06,-6378.988,-47086.14,-11179.6875,30949.219
952355.1073180317,-103539.19,-174140.72,-10016.806,-23654.95,-6394.287,-47084.395,-11180.746,30956.016
952355.1113180274,-103537.88,-174128.14,-10033.8545,-23653.402,-6400.635,-47072.918,-11177.043,30927.654
952355.115318023,-103536.83,-174117.19,-10042.603,-23645.387,-6395.793,-47064.58,-11170.288,30902.264
952355.1193180187,-103537.88,-174116.17,-10017.416,-23641.398,-6376.7905,-47073.164,-11171.672,30921.184
952355.1233180143,-103542.04,-174123.66,-10004.191,-23648.764,-6370.809,-47085.45,-11176.514,30953.29
952355.12731801,-103549.28,-174128.38,-10012.085,-23659.22,-6379.476,-47085.125,-11176.88,30957.195
952355.1313180056,-103552.01,-174129.64,-10039.755,-23659.344,-6396.322,-47074.75,-11169.475,30930.828
952355.1353180013,-103545.01,-174123.5,-10055.38,-23650.96,-6400.92,-47065.918,-11160.238,30909.14
952355.1393179969,-103543.945,-174121.39,-10035.034,-23647.217,-6387.004,-47076.01,-11164.836,30928.793
952355.1433179926,-103547.695,-174125.25,-10008.586,-23653.688,-6375.8545,-47088.34,-11172.241,30964.805
952355.1473179882,-103549.4,-174135.14,-10011.149,-23663.086,-6387.2886,-47087.688,-11172.485,30968.14
952355.1513179839,-103549.234,-174137.25,-10033.936,-23661.541,-6398.397,-47076.05,-11165.649,30933.594
952355.1553179795,-103546.72,-174132.53,-10045.248,-23652.385,-6400.5127,-47068.77,-11158.936,30905.355
952355.159317975,-103545.984,-174133.88,-10032.1455,-23647.625,-6385.132,-47079.55,-11161.174,30922.69
952355.1633179707,-103547.41,-174134.77,-10004.924,-23654.217,-6381.9175,-47094.28,-11167.969,30957.48
952355.1673179663,-103550.945,-174136.72,-10008.017,-23663.086,-6388.6313,-47094.28,-11172.934,30962.729
952355.171317962,-103554.61,-174138.44,-10033.488,-23664.674,-6399.4956,-47083.66,-11167.155,30931.52
952355.1753179576,-103551.19,-174135.9,-10043.295,-23653.605,-6396.037,-47076.582,-11160.441,30907.35
952355.1793179533,-103554.57,-174140.62,-10026.53,-23652.385,-6382.528,-47086.305,-11164.389,30923.91
952355.183317949,-103557.13,-174144.98,-10011.516,-23658.652,-6381.5107,-47098.27,-11170.492,30949.912
952355.1873179446,-103555.75,-174148.53,-10012.167,-23666.668,-6389.73,-47097.94,-11171.631,30955.852
952355.1913179402,-103549.445,-174143.56,-10028.036,-23661.906,-6395.1416,-47085.086,-11160.767,30932.293
952355.1953179359,-103545.21,-174135.47,-10037.883,-23650.352,-6398.4785,-47077.027,-11153.402,30910.482
952355.1993179315,-103542.81,-174130.78,-10017.294,-23646.037,-6381.999,-47085.86,-11156.86,30930.096
952355.2033179272,-103542.16,-174133.14,-9999.675,-23653.443,-6374.756,-47098.023,-11164.511,30962.89
952355.2073179228,-103544.64,-174140.34,-10004.477,-23664.715,-6383.952,-47097.94,-11165.039,30966.879
952355.2113179185,-103546.8,-174147.1,-10030.192,-23664.592,-6402.873,-47084.883,-11154.216,30937.46
952355.2153179141,-103549.28,-174146.38,-10042.44,-23654.664,-6406.82,-47079.51,-11150.146,30910.4
952355.2193179098,-103549.484,-174143.03,-10027.426,-23648.438,-6390.259,-47088.79,-11153.442,30934.693
952355.2233179053,-103552.58,-174148.2,-10017.212,-23655.03,-6381.3477,-47098.96,-11156.088,30966.717
952355.227317901,-103551.92,-174148.36,-10018.515,-23661.988,-6392.8223,-47098.105,-11155.151,30970.215
952355.2313178966,-103548.95,-174150.11,-10036.703,-23660.117,-6407.6743,-47086.14,-11146.322,30942.791
952355.2353178923,-103547.61,-174146.0,-10044.841,-23653.646,-6405.6807,-47077.273,-11139.242,30920.29
952355.2393178879,-103550.055,-174147.19,-10031.901,-23651.328,-6390.5845,-47087.242,-11145.061,30936.443
952355.2433178836,-103555.38,-174154.9,-10019.165,-23660.85,-6388.55,-47098.51,-11154.541,30962.322
952355.2473178792,-103557.87,-174160.53,-10024.17,-23668.906,-6399.4956,-47099.938,-11157.1045,30966.838
952355.2513178749,-103556.766,-174156.75,-10044.597,-23667.197,-6405.8027,-47088.91,-11157.553,30938.762
952355.2553178705,-103555.46,-174149.42,-10054.81,-23658.367,-6401.8555,-47083.008,-11147.827,30910.727
952355.2593178662,-103555.586,-174147.5,-10038.696,-23654.826,-6392.375,-47092.652,-11149.414,30927.654
952355.2633178618,-103560.836,-174154.42,-10019.206,-23661.906,-6389.852,-47102.824,-11158.122,30956.666
952355.2673178575,-103564.945,-174160.73,-10026.733,-23673.545,-6402.3438,-47102.99,-11159.709,30956.787
952355.2713178531,-103564.984,-174162.92,-10049.805,-23674.846,-6422.0786,-47091.758,-11150.635,30923.992
952355.2753178488,-103562.87,-174161.02,-10063.681,-23664.43,-6423.34,-47086.02,-11145.793,30898.398
952355.2793178444,-103557.91,-174152.19,-10043.823,-23659.22,-6407.5522,-47096.844,-11153.809,30917.36
952355.2833178401,-103562.18,-174153.73,-10023.804,-23667.848,-6405.0703,-47108.074,-11162.72,30945.395
952355.2873178357,-103566.86,-174159.52,-10025.513,-23678.549,-6419.149,-47106.773,-11162.476,30949.748
952355.2913178313,-103565.48,-174161.22,-10049.724,-23679.77,-6429.077,-47094.85,-11150.879,30922.08
952355.2953178269,-103564.45,-174157.56,-10069.133,-23670.898,-6427.5312,-47088.34,-11141.235,30899.781
952355.2993178226,-103570.07,-174154.14,-10046.916,-23667.848,-6413.9404,-47097.7,-11144.897,30919.598
952355.3033178182,-103574.305,-174162.03,-10027.222,-23678.143,-6409.953,-47108.887,-11153.972,30948.65
952355.3073178139,-103576.99,-174164.88,-10033.529,-23688.111,-6423.4214,-47108.24,-11155.273,30950.889
952355.3113178095,-103578.33,-174165.2,-10058.798,-23687.217,-6438.192,-47096.03,-11146.2,30921.754
952355.3153178052,-103571.82,-174157.77,-10070.231,-23673.79,-6439.453,-47088.137,-11145.63,30898.805
952355.3193178008,-103565.31,-174152.72,-10053.996,-23668.05,-6419.922,-47098.188,-11150.229,30919.19
952355.3233177965,-103565.15,-174153.28,-10041.26,-23676.23,-6410.36,-47109.336,-11154.582,30949.3
952355.3273177921,-103567.18,-174158.58,-10050.903,-23687.379,-6420.3696,-47109.457,-11158.732,30945.883
952355.3313177878,-103566.41,-174156.1,-10073.039,-23685.67,-6433.879,-47099.773,-11153.036,30913.453
952355.3353177834,-103568.12,-174155.03,-10080.893,-23677.898,-6437.4595,-47095.215,-11148.886,30886.271
952355.339317779,-103567.95,-174156.3,-10064.331,-23672.04,-6421.55,-47105.633,-11153.32,30902.264
952355.3433177747,-103569.42,-174156.05,-10041.504,-23678.467,-6417.806,-47119.02,-11161.174,30937.338
952355.3473177704,-103570.93,-174154.1,-10043.986,-23688.03,-6424.8457,-47117.555,-11162.313,30943.97
952355.351317766,-103567.79,-174155.94,-10064.819,-23688.152,-6433.065,-47106.977,-11154.623,30916.139
952355.3553177615,-103562.586,-174146.86,-10076.254,-23680.055,-6431.885,-47099.164,-11144.775,30892.13
952355.3593177572,-103559.0,-174137.94,-10050.903,-23673.87,-6412.2314,-47107.42,-11145.59,30913.412
952355.3633177528,-103560.47,-174142.9,-10033.8545,-23680.664,-6411.296,-47119.184,-11154.867,30946.29
952355.3673177485,-103565.23,-174151.3,-10044.108,-23690.227,-6431.356,-47117.434,-11158.569,30950.074
952355.3713177441,-103568.0,-174153.77,-10066.977,-23687.867,-6440.7554,-47106.773,-11149.13,30922.404
952355.3753177398,-103564.945,-174148.44,-10079.428,-23680.584,-6428.182,-47102.54,-11143.881,30898.193
952355.3793177354,-103561.37,-174149.5,-10060.547,-23677.002,-6408.325,-47112.996,-11146.933,30920.248
952355.3833177311,-103559.94,-174152.44,-10040.935,-23681.072,-6403.0356,-47121.746,-11152.019,30953.695
952355.3873177267,-103562.664,-174151.53,-10037.109,-23690.512,-6420.573,-47119.59,-11152.954,30953.818
952355.3913177224,-103559.25,-174147.02,-10055.502,-23690.594,-6434.4077,-47107.137,-11146.322,30924.195
952355.395317718,-103557.13,-174144.3,-10070.395,-23683.473,-6437.4595,-47100.465,-11141.032,30897.99
952355.3993177137,-103558.44,-174145.44,-10056.396,-23680.176,-6421.672,-47111.9,-11143.2705,30912.191
952355.4033177093,-103561.12,-174149.02,-10043.295,-23687.176,-6410.726,-47122.316,-11149.658,30944.012
952355.407317705,-103563.766,-174157.77,-10047.038,-23696.371,-6418.335,-47121.664,-11151.286,30948.854
952355.4113177006,-103563.234,-174154.1,-10055.176,-23694.5,-6428.833,-47110.84,-11144.572,30920.127
952355.4153176963,-103560.875,-174146.0,-10058.716,-23685.344,-6422.0786,-47103.516,-11137.939,30897.38
952355.4193176919,-103559.25,-174148.44,-10043.295,-23681.479,-6412.557,-47112.59,-11140.829,30915.162
952355.4233176875,-103564.74,-174160.33,-10034.343,-23690.715,-6411.5806,-47124.27,-11147.014,30944.906
952355.4273176831,-103574.99,-174168.17,-10043.661,-23701.377,-6420.451,-47123.984,-11146.933,30944.703
952355.4313176788,-103575.97,-174163.66,-10065.471,-23699.383,-6429.3623,-47112.875,-11139.689,30918.906
952355.4353176744,-103574.38,-174164.72,-10078.085,-23687.5,-6426.229,-47104.74,-11128.947,30903.158
952355.4393176701,-103575.12,-174165.33,-10057.577,-23682.373,-6413.249,-47114.3,-11130.453,30921.998
952355.4433176657,-103575.89,-174168.7,-10037.842,-23689.861,-6406.7383,-47124.92,-11135.214,30951.742
952355.4473176614,-103577.31,-174169.36,-10037.109,-23698.812,-6416.87,-47122.195,-11139.567,30951.865
952355.451317657,-103579.51,-174171.31,-10063.925,-23700.033,-6431.926,-47111.086,-11136.108,30920.94
952355.4553176527,-103579.06,-174168.5,-10083.374,-23691.611,-6435.425,-47104.453,-11130.127,30897.258
952355.4593176483,-103583.09,-174168.88,-10075.358,-23689.332,-6424.1943,-47114.504,-11134.44,30911.338
952355.463317644,-103587.53,-174175.58,-10058.024,-23697.266,-6417.6025,-47127.973,-11145.468,30940.594
952355.4673176396,-103585.86,-174182.95,-10056.723,-23705.771,-6434.367,-47125.203,-11143.677,30948.08
952355.4713176353,-103583.945,-174181.2,-10073.364,-23703.004,-6453.939,-47111.37,-11133.708,30920.248
952355.4753176309,-103579.59,-174172.05,-10077.2705,-23694.297,-6447.225,-47105.88,-11129.232,30897.543
952355.4793176266,-103582.03,-174174.23,-10056.601,-23691.895,-6428.304,-47116.254,-11134.481,30914.145
952355.4833176222,-103583.375,-174178.88,-10042.033,-23697.754,-6421.1836,-47126.63,-11141.398,30943.604
952355.4873176177,-103588.016,-174185.19,-10048.788,-23708.945,-6432.3325,-47126.305,-11140.91,30939.982
952355.4913176134,-103588.42,-174185.47,-10079.387,-23711.387,-6445.8823,-47115.03,-11132.365,30908.977
952355.495317609,-103584.234,-174181.77,-10088.542,-23700.115,-6445.3125,-47107.625,-11125.082,30889.771
952355.4993176047,-103584.48,-174181.0,-10064.453,-23694.541,-6424.886,-47117.066,-11128.093,30911.582
952355.5033176003,-103586.63,-174182.58,-10041.87,-23702.76,-6427.043,-47128.055,-11137.248,30935.71
952355.507317596,-103587.24,-174186.69,-10040.609,-23712.281,-6432.9834,-47125.203,-11134.97,30936.484
952355.5113175916,-103586.71,-174183.23,-10062.5,-23711.02,-6443.807,-47112.387,-11125.692,30911.133
952355.5153175873,-103582.12,-174178.34,-10074.219,-23702.963,-6441.325,-47107.18,-11121.013,30886.883
952355.519317583,-103579.72,-174175.83,-10054.606,-23699.383,-6421.1426,-47119.71,-11125.8545,30904.46
952355.5233175786,-103580.734,-174179.16,-10041.992,-23706.096,-6412.1094,-47132.652,-11134.196,30938.477
952355.5273175742,-103584.84,-174187.47,-10054.199,-23716.27,-6430.461,-47131.836,-11140.3,30936.564
952355.5313175699,-103582.97,-174186.56,-10083.862,-23716.188,-6446.574,-47120.65,-11136.23,30904.785
952355.5353175655,-103581.016,-174181.48,-10100.464,-23706.096,-6440.4707,-47113.484,-11128.378,30881.064
952355.5393175612,-103586.266,-174183.8,-10087.077,-23703.818,-6423.1772,-47126.344,-11134.521,30898.967
952355.5433175568,-103586.8,-174186.77,-10058.472,-23711.59,-6420.166,-47137.29,-11140.829,30934.246
952355.5473175525,-103587.85,-174187.1,-10057.007,-23720.135,-6423.381,-47133.465,-11136.76,30936.402
952355.551317548,-103587.32,-174186.45,-10077.434,-23718.426,-6436.1167,-47120.484,-11128.052,30908.367
952355.5553175437,-103582.93,-174182.02,-10088.013,-23708.049,-6435.791,-47115.926,-11122.681,30889.934
952355.5593175393,-103581.1,-174179.45,-10067.017,-23702.637,-6424.3164,-47125.53,-11125.773,30910.686
952355.563317535,-103584.39,-174184.81,-10054.362,-23711.59,-6419.4336,-47137.492,-11135.661,30937.744
952355.5673175306,-103585.49,-174188.84,-10059.448,-23722.168,-6431.1523,-47135.336,-11134.277,30938.152
952355.5713175263,-103589.93,-174189.7,-10086.142,-23720.908,-6445.1094,-47124.27,-11126.75,30904.582
952355.5753175219,-103588.914,-174183.31,-10095.053,-23711.834,-6440.9995,-47118.367,-11120.28,30881.309
952355.5793175176,-103586.19,-174179.58,-10074.057,-23707.887,-6428.63,-47128.34,-11127.849,30897.666
952355.5833175132,-103585.9,-174188.08,-10052.328,-23714.275,-6420.7764,-47139.934,-11138.51,30922.73
952355.5873175089,-103584.76,-174195.31,-10054.565,-23721.885,-6437.5,-47140.098,-11141.195,30928.59
952355.5913175045,-103580.2,-174185.75,-10083.496,-23719.035,-6442.098,-47128.46,-11132.69,30902.02
952355.5953175002,-103578.414,-174180.22,-10101.115,-23710.41,-6440.9995,-47122.64,-11126.831,30878.135
952355.5993174958,-103577.35,-174178.11,-10086.548,-23707.725,-6431.478,-47133.098,-11130.941,30894.572
952355.6033174915,-103583.26,-174184.3,-10065.268,-23713.46,-6431.478,-47142.5,-11136.963,30923.3
952355.6073174871,-103587.0,-174193.89,-10067.261,-23723.43,-6438.436,-47142.293,-11138.754,30924.44
952355.6113174828,-103584.84,-174194.1,-10085.043,-23722.373,-6441.04,-47132.0,-11133.464,30898.764
952355.6153174784,-103582.65,-174188.92,-10097.412,-23712.729,-6444.133,-47127.363,-11130.046,30878.379
952355.619317474,-103584.35,-174191.7,-10084.555,-23710.45,-6436.2793,-47135.457,-11129.436,30895.143
952355.6233174696,-103589.56,-174198.17,-10071.899,-23718.955,-6432.943,-47145.55,-11134.848,30924.725
952355.6273174653,-103591.35,-174200.81,-10076.742,-23727.5,-6445.15,-47145.062,-11135.417,30929.893
952355.6313174609,-103586.47,-174193.61,-10096.599,-23725.139,-6452.108,-47134.24,-11128.174,30901.246
952355.6353174566,-103581.38,-174186.08,-10102.417,-23715.17,-6447.7134,-47128.582,-11122.763,30884.521
952355.6393174522,-103579.8,-174183.77,-10082.031,-23711.102,-6432.292,-47137.047,-11124.634,30904.014
952355.6433174479,-103584.64,-174191.4,-10062.826,-23719.035,-6429.525,-47149.13,-11133.708,30930.746
952355.6473174435,-103588.38,-174192.8,-10068.319,-23727.744,-6437.3374,-47148.277,-11135.824,30930.217
952355.6513174392,-103586.555,-174189.02,-10089.722,-23725.18,-6445.15,-47134.074,-11125.0,30904.176
952355.6553174348,-103591.07,-174194.83,-10109.091,-23715.902,-6449.341,-47126.71,-11119.548,30876.506
952355.6593174305,-103596.48,-174196.78,-10091.635,-23714.682,-6439.575,-47137.332,-11124.228,30891.48
952355.6633174261,-103596.97,-174199.19,-10067.627,-23720.379,-6439.901,-47150.312,-11130.412,30924.805
952355.6673174218,-103592.29,-174197.56,-10065.593,-23725.547,-6449.3003,-47149.496,-11131.836,30930.502
952355.6713174174,-103591.8,-174193.69,-10085.287,-23725.342,-6459.188,-47139.082,-11125.285,30900.473
952355.675317413,-103589.195,-174189.02,-10095.703,-23716.309,-6449.504,-47133.26,-11119.792,30878.418
952355.6793174087,-103588.625,-174186.0,-10085.205,-23714.967,-6434.1636,-47144.086,-11126.059,30896.566
952355.6833174042,-103591.07,-174187.9,-10071.981,-23721.07,-6429.9316,-47154.543,-11135.417,30921.55
952355.6873173999,-103592.9,-174190.8,-10078.288,-23727.703,-6441.976,-47152.793,-11134.604,30924.316
952355.6913173955,-103587.734,-174185.19,-10096.191,-23723.145,-6445.516,-47139.527,-11125.244,30897.38
