timestamp,Fp1,Fp2,F3,Fz,F4,Cz,Pz,Oz
953044.8105667171,-111057.09,-175449.72,-19436.035,-47931.355,-14278.891,-56787.598,-14519.409,28476.727
953044.8145667127,-111052.78,-175447.77,-19430.908,-47925.984,-14272.421,-56787.52,-14509.318,28483.033
953044.8185667084,-111055.22,-175454.88,-19426.27,-47925.984,-14272.949,-56788.574,-14494.345,28521.281
953044.822566704,-111067.14,-175468.19,-19432.74,-47936.81,-14282.1455,-56797.445,-14497.111,28540.203
953044.8265666997,-111063.27,-175468.52,-19432.414,-47936.523,-14283.407,-56794.395,-14506.592,28515.098
953044.8305666953,-111048.625,-175450.08,-19422.771,-47923.34,-14272.177,-56780.684,-14506.104,28487.06
953044.834566691,-111040.61,-175439.38,-19422.648,-47911.055,-14263.266,-56773.766,-14495.932,28502.93
953044.8385666866,-111046.23,-175446.02,-19427.37,-47915.12,-14267.416,-56779.867,-14492.717,28531.455
953044.8425666823,-111060.47,-175463.75,-19430.42,-47928.67,-14278.483,-56792.89,-14500.8955,28544.312
953044.8465666779,-111062.055,-175469.33,-19434.814,-47928.996,-14287.964,-56791.098,-14508.22,28523.275
953044.8505666736,-111047.61,-175456.92,-19432.617,-47917.766,-14279.745,-56779.258,-14508.22,28491.375
953044.8545666692,-111045.9,-175449.06,-19436.482,-47911.418,-14267.172,-56775.11,-14499.39,28500.123
953044.8585666647,-111053.06,-175452.44,-19429.973,-47912.355,-14265.056,-56778.2,-14494.426,28526.328
953044.8625666604,-111063.805,-175465.5,-19428.996,-47922.69,-14271.078,-56788.008,-14500.163,28539.348
953044.866566656,-111064.82,-175469.0,-19434.652,-47924.766,-14284.506,-56786.785,-14511.027,28515.178
953044.8705666517,-111053.836,-175449.39,-19430.828,-47915.164,-14281.088,-56775.92,-14514.853,28482.139
953044.8745666473,-111058.31,-175447.97,-19430.705,-47909.1,-14275.798,-56775.555,-14508.952,28497.723
953044.878566643,-111063.48,-175454.47,-19428.834,-47910.89,-14273.479,-56779.176,-14497.885,28536.418
953044.8825666386,-111074.38,-175460.78,-19429.729,-47920.695,-14280.518,-56788.008,-14500.773,28545.898
953044.8865666343,-111080.28,-175458.45,-19433.27,-47921.918,-14289.917,-56786.258,-14508.545,28524.13
953044.8905666299,-111055.95,-175447.97,-19440.715,-47914.43,-14289.307,-56773.074,-14506.714,28488.73
953044.8945666256,-111045.375,-175438.0,-19433.229,-47906.17,-14270.386,-56767.742,-14494.385,28492.555
953044.8985666212,-111051.555,-175448.45,-19431.396,-47907.35,-14268.066,-56777.305,-14489.868,28526.49
953044.9025666169,-111065.76,-175464.77,-19426.922,-47918.906,-14271.892,-56789.594,-14498.21,28538.535
953044.9065666125,-111067.06,-175464.23,-19427.246,-47920.82,-14283.8955,-56790.938,-14512.289,28513.754
953044.9105666082,-111050.74,-175451.7,-19434.041,-47909.59,-14291.423,-56778.04,-14515.015,28486.084
953044.9145666038,-111038.25,-175443.4,-19428.996,-47896.324,-14285.522,-56769.453,-14502.441,28496.46
953044.9185665995,-111036.336,-175445.77,-19427.246,-47898.316,-14279.338,-56772.91,-14493.246,28528.402
953044.922566595,-111050.945,-175456.3,-19439.373,-47911.215,-14290.487,-56780.844,-14495.769,28541.504
953044.9265665907,-111059.05,-175457.33,-19441.773,-47912.883,-14290.283,-56780.07,-14506.104,28515.951
953044.9305665863,-111050.46,-175445.61,-19433.473,-47900.758,-14284.262,-56769.004,-14510.173,28496.582
953044.934566582,-111046.96,-175441.7,-19431.316,-47893.84,-14274.536,-56766.195,-14502.971,28500.45
953044.9385665776,-111051.4,-175440.97,-19425.252,-47896.2,-14263.957,-56770.02,-14495.402,28528.158
953044.9425665733,-111061.445,-175451.62,-19429.322,-47906.78,-14273.112,-56780.355,-14499.023,28542.848
953044.9465665689,-111060.96,-175451.17,-19432.74,-47907.51,-14281.576,-56777.223,-14505.005,28519.654
953044.9505665646,-111046.555,-175440.97,-19420.574,-47900.96,-14280.478,-56767.863,-14507.8125,28488.281
953044.9545665602,-111037.07,-175435.84,-19414.227,-47892.906,-14277.141,-56761.72,-14497.559,28498.984
953044.9585665559,-111042.93,-175439.17,-19419.637,-47892.742,-14267.863,-56767.09,-14487.387,28531.617
953044.9625665515,-111049.52,-175454.52,-19418.945,-47906.008,-14283.163,-56780.07,-14495.361,28551.799
953044.9665665472,-111048.1,-175455.4,-19413.941,-47907.023,-14279.826,-56776.574,-14505.168,28538.982
953044.9705665428,-111042.73,-175449.67,-19423.707,-47902.1,-14277.832,-56769.168,-14510.539,28494.752
953044.9745665385,-111038.375,-175440.92,-19425.049,-47894.125,-14270.874,-56764.527,-14499.268,28502.85
953044.9785665341,-111043.99,-175443.36,-19417.562,-47894.777,-14276.408,-56771.69,-14492.839,28535.523
953044.9825665298,-111052.21,-175446.73,-19418.783,-47903.85,-14277.832,-56780.64,-14495.321,28554.77
953044.9865665254,-111053.43,-175438.03,-19418.336,-47901.57,-14275.676,-56775.35,-14499.797,28533.855
953044.990566521,-111039.48,-175428.55,-19421.387,-47892.336,-14266.398,-56763.145,-14503.134,28496.135
953044.9945665166,-111031.5,-175425.55,-19428.143,-47884.2,-14259.888,-56758.098,-14495.728,28495.24
953044.9985665123,-111038.375,-175432.1,-19419.719,-47886.8,-14259.726,-56763.39,-14490.438,28526.043
953045.0025665079,-111048.55,-175446.83,-19416.504,-47897.87,-14275.676,-56776.33,-14497.763,28542.115
953045.0065665036,-111049.195,-175450.4,-19421.143,-47904.707,-14281.291,-56776.207,-14509.399,28520.428
953045.0105664992,-111038.086,-175437.27,-19422.771,-47897.098,-14272.217,-56764.49,-14510.946,28497.234
953045.0145664949,-111030.03,-175427.83,-19426.96,-47891.074,-14266.846,-56759.727,-14500.163,28506.674
953045.0185664905,-111033.57,-175426.19,-19418.986,-47890.79,-14269.45,-56761.64,-14489.99,28534.059
953045.0225664862,-111047.61,-175435.67,-19422.934,-47901.207,-14276.001,-56771.973,-14495.483,28545.33
953045.0265664818,-111044.36,-175436.08,-19422.078,-47902.47,-14274.658,-56769.656,-14505.615,28524.293
953045.0305664774,-111033.29,-175431.08,-19423.584,-47896.04,-14269.775,-56760.62,-14505.697,28496.787
953045.0345664731,-111043.5,-175447.27,-19421.102,-47899.008,-14269.084,-56759.2,-14498.169,28505.168
953045.0385664687,-111057.54,-175454.55,-19424.52,-47901.9,-14272.868,-56763.43,-14492.229,28536.541
953045.0425664644,-111061.73,-175439.7,-19435.303,-47909.793,-14275.351,-56777.508,-14497.314,28553.59
953045.04656646,-111058.64,-175432.7,-19434.855,-47910.44,-14275.146,-56772.992,-14506.958,28528.281
953045.0505664557,-111046.19,-175422.28,-19432.617,-47899.457,-14262.736,-56758.18,-14509.644,28498.658
953045.0545664512,-111044.805,-175416.88,-19421.102,-47891.6,-14253.093,-56753.99,-14501.303,28505.82
953045.0585664469,-111054.24,-175422.2,-19420.29,-47895.266,-14259.929,-56761.64,-14496.298,28532.064
953045.0625664425,-111064.91,-175429.81,-19428.264,-47907.35,-14267.253,-56773.723,-14501.221,28545.898
953045.0665664382,-111066.41,-175428.23,-19431.438,-47909.426,-14268.066,-56771.04,-14507.162,28520.713
953045.0705664338,-111055.95,-175426.89,-19443.604,-47906.17,-14272.339,-56760.297,-14512.817,28483.604
953045.0745664295,-111048.71,-175426.03,-19442.383,-47902.63,-14269.084,-56755.453,-14504.11,28485.678
953045.0785664251,-111051.11,-175426.19,-19428.264,-47902.914,-14266.276,-56762.047,-14498.21,28525.229
953045.0825664208,-111065.516,-175443.08,-19427.938,-47913.86,-14262.004,-56775.39,-14504.802,28539.47
953045.0865664164,-111068.81,-175435.84,-19425.904,-47915.164,-14263.266,-56774.78,-14510.986,28518.922
953045.0905664121,-111052.125,-175416.39,-19422.771,-47904.094,-14258.708,-56763.184,-14510.62,28498.984
953045.0945664077,-111043.664,-175411.27,-19415.527,-47897.016,-14250.529,-56759.035,-14502.482,28506.918
953045.0985664034,-111053.8,-175414.11,-19414.47,-47893.883,-14237.631,-56760.01,-14491.415,28531.129
953045.102566399,-111058.39,-175425.5,-19423.666,-47903.77,-14243.693,-56765.504,-14490.967,28542.521
953045.1065663947,-111058.48,-175423.47,-19431.64,-47909.465,-14253.825,-56764.65,-14501.221,28516.154
953045.1105663903,-111047.61,-175419.03,-19434.773,-47905.152,-14254.3545,-56755.78,-14503.703,28491.049
953045.114566386,-111042.73,-175416.83,-19437.053,-47900.516,-14251.343,-56750.33,-14493.652,28505.982
953045.1185663815,-111048.42,-175413.25,-19432.129,-47900.188,-14255.005,-56754.6,-14486.532,28536.418
953045.1225663772,-111069.7,-175436.05,-19432.902,-47914.836,-14257.446,-56770.43,-14493.979,28552.043
953045.1265663728,-111067.8,-175435.39,-19432.617,-47915.49,-14262.248,-56767.336,-14501.669,28529.297
953045.1305663685,-111049.08,-175411.42,-19426.799,-47904.094,-14268.393,-56751.953,-14500.407,28501.953
953045.1345663641,-111044.03,-175403.16,-19429.078,-47896.688,-14273.56,-56747.64,-14490.723,28505.371
953045.1385663598,-111055.22,-175411.83,-19429.402,-47896.973,-14269.043,-56750.938,-14484.335,28525.31
953045.1425663554,-111074.42,-175431.69,-19441.814,-47912.926,-14276.9375,-56765.707,-14495.524,28536.012
953045.1465663511,-111077.766,-175441.17,-19443.115,-47916.3,-14276.693,-56764.773,-14505.697,28515.098
953045.1505663467,-111064.09,-175435.55,-19439.576,-47904.297,-14273.56,-56753.215,-14507.731,28490.113
953045.1545663424,-111055.95,-175430.34,-19430.623,-47895.43,-14255.534,-56750.45,-14499.1455,28494.955
953045.158566338,-111059.45,-175435.14,-19427.531,-47897.87,-14256.267,-56755.656,-14489.177,28527.629
953045.1625663337,-111077.72,-175452.36,-19435.67,-47917.848,-14269.287,-56770.387,-14499.064,28534.994
953045.1665663293,-111082.69,-175450.86,-19441.365,-47920.98,-14269.328,-56769.492,-14515.381,28506.389
953045.170566325,-111077.805,-175440.11,-19448.61,-47911.906,-14267.944,-56756.43,-14519.125,28475.709
953045.1745663206,-111068.56,-175429.58,-19448.324,-47900.27,-14255.941,-56748.21,-14507.08,28487.346
953045.1785663163,-111067.67,-175425.3,-19438.64,-47899.824,-14253.134,-56753.418,-14499.431,28515.219
953045.1825663119,-111066.94,-175440.31,-19442.627,-47913.29,-14257.365,-56766.81,-14505.615,28526.531
953045.1865663074,-111060.67,-175438.69,-19448.812,-47911.95,-14264.7705,-56764.406,-14509.44,28502.93
953045.1905663031,-111045.375,-175424.77,-19439.129,-47900.35,-14259.074,-56747.805,-14507.935,28483.398
953045.1945662987,-111037.68,-175418.88,-19432.414,-47896.08,-14249.634,-56744.836,-14497.925,28496.014
953045.1985662944,-111046.76,-175424.69,-19434.041,-47901.855,-14240.479,-56752.77,-14487.265,28529.338
953045.20256629,-111059.66,-175438.11,-19435.467,-47911.055,-14249.431,-56762.574,-14492.27,28541.79
953045.2065662857,-111059.21,-175438.48,-19443.848,-47915.69,-14255.859,-56762.656,-14500.61,28514.283
953045.2105662813,-111047.94,-175425.5,-19440.553,-47906.25,-14248.901,-56748.617,-14499.553,28495.81
953045.214566277,-111039.48,-175412.03,-19436.932,-47895.266,-14236.816,-56740.805,-14490.805,28503.215
953045.2185662726,-111042.484,-175411.38,-19439.129,-47898.805,-14243.408,-56745.605,-14483.317,28530.234
953045.2225662683,-111058.44,-175435.84,-19443.441,-47914.88,-14260.01,-56756.88,-14494.548,28542.645
953045.2265662639,-111059.62,-175439.62,-19445.354,-47917.81,-14270.102,-56757.164,-14505.453,28517.66
953045.2305662596,-111058.96,-175427.94,-19434.53,-47910.77,-14266.113,-56747.684,-14503.215,28494.223
953045.2345662552,-111058.03,-175426.03,-19429.973,-47907.797,-14254.558,-56745.117,-14498.657,28501.953
953045.2385662509,-111053.02,-175433.72,-19430.705,-47909.668,-14250.814,-56750.207,-14491.008,28530.926
953045.2425662465,-111067.95,-175452.77,-19432.414,-47924.277,-14255.615,-56764.49,-14497.274,28546.428
953045.2465662422,-111073.98,-175452.69,-19438.273,-47929.04,-14259.685,-56762.98,-14506.145,28522.46
953045.2505662377,-111063.12,-175438.97,-19439.82,-47918.336,-14259.074,-56750.164,-14509.033,28488.404
953045.2545662334,-111052.29,-175433.16,-19437.135,-47907.473,-14251.303,-56745.445,-14501.913,28500.082
953045.258566229,-111057.54,-175437.47,-19437.256,-47909.914,-14254.436,-56753.297,-14497.519,28525.473
953045.2625662247,-111073.086,-175453.98,-19435.262,-47928.754,-14268.637,-56770.67,-14503.215,28542.645
953045.2665662203,-111072.43,-175452.39,-19435.588,-47928.387,-14269.735,-56766.24,-14508.464,28519.572
953045.270566216,-111065.11,-175441.17,-19439.168,-47920.574,-14270.508,-56757.082,-14510.905,28486.004
953045.2745662116,-111060.266,-175437.3,-19430.99,-47911.62,-14275.146,-56753.094,-14501.343,28493.37
953045.2785662073,-111065.43,-175441.81,-19435.385,-47913.984,-14271.973,-56760.906,-14495.077,28527.955
953045.2825662029,-111074.38,-175453.62,-19440.35,-47928.836,-14273.845,-56774.254,-14502.441,28540.732
953045.2865661986,-111066.25,-175450.08,-19438.885,-47929.242,-14274.577,-56767.418,-14506.999,28520.387
953045.2905661942,-111056.84,-175433.31,-19440.674,-47915.895,-14267.782,-56752.08,-14506.592,28493.328
953045.2945661899,-111052.125,-175433.23,-19441.203,-47910.28,-14264.608,-56751.26,-14499.716,28495.646
953045.2985661855,-111058.11,-175437.62,-19438.477,-47918.457,-14263.998,-56760.867,-14499.472,28514.934
953045.3025661812,-111078.54,-175456.02,-19444.418,-47928.875,-14270.793,-56774.133,-14506.47,28528.361
953045.3065661768,-111061.89,-175451.38,-19441.895,-47928.426,-14276.815,-56767.336,-14509.97,28512.492
953045.3105661725,-111045.01,-175428.06,-19434.57,-47916.914,-14269.857,-56750.45,-14508.139,28491.008
953045.314566168,-111042.69,-175421.19,-19434.164,-47907.715,-14256.104,-56749.92,-14498.861,28496.014
953045.3185661637,-111050.984,-175426.92,-19437.867,-47908.855,-14255.615,-56756.023,-14489.746,28534.668
953045.3225661593,-111070.07,-175441.53,-19431.193,-47923.668,-14265.219,-56768.516,-14492.676,28557.21
953045.326566155,-111072.555,-175443.69,-19434.57,-47928.348,-14276.978,-56770.508,-14504.761,28527.752
953045.3305661506,-111061.04,-175428.44,-19439.25,-47916.992,-14272.177,-56758.465,-14507.731,28496.46
953045.3345661463,-111051.64,-175422.05,-19433.064,-47908.164,-14260.417,-56752.08,-14499.064,28505.006
953045.3385661419,-111052.125,-175425.42,-19434.979,-47911.62,-14263.184,-56757.12,-14492.758,28527.752
953045.3425661376,-111065.96,-175439.45,-19441.162,-47926.598,-14277.06,-56767.785,-14501.628,28531.25
953045.3465661332,-111066.33,-175440.56,-19441.57,-47927.168,-14281.982,-56768.23,-14513.306,28504.15
953045.3505661289,-111053.555,-175429.45,-19448.73,-47919.477,-14270.59,-56757.367,-14516.562,28479.656
953045.3545661245,-111051.07,-175427.17,-19442.912,-47914.145,-14265.544,-56757.812,-14511.76,28488.73
953045.3585661202,-111060.43,-175434.66,-19435.059,-47916.06,-14265.056,-56764.812,-14501.425,28519.043
953045.3625661158,-111082.445,-175449.88,-19445.924,-47932.7,-14273.4375,-56779.785,-14509.929,28528.932
953045.3665661115,-111080.81,-175443.66,-19454.346,-47932.496,-14274.17,-56771.566,-14515.585,28507.203
953045.3705661071,-111060.14,-175430.83,-19451.58,-47921.023,-14264.689,-56752.89,-14511.149,28476.523
953045.3745661027,-111055.51,-175429.48,-19447.225,-47916.707,-14255.249,-56753.34,-14505.087,28480.918
953045.3785660984,-111069.5,-175436.66,-19442.791,-47922.812,-14243.246,-56763.184,-14501.994,28507.812
953045.3825660939,-111077.84,-175455.25,-19442.791,-47935.832,-14258.423,-56775.96,-14510.458,28521.852
953045.3865660896,-111067.8,-175459.64,-19445.068,-47938.07,-14266.5205,-56775.066,-14520.02,28503.744
953045.3905660852,-111052.734,-175446.78,-19443.035,-47926.598,-14264.812,-56762.414,-14522.746,28474.365
953045.3945660809,-111044.11,-175437.83,-19434.734,-47920.574,-14257.08,-56757.652,-14515.625,28485.23
953045.3985660765,-111057.375,-175440.36,-19439.982,-47926.637,-14257.568,-56765.75,-14512.167,28510.947
953045.4025660722,-111076.5,-175455.08,-19447.918,-47938.723,-14268.962,-56777.47,-14518.677,28516.236
953045.4065660678,-111076.22,-175453.22,-19451.295,-47936.81,-14274.252,-56775.8,-14525.065,28497.438
953045.4105660635,-111071.21,-175447.97,-19459.596,-47930.22,-14269.897,-56769.25,-14531.494,28471.152
953045.4145660591,-111061.12,-175447.52,-19455.404,-47926.473,-14264.567,-56765.42,-14524.089,28477.783
953045.4185660548,-111061.77,-175448.86,-19450.318,-47928.02,-14262.085,-56769.613,-14515.259,28514.527
953045.4225660504,-111076.91,-175455.69,-19455.648,-47941.45,-14269.694,-56781.09,-14518.84,28529.826
953045.4265660461,-111079.266,-175451.98,-19462.443,-47946.414,-14281.779,-56780.684,-14529.663,28495.322
953045.4305660417,-111066.41,-175443.05,-19466.512,-47939.293,-14282.064,-56773.438,-14533.569,28465.293
953045.4345660374,-111063.16,-175438.84,-19461.955,-47933.105,-14280.233,-56768.883,-14523.193,28482.016
953045.438566033,-111070.805,-175440.72,-19454.998,-47933.516,-14277.304,-56775.27,-14514.242,28516.398
953045.4425660287,-111092.414,-175455.81,-19462.566,-47945.883,-14285.034,-56791.06,-14522.665,28525.473
953045.4465660242,-111085.695,-175455.94,-19464.396,-47947.676,-14290.365,-56788.047,-14533.285,28503.826
953045.4505660199,-111070.64,-175439.98,-19460.816,-47937.543,-14288.29,-56773.03,-14534.953,28473.268
953045.4545660155,-111065.43,-175434.61,-19462.322,-47929.16,-14274.78,-56766.6,-14527.344,28482.83
953045.4585660112,-111067.43,-175442.34,-19460.734,-47932.54,-14270.386,-56772.34,-14518.474,28507.936
953045.4625660068,-111083.09,-175461.19,-19457.723,-47945.312,-14275.146,-56784.914,-14522.909,28510.05
953045.4665660025,-111088.305,-175467.45,-19456.178,-47950.36,-14268.637,-56785.44,-14533.8955,28489.137
953045.4705659981,-111079.43,-175458.7,-19458.496,-47943.484,-14262.207,-56775.598,-14538.737,28464.193
953045.4745659938,-111075.52,-175449.06,-19451.54,-47936.363,-14257.609,-56773.4,-14529.948,28472.209
953045.4785659894,-111081.38,-175455.61,-19451.092,-47936.035,-14258.423,-56777.508,-14517.456,28511.068
953045.4825659851,-111095.625,-175467.61,-19455.037,-47948.652,-14268.107,-56788.78,-14521.525,28530.844
953045.4865659807,-111102.79,-175469.45,-19459.066,-47952.56,-14277.182,-56785.035,-14530.478,28504.965
953045.4905659764,-111081.34,-175459.69,-19464.52,-47942.14,-14272.746,-56767.133,-14530.925,28471.965
953045.494565972,-111076.5,-175456.8,-19462.037,-47935.59,-14262.899,-56766.48,-14525.1875,28482.219
953045.4985659677,-111084.44,-175461.8,-19464.64,-47937.543,-14263.55,-56772.87,-14516.032,28516.44
953045.5025659633,-111104.74,-175480.11,-19470.662,-47952.92,-14285.197,-56785.44,-14520.508,28534.668
953045.506565959,-111100.1,-175480.52,-19462.2,-47953.98,-14289.999,-56784.508,-14529.785,28506.756
953045.5105659546,-111088.75,-175466.23,-19458.781,-47943.074,-14284.058,-56774.336,-14531.942,28476.482
953045.5145659501,-111079.67,-175454.88,-19455.934,-47934.33,-14278.198,-56767.05,-14522.421,28485.271
953045.5185659458,-111082.56,-175454.97,-19448.162,-47935.63,-14275.92,-56771.895,-14516.562,28513.062
953045.5225659414,-111094.08,-175465.75,-19449.139,-47946.74,-14277.954,-56784.223,-14529.623,28521.852
953045.5265659371,-111095.38,-175467.61,-19457.684,-47948.69,-14281.82,-56784.18,-14542.807,28493.287
953045.5305659327,-111083.78,-175459.23,-19456.666,-47940.43,-14282.878,-56774.293,-14543.132,28463.584
953045.5345659284,-111072.72,-175447.39,-19447.754,-47929.363,-14276.896,-56767.863,-14532.715,28478.76
953045.538565924,-111074.71,-175447.97,-19444.621,-47926.598,-14270.874,-56772.22,-14524.862,28511.924
953045.5425659197,-111085.086,-175465.3,-19443.93,-47939.7,-14275.879,-56781.58,-14530.192,28522.178
953045.5465659153,-111092.82,-175472.38,-19448.162,-47943.605,-14282.309,-56778.89,-14541.992,28490.44
953045.550565911,-111084.72,-175456.22,-19454.793,-47933.637,-14282.064,-56768.35,-14543.823,28462.322
953045.5545659066,-111070.516,-175445.52,-19455.037,-47923.83,-14271.362,-56764.367,-14533.977,28474.0
953045.5585659023,-111074.836,-175451.1,-19450.236,-47927.734,-14270.59,-56771.69,-14526.611,28503.256
953045.5625658979,-111092.9,-175468.75,-19449.91,-47939.453,-14283.325,-56784.832,-14528.646,28514.16
953045.5665658936,-111087.81,-175466.48,-19448.406,-47941.977,-14284.506,-56784.305,-14538.534,28492.31
953045.5705658892,-111068.89,-175450.69,-19451.213,-47929.973,-14276.001,-56773.645,-14543.132,28463.584
953045.5745658849,-111063.766,-175446.02,-19451.375,-47921.67,-14268.677,-56767.863,-14538.005,28474.732
953045.5785658804,-111067.55,-175449.27,-19443.807,-47922.812,-14263.794,-56768.395,-14527.629,28510.865
953045.5825658761,-111084.48,-175465.9,-19445.924,-47937.582,-14270.996,-56783.855,-14529.013,28525.025
953045.5865658717,-111089.195,-175466.06,-19447.389,-47937.01,-14279.745,-56785.08,-14541.545,28498.861
953045.5905658674,-111073.086,-175449.8,-19453.533,-47922.527,-14273.356,-56773.723,-14541.87,28475.709
953045.594565863,-111061.08,-175435.27,-19447.104,-47914.836,-14261.394,-56768.273,-14529.094,28488.607
953045.5985658587,-111059.125,-175434.61,-19439.697,-47918.17,-14257.487,-56773.156,-14520.468,28520.957
953045.6025658543,-111071.45,-175445.48,-19447.674,-47932.496,-14270.712,-56785.727,-14530.355,28530.273
953045.60656585,-111072.76,-175444.27,-19452.352,-47931.355,-14274.984,-56779.22,-14537.517,28498.943
953045.6105658456,-111069.38,-175439.25,-19458.172,-47924.24,-14279.582,-56771.895,-14542.277,28464.111
953045.6145658413,-111064.09,-175429.38,-19455.16,-47916.016,-14271.606,-56770.47,-14534.668,28481.895
953045.6185658369,-111060.39,-175433.92,-19445.598,-47917.48,-14275.1875,-56775.8,-14525.757,28519.775
953045.6225658326,-111075.16,-175449.62,-19445.15,-47932.58,-14286.784,-56787.805,-14526.733,28535.4
953045.6265658282,-111077.03,-175453.3,-19451.092,-47936.85,-14287.395,-56785.93,-14534.262,28514.404
953045.6305658239,-111067.14,-175444.55,-19451.904,-47926.96,-14273.275,-56770.67,-14534.384,28483.48
953045.6345658195,-111059.125,-175439.5,-19453.41,-47916.504,-14265.788,-56763.754,-14524.496,28492.31
953045.6385658152,-111055.95,-175436.05,-19452.027,-47912.03,-14271.322,-56765.22,-14517.09,28523.764
953045.6425658107,-111067.51,-175449.72,-19452.76,-47925.984,-14276.611,-56779.297,-14522.177,28543.254
953045.6465658064,-111070.4,-175450.69,-19455.201,-47930.137,-14279.135,-56780.234,-14527.792,28527.914
953045.650565802,-111059.86,-175438.08,-19452.393,-47923.42,-14277.832,-56770.55,-14534.587,28494.67
953045.6545657977,-111051.72,-175426.44,-19448.895,-47917.156,-14267.538,-56766.6,-14527.1,28499.92
953045.6585657933,-111056.97,-175430.7,-19448.895,-47918.5,-14264.364,-56769.37,-14518.596,28528.688
953045.662565789,-111070.195,-175446.1,-19448.568,-47926.92,-14276.978,-56776.816,-14525.879,28536.256
953045.6665657846,-111072.35,-175447.23,-19454.143,-47931.152,-14279.623,-56778.566,-14540.121,28501.465
953045.6705657803,-111062.5,-175436.12,-19454.834,-47921.59,-14267.619,-56769.004,-14541.301,28476.807
953045.6745657759,-111053.71,-175431.36,-19449.422,-47910.36,-14257.365,-56765.465,-14529.419,28495.81
953045.6785657716,-111050.26,-175427.38,-19445.883,-47909.426,-14256.226,-56767.215,-14516.195,28537.477
953045.6825657672,-111065.96,-175441.66,-19443.318,-47923.34,-14266.439,-56777.59,-14519.409,28552.166
953045.6865657629,-111069.83,-175442.22,-19451.213,-47928.914,-14275.513,-56777.184,-14530.111,28517.334
953045.6905657585,-111056.16,-175433.72,-19460.734,-47922.203,-14279.663,-56765.383,-14535.971,28479.33
953045.6945657542,-111052.33,-175430.14,-19454.184,-47914.145,-14279.094,-56760.176,-14527.67,28494.834
953045.6985657498,-111059.62,-175433.44,-19446.98,-47915.938,-14278.931,-56766.4,-14523.153,28529.623
953045.7025657455,-111077.44,-175449.19,-19448.406,-47928.062,-14286.052,-56780.234,-14532.675,28540.162
953045.7065657411,-111077.48,-175451.62,-19453.125,-47931.684,-14289.673,-56784.508,-14544.434,28514.568
953045.7105657366,-111059.695,-175441.81,-19458.09,-47922.242,-14272.99,-56771.445,-14545.37,28485.475
953045.7145657323,-111054.0,-175438.61,-19459.92,-47914.715,-14267.334,-56765.504,-14537.109,28492.799
953045.7185657279,-111069.09,-175445.11,-19451.66,-47919.637,-14271.851,-56769.453,-14529.704,28524.455
953045.7225657236,-111081.914,-175463.42,-19439.576,-47931.805,-14284.384,-56777.71,-14535.116,28534.262
953045.7265657192,-111084.11,-175462.2,-19449.219,-47935.47,-14291.22,-56780.07,-14546.062,28502.85
953045.7305657149,-111067.18,-175446.86,-19450.154,-47925.54,-14270.793,-56767.703,-14543.945,28479.98
953045.7345657105,-111061.77,-175441.98,-19444.012,-47917.117,-14270.63,-56765.098,-14534.099,28497.479
953045.7385657062,-111073.37,-175455.17,-19441.61,-47918.945,-14278.605,-56772.3,-14526.408,28529.094
953045.7425657018,-111078.66,-175470.88,-19448.445,-47933.72,-14286.418,-56784.06,-14532.878,28536.703
953045.7465656975,-111073.53,-175459.97,-19452.678,-47935.957,-14294.434,-56779.625,-14546.347,28508.057
953045.7505656931,-111069.42,-175444.9,-19461.71,-47930.83,-14296.347,-56768.477,-14553.061,28478.72
953045.7545656888,-111066.82,-175432.3,-19457.846,-47921.754,-14293.742,-56765.22,-14543.945,28488.201
953045.7585656844,-111060.23,-175433.89,-19443.318,-47917.117,-14294.067,-56766.44,-14528.809,28520.59
953045.7625656801,-111067.63,-175448.2,-19436.523,-47927.125,-14304.892,-56777.387,-14531.372,28535.482
953045.7665656757,-111061.57,-175441.12,-19437.094,-47926.758,-14300.049,-56772.543,-14536.174,28518.922
953045.7705656714,-111039.48,-175424.0,-19447.348,-47915.73,-14285.971,-56756.023,-14531.738,28494.223
953045.7745656669,-111028.445,-175422.05,-19442.506,-47908.367,-14266.765,-56751.67,-14523.764,28498.129
953045.7785656626,-111031.78,-175427.2,-19434.082,-47907.715,-14258.22,-56757.203,-14519.287,28529.217
953045.7825656582,-111048.99,-175440.92,-19437.744,-47920.125,-14266.602,-56769.86,-14527.629,28535.809
953045.7865656539,-111049.69,-175439.62,-19446.9,-47922.324,-14268.352,-56765.91,-14535.441,28505.982
953045.7905656495,-111042.65,-175428.31,-19448.121,-47914.96,-14270.712,-56755.453,-14538.818,28480.674
953045.7945656452,-111038.7,-175423.19,-19444.947,-47907.105,-14261.23,-56749.023,-14525.351,28503.582
953045.7985656408,-111045.66,-175425.05,-19436.482,-47910.035,-14257.162,-56755.414,-14516.887,28533.773
953045.8025656365,-111064.78,-175442.27,-19434.896,-47924.97,-14267.334,-56770.957,-14525.717,28541.504
953045.8065656321,-111057.46,-175443.0,-19437.988,-47929.973,-14267.172,-56770.184,-14535.93,28519.37
953045.8105656278,-111042.04,-175428.67,-19432.414,-47922.65,-14254.232,-56758.508,-14533.163,28490.195
953045.8145656234,-111036.18,-175419.39,-19424.52,-47912.965,-14243.979,-56750.246,-14521.037,28504.6
953045.8185656191,-111037.84,-175421.8,-19430.828,-47909.508,-14241.984,-56749.27,-14508.342,28538.941
953045.8225656147,-111063.4,-175444.1,-19442.139,-47924.277,-14251.465,-56762.574,-14517.863,28547.363
953045.8265656104,-111069.09,-175443.0,-19451.336,-47933.758,-14263.266,-56764.977,-14531.616,28512.29
953045.830565606,-111053.23,-175427.25,-19455.242,-47922.324,-14260.824,-56754.438,-14532.634,28490.643
953045.8345656017,-111044.11,-175412.64,-19446.086,-47912.52,-14249.878,-56748.58,-14520.712,28504.111
953045.8385655972,-111047.81,-175416.62,-19443.686,-47914.594,-14248.942,-56756.43,-14516.317,28532.268
953045.8425655928,-111054.734,-175426.03,-19440.064,-47924.887,-14256.552,-56770.266,-14524.333,28546.875
953045.8465655885,-111048.875,-175420.33,-19437.215,-47925.945,-14260.742,-56762.777,-14529.867,28529.379
953045.8505655841,-111037.03,-175409.8,-19439.168,-47915.61,-14262.614,-56750.613,-14529.826,28500.814
953045.8545655798,-111032.96,-175411.8,-19431.64,-47909.26,-14250.122,-56749.92,-14525.31,28508.586
953045.8585655754,-111038.78,-175419.69,-19438.559,-47913.168,-14243.9375,-56759.117,-14521.322,28534.709
953045.8625655711,-111054.0,-175425.67,-19444.947,-47926.066,-14254.883,-56773.684,-14526.9375,28537.965
953045.8665655667,-111054.77,-175429.58,-19442.75,-47930.504,-14266.154,-56770.875,-14534.14,28512.9
953045.8705655624,-111041.586,-175418.3,-19446.453,-47918.66,-14258.586,-56756.758,-14535.116,28481.201
953045.874565558,-111039.48,-175408.5,-19441.406,-47909.914,-14250.326,-56750.367,-14529.175,28491.252
953045.8785655537,-111051.03,-175412.4,-19434.773,-47908.773,-14248.901,-56755.293,-14520.549,28530.314
953045.8825655493,-111060.06,-175423.14,-19438.436,-47924.848,-14259.604,-56769.453,-14526.815,28543.01
953045.886565545,-111054.445,-175426.08,-19434.652,-47929.484,-14265.341,-56768.273,-14537.639,28521.363
953045.8905655406,-111042.16,-175417.61,-19432.414,-47919.355,-14259.399,-56755.09,-14540.039,28494.549
953045.8945655363,-111033.086,-175412.48,-19429.566,-47914.062,-14253.012,-56751.914,-14531.25,28494.752
953045.8985655319,-111039.88,-175422.73,-19433.35,-47918.17,-14252.319,-56757.203,-14522.38,28522.38
953045.9025655276,-111051.555,-175434.81,-19445.15,-47931.4,-14264.893,-56768.19,-14525.717,28534.668
953045.9065655231,-111052.695,-175434.33,-19449.422,-47935.63,-14272.502,-56769.94,-14536.215,28511.271
953045.9105655188,-111046.39,-175428.11,-19449.707,-47927.53,-14271.322,-56760.094,-14538.168,28478.516
953045.9145655144,-111043.5,-175425.22,-19444.256,-47921.184,-14264.364,-56757.367,-14530.884,28494.385
953045.9185655101,-111048.305,-175431.03,-19439.373,-47925.58,-14267.009,-56765.75,-14526.164,28522.99
953045.9225655057,-111058.96,-175438.52,-19438.396,-47935.387,-14286.337,-56775.066,-14535.034,28530.885
953045.9265655014,-111055.55,-175438.28,-19441.57,-47935.508,-14287.842,-56772.586,-14546.347,28503.582
953045.930565497,-111041.586,-175424.53,-19452.678,-47922.566,-14273.275,-56755.617,-14545.939,28478.477
953045.9345654927,-111042.56,-175416.11,-19449.871,-47914.633,-14263.794,-56753.46,-14537.395,28489.055
953045.9385654883,-111036.91,-175420.1,-19438.191,-47917.727,-14262.451,-56762.656,-14529.989,28526.328
953045.942565484,-111046.63,-175430.9,-19433.92,-47930.79,-14265.219,-56776.246,-14536.418,28541.3
953045.9465654796,-111053.06,-175433.92,-19431.031,-47935.305,-14270.142,-56776.816,-14548.096,28518.516
953045.9505654753,-111039.92,-175422.78,-19440.877,-47928.062,-14269.003,-56763.47,-14545.939,28491.293
953045.9545654709,-111035.0,-175411.5,-19439.209,-47923.34,-14262.248,-56760.46,-14537.436,28494.102
953045.9585654666,-111039.15,-175415.73,-19435.303,-47925.336,-14257.162,-56763.797,-14530.559,28523.154
953045.9625654622,-111049.24,-175429.94,-19439.941,-47934.082,-14261.23,-56769.656,-14534.75,28540.812
953045.9665654579,-111055.34,-175431.08,-19443.523,-47937.055,-14270.956,-56769.98,-14542.399,28515.38
953045.9705654534,-111040.734,-175418.75,-19447.713,-47927.53,-14259.644,-56757.043,-14537.313,28493.572
953045.974565449,-111037.68,-175411.88,-19438.924,-47921.957,-14253.662,-56752.688,-14527.426,28504.273
953045.9785654447,-111043.79,-175415.98,-19430.746,-47922.895,-14250.041,-56761.438,-14522.095,28531.25
953045.9825654404,-111051.31,-175423.27,-19435.506,-47934.164,-14249.1455,-56773.562,-14527.751,28545.29
953045.986565436,-111048.14,-175425.88,-19434.002,-47935.26,-14256.592,-56768.84,-14535.849,28523.193
953045.9905654317,-111035.04,-175413.9,-19440.145,-47927.004,-14256.674,-56756.676,-14537.517,28491.984
953045.9945654273,-111039.88,-175415.0,-19442.953,-47923.75,-14254.599,-56755.74,-14529.175,28501.303
953045.998565423,-111036.46,-175416.42,-19437.947,-47926.312,-14254.3545,-56761.926,-14519.491,28533.367
953046.0025654186,-111047.41,-175423.06,-19435.832,-47936.65,-14259.318,-56771.406,-14521.525,28549.56
953046.0065654143,-111049.445,-175432.3,-19444.58,-47939.984,-14262.98,-56770.266,-14532.187,28526.938
953046.0105654099,-111037.766,-175419.08,-19442.465,-47928.223,-14255.819,-56759.484,-14537.313,28492.473
953046.0145654056,-111030.12,-175401.0,-19433.146,-47918.66,-14247.396,-56752.605,-14528.769,28497.885
953046.0185654012,-111031.414,-175406.42,-19428.752,-47921.715,-14261.923,-56756.227,-14523.153,28518.027
953046.0225653969,-111046.43,-175425.67,-19433.188,-47938.477,-14276.53,-56771.16,-14530.029,28528.77
953046.0265653925,-111051.4,-175430.5,-19442.994,-47941.938,-14276.896,-56771.28,-14542.236,28507.203
953046.0305653882,-111038.17,-175417.97,-19436.035,-47929.363,-14266.439,-56757.812,-14543.213,28484.62
953046.0345653838,-111025.64,-175408.5,-19431.52,-47919.68,-14243.815,-56754.844,-14534.75,28495.484
953046.0385653793,-111028.734,-175412.23,-19431.844,-47920.492,-14237.631,-56759.766,-14526.652,28531.455
953046.042565375,-111039.68,-175425.78,-19427.37,-47933.92,-14247.314,-56773.156,-14531.738,28543.701
953046.0465653706,-111043.945,-175428.72,-19433.105,-47938.113,-14250.326,-56771.08,-14542.644,28521.322
953046.0505653663,-111037.68,-175409.62,-19444.662,-47927.004,-14250.814,-56758.668,-14543.905,28490.52
953046.0545653619,-111021.2,-175394.38,-19439.535,-47919.72,-14250.163,-56752.402,-14534.546,28501.953
953046.0585653576,-111021.445,-175406.05,-19438.03,-47923.055,-14249.268,-56759.484,-14526.611,28533.691
953046.0625653532,-111040.29,-175423.22,-19441.0,-47939.984,-14255.087,-56776.086,-14532.1045,28541.424
953046.0665653489,-111049.805,-175426.6,-19448.527,-47949.87,-14263.428,-56779.625,-14547.079,28510.459
953046.0705653445,-111038.91,-175417.97,-19452.8,-47941.53,-14261.597,-56770.47,-14549.724,28478.68
953046.0745653402,-111036.95,-175413.66,-19452.068,-47935.26,-14260.458,-56763.348,-14541.87,28498.576
953046.0785653358,-111039.266,-175419.44,-19440.715,-47935.547,-14260.498,-56766.562,-14530.273,28534.832
953046.0825653315,-111045.74,-175433.03,-19438.924,-47946.617,-14269.003,-56773.36,-14531.901,28551.066
953046.0865653271,-111052.414,-175432.86,-19447.186,-47948.285,-14270.671,-56771.08,-14538.656,28523.275
953046.0905653228,-111044.36,-175424.23,-19448.568,-47936.973,-14268.107,-56761.8,-14543.742,28491.375
953046.0945653184,-111029.26,-175419.44,-19443.645,-47930.95,-14268.962,-56758.06,-14539.145,28500.896
953046.0985653141,-111029.83,-175419.48,-19440.35,-47934.938,-14263.754,-56765.016,-14531.047,28527.508
953046.1025653096,-111048.34,-175428.34,-19442.627,-47951.54,-14282.39,-56781.66,-14537.802,28541.912
953046.1065653053,-111057.78,-175428.52,-19454.549,-47960.938,-14283.081,-56783.33,-14552.734,28513.389
953046.1105653009,-111042.61,-175420.42,-19451.172,-47951.375,-14268.881,-56771.69,-14557.211,28479.574
953046.1145652966,-111035.93,-175413.9,-19445.436,-47942.06,-14261.557,-56768.312,-14552.653,28492.432
953046.1185652922,-111046.96,-175416.34,-19442.303,-47944.5,-14264.689,-56776.004,-14547.201,28525.066
953046.1225652879,-111065.11,-175434.4,-19437.42,-47958.906,-14280.478,-56790.04,-14555.624,28538.127
953046.1265652835,-111067.51,-175436.89,-19447.145,-47962.484,-14288.656,-56790.0,-14562.012,28511.191
953046.1305652792,-111053.266,-175421.84,-19455.607,-47950.156,-14286.296,-56775.027,-14560.425,28479.574
953046.1345652748,-111027.55,-175410.0,-19455.242,-47939.13,-14272.99,-56765.344,-14547.7295,28486.898
953046.1385652705,-111030.52,-175418.27,-19452.068,-47940.594,-14271.688,-56769.74,-14541.626,28509.074
953046.1425652661,-111048.055,-175435.02,-19457.275,-47953.453,-14271.811,-56781.863,-14550.619,28522.46
953046.1465652618,-111057.21,-175438.2,-19464.234,-47960.37,-14260.376,-56786.867,-14562.948,28494.67
953046.1505652574,-111046.19,-175429.73,-19462.078,-47948.812,-14251.018,-56773.438,-14561.442,28470.42
953046.1545652531,-111038.05,-175417.81,-19452.76,-47940.918,-14241.008,-56770.957,-14553.345,28473.959
953046.1585652487,-111044.97,-175418.06,-19441.895,-47943.645,-14246.46,-56780.805,-14547.812,28512.695
953046.1625652444,-111056.93,-175433.44,-19440.715,-47956.42,-14260.742,-56789.715,-14553.467,28528.973
953046.1665652399,-111049.93,-175430.3,-19442.18,-47953.125,-14266.317,-56785.117,-14559.204,28502.035
953046.1705652355,-111037.27,-175416.02,-19447.225,-47941.0,-14257.935,-56769.37,-14561.809,28473.064
953046.1745652312,-111041.266,-175417.16,-19454.102,-47939.902,-14253.215,-56767.01,-14560.222,28473.35
953046.1785652268,-111043.13,-175430.6,-19447.389,-47944.5,-14257.243,-56777.14,-14553.711,28494.508
953046.1825652225,-111057.26,-175450.81,-19447.998,-47960.164,-14265.503,-56790.164,-14558.879,28504.559
953046.1865652181,-111058.84,-175453.5,-19451.254,-47963.867,-14268.433,-56790.855,-14570.761,28479.656
953046.1905652138,-111051.68,-175433.92,-19449.3,-47953.777,-14267.863,-56779.83,-14571.899,28454.469
953046.1945652094,-111043.26,-175428.11,-19445.842,-47944.38,-14260.783,-56773.03,-14562.46,28468.75
953046.1985652051,-111048.22,-175435.23,-19432.74,-47947.023,-14258.871,-56777.71,-14552.002,28507.53
953046.2025652007,-111058.15,-175440.06,-19433.514,-47960.777,-14273.56,-56789.715,-14555.949,28521.201
953046.2065651964,-111055.51,-175435.06,-19444.947,-47963.664,-14276.815,-56784.832,-14560.1,28501.14
953046.210565192,-111040.98,-175426.19,-19450.318,-47953.453,-14264.689,-56769.86,-14555.746,28472.047
953046.2145651877,-111031.45,-175417.97,-19453.613,-47942.793,-14249.634,-56762.535,-14544.149,28487.59
953046.2185651833,-111040.61,-175426.19,-19447.021,-47943.035,-14256.714,-56769.9,-14538.696,28519.775
953046.222565179,-111061.2,-175444.42,-19445.72,-47958.863,-14277.832,-56786.01,-14547.7705,28528.89
953046.2265651746,-111053.63,-175447.03,-19453.613,-47963.38,-14296.55,-56787.19,-14557.333,28511.191
953046.2305651703,-111034.875,-175431.48,-19454.793,-47953.33,-14285.075,-56773.887,-14561.198,28484.13
953046.2345651658,-111031.414,-175422.61,-19453.98,-47947.062,-14272.136,-56770.227,-14558.269,28491.293
953046.2385651615,-111043.055,-175432.58,-19453.37,-47953.207,-14269.775,-56777.387,-14550.619,28521.12
953046.2425651571,-111058.31,-175450.28,-19448.486,-47968.02,-14279.785,-56789.633,-14554.77,28528.037
953046.2465651528,-111056.805,-175444.22,-19448.08,-47968.465,-14278.728,-56783.816,-14559.204,28511.924
953046.2505651484,-111046.92,-175430.75,-19455.12,-47960.37,-14277.629,-56771.69,-14560.141,28485.475
953046.2545651441,-111042.97,-175430.83,-19455.648,-47955.69,-14278.524,-56768.066,-14554.729,28489.666
953046.2585651397,-111051.48,-175438.77,-19450.969,-47954.59,-14269.735,-56774.133,-14549.438,28517.986
953046.2625651354,-111066.53,-175453.12,-19457.846,-47963.42,-14273.601,-56785.727,-14554.159,28528.281
953046.266565131,-111061.73,-175450.08,-19463.543,-47966.35,-14287.517,-56783.0,-14562.216,28500.896
953046.2705651267,-111048.14,-175439.22,-19460.896,-47958.824,-14282.675,-56772.18,-14562.134,28476.768
953046.2745651223,-111044.36,-175436.53,-19460.37,-47952.11,-14285.6045,-56772.42,-14555.746,28484.742
953046.278565118,-111055.055,-175439.58,-19454.428,-47953.453,-14282.023,-56780.03,-14551.962,28514.201
953046.2825651136,-111062.7,-175448.9,-19456.584,-47967.57,-14288.981,-56792.48,-14559.164,28523.316
953046.2865651093,-111061.12,-175438.28,-19461.02,-47967.164,-14293.742,-56785.08,-14563.64,28492.148
953046.2905651049,-111053.67,-175426.08,-19466.432,-47954.793,-14286.947,-56771.61,-14564.738,28464.64
953046.2945651006,-111046.516,-175422.12,-19462.646,-47945.926,-14278.239,-56770.184,-14558.96,28475.668
953046.2985650961,-111049.28,-175429.73,-19454.469,-47946.535,-14284.628,-56776.574,-14551.677,28504.72
953046.3025650918,-111069.99,-175449.8,-19463.543,-47960.98,-14287.069,-56791.586,-14558.146,28515.79
953046.3065650874,-111073.734,-175453.45,-19482.178,-47964.52,-14284.384,-56791.75,-14567.343,28489.258
953046.310565083,-111056.195,-175434.86,-19475.586,-47951.133,-14276.083,-56777.184,-14570.068,28462.037
953046.3145650787,-111050.984,-175424.94,-19463.176,-47942.547,-14269.247,-56771.28,-14561.85,28470.785
953046.3185650744,-111052.62,-175422.12,-19460.246,-47940.633,-14268.677,-56771.69,-14552.856,28508.139
953046.32256507,-111062.18,-175438.72,-19461.71,-47953.37,-14278.605,-56783.367,-14556.193,28520.672
953046.3265650657,-111059.62,-175444.1,-19467.488,-47954.348,-14284.18,-56780.76,-14562.582,28496.338
953046.3305650613,-111050.5,-175430.3,-19467.488,-47941.043,-14271.729,-56767.254,-14562.866,28467.326
953046.334565057,-111046.02,-175419.36,-19455.566,-47936.566,-14265.097,-56769.695,-14558.146,28470.297
953046.3385650526,-111053.71,-175431.36,-19454.102,-47941.45,-14273.315,-56778.32,-14553.427,28498.861
953046.3425650483,-111072.06,-175451.95,-19457.805,-47956.18,-14281.657,-56788.293,-14560.222,28513.51
953046.3465650439,-111072.06,-175451.38,-19454.875,-47957.277,-14285.116,-56784.996,-14571.167,28489.584
953046.3505650396,-111061.89,-175439.25,-19455.648,-47950.195,-14280.762,-56774.414,-14577.353,28457.113
953046.3545650352,-111061.164,-175431.36,-19458.496,-47943.523,-14279.745,-56771.363,-14568.237,28469.605
953046.3585650309,-111059.125,-175436.56,-19457.887,-47944.01,-14282.756,-56775.27,-14555.624,28508.627
953046.3625650264,-111067.266,-175450.94,-19456.137,-47956.258,-14291.423,-56786.258,-14560.1,28517.742
953046.366565022,-111067.8,-175454.8,-19464.803,-47957.4,-14294.516,-56784.75,-14570.354,28490.479
953046.3705650177,-111052.78,-175443.28,-19460.857,-47947.918,-14286.255,-56769.9,-14568.319,28468.71
953046.3745650133,-111048.34,-175434.4,-19456.422,-47942.832,-14273.642,-56764.57,-14555.949,28477.865
953046.378565009,-111060.39,-175445.03,-19462.77,-47947.43,-14277.141,-56774.54,-14549.643,28511.68
953046.3825650046,-111073.04,-175461.88,-19470.215,-47962.28,-14286.093,-56789.27,-14557.658,28520.957
953046.3865650003,-111079.35,-175460.2,-19474.406,-47965.17,-14291.87,-56790.082,-14567.709,28494.873
953046.3905649959,-111065.48,-175438.89,-19483.48,-47953.94,-14281.25,-56777.47,-14567.18,28467.814
953046.3945649916,-111046.516,-175429.45,-19479.574,-47943.484,-14281.86,-56770.43,-14556.967,28479.045
953046.3985649872,-111051.11,-175439.9,-19467.693,-47945.516,-14281.576,-56773.36,-14549.032,28510.906
953046.4025649829,-111070.31,-175461.23,-19470.826,-47961.305,-14289.104,-56783.285,-14557.251,28519.043
953046.4065649785,-111075.93,-175464.94,-19477.986,-47964.277,-14302.612,-56782.88,-14568.97,28495.281
953046.4105649742,-111059.82,-175453.62,-19472.494,-47951.54,-14294.23,-56770.55,-14570.639,28469.117
953046.4145649698,-111048.51,-175443.45,-19468.385,-47942.344,-14286.459,-56766.074,-14560.059,28483.48
953046.4185649655,-111055.75,-175447.77,-19468.994,-47951.094,-14295.492,-56776.53,-14555.502,28512.736
953046.4225649611,-111076.945,-175462.0,-19465.21,-47965.863,-14305.298,-56790.855,-14558.798,28531.21
953046.4265649568,-111077.03,-175465.58,-19468.547,-47966.066,-14303.955,-56790.0,-14568.441,28507.406
953046.4305649523,-111061.65,-175450.89,-19475.506,-47952.72,-14297.648,-56774.7,-14568.319,28480.348
953046.434564948,-111060.47,-175438.08,-19473.064,-47945.926,-14289.673,-56769.777,-14563.965,28483.033
953046.4385649436,-111061.445,-175443.61,-19462.037,-47947.594,-14292.114,-56773.156,-14557.983,28510.906
953046.4425649393,-111073.37,-175460.78,-19464.438,-47959.11,-14296.306,-56785.2,-14562.541,28522.705
953046.4465649349,-111077.97,-175458.95,-19474.568,-47961.996,-14304.281,-56787.07,-14575.969,28495.361
953046.4505649306,-111061.24,-175442.95,-19469.117,-47947.918,-14302.409,-56772.746,-14576.579,28469.564
953046.4545649262,-111045.414,-175434.58,-19464.193,-47940.555,-14289.836,-56766.727,-14565.063,28477.947
953046.4585649219,-111052.734,-175441.5,-19464.926,-47946.74,-14281.372,-56777.508,-14560.669,28502.646
953046.4625649175,-111069.75,-175456.75,-19463.787,-47959.27,-14288.615,-56791.26,-14566.691,28516.357
953046.4665649132,-111071.82,-175456.3,-19464.764,-47959.15,-14289.185,-56790.082,-14574.829,28493.287
953046.4705649088,-111055.22,-175439.62,-19462.932,-47948.977,-14282.593,-56775.72,-14575.358,28468.873
953046.4745649045,-111050.3,-175430.19,-19458.293,-47944.176,-14274.333,-56772.137,-14566.732,28472.209
953046.4785649001,-111051.72,-175430.95,-19449.219,-47946.13,-14272.583,-56777.02,-14559.001,28505.615
953046.4825648958,-111065.19,-175437.83,-19458.863,-47955.406,-14282.919,-56788.496,-14565.837,28518.637
953046.4865648914,-111063.6,-175441.86,-19471.639,-47957.195,-14289.429,-56786.01,-14573.8125,28490.398
953046.4905648871,-111042.766,-175434.86,-19473.633,-47944.824,-14290.527,-56767.297,-14572.917,28465.617
953046.4945648826,-111040.2,-175428.64,-19464.803,-47937.258,-14280.884,-56763.39,-14560.222,28489.707
953046.4985648782,-111045.945,-175429.38,-19456.137,-47938.887,-14274.374,-56767.62,-14549.316,28525.96
953046.5025648739,-111059.734,-175439.42,-19458.455,-47948.445,-14273.56,-56775.88,-14552.612,28535.523
953046.5065648695,-111059.57,-175441.45,-19454.957,-47950.727,-14278.931,-56777.266,-14567.343,28512.127
953046.5105648652,-111036.664,-175432.5,-19453.898,-47942.383,-14281.169,-56768.477,-14571.574,28482.219
953046.5145648608,-111035.57,-175422.98,-19457.072,-47937.543,-14273.153,-56762.86,-14558.391,28488.934
953046.5185648565,-111041.51,-175427.05,-19452.8,-47939.656,-14269.369,-56767.824,-14549.154,28520.508
953046.5225648521,-111056.69,-175446.12,-19453.98,-47953.492,-14273.234,-56778.934,-14554.281,28528.076
953046.5265648478,-111055.18,-175447.52,-19463.95,-47957.848,-14271.281,-56776.574,-14564.006,28497.031
953046.5305648434,-111040.86,-175431.4,-19466.512,-47945.395,-14269.491,-56763.348,-14565.186,28474.0
953046.5345648391,-111038.5,-175428.64,-19462.729,-47938.887,-14269.287,-56758.71,-14554.321,28488.201
953046.5385648347,-111044.36,-175432.25,-19462.361,-47942.26,-14265.422,-56766.24,-14546.143,28512.248
953046.5425648304,-111060.875,-175449.14,-19461.629,-47957.195,-14276.408,-56779.176,-14552.49,28527.426
953046.546564826,-111055.18,-175449.47,-19463.46,-47961.996,-14283.122,-56776.492,-14562.582,28502.117
953046.5505648217,-111043.79,-175430.47,-19455.404,-47948.977,-14277.629,-56758.508,-14560.71,28477.012
953046.5545648173,-111036.95,-175422.08,-19450.766,-47939.58,-14272.461,-56751.953,-14549.846,28492.596
953046.558564813,-111042.12,-175431.48,-19461.914,-47945.027,-14288.493,-56760.785,-14541.626,28521.77
953046.5625648085,-111056.12,-175450.28,-19461.873,-47962.812,-14295.166,-56778.2,-14552.45,28526.938
953046.5665648042,-111054.37,-175444.7,-19461.549,-47962.934,-14283.122,-56775.88,-14561.401,28501.953
953046.5705647998,-111044.195,-175432.95,-19456.584,-47950.727,-14269.735,-56761.027,-14558.554,28482.504
953046.5745647955,-111039.68,-175424.94,-19442.791,-47942.996,-14257.202,-56757.082,-14544.475,28501.059
953046.5785647911,-111042.69,-175431.61,-19441.691,-47947.188,-14255.453,-56762.86,-14535.156,28533.57
953046.5825647868,-111055.625,-175449.27,-19450.44,-47959.555,-14261.638,-56773.645,-14541.667,28548.463
953046.5865647824,-111054.24,-175445.64,-19455.404,-47959.883,-14267.741,-56771.73,-14551.514,28519.328
953046.5905647781,-111036.664,-175429.33,-19462.2,-47949.87,-14266.806,-56760.906,-14555.664,28486.084
953046.5945647737,-111031.414,-175414.6,-19456.666,-47939.25,-14260.702,-56753.215,-14545.166,28501.1
953046.5985647694,-111038.58,-175418.14,-19458.293,-47941.285,-14260.986,-56760.01,-14539.633,28534.1
953046.602564765,-111059.21,-175434.66,-19471.639,-47953.98,-14265.341,-56774.375,-14550.334,28546.225
953046.6065647607,-111056.93,-175433.44,-19475.342,-47955.977,-14268.759,-56769.777,-14558.554,28518.88
953046.6105647563,-111048.42,-175422.33,-19478.395,-47947.754,-14277.141,-56755.168,-14558.92,28477.5
953046.614564752,-111037.56,-175416.67,-19477.742,-47942.344,-14279.826,-56757.0,-14556.967,28482.422
953046.6185647476,-111044.15,-175422.89,-19464.682,-47944.336,-14275.1875,-56764.895,-14549.805,28514.242
953046.6225647433,-111061.2,-175439.75,-19464.52,-47959.066,-14289.917,-56775.88,-14554.321,28535.4
953046.6265647388,-111067.914,-175447.47,-19468.75,-47962.484,-14286.987,-56776.164,-14563.07,28513.836
953046.6305647345,-111058.64,-175437.6,-19465.576,-47952.883,-14276.245,-56761.76,-14564.657,28484.498
953046.6345647301,-111055.016,-175432.22,-19462.402,-47946.492,-14277.792,-56755.7,-14553.264,28494.71
953046.6385647258,-111065.02,-175438.2,-19459.758,-47949.18,-14278.85,-56761.64,-14545.532,28524.658
953046.6425647214,-111073.695,-175447.06,-19462.525,-47958.336,-14288.696,-56770.957,-14549.805,28529.014
953046.646564717,-111066.25,-175441.45,-19471.965,-47956.586,-14277.263,-56768.273,-14556.519,28503.623
953046.6505647127,-111062.22,-175434.12,-19475.506,-47948.164,-14259.644,-56760.094,-14561.687,28476.441
953046.6545647084,-111058.8,-175430.39,-19468.14,-47943.484,-14249.919,-56757.45,-14553.386,28494.14
953046.658564704,-111058.03,-175437.1,-19455.445,-47947.55,-14248.983,-56767.945,-14548.869,28519.613
953046.6625646997,-111071.54,-175451.27,-19451.05,-47961.062,-14256.43,-56779.543,-14556.234,28535.32
953046.6665646953,-111076.83,-175453.45,-19458.7,-47960.41,-14267.619,-56772.504,-14564.86,28514.324
953046.670564691,-111060.96,-175440.97,-19462.525,-47946.004,-14261.638,-56757.45,-14567.058,28478.68
953046.6745646866,-111047.94,-175430.75,-19458.252,-47935.14,-14251.303,-56749.637,-14556.315,28482.342
953046.6785646823,-111061.0,-175435.8,-19455.037,-47940.88,-14256.47,-56759.156,-14549.724,28518.027
953046.6825646779,-111075.73,-175447.47,-19454.916,-47955.566,-14268.026,-56773.766,-14558.024,28531.494
953046.6865646736,-111075.89,-175454.06,-19461.629,-47959.35,-14270.956,-56776.367,-14575.073,28497.885
953046.6905646691,-111063.56,-175445.2,-19464.803,-47951.418,-14267.131,-56765.22,-14577.353,28466.432
953046.6945646647,-111053.51,-175428.67,-19453.207,-47943.2,-14265.788,-56758.586,-14563.681,28481.61
953046.6985646604,-111058.84,-175428.8,-19445.76,-47941.33,-14264.364,-56761.355,-14553.467,28517.54
953046.702564656,-111078.414,-175449.6,-19451.457,-47956.34,-14269.9795,-56773.6,-14558.92,28527.264
953046.7065646517,-111071.82,-175448.58,-19452.148,-47961.266,-14271.851,-56772.42,-14566.8545,28512.29
953046.7105646473,-111061.69,-175433.8,-19453.29,-47951.418,-14261.923,-56760.05,-14569.865,28482.098
953046.714564643,-111054.41,-175425.9,-19452.88,-47940.066,-14249.756,-56753.785,-14560.832,28493.49
953046.7185646386,-111057.984,-175431.0,-19453.045,-47940.758,-14255.209,-56761.926,-14555.746,28526.531
953046.7225646343,-111065.02,-175447.27,-19453.451,-47950.93,-14266.602,-56773.438,-14558.391,28539.877
953046.7265646299,-111065.07,-175449.8,-19461.02,-47954.145,-14274.984,-56767.418,-14566.244,28515.545
953046.7305646256,-111050.5,-175432.78,-19460.205,-47943.605,-14280.151,-56755.37,-14568.034,28479.533
953046.7345646212,-111046.67,-175424.77,-19459.27,-47939.09,-14270.224,-56754.844,-14561.523,28486.857
953046.7385646169,-111057.58,-175435.44,-19462.037,-47946.94,-14267.375,-56764.895,-14555.258,28518.19
953046.7425646125,-111069.54,-175450.64,-19462.402,-47960.574,-14284.221,-56775.188,-14555.949,28532.146
953046.7465646082,-111070.11,-175448.08,-19466.39,-47963.707,-14289.633,-56772.18,-14562.622,28506.227
953046.7505646038,-111063.195,-175436.05,-19463.787,-47956.42,-14282.471,-56761.355,-14567.953,28483.398
953046.7545645995,-111064.58,-175430.39,-19459.27,-47951.01,-14275.879,-56758.223,-14554.973,28496.217
953046.758564595,-111059.66,-175434.05,-19459.717,-47952.84,-14272.543,-56762.168,-14541.83,28529.176
953046.7625645907,-111061.69,-175444.02,-19460.002,-47962.28,-14282.187,-56766.4,-14539.185,28552.734
953046.7665645863,-111063.97,-175447.23,-19466.146,-47968.14,-14292.685,-56766.6,-14549.235,28526.938
953046.770564582,-111054.734,-175431.61,-19468.791,-47958.418,-14294.678,-56758.18,-14552.775,28497.193
953046.7745645776,-111048.625,-175420.7,-19459.676,-47950.48,-14283.8955,-56755.008,-14546.225,28511.395
953046.7785645733,-111054.734,-175427.58,-19460.125,-47956.055,-14270.712,-56763.594,-14544.719,28545.654
953046.7825645689,-111066.734,-175441.81,-19458.496,-47970.785,-14279.989,-56777.996,-14552.328,28553.184
953046.7865645646,-111063.93,-175440.88,-19459.555,-47974.043,-14287.436,-56775.15,-14560.71,28520.346
953046.7905645602,-111050.87,-175427.05,-19466.838,-47962.117,-14275.961,-56758.75,-14561.401,28488.566
953046.7945645559,-111044.11,-175415.33,-19463.582,-47950.766,-14272.095,-56747.723,-14547.7295,28487.266
953046.7985645515,-111051.6,-175428.75,-19457.479,-47957.805,-14273.031,-56755.86,-14542.399,28517.66
953046.8025645472,-111067.67,-175445.44,-19462.2,-47974.043,-14288.371,-56769.777,-14551.2295,28538.25
953046.8065645428,-111064.09,-175446.45,-19466.92,-47974.69,-14296.835,-56768.68,-14558.838,28520.875
953046.8105645385,-111055.51,-175430.88,-19465.74,-47964.97,-14282.268,-56756.43,-14556.03,28495.078
953046.8145645341,-111056.195,-175423.95,-19462.973,-47959.96,-14269.45,-56752.484,-14549.316,28504.844
953046.8185645298,-111053.76,-175429.86,-19455.975,-47961.14,-14270.793,-56759.277,-14544.963,28535.238
953046.8225645253,-111065.63,-175445.31,-19465.008,-47973.188,-14282.227,-56771.16,-14553.142,28549.48
953046.826564521,-111066.086,-175447.31,-19475.994,-47977.867,-14286.743,-56768.395,-14563.029,28521.566
953046.8305645166,-111061.0,-175433.19,-19469.97,-47969.24,-14277.019,-56756.227,-14564.209,28491.863
953046.8345645122,-111050.46,-175414.88,-19458.375,-47957.723,-14268.2295,-56750.613,-14554.973,28502.28
953046.8385645079,-111050.13,-175412.64,-19461.914,-47955.65,-14268.2705,-56759.156,-14548.056,28537.436
953046.8425645035,-111065.11,-175428.39,-19466.39,-47965.496,-14277.466,-56770.918,-14557.211,28547.527
953046.8465644992,-111059.33,-175435.47,-19462.117,-47967.164,-14279.094,-56764.895,-14565.39,28516.277
953046.8505644948,-111045.984,-175427.7,-19462.281,-47960.613,-14276.489,-56756.023,-14566.691,28485.352
953046.8545644905,-111043.586,-175418.38,-19459.473,-47954.266,-14271.403,-56753.785,-14556.926,28495.117
953046.8585644861,-111047.37,-175423.92,-19451.295,-47957.848,-14270.061,-56759.156,-14550.253,28523.926
953046.8625644818,-111060.51,-175440.16,-19454.916,-47972.168,-14282.512,-56772.707,-14554.321,28539.55
953046.8665644774,-111060.55,-175443.97,-19451.254,-47972.453,-14284.709,-56772.098,-14563.965,28517.13
953046.8705644731,-111049.4,-175427.2,-19451.457,-47961.67,-14280.355,-56758.344,-14564.087,28489.91
953046.8745644687,-111043.3,-175416.92,-19457.846,-47953.168,-14275.146,-56753.582,-14556.845,28500.285
953046.8785644644,-111048.14,-175421.92,-19460.531,-47954.793,-14268.352,-56756.676,-14551.352,28531.25
953046.88256446,-111068.65,-175436.28,-19457.234,-47967.977,-14279.257,-56770.266,-14559.978,28542.318
953046.8865644556,-111070.97,-175439.05,-19457.928,-47972.496,-14280.478,-56771.934,-14570.109,28515.463
953046.8905644512,-111062.87,-175429.89,-19459.799,-47961.67,-14258.789,-56760.094,-14573.649,28488.69
953046.8945644469,-111052.734,-175428.64,-19461.02,-47956.22,-14254.395,-56758.465,-14568.4,28504.191
953046.8985644425,-111048.625,-175432.62,-19449.504,-47959.84,-14264.526,-56763.88,-14556.519,28533.57
953046.9025644382,-111066.9,-175447.27,-19452.678,-47975.098,-14275.146,-56776.41,-14563.477,28541.79
953046.9065644338,-111067.875,-175447.92,-19457.479,-47975.18,-14283.488,-56775.11,-14573.935,28519.451
953046.9105644295,-111055.26,-175437.67,-19464.275,-47963.38,-14278.972,-56757.895,-14571.452,28492.066
953046.9145644251,-111051.516,-175434.05,-19468.14,-47956.34,-14276.367,-56755.008,-14562.5,28506.553
953046.9185644208,-111053.15,-175435.11,-19461.59,-47958.945,-14280.437,-56762.902,-14553.793,28532.47
953046.9225644164,-111065.48,-175444.78,-19457.723,-47971.64,-14295.329,-56772.992,-14556.274,28549.887
953046.9265644121,-111071.05,-175448.33,-19458.537,-47976.562,-14298.178,-56774.17,-14564.901,28533.367
953046.9305644077,-111055.055,-175439.22,-19453.695,-47969.65,-14280.681,-56758.832,-14562.622,28504.883
953046.9345644034,-111043.91,-175432.38,-19450.44,-47963.79,-14276.896,-56753.906,-14552.531,28512.736
953046.938564399,-111044.88,-175442.88,-19452.068,-47966.96,-14283.244,-56761.23,-14547.648,28539.227
953046.9425643947,-111055.75,-175460.17,-19450.562,-47979.414,-14294.638,-56773.48,-14558.105,28548.016
953046.9465643903,-111061.32,-175457.4,-19451.375,-47980.39,-14308.065,-56769.25,-14564.169,28523.193
953046.950564386,-111045.695,-175440.97,-19458.62,-47969.035,-14301.88,-56754.438,-14562.256,28496.502
953046.9545643815,-111039.48,-175437.39,-19459.27,-47964.07,-14291.098,-56751.184,-14555.664,28505.82
953046.9585643772,-111044.4,-175444.5,-19453.41,-47967.773,-14290.609,-56756.555,-14547.079,28539.633
953046.9625643728,-111056.12,-175454.34,-19462.646,-47982.586,-14303.264,-56764.855,-14551.311,28546.672
953046.9665643685,-111059.86,-175450.81,-19463.299,-47986.043,-14308.92,-56764.285,-14562.866,28511.271
953046.9705643641,-111047.445,-175437.5,-19469.035,-47975.02,-14291.789,-56755.37,-14569.133,28478.068
953046.9745643598,-111038.7,-175427.33,-19471.15,-47966.797,-14275.351,-56752.89,-14566.122,28487.672
953046.9785643554,-111045.78,-175433.64,-19461.67,-47968.793,-14273.031,-56759.074,-14558.391,28525.635
953046.982564351,-111057.58,-175451.3,-19462.973,-47984.99,-14283.691,-56776.164,-14563.3545,28538.127
953046.9865643467,-111058.516,-175448.38,-19467.041,-47987.348,-14289.877,-56774.254,-14571.086,28516.398
953046.9905643424,-111053.305,-175432.05,-19460.287,-47975.14,-14279.257,-56756.348,-14567.831,28491.375
953046.994564338,-111031.375,-175423.34,-19452.23,-47965.332,-14270.183,-56749.594,-14557.455,28502.32
953046.9985643337,-111036.26,-175431.08,-19450.604,-47963.867,-14275.961,-56753.95,-14551.188,28530.926
953047.0025643293,-111054.77,-175443.28,-19449.342,-47978.64,-14284.709,-56767.54,-14557.373,28537.354
953047.006564325,-111053.1,-175434.4,-19451.13,-47979.37,-14285.319,-56765.383,-14565.349,28520.184
953047.0105643206,-111036.87,-175413.98,-19452.148,-47966.35,-14275.1875,-56751.387,-14562.012,28501.506
953047.0145643163,-111034.06,-175407.11,-19450.236,-47959.84,-14271.973,-56747.97,-14550.253,28515.748
953047.0185643118,-111032.02,-175412.64,-19457.398,-47959.23,-14267.375,-56754.52,-14544.8,28545.533
953047.0225643074,-111046.63,-175431.28,-19459.88,-47969.85,-14274.252,-56767.54,-14557.861,28558.066
953047.0265643031,-111045.49,-175430.22,-19462.361,-47972.21,-14287.476,-56766.684,-14571.818,28525.92
953047.0305642987,-111033.0,-175418.02,-19467.244,-47963.625,-14288.574,-56756.066,-14574.87,28501.018
953047.0345642944,-111031.17,-175417.61,-19464.152,-47958.418,-14277.629,-56757.652,-14568.686,28507.854
953047.03856429,-111036.79,-175420.42,-19455.77,-47960.695,-14272.543,-56764.773,-14557.617,28535.768
953047.0425642857,-111054.65,-175430.6,-19454.672,-47971.844,-14277.67,-56777.59,-14563.721,28548.219
953047.0465642813,-111058.44,-175427.9,-19451.457,-47972.047,-14285.4,-56773.03,-14571.615,28522.584
953047.050564277,-111036.13,-175411.83,-19456.746,-47963.34,-14279.216,-56758.02,-14576.05,28485.76
953047.0545642726,-111031.74,-175404.88,-19453.492,-47954.55,-14274.048,-56753.258,-14569.418,28491.578
953047.0585642683,-111037.64,-175413.78,-19451.254,-47956.137,-14274.821,-56755.25,-14558.146,28520.916
953047.0625642639,-111049.32,-175432.02,-19461.346,-47970.01,-14291.138,-56768.92,-14564.535,28531.82
953047.0665642596,-111048.99,-175433.8,-19461.873,-47974.977,-14296.387,-56771.28,-14574.057,28515.342
953047.0705642552,-111035.04,-175418.34,-19454.428,-47963.137,-14284.912,-56757.69,-14572.714,28492.596
953047.0745642509,-111030.4,-175411.95,-19444.947,-47955.363,-14273.234,-56751.344,-14563.437,28502.402
953047.0785642465,-111032.516,-175415.98,-19446.615,-47959.598,-14279.013,-56756.836,-14557.983,28530.03
953047.0825642422,-111043.74,-175427.7,-19448.73,-47971.56,-14285.238,-56767.62,-14561.483,28539.756
953047.0865642377,-111044.805,-175433.11,-19458.375,-47973.715,-14279.013,-56765.992,-14570.068,28512.33
953047.0905642334,-111041.586,-175424.89,-19453.29,-47964.56,-14284.424,-56757.938,-14579.224,28484.742
953047.094564229,-111031.664,-175417.81,-19443.807,-47952.027,-14279.216,-56753.46,-14570.395,28503.744
953047.0985642247,-111026.53,-175417.0,-19441.406,-47953.816,-14260.905,-56757.61,-14560.629,28539.674
953047.1025642203,-111043.3,-175431.08,-19443.562,-47968.14,-14277.873,-56770.633,-14567.709,28547.12
953047.106564216,-111040.77,-175428.64,-19447.877,-47970.99,-14287.313,-56768.92,-14581.218,28515.504
953047.1105642116,-111022.71,-175415.17,-19462.2,-47960.652,-14277.954,-56755.332,-14583.171,28477.336
953047.1145642073,-111020.06,-175405.94,-19461.426,-47951.54,-14268.474,-56749.72,-14570.761,28489.34
953047.1185642029,-111028.41,-175414.27,-19454.06,-47954.145,-14266.887,-56757.938,-14564.169,28532.268
953047.1225641986,-111036.26,-175428.55,-19454.59,-47963.95,-14280.314,-56768.312,-14569.377,28545.98
953047.1265641942,-111038.45,-175427.12,-19458.904,-47966.51,-14290.039,-56766.766,-14575.888,28525.025
953047.1305641899,-111020.76,-175406.83,-19461.834,-47955.61,-14282.268,-56750.285,-14575.562,28497.438
953047.1345641855,-111007.25,-175395.19,-19455.852,-47944.906,-14263.266,-56745.16,-14562.744,28509.848
953047.1385641812,-111014.24,-175403.28,-19449.422,-47948.164,-14257.772,-56754.316,-14553.915,28545.004
953047.1425641768,-111031.13,-175422.61,-19444.947,-47958.824,-14272.502,-56764.0,-14559.896,28559.082
953047.1465641725,-111021.24,-175422.33,-19450.887,-47960.207,-14280.966,-56758.098,-14567.912,28531.943
953047.150564168,-111008.836,-175400.03,-19459.96,-47949.383,-14271.118,-56743.29,-14567.709,28499.838
953047.1545641636,-111008.47,-175395.06,-19461.752,-47942.668,-14264.567,-56737.51,-14563.803,28502.809
953047.1585641593,-111015.1,-175403.73,-19449.951,-47944.133,-14264.934,-56744.914,-14556.845,28532.879
953047.162564155,-111029.71,-175410.66,-19446.9,-47954.633,-14276.693,-56758.383,-14561.605,28550.537
953047.1665641506,-111027.305,-175409.02,-19457.275,-47957.97,-14290.8125,-56757.285,-14573.405,28527.955
953047.1705641462,-111012.29,-175397.39,-19454.793,-47947.676,-14276.774,-56745.402,-14574.057,28497.479
953047.1745641419,-111007.86,-175393.84,-19448.895,-47937.38,-14263.957,-56742.516,-14566.772,28507.08
953047.1785641375,-111015.51,-175403.12,-19442.018,-47940.715,-14264.567,-56750.57,-14564.657,28537.273
953047.1825641332,-111034.18,-175427.2,-19447.918,-47955.895,-14281.291,-56767.05,-14573.853,28541.586
953047.1865641288,-111040.41,-175428.03,-19451.05,-47957.723,-14284.14,-56765.098,-14584.717,28516.969
953047.1905641245,-111024.3,-175411.06,-19451.742,-47944.785,-14274.862,-56746.91,-14582.602,28493.205
953047.1945641201,-111016.445,-175402.39,-19440.797,-47936.523,-14268.637,-56739.543,-14570.028,28497.479
953047.1985641158,-111020.19,-175399.02,-19430.014,-47939.293,-14267.904,-56745.973,-14565.39,28527.629
953047.2025641114,-111032.555,-175413.86,-19433.96,-47952.434,-14276.815,-56758.586,-14572.836,28536.174
953047.2065641071,-111033.05,-175415.9,-19444.336,-47955.77,-14278.28,-56757.734,-14581.625,28509.074
953047.2105641027,-111019.45,-175406.17,-19446.615,-47943.81,-14269.165,-56745.117,-14582.438,28485.8
953047.2145640983,-111013.92,-175399.34,-19445.436,-47936.973,-14261.557,-56743.246,-14575.766,28497.275
953047.2185640939,-111024.17,-175406.42,-19441.082,-47940.676,-14260.376,-56748.332,-14564.535,28534.547
953047.2225640896,-111045.21,-175423.83,-19448.61,-47957.195,-14272.705,-56763.266,-14570.761,28543.01
953047.2265640852,-111049.28,-175422.38,-19457.684,-47958.62,-14280.192,-56760.5,-14580.7295,28516.236
953047.2305640809,-111032.19,-175413.98,-19455.893,-47947.47,-14274.821,-56748.742,-14584.311,28492.352
953047.2345640765,-111020.67,-175411.47,-19448.895,-47936.65,-14264.975,-56742.84,-14573.161,28502.441
953047.2385640722,-111024.26,-175422.05,-19447.145,-47944.418,-14270.061,-56750.49,-14567.261,28528.443
953047.2425640678,-111034.71,-175428.64,-19455.607,-47955.406,-14283.325,-56757.45,-14572.266,28535.482
953047.2465640635,-111042.24,-175424.64,-19461.426,-47955.566,-14285.645,-56757.855,-14586.752,28508.994
953047.2505640591,-111033.734,-175414.06,-19462.361,-47946.656,-14281.413,-56746.91,-14589.396,28482.342
953047.2545640548,-111027.71,-175408.61,-19459.96,-47938.926,-14276.123,-56744.223,-14582.968,28490.52
953047.2585640504,-111030.93,-175412.72,-19450.318,-47944.094,-14276.693,-56754.234,-14577.434,28525.717
953047.2625640461,-111042.24,-175425.47,-19450.154,-47958.418,-14284.221,-56766.48,-14583.212,28543.01
953047.2665640417,-111050.7,-175424.08,-19459.107,-47959.188,-14284.506,-56760.906,-14588.42,28520.549
953047.2705640374,-111040.086,-175407.72,-19454.998,-47950.195,-14280.803,-56747.844,-14586.833,28491.252
953047.274564033,-111024.46,-175402.11,-19443.768,-47942.793,-14274.577,-56738.12,-14574.016,28498.008
953047.2785640287,-111029.75,-175415.28,-19442.871,-47948.12,-14272.38,-56746.992,-14566.203,28531.006
953047.2825640242,-111042.195,-175430.6,-19443.4,-47961.59,-14282.675,-56760.824,-14569.702,28545.045
953047.2865640199,-111039.48,-175431.97,-19455.404,-47962.04,-14296.916,-56757.164,-14576.904,28524.293
953047.2905640155,-111023.03,-175418.06,-19455.12,-47950.074,-14288.249,-56744.266,-14577.515,28496.787
953047.2945640112,-111020.02,-175398.36,-19448.486,-47944.01,-14278.687,-56737.793,-14567.627,28505.291
953047.2985640068,-111029.3,-175401.45,-19450.154,-47950.605,-14277.588,-56747.6,-14567.383,28527.182
953047.3025640025,-111045.62,-175418.62,-19460.084,-47966.39,-14288.168,-56762.453,-14577.23,28534.506
953047.3065639981,-111042.32,-175420.5,-19451.13,-47967.695,-14290.568,-56757.895,-14584.392,28516.074
953047.3105639938,-111030.32,-175411.62,-19454.875,-47957.48,-14287.354,-56744.14,-14586.264,28487.754
953047.3145639894,-111014.98,-175409.62,-19460.205,-47948.0,-14278.85,-56736.86,-14576.05,28494.914
953047.318563985,-111023.44,-175419.61,-19455.648,-47952.312,-14286.337,-56742.92,-14570.109,28519.248
953047.3225639807,-111043.3,-175434.66,-19458.049,-47965.945,-14294.516,-56756.31,-14575.766,28537.354
953047.3265639764,-111046.8,-175436.2,-19463.055,-47968.426,-14293.457,-56753.215,-14581.747,28521.525
953047.330563972,-111031.945,-175423.47,-19458.496,-47960.9,-14289.389,-56741.133,-14582.397,28490.805
953047.3345639677,-111024.7,-175412.28,-19448.934,-47952.883,-14278.442,-56734.133,-14570.231,28504.436
953047.3385639633,-111036.664,-175424.89,-19450.277,-47961.062,-14282.797,-56748.496,-14568.359,28528.564
953047.342563959,-111049.56,-175441.73,-19455.445,-47975.426,-14293.742,-56762.453,-14576.498,28544.8
953047.3465639545,-111044.48,-175441.1,-19456.787,-47974.69,-14295.248,-56757.164,-14580.322,28521.525
953047.3505639501,-111029.5,-175425.67,-19456.584,-47961.305,-14285.93,-56740.887,-14578.491,28496.014
953047.3545639458,-111023.32,-175424.2,-19453.166,-47953.777,-14280.559,-56733.81,-14572.917,28503.094
953047.3585639414,-111026.05,-175433.36,-19457.479,-47955.977,-14283.8955,-56744.63,-14570.231,28535.564
953047.3625639371,-111048.055,-175449.75,-19471.924,-47971.723,-14291.626,-56761.152,-14579.143,28532.188
953047.3665639327,-111047.0,-175439.42,-19470.867,-47971.477,-14306.396,-56756.555,-14584.514,28514.568
953047.3705639284,-111032.35,-175427.17,-19472.127,-47961.67,-14300.985,-56744.793,-14583.903,28492.758
953047.374563924,-111021.81,-175424.53,-19462.443,-47951.215,-14288.33,-56738.445,-14575.114,28505.941
953047.3785639197,-111032.96,-175427.7,-19450.154,-47953.37,-14280.722,-56743.207,-14567.343,28536.174
953047.3825639153,-111052.375,-175438.48,-19461.549,-47967.57,-14291.83,-56757.812,-14576.376,28538.78
953047.386563911,-111052.82,-175443.86,-19475.79,-47972.984,-14289.389,-56757.977,-14586.833,28509.441
953047.3905639066,-111041.22,-175436.0,-19480.184,-47962.2,-14284.058,-56745.934,-14589.763,28482.098
953047.3945639023,-111035.61,-175432.75,-19474.244,-47956.137,-14272.705,-56740.277,-14577.841,28500.326
953047.3985638979,-111043.055,-175433.89,-19460.775,-47959.395,-14272.746,-56744.754,-14563.273,28534.303
953047.4025638936,-111064.74,-175447.03,-19457.602,-47975.508,-14285.645,-56763.184,-14572.998,28534.588
953047.4065638892,-111053.59,-175447.64,-19458.62,-47977.176,-14294.475,-56762.047,-14584.555,28508.262
953047.4105638848,-111036.016,-175430.02,-19460.328,-47964.97,-14293.051,-56746.91,-14587.362,28479.33
953047.4145638804,-111039.63,-175420.78,-19460.002,-47957.48,-14284.14,-56743.164,-14581.259,28489.34
953047.4185638761,-111048.42,-175425.1,-19450.928,-47959.676,-14283.8955,-56749.92,-14576.66,28521.363
953047.4225638717,-111062.586,-175445.03,-19453.816,-47975.06,-14298.056,-56763.184,-14585.083,28532.715
953047.4265638674,-111060.75,-175451.67,-19464.479,-47978.273,-14292.969,-56760.133,-14593.222,28512.33
953047.430563863,-111036.46,-175433.8,-19466.512,-47965.047,-14288.94,-56743.41,-14591.431,28482.545
953047.4345638587,-111028.2,-175420.5,-19459.596,-47956.18,-14287.842,-56736.535,-14583.008,28486.613
953047.4385638543,-111038.17,-175427.58,-19464.682,-47959.434,-14287.069,-56744.062,-14579.55,28513.184
953047.44256385,-111056.56,-175451.75,-19473.309,-47975.223,-14294.719,-56762.37,-14589.274,28524.984
953047.4465638456,-111055.664,-175446.73,-19479.818,-47976.36,-14292.196,-56760.54,-14595.215,28500.814
953047.4505638413,-111046.516,-175429.25,-19475.709,-47968.305,-14280.803,-56747.805,-14593.954,28471.72
953047.4545638369,-111029.34,-175423.22,-19464.926,-47964.97,-14287.272,-56746.992,-14586.142,28490.764
953047.4585638326,-111032.8,-175431.73,-19464.314,-47968.465,-14280.762,-56755.7,-14576.701,28538.982
953047.4625638282,-111047.695,-175445.92,-19463.338,-47980.39,-14285.889,-56766.4,-14585.083,28553.752
953047.4665638239,-111047.41,-175433.31,-19460.408,-47978.883,-14286.947,-56761.477,-14597.25,28528.402
953047.4705638195,-111025.96,-175416.62,-19465.496,-47969.24,-14276.408,-56743.86,-14593.75,28499.188
953047.4745638152,-111020.51,-175416.27,-19462.566,-47961.71,-14265.585,-56740.766,-14582.642,28503.662
953047.4785638107,-111035.32,-175428.84,-19459.473,-47969.117,-14271.566,-56753.785,-14575.888,28532.959
953047.4825638063,-111048.914,-175440.47,-19462.525,-47982.016,-14287.028,-56766.035,-14580.16,28548.91
953047.486563802,-111053.555,-175441.17,-19465.21,-47985.883,-14283.936,-56764.812,-14588.339,28524.658
953047.4905637976,-111045.66,-175428.95,-19473.268,-47978.8,-14289.714,-56753.418,-14590.088,28491.537
953047.4945637933,-111041.51,-175417.66,-19477.621,-47973.715,-14292.5625,-56748.78,-14583.822,28502.727
953047.498563789,-111035.36,-175421.72,-19474.041,-47975.18,-14286.133,-56751.67,-14573.486,28536.744
953047.5025637846,-111038.17,-175432.86,-19475.465,-47986.004,-14288.249,-56761.68,-14577.312,28548.666
953047.5065637802,-111042.56,-175430.22,-19482.463,-47984.824,-14286.581,-56759.93,-14585.043,28527.305
953047.5105637759,-111033.9,-175417.66,-19478.271,-47972.047,-14277.71,-56744.67,-14583.578,28505.371
953047.5145637715,-111025.96,-175415.38,-19471.15,-47965.375,-14268.881,-56743.043,-14577.067,28519.248
953047.5185637672,-111029.016,-175426.28,-19467.285,-47971.07,-14268.962,-56752.44,-14575.033,28550.049
953047.5225637628,-111046.02,-175437.67,-19463.787,-47983.36,-14283.447,-56763.88,-14581.177,28561.402
953047.5265637585,-111046.59,-175438.03,-19466.105,-47986.29,-14291.057,-56761.72,-14591.513,28535.28
953047.5305637541,-111031.13,-175428.06,-19467.53,-47975.02,-14290.283,-56745.117,-14590.658,28506.348
953047.5345637498,-111021.98,-175426.56,-19456.666,-47966.72,-14283.122,-56741.906,-14582.805,28517.578
953047.5385637454,-111035.445,-175434.4,-19461.834,-47972.86,-14288.737,-56753.746,-14579.224,28544.395
953047.542563741,-111050.87,-175454.47,-19473.309,-47988.484,-14298.218,-56768.68,-14587.24,28550.66
953047.5465637366,-111045.78,-175453.94,-19471.03,-47989.668,-14294.108,-56768.066,-14598.389,28526.855
953047.5505637323,-111031.375,-175434.78,-19472.371,-47975.344,-14284.709,-56753.38,-14597.25,28499.309
953047.5545637279,-111027.1,-175428.55,-19475.506,-47966.637,-14276.042,-56747.48,-14588.989,28507.285
953047.5585637236,-111034.75,-175438.77,-19472.047,-47972.25,-14276.978,-56753.5,-14583.578,28536.947
953047.5625637192,-111053.555,-175458.62,-19469.238,-47986.207,-14296.306,-56763.266,-14592.245,28545.98
953047.5665637149,-111053.19,-175454.88,-19473.348,-47986.74,-14307.251,-56763.348,-14604.004,28518.719
953047.5705637105,-111037.31,-175439.66,-19476.562,-47978.19,-14297.7705,-56750.855,-14604.574,28492.352
953047.5745637062,-111031.58,-175432.7,-19472.209,-47970.867,-14285.727,-56746.91,-14594.523,28508.75
953047.5785637018,-111042.73,-175441.38,-19464.844,-47974.082,-14283.936,-56756.836,-14585.327,28540.895
953047.5825636975,-111059.05,-175453.86,-19457.887,-47987.227,-14290.039,-56767.418,-14589.804,28552.572
953047.5865636931,-111047.77,-175445.28,-19462.117,-47986.777,-14293.986,-56760.742,-14597.738,28525.432
953047.5905636888,-111033.29,-175431.0,-19466.064,-47977.01,-14294.067,-56748.984,-14601.685,28486.492
953047.5945636844,-111029.914,-175424.03,-19460.205,-47967.938,-14281.494,-56741.496,-14591.757,28492.799
953047.5985636801,-111030.93,-175431.81,-19458.293,-47971.438,-14275.961,-56749.23,-14584.025,28530.926
953047.6025636757,-111048.51,-175452.64,-19469.32,-47986.695,-14284.79,-56761.8,-14589.6,28546.225
953047.6065636714,-111050.3,-175452.56,-19471.803,-47990.074,-14293.783,-56762.207,-14603.027,28518.393
953047.6105636669,-111038.78,-175432.34,-19469.97,-47978.312,-14289.104,-56750.57,-14604.167,28497.07
953047.6145636626,-111029.09,-175421.06,-19468.1,-47969.65,-14276.571,-56743.246,-14593.506,28505.982
953047.6185636582,-111032.11,-175425.3,-19462.566,-47972.617,-14276.164,-56748.82,-14585.002,28536.012
953047.6225636539,-111043.87,-175434.73,-19467.285,-47985.598,-14295.451,-56758.465,-14589.152,28540.895
953047.6265636495,-111050.42,-175439.83,-19473.348,-47988.812,-14306.234,-56757.45,-14596.924,28513.877
953047.6305636452,-111035.73,-175430.02,-19464.559,-47976.645,-14296.713,-56745.117,-14593.262,28497.355
953047.6345636408,-111029.95,-175423.1,-19452.393,-47966.555,-14281.942,-56738.77,-14580.526,28510.377
953047.6385636365,-111036.016,-175429.66,-19450.521,-47972.617,-14273.56,-56747.48,-14576.782,28538.209
953047.6425636321,-111048.34,-175444.3,-19465.617,-47986.574,-14285.93,-56763.594,-14583.984,28552.37
953047.6465636278,-111045.414,-175443.05,-19472.576,-47987.55,-14288.656,-56759.156,-14590.942,28524.293
953047.6505636234,-111030.766,-175426.97,-19464.355,-47973.473,-14273.52,-56746.094,-14591.024,28497.031
953047.654563619,-111021.69,-175421.31,-19460.613,-47965.58,-14277.019,-56741.336,-14584.066,28508.627
953047.6585636147,-111030.44,-175426.69,-19461.223,-47973.676,-14284.831,-56749.35,-14580.282,28541.992
953047.6625636104,-111040.734,-175434.81,-19457.684,-47983.32,-14288.452,-56758.508,-14584.636,28559.205
953047.666563606,-111040.125,-175438.0,-19467.45,-47984.742,-14287.517,-56756.43,-14594.809,28537.11
953047.6705636017,-111034.38,-175430.83,-19471.803,-47978.152,-14283.691,-56743.45,-14598.511,28501.344
953047.6745635972,-111037.07,-175421.44,-19459.799,-47971.64,-14272.909,-56738.566,-14585.815,28517.701
953047.6785635928,-111043.46,-175429.98,-19454.916,-47974.043,-14277.629,-56744.55,-14573.527,28557.049
953047.6825635885,-111043.42,-175443.28,-19456.463,-47986.695,-14299.316,-56756.31,-14578.532,28570.477
953047.6865635841,-111043.625,-175443.56,-19467.408,-47989.504,-14294.23,-56757.367,-14591.553,28549.969
953047.6905635798,-111022.51,-175427.5,-19473.309,-47980.105,-14285.319,-56744.754,-14591.146,28521.852
953047.6945635754,-111012.05,-175414.88,-19467.652,-47970.625,-14280.151,-56736.33,-14578.939,28533.041
953047.6985635711,-111029.75,-175425.88,-19466.146,-47978.19,-14288.656,-56745.77,-14572.51,28559.287
953047.7025635667,-111044.234,-175440.92,-19471.559,-47992.598,-14303.752,-56754.355,-14577.881,28568.482
953047.7065635624,-111042.04,-175440.64,-19464.07,-47991.496,-14307.089,-56750.125,-14586.345,28543.01
953047.710563558,-111032.48,-175421.34,-19463.258,-47983.24,-14286.947,-56739.42,-14588.379,28511.8
953047.7145635537,-111024.54,-175415.0,-19455.81,-47974.938,-14265.219,-56732.18,-14574.626,28521.201
953047.7185635493,-111034.75,-175426.08,-19444.58,-47979.29,-14273.112,-56741.7,-14567.424,28547.771
953047.722563545,-111048.305,-175439.02,-19453.37,-47994.59,-14283.366,-56755.414,-14574.463,28559.611
953047.7265635406,-111041.22,-175432.1,-19457.887,-47994.55,-14284.709,-56750.652,-14579.224,28542.36
953047.7305635363,-111028.445,-175421.52,-19461.102,-47984.703,-14282.309,-56736.656,-14581.787,28506.797
953047.7345635319,-111022.914,-175416.75,-19467.326,-47977.5,-14278.646,-56730.188,-14575.073,28499.229
953047.7385635275,-111030.84,-175425.22,-19467.896,-47980.55,-14279.013,-56740.074,-14569.54,28529.746
953047.7425635231,-111048.914,-175447.16,-19461.914,-47994.59,-14296.835,-56757.652,-14578.654,28550.66
953047.7465635188,-111047.24,-175444.83,-19460.287,-47994.14,-14302.612,-56756.39,-14588.745,28534.629
953047.7505635144,-111035.12,-175422.98,-19457.031,-47980.836,-14289.592,-56741.457,-14587.565,28509.156
953047.7545635101,-111028.24,-175410.94,-19459.555,-47974.043,-14274.008,-56736.25,-14578.044,28519.613
953047.7585635057,-111025.96,-175414.23,-19453.695,-47977.01,-14273.356,-56741.336,-14569.092,28551.555
953047.7625635014,-111039.06,-175425.58,-19447.754,-47985.965,-14289.877,-56749.594,-14577.108,28564.006
953047.766563497,-111045.695,-175427.83,-19450.115,-47984.375,-14301.758,-56747.766,-14588.176,28537.354
953047.7705634927,-111028.484,-175417.03,-19450.887,-47974.938,-14287.842,-56739.504,-14590.129,28510.377
953047.7745634883,-111021.65,-175412.44,-19456.219,-47969.402,-14279.745,-56737.875,-14585.002,28523.56
953047.778563484,-111027.55,-175415.9,-19457.275,-47970.906,-14276.896,-56744.062,-14577.637,28551.066
953047.7825634796,-111045.695,-175429.2,-19454.916,-47981.203,-14285.238,-56754.273,-14584.961,28557.7
953047.7865634753,-111041.75,-175430.88,-19461.385,-47983.277,-14293.986,-56751.953,-14597.453,28527.14
953047.7905634709,-111029.3,-175420.58,-19463.42,-47972.656,-14293.701,-56738.85,-14601.034,28493.896
953047.7945634666,-111017.91,-175414.27,-19456.746,-47965.984,-14278.442,-56735.477,-14591.553,28499.553
953047.7985634622,-111025.68,-175420.94,-19450.48,-47969.32,-14275.798,-56744.348,-14583.822,28537.232
953047.8025634579,-111038.74,-175428.23,-19457.846,-47984.54,-14286.418,-56757.45,-14590.942,28555.258
953047.8065634534,-111037.16,-175427.94,-19452.23,-47987.184,-14289.226,-56757.49,-14598.755,28532.797
953047.810563449,-111027.1,-175414.36,-19442.098,-47975.098,-14281.047,-56741.906,-14595.744,28507.203
953047.8145634447,-111018.92,-175410.45,-19442.303,-47966.555,-14273.479,-56735.72,-14585.775,28513.713
953047.8185634403,-111025.27,-175419.16,-19441.162,-47971.56,-14265.056,-56742.27,-14578.654,28545.248
953047.822563436,-111037.56,-175434.0,-19444.336,-47982.87,-14273.031,-56750.41,-14584.311,28559.45
953047.8265634316,-111035.04,-175436.16,-19453.004,-47984.54,-14275.351,-56746.258,-14589.6,28532.879
953047.8305634273,-111025.88,-175420.22,-19456.463,-47977.62,-14278.402,-56734.99,-14589.315,28504.07
953047.834563423,-111018.92,-175416.92,-19450.848,-47969.93,-14276.367,-56729.004,-14579.997,28512.533
953047.8385634186,-111034.06,-175427.98,-19452.393,-47978.355,-14283.366,-56743.734,-14579.306,28545.898
953047.8425634142,-111054.33,-175441.94,-19450.154,-47989.42,-14293.661,-56755.21,-14585.246,28560.385
953047.8465634099,-111046.836,-175436.28,-19451.254,-47991.133,-14291.22,-56749.434,-14592.367,28540.162
953047.8505634055,-111030.27,-175422.4,-19462.525,-47980.39,-14284.018,-56736.125,-14593.262,28506.512
953047.8545634012,-111031.54,-175413.75,-19463.176,-47969.973,-14271.688,-56728.355,-14583.822,28511.8
953047.8585633968,-111031.74,-175420.12,-19453.328,-47972.984,-14272.014,-56737.793,-14575.766,28540.04
953047.8625633925,-111034.75,-175429.89,-19457.479,-47987.1,-14275.839,-56748.535,-14578.695,28560.385
953047.8665633881,-111038.86,-175432.58,-19464.152,-47991.293,-14278.891,-56745.688,-14588.786,28541.465
953047.8705633837,-111033.41,-175422.94,-19458.537,-47981.812,-14277.182,-56734.094,-14588.461,28512.736
953047.8745633793,-111024.91,-175417.56,-19452.393,-47972.58,-14267.05,-56727.01,-14577.8,28526.652
953047.878563375,-111027.914,-175424.36,-19452.19,-47975.098,-14269.287,-56733.035,-14571.249,28558.35
953047.8825633706,-111036.09,-175438.23,-19450.684,-47985.555,-14283.61,-56743.246,-14576.538,28571.25
953047.8865633663,-111039.72,-175441.05,-19453.004,-47985.8,-14284.79,-56739.016,-14584.392,28543.01
953047.8905633619,-111026.86,-175421.03,-19453.98,-47977.176,-14272.827,-56725.75,-14584.961,28510.703
953047.8945633576,-111020.836,-175411.95,-19447.592,-47968.59,-14264.853,-56721.477,-14574.789,28527.344
953047.8985633532,-111033.41,-175421.31,-19442.098,-47971.76,-14269.653,-56729.777,-14565.674,28561.89
953047.9025633489,-111049.03,-175431.84,-19452.475,-47986.53,-14280.273,-56742.8,-14571.94,28569.092
953047.9065633445,-111039.266,-175432.7,-19463.502,-47983.36,-14280.192,-56736.453,-14581.259,28544.354
953047.9105633402,-111025.234,-175421.03,-19459.717,-47973.188,-14273.764,-56722.375,-14582.968,28518.434
953047.9145633358,-111017.336,-175414.92,-19448.486,-47966.39,-14268.474,-56719.973,-14575.399,28532.268
953047.9185633315,-111022.22,-175417.44,-19443.318,-47963.3,-14263.876,-56726.973,-14568.563,28566.447
953047.9225633271,-111036.016,-175423.55,-19443.604,-47973.676,-14283.0,-56736.047,-14570.72,28578.492
953047.9265633228,-111034.34,-175424.73,-19445.312,-47975.3,-14283.366,-56732.832,-14576.986,28554.24
953047.9305633184,-111020.15,-175416.52,-19446.248,-47964.03,-14275.473,-56719.973,-14577.393,28523.031
953047.934563314,-111014.29,-175407.77,-19436.768,-47956.055,-14270.386,-56714.152,-14569.54,28526.043
953047.9385633096,-111017.83,-175415.28,-19440.35,-47958.375,-14268.596,-56720.46,-14565.918,28557.74
953047.9425633053,-111028.0,-175428.34,-19451.986,-47968.223,-14276.164,-56730.145,-14570.598,28567.1
953047.9465633009,-111027.06,-175422.08,-19456.219,-47970.83,-14286.743,-56730.023,-14579.834,28537.314
953047.9505632966,-111022.625,-175407.27,-19452.922,-47962.28,-14280.273,-56721.477,-14582.235,28507.854
953047.9545632922,-111020.19,-175402.14,-19453.98,-47956.016,-14267.212,-56718.71,-14573.161,28520.428
953047.9585632879,-111016.4,-175406.5,-19450.36,-47957.6,-14263.998,-56726.117,-14565.1045,28553.955
953047.9625632835,-111033.33,-175423.67,-19440.47,-47969.2,-14274.089,-56737.227,-14569.011,28566.855
953047.9665632792,-111024.13,-175422.48,-19442.627,-47969.81,-14277.06,-56732.992,-14580.119,28548.828
953047.9705632748,-110999.72,-175407.77,-19444.621,-47955.895,-14269.694,-56716.473,-14579.997,28524.7
953047.9745632705,-110999.64,-175407.31,-19440.145,-47948.49,-14264.812,-56707.805,-14568.93,28533.041
953047.9785632661,-111007.125,-175418.95,-19439.535,-47955.242,-14266.968,-56715.82,-14562.256,28572.55
953047.9825632618,-111020.35,-175432.3,-19440.35,-47968.223,-14273.926,-56729.453,-14568.848,28579.672
953047.9865632574,-111029.55,-175430.95,-19447.754,-47973.27,-14277.914,-56731.445,-14582.153,28551.596
953047.990563253,-111023.93,-175414.72,-19453.166,-47961.914,-14273.642,-56718.184,-14583.944,28522.258
953047.9945632487,-111011.07,-175401.17,-19448.445,-47952.68,-14268.2705,-56710.207,-14576.376,28532.676
953047.9985632444,-111017.625,-175408.2,-19438.152,-47956.016,-14268.311,-56717.613,-14571.818,28564.129
953048.0025632399,-111024.74,-175416.34,-19435.994,-47967.367,-14270.915,-56724.285,-14572.998,28579.266
953048.0065632355,-111025.15,-175418.34,-19446.941,-47968.793,-14277.222,-56722.496,-14579.875,28554.932
953048.0105632312,-111011.44,-175410.25,-19448.242,-47957.645,-14274.17,-56711.875,-14581.462,28527.793
953048.0145632268,-111005.17,-175405.08,-19444.58,-47950.32,-14271.566,-56708.05,-14574.667,28538.86
953048.0185632225,-111008.47,-175410.61,-19446.533,-47953.74,-14271.933,-56715.414,-14565.674,28573.73
953048.0225632181,-111021.69,-175423.14,-19445.72,-47969.44,-14279.013,-56728.152,-14569.377,28583.008
953048.0265632138,-111022.1,-175420.9,-19453.29,-47970.95,-14281.82,-56723.88,-14578.451,28556.885
953048.0305632094,-111011.88,-175412.08,-19461.71,-47962.324,-14274.13,-56714.766,-14581.34,28523.154
953048.0345632051,-111005.62,-175400.39,-19452.068,-47953.047,-14262.492,-56709.68,-14570.598,28537.762
953048.0385632007,-111013.96,-175398.97,-19444.988,-47954.348,-14256.267,-56712.08,-14559.326,28575.807
953048.0425631964,-111024.87,-175412.03,-19444.05,-47966.105,-14260.254,-56720.215,-14560.547,28595.623
953048.046563192,-111024.13,-175414.56,-19445.312,-47969.44,-14272.543,-56716.39,-14571.818,28561.117
953048.0505631877,-111009.04,-175405.97,-19452.148,-47961.508,-14273.804,-56705.61,-14575.847,28520.63
953048.0545631833,-110999.8,-175395.72,-19445.516,-47950.684,-14262.411,-56701.297,-14566.406,28533.488
953048.058563179,-111016.6,-175410.08,-19441.773,-47956.91,-14263.184,-56713.055,-14561.564,28566.895
953048.0625631746,-111032.07,-175428.92,-19443.645,-47972.09,-14281.82,-56723.473,-14567.099,28579.63
953048.0665631702,-111022.83,-175430.9,-19445.477,-47972.09,-14282.512,-56722.25,-14575.439,28565.309
953048.0705631658,-111002.85,-175412.44,-19443.197,-47958.336,-14271.811,-56709.312,-14576.701,28538.127
953048.0745631615,-111005.66,-175409.27,-19442.791,-47948.895,-14263.876,-56703.332,-14569.621,28549.725
953048.0785631571,-110999.02,-175412.69,-19444.703,-47952.312,-14265.585,-56709.516,-14562.419,28577.922
953048.0825631528,-111019.125,-175421.39,-19454.387,-47967.938,-14281.982,-56721.926,-14567.424,28586.02
953048.0865631484,-111023.85,-175416.95,-19463.623,-47967.613,-14293.783,-56719.16,-14575.358,28565.635
953048.0905631441,-111011.68,-175408.73,-19460.002,-47957.234,-14296.916,-56709.883,-14579.916,28536.582
953048.0945631397,-111006.06,-175407.23,-19446.777,-47948.12,-14287.68,-56707.03,-14573.527,28539.918
953048.0985631354,-111017.91,-175421.77,-19444.824,-47955.203,-14280.151,-56718.59,-14570.557,28569.092
953048.102563131,-111026.49,-175435.75,-19450.928,-47970.46,-14284.018,-56732.016,-14574.138,28580.566
953048.1065631267,-111020.39,-175427.2,-19453.816,-47971.152,-14281.86,-56728.355,-14583.415,28552.125
953048.1105631223,-111007.164,-175408.2,-19456.828,-47959.434,-14274.78,-56712.242,-14587.932,28518.516
953048.114563118,-111004.88,-175403.28,-19454.998,-47950.645,-14267.538,-56702.68,-14579.306,28525.596
953048.1185631136,-111017.945,-175417.61,-19461.14,-47956.79,-14263.957,-56714.316,-14575.155,28560.14
953048.1225631093,-111030.84,-175428.72,-19463.379,-47969.688,-14265.422,-56729.29,-14584.025,28577.8
953048.1265631049,-111027.34,-175424.81,-19461.305,-47969.32,-14266.5205,-56725.426,-14593.344,28552.816
953048.1305631006,-111024.336,-175414.64,-19466.96,-47958.254,-14265.625,-56711.1,-14593.466,28521.445
953048.1345630961,-111010.664,-175405.44,-19466.797,-47952.883,-14261.597,-56707.48,-14585.205,28526.45
953048.1385630918,-111013.06,-175410.25,-19461.102,-47957.316,-14266.439,-56716.797,-14581.584,28555.38
953048.1425630874,-111022.26,-175424.56,-19458.822,-47971.152,-14277.588,-56726.973,-14584.636,28568.97
953048.146563083,-111025.59,-175431.2,-19465.291,-47977.336,-14293.051,-56727.746,-14595.622,28545.98
953048.1505630787,-111016.12,-175419.31,-19470.053,-47967.977,-14279.216,-56716.188,-14594.809,28521.566
953048.1545630743,-111008.34,-175408.12,-19457.56,-47956.83,-14247.192,-56708.66,-14577.922,28538.371
953048.15856307,-111011.6,-175409.75,-19447.713,-47959.473,-14251.913,-56716.676,-14566.772,28572.674
953048.1625630656,-111024.54,-175424.48,-19446.777,-47976.32,-14270.264,-56732.016,-14575.928,28575.807
953048.1665630613,-111031.13,-175420.38,-19448.201,-47974.855,-14276.774,-56726.156,-14585.083,28555.055
953048.170563057,-111012.54,-175406.95,-19447.51,-47964.234,-14275.595,-56711.59,-14583.415,28529.176
953048.1745630526,-110996.75,-175398.73,-19447.307,-47961.02,-14275.106,-56707.93,-14577.312,28538.33
953048.1785630482,-111009.89,-175408.5,-19451.62,-47966.96,-14274.577,-56718.387,-14572.021,28571.412
953048.1825630439,-111022.664,-175424.23,-19453.816,-47978.598,-14273.682,-56727.906,-14574.219,28597.168
953048.1865630395,-111020.23,-175421.47,-19451.416,-47982.137,-14277.995,-56728.273,-14585.287,28578.29
953048.1905630352,-111009.484,-175405.56,-19448.812,-47971.805,-14273.031,-56716.434,-14585.979,28547.73
953048.1945630308,-111005.62,-175398.23,-19444.906,-47961.67,-14266.113,-56707.03,-14575.847,28557.578
953048.1985630264,-111018.03,-175405.61,-19440.227,-47965.17,-14258.22,-56711.996,-14567.18,28589.193
953048.202563022,-111025.84,-175417.77,-19449.707,-47977.867,-14274.699,-56722.047,-14574.789,28592.082
953048.2065630177,-111021.164,-175414.8,-19449.3,-47979.777,-14287.272,-56720.746,-14583.293,28565.35
953048.2105630133,-111012.13,-175405.08,-19446.777,-47969.85,-14279.907,-56708.703,-14580.444,28535.441
953048.214563009,-111004.4,-175406.75,-19446.9,-47963.95,-14288.778,-56705.49,-14574.748,28542.033
953048.2185630046,-111016.484,-175410.73,-19440.268,-47964.887,-14292.888,-56715.54,-14566.081,28577.922
953048.2225630003,-111027.266,-175420.17,-19450.521,-47978.8,-14293.579,-56729.535,-14573.649,28589.926
953048.2265629959,-111024.78,-175418.62,-19457.967,-47984.17,-14286.133,-56726.93,-14584.392,28564.82
953048.2305629916,-111013.555,-175404.9,-19454.469,-47970.83,-14281.047,-56711.426,-14583.049,28540.162
953048.2345629872,-111002.69,-175397.6,-19450.195,-47962.402,-14272.827,-56704.266,-14574.301,28545.777
953048.2385629829,-111008.55,-175406.98,-19447.998,-47965.457,-14272.095,-56711.305,-14567.18,28573.771
953048.2425629785,-111029.664,-175424.28,-19450.48,-47982.26,-14282.431,-56727.05,-14573.8125,28585.287
953048.2465629742,-111031.17,-175425.34,-19457.275,-47983.727,-14280.844,-56727.906,-14585.043,28555.664
953048.2505629698,-111015.016,-175408.98,-19453.777,-47969.363,-14272.299,-56711.875,-14588.135,28524.822
953048.2545629655,-111010.09,-175394.86,-19446.9,-47956.504,-14269.247,-56701.785,-14575.033,28543.336
953048.2585629611,-111007.86,-175401.5,-19448.854,-47959.473,-14270.508,-56706.91,-14565.063,28570.68
953048.2625629567,-111022.305,-175421.47,-19449.139,-47978.027,-14276.367,-56723.43,-14576.823,28582.398
953048.2665629523,-111027.266,-175419.89,-19453.207,-47980.31,-14278.036,-56728.234,-14588.705,28562.5
953048.270562948,-111010.83,-175400.64,-19456.746,-47965.78,-14260.742,-56712.73,-14586.63,28533.936
953048.2745629436,-110998.375,-175395.39,-19446.9,-47957.277,-14251.181,-56706.383,-14577.597,28537.68
953048.2785629393,-111006.836,-175405.52,-19442.098,-47960.492,-14264.812,-56714.4,-14572.0625,28575.195
953048.2825629349,-111019.25,-175420.42,-19447.633,-47973.43,-14272.258,-56729.617,-14579.631,28586.549
953048.2865629306,-111018.555,-175419.48,-19452.678,-47975.508,-14277.629,-56728.19,-14591.269,28556.846
953048.2905629262,-111004.73,-175400.77,-19449.016,-47961.996,-14273.642,-56712.324,-14591.309,28521.69
953048.2945629219,-110997.805,-175389.17,-19435.914,-47951.094,-14260.702,-56704.51,-14584.311,28525.352
953048.2985629175,-111000.94,-175402.03,-19430.502,-47953.33,-14253.988,-56710.9,-14579.143,28553.143
953048.3025629132,-111011.84,-175416.27,-19439.412,-47966.39,-14269.247,-56725.098,-14587.565,28567.139
953048.3065629088,-111012.695,-175416.47,-19442.18,-47969.605,-14281.088,-56724.082,-14600.586,28544.883
953048.3105629045,-111001.95,-175398.16,-19443.482,-47959.15,-14280.844,-56710.246,-14600.302,28519.94
953048.3145629001,-110996.38,-175393.23,-19445.027,-47952.11,-14267.334,-56708.254,-14588.379,28530.803
953048.3185628958,-111004.4,-175398.48,-19443.807,-47958.62,-14261.719,-56716.96,-14579.0205,28562.582
953048.3225628914,-111018.27,-175413.38,-19443.482,-47974.812,-14265.178,-56727.258,-14585.083,28576.295
953048.326562887,-111018.76,-175414.52,-19450.928,-47979.453,-14268.637,-56725.14,-14596.313,28554.648
953048.3305628826,-111006.836,-175405.72,-19451.62,-47970.215,-14254.721,-56708.418,-14598.063,28527.344
953048.3345628782,-110999.8,-175397.02,-19444.336,-47959.27,-14255.127,-56701.336,-14585.49,28540.977
953048.3385628739,-111004.4,-175410.61,-19436.523,-47965.496,-14264.282,-56713.016,-14576.172,28573.65
953048.3425628695,-111017.5,-175427.94,-19437.623,-47979.656,-14275.717,-56725.793,-14581.421,28587.77
953048.3465628652,-111021.164,-175423.88,-19445.15,-47979.207,-14268.2705,-56721.438,-14587.362,28573.283
953048.3505628608,-111005.414,-175408.12,-19445.68,-47968.996,-14259.44,-56710.29,-14588.583,28541.912
953048.3545628565,-110992.234,-175398.73,-19435.303,-47961.63,-14248.291,-56704.715,-14584.311,28547.607
953048.3585628521,-110997.69,-175396.4,-19430.828,-47963.95,-14243.571,-56709.555,-14574.667,28582.887
953048.3625628478,-111010.945,-175406.38,-19440.838,-47976.93,-14261.516,-56720.99,-14580.078,28593.1
953048.3665628434,-111014.53,-175412.4,-19448.283,-47980.184,-14271.688,-56721.68,-14592.123,28566.65
953048.3705628391,-110996.99,-175398.0,-19445.312,-47967.043,-14262.411,-56708.863,-14594.849,28535.035
953048.3745628347,-110989.18,-175387.45,-19441.406,-47956.504,-14245.321,-56702.516,-14586.223,28540.527
953048.3785628304,-110999.64,-175396.78,-19436.85,-47962.28,-14252.075,-56710.004,-14579.672,28564.129
953048.382562826,-111014.65,-175416.42,-19444.744,-47978.477,-14270.956,-56720.746,-14588.135,28569.418
953048.3865628217,-111018.31,-175419.31,-19459.676,-47982.953,-14262.858,-56723.594,-14599.936,28544.19
953048.3905628173,-111007.49,-175404.3,-19451.742,-47969.32,-14248.291,-56708.008,-14599.081,28519.98
953048.3945628129,-111007.125,-175396.2,-19444.256,-47962.688,-14240.153,-56700.97,-14583.7,28526.084
953048.3985628085,-111010.5,-175404.83,-19440.186,-47968.547,-14245.81,-56712.527,-14577.108,28557.578
953048.4025628042,-111022.055,-175421.64,-19448.04,-47984.66,-14259.604,-56727.46,-14588.786,28564.25
953048.4065627998,-111018.64,-175418.38,-19457.764,-47985.555,-14270.712,-56722.656,-14600.546,28531.21
953048.4105627955,-111004.195,-175398.03,-19454.957,-47971.6,-14268.026,-56707.52,-14601.074,28507.65
953048.4145627911,-110995.85,-175387.25,-19450.684,-47961.59,-14270.305,-56700.848,-14592.245,28520.957
953048.4185627868,-111003.13,-175393.03,-19450.604,-47966.23,-14270.102,-56711.59,-14586.426,28549.154
953048.4225627824,-111013.92,-175404.88,-19446.086,-47978.56,-14274.658,-56727.746,-14592.082,28559.896
953048.4265627781,-111012.25,-175412.77,-19445.965,-47981.12,-14283.651,-56726.24,-14598.959,28536.621
953048.4305627737,-110997.195,-175396.61,-19441.814,-47970.258,-14271.811,-56711.67,-14598.471,28510.092
953048.4345627694,-110990.36,-175383.62,-19433.025,-47963.95,-14261.76,-56707.684,-14590.251,28523.602
953048.438562765,-111005.086,-175390.8,-19430.502,-47965.7,-14253.54,-56712.73,-14581.055,28560.914
953048.4425627607,-111019.984,-175411.34,-19438.355,-47979.29,-14265.625,-56723.918,-14588.705,28573.527
953048.4465627563,-111010.22,-175413.25,-19451.783,-47979.37,-14281.494,-56721.723,-14599.691,28552.002
953048.450562752,-110994.39,-175397.7,-19451.254,-47966.797,-14280.844,-56708.336,-14598.633,28521.893
953048.4545627476,-110984.26,-175383.75,-19441.285,-47959.11,-14267.416,-56703.574,-14589.966,28529.297
953048.4585627432,-110989.67,-175385.98,-19439.168,-47963.258,-14260.539,-56713.95,-14584.677,28567.871
953048.4625627388,-111004.32,-175399.95,-19438.803,-47978.152,-14265.381,-56727.133,-14590.82,28581.38
953048.4665627345,-111002.41,-175402.06,-19442.791,-47980.105,-14270.671,-56721.844,-14600.18,28555.055
953048.4705627301,-110989.46,-175384.16,-19439.373,-47965.984,-14269.735,-56704.43,-14600.505,28524.293
953048.4745627258,-110982.75,-175378.3,-19434.123,-47956.543,-14272.543,-56699.914,-14594.6045,28536.256
953048.4785627214,-110990.16,-175387.38,-19442.506,-47962.73,-14272.258,-56710.9,-14588.867,28565.186
953048.482562717,-111015.95,-175406.62,-19448.812,-47979.82,-14277.67,-56724.406,-14592.041,28572.633
953048.4865627127,-111018.44,-175415.9,-19457.805,-47985.434,-14280.966,-56723.473,-14601.685,28544.312
953048.4905627083,-110988.0,-175397.42,-19463.217,-47971.234,-14273.845,-56706.137,-14598.063,28516.074
953048.494562704,-110974.37,-175381.23,-19454.387,-47959.11,-14262.695,-56699.87,-14587.118,28526.043
953048.4985626996,-110987.23,-175389.98,-19446.086,-47962.605,-14266.439,-56705.16,-14580.852,28553.549
953048.5025626953,-111006.23,-175406.42,-19446.574,-47976.562,-14283.651,-56718.996,-14589.396,28564.494
953048.506562691,-111004.44,-175406.38,-19441.977,-47979.535,-14289.104,-56717.367,-14598.063,28545.451
953048.5105626866,-110991.055,-175388.03,-19439.982,-47968.02,-14271.688,-56702.72,-14593.588,28527.832
953048.5145626822,-110985.64,-175378.1,-19435.303,-47959.188,-14258.627,-56698.367,-14582.4795,28537.15
953048.5185626779,-110990.56,-175387.5,-19434.938,-47963.95,-14264.201,-56707.24,-14578.817,28559.367
953048.5225626735,-111000.414,-175405.77,-19441.814,-47979.86,-14276.001,-56717.9,-14585.856,28569.012
953048.5265626691,-111000.57,-175399.38,-19444.336,-47977.99,-14282.878,-56711.305,-14590.414,28548.707
953048.5305626647,-110984.58,-175380.42,-19446.453,-47965.66,-14272.014,-56692.223,-14584.717,28517.254
953048.5345626604,-110985.27,-175374.39,-19445.271,-47956.586,-14255.941,-56687.055,-14571.615,28536.297
953048.538562656,-110991.3,-175385.14,-19438.64,-47962.73,-14261.597,-56697.836,-14563.273,28578.736
953048.5425626517,-111000.2,-175403.08,-19438.518,-47976.727,-14264.975,-56711.387,-14568.645,28596.518
953048.5465626473,-111005.58,-175402.31,-19445.271,-47981.49,-14273.723,-56715.13,-14585.531,28568.035
953048.550562643,-110990.44,-175386.31,-19444.092,-47971.355,-14263.754,-56701.297,-14585.246,28537.559
953048.5545626386,-110978.03,-175381.06,-19442.262,-47962.2,-14255.981,-56692.953,-14573.73,28549.725
953048.5585626343,-110979.91,-175387.25,-19436.035,-47963.137,-14263.51,-56698.164,-14565.471,28581.26
953048.5625626299,-110999.44,-175398.53,-19433.879,-47976.562,-14273.967,-56708.215,-14574.829,28588.99
953048.5665626256,-111000.62,-175399.22,-19442.383,-47980.31,-14268.677,-56708.58,-14585.531,28565.186
953048.5705626212,-110986.9,-175390.72,-19447.469,-47969.85,-14268.555,-56698.57,-14585.612,28544.598
953048.5745626169,-110987.72,-175387.22,-19443.889,-47962.28,-14261.557,-56694.336,-14572.226,28556.357
953048.5785626125,-111001.59,-175397.39,-19444.459,-47967.734,-14263.103,-56700.81,-14564.453,28585.002
953048.5825626082,-111017.016,-175417.86,-19441.57,-47980.31,-14274.333,-56712.242,-14573.935,28591.635
953048.5865626038,-111004.4,-175412.69,-19440.674,-47979.74,-14281.982,-56707.24,-14584.839,28567.953
953048.5905625994,-110987.63,-175398.64,-19437.703,-47967.33,-14273.031,-56688.887,-14585.368,28541.871
953048.594562595,-110986.66,-175394.05,-19432.455,-47961.793,-14265.503,-56689.82,-14579.062,28550.904
953048.5985625907,-110997.32,-175402.44,-19428.102,-47963.79,-14262.655,-56695.438,-14570.679,28587.158
953048.6025625863,-111008.47,-175406.38,-19432.984,-47974.12,-14271.362,-56704.387,-14574.016,28593.914
953048.606562582,-111008.75,-175402.55,-19438.68,-47978.56,-14280.273,-56703.332,-14584.188,28564.209
953048.6105625776,-110999.92,-175391.03,-19435.873,-47968.75,-14275.554,-56689.535,-14586.264,28530.926
953048.6145625733,-110988.81,-175382.53,-19427.734,-47960.777,-14263.103,-56680.91,-14578.369,28537.883
953048.6185625689,-110996.46,-175392.9,-19426.107,-47963.176,-14258.179,-56688.316,-14571.371,28561.484
953048.6225625646,-111018.15,-175412.03,-19428.914,-47979.82,-14262.248,-56703.86,-14578.654,28571.494
953048.6265625602,-111015.47,-175413.7,-19428.305,-47983.035,-14273.153,-56701.906,-14590.292,28556.885
953048.6305625559,-111000.734,-175393.36,-19430.746,-47966.434,-14268.515,-56686.566,-14586.996,28532.92
953048.6345625515,-111001.34,-175386.36,-19431.844,-47959.883,-14261.516,-56683.39,-14576.66,28546.592
953048.6385625472,-110994.266,-175388.64,-19427.45,-47962.89,-14260.295,-56687.38,-14565.512,28580.283
953048.6425625428,-111004.03,-175403.36,-19435.303,-47979.25,-14270.996,-56699.465,-14572.998,28588.705
953048.6465625385,-111006.15,-175399.58,-19444.133,-47979.492,-14266.806,-56693.973,-14581.381,28560.303
953048.6505625341,-110999.23,-175390.34,-19449.463,-47967.082,-14264.16,-56681.234,-14584.88,28522.705
953048.6545625298,-110999.11,-175391.36,-19446.777,-47962.812,-14261.394,-56682.902,-14583.293,28520.143
953048.6585625253,-111004.27,-175392.62,-19430.99,-47964.64,-14255.697,-56693.402,-14575.888,28558.473
953048.6625625209,-111016.69,-175407.39,-19438.6,-47979.25,-14271.362,-56708.254,-14583.984,28575.684
953048.6665625166,-111014.9,-175410.4,-19448.486,-47981.445,-14282.268,-56710.246,-14598.471,28553.996
953048.6705625122,-110996.016,-175396.12,-19446.98,-47968.832,-14272.014,-56694.785,-14598.022,28526.531
953048.6745625079,-110985.6,-175386.23,-19437.215,-47956.3,-14259.685,-56687.22,-14589.071,28535.686
953048.6785625035,-110987.63,-175388.47,-19427.125,-47957.277,-14253.174,-56691.895,-14578.288,28566.447
953048.6825624992,-111001.51,-175405.48,-19433.92,-47973.676,-14261.516,-56702.637,-14583.09,28578.166
953048.6865624948,-111006.27,-175401.17,-19436.85,-47972.82,-14264.201,-56696.86,-14595.175,28550.742
953048.6905624905,-110988.98,-175383.19,-19440.553,-47958.78,-14259.359,-56685.47,-14597.819,28521.363
953048.6945624861,-110979.086,-175378.42,-19437.459,-47949.668,-14252.238,-56680.258,-14589.274,28529.217
953048.6985624818,-110985.766,-175387.53,-19425.213,-47951.336,-14253.296,-56686.973,-14577.719,28564.78
953048.7025624774,-111001.1,-175405.72,-19424.684,-47966.39,-14267.619,-56704.43,-14584.88,28579.021
953048.7065624731,-110995.28,-175400.03,-19425.09,-47967.49,-14269.328,-56699.87,-14590.902,28558.92
953048.7105624687,-110978.36,-175378.3,-19428.875,-47952.273,-14261.353,-56677.98,-14584.921,28536.133
953048.7145624644,-110979.58,-175376.02,-19439.576,-47947.918,-14257.162,-56676.312,-14582.275,28537.11
953048.71856246,-110982.586,-175389.86,-19437.826,-47953.816,-14260.132,-56685.754,-14578.939,28563.438
953048.7225624556,-110996.664,-175402.55,-19438.64,-47969.32,-14269.694,-56697.43,-14584.677,28576.945
953048.7265624512,-110998.09,-175390.75,-19435.873,-47968.26,-14272.299,-56691.367,-14589.111,28561.117
953048.7305624469,-110979.62,-175380.5,-19436.89,-47955.77,-14264.7705,-56675.17,-14587.932,28540.406
953048.7345624425,-110969.445,-175372.81,-19434.326,-47947.88,-14262.167,-56670.25,-14582.886,28541.709
953048.7385624382,-110973.48,-175376.55,-19430.46,-47948.977,-14260.01,-56679.934,-14579.062,28577.8
953048.7425624338,-110980.88,-175389.86,-19428.182,-47960.816,-14263.55,-56692.547,-14581.177,28605.51
953048.7465624295,-110986.125,-175389.98,-19426.27,-47963.83,-14269.897,-56690.227,-14590.007,28578.207
953048.7505624251,-110974.98,-175375.98,-19420.736,-47952.027,-14271.159,-56676.883,-14591.919,28549.969
953048.7545624208,-110964.766,-175368.33,-19410.848,-47946.21,-14265.015,-56675.5,-14584.311,28559.49
953048.7585624164,-110972.25,-175376.84,-19409.832,-47950.48,-14257.609,-56685.754,-14579.428,28586.06
953048.7625624121,-110991.58,-175396.53,-19422.283,-47961.508,-14261.923,-56697.145,-14585.9375,28591.96
953048.7665624077,-110993.01,-175401.86,-19431.031,-47964.56,-14266.317,-56692.383,-14594.564,28561.646
953048.7705624034,-110975.914,-175377.66,-19431.967,-47952.312,-14259.399,-56673.586,-14590.902,28534.059
953048.774562399,-110970.09,-175361.12,-19426.596,-47941.977,-14244.833,-56668.5,-14583.09,28545.41
953048.7785623947,-110977.95,-175371.8,-19421.225,-47948.082,-14238.852,-56680.664,-14580.16,28579.428
953048.7825623903,-110990.69,-175388.31,-19428.752,-47961.996,-14250.082,-56696.496,-14587.891,28595.744
953048.7865623859,-110989.305,-175387.73,-19434.896,-47964.684,-14254.395,-56690.555,-14596.68,28564.291
953048.7905623815,-110978.16,-175373.83,-19432.088,-47956.42,-14248.535,-56676.84,-14595.947,28537.965
953048.7945623772,-110974.05,-175366.45,-19424.602,-47950.44,-14241.821,-56673.26,-14586.874,28546.998
953048.7985623728,-110987.305,-175373.3,-19418.824,-47954.305,-14242.106,-56684.613,-14581.055,28580.404
953048.8025623685,-111002.77,-175390.39,-19420.574,-47969.523,-14253.418,-56699.79,-14590.861,28590.252
953048.8065623641,-110997.84,-175395.55,-19429.566,-47969.81,-14259.196,-56694.5,-14600.383,28563.6
953048.8105623598,-110978.84,-175375.33,-19435.873,-47953.777,-14253.622,-56675.09,-14597.209,28537.07
953048.8145623554,-110967.57,-175367.03,-19435.588,-47944.62,-14244.751,-56664.836,-14584.514,28546.104
953048.818562351,-110975.51,-175374.06,-19425.984,-47945.516,-14238.322,-56671.227,-14574.016,28582.357
953048.8225623467,-110985.03,-175386.03,-19427.043,-47962.402,-14253.215,-56688.926,-14582.846,28591.27
953048.8265623424,-110987.19,-175381.47,-19432.576,-47967.246,-14251.425,-56687.38,-14592.204,28569.947
953048.830562338,-110978.516,-175366.78,-19434.896,-47957.03,-14244.67,-56674.766,-14591.513,28549.236
953048.8345623336,-110974.086,-175361.17,-19426.352,-47951.336,-14242.717,-56670.777,-14583.171,28555.055
953048.8385623293,-110977.74,-175365.77,-19418.58,-47953.492,-14240.683,-56677.207,-14572.144,28587.281
953048.842562325,-110985.35,-175378.83,-19422.566,-47965.66,-14242.798,-56688.723,-14573.853,28607.463
953048.8465623206,-110984.54,-175381.44,-19416.951,-47965.7,-14248.535,-56684.246,-14583.781,28585.45
953048.8505623162,-110970.79,-175365.4,-19416.627,-47955.324,-14247.396,-56667.277,-14583.008,28554.404
953048.8545623118,-110966.96,-175363.33,-19419.963,-47951.336,-14244.751,-56663.78,-14575.277,28557.902
953048.8585623074,-110979.25,-175377.28,-19423.137,-47957.4,-14246.338,-56676.477,-14571.086,28588.299
953048.8625623031,-110993.49,-175394.45,-19425.172,-47969.523,-14263.469,-56689.94,-14579.753,28603.965
953048.8665622987,-110995.53,-175398.48,-19437.012,-47973.348,-14268.066,-56691.53,-14595.581,28571.209
953048.8705622944,-110979.336,-175387.53,-19435.018,-47963.137,-14263.794,-56676.516,-14592.57,28552.857
953048.87456229,-110968.59,-175379.61,-19438.111,-47957.52,-14262.045,-56671.31,-14584.351,28563.559
953048.8785622857,-110979.66,-175381.64,-19435.75,-47962.605,-14260.01,-56680.137,-14581.503,28584.922
953048.8825622813,-110994.71,-175397.14,-19434.979,-47974.406,-14267.66,-56689.7,-14584.311,28599.041
953048.886562277,-110995.37,-175400.44,-19440.877,-47978.76,-14273.234,-56690.715,-14589.56,28573.771
953048.8905622726,-110984.336,-175385.62,-19432.455,-47968.1,-14265.707,-56678.754,-14588.705,28550.049
953048.8945622683,-110980.59,-175382.45,-19433.473,-47964.07,-14260.01,-56678.754,-14586.182,28555.543
953048.8985622639,-110985.07,-175385.3,-19439.494,-47967.043,-14257.854,-56686.08,-14580.241,28583.09
953048.9025622596,-111000.49,-175396.2,-19438.111,-47980.67,-14259.399,-56698.977,-14586.345,28594.605
953048.9065622552,-110998.7,-175403.12,-19439.617,-47983.848,-14268.555,-56696.13,-14595.337,28567.75
953048.9105622509,-110979.49,-175387.86,-19442.506,-47968.184,-14261.923,-56680.3,-14596.029,28538.371
953048.9145622465,-110972.25,-175376.55,-19440.594,-47961.062,-14257.243,-56675.418,-14586.467,28550.049
953048.9185622421,-110980.8,-175387.45,-19444.256,-47965.984,-14271.566,-56681.36,-14579.794,28574.545
953048.9225622377,-110998.87,-175406.5,-19451.58,-47980.47,-14286.662,-56694.664,-14588.135,28582.764
953048.9265622334,-110998.91,-175402.52,-19448.445,-47980.797,-14281.169,-56693.24,-14597.534,28562.582
953048.930562229,-110990.805,-175387.02,-19446.86,-47967.977,-14269.694,-56677.613,-14595.581,28537.72
953048.9345622247,-110986.49,-175379.97,-19443.93,-47959.15,-14256.877,-56672.0,-14582.683,28553.305
953048.9385622203,-110983.89,-175391.0,-19439.576,-47966.84,-14253.256,-56684.53,-14580.7705,28583.945
953048.942562216,-111004.97,-175400.64,-19442.098,-47982.625,-14263.957,-56699.14,-14591.553,28591.432
953048.9465622116,-111012.336,-175403.28,-19448.73,-47982.832,-14265.3,-56695.11,-14601.522,28564.453
953048.9505622073,-110989.95,-175385.58,-19444.703,-47968.67,-14259.237,-56679.363,-14600.302,28533.57
953048.9545622029,-110978.84,-175376.75,-19440.756,-47960.125,-14253.5,-56674.277,-14590.698,28540.568
953048.9585621986,-110992.805,-175386.16,-19443.93,-47966.066,-14256.592,-56685.387,-14589.966,28573.568
953048.9625621942,-111004.27,-175396.38,-19438.803,-47978.19,-14267.7,-56695.598,-14594.768,28589.111
953048.9665621899,-111004.07,-175396.73,-19444.05,-47982.547,-14274.292,-56695.234,-14604.452,28555.87
953048.9705621855,-110991.414,-175387.86,-19451.863,-47972.25,-14271.281,-56677.53,-14605.225,28525.96
953048.9745621812,-110987.06,-175392.27,-19453.084,-47965.535,-14274.374,-56674.48,-14597.656,28538.127
953048.9785621768,-110998.01,-175400.64,-19446.492,-47970.95,-14282.797,-56686.605,-14592.123,28564.291
953048.9825621723,-111009.766,-175405.81,-19433.064,-47983.156,-14280.762,-56698.652,-14593.994,28581.299
953048.986562168,-111012.9,-175405.23,-19434.53,-47984.297,-14283.122,-56695.8,-14597.209,28563.885
953048.9905621636,-110993.086,-175383.6,-19436.605,-47970.418,-14263.144,-56678.71,-14593.466,28546.387
953048.9945621593,-110977.42,-175369.64,-19433.27,-47962.688,-14254.558,-56672.812,-14589.233,28552.857
953048.998562155,-110983.445,-175380.22,-19433.229,-47966.51,-14253.418,-56681.64,-14581.421,28585.287
953049.0025621506,-110998.01,-175398.44,-19442.098,-47982.75,-14266.4795,-56692.668,-14588.461,28596.72
953049.0065621462,-111001.02,-175400.97,-19447.55,-47983.48,-14274.13,-56689.332,-14597.656,28567.75
953049.0105621419,-110987.875,-175387.58,-19453.004,-47970.01,-14264.7705,-56677.41,-14597.738,28545.654
953049.0145621375,-110978.195,-175376.19,-19438.844,-47962.605,-14256.674,-56671.47,-14586.752,28561.564
953049.0185621332,-110989.1,-175383.6,-19429.89,-47970.906,-14266.968,-56684.45,-14583.618,28592.408
953049.0225621288,-111003.46,-175396.4,-19439.047,-47981.285,-14270.305,-56696.21,-14590.902,28607.627
953049.0265621245,-110994.02,-175392.02,-19441.082,-47981.812,-14274.292,-56689.984,-14600.18,28584.025
953049.0305621201,-110977.055,-175376.14,-19435.182,-47971.56,-14264.934,-56673.625,-14599.936,28552.37
953049.0345621158,-110969.73,-175368.98,-19437.541,-47963.83,-14257.8125,-56667.36,-14591.757,28555.217
953049.0385621114,-110982.875,-175376.22,-19437.094,-47967.367,-14260.417,-56676.35,-14584.229,28584.107
953049.0425621071,-111000.94,-175392.9,-19437.42,-47979.695,-14269.694,-56689.09,-14590.658,28600.22
953049.0465621027,-111004.234,-175392.42,-19439.78,-47980.266,-14266.5205,-56686.688,-14598.552,28576.904
953049.0505620983,-110989.38,-175376.92,-19438.72,-47970.094,-14257.121,-56671.797,-14597.209,28554.12
953049.0545620939,-110973.23,-175369.31,-19432.332,-47963.746,-14250.041,-56667.2,-14590.658,28562.95
953049.0585620896,-110974.45,-175374.52,-19435.059,-47963.137,-14239.665,-56673.383,-14581.177,28597.941
953049.0625620852,-110992.19,-175386.92,-19433.635,-47975.996,-14250.285,-56682.78,-14588.583,28608.115
953049.0665620809,-110994.06,-175385.62,-19433.758,-47979.086,-14255.087,-56684.33,-14597.168,28575.684
953049.0705620765,-110978.84,-175370.4,-19439.738,-47965.254,-14238.77,-56668.094,-14590.576,28553.63
953049.0745620722,-110970.34,-175365.03,-19438.844,-47955.242,-14233.48,-56661.094,-14581.137,28564.738
953049.0785620678,-110978.48,-175370.78,-19437.135,-47963.543,-14246.989,-56671.227,-14580.282,28594.402
953049.0825620635,-110993.734,-175382.78,-19431.723,-47977.38,-14257.568,-56682.17,-14585.368,28607.992
953049.0865620591,-110994.71,-175385.38,-19436.605,-47979.656,-14266.724,-56675.66,-14592.448,28580.648
953049.0905620548,-110979.086,-175372.97,-19441.61,-47964.97,-14260.336,-56658.41,-14590.21,28548.584
953049.0945620504,-110976.04,-175364.27,-19443.807,-47959.473,-14256.796,-56658.69,-14584.229,28558.473
953049.0985620461,-110987.836,-175370.0,-19428.264,-47963.016,-14255.819,-56668.99,-14577.515,28596.559
953049.1025620417,-110996.914,-175382.73,-19419.19,-47973.27,-14261.841,-56681.4,-14582.397,28612.266
953049.1065620374,-110991.26,-175383.52,-19429.2,-47976.645,-14264.16,-56679.2,-14594.442,28589.031
953049.110562033,-110980.31,-175369.95,-19426.148,-47963.176,-14259.481,-56663.656,-14594.279,28557.252
953049.1145620286,-110974.98,-175369.23,-19417.033,-47952.76,-14253.052,-56660.2,-14585.124,28569.256
953049.1185620242,-110983.12,-175378.3,-19420.207,-47956.504,-14242.514,-56673.06,-14579.102,28597.291
953049.1225620199,-110994.63,-175394.94,-19424.684,-47972.7,-14242.676,-56686.08,-14585.9375,28605.469
953049.1265620155,-110992.92,-175400.77,-19426.88,-47974.246,-14250.937,-56682.375,-14597.778,28577.76
953049.1305620112,-110973.555,-175378.34,-19432.049,-47960.574,-14243.408,-56664.96,-14601.481,28540.283
953049.1345620068,-110970.75,-175369.72,-19433.473,-47956.42,-14237.753,-56664.51,-14598.471,28547.16
953049.1385620025,-110986.05,-175381.11,-19430.096,-47963.664,-14245.891,-56678.508,-14597.209,28577.557
953049.1425619981,-110997.766,-175395.95,-19430.623,-47975.465,-14251.709,-56688.844,-14601.359,28590.373
953049.1465619938,-110990.08,-175400.69,-19423.584,-47973.145,-14251.465,-56684.53,-14606.242,28576.904
953049.1505619894,-110976.61,-175387.45,-19424.846,-47960.938,-14253.174,-56668.5,-14602.214,28558.555
953049.154561985,-110975.914,-175367.52,-19415.365,-47948.934,-14234.782,-56659.387,-14592.448,28572.062
953049.1585619807,-110974.77,-175373.3,-19408.65,-47949.75,-14236.898,-56664.633,-14585.531,28599.57
953049.1625619764,-110983.81,-175393.08,-19419.963,-47963.055,-14250.732,-56674.766,-14588.705,28601.889
953049.166561972,-110986.82,-175395.75,-19432.21,-47970.01,-14256.43,-56676.883,-14598.267,28573.936
953049.1705619677,-110977.22,-175378.42,-19431.438,-47959.27,-14244.182,-56663.13,-14597.494,28549.44
953049.1745619633,-110967.45,-175370.56,-19424.52,-47950.887,-14235.84,-56655.844,-14589.274,28564.982
953049.178561959,-110970.14,-175376.72,-19415.447,-47951.906,-14230.0625,-56664.55,-14581.015,28603.72
953049.1825619545,-110986.49,-175393.23,-19418.904,-47968.465,-14242.31,-56677.816,-14587.28,28626.303
953049.1865619501,-110984.91,-175387.33,-19418.457,-47967.613,-14240.112,-56672.16,-14593.913,28608.115
953049.1905619458,-110970.09,-175367.8,-19404.664,-47952.15,-14231.079,-56656.047,-14590.576,28575.928
953049.1945619414,-110965.664,-175362.84,-19403.564,-47947.797,-14217.814,-56651.492,-14581.259,28585.572
953049.1985619371,-110972.414,-175366.66,-19400.105,-47952.11,-14217.529,-56658.0,-14571.493,28619.955
953049.2025619327,-110983.32,-175379.84,-19403.443,-47963.055,-14230.795,-56669.395,-14572.51,28627.482
953049.2065619284,-110983.484,-175379.28,-19416.627,-47963.34,-14242.065,-56664.227,-14582.031,28591.432
953049.210561924,-110961.06,-175363.2,-19424.275,-47952.637,-14232.707,-56649.7,-14584.025,28552.734
953049.2145619197,-110950.89,-175354.25,-19418.58,-47944.297,-14222.006,-56645.47,-14575.725,28560.547
953049.2185619153,-110965.46,-175360.97,-19418.01,-47951.05,-14220.541,-56656.66,-14574.138,28590.658
953049.222561911,-110982.06,-175373.66,-19416.057,-47964.766,-14230.469,-56669.516,-14580.444,28610.352
953049.2265619066,-110981.94,-175373.5,-19417.766,-47964.48,-14239.868,-56667.035,-14589.396,28596.396
953049.2305619023,-110964.73,-175357.88,-19419.23,-47949.504,-14242.1875,-56650.84,-14586.792,28572.754
953049.2345618979,-110951.99,-175351.12,-19397.664,-47937.215,-14229.37,-56639.69,-14574.179,28582.602
953049.2385618936,-110962.08,-175363.2,-19391.643,-47939.984,-14222.25,-56645.918,-14567.139,28607.748
953049.2425618892,-110976.93,-175374.84,-19400.799,-47953.613,-14242.717,-56658.125,-14575.969,28616.13
953049.2465618848,-110974.2,-175365.33,-19407.35,-47952.72,-14249.919,-56654.91,-14580.811,28595.42
953049.2505618804,-110957.89,-175347.75,-19413.738,-47942.668,-14237.712,-56640.18,-14578.776,28569.906
953049.2545618761,-110955.77,-175345.7,-19406.982,-47936.08,-14227.214,-56638.145,-14572.348,28580.04
953049.2585618717,-110956.67,-175353.36,-19396.322,-47940.51,-14220.5,-56650.84,-14567.627,28617.066
953049.2625618674,-110966.96,-175368.5,-19398.682,-47955.363,-14237.712,-56664.43,-14576.904,28631.145
953049.266561863,-110970.14,-175370.81,-19400.879,-47958.17,-14242.92,-56662.234,-14588.501,28604.98
953049.2705618587,-110954.59,-175350.6,-19399.861,-47942.26,-14228.882,-56644.125,-14585.409,28581.26
953049.2745618543,-110941.86,-175339.53,-19395.59,-47934.164,-14213.949,-56635.38,-14574.016,28582.887
953049.27856185,-110956.75,-175353.69,-19391.643,-47942.586,-14219.809,-56646.69,-14567.505,28609.58
953049.2825618456,-110971.195,-175375.33,-19391.236,-47959.473,-14225.017,-56661.83,-14572.592,28629.72
953049.2865618413,-110973.31,-175376.27,-19392.781,-47961.996,-14225.871,-56661.094,-14580.2,28607.178
953049.2905618369,-110966.64,-175363.2,-19395.549,-47949.63,-14230.835,-56646.28,-14578.898,28583.293
953049.2945618326,-110963.914,-175366.3,-19401.938,-47942.87,-14232.544,-56643.027,-14571.493,28585.166
953049.2985618282,-110962.164,-175370.16,-19406.697,-47949.87,-14219.238,-56654.22,-14571.981,28614.951
953049.3025618239,-110969.12,-175367.8,-19402.629,-47959.27,-14226.44,-56664.88,-14581.584,28627.238
953049.3065618195,-110974.61,-175366.88,-19405.477,-47960.45,-14234.701,-56660.363,-14589.6,28602.092
953049.310561815,-110967.05,-175354.7,-19408.65,-47948.406,-14230.51,-56648.438,-14593.018,28574.951
953049.3145618107,-110954.35,-175343.72,-19401.164,-47938.4,-14223.267,-56642.62,-14583.944,28587.77
953049.3185618063,-110947.19,-175348.52,-19406.494,-47943.93,-14214.111,-56651.734,-14577.2705,28618.693
953049.322561802,-110953.33,-175366.42,-19408.895,-47957.113,-14228.598,-56661.258,-14578.41,28633.139
953049.3265617976,-110963.83,-175368.7,-19410.768,-47961.63,-14235.067,-56656.863,-14585.124,28607.383
953049.3305617933,-110963.305,-175360.19,-19412.395,-47951.336,-14226.97,-56649.62,-14584.799,28574.26
953049.334561789,-110953.945,-175358.77,-19405.518,-47941.773,-14217.773,-56644.94,-14572.958,28580.771
953049.3385617846,-110954.43,-175364.06,-19399.7,-47945.273,-14208.334,-56650.35,-14568.237,28621.543
953049.3425617802,-110965.58,-175377.25,-19404.338,-47958.008,-14205.526,-56660.93,-14576.254,28644.37
953049.3465617759,-110968.71,-175374.8,-19407.43,-47957.887,-14216.309,-56657.676,-14584.311,28623.984
953049.3505617715,-110964.484,-175358.84,-19404.053,-47946.047,-14214.966,-56642.133,-14581.665,28595.785
953049.3545617672,-110944.26,-175345.83,-19401.611,-47938.438,-14216.553,-56635.703,-14570.272,28602.459
953049.3585617628,-110952.31,-175356.28,-19397.258,-47942.586,-14216.146,-56641.684,-14562.744,28629.273
953049.3625617585,-110971.73,-175377.16,-19403.768,-47956.016,-14225.139,-56647.504,-14564.616,28645.549
953049.3665617541,-110969.2,-175376.22,-19410.035,-47957.277,-14235.759,-56643.598,-14572.51,28624.635
953049.3705617498,-110956.38,-175358.89,-19403.646,-47947.88,-14227.336,-56630.58,-14569.092,28589.56
953049.3745617454,-110954.836,-175355.36,-19404.176,-47942.953,-14216.879,-56628.34,-14562.948,28590.617
953049.378561741,-110963.625,-175362.31,-19399.781,-47945.027,-14220.785,-56639.65,-14558.1875,28625.814
953049.3825617366,-110970.75,-175370.98,-19390.219,-47958.21,-14230.429,-56653.2,-14561.931,28642.213
953049.3865617323,-110961.76,-175364.02,-19391.357,-47957.848,-14232.829,-56648.074,-14570.923,28613.934
953049.3905617279,-110950.12,-175346.61,-19399.049,-47943.645,-14229.248,-56631.918,-14571.696,28578.451
953049.3945617236,-110946.58,-175338.19,-19401.002,-47931.684,-14225.302,-56622.6,-14564.901,28589.885
953049.3985617192,-110954.63,-175349.4,-19399.496,-47937.38,-14226.522,-56633.18,-14565.186,28628.988
953049.4025617149,-110966.31,-175363.61,-19405.803,-47953.656,-14228.068,-56647.098,-14568.645,28641.562
953049.4065617105,-110972.62,-175371.47,-19407.674,-47955.08,-14228.76,-56644.53,-14577.148,28610.393
953049.4105617062,-110954.96,-175355.84,-19402.1,-47939.78,-14215.739,-56627.973,-14575.847,28589.844
953049.4145617018,-110936.98,-175335.5,-19398.357,-47927.41,-14203.939,-56618.125,-14562.744,28612.793
953049.4185616975,-110947.836,-175341.11,-19398.275,-47933.797,-14209.147,-56629.723,-14557.455,28648.846
953049.4225616931,-110966.234,-175355.84,-19397.908,-47946.047,-14220.215,-56641.81,-14566.284,28663.086
953049.4265616888,-110965.46,-175356.25,-19403.809,-47949.707,-14223.022,-56639.445,-14577.108,28630.047
953049.4305616844,-110943.445,-175336.6,-19400.066,-47932.984,-14212.729,-56620.934,-14573.12,28608.033
953049.4345616801,-110936.73,-175323.12,-19389.73,-47918.05,-14205.811,-56611.9,-14560.1,28622.803
953049.4385616757,-110940.72,-175330.94,-19386.395,-47922.16,-14204.631,-56616.21,-14545.776,28660.441
953049.4425616713,-110949.55,-175349.17,-19393.596,-47935.75,-14213.135,-56626.508,-14546.875,28670.777
