timestamp,Fp1,Fp2,F3,Fz,F4,Cz,Pz,Oz
1223553.676200355,-55797.812,-66156.25,-20454.346,-18583.252,-21412.883,-7738.2407,-20816.244,14303.549
1223553.6802003502,-55806.887,-66162.516,-20458.496,-18586.752,-21422.201,-7744.2627,-20817.912,14320.923
1223553.6842003453,-55807.17,-66179.445,-20465.496,-18588.379,-21435.629,-7753.8657,-20824.422,14335.449
1223553.6882003404,-55802.043,-66180.87,-20466.473,-18587.484,-21432.7,-7753.7437,-20823.895,14343.506
1223553.6922003357,-55797.977,-66168.46,-20459.84,-18581.625,-21415.568,-7741.781,-20812.744,14345.134
1223553.6962003307,-55802.492,-66159.14,-20453.613,-18579.672,-21408.041,-7736.6943,-20809.814,14341.594
1223553.7002003258,-55811.605,-66163.78,-20459.637,-18586.102,-21416.79,-7747.3555,-20820.191,14344.523
1223553.704200321,-55810.344,-66171.51,-20464.64,-18588.543,-21425.701,-7757.4873,-20831.137,14348.471
1223553.7082003162,-55802.98,-66174.93,-20465.576,-18587.688,-21423.951,-7758.016,-20832.967,14348.552
1223553.7122003115,-55803.184,-66164.31,-20458.781,-18582.52,-21410.85,-7743.612,-20819.58,14347.25
1223553.7162003065,-55814.25,-66162.11,-20452.963,-18580.525,-21406.617,-7733.5205,-20808.879,14342.733
1223553.7202003016,-55826.66,-66176.84,-20461.467,-18587.117,-21420.818,-7742.4727,-20819.54,14343.018
1223553.724200297,-55815.676,-66181.32,-20468.303,-18589.723,-21430.543,-7755.005,-20835.084,14338.095
1223553.728200292,-55806.152,-66176.64,-20469.32,-18590.17,-21428.875,-7759.3184,-20842.0,14327.556
1223553.732200287,-55818.93,-66179.89,-20465.047,-18589.723,-21422.69,-7748.088,-20833.904,14316.081
1223553.7362002824,-55836.184,-66183.27,-20464.764,-18590.252,-21417.604,-7740.9263,-20825.928,14310.385
1223553.7402002774,-55837.363,-66185.14,-20471.883,-18592.57,-21423.748,-7750.8955,-20835.408,14305.949
1223553.7442002725,-55830.895,-66190.06,-20477.742,-18592.488,-21431.764,-7760.417,-20847.697,14306.641
1223553.7482002678,-55826.582,-66196.25,-20476.97,-18591.838,-21431.967,-7756.429,-20845.256,14311.972
1223553.7522002629,-55823.12,-66185.71,-20468.506,-18588.826,-21418.621,-7744.385,-20833.049,14305.136
1223553.7562002582,-55827.68,-66180.7,-20462.281,-18588.258,-21414.47,-7738.607,-20826.416,14301.352
1223553.7602002532,-55837.566,-66191.29,-20468.426,-18592.896,-21425.945,-7747.0703,-20832.357,14308.024
1223553.7642002483,-55833.17,-66198.2,-20473.512,-18595.135,-21434.164,-7755.4526,-20837.484,14320.028
1223553.7682002436,-55819.176,-66192.18,-20469.402,-18592.57,-21430.46,-7755.0864,-20835.246,14327.637
1223553.7722002387,-55817.953,-66185.06,-20460.857,-18588.908,-21418.58,-7743.042,-20823.61,14324.911
1223553.7762002337,-55824.953,-66180.79,-20456.951,-18587.77,-21415.488,-7736.491,-20819.133,14318.563
1223553.780200229,-55829.227,-66188.64,-20463.176,-18591.268,-21427.49,-7744.385,-20826.904,14319.214
1223553.784200224,-55824.426,-66194.336,-20471.844,-18594.89,-21437.338,-7755.249,-20837.688,14329.916
1223553.7882002194,-55814.375,-66194.54,-20468.873,-18592.938,-21433.96,-7755.29,-20837.361,14334.88
1223553.7922002145,-55810.914,-66185.586,-20457.643,-18589.438,-21421.713,-7744.8325,-20824.91,14338.989
1223553.7962002095,-55820.152,-66183.92,-20451.904,-18589.396,-21414.227,-7739.0137,-20817.424,14340.739
1223553.8002002048,-55827.68,-66189.375,-20457.316,-18593.588,-21421.754,-7746.5415,-20821.86,14349.691
1223553.8042002,-55820.56,-66189.29,-20462.729,-18593.994,-21430.34,-7756.9175,-20831.584,14359.131
1223553.808200195,-55807.863,-66183.84,-20461.914,-18589.152,-21426.352,-7755.697,-20830.69,14361.898
1223553.8122001903,-55806.438,-66177.25,-20453.451,-18586.305,-21414.268,-7744.426,-20819.377,14357.341
1223553.8162001853,-55818.32,-66176.11,-20448.486,-18589.314,-21413.86,-7738.2812,-20812.947,14354.899
1223553.8202001806,-55827.516,-66182.54,-20452.719,-18591.797,-21425.09,-7743.408,-20814.697,14364.34
1223553.8242001757,-55825.035,-66188.44,-20463.176,-18595.174,-21436.768,-7756.063,-20829.266,14363.77
1223553.8282001708,-55812.95,-66188.195,-20462.566,-18593.018,-21431.805,-7757.1616,-20832.723,14356.608
1223553.832200166,-55814.7,-66180.99,-20457.031,-18590.535,-21418.133,-7745.8496,-20823.65,14344.157
1223553.8362001611,-55825.36,-66177.695,-20455.852,-18592.408,-21414.062,-7740.682,-20817.994,14339.111
1223553.8402001562,-55827.844,-66182.13,-20458.334,-18595.338,-21422.16,-7748.21,-20822.836,14344.564
1223553.8442001515,-55827.637,-66196.375,-20466.188,-18599.488,-21436.117,-7760.173,-20833.943,14347.656
1223553.8482001466,-55826.094,-66200.56,-20468.303,-18599.854,-21437.46,-7758.0977,-20834.066,14347.087
1223553.8522001416,-55829.754,-66196.54,-20468.22,-18598.877,-21427.898,-7746.501,-20828.125,14326.132
1223553.856200137,-55838.992,-66189.25,-20469.605,-18599.324,-21422.648,-7741.4146,-20821.412,14316.8545
1223553.860200132,-55842.125,-66187.75,-20472.168,-18599.447,-21426.434,-7749.797,-20820.232,14337.565
1223553.8642001273,-55831.22,-66191.24,-20475.098,-18599.406,-21432.293,-7761.1084,-20824.26,14355.673
1223553.8682001224,-55815.51,-66182.09,-20470.744,-18596.477,-21428.955,-7760.0913,-20822.104,14364.909
1223553.8722001174,-55810.47,-66172.24,-20458.537,-18590.74,-21414.918,-7746.826,-20809.896,14371.176
1223553.8762001127,-55827.965,-66176.27,-20455.037,-18592.326,-21412.924,-7740.56,-20805.299,14366.699
1223553.8802001078,-55844.32,-66191.445,-20462.85,-18600.018,-21425.578,-7751.709,-20820.191,14364.258
1223553.8842001029,-55831.707,-66186.2,-20469.32,-18600.098,-21429.16,-7764.038,-20831.178,14371.257
1223553.8882000982,-55818.2,-66181.48,-20465.984,-18595.541,-21424.154,-7761.9224,-20825.318,14379.395
1223553.8922000933,-55808.88,-66174.64,-20450.725,-18589.52,-21410.97,-7751.058,-20809.611,14380.778
1223553.8962000886,-55805.707,-66167.766,-20441.936,-18586.67,-21404.135,-7744.385,-20800.984,14381.267
1223553.9002000836,-55807.008,-66171.43,-20444.05,-18589.52,-21415.977,-7750.6104,-20806.479,14386.271
1223553.9042000787,-55802.37,-66178.06,-20448.365,-18592.693,-21426.555,-7758.667,-20814.332,14397.38
1223553.908200074,-55795.37,-66176.64,-20448.365,-18592.732,-21425.66,-7758.1787,-20817.342,14395.427
1223553.912200069,-55794.844,-66172.89,-20444.5,-18592.693,-21417.4,-7746.379,-20810.426,14386.963
1223553.9162000641,-55810.02,-66176.64,-20444.092,-18594.28,-21416.709,-7738.8916,-20805.908,14382.568
1223553.9202000594,-55816.0,-66180.664,-20451.701,-18600.018,-21427.002,-7750.041,-20817.098,14382.243
1223553.9242000545,-55812.055,-66186.484,-20460.734,-18603.436,-21434.611,-7760.661,-20826.904,14387.126
1223553.9282000496,-55814.902,-66194.586,-20461.02,-18601.727,-21431.926,-7754.883,-20824.342,14390.137
1223553.9322000449,-55814.332,-66188.88,-20452.19,-18598.592,-21420.492,-7744.9546,-20819.459,14376.059
1223553.93620004,-55819.297,-66185.95,-20446.453,-18598.674,-21417.318,-7740.316,-20817.953,14368.042
1223553.9402000352,-55821.047,-66194.54,-20450.318,-18602.336,-21430.014,-7748.169,-20826.254,14377.6045
1223553.9442000303,-55813.234,-66197.39,-20457.316,-18601.4,-21440.39,-7757.65,-20834.717,14390.097
1223553.9482000254,-55815.715,-66204.914,-20462.2,-18602.377,-21442.383,-7757.65,-20833.293,14392.375
1223553.9522000207,-55821.414,-66206.75,-20458.293,-18602.377,-21433.473,-7746.5415,-20824.178,14382.08
1223553.9562000157,-55825.97,-66201.945,-20453.41,-18599.447,-21425.62,-7742.391,-20822.43,14363.811
1223553.9602000108,-55835.86,-66211.23,-20460.002,-18601.93,-21436.158,-7751.872,-20834.84,14347.616
1223553.964200006,-55843.14,-66227.26,-20471.639,-18606.121,-21449.951,-7763.4277,-20851.97,14339.844
1223553.9682000012,-55838.543,-66228.68,-20472.576,-18602.742,-21446.086,-7764.608,-20856.242,14341.594
1223553.9721999965,-55837.242,-66221.03,-20463.867,-18599.65,-21433.066,-7754.4355,-20847.047,14336.345
1223553.9761999915,-55848.27,-66217.086,-20462.078,-18601.645,-21430.137,-7747.152,-20838.502,14341.675
1223553.9801999866,-55856.04,-66221.64,-20468.018,-18604.207,-21436.809,-7755.7783,-20844.197,14355.713
1223553.984199982,-55852.746,-66229.21,-20476.238,-18605.795,-21443.97,-7766.683,-20852.621,14365.927
1223553.988199977,-55851.89,-66234.3,-20477.58,-18606.445,-21442.262,-7765.9507,-20849.812,14367.432
1223553.992199972,-55852.133,-66227.016,-20470.256,-18601.197,-21428.346,-7753.7437,-20839.314,14363.933
1223553.9961999673,-55858.4,-66217.81,-20464.52,-18598.268,-21421.225,-7747.4775,-20830.852,14363.281
1223554.0001999624,-55864.34,-66223.19,-20468.1,-18602.459,-21433.96,-7758.545,-20837.973,14370.565
1223554.0041999577,-55865.52,-66235.72,-20476.521,-18605.998,-21447.633,-7771.5254,-20850.506,14376.343
1223554.0081999528,-55860.07,-66237.71,-20477.174,-18602.742,-21444.297,-7771.4033,-20850.383,14374.675
1223554.0121999478,-55861.9,-66230.02,-20469.564,-18600.3,-21432.658,-7758.586,-20838.42,14369.019
1223554.0161999431,-55872.887,-66230.72,-20469.441,-18601.277,-21429.688,-7751.75,-20833.578,14361.003
1223554.0201999382,-55883.26,-66234.01,-20476.848,-18604.736,-21434.938,-7758.545,-20837.322,14365.031
1223554.0241999333,-55873.21,-66236.82,-20481.648,-18605.592,-21439.78,-7766.7236,-20841.838,14375.529
1223554.0281999286,-55859.418,-66233.28,-20480.225,-18602.174,-21436.729,-7764.852,-20838.908,14381.755
1223554.0321999236,-55859.62,-66226.36,-20471.559,-18598.633,-21425.049,-7751.75,-20826.945,14378.296
1223554.0361999187,-55862.1,-66221.36,-20462.932,-18595.418,-21420.33,-7744.507,-20820.557,14370.28
1223554.040199914,-55866.62,-66225.875,-20468.832,-18599.61,-21429.322,-7752.9707,-20828.816,14372.681
1223554.044199909,-55867.434,-66234.984,-20478.598,-18604.29,-21439.088,-7763.1836,-20839.234,14375.448
1223554.0481999044,-55861.94,-66237.96,-20479.29,-18604.9,-21439.902,-7761.3525,-20835.043,14376.587
1223554.0521998995,-55856.203,-66227.7,-20471.15,-18600.18,-21426.475,-7749.471,-20822.633,14374.553
1223554.0561998945,-55859.824,-66218.75,-20463.705,-18597.047,-21418.54,-7744.222,-20818.238,14371.379
1223554.0601998898,-55862.67,-66221.56,-20469.646,-18600.75,-21427.857,-7755.493,-20827.475,14376.669
1223554.064199885,-55855.594,-66227.87,-20477.824,-18604.33,-21437.46,-7767.9854,-20837.973,14381.755
1223554.06819988,-55845.746,-66228.516,-20475.262,-18600.262,-21432.537,-7767.8223,-20837.973,14379.069
1223554.0721998753,-55841.35,-66220.95,-20465.373,-18594.727,-21419.027,-7757.5684,-20831.137,14374.268
1223554.0761998703,-55850.18,-66218.14,-20462.89,-18595.379,-21415.08,-7753.052,-20823.445,14379.069
1223554.0801998656,-55862.51,-66224.125,-20472.576,-18600.262,-21425.172,-7760.132,-20826.416,14390.503
1223554.0841998607,-55873.13,-66236.33,-20482.219,-18604.086,-21436.729,-7768.718,-20833.21,14393.433
1223554.0881998558,-55854.902,-66233.766,-20472.168,-18601.766,-21434.57,-7767.131,-20834.799,14392.741
1223554.092199851,-55834.84,-66214.84,-20454.469,-18595.988,-21420.98,-7757.5684,-20827.719,14387.207
1223554.0961998461,-55847.7,-66214.32,-20452.637,-18595.703,-21414.756,-7752.889,-20823.04,14386.435
1223554.1001998412,-55849.773,-66215.3,-20458.863,-18597.82,-21419.312,-7762.655,-20831.99,14387.655
1223554.1041998365,-55853.312,-66224.695,-20468.832,-18598.877,-21427.287,-7773.4375,-20842.164,14392.944
1223554.1081998316,-55857.63,-66237.63,-20471.436,-18599.041,-21429.322,-7771.4033,-20836.71,14398.967
1223554.1121998266,-55859.5,-66238.734,-20463.379,-18596.844,-21418.498,-7758.952,-20827.475,14393.637
1223554.116199822,-55856.57,-66224.61,-20457.113,-18594.809,-21410.768,-7754.802,-20828.736,14384.318
1223554.120199817,-55859.62,-66225.42,-20463.299,-18597.78,-21419.557,-7762.777,-20832.602,14386.76
1223554.1241998123,-55864.87,-66236.78,-20475.912,-18601.36,-21432.7,-7772.1763,-20841.35,14392.05
1223554.1281998074,-55859.945,-66239.18,-20477.174,-18599.773,-21431.52,-7770.549,-20840.617,14391.643
1223554.1321998024,-55857.992,-66231.53,-20468.385,-18597.088,-21419.23,-7760.01,-20829.102,14389.812
1223554.1361997977,-55866.008,-66229.62,-20464.152,-18598.877,-21416.79,-7756.592,-20823.201,14386.394
1223554.1401997928,-55870.973,-66232.46,-20471.355,-18601.727,-21426.88,-7764.9336,-20830.12,14392.131
1223554.1441997879,-55878.582,-66245.12,-20482.87,-18606.445,-21441.123,-7776.042,-20840.617,14394.857
1223554.1481997832,-55871.42,-66248.05,-20484.295,-18606.486,-21436.646,-7776.937,-20842.732,14393.555
1223554.1521997782,-55877.44,-66244.51,-20476.238,-18604.248,-21420.574,-7764.16,-20832.398,14389.486
1223554.1561997735,-55879.805,-66240.12,-20470.988,-18603.475,-21421.63,-7758.6265,-20828.94,14382.202
1223554.1601997686,-55885.742,-66244.875,-20474.773,-18607.3,-21437.46,-7766.561,-20838.055,14387.695
1223554.1641997637,-55875.57,-66243.53,-20480.062,-18607.87,-21444.133,-7776.5303,-20849.732,14388.713
1223554.168199759,-55868.164,-66255.375,-20481.771,-18607.38,-21433.555,-7776.571,-20852.662,14381.674
1223554.172199754,-55883.547,-66258.42,-20477.906,-18605.836,-21418.01,-7765.5845,-20843.67,14377.157
1223554.176199749,-55898.316,-66253.3,-20481.404,-18606.242,-21417.889,-7758.789,-20834.84,14377.808
1223554.1801997444,-55897.543,-66251.95,-20485.271,-18610.88,-21432.049,-7765.503,-20839.6,14384.888
1223554.1841997395,-55865.645,-66235.92,-20482.342,-18608.887,-21439.902,-7776.815,-20853.842,14387.451
1223554.1881997348,-55851.727,-66228.72,-20483.684,-18607.057,-21435.547,-7778.524,-20852.295,14389.608
1223554.1921997298,-55870.605,-66239.22,-20480.998,-18607.586,-21429.607,-7768.636,-20838.46,14383.179
1223554.196199725,-55890.79,-66254.31,-20476.074,-18609.01,-21429.648,-7760.783,-20835.125,14379.3545
1223554.2001997202,-55895.996,-66255.25,-20477.133,-18611.328,-21432.74,-7766.7646,-20841.553,14391.154
1223554.2041997153,-55894.86,-66265.625,-20485.76,-18614.99,-21445.598,-7775.3906,-20845.582,14404.338
1223554.2081997104,-55896.566,-66277.23,-20485.922,-18616.781,-21448.447,-7774.8213,-20844.28,14409.221
1223554.2121997057,-55906.332,-66277.836,-20479.29,-18614.178,-21436.523,-7762.329,-20830.404,14410.889
1223554.2161997007,-55919.152,-66275.39,-20476.848,-18613.81,-21427.654,-7756.307,-20823.201,14400.595
1223554.2201996958,-55937.99,-66294.234,-20485.596,-18619.14,-21442.018,-7765.096,-20831.787,14396.037
1223554.224199691,-55939.09,-66309.49,-20494.873,-18622.723,-21454.998,-7778.646,-20843.67,14402.629
1223554.2281996862,-55941.855,-66319.22,-20495.729,-18621.46,-21456.178,-7776.5303,-20845.174,14408.203
1223554.2321996815,-55946.94,-66321.33,-20487.346,-18621.217,-21450.562,-7764.974,-20837.158,14401.164
1223554.2361996765,-55967.367,-66329.305,-20485.393,-18624.268,-21450.562,-7756.3887,-20823.04,14402.792
1223554.2401996716,-55984.62,-66343.55,-20492.676,-18629.72,-21460.613,-7760.498,-20823.486,14416.667
1223554.244199667,-55994.875,-66364.055,-20502.28,-18635.213,-21471.232,-7770.915,-20832.684,14421.428
1223554.248199662,-55996.91,-66374.15,-20498.129,-18634.48,-21469.2,-7771.159,-20832.643,14421.0205
1223554.252199657,-56000.734,-66365.56,-20486.654,-18632.324,-21459.434,-7759.6436,-20823.08,14416.464
1223554.2561996523,-56012.168,-66367.59,-20481.121,-18632.977,-21456.748,-7753.215,-20817.018,14418.173
1223554.2601996474,-56023.562,-66382.94,-20483.48,-18637.248,-21466.758,-7760.5796,-20823.324,14427.612
1223554.2641996427,-56020.793,-66392.78,-20489.746,-18641.398,-21480.674,-7771.6064,-20835.816,14430.664
1223554.2681996378,-56025.92,-66406.91,-20495.32,-18641.48,-21482.992,-7770.223,-20837.688,14429.851
1223554.2721996328,-56032.35,-66412.72,-20490.193,-18639.975,-21470.379,-7758.708,-20825.604,14426.188
1223554.2761996281,-56042.36,-66407.76,-20485.76,-18638.63,-21462.688,-7752.0347,-20815.674,14421.143
1223554.2801996232,-56055.016,-66417.766,-20490.926,-18641.521,-21473.797,-7758.8706,-20822.021,14425.985
1223554.2841996183,-56057.17,-66430.46,-20498.576,-18643.555,-21484.13,-7769.857,-20835.084,14426.799
1223554.2881996136,-56053.348,-66436.81,-20499.023,-18641.602,-21481.406,-7771.2812,-20838.094,14421.428
1223554.2921996086,-56058.92,-66437.46,-20494.06,-18639.242,-21470.623,-7760.498,-20827.352,14422.7705
1223554.2961996037,-56067.668,-66433.23,-20488.445,-18639.445,-21464.316,-7754.9644,-20818.156,14424.113
1223554.300199599,-56074.914,-66438.234,-20493.531,-18643.025,-21473.145,-7761.963,-20821.656,14429.565
1223554.304199594,-56072.266,-66447.59,-20501.059,-18644.084,-21484.783,-7770.4673,-20828.328,14439.047
1223554.3081995894,-56066.49,-66451.375,-20499.105,-18642.945,-21483.562,-7769.8164,-20825.521,14444.336
1223554.3121995844,-56072.062,-66452.6,-20490.398,-18641.398,-21473.023,-7755.7783,-20810.994,14443.278
1223554.3161995795,-56086.184,-66453.53,-20486.492,-18641.684,-21468.588,-7749.0234,-20806.396,14435.669
1223554.3201995748,-56095.42,-66461.67,-20492.107,-18647.705,-21479.697,-7760.498,-20818.768,14435.385
1223554.3241995699,-56092.816,-66471.31,-20497.273,-18649.334,-21490.316,-7769.4907,-20828.125,14444.54
1223554.328199565,-56088.867,-66474.086,-20498.7,-18646.81,-21489.787,-7768.2295,-20826.13,14450.644
1223554.3321995602,-56089.234,-66469.52,-20492.107,-18642.09,-21475.383,-7754.3135,-20812.053,14448.364
1223554.3361995553,-56099.0,-66469.98,-20488.729,-18643.107,-21471.6,-7746.704,-20806.355,14444.58
1223554.3401995506,-56113.73,-66479.53,-20497.314,-18649.049,-21483.074,-7755.6562,-20816.57,14446.127
1223554.3441995457,-56121.867,-66491.01,-20503.826,-18651.693,-21491.904,-7765.3403,-20824.951,14453.573
1223554.3481995407,-56120.65,-66495.61,-20505.818,-18650.758,-21492.27,-7764.7705,-20824.219,14457.724
1223554.352199536,-56121.95,-66492.39,-20501.344,-18647.828,-21482.139,-7752.7266,-20812.744,14456.381
1223554.3561995311,-56126.344,-66486.21,-20494.426,-18645.508,-21475.383,-7748.413,-20806.355,14453.451
1223554.3601995262,-56126.184,-66486.164,-20495.646,-18645.184,-21482.586,-7759.1553,-20815.715,14450.684
1223554.3641995215,-56121.625,-66490.44,-20502.85,-18646.525,-21490.316,-7768.5957,-20823.201,14459.351
1223554.3681995166,-56116.496,-66492.64,-20505.127,-18645.346,-21487.998,-7766.2764,-20820.76,14460.9375
1223554.3721995119,-56120.04,-66487.67,-20497.967,-18639.893,-21472.25,-7752.3604,-20810.059,14452.393
1223554.376199507,-56134.484,-66487.914,-20496.664,-18640.3,-21468.547,-7746.338,-20804.607,14451.335
1223554.380199502,-56141.523,-66495.52,-20503.215,-18645.793,-21478.72,-7755.412,-20812.623,14451.335
1223554.3841994973,-56135.703,-66500.94,-20508.627,-18647.584,-21485.475,-7765.869,-20822.918,14453.491
1223554.3881994924,-56128.297,-66503.22,-20507.691,-18645.305,-21482.422,-7764.7705,-20822.307,14453.9795
1223554.3921994874,-56130.21,-66499.48,-20499.715,-18643.434,-21473.553,-7752.9297,-20809.082,14454.346
1223554.3961994827,-56141.81,-66496.016,-20496.014,-18643.27,-21469.28,-7746.5415,-20800.945,14454.306
1223554.4001994778,-56147.383,-66501.47,-20498.7,-18644.37,-21478.924,-7755.005,-20809.53,14458.944
1223554.4041994729,-56148.03,-66512.29,-20510.418,-18649.049,-21491.375,-7766.3984,-20823.121,14458.578
1223554.4081994682,-56147.016,-66518.03,-20511.922,-18648.56,-21490.846,-7766.3574,-20824.383,14458.252
1223554.4121994632,-56149.58,-66512.53,-20504.03,-18645.672,-21477.906,-7754.0693,-20812.256,14456.625
1223554.4161994585,-56162.844,-66513.19,-20502.93,-18649.74,-21475.668,-7746.6636,-20806.56,14455.078
1223554.4201994536,-56174.93,-66524.62,-20510.377,-18655.72,-21488.648,-7754.72,-20813.64,14459.961
1223554.4241994487,-56175.418,-66536.586,-20519.531,-18660.035,-21501.709,-7766.0728,-20823.242,14466.269
1223554.428199444,-56168.582,-66539.02,-20520.305,-18659.383,-21502.85,-7764.282,-20822.021,14469.32
1223554.432199439,-56167.848,-66532.516,-20513.836,-18655.72,-21493.246,-7753.662,-20813.518,14458.984
1223554.436199434,-56179.445,-66531.13,-20507.854,-18652.588,-21489.014,-7748.7793,-20807.455,14453.491
1223554.4401994294,-56193.035,-66542.484,-20512.533,-18656.535,-21498.658,-7757.4463,-20816.162,14460.205
1223554.4441994245,-56193.81,-66552.21,-20519.531,-18657.512,-21507.121,-7768.1074,-20830.16,14457.031
1223554.4481994198,-56188.805,-66552.695,-20525.105,-18657.268,-21500.693,-7770.1826,-20834.473,14458.618
1223554.4521994148,-56194.38,-66553.34,-20523.967,-18657.43,-21490.887,-7761.312,-20828.451,14451.294
1223554.45619941,-56204.387,-66553.59,-20519.654,-18656.494,-21487.51,-7755.412,-20824.3,14442.099
1223554.4601994052,-56213.83,-66558.92,-20525.676,-18661.174,-21499.756,-7765.096,-20833.049,14443.359
1223554.4641994003,-56213.867,-66569.7,-20532.43,-18664.348,-21511.598,-7773.7227,-20840.008,14449.911
1223554.4681993953,-56208.336,-66573.2,-20529.176,-18663.006,-21509.156,-7771.037,-20836.834,14456.015
1223554.4721993906,-56208.17,-66565.836,-20518.84,-18658.082,-21493.816,-7757.121,-20822.348,14455.078
1223554.4761993857,-56217.285,-66563.64,-20515.422,-18655.762,-21488.078,-7751.7905,-20817.547,14446.615
1223554.4801993808,-56228.516,-66573.85,-20521.893,-18659.22,-21499.188,-7760.254,-20824.586,14449.626
1223554.484199376,-56228.395,-66584.72,-20533.814,-18663.9,-21511.11,-7773.031,-20837.078,14449.626
1223554.4881993711,-56222.863,-66585.57,-20537.557,-18661.418,-21507.773,-7772.583,-20841.146,14447.551
1223554.4921993664,-56224.203,-66583.78,-20530.926,-18657.105,-21495.605,-7760.4575,-20830.486,14441.936
1223554.4961993615,-56233.48,-66581.586,-20524.496,-18655.926,-21490.723,-7755.8594,-20826.172,14429.403
1223554.5001993566,-56243.45,-66593.67,-20529.744,-18660.645,-21502.441,-7763.4277,-20833.822,14433.31
1223554.5041993519,-56243.207,-66605.51,-20537.354,-18664.633,-21515.463,-7772.583,-20841.756,14442.505
1223554.508199347,-56245.65,-66610.27,-20543.742,-18666.83,-21514.69,-7772.7866,-20836.873,14451.538
1223554.512199342,-56254.883,-66606.81,-20537.232,-18665.447,-21502.686,-7759.847,-20824.422,14449.097
1223554.5161993373,-56244.59,-66585.49,-20523.764,-18660.36,-21493.287,-7754.0693,-20820.11,14440.1455
1223554.5201993324,-56247.723,-66590.82,-20527.71,-18664.795,-21503.338,-7763.916,-20830.607,14436.523
1223554.5241993277,-56244.14,-66601.4,-20534.832,-18667.969,-21515.748,-7774.333,-20839.64,14445.231
1223554.5281993228,-56224.53,-66595.664,-20530.232,-18664.998,-21512.004,-7772.746,-20837.81,14450.073
1223554.5321993178,-56227.215,-66591.07,-20522.625,-18660.848,-21497.764,-7760.7017,-20823.486,14452.353
1223554.5361993131,-56238.16,-66588.99,-20521.852,-18658.406,-21491.822,-7754.9644,-20816.691,14453.207
1223554.5401993082,-56244.875,-66594.93,-20528.932,-18661.541,-21502.117,-7763.3467,-20820.395,14467.082
1223554.5441993033,-56241.984,-66604.45,-20535.727,-18664.227,-21511.557,-7773.275,-20828.37,14473.349
1223554.5481992986,-56232.707,-66604.17,-20533.611,-18663.045,-21508.871,-7773.3564,-20829.793,14464.966
1223554.5521992936,-56238.28,-66601.24,-20527.873,-18660.32,-21499.35,-7760.9053,-20817.953,14461.63
1223554.556199289,-56246.094,-66595.7,-20522.014,-18660.076,-21493.287,-7754.0693,-20809.979,14463.867
1223554.560199284,-56251.1,-66601.52,-20525.146,-18662.883,-21501.018,-7760.5796,-20814.088,14479.289
1223554.564199279,-56250.45,-66608.36,-20528.932,-18665.854,-21510.703,-7769.857,-20819.5,14486.816
1223554.5681992744,-56241.66,-66607.586,-20527.629,-18664.227,-21506.918,-7767.619,-20818.727,14485.84
1223554.5721992694,-56240.52,-66601.32,-20521.525,-18660.115,-21494.223,-7756.592,-20811.402,14480.551
1223554.5761992645,-56251.06,-66598.39,-20519.734,-18660.4,-21489.014,-7751.75,-20808.105,14472.819
1223554.5801992598,-56260.742,-66606.9,-20525.555,-18665.121,-21500.488,-7759.033,-20814.453,14477.092
1223554.5841992549,-56263.105,-66619.71,-20532.47,-18668.336,-21512.695,-7768.921,-20822.104,14483.317
1223554.58819925,-56254.76,-66621.5,-20533.0,-18668.092,-21512.33,-7769.979,-20823.934,14480.998
1223554.5921992452,-56254.76,-66617.39,-20525.594,-18664.998,-21499.064,-7758.586,-20813.03,14477.743
1223554.5961992403,-56265.016,-66615.03,-20521.893,-18665.242,-21493.328,-7752.279,-20806.072,14475.18
1223554.6001992356,-56273.156,-66620.81,-20529.012,-18668.824,-21502.97,-7761.1084,-20813.885,14483.398
1223554.6041992307,-56272.098,-66634.6,-20536.988,-18672.04,-21515.178,-7773.4785,-20825.562,14485.434
1223554.6081992257,-56267.66,-66643.35,-20537.232,-18671.51,-21515.3,-7771.444,-20823.406,14484.253
1223554.612199221,-56272.18,-66639.69,-20532.797,-18670.818,-21505.371,-7758.3823,-20812.215,14480.835
1223554.616199216,-56281.17,-66636.234,-20528.117,-18672.242,-21501.953,-7752.1973,-20804.078,14481.445
1223554.6201992112,-56291.87,-66641.28,-20535.076,-18676.229,-21512.94,-7757.8535,-20808.635,14489.584
1223554.6241992065,-56287.11,-66645.19,-20540.324,-18677.37,-21521.729,-7767.8223,-20818.562,14499.105
1223554.6281992015,-56278.605,-66645.67,-20539.021,-18674.684,-21520.06,-7769.45,-20819.215,14500.57
1223554.6321991968,-56278.04,-66639.77,-20530.844,-18669.11,-21504.559,-7757.6094,-20808.064,14497.519
1223554.636199192,-56285.08,-66637.05,-20525.879,-18666.871,-21498.576,-7752.0347,-20803.223,14489.584
1223554.640199187,-56291.344,-66642.7,-20530.232,-18671.225,-21508.545,-7763.3057,-20816.0,14483.276
1223554.6441991823,-56291.63,-66652.18,-20538.533,-18675.008,-21522.787,-7775.676,-20831.787,14476.237
1223554.6481991773,-56281.332,-66649.414,-20533.936,-18673.748,-21522.666,-7772.2983,-20830.037,14480.876
1223554.6521991724,-56279.22,-66638.43,-20522.46,-18670.695,-21510.662,-7757.894,-20815.023,14482.3
1223554.6561991677,-56292.24,-66640.26,-20520.184,-18671.021,-21508.018,-7753.052,-20806.031,14480.591
1223554.6601991628,-56305.016,-66654.7,-20525.799,-18675.13,-21516.154,-7762.126,-20811.035,14486.654
1223554.6641991579,-56296.387,-66650.64,-20529.217,-18674.846,-21515.79,-7773.397,-20819.662,14495.483
1223554.6681991532,-56272.137,-66633.914,-20527.223,-18670.045,-21507.488,-7774.292,-20821.371,14497.437
1223554.6721991482,-56279.707,-66632.0,-20522.217,-18667.645,-21495.24,-7762.451,-20812.176,14494.873
1223554.6761991435,-56290.61,-66629.27,-20518.758,-18667.48,-21491.537,-7759.6436,-20812.582,14485.107
1223554.6801991386,-56297.16,-66632.086,-20523.764,-18672.078,-21502.97,-7768.677,-20823.65,14484.985
1223554.6841991337,-56298.87,-66642.21,-20532.064,-18673.666,-21515.098,-7778.89,-20833.008,14488.933
1223554.688199129,-56292.605,-66641.36,-20534.139,-18672.363,-21514.16,-7779.989,-20833.822,14487.793
1223554.692199124,-56293.418,-66635.54,-20526.938,-18669.598,-21502.97,-7767.9854,-20821.941,14483.5205
1223554.696199119,-56304.242,-66635.5,-20525.676,-18668.986,-21498.7,-7763.0615,-20817.506,14480.754
1223554.7001991144,-56314.535,-66642.7,-20534.627,-18674.398,-21512.86,-7774.333,-20827.107,14484.172
1223554.7041991095,-56312.867,-66651.695,-20543.498,-18679.363,-21525.39,-7785.2783,-20838.338,14489.177
1223554.7081991048,-56302.613,-66648.805,-20541.83,-18677.693,-21521.16,-7782.959,-20837.566,14498.942
1223554.7121990998,-56304.895,-66639.28,-20534.424,-18675.09,-21507.244,-7768.718,-20823.04,14498.169
1223554.716199095,-56311.445,-66637.945,-20530.926,-18678.143,-21502.238,-7763.1025,-20816.61,14490.723
1223554.7201990902,-56313.316,-66641.484,-20535.889,-18681.844,-21510.906,-7771.118,-20822.43,14499.268
1223554.7241990853,-56311.973,-66649.945,-20541.463,-18683.309,-21520.549,-7781.5757,-20831.463,14506.47
1223554.7281990803,-56302.004,-66648.12,-20537.232,-18681.355,-21518.434,-7780.3955,-20829.021,14509.359
1223554.7321990756,-56297.812,-66641.85,-20529.217,-18678.06,-21508.22,-7767.904,-20815.309,14510.214
1223554.7361990707,-56299.277,-66634.36,-20521.932,-18674.684,-21501.14,-7760.254,-20811.238,14502.197
1223554.740199066,-56307.54,-66642.26,-20527.264,-18679.12,-21511.516,-7768.921,-20820.15,14505.819
1223554.744199061,-56306.48,-66650.07,-20533.814,-18681.52,-21521.484,-7779.704,-20830.445,14511.679
1223554.7481990561,-56296.875,-66649.13,-20534.424,-18678.793,-21516.236,-7780.0703,-20832.275,14510.905
1223554.7521990514,-56296.387,-66638.266,-20525.758,-18673.137,-21502.727,-7767.131,-20821.168,14506.348
1223554.7561990465,-56302.98,-66631.875,-20520.223,-18672.283,-21496.014,-7760.254,-20813.965,14505.575
1223554.7601990416,-56305.34,-66637.33,-20525.676,-18676.19,-21509.074,-7769.3687,-20819.947,14516.276
1223554.7641990369,-56301.758,-66648.64,-20532.674,-18679.443,-21522.666,-7778.89,-20826.904,14529.46
1223554.768199032,-56292.44,-66649.62,-20531.861,-18677.328,-21518.678,-7774.414,-20822.55,14533.651
1223554.772199027,-56291.06,-66645.14,-20526.896,-18673.016,-21504.68,-7761.312,-20811.646,14521.688
1223554.7761990223,-56303.47,-66643.48,-20524.943,-18672.242,-21496.42,-7756.999,-20813.559,14498.454
1223554.7801990174,-56309.695,-66646.77,-20531.494,-18676.066,-21504.15,-7768.4326,-20827.312,14499.309
1223554.7841990127,-56307.54,-66654.83,-20540.121,-18679.525,-21514.16,-7780.3145,-20837.729,14503.54
1223554.7881990077,-56301.92,-66654.46,-20538.412,-18676.799,-21513.428,-7778.4424,-20837.361,14501.465
1223554.7921990028,-56301.11,-66650.64,-20529.95,-18673.625,-21505.576,-7766.317,-20828.492,14493.53
1223554.796198998,-56309.004,-66649.01,-20526.205,-18673.055,-21504.232,-7758.911,-20818.686,14499.96
1223554.8001989932,-56314.332,-66653.445,-20529.785,-18677.531,-21512.736,-7766.439,-20823.406,14507.162
1223554.8041989882,-56313.03,-66663.74,-20537.965,-18680.584,-21521.648,-7779.012,-20837.402,14507.202
1223554.8081989835,-56309.816,-66669.35,-20540.447,-18679.281,-21518.027,-7780.8433,-20838.46,14505.249
1223554.8121989786,-56307.617,-66664.31,-20531.25,-18673.666,-21503.379,-7769.043,-20829.143,14492.758
1223554.816198974,-56317.223,-66660.93,-20527.588,-18672.975,-21497.52,-7764.4453,-20823.201,14489.502
1223554.820198969,-56330.977,-66671.836,-20536.785,-18678.102,-21510.498,-7772.1763,-20829.51,14495.036
1223554.824198964,-56332.684,-66684.98,-20546.266,-18682.576,-21526.043,-7782.186,-20840.74,14497.478
1223554.8281989594,-56312.5,-66677.164,-20540.568,-18679.688,-21523.275,-7781.413,-20841.432,14498.82
1223554.8321989544,-56309.57,-66667.93,-20533.732,-18675.09,-21511.719,-7768.962,-20830.975,14496.176
1223554.8361989495,-56321.574,-66670.9,-20532.146,-18674.48,-21511.191,-7762.7363,-20828.492,14494.711
1223554.8401989448,-56334.35,-66684.94,-20540.324,-18680.42,-21524.09,-7774.4956,-20839.803,14495.972
1223554.8441989399,-56328.574,-66691.0,-20544.516,-18682.943,-21531.455,-7784.1797,-20850.22,14495.28
1223554.848198935,-56312.91,-66686.89,-20540.121,-18680.705,-21527.793,-7782.6743,-20850.18,14494.345
1223554.8521989302,-56314.78,-66684.2,-20531.291,-18677.938,-21519.207,-7772.9087,-20846.803,14483.603
1223554.8561989253,-56323.773,-66681.89,-20528.932,-18679.078,-21517.213,-7767.7,-20846.03,14482.544
1223554.8601989206,-56319.703,-66678.875,-20529.785,-18677.613,-21517.904,-7773.7227,-20849.447,14492.351
1223554.8641989157,-56319.01,-66685.875,-20537.8,-18680.584,-21531.21,-7783.325,-20853.027,14501.303
1223554.8681989107,-56317.305,-66689.66,-20540.73,-18680.908,-21527.344,-7784.465,-20847.453,14503.093
1223554.872198906,-56316.203,-66681.89,-20532.879,-18675.701,-21512.004,-7773.153,-20833.943,14494.589
1223554.876198901,-56325.44,-66678.305,-20528.24,-18676.107,-21504.03,-7766.805,-20827.393,14490.845
1223554.8801988962,-56332.113,-66684.86,-20535.238,-18681.316,-21516.725,-7776.2046,-20835.613,14494.304
1223554.8841988915,-56326.99,-66690.266,-20541.83,-18683.432,-21528.402,-7784.8716,-20842.45,14504.028
1223554.8881988865,-56313.926,-66687.91,-20538.168,-18678.06,-21522.055,-7782.5522,-20836.549,14516.235
1223554.8921988818,-56309.57,-66678.75,-20528.32,-18673.178,-21508.506,-7770.671,-20822.877,14517.7
1223554.896198877,-56320.395,-66674.16,-20526.57,-18675.416,-21503.785,-7766.1543,-20819.05,14507.162
1223554.900198872,-56332.074,-66680.586,-20532.918,-18679.037,-21514.283,-7775.676,-20827.8,14506.796
1223554.9041988673,-56325.32,-66683.43,-20536.459,-18679.688,-21516.113,-7786.2144,-20839.314,14512.289
1223554.9081988623,-56320.844,-66683.19,-20536.053,-18679.078,-21513.307,-7785.1973,-20837.85,14518.637
1223554.9121988574,-56329.957,-66687.055,-20533.0,-18678.549,-21507.773,-7776.123,-20829.225,14511.841
1223554.9161988527,-56336.348,-66680.95,-20528.809,-18678.549,-21504.191,-7771.118,-20825.643,14509.604
1223554.9201988478,-56337.934,-66682.945,-20530.07,-18679.729,-21512.818,-7776.815,-20830.77,14515.625
1223554.9241988428,-56329.184,-66690.47,-20535.238,-18681.723,-21521.934,-7786.0107,-20841.717,14519.572
1223554.9281988381,-56317.996,-66689.91,-20537.068,-18681.805,-21519.41,-7783.895,-20842.896,14515.869
1223554.9321988332,-56317.59,-66686.445,-20530.111,-18678.955,-21507.324,-7771.6064,-20836.426,14506.674
1223554.9361988285,-56329.227,-66687.95,-20524.537,-18677.938,-21502.93,-7765.869,-20835.45,14495.28
1223554.9401988236,-56337.77,-66695.31,-20531.82,-18681.396,-21517.904,-7777.2217,-20846.518,14491.74
1223554.9441988186,-56333.54,-66698.695,-20539.021,-18683.553,-21526.775,-7787.964,-20853.76,14500.082
1223554.948198814,-56315.96,-66696.01,-20533.611,-18680.46,-21523.643,-7788.5337,-20851.115,14503.988
1223554.952198809,-56303.145,-66682.984,-20526.367,-18674.643,-21510.418,-7778.6865,-20841.756,14503.337
1223554.956198804,-56308.473,-66672.445,-20527.791,-18673.463,-21504.15,-7776.042,-20838.502,14499.472
1223554.9601987994,-56304.28,-66673.586,-20533.285,-18678.264,-21515.545,-7787.191,-20848.959,14503.134
1223554.9641987944,-56281.78,-66662.27,-20535.727,-18678.02,-21518.23,-7798.747,-20865.113,14500.041
1223554.9681987897,-56264.0,-66646.484,-20536.336,-18675.008,-21512.004,-7799.154,-20868.652,14493.042
1223554.9721987848,-56241.742,-66622.195,-20522.584,-18669.557,-21496.543,-7786.174,-20853.76,14487.265
1223554.97619878,-56206.016,-66589.805,-20508.871,-18663.127,-21484.62,-7780.233,-20846.232,14483.725
1223554.9801987752,-56177.453,-66565.39,-20507.732,-18663.777,-21486.533,-7791.7075,-20862.63,14474.854
1223554.9841987703,-56141.035,-66548.1,-20509.074,-18663.209,-21493.246,-7803.508,-20874.146,14476.889
1223554.9881987653,-56104.29,-66521.89,-20502.605,-18657.35,-21490.643,-7803.9146,-20876.912,14477.255
1223554.9921987606,-56082.113,-66498.5,-20490.887,-18648.438,-21471.559,-7794.7188,-20868.938,14468.994
1223554.9961987557,-56086.754,-66488.53,-20489.584,-18649.334,-21465.129,-7791.5854,-20869.752,14460.9375
1223555.000198751,-56072.105,-66473.836,-20491.496,-18649.21,-21470.623,-7803.589,-20883.545,14459.961
1223555.004198746,-56052.574,-66468.71,-20494.385,-18649.984,-21477.459,-7815.2266,-20894.49,14460.734
1223555.0081987411,-56050.66,-66470.91,-20497.355,-18649.861,-21477.459,-7815.6333,-20894.979,14456.055
1223555.0121987364,-56040.57,-66455.77,-20491.984,-18646.607,-21466.553,-7807.2104,-20890.34,14449.301
1223555.0161987315,-56045.535,-66448.85,-20486.613,-18644.94,-21462.973,-7799.4385,-20883.504,14450.439
1223555.0201987266,-56059.613,-66461.8,-20493.572,-18652.344,-21476.93,-7808.0244,-20892.416,14454.753
1223555.0241987219,-56052.94,-66468.75,-20499.512,-18655.193,-21490.967,-7820.801,-20906.941,14455.852
1223555.028198717,-56040.285,-66466.72,-20497.723,-18650.594,-21485.678,-7818.6035,-20903.402,14458.578
1223555.032198712,-56041.832,-66458.3,-20491.496,-18647.502,-21474.773,-7804.9727,-20888.225,14459.555
1223555.0361987073,-56049.97,-66456.51,-20487.672,-18647.828,-21472.535,-7799.0317,-20881.55,14459.351
1223555.0401987024,-56049.523,-66456.87,-20492.92,-18652.059,-21480.918,-7811.9307,-20892.904,14460.409
1223555.0441986977,-56043.297,-66457.03,-20500.652,-18654.338,-21487.184,-7821.1265,-20904.582,14460.856
1223555.0481986927,-56033.0,-66453.94,-20499.838,-18653.076,-21483.074,-7821.533,-20906.291,14449.301
1223555.0521986878,-56022.34,-66437.26,-20488.201,-18648.316,-21466.879,-7811.605,-20896.852,14446.493
1223555.056198683,-56026.207,-66428.67,-20480.836,-18645.467,-21456.34,-7804.281,-20891.969,14450.033
1223555.0601986782,-56028.484,-66425.7,-20484.295,-18646.607,-21464.111,-7808.879,-20892.293,14458.13
1223555.0641986732,-56014.16,-66424.195,-20486.94,-18646.729,-21469.035,-7821.1265,-20901.287,14464.233
1223555.0681986685,-55999.188,-66419.44,-20485.678,-18643.637,-21463.096,-7821.981,-20900.105,14470.947
1223555.0721986636,-55995.85,-66409.875,-20476.766,-18640.3,-21448.812,-7809.448,-20886.19,14472.29
1223555.076198659,-56002.28,-66402.67,-20472.82,-18640.016,-21442.75,-7804.3623,-20877.768,14478.354
1223555.080198654,-56005.293,-66409.18,-20475.912,-18642.742,-21452.963,-7813.3955,-20886.395,14481.039
1223555.084198649,-56000.33,-66415.98,-20482.463,-18645.834,-21464.6,-7824.707,-20900.31,14473.389
1223555.0881986443,-55988.934,-66415.85,-20483.154,-18643.758,-21464.723,-7825.2363,-20906.006,14458.781
1223555.0921986394,-55986.656,-66406.91,-20475.018,-18640.625,-21450.928,-7813.6396,-20896.16,14450.928
1223555.0961986345,-55995.28,-66402.02,-20472.088,-18641.44,-21445.11,-7808.3906,-20888.754,14448.8125
1223555.1001986298,-56007.57,-66412.6,-20479.818,-18645.793,-21453.94,-7818.2373,-20897.176,14454.875
1223555.1041986248,-56001.547,-66422.08,-20488.934,-18648.113,-21465.088,-7831.5024,-20911.947,14456.909
1223555.10819862,-55989.83,-66423.22,-20488.729,-18647.46,-21466.553,-7830.3633,-20913.25,14453.369
1223555.1121986152,-55996.543,-66423.42,-20481.121,-18644.695,-21456.828,-7817.383,-20900.92,14446.045
1223555.1161986103,-56001.63,-66413.82,-20476.521,-18643.025,-21448.406,-7814.494,-20896.2,14442.79
1223555.1201986056,-55998.984,-66410.08,-20480.672,-18645.102,-21454.713,-7826.66,-20908.285,14444.133
1223555.1241986006,-55992.516,-66411.09,-20490.193,-18647.625,-21464.396,-7836.67,-20915.242,14455.648
1223555.1281985957,-55995.77,-66416.51,-20496.582,-18649.008,-21466.229,-7834.0254,-20909.832,14465.454
1223555.132198591,-55996.34,-66410.41,-20490.193,-18645.02,-21453.695,-7822.917,-20898.723,14464.519
1223555.136198586,-55993.98,-66397.75,-20484.213,-18644.37,-21444.133,-7819.824,-20897.502,14454.387
1223555.1401985812,-55994.996,-66396.164,-20489.258,-18646.24,-21450.36,-7828.125,-20906.658,14454.387
1223555.1441985765,-55998.09,-66409.38,-20497.479,-18648.64,-21462.484,-7836.9956,-20916.586,14457.52
1223555.1481985715,-55990.277,-66410.81,-20495.973,-18645.264,-21458.904,-7834.5137,-20914.633,14458.171
1223555.1521985668,-55987.023,-66400.02,-20487.387,-18642.334,-21446.29,-7822.347,-20905.03,14456.015
1223555.156198562,-56005.453,-66400.68,-20488.852,-18644.043,-21444.215,-7818.0747,-20902.344,14451.66
1223555.160198557,-56012.574,-66407.43,-20494.67,-18647.543,-21455.322,-7826.294,-20909.791,14458.09
1223555.1641985523,-56002.85,-66417.24,-20500.244,-18651.938,-21467.57,-7835.653,-20918.254,14466.187
1223555.1681985473,-55995.242,-66420.58,-20500.732,-18653.32,-21468.1,-7832.3975,-20915.61,14470.297
1223555.1721985424,-56000.938,-66420.375,-20493.611,-18650.96,-21454.63,-7819.458,-20904.42,14466.838
1223555.1761985377,-56010.297,-66418.984,-20487.508,-18647.99,-21445.8,-7812.541,-20899.822,14462.646
1223555.1801985328,-56014.445,-66419.234,-20488.648,-18648.275,-21450.604,-7820.2314,-20906.861,14463.257
1223555.184198528,-56020.02,-66431.32,-20499.146,-18652.955,-21463.46,-7831.0547,-20918.254,14469.238
1223555.1881985231,-56020.47,-66435.305,-20504.191,-18652.223,-21461.67,-7829.712,-20918.865,14467.937
1223555.1921985182,-56023.926,-66433.43,-20495.89,-18645.834,-21449.424,-7816.4473,-20907.43,14459.758
1223555.1961985135,-56026.45,-66429.52,-20489.828,-18645.264,-21445.354,-7809.9365,-20900.635,14458.049
1223555.2001985086,-56026.492,-66428.23,-20495.361,-18648.438,-21451.865,-7817.9526,-20906.453,14467.326
1223555.2041985036,-56027.875,-66435.51,-20505.86,-18651.082,-21461.549,-7828.2065,-20915.771,14476.115
1223555.208198499,-56018.434,-66440.31,-20505.738,-18648.682,-21462.281,-7828.4507,-20914.389,14478.231
1223555.212198494,-56006.188,-66423.51,-20495.89,-18642.13,-21444.133,-7818.2783,-20903.605,14472.209
1223555.216198489,-56003.094,-66407.31,-20489.137,-18640.26,-21434.002,-7813.965,-20898.52,14469.116
1223555.2201984844,-56012.695,-66415.77,-20497.193,-18643.27,-21448.203,-7823.242,-20907.918,14469.564
1223555.2241984794,-56020.184,-66431.36,-20505.818,-18645.06,-21461.63,-7831.6245,-20916.79,14472.982
1223555.2281984747,-56006.023,-66425.21,-20502.605,-18640.3,-21453.857,-7830.1597,-20913.982,14480.347
1223555.2321984698,-55994.754,-66404.79,-20493.287,-18635.498,-21435.752,-7819.702,-20904.176,14475.668
1223555.2361984649,-56011.23,-66403.04,-20494.914,-18637.29,-21431.682,-7816.1216,-20902.752,14457.927
1223555.2401984602,-56027.55,-66417.73,-20501.668,-18642.375,-21444.662,-7825.277,-20910.076,14460.815
1223555.2441984552,-56014.934,-66423.46,-20506.348,-18644.898,-21455.607,-7836.019,-20919.475,14468.547
1223555.2481984503,-55993.86,-66414.8,-20503.988,-18643.066,-21452.88,-7835.368,-20917.236,14473.593
1223555.2521984456,-55986.98,-66398.69,-20493.408,-18639.771,-21438.762,-7823.69,-20906.941,14462.606
1223555.2561984407,-56001.223,-66399.414,-20490.967,-18640.096,-21435.996,-7818.034,-20901.326,14457.602
1223555.260198436,-56018.72,-66417.12,-20500.164,-18644.246,-21447.918,-7823.7715,-20907.674,14464.56
1223555.264198431,-56021.203,-66431.84,-20511.027,-18648.846,-21459.229,-7833.9033,-20921.754,14467.082
1223555.268198426,-56012.86,-66434.25,-20510.54,-18649.049,-21458.008,-7833.5776,-20923.137,14470.663
1223555.2721984214,-56009.402,-66424.93,-20502.645,-18646.322,-21444.662,-7821.6963,-20911.215,14471.273
1223555.2761984165,-56024.254,-66430.18,-20499.105,-18647.502,-21441.732,-7815.593,-20905.844,14467.57
1223555.2801984116,-56029.504,-66437.95,-20503.988,-18650.146,-21451.945,-7826.172,-20914.348,14471.191
1223555.2841984069,-56022.91,-66439.49,-20512.574,-18650.879,-21459.678,-7839.0303,-20926.96,14473.796
1223555.288198402,-56016.684,-66444.13,-20511.516,-18650.146,-21459.922,-7838.623,-20928.102,14470.947
1223555.292198397,-56021.973,-66438.766,-20503.785,-18648.031,-21450.033,-7826.0093,-20919.678,14462.24
1223555.2961983923,-56033.0,-66434.086,-20502.727,-18649.17,-21446.25,-7821.2485,-20916.912,14456.787
1223555.3001983874,-56039.145,-66441.49,-20508.586,-18653.402,-21455.486,-7831.2583,-20927.002,14456.625
1223555.3041983827,-56027.996,-66444.3,-20517.537,-18655.965,-21464.275,-7842.163,-20937.785,14461.02
1223555.3081983777,-56016.074,-66440.47,-20519.287,-18653.24,-21461.752,-7839.559,-20934.979,14470.703
1223555.3121983728,-56022.91,-66441.53,-20516.277,-18651.775,-21454.63,-7828.5728,-20921.998,14481.201
1223555.316198368,-56027.344,-66434.9,-20508.18,-18649.781,-21446.9,-7825.521,-20918.66,14464.071
1223555.3201983632,-56018.72,-66421.39,-20509.318,-18648.316,-21451.172,-7835.653,-20929.525,14452.475
1223555.3241983582,-56012.29,-66420.66,-20515.057,-18647.746,-21458.701,-7845.9067,-20936.89,14460.979
1223555.3281983535,-56006.145,-66423.14,-20515.096,-18645.59,-21454.916,-7844.9707,-20936.238,14462.646
1223555.3321983486,-56006.227,-66420.25,-20509.48,-18642.781,-21441.895,-7834.188,-20926.799,14458.659
1223555.336198344,-56016.523,-66417.32,-20504.273,-18642.01,-21436.523,-7827.4336,-20919.516,14454.143
1223555.340198339,-56025.027,-66420.125,-20511.354,-18645.996,-21448.162,-7835.8564,-20924.928,14458.659
1223555.344198334,-56030.03,-66431.52,-20523.072,-18651.043,-21462.24,-7847.0054,-20935.059,14464.355
1223555.3481983293,-56024.54,-66433.19,-20523.52,-18649.293,-21459.107,-7845.703,-20933.594,14466.024
1223555.3521983244,-56018.555,-66424.03,-20513.266,-18645.02,-21446.33,-7835.49,-20923.016,14461.874
1223555.3561983195,-56025.39,-66418.22,-20506.023,-18643.23,-21441.611,-7828.247,-20914.918,14463.135
1223555.3601983148,-56039.062,-66428.1,-20512.777,-18649.129,-21454.754,-7835.8564,-20921.55,14468.71
1223555.3641983098,-56036.34,-66436.16,-20518.27,-18652.508,-21466.064,-7845.744,-20931.355,14475.749
1223555.3681983051,-56024.254,-66437.625,-20517.578,-18650.635,-21463.787,-7845.215,-20933.676,14473.43
1223555.3721983002,-56018.19,-66431.48,-20511.76,-18646.484,-21450.156,-7835.7344,-20927.287,14466.919
1223555.3761982953,-56023.723,-66424.64,-20508.871,-18645.71,-21445.639,-7830.1597,-20923.34,14464.844
1223555.3801982906,-56036.83,-66436.52,-20512.695,-18651.123,-21455.934,-7838.542,-20928.549,14472.168
1223555.3841982856,-56039.348,-66449.42,-20517.62,-18653.035,-21465.943,-7849.4062,-20936.402,14482.544
1223555.3881982807,-56020.348,-66440.516,-20514.404,-18649.781,-21459.717,-7850.3013,-20941.0,14471.313
1223555.392198276,-56012.86,-66427.66,-20505.006,-18644.898,-21443.32,-7841.024,-20938.559,14454.956
1223555.396198271,-56021.363,-66422.125,-20504.559,-18644.451,-21437.338,-7836.914,-20937.256,14447.958
1223555.4001982661,-56026.41,-66426.88,-20510.213,-18647.543,-21447.959,-7845.622,-20943.074,14455.404
1223555.4041982614,-56019.777,-66433.35,-20516.195,-18648.764,-21459.434,-7856.6084,-20950.195,14467.489
1223555.4081982565,-56013.266,-66432.375,-20516.725,-18645.752,-21455.566,-7854.4517,-20947.836,14466.472
1223555.4121982518,-56010.133,-66418.7,-20510.457,-18642.498,-21441.691,-7844.2793,-20937.867,14454.875
1223555.4161982469,-56016.684,-66411.625,-20505.371,-18642.742,-21437.094,-7839.5186,-20930.746,14450.114
1223555.420198242,-56031.66,-66423.34,-20512.086,-18647.299,-21450.969,-7845.9473,-20935.506,14460.979
1223555.4241982372,-56023.645,-66429.61,-20515.91,-18649.17,-21463.664,-7855.428,-20943.93,14471.3955
1223555.4281982323,-56002.973,-66422.37,-20512.615,-18645.467,-21457.56,-7856.8115,-20944.947,14470.5
1223555.4321982274,-56001.75,-66416.18,-20504.232,-18642.416,-21442.139,-7845.337,-20933.473,14467.163
1223555.4361982227,-56008.383,-66409.06,-20499.432,-18640.38,-21434.043,-7836.5073,-20926.393,14466.391
1223555.4401982178,-56028.484,-66428.19,-20512.451,-18648.113,-21448.121,-7845.093,-20934.367,14469.157
1223555.444198213,-56037.273,-66445.805,-20523.926,-18653.688,-21462.484,-7854.818,-20943.97,14474.203
1223555.4481982081,-56023.97,-66438.73,-20520.06,-18648.967,-21455.852,-7852.2544,-20940.227,14480.957
1223555.4521982032,-56015.22,-66420.45,-20508.465,-18644.775,-21437.623,-7840.6577,-20929.81,14479.004
1223555.4561981985,-56027.71,-66419.516,-20503.826,-18645.387,-21430.705,-7834.5137,-20921.957,14478.271
1223555.4601981936,-56041.18,-66425.414,-20509.318,-18648.682,-21439.088,-7841.96,-20925.66,14486.735
1223555.4641981886,-56046.43,-66436.81,-20516.969,-18650.676,-21449.463,-7852.0103,-20933.758,14490.642
1223555.468198184,-56035.156,-66440.06,-20514.771,-18648.438,-21446.168,-7851.4404,-20934.285,14489.868
1223555.472198179,-56020.02,-66428.914,-20503.094,-18645.02,-21435.67,-7839.803,-20928.06,14481.771
1223555.476198174,-56027.508,-66419.234,-20501.344,-18644.94,-21430.217,-7834.188,-20922.648,14481.364
1223555.4801981694,-56038.78,-66427.82,-20508.627,-18647.746,-21440.512,-7842.082,-20925.537,14493.571
1223555.4841981644,-56027.957,-66435.43,-20509.889,-18648.56,-21449.26,-7854.004,-20939.412,14488.892
1223555.4881981597,-56010.01,-66427.37,-20507.121,-18645.916,-21445.477,-7855.428,-20944.092,14484.253
1223555.4921981548,-56009.766,-66423.26,-20502.361,-18644.695,-21437.012,-7845.215,-20939.494,14472.656
1223555.4961981499,-56018.027,-66421.8,-20498.78,-18646.363,-21432.455,-7840.7393,-20939.9,14461.833
1223555.5001981452,-56026.164,-66425.74,-20507.771,-18651.002,-21441.936,-7850.464,-20948.934,14461.874
1223555.5041981402,-56030.03,-66440.11,-20519.979,-18656.129,-21455.363,-7860.718,-20955.201,14471.599
1223555.5081981353,-56014.934,-66433.555,-20515.91,-18653.402,-21449.586,-7860.3926,-20951.904,14477.499
1223555.5121981306,-56008.02,-66420.125,-20504.436,-18647.95,-21433.799,-7848.2666,-20938.111,14472.819
1223555.5161981257,-56023.03,-66422.69,-20503.906,-18648.805,-21430.95,-7842.163,-20930.705,14470.622
1223555.520198121,-56037.76,-66434.49,-20512.207,-18654.42,-21442.871,-7851.6035,-20938.762,14478.435
1223555.524198116,-56034.305,-66442.266,-20517.213,-18655.762,-21451.824,-7861.8164,-20945.68,14484.741
1223555.528198111,-56021.895,-66445.31,-20512.248,-18655.07,-21451.457,-7860.0264,-20948.04,14482.341
1223555.5321981064,-56020.184,-66438.31,-20502.97,-18649.74,-21441.285,-7848.0225,-20940.553,14473.1045
1223555.5361981015,-56026.574,-66430.09,-20499.756,-18649.049,-21435.467,-7842.977,-20933.188,14471.68
1223555.5401980965,-56042.727,-66444.586,-20511.23,-18654.95,-21449.992,-7852.0103,-20937.379,14481.934
1223555.5441980918,-56046.387,-66456.71,-20519.654,-18659.139,-21463.584,-7862.1016,-20946.615,14486.41
1223555.548198087,-56022.992,-66446.414,-20512.166,-18655.682,-21458.66,-7860.5146,-20946.045,14485.393
1223555.5521980822,-56015.344,-66434.41,-20500.936,-18651.408,-21444.215,-7847.6562,-20932.7,14483.358
1223555.5561980773,-56021.445,-66430.14,-20498.088,-18648.967,-21435.223,-7841.1055,-20925.984,14480.225
1223555.5601980723,-56027.59,-66430.42,-20508.465,-18652.67,-21440.47,-7848.9585,-20933.514,14489.34
1223555.5641980676,-56026.855,-66439.984,-20515.625,-18656.494,-21453.33,-7860.4736,-20945.842,14495.891
1223555.5681980627,-56013.594,-66441.66,-20511.719,-18651.287,-21453.533,-7860.5957,-20948.162,14490.397
1223555.5721980578,-56013.88,-66436.41,-20505.168,-18648.357,-21441.488,-7850.4233,-20940.268,14481.649
1223555.576198053,-56016.523,-66428.1,-20499.146,-18647.014,-21433.799,-7847.0054,-20937.744,14474.081
1223555.5801980481,-56016.93,-66424.234,-20502.361,-18646.81,-21437.95,-7854.533,-20945.8,14480.388
1223555.5841980432,-56018.84,-66430.38,-20510.092,-18650.35,-21446.168,-7864.421,-20956.584,14483.928
1223555.5881980385,-56010.01,-66430.46,-20507.691,-18650.066,-21445.965,-7862.1016,-20954.793,14488.241
1223555.5921980336,-56010.297,-66426.19,-20500.936,-18646.322,-21437.217,-7850.0977,-20943.645,14483.195
1223555.596198029,-56020.55,-66423.914,-20497.479,-18645.793,-21434.123,-7845.378,-20939.982,14477.865
1223555.600198024,-56025.066,-66427.164,-20500.691,-18646.729,-21442.871,-7854.045,-20950.521,14481.323
1223555.604198019,-56023.113,-66439.25,-20510.336,-18650.35,-21451.498,-7864.665,-20963.217,14479.818
1223555.6081980143,-56017.824,-66440.39,-20513.387,-18649.822,-21448.73,-7864.3394,-20962.484,14477.011
1223555.6121980094,-56018.11,-66432.7,-20505.697,-18646.322,-21434.734,-7852.661,-20952.596,14469.279
1223555.6161980045,-56026.33,-66430.7,-20499.756,-18644.328,-21427.002,-7847.168,-20950.36,14461.63
1223555.6201979998,-56031.008,-66437.3,-20505.574,-18646.525,-21436.28,-7854.8584,-20958.781,14468.506
1223555.6241979948,-56030.113,-66446.21,-20515.3,-18649.455,-21448.447,-7866.4146,-20971.03,14471.802
1223555.6281979901,-56024.414,-66450.195,-20510.133,-18648.152,-21448.65,-7864.0137,-20967.488,14477.824
1223555.6321979852,-56017.336,-66442.14,-20495.037,-18642.457,-21435.059,-7850.993,-20954.63,14480.429
1223555.6361979803,-56019.98,-66434.86,-20490.275,-18640.87,-21430.502,-7846.5576,-20950.643,14479.777
1223555.6401979756,-56026.652,-66443.16,-20497.479,-18645.59,-21443.197,-7856.527,-20957.887,14485.026
1223555.6441979706,-56018.84,-66449.47,-20502.441,-18646.648,-21450.848,-7866.4146,-20968.182,14489.096
1223555.6481979657,-56011.8,-66451.09,-20503.703,-18644.451,-21448.447,-7865.967,-20966.064,14494.67
1223555.652197961,-56008.18,-66439.91,-20494.588,-18640.828,-21434.287,-7853.6377,-20953.004,14494.67
1223555.656197956,-56011.07,-66431.03,-20489.87,-18640.219,-21427.41,-7847.29,-20941.041,14500.529
1223555.6601979511,-56011.438,-66431.93,-20494.67,-18642.945,-21437.541,-7856.079,-20947.225,14498.698
1223555.6641979464,-56008.426,-66440.8,-20499.959,-18644.246,-21448.61,-7866.6587,-20957.44,14499.023
1223555.6681979415,-56002.973,-66439.45,-20499.676,-18643.107,-21446.574,-7865.682,-20956.055,14490.723
1223555.6721979368,-56002.32,-66432.336,-20490.193,-18640.625,-21435.791,-7853.6377,-20950.887,14484.66
1223555.6761979319,-56009.402,-66431.766,-20484.66,-18640.26,-21430.34,-7847.6157,-20948.854,14480.673
1223555.680197927,-56016.93,-66436.12,-20492.39,-18644.207,-21440.105,-7858.032,-20958.943,14484.863
1223555.6841979222,-56017.863,-66448.04,-20502.85,-18649.129,-21453.33,-7870.8906,-20972.127,14483.847
1223555.6881979173,-56014.242,-66451.58,-20505.127,-18648.764,-21451.904,-7868.205,-20969.441,14487.102
1223555.6921979124,-56012.574,-66442.016,-20498.17,-18643.23,-21435.955,-7855.591,-20955.242,14487.102
1223555.6961979077,-56022.625,-66439.17,-20491.7,-18640.584,-21429.607,-7849.0806,-20948.406,14485.107
1223555.7001979027,-56024.293,-66439.66,-20492.229,-18643.107,-21439.982,-7856.7305,-20953.084,14491.699
1223555.704197898,-56021.12,-66448.53,-20499.879,-18647.34,-21454.266,-7866.6587,-20959.717,14499.472
1223555.708197893,-56014.242,-66450.16,-20501.059,-18647.014,-21452.598,-7863.8105,-20957.113,14501.425
1223555.7121978882,-56009.402,-66437.87,-20495.688,-18642.457,-21436.809,-7850.179,-20943.28,14500.326
1223555.7161978835,-56028.85,-66445.195,-20499.309,-18645.143,-21435.67,-7844.6045,-20934.326,14498.983
1223555.7201978785,-56042.035,-66461.95,-20508.627,-18653.035,-21449.383,-7855.1436,-20941.814,14502.157
1223555.7241978736,-56029.34,-66463.055,-20511.598,-18654.46,-21456.34,-7866.577,-20953.248,14508.22
1223555.728197869,-56014.04,-66457.16,-20505.615,-18650.473,-21449.707,-7865.56,-20952.312,14514.893
1223555.732197864,-56009.645,-66451.7,-20497.6,-18646.729,-21436.361,-7855.876,-20940.47,14509.074
1223555.7361978593,-56023.074,-66452.516,-20496.258,-18647.217,-21432.537,-7852.9463,-20940.389,14500.937
1223555.7401978543,-56029.38,-66456.914,-20499.715,-18650.555,-21440.512,-7861.4097,-20951.295,14503.012
1223555.7441978494,-56022.543,-66458.82,-20503.703,-18652.832,-21451.213,-7872.762,-20962.688,14507.65
1223555.7481978447,-56012.13,-66458.91,-20502.4,-18651.367,-21451.701,-7872.8438,-20961.793,14511.23
1223555.7521978398,-56016.48,-66458.05,-20496.785,-18650.146,-21442.953,-7860.189,-20947.836,14504.11
1223555.7561978349,-56029.992,-66463.79,-20493.611,-18651.367,-21441.895,-7853.1904,-20943.197,14492.065
1223555.7601978302,-56033.57,-66471.16,-20498.332,-18653.688,-21451.865,-7862.2236,-20956.014,14494.263
1223555.7641978252,-56021.973,-66470.18,-20501.465,-18652.182,-21457.031,-7871.46,-20958.578,14511.475
1223555.7681978203,-56006.836,-66462.52,-20498.332,-18649.293,-21450.4,-7870.443,-20956.178,14522.543
1223555.7721978156,-56007.285,-66454.14,-20494.752,-18646.932,-21438.682,-7859.66,-20944.906,14523.071
1223555.7761978107,-56024.254,-66452.31,-20492.717,-18647.096,-21435.791,-7855.2656,-20942.139,14512.289
1223555.780197806,-56036.46,-66460.82,-20499.756,-18650.473,-21447.715,-7864.746,-20954.469,14508.505
1223555.784197801,-56028.89,-66464.32,-20506.062,-18652.264,-21457.56,-7877.4824,-20966.756,14505.656
1223555.788197796,-56017.54,-66464.93,-20506.227,-18650.758,-21459.066,-7878.093,-20971.68,14499.96
1223555.7921977914,-56021.324,-66462.24,-20497.762,-18647.502,-21440.879,-7866.089,-20966.146,14493.979
1223555.7961977865,-56028.527,-66457.6,-20490.398,-18645.184,-21430.99,-7858.6426,-20955.934,14490.927
1223555.8001977815,-56034.63,-66467.125,-20496.99,-18649.414,-21449.383,-7866.5366,-20965.047,14493.246
1223555.8041977768,-56028.08,-66473.63,-20502.076,-18652.467,-21461.63,-7876.831,-20977.459,14496.013
1223555.808197772,-56016.766,-66470.22,-20501.953,-18651.408,-21458.74,-7877.075,-20975.871,14497.07
1223555.8121977672,-56012.86,-66459.516,-20493.693,-18648.031,-21445.8,-7864.0137,-20958.62,14503.052
1223555.8161977623,-56019.168,-66458.78,-20487.957,-18647.502,-21439.535,-7859.538,-20952.393,14501.465
1223555.8201977573,-56024.17,-66468.38,-20494.752,-18651.326,-21448.04,-7869.7104,-20963.135,14501.303
1223555.8241977526,-56023.6,-66475.016,-20504.354,-18654.46,-21459.88,-7880.7373,-20973.959,14506.43
1223555.8281977477,-56016.6,-66475.875,-20506.104,-18654.623,-21459.84,-7879.3945,-20975.3,14508.708
1223555.8321977428,-56009.117,-66464.07,-20497.723,-18650.188,-21446.209,-7866.1704,-20965.617,14501.709
1223555.836197738,-56017.824,-66460.86,-20494.344,-18650.066,-21442.953,-7858.9683,-20958.537,14501.791
1223555.8401977331,-56037.477,-66476.28,-20503.906,-18658.123,-21456.422,-7868.0015,-20964.844,14510.336
1223555.8441977282,-56031.66,-66481.2,-20509.441,-18661.133,-21466.229,-7878.4995,-20976.807,14510.254
1223555.8481977235,-56016.6,-66477.22,-20508.586,-18656.006,-21459.514,-7878.459,-20980.754,14506.348
1223555.8521977186,-56014.69,-66470.016,-20499.512,-18649.74,-21444.336,-7866.008,-20967.855,14504.3545
1223555.8561977139,-56025.23,-66464.68,-20494.02,-18648.316,-21435.264,-7858.236,-20957.154,14501.709
1223555.860197709,-56036.62,-66474.29,-20502.076,-18652.223,-21444.5,-7864.868,-20963.379,14504.883
1223555.864197704,-56038.984,-66481.98,-20513.143,-18657.186,-21457.725,-7875.814,-20973.186,14511.963
1223555.8681976993,-56026.777,-66477.375,-20509.686,-18655.273,-21456.787,-7877.7266,-20976.727,14503.296
1223555.8721976944,-56024.254,-66470.22,-20499.47,-18651.164,-21443.28,-7866.2925,-20966.35,14500.732
1223555.8761976894,-56032.15,-66463.586,-20494.914,-18651.775,-21436.402,-7859.7007,-20961.67,14498.454
1223555.8801976847,-56034.75,-66468.51,-20497.885,-18656.617,-21449.057,-7869.0186,-20971.844,14500.082
1223555.8841976798,-56029.95,-66479.125,-20502.076,-18656.209,-21460.41,-7879.476,-20978.23,14510.254
1223555.888197675,-56020.1,-66473.63,-20501.994,-18653.809,-21454.387,-7878.784,-20978.68,14507.487
1223555.8921976702,-56017.375,-66461.71,-20495.89,-18648.967,-21442.303,-7865.2344,-20967.326,14504.272
1223555.8961976652,-56035.24,-66468.586,-20496.582,-18650.96,-21441.855,-7860.189,-20961.752,14505.29
1223555.9001976606,-56046.266,-66481.9,-20502.727,-18656.982,-21454.834,-7867.4727,-20967.814,14511.557
1223555.9041976556,-56037.11,-66484.46,-20507.691,-18658.691,-21465.82,-7877.075,-20975.383,14521.403
1223555.9081976507,-56025.066,-66476.36,-20509.441,-18658.0,-21460.205,-7878.703,-20975.424,14524.902
1223555.912197646,-56019.53,-66464.32,-20503.094,-18655.72,-21441.732,-7869.4663,-20967.53,14508.545
1223555.916197641,-56031.863,-66464.93,-20499.715,-18655.518,-21437.623,-7863.4443,-20963.787,14497.03
1223555.9201976364,-56039.918,-66471.44,-20505.494,-18658.041,-21446.941,-7871.257,-20969.117,14504.313
1223555.9241976314,-56041.75,-66481.37,-20512.574,-18660.523,-21459.107,-7881.633,-20978.68,14510.254
1223555.9281976265,-56035.484,-66480.555,-20512.127,-18659.709,-21457.072,-7881.1445,-20980.021,14508.789
1223555.9321976218,-56028.08,-66466.23,-20500.488,-18652.059,-21442.627,-7870.3613,-20973.918,14492.554
1223555.9361976169,-56035.93,-66460.414,-20494.752,-18649.943,-21436.729,-7864.4614,-20970.906,14485.759
1223555.940197612,-56054.08,-66476.24,-20505.33,-18657.918,-21450.889,-7875.814,-20979.33,14494.182
1223555.9441976072,-56059.652,-66497.68,-20514.69,-18662.842,-21464.723,-7886.841,-20986.531,14509.237
1223555.9481976023,-56049.887,-66496.055,-20515.707,-18662.395,-21461.59,-7889.608,-20988.078,14511.475
1223555.9521975974,-56041.383,-66479.86,-20506.227,-18658.488,-21448.203,-7880.6562,-20980.672,14502.238
1223555.9561975927,-56046.715,-66471.6,-20499.105,-18656.209,-21442.344,-7872.5996,-20971.314,14502.727
1223555.9601975877,-56059.246,-66483.65,-20508.139,-18660.035,-21454.916,-7881.633,-20978.11,14509.929
1223555.964197583,-56058.434,-66491.74,-20518.025,-18663.777,-21465.943,-7893.148,-20988.77,14514.282
1223555.968197578,-56051.965,-66489.14,-20518.963,-18660.686,-21459.514,-7890.991,-20984.863,14517.416
1223555.9721975732,-56055.176,-66486.695,-20512.94,-18657.635,-21447.877,-7879.11,-20974.895,14514.404
1223555.9761975685,-56065.188,-66485.44,-20505.738,-18657.838,-21442.912,-7871.582,-20972.656,14507.568
1223555.9801975635,-56064.008,-66489.055,-20505.209,-18660.156,-21452.842,-7880.046,-20983.236,14505.127
1223555.9841975586,-56055.258,-66493.77,-20512.166,-18661.174,-21462.566,-7893.148,-20996.746,14505.209
1223555.988197554,-56044.72,-66484.984,-20511.719,-18657.023,-21457.316,-7892.131,-20996.014,14506.186
1223555.992197549,-56040.203,-66478.11,-20502.605,-18654.95,-21445.15,-7877.9707,-20982.137,14502.197
1223555.9961975443,-56048.668,-66481.77,-20498.494,-18656.088,-21443.768,-7870.036,-20970.826,14501.628
1223556.0001975393,-56051.68,-66484.13,-20502.361,-18657.959,-21452.11,-7877.889,-20976.115,14507.324
1223556.0041975344,-56043.99,-66484.83,-20509.318,-18659.627,-21459.514,-7888.713,-20983.357,14520.874
1223556.0081975297,-56040.12,-66487.39,-20511.19,-18657.309,-21458.008,-7887.7363,-20984.334,14525.595
1223556.0121975248,-56046.184,-66485.31,-20504.232,-18652.426,-21444.662,-7874.878,-20973.877,14519.165
1223556.0161975198,-56059.082,-66486.695,-20499.023,-18653.24,-21439.17,-7869.222,-20968.1,14514.201
1223556.0201975151,-56065.188,-66492.07,-20506.227,-18659.139,-21448.812,-7880.697,-20980.184,14514.486
1223556.0241975102,-56061.934,-66500.37,-20516.277,-18662.557,-21460.654,-7891.8867,-20994.508,14516.928
1223556.0281975053,-56055.258,-66500.25,-20515.992,-18659.22,-21455.648,-7888.9976,-20993.205,14519.491
1223556.0321975006,-56049.645,-66484.21,-20507.447,-18655.6,-21440.35,-7873.698,-20977.418,14519.369
1223556.0361974956,-56068.2,-66485.84,-20508.871,-18657.309,-21436.605,-7866.252,-20968.67,14519.287
1223556.040197491,-56087.484,-66503.46,-20517.62,-18662.15,-21448.283,-7875.936,-20978.475,14518.107
1223556.044197486,-56073.203,-66505.29,-20518.84,-18662.232,-21458.822,-7889.8115,-20994.182,14515.219
1223556.048197481,-56057.414,-66501.55,-20516.033,-18658.244,-21455.12,-7889.2417,-20995.117,14518.677
1223556.0521974764,-56056.926,-66495.57,-20509.074,-18654.012,-21440.674,-7876.587,-20983.236,14516.032
1223556.0561974715,-56076.05,-66498.984,-20508.18,-18655.355,-21438.152,-7870.4023,-20977.783,14513.713
1223556.0601974665,-56086.305,-66510.375,-20515.584,-18660.727,-21450.236,-7879.3945,-20982.91,14524.008
1223556.0641974618,-56076.785,-66514.69,-20520.06,-18660.686,-21460.084,-7890.5845,-20992.473,14525.717
1223556.068197457,-56062.5,-66513.305,-20516.643,-18657.959,-21456.787,-7891.2354,-20993.816,14524.862
1223556.0721974522,-56058.72,-66504.4,-20508.912,-18652.467,-21444.58,-7880.7373,-20985.148,14518.188
1223556.0761974473,-56068.848,-66504.27,-20505.941,-18654.338,-21441.732,-7874.3086,-20978.639,14514.648
1223556.0801974423,-56072.676,-66509.89,-20506.918,-18656.494,-21451.58,-7881.185,-20981.121,14528.442
1223556.0841974376,-56067.305,-66516.97,-20513.592,-18658.123,-21461.71,-7892.7,-20989.95,14535.319
1223556.0881974327,-56062.625,-66519.25,-20516.602,-18655.682,-21459.434,-7890.5845,-20988.852,14537.68
1223556.0921974278,-56065.758,-66513.96,-20510.213,-18653.32,-21445.068,-7877.6855,-20977.498,14538.086
1223556.096197423,-56072.062,-66508.95,-20501.465,-18649.943,-21435.629,-7871.46,-20973.186,14530.762
1223556.1001974181,-56077.56,-66513.92,-20507.283,-18652.996,-21445.965,-7882.772,-20984.498,14529.989
1223556.1041974132,-56075.074,-66527.71,-20517.213,-18659.424,-21460.898,-7895.671,-20998.7,14531.82
1223556.1081974085,-56071.74,-66530.03,-20523.316,-18659.871,-21461.834,-7896.0776,-21000.447,14530.151
1223556.1121974036,-56079.023,-66528.77,-20519.734,-18659.627,-21453.533,-7884.3994,-20990.602,14525.146
1223556.1161973989,-56083.945,-66521.57,-20513.225,-18657.594,-21447.55,-7875.57,-20982.83,14521.973
1223556.120197394,-56089.887,-66532.88,-20517.01,-18662.842,-21458.496,-7882.9346,-20990.072,14523.315
1223556.124197389,-56088.625,-66539.39,-20525.066,-18666.748,-21468.873,-7892.904,-20999.188,14527.914
1223556.1281973843,-56084.395,-66541.586,-20526.205,-18663.29,-21463.584,-7890.9507,-20996.258,14531.616
1223556.1321973794,-56080.934,-66533.2,-20516.033,-18656.82,-21447.998,-7879.598,-20984.457,14532.431
1223556.1361973744,-56080.406,-66517.3,-20509.197,-18656.291,-21441.203,-7876.3022,-20979.33,14528.728
1223556.1401973697,-56089.113,-66526.33,-20517.945,-18662.354,-21453.492,-7886.8003,-20990.357,14526.408
1223556.1441973648,-56094.28,-66544.84,-20527.752,-18664.592,-21465.496,-7895.223,-21000.408,14529.338
1223556.14819736,-56085.45,-66543.984,-20529.176,-18664.674,-21464.355,-7895.2637,-21004.639,14525.757
1223556.1521973552,-56081.91,-66533.41,-20520.305,-18661.865,-21451.66,-7883.9927,-20995.85,14522.502
1223556.1561973502,-56091.473,-66529.586,-20515.219,-18662.477,-21444.459,-7879.5166,-20990.682,14523.723
1223556.1601973455,-56101.848,-66536.586,-20522.217,-18667.074,-21453.166,-7887.207,-20994.344,14534.872
1223556.1641973406,-56096.56,-66540.0,-20531.78,-18669.11,-21460.654,-7896.81,-20999.553,14545.004
1223556.1681973357,-56089.355,-66542.56,-20532.39,-18665.975,-21456.178,-7896.4844,-20998.25,14547.241
1223556.172197331,-56087.77,-66532.19,-20524.455,-18663.127,-21445.068,-7885.051,-20988.525,14539.958
1223556.176197326,-56095.99,-66531.21,-20519.287,-18664.43,-21443.36,-7879.6797,-20984.01,14537.395
1223556.1801973213,-56103.965,-66541.47,-20524.578,-18669.719,-21456.87,-7888.7534,-20992.146,14542.074
1223556.1841973164,-56105.145,-66553.47,-20533.0,-18673.38,-21470.094,-7900.3906,-21000.0,14549.316
1223556.1881973115,-56099.12,-66553.51,-20534.22,-18671.63,-21467.814,-7898.967,-20998.006,14546.143
1223556.1921973068,-56095.258,-66541.14,-20526.49,-18667.074,-21453.695,-7886.2305,-20985.637,14547.16
1223556.1961973018,-56102.336,-66535.52,-20523.64,-18665.04,-21446.697,-7880.7373,-20981.73,14541.464
1223556.200197297,-56105.51,-66536.016,-20529.623,-18668.05,-21451.904,-7891.1133,-20991.537,14540.527
1223556.2041972922,-56099.69,-66541.47,-20533.082,-18669.922,-21458.701,-7900.35,-21000.447,14546.753
1223556.2081972873,-56091.594,-66542.445,-20527.791,-18666.586,-21455.566,-7897.217,-20999.512,14544.312
1223556.2121972824,-56089.562,-66536.83,-20517.375,-18663.006,-21444.662,-7885.01,-20990.398,14540.649
1223556.2161972777,-56094.402,-66534.55,-20511.11,-18661.662,-21442.871,-7879.9644,-20986.816,14533.8545
1223556.2201972727,-56098.797,-66538.25,-20516.072,-18665.854,-21454.51,-7888.957,-20994.914,14536.011
1223556.224197268,-56094.65,-66545.414,-20523.967,-18668.133,-21465.658,-7900.635,-21002.28,14546.265
1223556.228197263,-56084.473,-66545.33,-20522.87,-18666.139,-21464.193,-7900.472,-21001.465,14553.345
1223556.2321972582,-56088.22,-66544.48,-20515.91,-18664.959,-21452.678,-7887.9395,-20991.658,14547.241
1223556.2361972535,-56105.023,-66549.28,-20515.91,-18666.668,-21449.83,-7884.3994,-20989.625,14537.476
1223556.2401972485,-56111.492,-66546.305,-20523.52,-18667.807,-21454.346,-7892.334,-20997.844,14542.5625
1223556.2441972436,-56110.07,-66555.09,-20533.406,-18670.125,-21463.584,-7902.995,-21005.086,14553.467
1223556.248197239,-56101.484,-66558.19,-20535.32,-18668.783,-21462.2,-7904.5005,-21004.883,14556.845
1223556.252197234,-56095.137,-66544.516,-20527.752,-18664.021,-21448.527,-7894.9385,-20995.932,14549.846
1223556.2561972293,-56107.465,-66542.85,-20525.35,-18662.883,-21442.424,-7889.4043,-20989.014,14546.753
1223556.2601972243,-56114.992,-66551.84,-20530.803,-18666.057,-21449.139,-7898.2344,-20995.729,14550.212
1223556.2641972194,-56105.43,-66552.53,-20539.633,-18668.945,-21459.96,-7910.6855,-21007.65,14553.996
1223556.2681972147,-56098.188,-66555.09,-20538.371,-18668.092,-21459.393,-7906.5757,-21003.662,14560.995
1223556.2721972098,-56101.93,-66553.266,-20532.35,-18664.674,-21447.715,-7892.09,-20989.217,14559.652
1223556.2761972048,-56114.91,-66552.05,-20527.67,-18664.918,-21445.354,-7886.5967,-20982.586,14559.937
1223556.2801972001,-56114.098,-66556.766,-20527.385,-18668.05,-21457.316,-7896.6064,-20992.758,14563.477
1223556.2841971952,-56104.414,-66562.13,-20533.082,-18669.598,-21467.57,-7908.0,-21002.197,14569.824
1223556.2881971903,-56098.594,-66563.805,-20537.842,-18668.824,-21462.89,-7906.7793,-21004.598,14567.587
1223556.2921971856,-56108.727,-66565.39,-20532.918,-18666.463,-21450.889,-7895.1826,-20995.729,14559.326
1223556.2961971806,-56121.625,-66566.2,-20529.053,-18667.36,-21446.615,-7890.7065,-20993.043,14546.957
1223556.300197176,-56124.023,-66564.7,-20532.268,-18671.143,-21456.137,-7900.1465,-21001.344,14550.7
1223556.304197171,-56119.14,-66575.16,-20537.883,-18672.852,-21469.402,-7910.2783,-21012.004,14553.874
1223556.308197166,-56116.05,-66582.16,-20539.918,-18673.26,-21468.791,-7911.2144,-21017.09,14544.841
1223556.3121971614,-56111.816,-66567.42,-20532.227,-18669.963,-21456.055,-7899.1294,-21006.633,14537.069
1223556.3161971564,-56122.684,-66563.16,-20528.688,-18669.19,-21450.766,-7889.4453,-20997.273,14536.865
1223556.3201971515,-56132.855,-66572.266,-20533.0,-18672.934,-21459.27,-7897.4204,-21004.191,14543.254
1223556.3241971468,-56130.82,-66576.74,-20541.545,-18673.828,-21468.955,-7908.9355,-21014.486,14548.706
1223556.3281971419,-56121.38,-66573.77,-20541.139,-18672.73,-21465.21,-7907.3896,-21011.23,14553.386
1223556.3321971372,-56117.35,-66562.38,-20531.902,-18669.516,-21450.033,-7894.1245,-20995.688,14555.827
1223556.3361971322,-56116.17,-66549.84,-20523.031,-18666.748,-21439.982,-7887.777,-20984.254,14562.866
1223556.3401971273,-56113.566,-66550.375,-20525.188,-18669.23,-21448.527,-7898.3564,-20989.828,14571.859
1223556.3441971226,-56105.918,-66556.44,-20532.715,-18672.445,-21462.037,-7909.424,-21001.873,14573.568
1223556.3481971177,-56103.273,-66558.68,-20536.947,-18674.113,-21461.143,-7909.465,-21003.865,14573.73
1223556.3521971127,-56101.727,-66549.234,-20526.611,-18669.11,-21445.15,-7895.9556,-20989.584,14571.289
1223556.356197108,-56109.785,-66545.375,-20522.137,-18666.871,-21439.088,-7889.282,-20982.342,14565.471
1223556.3601971031,-56121.42,-66554.24,-20530.232,-18669.11,-21448.61,-7896.8916,-20988.24,14570.761
1223556.3641970984,-56128.38,-66569.055,-20542.848,-18675.09,-21461.63,-7908.1626,-20998.78,14573.08
1223556.3681970935,-56124.758,-66573.98,-20543.092,-18674.846,-21461.264,-7909.587,-21001.588,14573.446
1223556.3721970886,-56113.0,-66561.52,-20529.053,-18668.172,-21446.697,-7898.7227,-20992.514,14568.197
1223556.3761970839,-56119.996,-66556.73,-20525.066,-18667.725,-21443.809,-7892.904,-20989.38,14563.437
1223556.380197079,-56133.508,-66563.36,-20536.703,-18675.375,-21456.26,-7904.338,-21001.791,14570.354
1223556.384197074,-56140.586,-66576.17,-20550.537,-18679.646,-21467.773,-7915.08,-21014.16,14575.847
1223556.3881970693,-56134.688,-66577.15,-20549.805,-18677.49,-21461.834,-7914.1035,-21014.771,14578.613
1223556.3921970644,-56121.91,-66567.06,-20537.068,-18672.73,-21447.062,-7903.4834,-21002.32,14575.399
1223556.3961970594,-56131.836,-66567.67,-20532.959,-18674.44,-21447.348,-7899.455,-20998.535,14569.377
1223556.4001970547,-56141.97,-66575.484,-20540.854,-18680.379,-21460.572,-7912.6387,-21012.654,14566.0
1223556.4041970498,-56132.082,-66576.984,-20545.98,-18682.984,-21470.135,-7925.3745,-21028.646,14566.691
1223556.408197045,-56129.844,-66581.99,-20547.648,-18682.293,-21470.215,-7923.503,-21032.146,14562.988
1223556.4121970402,-56137.086,-66580.41,-20540.936,-18678.67,-21458.09,-7911.052,-21025.105,14551.433
1223556.4161970352,-56143.72,-66573.28,-20535.238,-18677.043,-21450.645,-7905.1924,-21020.752,14547.607
1223556.4201970305,-56144.94,-66575.69,-20538.006,-18679.89,-21457.357,-7911.4585,-21024.09,14555.705
1223556.4241970256,-56140.3,-66584.68,-20546.428,-18682.088,-21467.326,-7917.9688,-21026.693,14567.912
1223556.4281970207,-56128.785,-66584.96,-20546.428,-18680.055,-21463.746,-7913.6963,-21022.502,14571.493
1223556.432197016,-56128.094,-66577.31,-20540.61,-18678.71,-21451.986,-7901.164,-21014.771,14564.331
1223556.436197011,-56142.09,-66578.25,-20538.777,-18681.316,-21451.824,-7897.502,-21012.818,14553.549
1223556.4401970063,-56150.72,-66588.79,-20543.133,-18683.105,-21462.688,-7906.291,-21020.467,14552.002
1223556.4441970014,-56148.684,-66598.516,-20549.969,-18681.723,-21467.652,-7916.7075,-21031.25,14554.606
1223556.4481969965,-56143.027,-66601.08,-20549.275,-18679.852,-21463.99,-7917.5215,-21032.797,14557.536
1223556.4521969918,-56139.773,-66592.05,-20540.203,-18675.172,-21452.19,-7906.2095,-21019.572,14560.181
1223556.4561969868,-56146.324,-66585.98,-20535.4,-18673.707,-21444.377,-7897.1357,-21013.184,14556.763
1223556.460196982,-56153.527,-66592.57,-20541.463,-18678.59,-21454.834,-7906.128,-21022.787,14553.508
1223556.4641969772,-56147.91,-66599.734,-20546.754,-18679.078,-21464.316,-7916.3413,-21033.611,14556.112
1223556.4681969723,-56137.332,-66596.88,-20545.125,-18676.393,-21462.932,-7915.853,-21031.332,14555.624
1223556.4721969673,-56136.844,-66590.21,-20536.58,-18673.504,-21450.889,-7905.1514,-21023.113,14545.329
1223556.4761969626,-56147.098,-66590.01,-20530.64,-18671.713,-21445.191,-7900.5127,-21019.166,14539.714
1223556.4801969577,-56159.953,-66601.81,-20538.494,-18678.182,-21458.984,-7911.052,-21023.56,14554.729
1223556.484196953,-56156.13,-66609.625,-20548.584,-18680.46,-21469.688,-7921.509,-21031.617,14567.383
1223556.488196948,-56147.258,-66607.83,-20548.787,-18679.688,-21468.223,-7919.4746,-21030.559,14570.272
1223556.4921969431,-56149.457,-66601.69,-20544.11,-18678.955,-21456.463,-7909.017,-21019.734,14566.813
1223556.4961969384,-56148.277,-66594.56,-20537.273,-18675.701,-21448.365,-7902.507,-21007.324,14570.476
1223556.5001969335,-56152.875,-66595.42,-20538.697,-18678.143,-21454.346,-7909.587,-21013.469,14587.24
1223556.5041969286,-56148.113,-66600.625,-20543.58,-18680.34,-21469.688,-7919.7593,-21027.1,14593.344
1223556.5081969239,-56136.23,-66599.29,-20539.592,-18677.734,-21464.234,-7918.8643,-21027.264,14595.5
1223556.512196919,-56132.49,-66589.07,-20529.256,-18673.219,-21446.818,-7908.6104,-21015.463,14590.088
1223556.5161969143,-56142.17,-66590.66,-20528.564,-18673.26,-21446.738,-7906.4536,-21008.627,14581.503
1223556.5201969093,-56144.695,-66596.31,-20534.18,-18675.172,-21457.887,-7914.2256,-21018.637,14581.137
1223556.5241969044,-56141.523,-66604.414,-20543.701,-18676.555,-21472.168,-7925.6187,-21037.15,14581.096
1223556.5281968997,-56138.266,-66607.55,-20544.312,-18675.945,-21470.988,-7923.4214,-21037.518,14576.172
1223556.5321968948,-56133.06,-66596.03,-20536.256,-18672.322,-21455.934,-7913.8594,-21029.135,14568.481
1223556.5361968898,-56137.74,-66587.0,-20529.744,-18671.062,-21448.936,-7910.6445,-21024.943,14562.256
1223556.5401968851,-56149.21,-66595.74,-20534.059,-18674.969,-21458.781,-7918.376,-21032.227,14566.488
1223556.5441968802,-56150.066,-66604.086,-20544.393,-18677.572,-21469.688,-7927.0835,-21043.66,14566.0
1223556.5481968755,-56149.863,-66608.44,-20553.549,-18678.02,-21471.191,-7924.6016,-21046.59,14562.338
1223556.5521968706,-56170.086,-66613.94,-20552.938,-18679.281,-21459.514,-7912.5166,-21038.127,14560.181
1223556.5561968656,-56180.22,-66618.9,-20544.19,-18679.24,-21459.393,-7905.0293,-21027.508,14560.913
1223556.560196861,-56174.4,-66620.484,-20541.627,-18680.176,-21467.734,-7915.039,-21031.25,14568.4
1223556.564196856,-56154.785,-66609.336,-20545.125,-18679.078,-21472.047,-7929.403,-21042.928,14574.301
1223556.568196851,-56149.336,-66614.42,-20546.184,-18679.566,-21470.785,-7928.2227,-21039.959,14578.491
1223556.5721968464,-56159.06,-66616.21,-20542.848,-18677.246,-21460.246,-7915.853,-21027.14,14575.847
1223556.5761968414,-56169.152,-66614.55,-20540.08,-18675.984,-21455.81,-7908.9355,-21019.572,14578.857
1223556.5801968365,-56159.59,-66605.305,-20541.219,-18677.002,-21456.951,-7917.6436,-21030.559,14579.672
1223556.5841968318,-56158.043,-66612.875,-20549.846,-18680.46,-21465.293,-7928.955,-21042.889,14575.236
1223556.5881968269,-56160.2,-66621.664,-20551.96,-18681.6,-21471.191,-7927.5312,-21043.377,14575.195
1223556.5921968222,-56159.63,-66615.84,-20547.607,-18679.322,-21460.979,-7919.6777,-21037.354,14568.319
1223556.5961968172,-56162.56,-66605.1,-20541.545,-18677.734,-21453.818,-7916.7075,-21032.715,14569.377
1223556.6001968123,-56170.332,-66613.24,-20547.852,-18680.299,-21463.99,-7926.1885,-21039.715,14579.997
1223556.6041968076,-56166.586,-66620.57,-20554.973,-18682.455,-21473.43,-7937.4595,-21047.648,14589.641
1223556.6081968027,-56155.4,-66618.086,-20553.71,-18679.81,-21470.867,-7936.3203,-21042.277,14596.965
1223556.6121967977,-56149.375,-66607.79,-20544.8,-18673.219,-21456.299,-7922.4854,-21031.453,14597.006
1223556.616196793,-56157.473,-66603.195,-20538.168,-18671.346,-21449.219,-7915.2427,-21023.152,14591.228
1223556.620196788,-56164.594,-66614.055,-20543.457,-18675.13,-21458.172,-7923.1772,-21024.861,14592.245
1223556.6241967834,-56165.938,-66625.66,-20554.688,-18679.646,-21472.129,-7934.082,-21041.219,14598.267
1223556.6281967785,-56155.56,-66621.42,-20554.484,-18677.654,-21472.047,-7933.5938,-21045.37,14591.757
1223556.6321967735,-56156.78,-66614.83,-20546.021,-18674.684,-21458.578,-7923.218,-21039.715,14580.363
1223556.6361967688,-56165.12,-66612.71,-20539.186,-18673.055,-21453.045,-7916.911,-21033.123,14571.574
1223556.640196764,-56166.71,-66616.17,-20541.83,-18675.701,-21463.664,-7924.3574,-21036.865,14579.306
1223556.644196759,-56162.355,-66621.99,-20548.707,-18680.299,-21470.988,-7932.17,-21040.975,14592.245
1223556.6481967543,-56154.094,-66620.32,-20548.787,-18680.135,-21468.344,-7930.3794,-21040.486,14593.669
1223556.6521967493,-56156.496,-66614.016,-20542.277,-18676.596,-21456.543,-7920.7764,-21034.424,14579.59
1223556.6561967444,-56167.48,-66612.914,-20539.227,-18676.637,-21450.604,-7916.504,-21031.17,14575.562
1223556.6601967397,-56172.242,-66615.484,-20544.922,-18678.387,-21459.473,-7925.049,-21041.139,14575.684
1223556.6641967348,-56170.29,-66626.23,-20554.77,-18681.885,-21474.285,-7937.5,-21055.055,14579.346
1223556.66819673,-56163.7,-66627.65,-20555.867,-18681.275,-21470.012,-7934.8555,-21051.473,14583.74
1223556.6721967252,-56164.51,-66619.75,-20548.422,-18677.37,-21458.293,-7921.509,-21044.678,14575.847
1223556.6761967202,-56171.31,-66614.42,-20541.83,-18676.434,-21453.33,-7915.609,-21042.766,14562.744
1223556.6801967155,-56181.926,-66625.86,-20547.893,-18681.6,-21462.2,-7925.659,-21049.887,14565.878
1223556.6841967106,-56180.383,-66636.4,-20556.926,-18684.979,-21476.807,-7937.297,-21060.1,14573.608
1223556.6881967057,-56173.79,-66635.74,-20557.576,-18685.262,-21475.912,-7936.6865,-21057.617,14579.184
1223556.692196701,-56173.87,-66629.03,-20549.154,-18682.252,-21463.135,-7924.7236,-21041.504,14585.205
1223556.696196696,-56176.434,-66622.56,-20542.604,-18683.025,-21454.957,-7918.1724,-21033.367,14582.927
1223556.7001966913,-56183.066,-66630.82,-20547.16,-18686.482,-21464.52,-7926.3916,-21038.412,14588.542
1223556.7041966864,-56185.184,-66642.5,-20558.473,-18688.355,-21477.336,-7937.2153,-21045.613,14602.377
1223556.7081966815,-56177.29,-66640.71,-20559.041,-18684.734,-21475.342,-7936.076,-21044.678,14605.469
1223556.7121966768,-56174.113,-66633.22,-20549.44,-18680.42,-21463.096,-7923.6655,-21031.088,14608.684
1223556.7161966718,-56179.08,-66626.18,-20545.207,-18678.996,-21456.34,-7917.5215,-21024.129,14609.457
1223556.720196667,-56183.676,-66628.016,-20550.822,-18681.479,-21465.21,-7928.711,-21037.068,14606.975
1223556.7241966622,-56175.293,-66628.13,-20556.072,-18683.35,-21473.838,-7940.7554,-21049.031,14613.7295
1223556.7281966573,-56159.71,-66620.08,-20551.596,-18680.258,-21465.943,-7939.2905,-21046.713,14614.746
1223556.7321966526,-56159.75,-66614.625,-20546.51,-18676.229,-21451.295,-7925.7812,-21034.465,14608.603
1223556.7361966476,-56180.137,-66617.02,-20547.566,-18677.734,-21446.574,-7920.085,-21034.18,14590.983
1223556.7401966427,-56180.664,-66616.5,-20551.922,-18680.705,-21454.916,-7932.9834,-21050.457,14583.049
1223556.744196638,-56162.07,-66612.19,-20555.705,-18679.566,-21465.293,-7944.906,-21063.477,14585.815
1223556.748196633,-56159.75,-66618.734,-20558.553,-18678.305,-21469.402,-7943.5225,-21064.412,14585.531
1223556.7521966281,-56163.168,-66618.734,-20552.898,-18676.19,-21456.504,-7931.7627,-21054.688,14581.259
1223556.7561966234,-56171.387,-66617.23,-20548.016,-18676.229,-21449.545,-7925.9033,-21048.951,14577.393
1223556.7601966185,-56166.832,-66617.8,-20549.398,-18679.646,-21460.938,-7933.2686,-21055.258,14579.224
1223556.7641966136,-56159.832,-66622.88,-20555.055,-18681.682,-21472.494,-7941.9355,-21062.867,14587.81
1223556.7681966089,-56156.09,-66627.61,-20556.479,-18680.176,-21472.656,-7939.331,-21056.967,14596.924
1223556.772196604,-56155.355,-66617.88,-20549.684,-18678.63,-21458.457,-7929.403,-21044.434,14591.716
1223556.7761965992,-56153.2,-66604.49,-20541.951,-18677.531,-21449.3,-7924.6826,-21038.656,14590.658
1223556.7801965943,-56167.97,-66620.73,-20550.863,-18682.861,-21462.322,-7934.896,-21047.404,14591.838
1223556.7841965894,-56178.47,-66643.15,-20560.467,-18686.035,-21475.262,-7944.377,-21054.932,14594.035
1223556.7881965847,-56166.14,-66642.09,-20557.902,-18683.432,-21470.826,-7944.214,-21053.914,14594.238
1223556.7921965797,-56153.65,-66620.445,-20550.09,-18680.096,-21453.533,-7934.123,-21045.818,14593.791
1223556.7961965748,-56174.48,-66624.11,-20553.264,-18682.088,-21450.969,-7927.409,-21039.55,14593.506
1223556.80019657,-56194.582,-66640.79,-20563.518,-18685.75,-21463.176,-7935.262,-21045.166,14603.19
1223556.8041965652,-56186.688,-66643.84,-20568.115,-18687.297,-21471.436,-7947.8354,-21056.805,14607.707
1223556.8081965605,-56168.38,-66632.734,-20564.9,-18684.041,-21467.652,-7947.0625,-21058.717,14609.701
1223556.8121965555,-56165.04,-66626.266,-20554.89,-18681.031,-21457.154,-7932.292,-21041.83,14612.468
1223556.8161965506,-56183.473,-66629.11,-20551.434,-18684.326,-21455.975,-7924.5605,-21030.111,14615.845
1223556.820196546,-56197.105,-66642.13,-20557.088,-18690.918,-21468.344,-7932.292,-21034.139,14625.692
1223556.824196541,-56187.785,-66646.69,-20561.605,-18692.871,-21479.777,-7942.871,-21043.254,14629.477
1223556.828196536,-56173.91,-66645.23,-20561.361,-18691.285,-21476.807,-7941.8945,-21044.557,14626.303
1223556.8321965314,-56175.01,-66637.05,-20554.89,-18688.232,-21465.293,-7928.9146,-21031.576,14628.866
1223556.8361965264,-56184.125,-66630.74,-20550.416,-18689.25,-21459.678,-7921.997,-21025.025,14624.39
1223556.8401965215,-56188.887,-66639.734,-20558.432,-18693.115,-21470.623,-7930.1353,-21032.879,14626.506
1223556.8441965168,-56191.773,-66654.586,-20568.115,-18696.533,-21482.91,-7939.9414,-21043.254,14630.534
1223556.8481965119,-56189.58,-66658.57,-20569.377,-18694.58,-21479.736,-7938.3955,-21043.865,14630.981
1223556.8521965072,-56192.18,-66654.79,-20562.135,-18692.098,-21467.246,-7926.2695,-21032.797,14629.639
1223556.8561965022,-56203.37,-66652.18,-20560.588,-18693.441,-21460.857,-7921.1836,-21028.646,14615.356
1223556.8601964973,-56202.19,-66653.73,-20562.867,-18696.004,-21469.158,-7930.583,-21039.062,14613.241
1223556.8641964926,-56194.703,-66659.14,-20568.4,-18697.389,-21478.516,-7939.128,-21047.445,14620.077
1223556.8681964877,-56181.805,-66657.72,-20565.553,-18695.15,-21474.082,-7935.954,-21045.574,14620.646
1223556.8721964827,-56181.316,-66654.664,-20557.617,-18692.383,-21464.275,-7925.9443,-21038.697,14609.538
1223556.876196478,-56193.36,-66655.97,-20555.46,-18693.807,-21464.723,-7920.736,-21034.832,14602.295
1223556.880196473,-56200.035,-66658.81,-20560.182,-18697.062,-21475.342,-7927.6533,-21040.486,14611.125
1223556.8841964684,-56195.56,-66663.17,-20566.691,-18698.08,-21484.375,-7939.575,-21051.066,14615.194
1223556.8881964635,-56188.03,-66663.66,-20567.709,-18694.744,-21480.43,-7940.023,-21052.49,14616.781
1223556.8921964585,-56186.77,-66654.016,-20560.182,-18690.023,-21466.025,-7929.8506,-21042.684,14617.636
1223556.8961964538,-56193.523,-66649.87,-20555.787,-18689.168,-21460.002,-7925.7,-21038.045,14611.044
1223556.900196449,-56196.453,-66654.22,-20561.402,-18693.074,-21468.67,-7935.14,-21045.695,14617.27
1223556.904196444,-56190.676,-66658.45,-20566.447,-18693.28,-21478.11,-7944.377,-21054.525,14627.971
1223556.9081964393,-56187.38,-66662.516,-20566.488,-18690.553,-21475.912,-7941.2437,-21052.246,14632.406
1223556.9121964343,-56194.336,-66663.9,-20558.96,-18689.617,-21468.67,-7929.7285,-21043.133,14627.523
1223556.9161964296,-56208.17,-66665.94,-20556.275,-18690.877,-21468.873,-7925.659,-21040.121,14622.844
1223556.9201964247,-56214.438,-66672.53,-20566.041,-18695.965,-21479.9,-7935.7505,-21048.38,14626.262
1223556.9241964198,-56213.79,-66680.75,-20575.115,-18699.586,-21490.967,-7946.7773,-21058.96,14632.324
1223556.928196415,-56201.457,-66674.93,-20572.062,-18696.941,-21485.596,-7944.1733,-21056.805,14634.237
1223556.9321964101,-56195.723,-66665.08,-20561.688,-18692.709,-21470.908,-7930.949,-21043.945,14631.47
1223556.9361964052,-56204.59,-66667.24,-20558.797,-18693.807,-21466.92,-7925.9033,-21038.412,14628.012
1223556.9401964005,-56210.695,-66676.555,-20561.727,-18695.883,-21475.383,-7931.926,-21045.777,14626.872
1223556.9441963956,-56204.31,-66678.75,-20565.064,-18696.248,-21485.027,-7940.918,-21060.71,14623.332
1223556.9481963906,-56191.773,-66671.836,-20566.203,-18694.256,-21482.79,-7940.9995,-21063.355,14620.077
1223556.952196386,-56190.637,-66666.67,-20560.994,-18693.807,-21472.861,-7932.9834,-21058.514,14605.632
1223556.956196381,-56200.727,-66663.125,-20558.758,-18694.418,-21471.191,-7930.583,-21058.838,14591.635
1223556.9601963763,-56203.98,-66663.29,-20561.768,-18695.516,-21478.027,-7935.669,-21063.72,14598.755
1223556.9641963714,-56197.43,-66666.51,-20567.262,-18695.842,-21485.922,-7944.133,-21068.807,14613.078
1223556.9681963664,-56190.797,-66663.62,-20566.406,-18693.197,-21480.55,-7941.1216,-21065.227,14614.258
1223556.9721963617,-56194.01,-66656.375,-20562.012,-18690.797,-21468.588,-7928.833,-21053.02,14606.812
1223556.9761963568,-56209.19,-66656.25,-20562.379,-18692.098,-21466.35,-7922.3228,-21044.271,14605.713
1223556.980196352,-56226.848,-66673.83,-20570.598,-18698.69,-21480.55,-7931.356,-21049.357,14612.834
1223556.9841963472,-56212.402,-66678.305,-20571.492,-18701.01,-21491.578,-7941.854,-21059.855,14616.984
1223556.9881963423,-56184.207,-66665.9,-20563.436,-18696.98,-21484.783,-7940.023,-21056.479,14625.122
1223556.9921963376,-56183.555,-66656.05,-20554.646,-18693.035,-21469.402,-7925.456,-21039.186,14632.69
1223556.9961963326,-56198.285,-66656.13,-20553.914,-18694.092,-21464.844,-7919.271,-21029.867,14638.266
1223557.0001963277,-56214.64,-66668.74,-20563.803,-18695.924,-21474.121,-7928.2227,-21036.297,14645.549
1223557.004196323,-56203.9,-66672.65,-20568.604,-18695.76,-21481.812,-7940.4297,-21048.463,14652.019
1223557.008196318,-56186.77,-66666.14,-20565.064,-18694.092,-21479.86,-7941.162,-21053.63,14645.508
1223557.0121963131,-56197.918,-66665.77,-20562.988,-18694.459,-21472.25,-7929.8506,-21047.078,14632.854
1223557.0161963084,-56220.176,-66672.61,-20563.68,-18696.492,-21472.088,-7924.6826,-21043.172,14625.204
1223557.0201963035,-56222.414,-66676.72,-20565.268,-18697.348,-21480.754,-7935.466,-21053.387,14629.028
1223557.0241962986,-56201.54,-66672.33,-20567.22,-18697.754,-21487.225,-7946.2485,-21064.047,14637.573
1223557.0281962939,-56188.805,-66667.805,-20561.97,-18692.303,-21479.127,-7938.5986,-21059.49,14637.655
1223557.032196289,-56190.35,-66654.7,-20552.002,-18686.564,-21461.143,-7925.985,-21049.887,14634.929
1223557.0361962842,-56194.95,-66651.0,-20549.316,-18686.605,-21456.219,-7921.5903,-21047.242,14630.046
1223557.0401962793,-56201.5,-66659.38,-20555.99,-18690.35,-21467.57,-7931.6816,-21057.658,14630.127
1223557.0441962744,-56198.242,-66669.195,-20560.873,-18692.22,-21480.145,-7941.325,-21067.465,14636.841
1223557.0481962697,-56188.113,-66669.48,-20559.773,-18688.803,-21479.127,-7939.901,-21066.041,14640.259
1223557.0521962647,-56186.32,-66663.45,-20552.328,-18682.902,-21465.008,-7927.49,-21054.607,14631.348
1223557.0561962598,-56193.08,-66654.42,-20548.992,-18682.129,-21456.625,-7923.259,-21053.02,14616.293
1223557.060196255,-56205.203,-66663.29,-20556.438,-18685.629,-21466.146,-7931.478,-21058.105,14622.478
1223557.0641962502,-56213.137,-66678.43,-20567.465,-18689.453,-21477.744,-7940.267,-21066.244,14626.628
1223557.0681962455,-56204.387,-66677.57,-20566.365,-18688.191,-21474.773,-7940.6333,-21066.162,14624.187
1223557.0721962405,-56198.57,-66666.305,-20558.35,-18683.635,-21462.81,-7931.112,-21057.781,14614.502
1223557.0761962356,-56211.223,-66664.1,-20556.152,-18685.67,-21459.758,-7926.3916,-21054.932,14607.26
1223557.080196231,-56225.547,-66677.125,-20562.785,-18689.453,-21469.97,-7933.1055,-21057.373,14625.204
1223557.084196226,-56216.35,-66683.02,-20562.988,-18689.453,-21477.05,-7941.976,-21062.785,14642.334
1223557.088196221,-56196.453,-66667.766,-20557.414,-18685.059,-21466.758,-7943.197,-21062.826,14648.4375
1223557.0921962163,-56187.094,-66650.88,-20547.648,-18681.355,-21451.783,-7933.2686,-21053.467,14647.177
1223557.0961962114,-56206.668,-66655.93,-20549.236,-18685.262,-21453.98,-7929.3213,-21050.496,14642.212
1223557.1001962067,-56222.168,-66669.07,-20557.781,-18690.064,-21468.506,-7939.2905,-21063.152,14641.806
1223557.1041962018,-56214.03,-66677.66,-20562.012,-18690.715,-21479.736,-7946.6553,-21071.98,14650.595
1223557.1081961968,-56200.24,-66677.82,-20560.506,-18689.168,-21479.29,-7945.394,-21070.11,14654.501
1223557.1121961921,-56196.94,-66669.4,-20551.799,-18686.564,-21464.885,-7935.7505,-21061.32,14650.839
1223557.1161961872,-56204.023,-66665.08,-20543.621,-18682.496,-21456.787,-7925.7407,-21053.02,14647.014
1223557.1201961823,-56211.836,-66673.26,-20548.787,-18684.693,-21464.438,-7934.4893,-21058.96,14652.141
1223557.1241961776,-56207.766,-66678.23,-20555.908,-18687.908,-21474.244,-7947.9575,-21073.283,14658.8545
1223557.1281961726,-56198.73,-66673.83,-20554.402,-18684.164,-21469.768,-7945.964,-21073.975,14655.925
1223557.1321961677,-56201.336,-66668.336,-20546.346,-18681.152,-21458.293,-7935.7505,-21065.918,14642.66
1223557.136196163,-56211.508,-66669.48,-20541.748,-18681.52,-21458.293,-7931.3965,-21062.988,14635.986
1223557.140196158,-56218.344,-66678.63,-20544.922,-18686.89,-21471.64,-7938.884,-21069.54,14640.341
1223557.1441961534,-56216.188,-66689.54,-20552.45,-18690.674,-21479.127,-7947.4287,-21074.057,14649.618
1223557.1481961485,-56209.15,-66688.195,-20552.816,-18688.314,-21474.041,-7945.1094,-21071.736,14656.494
1223557.1521961435,-56205.406,-66676.19,-20542.074,-18682.576,-21456.951,-7935.3843,-21062.094,14654.663
1223557.1561961388,-56209.473,-66669.96,-20535.156,-18679.484,-21447.795,-7930.013,-21057.21,14652.873
1223557.160196134,-56218.305,-66676.48,-20542.48,-18683.432,-21458.496,-7939.2905,-21065.145,14657.39
1223557.164196129,-56211.914,-66683.63,-20548.992,-18684.082,-21467.45,-7949.707,-21075.115,14664.673
1223557.1681961243,-56198.45,-66675.13,-20546.59,-18679.322,-21461.834,-7949.382,-21077.88,14654.094
1223557.1721961193,-56197.105,-66668.26,-20537.68,-18675.213,-21448.283,-7937.8257,-21069.295,14639.853
1223557.1761961146,-56206.992,-66667.03,-20534.1,-18675.416,-21444.256,-7932.007,-21061.89,14637.411
1223557.1801961097,-56212.04,-66674.03,-20539.307,-18678.875,-21455.12,-7939.575,-21068.686,14643.84
1223557.1841961048,-56209.15,-66684.086,-20548.422,-18680.502,-21465.088,-7947.754,-21077.027,14652.67
1223557.1881961,-56198.895,-66681.97,-20549.275,-18678.467,-21462.078,-7946.8184,-21070.924,14660.686
1223557.1921960951,-56193.24,-66671.63,-20539.51,-18673.992,-21446.29,-7933.3496,-21055.34,14658.977
1223557.1961960902,-56206.953,-66672.125,-20537.477,-18676.434,-21441.041,-7927.0835,-21047.771,14660.441
1223557.2001960855,-56210.41,-66677.01,-20545.29,-18683.553,-21452.76,-7937.5815,-21054.322,14669.963
1223557.2041960806,-56197.266,-66680.46,-20549.48,-18685.547,-21468.14,-7949.1377,-21064.209,14676.352
1223557.2081960756,-56185.793,-66678.59,-20546.143,-18682.332,-21466.105,-7947.551,-21065.309,14678.915
1223557.212196071,-56188.03,-66671.19,-20538.494,-18680.584,-21453.29,-7937.0117,-21057.861,14667.399
1223557.216196066,-56198.0,-66668.22,-20535.523,-18680.99,-21449.016,-7932.5767,-21054.607,14657.227
1223557.2201960613,-56199.098,-66675.09,-20538.9,-18682.861,-21455.893,-7940.837,-21064.494,14661.296
1223557.2241960564,-56190.797,-66679.0,-20543.377,-18681.682,-21461.59,-7948.6494,-21070.191,14669.149
1223557.2281960514,-56179.85,-66676.31,-20540.73,-18679.77,-21454.63,-7945.7603,-21072.021,14664.836
1223557.2321960467,-56182.54,-66673.34,-20532.918,-18676.066,-21442.018,-7934.774,-21060.506,14655.518
1223557.2361960418,-56189.535,-66667.73,-20528.361,-18674.52,-21439.576,-7930.461,-21061.361,14644.9795
1223557.2401960369,-56192.996,-66672.0,-20532.715,-18677.246,-21449.871,-7939.1685,-21070.639,14649.862
1223557.2441960322,-56194.543,-66684.0,-20543.092,-18680.299,-21462.037,-7949.26,-21078.613,14654.948
1223557.2481960272,-56195.234,-66690.63,-20544.637,-18682.088,-21463.664,-7947.4287,-21074.26,14661.662
1223557.2521960225,-56178.02,-66674.28,-20529.867,-18676.107,-21450.115,-7933.9194,-21060.303,14661.296
1223557.2561960176,-56172.65,-66656.91,-20522.014,-18672.566,-21439.738,-7926.7173,-21052.938,14658.773
1223557.2601960127,-56181.926,-66664.266,-20530.355,-18677.734,-21449.383,-7936.4424,-21064.535,14660.034
1223557.264196008,-56184.57,-66675.17,-20542.44,-18681.355,-21461.467,-7946.9404,-21078.451,14662.272
1223557.268196003,-56178.836,-66672.69,-20547.771,-18678.387,-21454.754,-7947.9575,-21082.031,14651.205
1223557.272195998,-56189.293,-66671.59,-20544.598,-18674.887,-21441.65,-7937.9883,-21073.08,14643.799
1223557.2761959934,-56203.29,-66676.59,-20538.738,-18675.375,-21440.594,-7931.722,-21064.494,14644.043
1223557.2801959885,-56206.016,-66686.08,-20543.416,-18680.502,-21455.201,-7940.6333,-21073.242,14650.024
1223557.2841959835,-56190.35,-66684.57,-20548.828,-18681.682,-21464.152,-7952.108,-21086.467,14655.233
1223557.2881959789,-56180.258,-66678.63,-20547.201,-18679.525,-21457.56,-7949.3003,-21081.787,14662.639
1223557.292195974,-56187.176,-66676.27,-20540.162,-18676.31,-21445.557,-7936.361,-21067.586,14663.615
1223557.2961959692,-56199.383,-66678.266,-20536.092,-18677.857,-21444.133,-7930.949,-21067.709,14653.239
1223557.3001959643,-56202.434,-66682.414,-20540.04,-18679.688,-21448.121,-7939.006,-21078.572,14654.053
1223557.3041959594,-56195.438,-66687.42,-20550.172,-18679.89,-21454.428,-7949.463,-21091.229,14658.041
1223557.3081959547,-56194.543,-66692.016,-20554.281,-18678.426,-21451.865,-7948.8525,-21090.252,14663.818
1223557.3121959497,-56193.81,-66684.82,-20544.312,-18675.213,-21443.441,-7936.605,-21078.572,14665.365
1223557.3161959448,-56196.414,-66681.805,-20535.197,-18675.172,-21440.268,-7930.6235,-21070.516,14666.179
1223557.32019594,-56205.285,-66693.85,-20539.47,-18678.752,-21455.363,-7937.4595,-21074.992,14671.916
1223557.3241959352,-56206.504,-66706.71,-20546.875,-18681.967,-21465.82,-7945.028,-21080.201,14680.217
1223557.3281959305,-56198.49,-66706.22,-20547.04,-18680.664,-21459.799,-7942.2607,-21077.516,14683.472
1223557.3321959255,-56194.215,-66695.84,-20537.924,-18675.62,-21444.174,-7930.542,-21069.5,14678.061
1223557.3361959206,-56197.473,-66690.35,-20533.611,-18672.852,-21438.926,-7926.473,-21067.22,14667.929
1223557.340195916,-56200.81,-66697.836,-20537.965,-18673.299,-21447.389,-7935.547,-21074.057,14673.828
1223557.344195911,-56199.914,-66711.06,-20547.078,-18675.008,-21462.77,-7945.0684,-21085.37,14677.45
1223557.348195906,-56194.38,-66710.734,-20544.88,-18672.607,-21465.332,-7942.383,-21086.71,14669.556
1223557.3521959013,-56194.906,-66703.86,-20534.953,-18668.865,-21451.416,-7929.199,-21074.627,14661.011
1223557.3561958964,-56204.957,-66702.234,-20530.07,-18668.172,-21443.32,-7921.224,-21066.041,14656.21
1223557.3601958917,-56210.45,-66703.984,-20533.488,-18670.898,-21449.545,-7930.786,-21074.463,14657.634
1223557.3641958868,-56203.86,-66708.664,-20541.016,-18672.04,-21458.984,-7942.749,-21086.06,14664.267
1223557.3681958818,-56194.99,-66710.25,-20543.377,-18671.428,-21454.102,-7940.959,-21085.734,14664.185
1223557.3721958771,-56198.164,-66704.47,-20537.191,-18668.172,-21438.762,-7928.711,-21073.527,14662.802
1223557.3761958722,-56208.215,-66699.67,-20532.594,-18666.424,-21433.799,-7923.34,-21064.941,14666.138
1223557.3801958673,-56215.17,-66706.87,-20539.592,-18669.434,-21443.809,-7934.082,-21071.004,14674.602
1223557.3841958626,-56211.754,-66716.59,-20547.771,-18672.486,-21454.834,-7946.981,-21083.822,14677.084
1223557.3881958576,-56204.67,-66717.9,-20545.41,-18668.295,-21451.05,-7943.1562,-21080.078,14679.281
1223557.3921958527,-56204.31,-66711.67,-20537.557,-18665.08,-21439.78,-7929.24,-21068.807,14673.625
1223557.396195848,-56212.2,-66705.61,-20534.303,-18664.145,-21435.223,-7923.055,-21062.703,14670.37
1223557.400195843,-56218.832,-66710.05,-20539.062,-18667.36,-21444.174,-7930.461,-21066.326,14682.292
1223557.4041958384,-56214.152,-66717.9,-20543.172,-18670.574,-21454.713,-7939.7383,-21073.486,14696.086
1223557.4081958334,-56200.848,-66713.79,-20537.395,-18668.172,-21449.748,-7936.4424,-21073.201,14696.94
1223557.4121958285,-56196.37,-66706.87,-20526.979,-18664.186,-21436.2,-7924.8457,-21069.783,14692.017
1223557.4161958238,-56200.562,-66701.74,-20522.34,-18664.186,-21428.06,-7920.41,-21065.838,14680.868
1223557.4201958189,-56208.863,-66706.016,-20530.803,-18668.457,-21438.682,-7930.8677,-21074.219,14684.204
1223557.424195814,-56207.36,-66710.33,-20538.494,-18666.83,-21443.645,-7939.128,-21082.723,14689.575
1223557.4281958092,-56195.52,-66707.73,-20539.104,-18661.459,-21440.35,-7937.378,-21083.252,14687.744
1223557.4321958043,-56195.152,-66702.516,-20532.715,-18658.732,-21427.654,-7926.5137,-21073.365,14679.525
1223557.4361957996,-56203.656,-66699.47,-20528.443,-18658.773,-21426.025,-7920.0034,-21067.75,14672.16
1223557.4401957947,-56206.34,-66703.66,-20532.39,-18662.842,-21438.273,-7929.6875,-21075.398,14673.218
1223557.4441957898,-56195.926,-66708.664,-20535.441,-18664.062,-21448.854,-7938.4766,-21082.805,14680.095
1223557.448195785,-56182.78,-66707.07,-20528.402,-18660.604,-21444.174,-7934.0415,-21071.615,14690.756
1223557.4521957801,-56183.676,-66702.96,-20521.893,-18659.424,-21432.414,-7922.4043,-21060.71,14682.129
1223557.4561957752,-56195.234,-66701.625,-20520.752,-18660.441,-21430.217,-7916.626,-21060.547,14676.84
1223557.4601957705,-56200.89,-66704.1,-20525.555,-18663.209,-21432.334,-7923.0146,-21067.465,14687.663
1223557.4641957656,-56191.45,-66708.13,-20530.682,-18662.191,-21440.39,-7931.6816,-21069.54,14701.132
1223557.4681957606,-56186.2,-66708.945,-20531.82,-18661.215,-21437.826,-7930.461,-21066.53,14696.777
1223557.472195756,-56189.453,-66701.54,-20524.049,-18658.53,-21426.23,-7918.1724,-21057.332,14688.762
1223557.476195751,-56191.977,-66689.29,-20516.316,-18654.46,-21420.166,-7913.656,-21051.799,14686.483
1223557.4801957463,-56197.39,-66696.125,-20520.672,-18657.105,-21430.95,-7922.0786,-21057.902,14697.104
1223557.4841957414,-56199.18,-66707.93,-20529.826,-18660.156,-21444.947,-7930.0947,-21065.553,14702.719
1223557.4881957364,-56197.43,-66711.1,-20530.803,-18657.879,-21444.053,-7926.799,-21063.68,14704.875
1223557.4921957317,-56193.89,-66698.77,-20519.451,-18651.57,-21427.695,-7913.615,-21048.666,14705.526
1223557.4961957268,-56193.2,-66684.086,-20511.11,-18649.902,-21419.76,-7908.366,-21041.707,14704.794
1223557.5001957219,-56199.992,-66694.54,-20515.016,-18653.605,-21429.81,-7917.5215,-21049.275,14715.698
1223557.5041957172,-56188.4,-66697.39,-20519.166,-18655.762,-21439.209,-7928.9146,-21061.605,14719.279
1223557.5081957122,-56171.633,-66686.85,-20515.057,-18652.182,-21430.95,-7927.409,-21060.1,14726.156
1223557.5121957075,-56180.664,-66688.84,-20510.01,-18651.408,-21420.29,-7917.2363,-21050.66,14725.79
1223557.5161957026,-56191.53,-66690.555,-20507.162,-18650.594,-21415.65,-7912.069,-21046.184,14724.121
1223557.5201956977,-56187.707,-66690.63,-20512.492,-18652.547,-21421.592,-7920.614,-21052.898,14727.946
1223557.524195693,-56183.105,-66698.28,-20523.438,-18656.78,-21430.787,-7931.0713,-21062.135,14735.881
1223557.528195688,-56172.895,-66698.08,-20521.525,-18655.396,-21428.916,-7930.542,-21062.459,14736.654
1223557.532195683,-56167.24,-66684.61,-20511.475,-18648.967,-21415.527,-7918.1724,-21053.305,14729.167
1223557.5361956784,-56179.484,-66683.23,-20508.22,-18647.787,-21408.488,-7912.6387,-21050.457,14722.9
1223557.5401956735,-56185.754,-66688.68,-20513.387,-18648.56,-21417.441,-7925.0083,-21062.623,14717.082
1223557.5441956688,-56179.61,-66686.16,-20520.02,-18648.072,-21426.27,-7936.6455,-21075.684,14714.396
1223557.5481956638,-56177.043,-66690.19,-20519.857,-18645.793,-21424.44,-7933.0244,-21073.812,14711.752
1223557.552195659,-56170.086,-66681.56,-20507.447,-18642.254,-21411.906,-7918.8643,-21059.205,14712.973
1223557.5561956542,-56171.715,-66672.125,-20499.553,-18641.602,-21406.576,-7912.842,-21051.758,14712.729
1223557.5601956493,-56180.34,-66676.76,-20504.72,-18644.857,-21417.686,-7921.55,-21058.879,14717.041
1223557.5641956443,-56173.79,-66678.63,-20511.598,-18647.055,-21428.467,-7931.5186,-21071.656,14719.482
1223557.5681956396,-56165.246,-66679.73,-20510.986,-18647.34,-21428.916,-7928.0195,-21072.021,14719.035
1223557.5721956347,-56169.273,-66675.945,-20503.988,-18644.898,-21417.604,-7914.714,-21060.059,14711.955
1223557.5761956298,-56174.36,-66669.27,-20498.21,-18642.66,-21409.588,-7909.3833,-21053.346,14711.589
1223557.580195625,-56177.574,-66674.64,-20501.994,-18645.508,-21419.639,-7919.6777,-21058.635,14726.807
1223557.5841956201,-56176.637,-66685.23,-20512.166,-18648.396,-21430.746,-7929.24,-21064.941,14735.2705
1223557.5881956154,-56179.65,-66695.516,-20515.828,-18647.543,-21428.264,-7926.1475,-21060.832,14732.544
1223557.5921956105,-56183.8,-66695.4,-20510.621,-18644.166,-21417.033,-7914.5103,-21048.26,14727.987
1223557.5961956056,-56189.047,-66691.24,-20507.65,-18644.043,-21411.297,-7912.2314,-21043.05,14729.98
1223557.600195601,-56197.023,-66696.45,-20515.828,-18648.072,-21419.922,-7923.6655,-21050.66,14739.34
1223557.604195596,-56201.336,-66703.33,-20522.258,-18647.787,-21427.37,-7933.187,-21055.014,14755.371
1223557.608195591,-56189.13,-66698.37,-20518.88,-18645.428,-21424.602,-7930.461,-21050.984,14763.144
1223557.6121955863,-56184.125,-66687.664,-20509.4,-18642.01,-21409.953,-7917.9688,-21038.86,14760.986
1223557.6161955814,-56185.957,-66681.805,-20505.127,-18640.422,-21404.867,-7912.7607,-21036.336,14748.983
1223557.6201955767,-56190.188,-66686.61,-20508.953,-18642.781,-21417.074,-7920.207,-21047.12,14750.651
1223557.6241955718,-56186.973,-66691.98,-20513.062,-18644.49,-21426.637,-7928.3447,-21054.607,14761.516
1223557.6281955668,-56175.824,-66689.58,-20511.922,-18643.27,-21422.812,-7927.6533,-21054.932,14761.435
1223557.6321955621,-56166.06,-66674.97,-20503.012,-18637.98,-21405.314,-7914.9985,-21041.504,14760.661
1223557.6361955572,-56173.79,-66669.35,-20501.14,-18637.29,-21398.154,-7907.878,-21035.848,14757.406
1223557.6401955523,-56183.434,-66675.336,-20510.377,-18641.643,-21409.506,-7916.545,-21042.848,14763.266
1223557.6441955476,-56180.3,-66684.0,-20515.178,-18641.805,-21420.33,-7927.002,-21052.002,14773.682
1223557.6481955426,-56172.527,-66687.83,-20512.045,-18640.79,-21419.354,-7925.578,-21049.887,14775.92
1223557.6521955377,-56169.19,-66680.95,-20503.377,-18638.592,-21408.691,-7912.842,-21036.744,14776.774
1223557.656195533,-56176.23,-66675.58,-20497.885,-18637.654,-21402.914,-7907.878,-21032.674,14773.315
1223557.660195528,-56182.54,-66679.2,-20503.744,-18642.701,-21415.568,-7918.579,-21045.086,14763.55
1223557.6641955234,-56180.46,-66687.055,-20511.027,-18645.672,-21426.025,-7928.833,-21055.787,14762.492
1223557.6681955184,-56169.152,-66683.02,-20508.098,-18644.043,-21420.451,-7926.473,-21055.623,14759.237
1223557.6721955135,-56154.34,-66663.695,-20496.541,-18639.404,-21403.932,-7914.144,-21044.148,14754.68
1223557.6761955088,-56163.21,-66665.125,-20495.402,-18639.324,-21402.344,-7908.0405,-21036.662,14745.972
1223557.6801955039,-56184.53,-66684.25,-20507.324,-18645.916,-21416.992,-7915.8936,-21044.434,14740.927
1223557.684195499,-56184.45,-66693.08,-20516.033,-18649.334,-21427.613,-7927.368,-21057.82,14740.275
1223557.6881954942,-56172.61,-66685.55,-20514.363,-18644.328,-21420.41,-7925.659,-21056.152,14746.623
1223557.6921954893,-56169.027,-66675.945,-20505.25,-18637.86,-21406.17,-7911.7026,-21046.387,14739.014
1223557.6961954846,-56180.504,-66677.086,-20499.105,-18637.898,-21402.873,-7907.064,-21042.684,14739.299
1223557.7001954797,-56178.957,-66679.89,-20499.105,-18638.592,-21412.191,-7918.1724,-21052.49,14747.966
1223557.7041954747,-56176.19,-66687.055,-20506.877,-18641.969,-21423.057,-7930.0947,-21062.135,14753.581
1223557.70819547,-56173.87,-66689.13,-20509.033,-18640.178,-21419.8,-7926.921,-21057.617,14762.167
1223557.712195465,-56171.633,-66683.02,-20501.18,-18638.998,-21409.424,-7916.9517,-21044.963,14765.585
1223557.7161954602,-56177.207,-66678.75,-20495.158,-18637.004,-21406.535,-7910.8887,-21037.842,14772.705
1223557.7201954555,-56183.96,-66691.86,-20502.809,-18639.242,-21416.912,-7919.4336,-21044.393,14782.227
1223557.7241954505,-56174.805,-66694.7,-20506.348,-18638.225,-21422.201,-7928.711,-21051.758,14796.387
1223557.7281954458,-56162.965,-66684.94,-20502.361,-18634.521,-21415.0,-7929.24,-21052.734,14794.76
1223557.732195441,-56160.24,-66674.28,-20492.473,-18628.947,-21399.008,-7918.498,-21044.19,14788.94
1223557.736195436,-56166.465,-66674.44,-20488.934,-18628.744,-21393.678,-7911.662,-21038.168,14784.912
1223557.7401954313,-56176.72,-66685.34,-20493.775,-18632.771,-21404.176,-7918.254,-21042.684,14791.301
1223557.7441954263,-56177.41,-66693.445,-20499.594,-18632.812,-21414.674,-7927.002,-21054.484,14788.29
1223557.7481954214,-56167.074,-66690.63,-20498.78,-18632.771,-21411.215,-7926.3105,-21061.361,14777.344
1223557.7521954167,-56161.83,-66681.4,-20495.688,-18628.785,-21399.049,-7915.731,-21058.39,14758.057
1223557.7561954118,-56169.76,-66677.01,-20492.96,-18626.18,-21393.719,-7910.3193,-21055.828,14745.239
1223557.7601954069,-56178.348,-66681.73,-20500.814,-18628.377,-21405.03,-7920.4917,-21064.006,14750.407
1223557.7641954022,-56180.098,-66691.66,-20506.877,-18629.436,-21414.348,-7929.6875,-21071.209,14757.406
1223557.7681953972,-56175.336,-66699.95,-20500.244,-18627.645,-21411.582,-7927.5312,-21065.715,14759.033
1223557.7721953925,-56164.227,-66689.45,-20486.816,-18620.484,-21395.834,-7914.3066,-21051.799,14754.477
1223557.7761953876,-56169.883,-66684.25,-20480.672,-18618.084,-21388.633,-7908.4883,-21046.387,14752.157
1223557.7801953827,-56172.61,-66688.27,-20485.922,-18619.14,-21395.508,-7916.9517,-21053.914,14762.655
1223557.784195378,-56165.12,-66694.375,-20492.432,-18619.71,-21401.408,-7925.7812,-21062.867,14771.566
1223557.788195373,-56154.992,-66691.53,-20491.21,-18617.473,-21398.56,-7924.1943,-21062.135,14770.427
1223557.792195368,-56159.63,-66687.54,-20487.508,-18617.025,-21389.201,-7913.371,-21050.945,14763.225
1223557.7961953634,-56165.406,-66680.26,-20484.783,-18617.39,-21384.645,-7907.7964,-21045.166,14763.144
1223557.8001953585,-56170.13,-66685.266,-20487.305,-18619.02,-21394.043,-7914.673,-21049.643,14770.956
1223557.8041953538,-56171.55,-66697.1,-20492.229,-18623.17,-21406.332,-7923.991,-21058.553,14776.855
1223557.8081953488,-56163.535,-66702.11,-20491.008,-18623.414,-21407.432,-7924.3164,-21058.105,14782.064
1223557.812195344,-56165.082,-66702.96,-20484.416,-18620.525,-21396.77,-7912.313,-21043.416,14783.325
1223557.8161953392,-56171.957,-66691.94,-20482.79,-18618.367,-21388.633,-7905.721,-21038.25,14777.06
1223557.8201953343,-56179.08,-66694.09,-20491.008,-18620.646,-21394.98,-7914.0625,-21045.98,14779.826
1223557.8241953293,-56180.016,-66702.84,-20498.617,-18622.07,-21403.85,-7923.1367,-21051.88,14783.773
1223557.8281953246,-56173.22,-66703.01,-20496.95,-18620.564,-21403.646,-7921.1836,-21048.748,14786.499
1223557.8321953197,-56165.938,-66692.34,-20486.531,-18617.676,-21392.375,-7909.587,-21039.389,14779.053
1223557.8361953148,-56172.0,-66688.11,-20482.26,-18618.45,-21390.463,-7904.5005,-21033.773,14773.886
1223557.84019531,-56180.992,-66699.38,-20491.008,-18625.488,-21403.037,-7914.714,-21041.098,14780.722
1223557.8441953051,-56182.617,-66714.97,-20497.273,-18628.906,-21415.527,-7924.0723,-21050.537,14789.551
1223557.8481953004,-56170.777,-66713.42,-20494.426,-18625.977,-21411.621,-7923.1772,-21052.37,14789.389
1223557.8521952955,-56163.293,-66698.08,-20485.107,-18620.484,-21396.404,-7911.255,-21043.865,14780.111
1223557.8561952906,-56177.9,-66698.85,-20482.342,-18620.605,-21391.684,-7904.338,-21039.186,14775.432
1223557.8601952859,-56187.625,-66709.15,-20487.916,-18623.617,-21401.043,-7914.8765,-21047.934,14780.314
1223557.864195281,-56173.953,-66709.15,-20490.193,-18622.926,-21406.82,-7926.921,-21059.814,14788.127
1223557.868195276,-56160.973,-66703.125,-20486.736,-18618.043,-21401.408,-7926.1475,-21062.379,14784.262
1223557.8721952713,-56156.047,-66697.266,-20476.562,-18613.648,-21388.389,-7912.4756,-21052.084,14775.473
1223557.8761952664,-56167.2,-66696.414,-20474.406,-18613.607,-21385.215,-7905.925,-21044.719,14778.158
1223557.8801952617,-56174.195,-66699.99,-20484.254,-18617.514,-21396.16,-7916.0156,-21052.613,14779.867
1223557.8841952567,-56168.05,-66704.914,-20490.682,-18618.002,-21404.176,-7926.473,-21060.018,14775.879
1223557.8881952518,-56161.176,-66704.96,-20490.072,-18615.682,-21399.537,-7923.055,-21052.37,14775.676
1223557.892195247,-56160.363,-66699.18,-20482.422,-18613.16,-21385.254,-7908.773,-21038.25,14775.513
1223557.8961952422,-56169.68,-66693.69,-20475.912,-18611.898,-21379.111,-7903.524,-21032.635,14771.892
1223557.9001952372,-56177.734,-66699.1,-20479.574,-18613.404,-21389.201,-7912.557,-21040.365,14782.756
1223557.9041952325,-56166.504,-66700.766,-20483.033,-18613.037,-21396.363,-7924.886,-21052.654,14789.795
1223557.9081952276,-56154.83,-66697.836,-20481.61,-18610.516,-21393.31,-7924.276,-21054.729,14793.01
1223557.912195223,-56158.0,-66692.67,-20474.812,-18606.242,-21380.982,-7910.5225,-21041.586,14791.423
1223557.916195218,-56169.152,-66691.66,-20470.418,-18605.998,-21377.523,-7904.5005,-21032.674,14792.969
1223557.920195213,-56172.16,-66693.766,-20473.268,-18608.725,-21387.412,-7913.9814,-21039.592,14798.056
1223557.9241952084,-56168.094,-66699.586,-20480.145,-18610.107,-21396.852,-7924.154,-21047.322,14809.53
1223557.9281952034,-56166.75,-66705.2,-20482.057,-18610.393,-21399.008,-7922.9736,-21046.998,14812.053
1223557.9321951985,-56166.87,-66698.125,-20473.553,-18606.69,-21385.783,-7910.482,-21039.389,14800.578
1223557.9361951938,-56170.82,-66691.57,-20468.344,-18604.168,-21378.541,-7905.3145,-21034.791,14794.841
1223557.9401951889,-56172.73,-66695.07,-20474.65,-18605.836,-21386.068,-7912.191,-21041.748,14797.812
1223557.944195184,-56173.79,-66704.63,-20483.887,-18608.113,-21394.736,-7921.753,-21053.346,14800.131
1223557.9481951792,-56170.29,-66710.086,-20484.172,-18608.195,-21393.596,-7918.5386,-21053.752,14795.776
1223557.9521951743,-56166.79,-66702.19,-20476.197,-18604.574,-21381.023,-7906.535,-21046.834,14781.006
1223557.9561951696,-56169.152,-66691.24,-20472.291,-18605.184,-21376.506,-7905.599,-21048.463,14772.136
1223557.9601951647,-56178.875,-66697.875,-20477.986,-18608.766,-21388.592,-7916.097,-21060.059,14775.595
1223557.9641951597,-56183.35,-66709.96,-20487.916,-18610.393,-21400.717,-7927.0835,-21073.04,14777.832
1223557.968195155,-56173.137,-66705.98,-20484.498,-18606.893,-21396.24,-7924.8047,-21071.656,14774.821
1223557.97219515,-56169.027,-66693.766,-20474.324,-18604.207,-21383.139,-7911.662,-21057.049,14772.99
1223557.9761951452,-56178.266,-66689.21,-20471.924,-18604.9,-21377.32,-7906.169,-21047.934,14773.52
1223557.9801951405,-56184.734,-66692.99,-20479.777,-18608.074,-21384.115,-7914.714,-21055.379,14778.198
1223557.9841951355,-56175.742,-66698.445,-20483.521,-18606.648,-21390.463,-7919.5557,-21059.53,14787.842
1223557.9881951308,-56163.78,-66697.266,-20482.87,-18605.348,-21386.719,-7917.806,-21055.99,14791.586
1223557.992195126,-56162.355,-66684.94,-20472.78,-18600.545,-21372.314,-7905.884,-21044.842,14782.471
1223557.996195121,-56166.914,-66679.24,-20467.041,-18598.389,-21366.863,-7900.676,-21037.842,14778.076
1223558.0001951163,-56175.99,-66688.07,-20473.023,-18601.93,-21380.494,-7909.709,-21044.557,14786.621
1223558.0041951113,-56176.84,-66700.93,-20478.436,-18604.574,-21390.342,-7919.8,-21051.066,14797.201
1223558.0081951064,-56163.293,-66699.586,-20475.424,-18602.703,-21388.713,-7919.8813,-21050.09,14803.915
1223558.0121951017,-56159.547,-66689.66,-20468.994,-18599.895,-21376.465,-7910.1562,-21041.871,14803.752
1223558.0161950968,-56168.867,-66684.41,-20465.74,-18600.75,-21371.826,-7905.3145,-21037.477,14800.497
1223558.0201950918,-56174.36,-66689.78,-20470.947,-18605.021,-21381.309,-7913.5337,-21044.11,14807.699
1223558.0241950871,-56170.41,-66698.33,-20475.465,-18604.412,-21390.26,-7924.6016,-21055.379,14815.308
1223558.0281950822,-56160.85,-66696.49,-20471.07,-18598.674,-21385.05,-7921.55,-21052.531,14821.615
1223558.0321950775,-56160.77,-66688.73,-20461.955,-18594.28,-21370.932,-7908.366,-21042.033,14813.681
1223558.0361950726,-56176.027,-66693.484,-20462.566,-18598.633,-21371.055,-7908.2847,-21043.824,14798.95
1223558.0401950676,-56178.062,-66696.45,-20468.506,-18603.271,-21382.732,-7919.7188,-21056.52,14796.184
1223558.044195063,-56171.145,-66702.03,-20474.162,-18603.557,-21392.172,-7929.5654,-21063.803,14800.375
1223558.048195058,-56162.316,-66700.6,-20472.982,-18600.871,-21385.662,-7926.921,-21065.186,14801.066
1223558.052195053,-56163.414,-66690.11,-20464.355,-18596.07,-21374.797,-7915.8125,-21056.152,14796.469
1223558.0561950484,-56168.38,-66686.28,-20460.205,-18593.22,-21368.857,-7910.6445,-21048.422,14802.206
1223558.0601950435,-56178.43,-66697.555,-20466.105,-18598.186,-21374.35,-7918.7827,-21052.531,14813.3545
1223558.0641950388,-56177.043,-66703.734,-20471.883,-18600.342,-21384.482,-7928.5483,-21059.814,14816.936
1223558.0681950338,-56169.477,-66706.18,-20472.088,-18599.0,-21383.545,-7925.8223,-21057.7,14814.453
1223558.072195029,-56171.348,-66704.06,-20466.473,-18597.412,-21375.611,-7915.5273,-21048.584,14804.403
1223558.0761950242,-56172.242,-66694.625,-20461.182,-18596.355,-21371.746,-7908.4473,-21044.434,14800.131
1223558.0801950193,-56176.8,-66698.9,-20467.367,-18600.83,-21383.83,-7914.714,-21047.12,14812.785
1223558.0841950143,-56177.41,-66712.57,-20475.912,-18605.021,-21395.508,-7925.293,-21055.34,14822.021
1223558.0881950096,-56167.81,-66713.7,-20476.766,-18604.086,-21393.352,-7924.3164,-21056.152,14820.72
1223558.0921950047,-56165.855,-66703.53,-20470.459,-18600.871,-21381.389,-7911.4585,-21044.027,14816.04
1223558.096195,-56179.242,-66703.29,-20469.646,-18601.197,-21380.738,-7905.3145,-21034.75,14814.982
1223558.100194995,-56187.707,-66711.19,-20473.959,-18602.459,-21382.244,-7914.9985,-21039.674,14822.51
1223558.1041949901,-56185.957,-66720.26,-20480.021,-18602.58,-21391.684,-7925.7407,-21047.12,14834.392
1223558.1081949854,-56176.68,-66720.13,-20477.092,-18601.033,-21392.295,-7922.4043,-21047.73,14833.984
1223558.1121949805,-56176.19,-66710.66,-20470.906,-18598.877,-21382.285,-7911.2144,-21039.021,14829.224
1223558.1161949756,-56183.027,-66703.94,-20468.914,-18597.9,-21374.797,-7907.878,-21035.32,14819.296
1223558.1201949709,-56186.32,-66710.164,-20474.812,-18600.586,-21380.291,-7917.4805,-21047.04,14809.489
1223558.124194966,-56190.39,-66722.86,-20483.44,-18604.695,-21395.02,-7927.124,-21066.61,14809.814
1223558.128194961,-56183.27,-66722.984,-20479.004,-18603.068,-21391.887,-7924.764,-21067.668,14805.868
1223558.1321949563,-56183.96,-66717.9,-20471.355,-18600.668,-21379.355,-7913.8594,-21056.072,14798.137
1223558.1361949514,-56194.5,-66714.32,-20469.523,-18600.139,-21376.832,-7909.2207,-21052.979,14791.545
1223558.1401949467,-56199.22,-66717.41,-20474.285,-18603.557,-21386.271,-7917.2363,-21057.17,14801.147
1223558.1441949417,-56188.07,-66719.36,-20474.773,-18602.01,-21392.904,-7924.764,-21057.049,14822.021
1223558.1481949368,-56173.465,-66716.88,-20472.006,-18598.268,-21388.998,-7921.3057,-21049.969,14825.888
1223558.152194932,-56170.82,-66705.484,-20464.682,-18594.035,-21373.943,-7908.4067,-21039.43,14819.906
1223558.1561949272,-56179.484,-66700.52,-20461.385,-18592.814,-21373.291,-7904.419,-21037.191,14816.122
1223558.1601949222,-56187.83,-66709.15,-20467.0,-18597.209,-21377.32,-7913.086,-21039.715,14827.148
1223558.1641949175,-56180.79,-66714.73,-20473.064,-18600.018,-21384.645,-7922.7705,-21047.201,14836.792
1223558.1681949126,-56171.31,-66714.73,-20472.127,-18597.982,-21384.766,-7919.5557,-21047.04,14840.942
1223558.172194908,-56171.43,-66710.53,-20464.031,-18595.053,-21368.979,-7907.9185,-21037.8,14839.519
1223558.176194903,-56175.418,-66704.914,-20456.787,-18593.426,-21360.148,-7902.2627,-21031.941,14838.298
1223558.180194898,-56180.098,-66710.82,-20460.328,-18596.639,-21371.543,-7910.8887,-21036.947,14839.274
1223558.1841948933,-56178.43,-66720.13,-20467.164,-18598.309,-21385.824,-7919.5967,-21045.613,14842.448
1223558.1881948884,-56170.332,-66720.7,-20468.1,-18596.15,-21383.506,-7918.254,-21045.613,14842.773
1223558.1921948835,-56168.01,-66716.15,-20458.66,-18590.332,-21367.352,-7906.9014,-21036.662,14837.646
1223558.1961948788,-56180.016,-66718.23,-20454.346,-18590.74,-21366.822,-7903.8086,-21033.162,14834.88
1223558.2001948738,-56186.89,-66729.05,-20462.281,-18594.117,-21380.127,-7914.4287,-21043.172,14833.09
1223558.204194869,-56180.055,-66734.414,-20467.732,-18594.32,-21388.877,-7923.6655,-21056.234,14837.81
1223558.2081948642,-56167.645,-66729.01,-20465.74,-18590.943,-21381.877,-7920.3696,-21053.996,14839.763
1223558.2121948593,-56172.773,-66721.84,-20459.96,-18589.152,-21368.652,-7906.2095,-21042.033,14832.438
1223558.2161948546,-56185.957,-66716.92,-20453.94,-18589.6,-21368.002,-7898.3564,-21039.145,14828.654
1223558.2201948497,-56195.234,-66722.54,-20463.623,-18593.832,-21379.844,-7910.1157,-21049.316,14835.612
1223558.2241948447,-56198.203,-66733.805,-20472.82,-18595.703,-21390.463,-7921.7124,-21058.758,14838.298
1223558.22819484,-56183.434,-66732.26,-20467.0,-18591.188,-21385.215,-7917.562,-21053.549,14841.635
1223558.232194835,-56171.145,-66720.664,-20454.143,-18585.613,-21372.723,-7904.948,-21039.998,14839.233
1223558.2361948302,-56178.062,-66721.07,-20452.596,-18586.67,-21368.734,-7899.9023,-21038.209,14833.903
1223558.2401948255,-56186.89,-66729.62,-20462.117,-18591.473,-21376.182,-7909.302,-21047.893,14835.571
1223558.2441948205,-56190.43,-66740.69,-20472.615,-18596.15,-21387.615,-7918.2944,-21059.246,14836.182
1223558.2481948158,-56185.754,-66745.16,-20471.436,-18594.158,-21387.94,-7913.656,-21053.793,14835.327
1223558.252194811,-56187.01,-66739.586,-20462.81,-18593.018,-21378.418,-7901.4893,-21042.562,14831.665
1223558.256194806,-56190.84,-66732.625,-20458.416,-18593.873,-21372.844,-7897.705,-21038.494,14829.794
1223558.2601948013,-56190.88,-66731.0,-20460.37,-18595.988,-21378.418,-7907.5522,-21046.754,14838.705
1223558.2641947963,-56182.13,-66735.68,-20464.234,-18595.459,-21384.441,-7917.1143,-21054.158,14847.331
1223558.2681947914,-56179.12,-66739.586,-20465.658,-18593.506,-21380.9,-7917.0737,-21056.355,14843.303
1223558.2721947867,-56181.36,-66735.92,-20459.31,-18588.543,-21368.775,-7906.6978,-21049.236,14831.177
1223558.2761947818,-56189.17,-66728.68,-20454.143,-18588.42,-21365.398,-7902.0186,-21039.998,14829.59
1223558.280194777,-56198.49,-66735.39,-20459.799,-18592.611,-21375.652,-7908.9355,-21043.05,14834.433
1223558.2841947721,-56202.11,-66754.16,-20470.094,-18594.564,-21385.947,-7918.376,-21060.223,14829.916
1223558.2881947672,-56190.555,-66748.3,-20471.314,-18591.96,-21380.209,-7919.8,-21067.586,14829.631
1223558.2921947625,-56178.508,-66729.21,-20459.148,-18584.84,-21363.934,-7907.593,-21055.95,14827.759
1223558.2961947576,-56197.55,-66734.17,-20456.502,-18585.49,-21363.81,-7900.1875,-21047.852,14830.811
1223558.3001947526,-56209.96,-66742.84,-20462.158,-18588.746,-21372.111,-7909.0986,-21050.984,14842.611
1223558.304194748,-56199.18,-66745.73,-20467.611,-18589.559,-21379.03,-7922.4043,-21060.467,14847.494
1223558.308194743,-56193.81,-66747.73,-20466.96,-18588.623,-21376.426,-7920.451,-21058.676,14848.755
1223558.312194738,-56193.44,-66735.68,-20456.422,-18584.148,-21363.934,-7909.2207,-21045.613,14846.924
1223558.3161947334,-56195.477,-66726.69,-20450.604,-18581.828,-21360.84,-7902.7915,-21037.273,14847.128
1223558.3201947284,-56204.266,-66736.734,-20457.928,-18584.025,-21372.803,-7909.465,-21043.58,14852.173
1223558.3241947237,-56199.63,-66742.64,-20463.746,-18584.676,-21381.268,-7920.085,-21056.926,14849.854
1223558.3281947188,-56189.863,-66744.75,-20459.473,-18582.846,-21376.914,-7918.579,-21055.258,14851.115
