timestamp,Fp1,Fp2,F3,Fz,F4,Cz,Pz,Oz
1223583.6641640225,-58040.652,-69899.74,-21057.984,-18109.986,-21562.744,-9031.454,-21640.666,16570.8
1223583.6681640178,-58046.47,-69902.75,-21063.885,-18110.027,-21571.777,-9039.633,-21645.834,16558.797
1223583.672164013,-58048.707,-69911.17,-21071.736,-18111.736,-21581.422,-9047.893,-21652.223,16550.09
1223583.676164008,-58043.215,-69909.836,-21071.86,-18110.31,-21581.219,-9044.189,-21643.678,16555.787
1223583.6801640033,-58044.883,-69905.07,-21067.262,-18110.637,-21570.191,-9034.546,-21626.832,16571.777
1223583.6841639983,-58049.523,-69902.59,-21063.6,-18111.004,-21570.598,-9030.803,-21616.904,16582.195
1223583.6881639936,-58049.4,-69902.18,-21067.627,-18112.06,-21578.41,-9037.231,-21627.238,16577.107
1223583.6921639887,-58044.72,-69902.43,-21070.312,-18111.98,-21580.566,-9042.236,-21632.244,16567.018
1223583.6961639838,-58040.45,-69898.93,-21070.639,-18111.531,-21574.383,-9040.446,-21630.535,16564.576
1223583.700163979,-58039.715,-69892.74,-21069.295,-18111.004,-21568.115,-9033.977,-21625.45,16567.018
1223583.7041639742,-58047.0,-69893.48,-21069.906,-18111.816,-21567.139,-9032.268,-21625.244,16573.201
1223583.7081639692,-58055.176,-69901.125,-21076.13,-18113.16,-21574.668,-9040.161,-21636.15,16561.523
1223583.7121639645,-58053.633,-69909.305,-21080.322,-18114.666,-21583.008,-9048.137,-21646.322,16555.584
1223583.7161639596,-58048.098,-69908.94,-21077.963,-18112.752,-21579.021,-9046.713,-21647.178,16552.613
1223583.7201639547,-58051.434,-69906.17,-21073.771,-18110.922,-21570.883,-9037.924,-21638.713,16561.402
1223583.72416395,-58057.05,-69901.82,-21072.877,-18110.107,-21565.105,-9033.569,-21634.074,16567.627
1223583.728163945,-58058.35,-69902.95,-21077.84,-18111.248,-21575.766,-9041.83,-21644.328,16557.373
1223583.7321639403,-58055.586,-69909.63,-21081.951,-18113.281,-21584.96,-9049.968,-21651.246,16552.205
1223583.7361639354,-58048.504,-69908.33,-21079.184,-18112.834,-21582.154,-9048.666,-21646.16,16556.56
1223583.7401639305,-58047.12,-69904.87,-21074.463,-18113.078,-21575.562,-9040.202,-21634.482,16576.498
1223583.7441639258,-58051.637,-69899.13,-21071.656,-18112.102,-21572.715,-9036.337,-21632.53,16577.312
1223583.7481639208,-58048.547,-69897.914,-21071.615,-18111.084,-21572.754,-9042.847,-21638.795,16571.574
1223583.752163916,-58044.11,-69901.62,-21075.154,-18110.678,-21572.266,-9050.578,-21643.963,16563.965
1223583.7561639112,-58040.652,-69900.96,-21073.365,-18107.504,-21567.303,-9045.573,-21635.336,16565.674
1223583.7601639063,-58049.36,-69906.91,-21072.266,-18109.66,-21566.855,-9038.086,-21629.803,16576.824
1223583.7641639016,-58061.934,-69916.586,-21073.162,-18114.055,-21572.592,-9038.615,-21630.656,16580.078
1223583.7681638966,-58067.547,-69923.586,-21075.36,-18114.705,-21582.113,-9045.451,-21637.98,16573.201
1223583.7721638917,-58056.03,-69916.47,-21077.637,-18112.59,-21585.816,-9052.856,-21644.328,16566.936
1223583.776163887,-58043.945,-69908.94,-21077.352,-18111.451,-21580.566,-9049.805,-21641.846,16570.842
1223583.780163882,-58048.668,-69907.266,-21076.54,-18113.648,-21577.922,-9041.545,-21632.488,16583.7
1223583.7841638771,-58066.938,-69913.86,-21079.102,-18116.13,-21580.975,-9038.127,-21627.238,16581.014
1223583.7881638724,-58071.535,-69920.695,-21081.299,-18115.682,-21584.514,-9044.434,-21634.93,16568.727
1223583.7921638675,-58067.305,-69922.0,-21085.775,-18116.74,-21591.473,-9052.084,-21641.113,16562.176
1223583.7961638626,-58066.977,-69924.52,-21086.793,-18116.74,-21588.908,-9051.758,-21637.656,16567.506
1223583.8001638579,-58078.332,-69929.57,-21085.084,-18118.611,-21581.38,-9045.288,-21631.633,16574.016
1223583.804163853,-58083.863,-69926.44,-21080.69,-18116.008,-21579.59,-9041.504,-21632.65,16573.975
1223583.8081638482,-58079.266,-69923.26,-21081.502,-18113.973,-21578.125,-9049.438,-21642.986,16568.441
1223583.8121638433,-58074.79,-69926.19,-21085.896,-18115.479,-21584.96,-9057.333,-21652.06,16558.553
1223583.8161638384,-58074.668,-69930.7,-21084.84,-18114.096,-21583.213,-9052.49,-21645.996,16561.402
1223583.8201638337,-58078.695,-69928.19,-21082.928,-18114.38,-21577.842,-9044.638,-21637.127,16574.463
1223583.8241638287,-58082.887,-69925.414,-21083.62,-18115.113,-21577.068,-9041.667,-21635.174,16581.055
1223583.8281638238,-58088.34,-69931.12,-21088.014,-18115.438,-21582.684,-9047.363,-21644.328,16575.074
1223583.832163819,-58084.434,-69938.4,-21090.7,-18116.09,-21588.502,-9053.996,-21655.234,16562.215
1223583.8361638142,-58080.0,-69940.63,-21086.59,-18116.414,-21584.717,-9052.572,-21649.7,16565.674
1223583.8401638095,-58071.94,-69931.89,-21076.904,-18113.322,-21569.906,-9042.929,-21636.191,16581.258
1223583.8441638045,-58074.79,-69926.516,-21073.121,-18113.69,-21568.604,-9037.436,-21631.145,16591.432
1223583.8481637996,-58086.02,-69940.06,-21081.055,-18117.025,-21580.566,-9043.254,-21638.021,16578.736
1223583.852163795,-58089.48,-69948.49,-21092.0,-18120.77,-21590.902,-9053.305,-21652.873,16558.594
1223583.85616379,-58079.47,-69939.66,-21088.258,-18117.514,-21586.264,-9050.903,-21649.74,16565.186
1223583.860163785,-58080.934,-69937.664,-21078.451,-18116.537,-21580.81,-9041.83,-21635.703,16584.637
1223583.8641637804,-58084.84,-69939.05,-21075.604,-18116.822,-21583.701,-9039.511,-21629.07,16595.623
1223583.8681637754,-58087.324,-69941.24,-21081.38,-18117.31,-21592.123,-9046.387,-21633.871,16596.111
1223583.8721637707,-58084.395,-69945.64,-21087.037,-18119.793,-21595.176,-9052.612,-21632.977,16592.45
1223583.8761637658,-58079.1,-69945.31,-21084.555,-18119.264,-21589.844,-9050.537,-21631.633,16597.371
1223583.8801637609,-58081.79,-69943.61,-21079.713,-18117.799,-21584.717,-9042.277,-21623.74,16608.033
1223583.8841637562,-58085.207,-69938.88,-21080.81,-18117.31,-21581.87,-9042.725,-21621.176,16605.55
1223583.8881637512,-58082.36,-69940.11,-21085.37,-18117.473,-21582.725,-9051.392,-21627.482,16595.459
1223583.8921637463,-58074.79,-69941.29,-21088.094,-18118.002,-21587.281,-9059.123,-21632.365,16589.152
1223583.8961637416,-58062.137,-69930.3,-21081.828,-18115.113,-21584.066,-9055.664,-21628.947,16588.826
1223583.9001637367,-58062.867,-69924.6,-21076.092,-18114.502,-21579.998,-9049.438,-21623.129,16592.53
1223583.9041637317,-58066.613,-69922.53,-21074.016,-18114.46,-21576.701,-9046.387,-21622.764,16597.697
1223583.908163727,-58069.785,-69924.44,-21078.94,-18113.973,-21581.707,-9051.596,-21631.145,16591.96
1223583.912163722,-58068.32,-69931.27,-21083.66,-18115.154,-21587.037,-9059.001,-21637.451,16588.99
1223583.9161637174,-58063.234,-69932.3,-21082.44,-18115.154,-21584.717,-9059.937,-21638.348,16595.379
1223583.9201637125,-58058.027,-69923.26,-21074.098,-18112.672,-21575.236,-9052.287,-21628.256,16609.334
1223583.9241637075,-58062.867,-69918.13,-21068.562,-18113.445,-21571.209,-9047.689,-21622.355,16615.967
1223583.9281637028,-58069.703,-69925.17,-21072.469,-18116.414,-21578.045,-9054.24,-21631.145,16607.422
1223583.932163698,-58066.69,-69928.67,-21076.701,-18117.025,-21584.27,-9060.954,-21638.225,16599.488
1223583.936163693,-58062.99,-69926.44,-21074.992,-18115.316,-21581.26,-9058.35,-21633.262,16599.568
1223583.9401636883,-58064.453,-69920.62,-21072.186,-18114.95,-21574.139,-9048.95,-21623.78,16610.434
1223583.9441636833,-58069.664,-69919.07,-21075.195,-18116.008,-21574.463,-9048.666,-21624.146,16610.799
1223583.9481636786,-58074.426,-69922.65,-21079.916,-18115.682,-21579.266,-9054.932,-21628.582,16604.168
1223583.9521636737,-58073.242,-69929.2,-21085.287,-18118.816,-21588.096,-9061.523,-21634.807,16593.873
1223583.9561636688,-58065.594,-69928.96,-21084.473,-18119.06,-21586.305,-9062.378,-21640.504,16583.984
1223583.960163664,-58068.2,-69923.46,-21078.328,-18116.537,-21577.354,-9054.077,-21633.3,16591.92
1223583.9641636591,-58080.445,-69929.77,-21079.63,-18119.549,-21580.527,-9052.084,-21630.982,16598.633
1223583.9681636542,-58088.22,-69943.97,-21088.299,-18122.518,-21592.164,-9061.32,-21642.945,16585.938
1223583.9721636495,-58084.883,-69949.586,-21094.28,-18122.111,-21596.885,-9071.533,-21658.408,16561.809
1223583.9761636446,-58080.12,-69950.234,-21094.523,-18121.623,-21595.338,-9071.208,-21658.896,16563.68
1223583.9801636396,-58076.582,-69943.81,-21087.77,-18120.2,-21584.19,-9063.721,-21649.863,16576.375
1223583.984163635,-58075.035,-69935.836,-21081.707,-18117.96,-21573.65,-9061.279,-21648.234,16579.469
1223583.98816363,-58078.37,-69942.06,-21085.693,-18119.832,-21582.805,-9070.3125,-21659.385,16572.186
1223583.9921636253,-58079.59,-69950.32,-21092.041,-18122.518,-21592.49,-9078.369,-21671.225,16561.2
1223583.9961636204,-58074.18,-69950.08,-21088.094,-18122.03,-21590.129,-9075.358,-21669.76,16562.379
1223584.0001636154,-58076.254,-69946.125,-21082.44,-18121.42,-21584.229,-9066.61,-21660.361,16575.36
1223584.0041636107,-58093.63,-69956.79,-21085.938,-18123.861,-21585.613,-9062.948,-21657.227,16580.648
1223584.0081636058,-58098.43,-69958.984,-21091.797,-18124.47,-21588.623,-9071.777,-21668.54,16564.168
1223584.012163601,-58084.19,-69951.54,-21094.28,-18122.273,-21586.793,-9079.875,-21677.125,16555.787
1223584.0161635962,-58082.645,-69956.79,-21093.547,-18119.14,-21584.96,-9074.504,-21671.104,16557.537
1223584.0201635913,-58085.98,-69948.57,-21086.264,-18117.96,-21577.922,-9064.779,-21660.482,16571.004
1223584.0241635866,-58097.863,-69953.29,-21085.979,-18121.297,-21582.316,-9062.256,-21658.0,16575.236
1223584.0281635816,-58099.0,-69952.68,-21090.17,-18121.297,-21589.111,-9068.97,-21662.354,16572.795
1223584.0321635767,-58105.47,-69961.23,-21094.238,-18119.344,-21594.646,-9070.598,-21659.385,16573.486
1223584.036163572,-58104.617,-69968.23,-21089.64,-18117.352,-21590.008,-9063.192,-21644.287,16585.531
1223584.040163567,-58100.87,-69956.586,-21082.195,-18115.316,-21575.807,-9055.542,-21631.715,16603.11
1223584.0441635621,-58105.918,-69952.76,-21081.219,-18113.281,-21570.72,-9052.734,-21624.553,16612.184
1223584.0481635574,-58118.53,-69965.45,-21085.857,-18114.178,-21578.248,-9055.542,-21628.5,16609.13
1223584.0521635525,-58118.777,-69975.79,-21091.105,-18115.926,-21586.875,-9060.344,-21634.36,16602.133
1223584.0561635476,-58107.79,-69975.14,-21090.332,-18115.52,-21586.264,-9059.978,-21633.262,16607.137
1223584.0601635429,-58102.906,-69962.81,-21086.264,-18114.666,-21579.957,-9052.897,-21621.99,16628.947
1223584.064163538,-58103.926,-69954.76,-21082.52,-18112.508,-21575.807,-9050.171,-21615.56,16639.69
1223584.0681635332,-58102.297,-69955.41,-21085.652,-18111.898,-21582.643,-9057.17,-21623.861,16626.912
1223584.0721635283,-58099.246,-69959.555,-21089.438,-18112.508,-21586.346,-9062.704,-21632.162,16615.643
1223584.0761635234,-58093.426,-69960.414,-21086.752,-18110.555,-21580.81,-9060.019,-21629.883,16612.957
1223584.0801635187,-58093.75,-69958.54,-21080.037,-18107.666,-21575.725,-9053.711,-21627.238,16612.02
1223584.0841635137,-58098.918,-69958.54,-21080.893,-18107.38,-21577.637,-9053.467,-21634.889,16602.54
1223584.0881635088,-58107.18,-69971.68,-21091.268,-18110.271,-21590.861,-9062.175,-21646.566,16591.635
1223584.092163504,-58106.04,-69976.73,-21093.75,-18110.31,-21597.941,-9067.953,-21649.74,16589.844
1223584.0961634992,-58091.066,-69968.34,-21087.932,-18107.79,-21594.523,-9064.372,-21645.752,16593.953
1223584.1001634945,-58088.258,-69967.45,-21082.031,-18106.934,-21588.34,-9053.589,-21634.93,16601.441
1223584.1041634895,-58094.81,-69971.36,-21080.363,-18108.074,-21586.467,-9049.032,-21630.615,16602.418
1223584.1081634846,-58105.55,-69983.89,-21087.402,-18109.986,-21595.988,-9054.81,-21634.562,16600.098
1223584.11216348,-58116.496,-70002.89,-21098.064,-18114.217,-21604.86,-9061.6455,-21639.893,16595.174
1223584.116163475,-58119.348,-70004.36,-21100.668,-18113.322,-21599.854,-9061.117,-21640.79,16587.973
1223584.12016347,-58124.15,-69996.91,-21092.693,-18110.393,-21590.129,-9055.339,-21631.633,16600.424
1223584.1241634653,-58118.816,-69989.55,-21082.805,-18107.463,-21585.775,-9055.583,-21625.773,16616.375
1223584.1281634604,-58117.72,-69991.984,-21084.393,-18106.121,-21591.473,-9062.094,-21632.162,16612.469
1223584.1321634557,-58124.84,-70002.28,-21094.076,-18106.771,-21598.35,-9067.383,-21639.854,16596.924
1223584.1361634508,-58125.125,-70005.54,-21093.873,-18105.998,-21595.135,-9063.721,-21635.01,16602.947
1223584.1401634458,-58124.637,-70000.0,-21087.2,-18105.225,-21587.607,-9054.24,-21623.455,16622.559
1223584.1441634411,-58131.918,-70001.305,-21085.734,-18107.098,-21590.049,-9051.596,-21622.234,16620.605
1223584.1481634362,-58128.625,-70005.05,-21089.682,-18110.799,-21600.424,-9059.978,-21632.61,16613.934
1223584.1521634313,-58124.066,-70012.29,-21091.229,-18112.428,-21606.568,-9066.0,-21638.428,16610.352
1223584.1561634266,-58126.67,-70021.08,-21086.59,-18111.695,-21606.201,-9064.087,-21637.33,16611.492
1223584.1601634216,-58139.69,-70025.59,-21082.602,-18111.125,-21599.203,-9058.594,-21636.15,16612.875
1223584.1641634167,-58156.902,-70031.25,-21084.84,-18110.31,-21596.355,-9058.105,-21638.145,16613.484
1223584.168163412,-58161.582,-70037.516,-21090.17,-18108.277,-21601.074,-9065.837,-21646.12,16605.957
1223584.172163407,-58161.055,-70045.49,-21094.605,-18108.318,-21606.934,-9071.208,-21651.979,16597.371
1223584.1761634024,-58157.39,-70046.02,-21094.646,-18108.602,-21604.045,-9069.174,-21647.502,16600.465
1223584.1801633975,-58158.41,-70043.625,-21089.64,-18107.545,-21598.389,-9060.303,-21632.447,16617.555
1223584.1841633925,-58165.367,-70044.64,-21087.89,-18107.666,-21596.518,-9054.851,-21619.67,16637.615
1223584.1881633878,-58175.293,-70053.266,-21093.344,-18112.957,-21603.924,-9058.798,-21618.816,16639.607
1223584.192163383,-58168.785,-70057.58,-21092.082,-18114.584,-21611.695,-9063.599,-21622.52,16628.256
1223584.196163378,-58161.5,-70056.195,-21086.873,-18114.014,-21609.54,-9060.303,-21619.834,16626.547
1223584.2001633733,-58177.168,-70067.38,-21085.896,-18118.246,-21608.766,-9052.572,-21612.225,16634.197
1223584.2041633683,-58194.62,-70077.76,-21088.705,-18122.396,-21613.404,-9051.921,-21612.225,16641.357
1223584.2081633636,-58203.82,-70084.96,-21095.623,-18123.129,-21622.64,-9059.692,-21624.309,16633.424
1223584.2121633587,-58204.145,-70091.07,-21102.703,-18122.193,-21626.914,-9066.61,-21632.854,16621.258
1223584.2161633538,-58204.145,-70094.85,-21103.557,-18121.908,-21623.008,-9063.884,-21632.162,16619.385
1223584.220163349,-58205.04,-70092.29,-21099.447,-18121.785,-21613.281,-9055.298,-21625.814,16622.682
1223584.2241633441,-58210.086,-70091.59,-21095.867,-18120.688,-21609.375,-9052.043,-21623.17,16629.68
1223584.2281633392,-58214.684,-70098.555,-21100.22,-18121.42,-21613.607,-9058.065,-21628.662,16623.78
1223584.2321633345,-58212.242,-70104.01,-21106.04,-18122.803,-21618.613,-9064.575,-21636.11,16614.543
1223584.2361633296,-58202.598,-70101.766,-21101.4,-18120.89,-21614.666,-9061.768,-21631.756,16622.234
1223584.2401633246,-58205.406,-70096.44,-21094.441,-18119.629,-21609.213,-9055.136,-21622.193,16635.05
1223584.24416332,-58216.188,-70095.664,-21096.191,-18122.926,-21610.19,-9053.101,-21621.299,16641.072
1223584.248163315,-58227.297,-70104.82,-21107.83,-18126.465,-21620.117,-9058.105,-21625.244,16637.777
1223584.2521633103,-58241.62,-70121.18,-21120.484,-18131.307,-21628.256,-9062.053,-21626.873,16630.738
1223584.2561633054,-58240.195,-70126.1,-21115.113,-18129.72,-21624.635,-9054.932,-21617.066,16635.906
1223584.2601633004,-58222.535,-70112.305,-21101.318,-18127.156,-21616.62,-9047.485,-21609.375,16647.299
1223584.2641632957,-58228.723,-70120.52,-21097.576,-18129.232,-21619.67,-9046.184,-21605.998,16655.926
1223584.2681632908,-58238.12,-70139.61,-21101.238,-18132.977,-21628.582,-9053.223,-21609.742,16655.64
1223584.2721632859,-58243.574,-70153.2,-21105.957,-18134.236,-21635.662,-9059.57,-21613.852,16649.496
1223584.2761632812,-58243.086,-70157.23,-21103.598,-18131.674,-21636.23,-9061.035,-21615.154,16647.543
1223584.2801632762,-58251.832,-70160.08,-21098.674,-18130.86,-21632.324,-9054.851,-21607.098,16657.756
1223584.2841632715,-58266.887,-70169.92,-21097.127,-18129.518,-21631.186,-9052.287,-21603.232,16664.959
1223584.2881632666,-58267.457,-70171.59,-21100.465,-18129.03,-21634.889,-9059.082,-21611.29,16659.465
1223584.2921632617,-58264.855,-70173.016,-21105.55,-18129.803,-21639.04,-9064.901,-21616.293,16655.314
1223584.296163257,-58266.156,-70177.49,-21104.98,-18130.127,-21637.412,-9059.245,-21609.742,16660.482
1223584.300163252,-58269.125,-70173.79,-21101.318,-18131.186,-21630.941,-9051.799,-21600.303,16666.912
1223584.304163247,-58277.062,-70172.28,-21099.691,-18133.22,-21629.6,-9049.643,-21597.088,16673.828
1223584.3081632424,-58284.344,-70183.35,-21103.475,-18134.318,-21637.492,-9055.014,-21605.469,16669.11
1223584.3121632375,-58283.164,-70191.81,-21105.428,-18134.236,-21643.23,-9061.117,-21614.543,16658.691
1223584.3161632328,-58282.96,-70194.3,-21099.691,-18132.812,-21637.451,-9056.845,-21609.54,16662.354
1223584.3201632279,-58288.332,-70192.14,-21094.809,-18133.953,-21632.285,-9050.659,-21599.977,16677.857
1223584.324163223,-58296.348,-70194.22,-21092.814,-18133.709,-21632.732,-9048.747,-21597.373,16682.414
1223584.3281632182,-58306.64,-70207.93,-21102.58,-18137.574,-21642.05,-9058.35,-21610.148,16667.318
1223584.3321632133,-58304.934,-70211.39,-21107.748,-18139.893,-21646.484,-9068.034,-21622.396,16651.246
1223584.3361632084,-58296.266,-70203.62,-21100.342,-18134.848,-21638.754,-9063.11,-21614.951,16657.879
1223584.3401632037,-58294.434,-70193.766,-21091.756,-18133.098,-21629.191,-9054.77,-21602.377,16672.893
1223584.3441631987,-58301.027,-70191.86,-21089.438,-18132.895,-21628.623,-9051.514,-21601.36,16673.178
1223584.3481631938,-58310.387,-70200.36,-21096.07,-18133.992,-21634.115,-9055.827,-21607.057,16666.83
1223584.352163189,-58313.52,-70208.414,-21104.412,-18135.418,-21641.643,-9061.85,-21612.51,16664.877
1223584.3561631842,-58314.7,-70209.92,-21106.121,-18138.387,-21640.79,-9057.821,-21608.277,16671.55
1223584.3601631795,-58323.977,-70213.016,-21104.656,-18142.293,-21638.633,-9050.375,-21602.662,16677.45
1223584.3641631745,-58334.92,-70216.516,-21103.963,-18143.31,-21641.033,-9050.293,-21603.598,16680.299
1223584.3681631696,-58340.008,-70224.77,-21108.969,-18145.549,-21648.723,-9058.065,-21612.225,16675.822
1223584.372163165,-58337.688,-70231.734,-21112.346,-18146.24,-21653.605,-9063.559,-21617.31,16670.086
1223584.37616316,-58332.727,-70228.6,-21109.822,-18144.695,-21650.146,-9061.117,-21614.014,16670.045
1223584.380163155,-58336.426,-70225.38,-21109.01,-18144.084,-21643.352,-9056.234,-21607.342,16681.805
1223584.3841631503,-58346.19,-70228.516,-21109.375,-18145.184,-21641.318,-9057.577,-21607.383,16687.988
1223584.3881631454,-58345.34,-70229.66,-21111.207,-18143.555,-21643.963,-9064.087,-21612.387,16682.008
1223584.3921631407,-58342.734,-70231.734,-21114.502,-18142.945,-21646.322,-9069.824,-21616.822,16673.625
1223584.3961631358,-58339.113,-70227.945,-21111.451,-18142.254,-21643.434,-9065.186,-21614.666,16673.625
1223584.4001631308,-58341.555,-70222.336,-21104.86,-18143.19,-21638.266,-9056.356,-21603.312,16688.6
1223584.4041631261,-58348.676,-70222.01,-21101.4,-18142.822,-21636.8,-9053.467,-21598.35,16694.988
1223584.4081631212,-58355.062,-70228.516,-21109.578,-18143.758,-21642.62,-9061.32,-21607.627,16685.588
1223584.4121631163,-58353.926,-70233.484,-21113.16,-18143.27,-21646.69,-9068.034,-21616.904,16675.945
1223584.4161631116,-58350.547,-70235.44,-21111.287,-18143.107,-21644.736,-9067.343,-21614.707,16678.182
1223584.4201631066,-58351.77,-70229.58,-21105.754,-18143.23,-21637.127,-9062.256,-21607.951,16687.256
1223584.4241631017,-58360.15,-70230.51,-21105.021,-18144.898,-21636.639,-9063.803,-21607.422,16691.121
1223584.428163097,-58363.203,-70238.28,-21110.19,-18146.078,-21644.166,-9071.493,-21616.822,16686.361
1223584.432163092,-58361.125,-70248.91,-21115.398,-18146.729,-21651.938,-9075.521,-21623.902,16675.09
1223584.4361630874,-58361.047,-70252.81,-21113.973,-18146.566,-21647.217,-9072.021,-21621.46,16673.951
1223584.4401630824,-58368.125,-70253.13,-21109.822,-18146.688,-21639.283,-9065.063,-21615.764,16680.42
1223584.4441630775,-58377.973,-70256.875,-21110.76,-18148.357,-21640.545,-9063.721,-21615.479,16679.852
1223584.4481630728,-58383.18,-70264.65,-21115.764,-18150.27,-21649.293,-9071.005,-21622.885,16669.88
1223584.4521630679,-58381.51,-70272.22,-21120.89,-18148.805,-21652.71,-9075.766,-21628.256,16664.186
1223584.456163063,-58377.24,-70273.6,-21122.314,-18146.932,-21650.352,-9072.348,-21621.543,16674.113
1223584.4601630582,-58375.45,-70267.62,-21117.352,-18146.77,-21645.59,-9066.732,-21613.363,16683.27
1223584.4641630533,-58382.12,-70265.875,-21116.09,-18146.2,-21641.562,-9065.1045,-21613.12,16687.012
1223584.4681630486,-58391.4,-70275.64,-21120.729,-18147.014,-21651.246,-9071.696,-21623.496,16678.71
1223584.4721630437,-58391.4,-70281.62,-21123.535,-18145.875,-21652.467,-9076.05,-21629.395,16666.383
1223584.4761630388,-58389.57,-70280.234,-21121.95,-18142.822,-21646.566,-9074.463,-21631.553,16661.297
1223584.480163034,-58395.918,-70283.086,-21118.205,-18143.23,-21642.742,-9069.255,-21626.303,16662.436
1223584.4841630291,-58402.71,-70284.18,-21117.92,-18142.498,-21642.904,-9068.767,-21625.45,16666.992
1223584.4881630242,-58404.22,-70286.016,-21122.07,-18140.34,-21648.234,-9077.108,-21632.732,16665.691
1223584.4921630195,-58397.258,-70286.625,-21122.479,-18139.486,-21648.52,-9082.52,-21639.242,16660.482
1223584.4961630146,-58392.99,-70285.28,-21119.67,-18138.387,-21641.602,-9077.881,-21629.68,16664.754
1223584.5001630099,-58394.53,-70280.766,-21112.508,-18135.254,-21632.041,-9067.993,-21614.463,16674.316
1223584.504163005,-58404.016,-70283.94,-21112.549,-18135.05,-21625.814,-9066.447,-21616.455,16679.932
1223584.508163,-58413.008,-70291.95,-21121.705,-18138.469,-21635.865,-9076.579,-21626.385,16670.898
1223584.5121629953,-58404.83,-70290.2,-21124.715,-18135.783,-21643.434,-9081.381,-21630.697,16666.18
1223584.5161629904,-58399.54,-70287.766,-21121.297,-18133.016,-21633.668,-9074.87,-21623.17,16672.283
1223584.5201629854,-58402.875,-70285.12,-21113.77,-18131.186,-21633.18,-9065.227,-21610.148,16683.146
1223584.5241629807,-58410.77,-70284.914,-21112.02,-18131.715,-21633.912,-9064.494,-21609.54,16688.924
1223584.5281629758,-58420.13,-70295.53,-21120.037,-18134.93,-21640.057,-9073.527,-21617.717,16685.914
1223584.5321629709,-58420.37,-70302.94,-21123.006,-18136.271,-21646.81,-9079.387,-21623.82,16678.06
1223584.5361629662,-58406.13,-70296.266,-21114.746,-18133.871,-21642.213,-9077.922,-21622.6,16681.234
1223584.5401629612,-58398.156,-70284.586,-21106.324,-18130.78,-21635.092,-9069.255,-21609.498,16697.225
1223584.5441629565,-58406.902,-70288.54,-21106.486,-18132.771,-21633.79,-9065.186,-21603.557,16706.463
1223584.5481629516,-58417.81,-70301.07,-21113.404,-18136.068,-21641.643,-9070.272,-21610.148,16705.322
1223584.5521629467,-58414.797,-70305.34,-21116.902,-18134.604,-21643.23,-9074.789,-21615.846,16692.547
1223584.556162942,-58413.496,-70306.07,-21116.293,-18135.174,-21642.578,-9072.958,-21615.072,16692.262
1223584.560162937,-58412.926,-70298.95,-21108.969,-18135.254,-21636.11,-9067.139,-21607.951,16697.104
1223584.564162932,-58422.082,-70300.74,-21111.004,-18136.842,-21639.16,-9066.65,-21607.666,16700.887
1223584.5681629274,-58430.176,-70308.39,-21119.955,-18141.805,-21651.896,-9077.026,-21621.99,16690.227
1223584.5721629225,-58423.75,-70309.37,-21121.135,-18140.951,-21654.094,-9082.683,-21628.988,16685.914
1223584.5761629178,-58414.758,-70306.03,-21115.926,-18138.672,-21649.822,-9078.125,-21625.652,16682.049
1223584.5801629128,-58413.984,-70302.49,-21109.213,-18135.418,-21644.98,-9070.272,-21614.219,16685.955
1223584.584162908,-58420.574,-70305.18,-21107.178,-18133.992,-21642.375,-9069.214,-21614.178,16692.465
1223584.5881629032,-58431.03,-70317.42,-21117.229,-18139.486,-21653.605,-9078.939,-21624.309,16691.203
1223584.5921628983,-58430.137,-70326.83,-21123.738,-18140.422,-21656.535,-9084.839,-21633.668,16679.443
1223584.5961628933,-58425.54,-70321.17,-21121.502,-18138.51,-21649.62,-9083.537,-21636.639,16669.027
1223584.6001628886,-58431.36,-70318.4,-21117.514,-18138.387,-21644.451,-9076.132,-21630.127,16678.143
1223584.6041628837,-58440.35,-70318.69,-21117.229,-18138.266,-21643.719,-9073.568,-21628.174,16681.479
1223584.6081628788,-58442.06,-70323.77,-21123.414,-18138.63,-21650.107,-9081.747,-21636.639,16676.393
1223584.612162874,-58441.53,-70331.95,-21127.156,-18140.422,-21658.244,-9088.298,-21641.48,16672.893
1223584.6161628691,-58436.117,-70327.31,-21125.53,-18138.916,-21654.053,-9082.968,-21636.516,16677.002
1223584.6201628644,-58436.566,-70321.54,-21118.855,-18138.428,-21650.96,-9075.033,-21627.076,16685.67
1223584.6241628595,-58442.87,-70325.484,-21118.164,-18138.143,-21651.084,-9072.754,-21617.229,16693.4
1223584.6281628546,-58444.46,-70328.734,-21124.023,-18139.283,-21654.338,-9081.95,-21629.436,16683.553
1223584.63216285,-58440.594,-70329.305,-21127.645,-18139.893,-21656.576,-9087.402,-21634.645,16677.002
1223584.636162845,-58433.594,-70321.74,-21122.6,-18137.736,-21649.455,-9081.909,-21629.111,16678.508
1223584.64016284,-58434.45,-70315.02,-21113.77,-18136.395,-21639.771,-9073.242,-21615.805,16698.771
1223584.6441628353,-58437.38,-70313.73,-21111.207,-18137.086,-21641.154,-9072.226,-21612.469,16707.316
1223584.6481628304,-58437.867,-70317.75,-21116.984,-18137.86,-21648.926,-9081.421,-21622.07,16700.887
1223584.6521628257,-58429.363,-70320.03,-21118.896,-18136.719,-21651.896,-9086.67,-21627.727,16691.61
1223584.6561628208,-58428.836,-70324.914,-21118.123,-18136.312,-21647.99,-9083.212,-21626.1,16687.541
1223584.6601628158,-58432.824,-70321.086,-21115.072,-18137.045,-21640.83,-9077.963,-21620.973,16693.197
1223584.6641628111,-58438.273,-70319.3,-21115.764,-18138.348,-21643.31,-9076.986,-21617.88,16702.107
1223584.6681628062,-58443.484,-70326.3,-21121.217,-18141.969,-21647.95,-9083.212,-21626.75,16693.889
1223584.6721628013,-58443.28,-70332.195,-21127.686,-18145.387,-21655.234,-9091.675,-21633.75,16676.393
1223584.6761627966,-58443.28,-70330.28,-21129.883,-18144.41,-21653.605,-9087.443,-21633.994,16669.76
1223584.6801627916,-58446.414,-70327.84,-21125.57,-18144.613,-21649.781,-9080.363,-21627.402,16676.88
1223584.684162787,-58453.086,-70330.69,-21124.553,-18144.166,-21650.025,-9079.428,-21623.78,16691.53
1223584.688162782,-58453.574,-70335.77,-21129.11,-18143.066,-21655.193,-9087.158,-21631.104,16690.105
1223584.692162777,-58445.395,-70335.98,-21129.395,-18141.277,-21658.488,-9093.466,-21638.266,16682.049
1223584.6961627724,-58437.543,-70328.414,-21122.07,-18136.678,-21650.555,-9087.24,-21631.877,16685.71
1223584.7001627674,-58445.438,-70331.26,-21114.99,-18134.604,-21647.746,-9077.922,-21620.322,16699.342
1223584.7041627625,-58456.26,-70336.55,-21116.781,-18136.963,-21648.479,-9075.603,-21617.596,16703.654
1223584.7081627578,-58449.75,-70329.914,-21121.338,-18137.41,-21650.717,-9083.212,-21626.953,16693.36
1223584.7121627529,-58442.793,-70325.12,-21122.803,-18137.818,-21651.49,-9091.105,-21632.977,16690.838
1223584.716162748,-58441.69,-70319.79,-21123.291,-18136.76,-21645.305,-9086.264,-21625.164,16695.516
1223584.7201627432,-58449.016,-70316.94,-21121.258,-18135.986,-21640.463,-9078.939,-21620.525,16700.887
1223584.7241627383,-58455.242,-70318.28,-21119.873,-18138.795,-21641.725,-9081.015,-21621.787,16701.336
1223584.7281627336,-58451.215,-70317.42,-21122.396,-18138.266,-21645.264,-9089.844,-21629.15,16694.662
1223584.7321627287,-58447.145,-70317.95,-21127.28,-18138.998,-21646.81,-9095.419,-21633.22,16688.924
1223584.7361627237,-58446.902,-70318.04,-21126.303,-18138.307,-21647.746,-9089.111,-21626.953,16695.271
1223584.740162719,-58448.773,-70318.766,-21122.682,-18138.916,-21640.87,-9078.532,-21615.031,16709.717
1223584.744162714,-58452.434,-70317.71,-21120.443,-18140.707,-21642.375,-9075.399,-21609.05,16716.553
1223584.7481627092,-58454.67,-70322.555,-21125.773,-18141.725,-21644.572,-9081.381,-21613.73,16716.635
1223584.7521627045,-58452.23,-70325.234,-21129.477,-18142.375,-21649.008,-9088.42,-21621.543,16710.043
1223584.7561626995,-58451.094,-70322.555,-21125.244,-18140.748,-21643.719,-9085.775,-21618.205,16717.164
1223584.7601626948,-58455.445,-70319.46,-21118.45,-18139.08,-21638.51,-9077.719,-21610.678,16728.271
1223584.76416269,-58459.555,-70324.586,-21116.822,-18141.072,-21641.236,-9078.857,-21609.783,16736.287
1223584.768162685,-58458.215,-70331.18,-21121.379,-18141.725,-21648.643,-9085.368,-21613.201,16736.695
1223584.7721626803,-58448.527,-70333.21,-21123.291,-18141.44,-21653.117,-9089.926,-21619.426,16725.18
1223584.7761626753,-58440.227,-70329.266,-21118.287,-18138.998,-21646.77,-9084.921,-21617.514,16719.361
1223584.7801626704,-58443.08,-70324.79,-21114.217,-18138.55,-21639.08,-9078.41,-21610.516,16724.568
1223584.7841626657,-58451.5,-70328.05,-21118.408,-18139.201,-21640.91,-9080.7705,-21614.828,16721.436
1223584.7881626608,-58461.633,-70337.61,-21128.215,-18141.357,-21648.275,-9088.298,-21623.658,16711.346
1223584.7921626559,-58461.875,-70342.86,-21132.61,-18140.463,-21652.588,-9093.669,-21627.158,16708.09
1223584.7961626512,-58455.895,-70339.64,-21126.873,-18138.225,-21648.275,-9088.501,-21623.17,16709.229
1223584.8001626462,-58457.24,-70337.2,-21122.07,-18137.533,-21643.76,-9082.235,-21615.316,16719.076
1223584.8041626415,-58460.734,-70336.51,-21122.234,-18137.86,-21645.06,-9083.822,-21617.107,16724.977
1223584.8081626366,-58461.266,-70342.57,-21127.686,-18139.12,-21652.508,-9090.739,-21625.855,16716.553
1223584.8121626317,-58457.645,-70348.35,-21133.79,-18141.072,-21657.268,-9097.046,-21636.354,16703.084
1223584.816162627,-58453.74,-70344.52,-21130.86,-18140.3,-21650.676,-9094.279,-21635.254,16700.44
1223584.820162622,-58456.055,-70339.52,-21124.959,-18139.486,-21641.846,-9088.42,-21627.441,16708.21
1223584.824162617,-58463.176,-70339.64,-21122.234,-18141.195,-21641.033,-9086.426,-21624.39,16711.752
1223584.8281626124,-58470.38,-70346.64,-21128.744,-18144.002,-21649.21,-9090.617,-21628.582,16709.637
1223584.8321626075,-58462.28,-70346.234,-21128.094,-18142.049,-21651.246,-9092.855,-21631.553,16704.021
1223584.8361626028,-58457.36,-70343.586,-21125.732,-18141.805,-21647.38,-9089.6,-21627.97,16701.295
1223584.8401625978,-58461.754,-70336.914,-21121.258,-18142.742,-21641.643,-9084.961,-21622.479,16705.404
1223584.844162593,-58469.32,-70334.76,-21123.861,-18144.49,-21644.531,-9086.467,-21622.967,16712.605
1223584.8481625882,-58472.453,-70337.12,-21130.656,-18145.428,-21652.223,-9094.279,-21631.756,16709.96
1223584.8521625833,-58464.805,-70338.5,-21134.604,-18144.695,-21655.803,-9100.708,-21640.79,16694.662
1223584.8561625783,-58461.793,-70337.85,-21132.771,-18141.928,-21650.879,-9095.256,-21635.742,16697.633
1223584.8601625736,-58468.793,-70342.86,-21128.744,-18143.475,-21646.404,-9088.501,-21629.355,16706.746
1223584.8641625687,-58473.676,-70347.74,-21126.791,-18146.77,-21648.887,-9090.251,-21628.785,16712.24
1223584.868162564,-58469.363,-70345.5,-21127.605,-18148.152,-21655.518,-9097.453,-21636.312,16708.904
1223584.872162559,-58468.75,-70349.53,-21134.197,-18149.781,-21661.133,-9102.743,-21639.854,16706.828
1223584.8761625541,-58465.254,-70348.19,-21131.186,-18148.926,-21655.844,-9096.64,-21633.018,16709.473
1223584.8801625494,-58470.34,-70346.11,-21128.133,-18148.193,-21650.676,-9087.158,-21621.135,16724.121
1223584.8841625445,-58480.715,-70352.83,-21130.78,-18149.129,-21650.676,-9087.362,-21623.088,16722.535
1223584.8881625396,-58482.547,-70358.89,-21135.54,-18149.455,-21655.111,-9094.401,-21632.121,16714.844
1223584.8921625349,-58477.703,-70358.93,-21140.707,-18149.617,-21654.379,-9096.11,-21631.348,16721.72
1223584.89616253,-58473.594,-70355.1,-21138.021,-18148.479,-21649.008,-9090.007,-21623.008,16728.842
1223584.900162525,-58473.31,-70350.34,-21130.697,-18145.955,-21643.799,-9081.055,-21614.299,16734.863
1223584.9041625203,-58480.51,-70354.086,-21128.133,-18146.24,-21645.143,-9080.688,-21617.596,16732.38
1223584.9081625154,-58481.73,-70355.43,-21133.586,-18146.688,-21652.71,-9090.251,-21628.906,16722.656
1223584.9121625107,-58476.402,-70358.93,-21138.428,-18145.387,-21656.78,-9095.622,-21635.742,16716.553
1223584.9161625057,-58471.76,-70356.28,-21133.016,-18142.578,-21649.658,-9092.285,-21634.727,16713.217
1223584.9201625008,-58475.344,-70354.66,-21128.012,-18141.521,-21643.678,-9087.036,-21632.121,16716.309
1223584.924162496,-58479.414,-70354.45,-21126.629,-18138.916,-21642.01,-9087.118,-21632.406,16720.906
1223584.9281624912,-58475.668,-70351.6,-21129.273,-18136.557,-21645.957,-9093.669,-21636.354,16723.47
1223584.9321624862,-58471.477,-70351.445,-21132.162,-18135.865,-21647.625,-9095.988,-21637.248,16724.568
1223584.9361624816,-58468.793,-70350.38,-21127.361,-18134.36,-21644.125,-9091.838,-21632.53,16731.121
1223584.9401624766,-58471.03,-70345.42,-21120.77,-18134.807,-21638.633,-9083.903,-21620.525,16746.135
1223584.944162472,-58477.906,-70345.83,-21120.688,-18135.254,-21641.887,-9082.602,-21618.043,16750.814
1223584.948162467,-58484.297,-70357.71,-21129.924,-18136.19,-21652.264,-9091.431,-21628.338,16741.496
1223584.952162462,-58481.977,-70367.48,-21135.05,-18135.783,-21658.164,-9097.575,-21636.15,16730.184
1223584.9561624574,-58477.46,-70366.87,-21132.732,-18132.162,-21652.914,-9093.059,-21630.494,16735.76
1223584.9601624524,-58477.664,-70363.57,-21128.703,-18132.203,-21646.363,-9084.433,-21622.234,16741.375
1223584.9641624475,-58484.99,-70366.58,-21131.227,-18134.197,-21651.205,-9086.548,-21625.123,16736.043
1223584.9681624428,-58489.3,-70376.305,-21136.678,-18134.766,-21659.385,-9095.785,-21634.766,16725.383
1223584.9721624379,-58483.727,-70381.836,-21139.283,-18135.336,-21661.662,-9099.691,-21642.822,16717.855
1223584.976162433,-58479.617,-70380.05,-21134.604,-18133.18,-21657.553,-9093.994,-21638.633,16716.879
1223584.9801624282,-58484.375,-70376.06,-21130.941,-18132.977,-21650.555,-9087.036,-21630.615,16725.465
1223584.9841624233,-58487.43,-70371.34,-21129.273,-18132.324,-21647.34,-9087.077,-21632.53,16725.994
1223584.9881624186,-58487.715,-70375.33,-21135.133,-18133.79,-21653.932,-9096.477,-21643.475,16718.018
1223584.9921624137,-58488.445,-70383.55,-21140.178,-18134.848,-21658.936,-9101.481,-21650.879,16714.64
1223584.9961624087,-58484.094,-70379.516,-21137.248,-18133.098,-21651.49,-9097.656,-21648.072,16709.229
1223585.000162404,-58482.016,-70372.36,-21130.818,-18131.877,-21643.393,-9090.454,-21639.283,16720.053
1223585.004162399,-58486.004,-70371.22,-21130.086,-18132.365,-21643.516,-9090.942,-21636.354,16726.93
1223585.0081623942,-58486.613,-70372.97,-21134.115,-18132.08,-21650.432,-9098.308,-21642.783,16715.861
1223585.0121623895,-58483.605,-70378.055,-21137.248,-18134.848,-21655.234,-9104.289,-21647.422,16706.096
1223585.0161623845,-58478.598,-70375.98,-21134.93,-18133.139,-21649.62,-9101.237,-21642.945,16711.914
1223585.0201623798,-58485.92,-70372.6,-21132.244,-18130.535,-21640.707,-9093.669,-21633.018,16723.877
1223585.024162375,-58502.363,-70382.33,-21135.174,-18132.895,-21644.613,-9094.482,-21631.227,16730.021
1223585.02816237,-58491.418,-70383.586,-21134.686,-18132.65,-21649.21,-9102.946,-21640.586,16722.168
1223585.0321623653,-58480.51,-70381.02,-21134.969,-18129.72,-21647.625,-9105.835,-21644.37,16715.414
1223585.0361623603,-58473.188,-70376.38,-21127.117,-18125.041,-21640.057,-9099.406,-21634.482,16722.576
1223585.0401623554,-58469.77,-70369.59,-21118.002,-18123.535,-21632.244,-9092.163,-21623.129,16733.969
1223585.0441623507,-58476.402,-70375.53,-21117.31,-18126.75,-21637.371,-9095.622,-21624.473,16735.066
1223585.0481623458,-58478.234,-70382.24,-21125.447,-18129.395,-21649.293,-9105.957,-21634.848,16730.389
1223585.052162341,-58473.43,-70385.91,-21130.941,-18129.436,-21653.443,-9109.131,-21638.633,16725.057
1223585.0561623361,-58472.535,-70384.97,-21127.197,-18127.4,-21648.643,-9103.354,-21630.412,16730.307
1223585.0601623312,-58476.36,-70383.22,-21119.182,-18124.92,-21642.986,-9095.541,-21618.734,16746.297
1223585.0641623265,-58484.375,-70388.305,-21119.02,-18126.547,-21644.207,-9096.762,-21618.49,16748.006
1223585.0681623216,-58483.562,-70394.94,-21122.803,-18128.5,-21651.367,-9105.307,-21627.564,16745.32
1223585.0721623166,-58480.594,-70397.95,-21128.338,-18130.494,-21655.64,-9110.881,-21630.941,16746.541
1223585.076162312,-58479.86,-70394.125,-21126.262,-18130.738,-21650.717,-9106.445,-21626.547,16740.682
1223585.080162307,-58481.49,-70390.51,-21120.281,-18130.127,-21646.404,-9100.83,-21621.582,16741.537
1223585.084162302,-58482.3,-70387.945,-21119.873,-18131.592,-21646.893,-9101.807,-21621.055,16752.85
1223585.0881622974,-58480.594,-70387.49,-21123.332,-18130.656,-21650.596,-9107.951,-21628.703,16750.814
1223585.0921622925,-58474.977,-70392.414,-21126.668,-18130.047,-21655.438,-9112.712,-21633.545,16743.816
1223585.0961622878,-58472.13,-70390.51,-21124.756,-18128.094,-21651.979,-9107.748,-21628.459,16749.188
1223585.1001622828,-58472.453,-70384.97,-21118.328,-18128.5,-21644.572,-9100.952,-21621.664,16759.197
1223585.104162278,-58478.926,-70386.07,-21116.7,-18129.639,-21645.996,-9099.447,-21619.508,16766.56
1223585.1081622732,-58485.273,-70394.25,-21123.494,-18132.936,-21653.117,-9106.405,-21626.588,16754.842
1223585.1121622683,-58481.977,-70399.945,-21129.11,-18135.01,-21657.35,-9111.003,-21632.121,16749.797
1223585.1161622633,-58484.945,-70400.72,-21129.07,-18135.457,-21654.217,-9105.551,-21625.123,16755.78
1223585.1201622586,-58491.293,-70397.914,-21126.588,-18135.336,-21648.926,-9100.79,-21619.71,16765.79
1223585.1241622537,-58497.97,-70397.26,-21128.621,-18136.23,-21647.99,-9101.645,-21620.402,16769.654
1223585.128162249,-58501.344,-70403.484,-21135.092,-18136.883,-21656.006,-9108.114,-21629.436,16759.48
1223585.132162244,-58495.566,-70409.63,-21139.69,-18139.08,-21662.436,-9113.811,-21638.469,16751.668
1223585.1361622391,-58492.473,-70408.81,-21139.486,-18138.998,-21661.053,-9111.288,-21636.842,16750.855
1223585.1401622344,-58494.426,-70404.055,-21135.01,-18138.916,-21654.135,-9103.3125,-21632.041,16748.332
1223585.1441622295,-58500.9,-70402.914,-21133.057,-18141.236,-21654.95,-9101.645,-21631.023,16751.22
1223585.1481622246,-58504.76,-70409.43,-21135.418,-18142.334,-21662.354,-9108.643,-21640.951,16744.14
1223585.1521622199,-58500.57,-70412.48,-21138.184,-18140.137,-21665.0,-9112.0205,-21646.973,16740.887
1223585.156162215,-58495.117,-70406.336,-21134.318,-18137.615,-21658.611,-9107.626,-21643.719,16736.898
1223585.16016221,-58498.414,-70401.695,-21126.424,-18136.678,-21652.549,-9101.807,-21635.865,16746.053
1223585.1641622053,-58500.246,-70400.48,-21126.75,-18136.23,-21653.443,-9102.946,-21636.191,16750.814
1223585.1681622004,-58501.75,-70403.24,-21136.557,-18136.434,-21662.314,-9111.694,-21645.672,16743.328
1223585.1721621957,-58498.457,-70403.04,-21139.934,-18135.662,-21663.494,-9117.27,-21649.21,16737.957
1223585.1761621907,-58493.004,-70397.34,-21133.709,-18134.197,-21656.129,-9112.875,-21644.654,16736.084
1223585.1801621858,-58494.793,-70399.945,-21128.215,-18134.033,-21651.816,-9106.608,-21638.877,16741.252
1223585.184162181,-58502.973,-70405.64,-21131.633,-18134.969,-21655.111,-9107.138,-21642.578,16742.066
1223585.1881621762,-58507.324,-70415.125,-21139.324,-18137.045,-21664.186,-9116.781,-21654.826,16730.672
1223585.1921621712,-58500.613,-70420.62,-21140.91,-18136.395,-21667.562,-9123.21,-21661.947,16719.28
1223585.1961621665,-58499.105,-70417.97,-21138.51,-18134.236,-21663.291,-9116.781,-21654.664,16721.844
1223585.2001621616,-58505.74,-70416.586,-21136.027,-18133.504,-21660.523,-9108.643,-21646.81,16728.963
1223585.204162157,-58513.023,-70416.1,-21136.15,-18135.906,-21658.082,-9109.863,-21648.723,16736.004
1223585.208162152,-58511.438,-70417.03,-21138.998,-18137.004,-21668.58,-9118.286,-21653.89,16735.107
1223585.212162147,-58503.46,-70417.766,-21139.08,-18134.033,-21669.598,-9122.925,-21655.438,16728.354
1223585.2161621423,-58501.14,-70412.88,-21136.23,-18133.098,-21658.408,-9116.537,-21649.09,16732.707
1223585.2201621374,-58501.875,-70409.22,-21131.756,-18133.22,-21656.982,-9108.114,-21638.713,16745.932
1223585.2241621325,-58505.656,-70412.6,-21130.086,-18134.48,-21662.314,-9110.312,-21636.395,16743.938
1223585.2281621278,-58506.633,-70415.33,-21132.977,-18134.889,-21667.197,-9118.164,-21645.264,16743.531
1223585.2321621228,-58503.46,-70418.74,-21136.15,-18137.045,-21669.963,-9123.779,-21652.549,16741.943
1223585.236162118,-58497.277,-70414.836,-21132.977,-18133.912,-21663.818,-9117.88,-21647.625,16745.402
1223585.2401621132,-58492.676,-70406.29,-21125.855,-18133.016,-21657.268,-9112.427,-21640.463,16753.012
1223585.2441621083,-58499.23,-70411.42,-21123.617,-18135.174,-21657.92,-9111.694,-21639.893,16760.133
1223585.2481621036,-58503.543,-70419.4,-21131.145,-18139.04,-21665.324,-9117.92,-21647.666,16759.604
1223585.2521620987,-58496.992,-70417.4,-21133.912,-18138.836,-21668.05,-9121.989,-21653.117,16751.059
1223585.2561620937,-58493.9,-70414.31,-21129.842,-18136.76,-21663.494,-9117.106,-21647.014,16756.715
1223585.260162089,-58495.934,-70412.11,-21127.564,-18136.678,-21655.479,-9111.491,-21641.643,16763.184
1223585.264162084,-58502.85,-70413.9,-21128.5,-18139.201,-21658.0,-9111.125,-21640.342,16761.922
1223585.2681620792,-58502.08,-70415.57,-21131.307,-18137.451,-21663.453,-9116.618,-21641.602,16753.215
1223585.2721620745,-58495.117,-70416.99,-21131.918,-18136.678,-21665.04,-9121.338,-21644.94,16751.424
1223585.2761620695,-58492.35,-70412.234,-21127.4,-18134.93,-21659.588,-9116.089,-21641.195,16755.412
1223585.2801620648,-58495.484,-70406.54,-21124.838,-18135.498,-21651.205,-9110.474,-21636.924,16767.416
1223585.28416206,-58504.316,-70409.71,-21128.377,-18138.062,-21653.729,-9114.909,-21642.742,16766.236
1223585.288162055,-58506.715,-70418.91,-21133.992,-18139.445,-21661.418,-9123.861,-21653.2,16758.953
1223585.2921620503,-58502.16,-70422.53,-21137.248,-18137.695,-21660.197,-9126.628,-21655.559,16754.395
1223585.2961620453,-58497.684,-70416.22,-21138.348,-18135.945,-21657.188,-9122.641,-21650.146,16755.209
1223585.3001620404,-58508.75,-70416.1,-21136.395,-18136.23,-21654.502,-9116.781,-21645.875,16759.969
1223585.3041620357,-58514.934,-70419.555,-21134.686,-18137.574,-21658.0,-9120.158,-21648.479,16763.998
1223585.3081620308,-58514.324,-70425.78,-21139.812,-18138.348,-21667.318,-9128.662,-21657.105,16761.395
1223585.312162026,-58514.57,-70435.63,-21145.06,-18138.916,-21672.852,-9134.685,-21664.062,16754.883
1223585.3161620211,-58514.16,-70431.6,-21144.287,-18136.557,-21663.33,-9131.552,-21661.377,16751.018
1223585.3201620162,-58513.88,-70425.984,-21140.422,-18136.068,-21659.303,-9125.326,-21656.7,16751.385
1223585.3241620115,-58518.72,-70427.05,-21139.08,-18136.842,-21656.576,-9123.373,-21655.64,16755.371
1223585.3281620066,-58526.164,-70437.336,-21144.572,-18138.307,-21665.812,-9131.022,-21662.11,16756.348
1223585.3321620016,-58529.42,-70449.055,-21150.676,-18140.828,-21673.545,-9136.394,-21669.19,16745.281
1223585.336161997,-58528.117,-70444.17,-21150.594,-18138.875,-21669.76,-9130.534,-21664.918,16740.113
1223585.340161992,-58520.996,-70427.695,-21139.527,-18133.383,-21657.39,-9120.158,-21652.06,16753.865
1223585.344161987,-58520.305,-70422.77,-21137.574,-18132.324,-21658.611,-9120.565,-21654.094,16760.701
1223585.3481619824,-58523.113,-70430.46,-21144.287,-18134.807,-21663.535,-9127.93,-21662.803,16753.174
1223585.3521619774,-58522.707,-70437.87,-21148.357,-18134.236,-21669.312,-9130.209,-21664.877,16744.14
1223585.3561619727,-58513.715,-70430.7,-21142.863,-18131.023,-21662.15,-9123.779,-21656.455,16748.291
1223585.3601619678,-58515.91,-70424.52,-21138.55,-18131.268,-21654.217,-9116.659,-21646.281,16760.254
1223585.3641619629,-58520.305,-70425.17,-21139.08,-18131.633,-21655.314,-9117.88,-21645.875,16766.846
1223585.3681619582,-58518.027,-70428.8,-21141.928,-18131.715,-21667.033,-9126.303,-21654.582,16760.906
1223585.3721619532,-58518.11,-70436.36,-21146.77,-18133.22,-21675.334,-9130.9,-21661.621,16753.906
1223585.3761619483,-58518.516,-70435.305,-21143.352,-18132.527,-21670.004,-9123.617,-21656.658,16759.48
1223585.3801619436,-58519.53,-70428.47,-21134.969,-18130.818,-21659.873,-9113.525,-21643.107,16773.316
1223585.3841619387,-58525.72,-70430.83,-21133.871,-18131.307,-21662.883,-9114.95,-21644.125,16772.38
1223585.388161934,-58523.926,-70440.72,-21137.736,-18131.877,-21669.354,-9123.698,-21652.467,16766.602
1223585.392161929,-58518.312,-70445.27,-21138.998,-18132.812,-21670.898,-9127.971,-21654.46,16764.283
1223585.396161924,-58513.39,-70438.766,-21135.906,-18130.371,-21661.744,-9122.763,-21645.02,16767.293
1223585.4001619194,-58522.625,-70435.14,-21131.227,-18129.354,-21656.373,-9116.049,-21641.928,16776.734
1223585.4041619145,-58523.195,-70435.43,-21130.615,-18129.15,-21662.477,-9116.984,-21643.19,16781.738
1223585.4081619096,-58522.3,-70440.02,-21137.248,-18129.191,-21668.662,-9125.244,-21648.275,16779.908
1223585.4121619049,-58522.18,-70445.31,-21143.637,-18129.762,-21668.783,-9130.493,-21653.688,16772.055
1223585.4161619,-58516.97,-70437.83,-21138.225,-18127.809,-21659.588,-9124.39,-21647.625,16775.838
1223585.420161895,-58520.145,-70436.16,-21133.342,-18128.256,-21655.152,-9119.06,-21637.615,16790.283
1223585.4241618903,-58528.484,-70440.68,-21132.977,-18129.395,-21659.059,-9121.135,-21638.062,16794.312
1223585.4281618854,-58523.805,-70444.336,-21135.54,-18127.727,-21662.354,-9127.6455,-21643.107,16786.824
1223585.4321618807,-58518.23,-70449.055,-21137.451,-18127.32,-21663.574,-9131.836,-21652.67,16777.629
1223585.4361618757,-58514.242,-70444.54,-21134.645,-18124.188,-21659.994,-9126.547,-21648.846,16780.72
1223585.4401618708,-58516.684,-70440.11,-21131.227,-18123.414,-21651.896,-9119.914,-21642.254,16783.814
1223585.444161866,-58523.805,-70441.33,-21130.494,-18124.39,-21653.402,-9121.176,-21642.945,16783.895
1223585.4481618612,-58518.637,-70445.516,-21136.678,-18125.203,-21667.562,-9131.348,-21655.723,16781.047
1223585.4521618562,-58512.777,-70450.85,-21141.236,-18125.732,-21667.4,-9133.545,-21656.943,16776.45
1223585.4561618515,-58522.098,-70450.93,-21139.69,-18126.18,-21654.014,-9126.425,-21650.025,16772.014
1223585.4601618466,-58522.91,-70445.92,-21125.326,-18123.373,-21647.34,-9120.85,-21643.963,16773.031
1223585.464161842,-58489.707,-70426.76,-21122.967,-18122.518,-21655.314,-9124.512,-21648.643,16773.602
1223585.468161837,-58471.723,-70415.125,-21129.842,-18122.885,-21661.174,-9132.895,-21659.791,16763.104
1223585.472161832,-58431.277,-70400.02,-21126.629,-18118.816,-21659.18,-9139.893,-21669.76,16751.873
1223585.4761618273,-58382.977,-70360.96,-21114.95,-18110.31,-21644.207,-9136.3125,-21669.027,16745.77
1223585.4801618224,-58339.074,-70310.586,-21103.719,-18102.58,-21628.867,-9132.731,-21666.383,16749.064
1223585.4841618175,-58302.29,-70273.03,-21101.36,-18099.854,-21624.838,-9138.144,-21672.08,16751.424
1223585.4881618128,-58271.527,-70252.73,-21102.174,-18097.535,-21629.15,-9147.461,-21684.611,16739.422
1223585.4921618078,-58245.605,-70236.21,-21101.97,-18093.303,-21626.262,-9152.385,-21692.912,16725.912
1223585.4961618031,-58231.242,-70220.99,-21098.104,-18089.64,-21617.596,-9147.095,-21687.95,16721.436
1223585.5001617982,-58219.566,-70200.28,-21088.99,-18085.775,-21606.121,-9139.079,-21678.916,16728.271
1223585.5041617933,-58223.633,-70190.06,-21086.67,-18083.13,-21604.86,-9141.684,-21680.34,16736.41
1223585.5081617886,-58229.25,-70195.15,-21092.814,-18083.863,-21611.572,-9150.473,-21687.46,16735.434
1223585.5121617836,-58232.79,-70210.62,-21098.918,-18084.92,-21614.055,-9153.483,-21691.814,16727.01
1223585.5161617787,-58236.125,-70210.37,-21102.621,-18087.322,-21614.463,-9148.234,-21688.477,16727.703
1223585.520161774,-58253.055,-70213.91,-21107.098,-18090.658,-21615.113,-9142.334,-21679.973,16744.467
1223585.524161769,-58276.164,-70230.555,-21110.393,-18093.953,-21616.7,-9142.131,-21679.973,16751.873
1223585.5281617641,-58290.773,-70249.27,-21119.67,-18097.82,-21627.727,-9150.798,-21690.146,16740.967
1223585.5321617594,-58295.535,-70260.78,-21124.594,-18098.797,-21630.82,-9153.198,-21691.65,16740.031
1223585.5361617545,-58303.1,-70268.11,-21123.006,-18097.78,-21625.45,-9146.606,-21683.879,16744.914
1223585.5401617498,-58314.984,-70269.01,-21120.564,-18098.512,-21623.008,-9139.282,-21671.998,16757.732
1223585.5441617449,-58332.48,-70277.43,-21122.64,-18102.662,-21627.117,-9140.991,-21672.242,16763.592
1223585.54816174,-58341.473,-70292.805,-21129.07,-18104.207,-21632.08,-9148.4375,-21680.258,16758.26
1223585.5521617352,-58347.332,-70303.1,-21133.18,-18104.451,-21634.238,-9152.182,-21686.035,16756.795
1223585.5561617303,-58355.797,-70307.7,-21133.465,-18102.865,-21628.053,-9145.671,-21683.96,16753.377
1223585.5601617254,-58364.383,-70309.2,-21126.953,-18102.336,-21620.688,-9137.451,-21677.043,16757.0
1223585.5641617207,-58374.51,-70313.07,-21129.639,-18104.004,-21623.943,-9140.666,-21678.102,16761.842
1223585.5681617158,-58390.465,-70329.875,-21141.398,-18110.637,-21639.69,-9152.426,-21690.512,16753.621
1223585.572161711,-58393.76,-70338.5,-21143.555,-18111.328,-21644.572,-9153.605,-21691.123,16751.262
1223585.5761617061,-58397.46,-70337.77,-21139.812,-18111.37,-21638.713,-9146.77,-21679.729,16757.365
1223585.5801617012,-58405.805,-70339.44,-21133.504,-18109.213,-21629.03,-9138.469,-21669.068,16766.316
1223585.5841616965,-58419.72,-70350.38,-21135.133,-18110.637,-21632.406,-9139.079,-21672.201,16768.555
1223585.5881616916,-58433.188,-70365.44,-21143.596,-18113.525,-21645.02,-9148.764,-21686.361,16756.43
1223585.5921616866,-58435.914,-70373.01,-21149.943,-18115.764,-21650.635,-9154.582,-21693.4,16750.285
1223585.596161682,-58436.035,-70370.81,-21145.06,-18113.77,-21643.434,-9147.787,-21684.814,16754.803
1223585.600161677,-58441.613,-70368.086,-21141.805,-18114.705,-21637.98,-9141.073,-21675.578,16763.55
1223585.604161672,-58453.74,-70374.39,-21144.857,-18116.943,-21644.207,-9143.677,-21676.514,16770.467
1223585.6081616674,-58457.277,-70381.92,-21149.74,-18118.328,-21653.281,-9152.1,-21686.809,16767.213
1223585.6121616624,-58457.684,-70387.9,-21152.1,-18117.146,-21654.297,-9155.437,-21691.732,16763.469
1223585.6161616577,-58462.16,-70388.63,-21148.602,-18114.38,-21646.201,-9149.252,-21684.408,16762.045
1223585.6201616528,-58466.637,-70386.805,-21141.398,-18111.736,-21638.998,-9142.009,-21673.625,16775.27
1223585.6241616479,-58477.664,-70393.92,-21144.084,-18113.16,-21641.969,-9143.352,-21671.225,16785.645
1223585.6281616432,-58483.44,-70405.52,-21152.752,-18116.334,-21652.629,-9150.432,-21675.66,16784.588
1223585.6321616382,-58480.43,-70410.61,-21157.268,-18117.635,-21657.39,-9152.954,-21675.09,16781.332
1223585.6361616333,-58481.61,-70410.65,-21157.186,-18121.094,-21654.094,-9148.723,-21669.678,16778.117
1223585.6401616286,-58491.984,-70413.086,-21153.035,-18121.785,-21649.537,-9139.079,-21660.238,16787.232
1223585.6441616237,-58505.09,-70420.734,-21154.826,-18123.738,-21652.06,-9141.195,-21661.988,16786.297
1223585.648161619,-58505.74,-70428.8,-21160.32,-18124.432,-21658.164,-9149.821,-21675.781,16773.885
1223585.652161614,-58502.28,-70430.14,-21164.186,-18124.635,-21661.744,-9155.478,-21682.822,16767.416
1223585.656161609,-58498.496,-70424.03,-21159.75,-18122.926,-21654.582,-9149.455,-21673.34,16775.105
1223585.6601616044,-58495.77,-70415.61,-21154.297,-18120.89,-21648.275,-9144.003,-21667.033,16785.115
1223585.6641615995,-58499.23,-70413.336,-21153.523,-18120.77,-21648.154,-9145.59,-21671.795,16783.53
1223585.6681615945,-58501.953,-70416.305,-21158.0,-18122.723,-21654.014,-9150.229,-21679.729,16777.873
1223585.6721615898,-58499.51,-70418.625,-21161.053,-18125.164,-21655.64,-9153.564,-21683.92,16776.814
1223585.676161585,-58499.15,-70420.01,-21158.691,-18123.78,-21647.422,-9148.234,-21677.898,16781.658
1223585.6801615802,-58504.965,-70418.58,-21156.088,-18124.432,-21640.707,-9145.305,-21675.13,16789.47
1223585.6841615753,-58509.24,-70418.336,-21154.623,-18126.18,-21643.516,-9146.362,-21675.172,16793.824
1223585.6881615703,-58513.105,-70427.21,-21161.785,-18130.006,-21655.803,-9152.466,-21679.24,16789.51
1223585.6921615656,-58513.918,-70433.8,-21168.416,-18131.268,-21660.605,-9156.169,-21683.594,16775.146
1223585.6961615607,-58512.86,-70430.55,-21165.691,-18130.615,-21654.664,-9149.821,-21678.102,16776.45
1223585.7001615558,-58518.15,-70427.62,-21161.947,-18130.86,-21648.805,-9141.073,-21670.127,16785.32
1223585.704161551,-58528.605,-70436.98,-21162.354,-18133.26,-21654.014,-9142.172,-21671.592,16785.197
1223585.7081615462,-58531.74,-70449.14,-21169.393,-18137.045,-21664.877,-9152.182,-21679.648,16780.273
1223585.7121615412,-58529.137,-70454.59,-21170.94,-18136.76,-21667.686,-9154.46,-21682.7,16772.908
1223585.7161615365,-58524.21,-70450.69,-21163.9,-18133.953,-21659.424,-9146.729,-21673.748,16777.914
1223585.7201615316,-58523.766,-70442.75,-21158.57,-18131.348,-21652.588,-9141.887,-21666.627,16784.912
1223585.724161527,-58530.234,-70442.586,-21161.58,-18132.0,-21655.07,-9146.444,-21673.748,16781.17
1223585.728161522,-58535.28,-70452.96,-21169.312,-18135.05,-21664.104,-9155.478,-21682.7,16778.28
1223585.732161517,-58531.17,-70457.44,-21173.137,-18134.969,-21665.203,-9159.831,-21684.611,16776.164
1223585.7361615123,-58524.336,-70451.01,-21164.998,-18130.656,-21653.037,-9152.914,-21677.084,16777.629
1223585.7401615074,-58529.297,-70447.23,-21158.326,-18129.559,-21645.549,-9147.299,-21673.057,16781.738
1223585.7441615025,-58533.816,-70453.86,-21157.186,-18130.738,-21650.676,-9153.239,-21679.566,16784.22
1223585.7481614978,-58529.867,-70455.28,-21158.814,-18129.803,-21657.227,-9161.825,-21687.988,16780.314
1223585.7521614928,-58525.39,-70455.69,-21162.395,-18131.715,-21659.303,-9164.511,-21692.139,16775.066
1223585.7561614881,-58521.324,-70452.6,-21160.36,-18131.836,-21654.705,-9158.936,-21686.484,16780.64
1223585.7601614832,-58522.383,-70445.11,-21159.506,-18130.412,-21649.414,-9153.198,-21679.729,16788.086
1223585.7641614783,-58530.97,-70447.59,-21163.209,-18131.348,-21650.879,-9155.518,-21683.39,16782.186
1223585.7681614736,-58538.86,-70463.38,-21169.678,-18134.115,-21659.912,-9164.185,-21690.146,16781.17
1223585.7721614686,-58535.645,-70464.68,-21169.271,-18131.348,-21659.018,-9166.545,-21692.139,16779.785
1223585.7761614637,-58522.42,-70451.21,-21159.871,-18127.238,-21648.275,-9161.093,-21689.414,16783.406
1223585.780161459,-58521.08,-70445.805,-21156.25,-18126.994,-21642.701,-9155.722,-21686.443,16791.871
1223585.784161454,-58528.32,-70448.98,-21161.133,-18128.215,-21645.387,-9158.977,-21688.438,16794.598
1223585.7881614491,-58528.688,-70456.055,-21164.47,-18128.215,-21652.06,-9165.69,-21694.865,16788.941
1223585.7921614444,-58519.453,-70455.0,-21164.592,-18124.146,-21651.084,-9167.358,-21697.674,16781.17
1223585.7961614395,-58521.527,-70456.42,-21162.762,-18124.064,-21646.69,-9161.499,-21689.697,16784.22
1223585.8001614348,-58522.098,-70449.875,-21155.232,-18121.705,-21639.975,-9154.826,-21679.363,16798.178
1223585.8041614299,-58523.926,-70450.32,-21153.523,-18121.705,-21638.957,-9153.687,-21676.148,16810.588
1223585.808161425,-58528.32,-70459.27,-21159.953,-18124.105,-21646.607,-9161.133,-21686.32,16806.152
1223585.8121614202,-58528.688,-70460.29,-21165.324,-18124.35,-21646.973,-9164.917,-21693.076,16796.387
1223585.8161614153,-58525.84,-70453.164,-21164.104,-18121.99,-21639.771,-9158.8955,-21688.396,16796.957
1223585.8201614104,-58530.97,-70451.42,-21162.312,-18121.258,-21635.621,-9152.06,-21679.12,16804.12
1223585.8241614057,-58538.25,-70453.695,-21164.877,-18122.926,-21639.445,-9151.733,-21676.27,16815.47
1223585.8281614007,-58538.453,-70461.06,-21170.533,-18125.285,-21647.055,-9158.691,-21683.838,16808.879
1223585.832161396,-58533.285,-70466.68,-21173.543,-18126.912,-21653.361,-9163.574,-21689.658,16801.27
1223585.836161391,-58528.484,-70462.164,-21165.771,-18123.006,-21645.346,-9156.535,-21686.973,16793.54
1223585.8401613862,-58530.805,-70456.305,-21157.146,-18119.06,-21637.86,-9151.245,-21680.014,16799.846
1223585.8441613815,-58535.402,-70457.766,-21159.791,-18121.785,-21641.236,-9154.907,-21682.334,16800.172
1223585.8481613765,-58537.438,-70465.13,-21166.668,-18124.064,-21649.74,-9161.987,-21688.111,16797.975
1223585.8521613716,-58534.71,-70468.23,-21170.33,-18123.332,-21652.182,-9164.47,-21688.314,16794.76
1223585.856161367,-58532.715,-70462.37,-21167.44,-18121.217,-21644.451,-9156.657,-21677.94,16800.578
1223585.860161362,-58533.57,-70459.8,-21164.307,-18121.705,-21641.684,-9149.74,-21671.348,16814.412
1223585.8641613573,-58536.703,-70467.45,-21163.615,-18124.39,-21648.805,-9151.489,-21673.79,16816.977
1223585.8681613524,-58537.56,-70476.32,-21166.26,-18125.082,-21655.885,-9156.738,-21679.973,16811.238
1223585.8721613474,-58533.9,-70477.46,-21168.172,-18123.373,-21657.676,-9157.878,-21682.658,16803.264
1223585.8761613427,-58535.24,-70476.24,-21165.486,-18123.129,-21654.541,-9152.426,-21675.578,16803.143
1223585.8801613378,-58537.438,-70475.22,-21160.523,-18123.047,-21650.025,-9146.933,-21668.945,16810.018
1223585.8841613329,-58544.883,-70478.27,-21162.273,-18124.432,-21654.217,-9151.042,-21671.307,16813.111
1223585.8881613282,-58545.29,-70478.68,-21167.48,-18124.715,-21659.303,-9158.081,-21679.281,16806.967
1223585.8921613232,-58538.656,-70480.02,-21169.842,-18124.188,-21660.035,-9161.377,-21685.832,16799.154
1223585.8961613183,-58537.56,-70475.71,-21166.707,-18125.652,-21654.502,-9155.966,-21683.92,16799.072
1223585.9001613136,-58538.82,-70466.23,-21160.768,-18125.203,-21648.193,-9148.071,-21678.672,16800.049
1223585.9041613087,-58541.223,-70464.97,-21158.732,-18124.146,-21650.555,-9148.112,-21677.207,16803.387
1223585.908161304,-58544.8,-70470.74,-21164.062,-18127.238,-21659.22,-9156.372,-21685.182,16800.375
1223585.912161299,-58541.71,-70472.58,-21169.8,-18126.791,-21660.238,-9160.278,-21686.89,16793.945
1223585.916161294,-58539.145,-70469.08,-21168.377,-18125.936,-21653.281,-9156.779,-21681.682,16795.086
1223585.9201612894,-58540.812,-70463.34,-21162.03,-18126.506,-21646.201,-9151.164,-21674.846,16809.814
1223585.9241612845,-58549.035,-70467.25,-21163.818,-18128.5,-21648.479,-9154.338,-21679.363,16805.46
1223585.9281612795,-58552.41,-70476.65,-21170.492,-18130.9,-21659.385,-9163.656,-21692.75,16788.697
1223585.9321612748,-58545.82,-70481.125,-21171.428,-18129.11,-21661.826,-9164.958,-21694.215,16785.035
1223585.93616127,-58542.36,-70477.74,-21166.342,-18126.385,-21653.32,-9157.064,-21684.326,16789.062
1223585.9401612652,-58552.29,-70477.22,-21165.486,-18128.133,-21650.799,-9152.182,-21677.49,16794.637
1223585.9441612603,-58565.105,-70484.58,-21174.072,-18132.203,-21656.902,-9157.715,-21680.502,16797.404
1223585.9481612553,-58562.055,-70483.52,-21180.867,-18130.818,-21657.92,-9163.371,-21686.89,16794.678
1223585.9521612506,-58548.625,-70474.94,-21182.21,-18129.883,-21654.217,-9168.579,-21693.523,16787.762
1223585.9561612457,-58547.934,-70473.92,-21178.549,-18128.988,-21649.17,-9161.011,-21684.367,16789.795
1223585.9601612408,-58554.61,-70477.17,-21174.805,-18129.518,-21648.398,-9154.013,-21677.898,16801.717
1223585.964161236,-58556.766,-70478.35,-21177.125,-18131.023,-21653.484,-9156.982,-21682.781,16803.102
1223585.9681612311,-58554.65,-70483.97,-21180.096,-18130.209,-21660.32,-9165.935,-21692.506,16792.156
1223585.9721612262,-58548.75,-70485.03,-21180.99,-18130.78,-21664.104,-9170.37,-21697.348,16781.373
1223585.9761612215,-58545.453,-70479.375,-21176.025,-18128.418,-21655.355,-9162.761,-21691.285,16778.117
1223585.9801612166,-58549.684,-70471.03,-21172.242,-18125.408,-21647.828,-9157.675,-21686.646,16785.686
1223585.9841612119,-58552.9,-70470.95,-21173.219,-18125.408,-21647.95,-9161.459,-21689.414,16794.8
1223585.988161207,-58553.145,-70477.13,-21180.055,-18126.303,-21655.07,-9169.312,-21694.824,16795.045
1223585.992161202,-58548.137,-70477.74,-21184.041,-18125.488,-21654.908,-9171.916,-21699.098,16786.133
1223585.9961611973,-58544.8,-70473.31,-21178.467,-18124.512,-21647.99,-9166.098,-21692.344,16790.73
1223586.0001611924,-58545.535,-70466.72,-21169.557,-18124.064,-21643.23,-9157.349,-21680.42,16804.363
1223586.0041611874,-58549.766,-70468.914,-21169.88,-18125.732,-21644.328,-9157.268,-21676.88,16814.373
1223586.0081611827,-58552.453,-70475.38,-21177.043,-18129.395,-21652.71,-9165.405,-21685.1,16810.791
1223586.0121611778,-58546.105,-70476.24,-21177.45,-18128.094,-21652.914,-9167.929,-21690.309,16807.943
1223586.0161611731,-58542.97,-70473.15,-21170.654,-18123.658,-21644.94,-9159.628,-21681.885,16813.273
1223586.0201611682,-58543.457,-70465.86,-21165.242,-18122.111,-21637.86,-9154.745,-21675.781,16818.156
1223586.0241611633,-58545.617,-70466.02,-21167.074,-18124.064,-21642.254,-9159.628,-21680.176,16816.691
1223586.0281611586,-58543.215,-70469.0,-21172.12,-18124.635,-21647.584,-9165.405,-21684.531,16819.621
1223586.0321611536,-58542.688,-70473.63,-21177.857,-18126.1,-21651.287,-9168.173,-21679.81,16825.195
1223586.0361611487,-58542.32,-70469.73,-21175.457,-18126.994,-21650.473,-9162.069,-21674.56,16821.209
1223586.040161144,-58543.742,-70461.34,-21169.475,-18126.344,-21648.967,-9154.663,-21666.3,16825.725
1223586.044161139,-58552.207,-70467.45,-21171.957,-18128.621,-21650.555,-9157.023,-21667.197,16828.857
1223586.0481611344,-58551.965,-70471.88,-21177.531,-18129.03,-21655.64,-9166.952,-21685.914,16814.088
1223586.0521611294,-58546.062,-70471.36,-21179.322,-18126.668,-21656.658,-9171.428,-21692.059,16800.904
1223586.0561611245,-58546.227,-70471.4,-21176.514,-18126.465,-21650.066,-9163.696,-21687.46,16798.543
1223586.0601611198,-58551.395,-70469.41,-21173.666,-18126.709,-21642.54,-9157.268,-21683.799,16804.078
1223586.0641611149,-58558.96,-70474.49,-21175.213,-18128.988,-21648.967,-9161.174,-21684.287,16810.629
1223586.06816111,-58561.363,-70479.49,-21180.99,-18129.559,-21656.861,-9166.464,-21686.361,16816.0
1223586.0721611052,-58558.676,-70481.445,-21183.025,-18129.518,-21657.188,-9168.661,-21686.768,16812.256
1223586.0761611003,-58558.758,-70480.06,-21180.014,-18130.412,-21654.502,-9161.377,-21677.613,16815.47
1223586.0801610954,-58562.83,-70476.89,-21173.463,-18130.168,-21650.879,-9153.891,-21670.29,16821.004
1223586.0841610907,-58570.52,-70481.94,-21176.025,-18130.412,-21655.64,-9155.3955,-21670.898,16832.479
1223586.0881610857,-58572.062,-70489.055,-21181.396,-18130.86,-21659.912,-9163.168,-21678.59,16826.904
1223586.092161081,-58569.094,-70491.17,-21185.344,-18130.127,-21660.85,-9166.83,-21685.467,16820.965
1223586.096161076,-58563.965,-70486.45,-21180.34,-18127.197,-21654.582,-9160.197,-21678.305,16822.145
1223586.1001610712,-58565.31,-70486.695,-21174.764,-18126.18,-21648.723,-9154.541,-21670.248,16825.604
1223586.1041610665,-58568.484,-70489.51,-21174.275,-18127.727,-21650.229,-9157.634,-21674.44,16825.848
1223586.1081610615,-58567.71,-70491.664,-21180.908,-18129.924,-21657.188,-9167.358,-21686.158,16818.604
1223586.1121610566,-58564.902,-70494.63,-21186.28,-18129.842,-21654.95,-9168.457,-21683.39,16819.256
1223586.116161052,-58560.996,-70490.97,-21181.805,-18128.133,-21642.416,-9158.488,-21673.748,16818.768
1223586.120161047,-58564.293,-70486.53,-21175.496,-18127.482,-21642.254,-9152.304,-21664.592,16824.871
1223586.1241610423,-58571.74,-70486.53,-21177.734,-18127.97,-21647.46,-9155.111,-21668.54,16827.352
1223586.1281610373,-58570.438,-70491.78,-21182.088,-18127.605,-21654.705,-9162.436,-21678.508,16823.242
1223586.1321610324,-58564.008,-70492.516,-21186.076,-18128.338,-21656.332,-9167.074,-21686.85,16809.123
1223586.1361610277,-58557.617,-70485.92,-21181.764,-18128.826,-21644.531,-9161.133,-21682.414,16805.95
1223586.1401610228,-58558.105,-70481.0,-21176.84,-18129.07,-21637.533,-9155.233,-21671.266,16818.035
1223586.1441610178,-58563.152,-70483.89,-21178.955,-18131.268,-21644.084,-9157.756,-21670.41,16828.94
1223586.1481610131,-58567.223,-70491.375,-21185.914,-18131.307,-21650.352,-9164.917,-21679.2,16825.074
1223586.1521610082,-58561.89,-70495.2,-21190.715,-18130.371,-21648.764,-9170.166,-21685.467,16815.877
1223586.1561610033,-58557.254,-70491.375,-21185.262,-18128.785,-21640.992,-9165.69,-21680.055,16819.58
1223586.1601609986,-58556.805,-70484.055,-21177.979,-18126.465,-21632.365,-9157.471,-21668.865,16839.559
1223586.1641609936,-58564.617,-70488.85,-21180.99,-18128.297,-21635.174,-9160.563,-21672.69,16841.473
1223586.168160989,-58565.066,-70494.914,-21188.803,-18130.78,-21646.607,-9172.323,-21688.477,16824.79
1223586.172160984,-58560.14,-70497.73,-21192.912,-18130.574,-21650.229,-9172.812,-21691.57,16820.11
1223586.176160979,-58559.53,-70498.13,-21189.373,-18130.941,-21643.107,-9166.057,-21682.902,16816.365
1223586.1801609744,-58564.09,-70493.9,-21182.373,-18132.732,-21640.504,-9159.994,-21677.166,16830.607
1223586.1841609695,-58570.395,-70496.87,-21181.396,-18133.627,-21646.81,-9162.964,-21678.305,16832.723
1223586.1881609645,-58567.547,-70497.11,-21184.285,-18132.812,-21649.658,-9170.451,-21683.188,16826.54
1223586.1921609598,-58564.78,-70499.15,-21192.303,-18134.521,-21649.902,-9176.025,-21685.67,16828.451
1223586.196160955,-58562.176,-70495.98,-21191.406,-18132.406,-21643.434,-9172.404,-21684.123,16828.736
1223586.2001609502,-58566.285,-70491.664,-21185.018,-18129.639,-21635.58,-9165.609,-21680.584,16838.826
1223586.2041609453,-58577.355,-70501.75,-21187.703,-18131.43,-21638.389,-9166.87,-21677.94,16843.791
1223586.2081609403,-58580.73,-70507.98,-21195.395,-18133.057,-21645.752,-9175.944,-21688.965,16832.52
1223586.2121609356,-58573.938,-70502.12,-21198.04,-18131.674,-21646.852,-9180.746,-21695.924,16822.713
1223586.2161609307,-58569.215,-70493.33,-21191.488,-18128.256,-21641.928,-9173.34,-21688.273,16826.416
1223586.2201609258,-58573.082,-70492.39,-21184.57,-18128.133,-21640.79,-9169.556,-21684.002,16831.625
1223586.224160921,-58574.547,-70494.914,-21183.594,-18128.338,-21643.84,-9173.828,-21687.053,16835.125
1223586.2281609161,-58576.457,-70501.51,-21191.041,-18129.436,-21655.355,-9183.838,-21695.883,16829.957
1223586.2321609114,-58568.848,-70499.836,-21192.059,-18126.465,-21654.502,-9184.448,-21696.29,16828.125
1223586.2361609065,-58563.03,-70495.445,-21186.768,-18121.135,-21643.31,-9176.066,-21693.32,16826.904
1223586.2401609016,-58572.754,-70498.01,-21187.826,-18122.314,-21640.098,-9171.306,-21692.303,16815.512
1223586.2441608969,-58586.062,-70505.62,-21193.727,-18125.244,-21647.014,-9175.497,-21700.725,16814.006
1223586.248160892,-58586.875,-70512.01,-21198.73,-18125.977,-21655.762,-9182.983,-21707.643,16816.488
1223586.252160887,-58584.027,-70516.36,-21198.73,-18125.123,-21656.82,-9185.222,-21708.334,16816.162
1223586.2561608823,-58577.965,-70508.914,-21191.244,-18122.314,-21648.805,-9177.897,-21703.98,16815.797
1223586.2601608774,-58575.523,-70501.63,-21183.35,-18119.06,-21644.207,-9171.469,-21696.494,16820.477
1223586.2641608724,-58578.332,-70508.016,-21184.938,-18120.688,-21647.584,-9175.334,-21697.592,16822.998
1223586.2681608677,-58579.797,-70517.7,-21188.924,-18121.217,-21654.258,-9180.095,-21702.027,16822.389
1223586.2721608628,-58577.76,-70521.94,-21192.059,-18120.2,-21656.902,-9181.479,-21707.52,16816.61
1223586.276160858,-58577.23,-70517.984,-21186.605,-18116.7,-21652.02,-9174.561,-21698.975,16812.744
1223586.2801608532,-58580.445,-70519.45,-21182.129,-18115.602,-21645.143,-9172.241,-21697.55,16810.914
1223586.2841608482,-58587.527,-70522.14,-21183.229,-18116.13,-21648.031,-9175.659,-21705.242,16805.46
1223586.2881608435,-58591.676,-70528.57,-21191.977,-18117.432,-21660.523,-9185.141,-21720.012,16792.44
1223586.2921608386,-58590.008,-70531.7,-21192.586,-18115.316,-21660.482,-9186.728,-21720.42,16790.527
1223586.2961608337,-58588.91,-70527.63,-21186.809,-18113.201,-21653.809,-9178.671,-21711.346,16792.562
1223586.300160829,-58590.254,-70520.875,-21181.111,-18114.096,-21650.188,-9173.137,-21704.102,16803.143
1223586.304160824,-58593.47,-70520.305,-21183.635,-18115.398,-21655.518,-9175.822,-21705.12,16810.629
1223586.3081608193,-58592.9,-70528.73,-21190.389,-18118.652,-21666.668,-9184.733,-21711.63,16806.6
1223586.3121608144,-58582.727,-70529.055,-21189.535,-18118.367,-21667.604,-9186.768,-21711.59,16803.02
1223586.3161608095,-58577.92,-70520.67,-21182.861,-18114.787,-21657.676,-9178.955,-21703.98,16804.322
1223586.3201608048,-58584.637,-70521.484,-21176.229,-18116.21,-21652.305,-9173.828,-21698.04,16810.344
1223586.3241607998,-58594.24,-70527.67,-21177.816,-18119.06,-21656.373,-9175.456,-21698.65,16816.65
1223586.328160795,-58598.473,-70535.93,-21184.49,-18121.502,-21666.139,-9183.879,-21707.316,16802.572
1223586.3321607902,-58593.71,-70536.3,-21188.965,-18121.746,-21664.227,-9184.408,-21708.822,16796.672
1223586.3361607853,-58588.3,-70529.46,-21185.75,-18119.793,-21654.176,-9175.985,-21697.754,16797.363
1223586.3401607804,-58587.445,-70522.38,-21181.111,-18119.549,-21646.69,-9170.207,-21688.438,16807.902
1223586.3441607757,-58592.98,-70526.29,-21181.723,-18121.582,-21651.693,-9172.038,-21687.867,16817.75
1223586.3481607707,-58592.855,-70533.37,-21184.814,-18124.635,-21663.047,-9180.461,-21696.25,16816.65
1223586.352160766,-58588.3,-70536.46,-21188.03,-18124.756,-21661.662,-9182.699,-21696.982,16813.559
1223586.356160761,-58592.367,-70534.51,-21186.89,-18123.129,-21657.594,-9174.887,-21689.738,16813.559
1223586.3601607562,-58597.25,-70532.836,-21184.123,-18125.164,-21648.723,-9171.0205,-21687.664,16810.467
1223586.3641607515,-58607.22,-70537.36,-21190.877,-18128.094,-21654.176,-9176.514,-21692.059,16810.182
1223586.3681607465,-58607.992,-70540.41,-21198.283,-18127.97,-21659.912,-9183.228,-21699.057,16805.543
1223586.3721607416,-58606.57,-70540.53,-21200.725,-18127.523,-21659.709,-9186.972,-21701.742,16803.182
1223586.376160737,-58598.51,-70534.266,-21196.045,-18125.611,-21650.229,-9181.071,-21695.232,16807.373
1223586.380160732,-58597.09,-70524.54,-21190.47,-18123.861,-21643.066,-9175.781,-21687.785,16818.807
1223586.3841607273,-58594.934,-70523.195,-21191.53,-18124.676,-21646.16,-9178.345,-21693.076,16821.941
1223586.3881607223,-58595.34,-70528.73,-21198.406,-18125.285,-21651.652,-9184.814,-21699.912,16817.18
1223586.3921607174,-58593.184,-70532.11,-21204.184,-18124.959,-21654.705,-9186.279,-21700.115,16819.621
1223586.3961607127,-58588.95,-70524.7,-21199.83,-18123.21,-21646.69,-9176.718,-21692.383,16817.871
1223586.4001607078,-58589.562,-70519.05,-21192.586,-18122.438,-21639.854,-9171.835,-21688.355,16817.709
1223586.4041607028,-58594.117,-70521.98,-21194.824,-18124.553,-21643.799,-9176.2295,-21694.377,16820.027
1223586.4081606981,-58594.035,-70527.836,-21201.416,-18124.553,-21654.664,-9181.519,-21700.928,16812.785
1223586.4121606932,-58585.41,-70527.59,-21199.098,-18122.396,-21654.623,-9181.193,-21700.44,16812.703
1223586.4161606883,-58581.383,-70524.336,-21190.064,-18119.223,-21645.184,-9173.625,-21690.35,16817.262
1223586.4201606836,-58587.527,-70527.47,-21188.924,-18119.996,-21642.13,-9166.87,-21684.652,16822.225
1223586.4241606786,-58594.727,-70532.72,-21194.418,-18124.023,-21646.201,-9171.55,-21691.244,16819.865
1223586.428160674,-58595.34,-70539.92,-21200.521,-18125.367,-21653.729,-9179.525,-21701.01,16812.988
1223586.432160669,-58596.477,-70547.37,-21206.625,-18128.5,-21659.994,-9182.373,-21707.44,16805.258
1223586.436160664,-58597.656,-70542.24,-21205.77,-18128.744,-21653.605,-9176.799,-21701.213,16805.99
1223586.4401606594,-58601.727,-70539.1,-21200.154,-18126.629,-21647.828,-9169.516,-21690.268,16819.092
1223586.4441606544,-58602.297,-70544.234,-21201.213,-18127.28,-21652.549,-9171.387,-21689.658,16823.445
1223586.4481606495,-58604.414,-70555.18,-21207.967,-18130.78,-21662.639,-9179.321,-21696.982,16820.395
1223586.4521606448,-58601.848,-70560.06,-21211.223,-18132.527,-21666.83,-9183.757,-21701.742,16812.908
1223586.4561606399,-58607.63,-70560.71,-21209.066,-18132.568,-21664.592,-9178.223,-21697.674,16810.059
1223586.4601606352,-58622.887,-70564.13,-21207.072,-18133.912,-21661.865,-9170.37,-21690.797,16815.756
1223586.4641606302,-58619.14,-70570.4,-21210.531,-18136.027,-21668.662,-9174.113,-21695.639,16816.244
1223586.4681606253,-58617.598,-70577.76,-21218.018,-18137.045,-21677.043,-9181.56,-21702.842,16820.027
1223586.4721606206,-58615.48,-70578.86,-21220.744,-18136.354,-21676.066,-9183.838,-21707.48,16810.629
1223586.4761606157,-58617.11,-70573.57,-21216.105,-18134.033,-21667.236,-9179.443,-21704.957,16800.701
1223586.4801606108,-58624.434,-70571.17,-21209.596,-18133.18,-21661.988,-9174.316,-21699.871,16803.834
1223586.484160606,-58627.973,-70571.414,-21210.164,-18133.342,-21666.504,-9178.02,-21702.963,16808.594
1223586.4881606011,-58631.145,-70579.8,-21218.182,-18136.19,-21674.316,-9188.437,-21716.35,16796.102
1223586.4921605964,-58631.39,-70584.15,-21222.9,-18134.441,-21675.498,-9191.65,-21723.389,16786.418
1223586.4961605915,-58626.06,-70575.08,-21218.344,-18129.354,-21666.3,-9184.774,-21717.326,16789.55
1223586.5001605866,-58626.953,-70571.58,-21210.328,-18128.297,-21660.035,-9178.955,-21709.96,16801.514
1223586.5041605819,-58631.836,-70577.555,-21212.24,-18129.924,-21662.639,-9181.967,-21708.252,16810.832
1223586.508160577,-58634.484,-70586.71,-21221.314,-18131.674,-21669.271,-9190.471,-21715.129,16808.188
1223586.512160572,-58626.547,-70585.414,-21221.477,-18129.842,-21669.8,-9195.231,-21720.744,16796.469
1223586.5161605673,-58622.6,-70577.4,-21218.22,-18128.662,-21661.459,-9189.413,-21716.553,16788.982
1223586.5201605624,-58620.934,-70568.69,-21215.535,-18125.611,-21653.973,-9184.692,-21712.607,16794.557
1223586.5241605574,-58625.41,-70568.89,-21219.32,-18125.447,-21656.78,-9192.18,-21718.223,16794.598
1223586.5281605527,-58627.65,-70573.28,-21225.342,-18125.285,-21662.803,-9199.504,-21726.035,16793.01
1223586.5321605478,-58625.164,-70575.73,-21228.924,-18124.47,-21666.79,-9200.725,-21730.469,16785.4
1223586.536160543,-58627.402,-70576.336,-21225.262,-18125.408,-21663.78,-9194.255,-21725.627,16782.268
1223586.5401605382,-58634.402,-70577.76,-21222.82,-18125.57,-21658.936,-9189.047,-21718.994,16794.068
1223586.5441605332,-58634.727,-70572.1,-21225.465,-18125.488,-21660.035,-9194.906,-21721.762,16802.693
1223586.5481605285,-58632.164,-70570.805,-21233.562,-18125.123,-21666.545,-9204.753,-21728.271,16801.066
1223586.5521605236,-58628.746,-70572.59,-21238.281,-18126.059,-21670.818,-9206.95,-21731.568,16794.475
1223586.5561605187,-58625.938,-70567.67,-21232.83,-18125.936,-21664.186,-9199.545,-21724.814,16790.812
1223586.560160514,-58630.535,-70562.91,-21227.254,-18126.791,-21660.238,-9194.214,-21716.229,16801.27
1223586.564160509,-58634.93,-70562.83,-21229.615,-18127.564,-21662.72,-9197.592,-21718.588,16803.752
1223586.5681605043,-58631.145,-70564.82,-21234.334,-18127.686,-21668.865,-9207.642,-21727.947,16792.36
1223586.5721604994,-58626.465,-70564.414,-21232.016,-18126.385,-21667.36,-9209.473,-21726.97,16794.434
1223586.5761604945,-58620.688,-70556.93,-21225.506,-18124.309,-21657.064,-9201.904,-21720.379,16796.63
1223586.5801604898,-58620.89,-70552.05,-21218.914,-18123.291,-21651.775,-9197.876,-21715.129,16798.87
1223586.5841604848,-58625.53,-70551.64,-21218.709,-18124.309,-21657.268,-9202.434,-21715.252,16809.611
1223586.58816048,-58629.52,-70558.72,-21225.098,-18126.059,-21664.674,-9208.456,-21721.72,16806.316
1223586.5921604752,-58622.684,-70558.68,-21224.812,-18125.326,-21662.436,-9208.008,-21721.762,16801.596
1223586.5961604703,-58618.086,-70554.85,-21217.326,-18123.943,-21654.094,-9201.823,-21713.584,16807.17
1223586.6001604653,-58622.234,-70550.336,-21214.234,-18123.902,-21647.787,-9197.429,-21708.213,16812.785
1223586.6041604606,-58624.51,-70552.734,-21218.018,-18126.709,-21650.432,-9201.986,-21712.81,16812.908
1223586.6081604557,-58625.773,-70562.016,-21224.203,-18129.03,-21656.82,-9209.758,-21722.332,16810.67
1223586.612160451,-58621.34,-70563.73,-21225.424,-18129.232,-21657.594,-9212.199,-21724.0,16806.723
1223586.616160446,-58615.6,-70554.37,-21218.506,-18126.1,-21648.398,-9206.381,-21717.652,16808.309
1223586.6201604411,-58612.51,-70546.19,-21208.578,-18121.094,-21641.846,-9197.917,-21711.67,16816.773
1223586.6241604364,-58616.05,-70547.89,-21211.102,-18123.006,-21646.201,-9200.806,-21713.746,16826.416
1223586.6281604315,-58613.28,-70556.68,-21216.92,-18123.658,-21656.17,-9209.27,-21724.326,16816.285
1223586.6321604266,-58609.785,-70561.41,-21220.785,-18122.273,-21657.064,-9213.339,-21730.51,16809.164
1223586.636160422,-58607.504,-70556.68,-21215.576,-18119.426,-21647.543,-9206.991,-21724.162,16813.6
1223586.640160417,-58611.74,-70554.0,-21210.531,-18117.39,-21641.521,-9201.904,-21718.914,16815.512
1223586.6441604123,-58613.445,-70559.37,-21211.508,-18118.652,-21648.113,-9206.625,-21723.674,16817.139
1223586.6481604073,-58612.836,-70567.305,-21217.082,-18119.955,-21655.926,-9212.28,-21728.232,16815.105
1223586.6521604024,-58609.703,-70571.375,-21217.938,-18120.281,-21656.129,-9211.996,-21726.115,16811.443
1223586.6561603977,-58606.652,-70567.266,-21210.164,-18117.92,-21650.146,-9202.922,-21715.861,16814.088
1223586.6601603928,-58612.715,-70566.125,-21207.56,-18118.328,-21646.648,-9197.185,-21709.229,16824.26
1223586.6641603878,-58619.55,-70569.5,-21211.182,-18118.816,-21650.92,-9200.48,-21711.67,16831.625
1223586.6681603831,-58618.86,-70572.59,-21217.855,-18120.973,-21657.268,-9208.008,-21717.979,16824.79
1223586.6721603782,-58613.203,-70575.445,-21219.89,-18122.03,-21659.832,-9210.124,-21717.611,16825.074
1223586.6761603735,-58608.97,-70571.45,-21214.111,-18119.06,-21652.67,-9201.823,-21708.375,16827.312
1223586.6801603686,-58610.965,-70570.56,-21209.025,-18118.084,-21647.055,-9195.476,-21701.01,16832.764
1223586.6841603636,-58618.734,-70578.58,-21210.775,-18120.89,-21654.746,-9199.016,-21702.8,16836.467
1223586.688160359,-58621.91,-70589.27,-21215.373,-18121.541,-21663.738,-9204.753,-21710.166,16831.463
1223586.692160354,-58617.92,-70591.43,-21217.082,-18121.541,-21662.07,-9206.787,-21715.496,16824.383
1223586.696160349,-58618.9,-70590.21,-21211.629,-18121.176,-21656.373,-9199.829,-21708.863,16828.857
1223586.7001603444,-58623.984,-70588.664,-21208.781,-18119.549,-21652.752,-9191.772,-21699.951,16835.164
1223586.7041603394,-58624.23,-70590.91,-21215.129,-18121.094,-21656.455,-9196.208,-21703.654,16834.188
1223586.7081603345,-58616.945,-70590.25,-21221.803,-18121.908,-21662.15,-9207.194,-21714.844,16826.904
1223586.7121603298,-58610.965,-70593.55,-21224.65,-18120.117,-21661.582,-9207.357,-21712.729,16831.299
1223586.7161603249,-58608.156,-70590.5,-21218.303,-18116.943,-21653.809,-9199.179,-21702.027,16841.064
1223586.7201603202,-58611.74,-70587.24,-21214.031,-18116.496,-21648.479,-9196.371,-21699.83,16839.885
1223586.7241603152,-58621.137,-70593.266,-21216.309,-18117.92,-21653.361,-9198.853,-21703.533,16838.908
1223586.7281603103,-58621.258,-70599.2,-21221.68,-18117.717,-21661.459,-9206.787,-21712.281,16839.559
1223586.7321603056,-58618.652,-70601.73,-21225.018,-18118.328,-21662.883,-9209.636,-21715.129,16834.637
1223586.7361603007,-58614.098,-70594.52,-21219.605,-18116.822,-21654.014,-9202.148,-21711.955,16823.406
1223586.7401602957,-58613.406,-70586.305,-21213.95,-18115.602,-21649.008,-9197.144,-21707.725,16829.102
1223586.744160291,-58616.457,-70589.234,-21216.512,-18118.531,-21653.932,-9201.538,-21712.688,16833.66
1223586.748160286,-58616.824,-70596.48,-21221.518,-18120.281,-21660.727,-9209.677,-21723.064,16828.613
1223586.7521602814,-58614.746,-70597.984,-21225.668,-18118.979,-21661.744,-9212.402,-21726.36,16826.62
1223586.7561602765,-58610.516,-70590.17,-21221.273,-18116.09,-21652.996,-9204.468,-21717.246,16833.334
1223586.7601602715,-58613.527,-70582.07,-21217.041,-18113.445,-21647.625,-9198.242,-21714.072,16830.445
1223586.7641602668,-58618.043,-70584.48,-21217.326,-18113.16,-21651.084,-9202.597,-21720.5,16829.06
1223586.768160262,-58615.97,-70586.305,-21221.477,-18114.46,-21656.982,-9211.182,-21726.441,16825.521
1223586.772160257,-58609.785,-70585.49,-21221.883,-18112.225,-21655.967,-9211.06,-21722.453,16827.352
1223586.7761602523,-58604.777,-70578.984,-21216.432,-18110.31,-21648.926,-9202.434,-21712.89,16830.445
1223586.7801602473,-58604.004,-70574.016,-21209.473,-18109.498,-21643.799,-9198.08,-21706.178,16840.21
1223586.7841602424,-58609.785,-70582.56,-21212.85,-18111.613,-21653.605,-9203.776,-21710.693,16848.877
1223586.7881602377,-58608.684,-70587.93,-21216.268,-18112.264,-21660.197,-9210.327,-21716.838,16850.709
1223586.7921602328,-58600.75,-70587.0,-21217.164,-18111.328,-21658.53,-9214.396,-21720.42,16844.035
1223586.796160228,-58594.445,-70581.71,-21212.605,-18108.398,-21650.717,-9207.153,-21712.932,16847.738
1223586.8001602232,-58600.305,-70577.64,-21209.799,-18107.38,-21645.752,-9200.358,-21703.857,16859.375
1223586.8041602182,-58610.883,-70586.02,-21216.064,-18109.578,-21650.473,-9203.369,-21707.602,16861.125
1223586.8081602135,-58609.62,-70590.984,-21220.135,-18110.31,-21656.576,-9208.862,-21714.764,16854.695
1223586.8121602086,-58603.355,-70590.66,-21220.785,-18111.41,-21657.594,-9210.409,-21717.979,16845.215
1223586.8161602037,-58601.402,-70585.37,-21213.299,-18110.19,-21651.652,-9203.41,-21709.473,16847.535
1223586.820160199,-58602.99,-70582.44,-21207.234,-18108.807,-21647.258,-9199.179,-21703.045,16852.621
1223586.824160194,-58607.832,-70584.02,-21210.938,-18109.578,-21653.076,-9205.404,-21710.246,16849.406
1223586.8281601893,-58611.695,-70589.36,-21219.441,-18112.875,-21661.133,-9214.763,-21719.727,16844.523
1223586.8321601844,-58606.652,-70589.766,-21223.512,-18112.752,-21659.994,-9215.536,-21717.814,16842.693
1223586.8361601795,-58608.684,-70588.22,-21222.371,-18110.555,-21652.467,-9205.7295,-21709.799,16840.496
1223586.8401601748,-58616.62,-70589.68,-21219.361,-18112.184,-21649.984,-9200.806,-21703.613,16840.129
1223586.8441601698,-58627.08,-70597.91,-21222.047,-18115.316,-21656.943,-9205.974,-21709.678,16841.023
1223586.848160165,-58627.566,-70605.555,-21226.4,-18118.123,-21665.732,-9212.402,-21715.049,16836.305
1223586.8521601602,-58621.46,-70605.06,-21225.139,-18117.025,-21665.691,-9210.165,-21714.072,16832.357
1223586.8561601553,-58623.902,-70603.44,-21221.803,-18115.193,-21660.197,-9203.247,-21709.84,16834.92
1223586.8601601506,-58630.656,-70596.07,-21220.988,-18114.746,-21654.623,-9201.172,-21706.87,16844.727
1223586.8641601456,-58631.27,-70592.2,-21224.203,-18116.7,-21654.176,-9207.805,-21710.043,16849.08
1223586.8681601407,-58626.67,-70593.55,-21229.574,-18116.62,-21658.814,-9214.478,-21713.95,16847.494
1223586.872160136,-58618.37,-70592.33,-21229.004,-18114.584,-21659.668,-9213.989,-21717.164,16836.305
1223586.876160131,-58615.4,-70587.77,-21223.797,-18111.287,-21650.473,-9205.688,-21710.979,16845.297
1223586.8801601261,-58616.945,-70583.58,-21219.727,-18111.451,-21646.852,-9199.992,-21702.434,16857.26
1223586.8841601214,-58617.188,-70584.96,-21218.873,-18112.549,-21651.572,-9203.166,-21703.654,16854.615
1223586.8881601165,-58624.023,-70594.766,-21223.592,-18115.52,-21660.32,-9212.443,-21714.926,16844.809
1223586.8921601116,-58622.926,-70603.03,-21225.75,-18116.414,-21663.33,-9212.891,-21717.002,16841.473
1223586.8961601069,-58624.555,-70605.1,-21224.324,-18115.682,-21655.682,-9204.956,-21708.701,16843.303
1223586.900160102,-58625.0,-70595.5,-21221.639,-18114.055,-21648.52,-9199.951,-21704.469,16848.104
1223586.9041600972,-58622.766,-70589.766,-21224.324,-18114.258,-21649.863,-9205.566,-21713.014,16846.232
1223586.9081600923,-58619.348,-70594.98,-21230.104,-18115.193,-21657.512,-9214.152,-21722.129,16837.24
1223586.9121600874,-58613.65,-70593.79,-21230.389,-18113.69,-21662.559,-9215.739,-21724.203,16834.84
1223586.9161600827,-58610.516,-70589.16,-21224.244,-18111.531,-21649.658,-9208.578,-21711.467,16840.74
1223586.9201600777,-58619.996,-70591.8,-21219.482,-18112.305,-21643.434,-9205.241,-21708.66,16847.941
1223586.9241600728,-58626.793,-70596.72,-21223.797,-18115.072,-21650.432,-9211.752,-21716.188,16849.936
1223586.928160068,-58624.758,-70604.984,-21228.76,-18116.008,-21658.408,-9219.32,-21721.803,16854.94
1223586.9321600632,-58616.09,-70598.516,-21230.428,-18113.607,-21656.982,-9221.477,-21724.285,16854.29
1223586.9361600585,-58615.195,-70590.17,-21226.521,-18111.613,-21644.898,-9215.78,-21720.744,16848.145
1223586.9401600535,-58620.688,-70584.516,-21223.512,-18110.434,-21636.963,-9210.043,-21716.025,16856.486
1223586.9441600486,-58625.207,-70588.34,-21224.447,-18111.248,-21640.26,-9214.763,-21717.734,16859.375
1223586.948160044,-58627.32,-70595.586,-21231.771,-18112.469,-21650.473,-9221.273,-21725.262,16852.254
1223586.952160039,-58623.457,-70598.31,-21234.213,-18112.916,-21654.623,-9223.552,-21729.98,16843.344
1223586.956160034,-58620.04,-70594.98,-21228.8,-18109.172,-21645.996,-9217.489,-21725.098,16841.35
1223586.9601600294,-58623.617,-70588.87,-21224.324,-18108.766,-21643.19,-9212.6875,-21716.27,16852.986
1223586.9641600244,-58627.16,-70589.84,-21224.812,-18110.19,-21647.258,-9213.542,-21714.52,16866.578
1223586.9681600195,-58625.613,-70593.75,-21228.516,-18112.428,-21655.438,-9220.541,-21724.895,16860.516
1223586.9721600148,-58620.445,-70593.914,-21230.51,-18113.24,-21652.71,-9225.586,-21734.66,16849.488
1223586.9761600099,-58624.105,-70590.82,-21228.068,-18113.607,-21642.295,-9219.32,-21729.29,16843.709
1223586.9801600052,-58634.688,-70590.86,-21226.238,-18115.193,-21646.037,-9213.908,-21722.088,16845.338
1223586.9841600002,-58637.86,-70594.93,-21228.842,-18117.514,-21652.67,-9218.954,-21723.715,16848.715
1223586.9881599953,-58640.87,-70604.695,-21235.148,-18118.775,-21659.912,-9225.546,-21730.754,16850.22
1223586.9921599906,-58639.73,-70610.31,-21238.12,-18118.611,-21661.906,-9225.871,-21734.824,16846.03
1223586.9961599857,-58635.742,-70603.88,-21232.178,-18115.967,-21652.832,-9218.303,-21726.318,16846.314
1223587.0001599807,-58642.5,-70607.14,-21229.9,-18117.92,-21652.793,-9215.007,-21719.523,16855.225
1223587.004159976,-58649.133,-70613.445,-21233.766,-18120.729,-21658.57,-9220.012,-21723.268,16856.527
1223587.008159971,-58648.36,-70617.19,-21240.926,-18122.682,-21660.076,-9227.214,-21731.283,16854.9
1223587.0121599664,-58644.453,-70617.88,-21240.926,-18122.762,-21661.826,-9226.237,-21728.76,16853.11
1223587.0161599615,-58646.12,-70612.875,-21232.666,-18119.832,-21658.164,-9219.32,-21719.768,16853.719
1223587.0201599565,-58653.04,-70609.3,-21229.004,-18120.076,-21658.367,-9217.529,-21718.344,16856.201
1223587.0241599518,-58660.81,-70615.6,-21234.375,-18124.35,-21666.139,-9224.772,-21722.861,16859.578
1223587.028159947,-58657.473,-70618.734,-21240.316,-18124.635,-21672.283,-9233.032,-21730.795,16861.084
1223587.032159942,-58647.95,-70617.31,-21243.328,-18123.617,-21671.021,-9234.863,-21735.963,16851.156
1223587.0361599373,-58642.254,-70609.54,-21236.613,-18121.502,-21663.86,-9227.133,-21730.55,16846.395
1223587.0401599323,-58639.773,-70601.56,-21229.86,-18118.693,-21657.797,-9221.64,-21722.861,16854.656
1223587.0441599276,-58644.043,-70604.01,-21232.3,-18120.076,-21659.303,-9225.261,-21725.22,16860.88
1223587.0481599227,-58644.33,-70612.555,-21239.299,-18121.95,-21663.574,-9232.829,-21735.393,16852.662
1223587.0521599178,-58640.625,-70612.76,-21239.705,-18119.873,-21664.877,-9234.457,-21739.746,16842.0
1223587.056159913,-58636.72,-70605.39,-21232.463,-18115.154,-21658.164,-9225.993,-21732.057,16840.7
1223587.0601599081,-58636.438,-70596.805,-21227.783,-18115.113,-21648.154,-9219.36,-21723.715,16849.285
1223587.0641599032,-58637.98,-70597.17,-21231.121,-18116.414,-21649.578,-9222.453,-21724.732,16855.55
1223587.0681598985,-58639.57,-70605.63,-21234.986,-18117.717,-21656.25,-9228.027,-21727.906,16856.69
1223587.0721598936,-58636.07,-70609.375,-21235.027,-18116.375,-21655.273,-9227.987,-21728.8,16856.283
1223587.0761598886,-58636.07,-70605.875,-21228.842,-18112.713,-21648.193,-9217.367,-21720.42,16860.352
1223587.080159884,-58639.527,-70599.86,-21224.162,-18110.76,-21644.41,-9210.653,-21714.844,16866.414
1223587.084159879,-58641.81,-70603.27,-21228.395,-18112.264,-21653.932,-9215.332,-21717.285,16868.408
1223587.0881598743,-58640.016,-70607.79,-21234.986,-18112.225,-21660.645,-9221.3955,-21724.365,16868.205
1223587.0921598694,-58633.18,-70608.36,-21235.799,-18111.816,-21660.686,-9221.477,-21726.604,16868.734
1223587.0961598644,-58632.69,-70602.945,-21230.51,-18110.84,-21653.688,-9212.524,-21715.658,16869.629
1223587.1001598598,-58633.465,-70594.36,-21224.936,-18109.701,-21652.264,-9207.316,-21706.178,16876.912
1223587.1041598548,-58634.402,-70597.58,-21226.482,-18110.434,-21654.908,-9210.979,-21711.752,16884.277
1223587.10815985,-58630.09,-70607.055,-21232.137,-18111.451,-21664.307,-9217.855,-21720.215,16883.26
1223587.1121598452,-58625.53,-70610.92,-21235.922,-18109.904,-21658.652,-9217.8955,-21721.436,16880.168
1223587.1161598403,-58638.39,-70610.516,-21238.69,-18108.807,-21648.438,-9209.27,-21710.775,16873.088
1223587.1201598356,-58642.17,-70607.875,-21227.703,-18105.754,-21648.193,-9204.387,-21704.387,16880.25
1223587.1241598306,-58622.56,-70598.39,-21218.465,-18104.248,-21653.484,-9212.524,-21717.408,16883.992
1223587.1281598257,-58626.426,-70606.0,-21229.777,-18108.357,-21663.818,-9220.459,-21727.865,16888.062
1223587.132159821,-58631.594,-70616.984,-21230.389,-18109.213,-21666.545,-9217.978,-21722.535,16902.752
1223587.136159816,-58625.45,-70609.26,-21221.07,-18106.121,-21657.064,-9211.467,-21719.523,16879.803
1223587.1401598111,-58625.45,-70604.945,-21213.623,-18105.104,-21653.32,-9205.893,-21716.064,16872.803
1223587.1441598064,-58625.246,-70609.01,-21213.99,-18106.445,-21658.082,-9209.025,-21717.938,16881.47
1223587.1481598015,-58628.95,-70617.11,-21222.209,-18107.057,-21663.818,-9218.384,-21725.262,16876.588
1223587.1521597966,-58634.523,-70628.7,-21224.041,-18107.79,-21663.982,-9217.367,-21723.064,16876.465
1223587.1561597919,-58638.184,-70631.15,-21218.588,-18109.742,-21659.424,-9209.758,-21716.064,16878.297
1223587.160159787,-58649.133,-70635.055,-21216.064,-18110.922,-21659.262,-9204.712,-21709.025,16886.027
1223587.1641597822,-58658.9,-70645.266,-21220.338,-18112.305,-21668.986,-9209.106,-21712.484,16891.643
1223587.1681597773,-58667.848,-70661.87,-21227.174,-18113.69,-21679.16,-9215.942,-21717.814,16894.166
1223587.1721597724,-58668.254,-70668.09,-21229.695,-18115.602,-21679.2,-9215.902,-21715.496,16894.451
1223587.1761597677,-58673.34,-70667.65,-21223.227,-18113.16,-21670.166,-9204.672,-21703.736,16900.31
1223587.1801597627,-58681.52,-70670.375,-21218.914,-18112.346,-21667.521,-9199.748,-21697.021,16908.285
1223587.1841597578,-58693.93,-70679.164,-21221.477,-18115.602,-21677.207,-9204.102,-21701.742,16906.941
1223587.188159753,-58698.69,-70687.055,-21228.395,-18117.025,-21686.158,-9215.17,-21713.34,16902.914
1223587.1921597482,-58701.824,-70695.234,-21227.703,-18115.926,-21685.629,-9217.041,-21714.234,16902.588
1223587.1961597435,-58704.67,-70693.93,-21223.836,-18113.69,-21678.916,-9207.4795,-21704.834,16906.494
1223587.2001597385,-58708.78,-70695.27,-21222.78,-18113.81,-21676.352,-9201.945,-21699.748,16917.115
1223587.2041597336,-58710.98,-70701.13,-21226.889,-18115.805,-21681.072,-9206.706,-21704.957,16917.48
1223587.208159729,-58718.547,-70713.586,-21231.975,-18115.316,-21686.688,-9214.111,-21716.432,16895.02
1223587.212159724,-58724.45,-70721.6,-21233.807,-18113.322,-21686.484,-9214.641,-21719.932,16880.047
1223587.216159719,-58715.254,-70711.836,-21231.445,-18111.736,-21677.816,-9210.165,-21716.92,16874.432
1223587.2201597143,-58715.293,-70707.03,-21227.092,-18111.531,-21674.316,-9206.828,-21710.775,16886.11
1223587.2241597094,-58717.855,-70710.05,-21227.377,-18110.516,-21678.305,-9210.449,-21711.834,16899.658
1223587.2281597047,-58713.46,-70714.44,-21226.848,-18108.602,-21682.17,-9217.204,-21713.543,16905.232
1223587.2321596998,-58713.22,-70720.42,-21228.516,-18109.295,-21684.002,-9217.692,-21711.264,16903.523
1223587.2361596948,-58716.92,-70719.61,-21227.174,-18107.992,-21676.393,-9209.961,-21700.766,16900.473
1223587.2401596901,-58720.785,-70717.2,-21222.697,-18108.887,-21671.469,-9205.485,-21693.686,16904.582
1223587.2441596852,-58722.656,-70717.2,-21223.756,-18110.434,-21675.701,-9211.792,-21698.854,16910.238
1223587.2481596803,-58722.168,-70717.734,-21229.695,-18111.207,-21682.293,-9221.965,-21710.49,16910.727
1223587.2521596756,-58718.47,-70720.3,-21230.021,-18111.166,-21683.92,-9225.342,-21713.746,16907.47
1223587.2561596707,-58714.48,-70715.82,-21224.162,-18109.498,-21675.498,-9218.71,-21707.764,16904.541
1223587.2601596657,-58715.05,-70710.66,-21217.326,-18107.137,-21669.76,-9213.135,-21700.766,16911.865
1223587.264159661,-58725.18,-70719.56,-21221.232,-18107.992,-21677.695,-9216.228,-21705.648,16911.053
1223587.268159656,-58729.332,-70731.61,-21229.33,-18108.357,-21685.344,-9222.168,-21714.6,16912.273
1223587.2721596514,-58725.06,-70731.37,-21234.62,-18109.66,-21685.182,-9226.359,-21719.32,16905.03
1223587.2761596465,-58728.64,-70724.086,-21231.771,-18107.137,-21677.41,-9219.768,-21713.135,16904.42
1223587.2801596415,-58738.28,-70722.91,-21231.69,-18105.836,-21675.498,-9215.983,-21709.025,16910.93
1223587.2841596368,-58745.363,-70728.92,-21237.02,-18105.672,-21679.16,-9221.68,-21711.264,16915.73
1223587.288159632,-58741.418,-70735.234,-21241.62,-18105.062,-21681.602,-9228.557,-21716.797,16912.8
1223587.292159627,-58737.227,-70739.14,-21241.455,-18102.174,-21677.775,-9226.848,-21717.938,16900.92
1223587.2961596223,-58738.04,-70739.95,-21239.014,-18100.709,-21671.225,-9217.529,-21710.898,16895.834
1223587.3001596173,-58744.957,-70740.766,-21236.613,-18101.93,-21669.354,-9212.606,-21706.463,16900.555
1223587.3041596126,-58752.727,-70745.484,-21243.328,-18105.836,-21676.678,-9218.466,-21712.402,16900.146
1223587.3081596077,-58755.535,-70751.95,-21253.582,-18109.986,-21686.443,-9226.726,-21723.715,16888.143
1223587.3121596028,-58749.188,-70748.336,-21255.371,-18109.66,-21687.5,-9229.004,-21727.906,16876.75
1223587.316159598,-58744.59,-70742.07,-21247.07,-18106.404,-21680.705,-9222.697,-21721.885,16874.715
1223587.3201595931,-58746.95,-70738.24,-21238.16,-18104.207,-21676.107,-9216.635,-21713.379,16883.586
1223587.3241595882,-58754.234,-70741.945,-21239.666,-18107.83,-21681.764,-9221.477,-21715.984,16887.33
1223587.3281595835,-58755.13,-70749.27,-21248.414,-18110.922,-21689.25,-9227.539,-21719.523,16889.852
1223587.3321595786,-58748.414,-70750.695,-21252.197,-18110.31,-21690.35,-9227.336,-21718.588,16891.154
1223587.3361595736,-58751.1,-70747.44,-21250.203,-18108.684,-21684.326,-9219.564,-21712.932,16883.912
1223587.340159569,-58767.785,-70755.695,-21249.553,-18111.125,-21682.7,-9212.891,-21705.934,16894.246
1223587.344159564,-58764.324,-70754.44,-21252.645,-18114.666,-21686.932,-9219.809,-21712.281,16899.861
1223587.3481595593,-58742.555,-70742.44,-21251.506,-18111.207,-21692.547,-9229.004,-21722.9,16894.49
1223587.3521595544,-58731.652,-70735.88,-21249.309,-18107.666,-21691.244,-9232.056,-21726.562,16893.922
1223587.3561595494,-58732.79,-70731.04,-21246.379,-18106.324,-21683.635,-9226.115,-21719.035,16899.252
1223587.3601595447,-58737.145,-70727.3,-21242.758,-18105.713,-21676.107,-9219.442,-21711.346,16909.627
1223587.3641595398,-58738.977,-70731.28,-21243.693,-18107.098,-21680.87,-9224.65,-21715.984,16913.006
1223587.3681595349,-58739.83,-70737.02,-21250.164,-18107.666,-21688.355,-9235.148,-21727.744,16902.873
1223587.3721595302,-58735.598,-70738.445,-21253.459,-18108.807,-21687.46,-9237.183,-21729.736,16898.438
1223587.3761595252,-58731.977,-70732.46,-21248.006,-18105.633,-21678.549,-9229.614,-21722.453,16894.654
1223587.3801595205,-58735.965,-70727.99,-21242.555,-18104.492,-21673.828,-9224.813,-21718.791,16897.625
1223587.3841595156,-58739.3,-70732.55,-21245.564,-18106.445,-21677.166,-9231.894,-21725.22,16902.67
1223587.3881595107,-58739.055,-70741.58,-21252.482,-18107.951,-21684.326,-9240.153,-21731.283,16899.334
1223587.392159506,-58736.33,-70745.0,-21253.785,-18107.951,-21683.635,-9239.136,-21726.889,16904.42
1223587.396159501,-58735.598,-70734.5,-21247.479,-18106.04,-21670.086,-9229.98,-21716.797,16911.133
1223587.400159496,-58734.824,-70724.53,-21243.938,-18106.61,-21664.795,-9227.946,-21713.95,16912.395
1223587.4041594914,-58730.957,-70722.13,-21244.752,-18108.074,-21671.63,-9231.894,-21717.002,16921.225
1223587.4081594865,-58727.54,-70725.51,-21247.64,-18109.172,-21679.363,-9235.881,-21718.994,16924.357
1223587.4121594818,-58719.85,-70728.11,-21246.217,-18107.137,-21678.305,-9235.8,-21717.693,16926.596
1223587.4161594769,-58719.727,-70726.445,-21238.078,-18104.695,-21669.842,-9225.708,-21707.602,16932.049
1223587.420159472,-58727.54,-70727.58,-21235.23,-18106.486,-21667.441,-9222.656,-21702.434,16939.941
1223587.4241594672,-58735.72,-70733.08,-21239.625,-18110.596,-21674.56,-9228.679,-21704.672,16953.328
1223587.4281594623,-58733.97,-70738.484,-21245.932,-18111.043,-21683.432,-9236.776,-21712.12,16949.707
1223587.4321594574,-58727.215,-70740.4,-21246.582,-18112.02,-21683.188,-9236.003,-21712.322,16941.365
1223587.4361594527,-58724.938,-70732.51,-21240.357,-18109.701,-21676.799,-9228.76,-21703.33,16941.041
1223587.4401594477,-58733.93,-70729.78,-21237.428,-18110.88,-21675.986,-9225.302,-21698.162,16947.186
1223587.4441594428,-58737.875,-70733.28,-21239.502,-18114.137,-21683.39,-9230.429,-21704.307,16953.451
1223587.448159438,-58738.04,-70742.76,-21246.297,-18116.252,-21691.855,-9236.694,-21712.12,16950.887
1223587.4521594332,-58733.93,-70743.98,-21248.006,-18116.008,-21691.855,-9236.694,-21709.96,16953.533
1223587.4561594285,-58734.703,-70736.62,-21243.328,-18113.852,-21686.076,-9228.557,-21701.295,16957.684
1223587.4601594235,-58744.266,-70736.49,-21239.625,-18114.91,-21685.508,-9224.447,-21700.115,16953.695
1223587.4641594186,-58749.758,-70742.44,-21244.71,-18116.414,-21691.162,-9231.608,-21712.607,16942.586
1223587.468159414,-58746.504,-70746.38,-21253.338,-18117.92,-21697.43,-9241.903,-21727.459,16931.926
1223587.472159409,-58751.67,-70754.56,-21258.504,-18118.246,-21697.959,-9241.415,-21728.883,16925.863
1223587.476159404,-58764.324,-70762.78,-21259.725,-18116.62,-21690.715,-9230.021,-21715.332,16928.71
1223587.4801593993,-58763.39,-70757.85,-21257.08,-18114.584,-21683.555,-9227.458,-21712.443,16929.24
1223587.4841593944,-58733.97,-70728.516,-21253.947,-18109.863,-21680.99,-9234.375,-21719.2,16933.514
1223587.4881593897,-58693.688,-70699.99,-21252.93,-18104.9,-21679.281,-9241.821,-21729.209,16925.822
1223587.4921593848,-58660.566,-70681.4,-21250.285,-18102.498,-21678.428,-9242.88,-21732.91,16923.787
1223587.4961593798,-58629.56,-70655.805,-21240.56,-18097.615,-21670.004,-9237.224,-21733.44,16911.58
1223587.5001593751,-58590.375,-70610.03,-21229.248,-18090.17,-21657.188,-9237.631,-21738.16,16899.049
1223587.5041593702,-58562.176,-70584.84,-21226.93,-18085.49,-21655.559,-9244.833,-21749.635,16895.59
1223587.5081593653,-58515.016,-70552.94,-21225.465,-18079.59,-21653.688,-9256.063,-21768.271,16874.064
1223587.5121593606,-58481.934,-70522.016,-21224.61,-18074.098,-21643.31,-9257.772,-21775.92,16863.12
1223587.5161593556,-58453.453,-70492.516,-21218.426,-18067.262,-21626.506,-9253.256,-21774.049,16858.113
1223587.5201593507,-58447.227,-70479.82,-21215.617,-18063.518,-21620.24,-9251.465,-21772.828,16861.736
1223587.524159346,-58438.56,-70471.766,-21215.617,-18061.85,-21621.217,-9259.481,-21781.7,16855.469
1223587.528159341,-58430.46,-70472.91,-21218.22,-18058.838,-21628.338,-9268.311,-21791.3,16847.615
1223587.5321593364,-58435.754,-70478.27,-21215.74,-18055.543,-21626.709,-9271.688,-21794.475,16847.25
1223587.5361593314,-58395.227,-70448.9,-21208.172,-18048.828,-21613.852,-9265.503,-21790.65,16845.215
1223587.5401593265,-58404.504,-70449.625,-21212.605,-18050.701,-21617.717,-9258.627,-21781.902,16857.057
1223587.5441593218,-58413.293,-70452.64,-21214.64,-18051.514,-21624.92,-9262.573,-21783.447,16860.88
1223587.5481593169,-58425.17,-70467.086,-21220.297,-18055.42,-21633.424,-9268.474,-21790.854,16860.027
1223587.552159312,-58437.785,-70478.97,-21221.518,-18056.885,-21637.656,-9267.131,-21789.43,16864.137
1223587.5561593072,-58428.305,-70470.055,-21210.408,-18052.857,-21628.094,-9257.568,-21776.816,16870.117
1223587.5601593023,-58449.547,-70487.19,-21212.81,-18055.096,-21629.273,-9251.059,-21764.283,16885.133
1223587.5641592976,-58465.008,-70502.24,-21216.309,-18058.27,-21636.312,-9255.737,-21766.398,16900.31
1223587.5681592927,-58471.56,-70514.81,-21222.78,-18060.385,-21643.516,-9261.882,-21771.12,16903.768
1223587.5721592878,-58486.004,-70531.45,-21226.156,-18062.703,-21644.166,-9260.417,-21772.055,16892.049
1223587.576159283,-58493.938,-70533.53,-21222.371,-18061.564,-21640.26,-9252.6455,-21766.033,16891.357
1223587.5801592781,-58506.51,-70540.125,-21221.355,-18061.564,-21636.8,-9246.094,-21757.285,16901.652
1223587.5841592732,-58519.656,-70554.0,-21223.43,-18064.373,-21649.74,-9250.244,-21760.295,16906.697
1223587.5881592685,-58526.492,-70567.42,-21227.174,-18067.586,-21655.234,-9255.859,-21763.389,16908.406
1223587.5921592636,-58532.188,-70577.88,-21226.562,-18068.523,-21653.158,-9251.872,-21758.627,16910.564
1223587.5961592586,-58544.273,-70584.35,-21222.25,-18069.336,-21648.643,-9242.31,-21747.314,16909.383
1223587.600159254,-58562.5,-70589.44,-21222.86,-18072.674,-21649.21,-9238.444,-21742.637,16920.248
1223587.604159249,-58574.383,-70599.04,-21229.818,-18076.66,-21655.844,-9244.019,-21746.543,16933.025
1223587.6081592443,-58578.613,-70611.01,-21239.38,-18078.045,-21664.512,-9253.296,-21757.08,16924.48
1223587.6121592394,-58575.48,-70614.18,-21239.584,-18078.572,-21663.574,-9253.174,-21761.842,16911.621
1223587.6161592344,-58575.117,-70611.414,-21232.342,-18074.748,-21652.996,-9242.636,-21751.791,16908.162
1223587.6201592297,-58584.8,-70612.14,-21227.865,-18074.178,-21652.955,-9237.427,-21749.229,16911.012
1223587.6241592248,-58593.305,-70618.82,-21232.057,-18076.13,-21659.75,-9244.304,-21756.756,16913.656
1223587.6281592199,-58598.473,-70632.0,-21241.863,-18078.37,-21665.04,-9252.157,-21762.127,16909.709
1223587.6321592152,-58599.082,-70637.414,-21244.305,-18077.557,-21663.574,-9251.709,-21759.807,16907.594
1223587.6361592102,-58602.54,-70633.586,-21241.375,-18078.492,-21656.25,-9245.321,-21750.244,16906.658
1223587.6401592055,-58608.727,-70632.0,-21238.893,-18079.793,-21655.193,-9241.496,-21741.049,16916.79
1223587.6441592006,-58615.684,-70641.64,-21245.77,-18081.34,-21662.762,-9247.681,-21743.328,16927.816
1223587.6481591957,-58614.87,-70648.27,-21251.588,-18081.828,-21668.05,-9254.3545,-21747.682,16921.51
1223587.652159191,-58608.074,-70648.07,-21250.732,-18079.672,-21661.297,-9256.145,-21745.89,16909.465
1223587.656159186,-58605.227,-70638.555,-21240.56,-18075.115,-21646.363,-9248.82,-21741.008,16907.39
1223587.660159181,-58616.58,-70639.37,-21236.94,-18076.742,-21645.549,-9246.42,-21741.781,16914.633
1223587.6641591764,-58623.21,-70643.72,-21239.705,-18078.492,-21653.89,-9252.563,-21753.297,16914.795
1223587.6681591715,-58623.09,-70645.305,-21246.623,-18079.225,-21658.488,-9259.521,-21762.574,16915.61
1223587.6721591668,-58616.54,-70643.19,-21248.21,-18078.98,-21656.535,-9260.376,-21762.615,16915.406
1223587.6761591618,-58613.73,-70639.734,-21240.113,-18075.684,-21647.746,-9252.482,-21755.168,16916.504
1223587.680159157,-58617.27,-70637.78,-21233.074,-18073.65,-21644.98,-9246.176,-21745.484,16927.45
1223587.6841591522,-58620.2,-70644.414,-21233.887,-18073.69,-21656.17,-9250.122,-21748.252,16935.059
1223587.6881591473,-58625.816,-70657.39,-21242.473,-18077.963,-21664.715,-9256.674,-21756.104,16929.688
1223587.6921591423,-58628.906,-70664.02,-21249.105,-18081.34,-21663.738,-9256.022,-21756.836,16925.62
1223587.6961591376,-58627.32,-70659.22,-21245.443,-18082.56,-21654.217,-9251.384,-21752.768,16921.428
1223587.7001591327,-58632.812,-70656.414,-21242.31,-18083.049,-21652.873,-9247.396,-21750.938,16922.322
1223587.7041591278,-58640.75,-70663.17,-21248.17,-18086.223,-21664.47,-9250.163,-21752.605,16929.688
1223587.708159123,-58635.133,-70665.04,-21253.744,-18086.346,-21668.05,-9257.446,-21758.383,16925.62
1223587.7121591181,-58639.49,-70669.555,-21256.674,-18086.71,-21670.33,-9256.145,-21757.854,16924.602
1223587.7161591134,-58638.633,-70665.94,-21251.832,-18085.49,-21661.582,-9248.251,-21749.229,16926.393
1223587.7201591085,-58643.76,-70666.22,-21248.047,-18085.572,-21657.959,-9243.53,-21743.816,16925.74
1223587.7241591036,-58652.914,-70668.375,-21250.488,-18087.037,-21663.656,-9247.152,-21746.908,16930.379
1223587.728159099,-58655.316,-70674.12,-21257.812,-18090.902,-21673.3,-9254.761,-21755.453,16928.67
1223587.732159094,-58652.996,-70677.62,-21259.318,-18091.39,-21672.975,-9255.453,-21754.03,16923.219
1223587.736159089,-58651.41,-70672.04,-21252.889,-18088.623,-21662.762,-9247.478,-21748.008,16916.463
1223587.7401590843,-58653.08,-70668.22,-21247.518,-18087.322,-21657.188,-9242.758,-21743.652,16918.865
1223587.7441590794,-58656.457,-70675.54,-21251.465,-18088.664,-21669.271,-9247.437,-21744.549,16928.346
1223587.7481590747,-58656.457,-70680.586,-21255.574,-18090.17,-21675.781,-9254.395,-21752.28,16930.95
1223587.7521590698,-58652.02,-70681.12,-21258.057,-18090.576,-21672.404,-9255.697,-21754.68,16926.229
1223587.7561590648,-58651.777,-70681.6,-21249.676,-18087.2,-21663.982,-9246.664,-21746.094,16930.176
1223587.7601590601,-58659.06,-70685.914,-21246.014,-18087.932,-21664.307,-9242.229,-21741.578,16942.018
1223587.7641590552,-58664.594,-70694.055,-21250.773,-18092.244,-21672.283,-9248.088,-21746.787,16952.352
1223587.7681590503,-58659.508,-70696.54,-21254.639,-18092.611,-21680.176,-9255.412,-21753.988,16954.998
1223587.7721590456,-58653.81,-70695.03,-21254.436,-18092.938,-21679.12,-9256.877,-21756.674,16953.166
1223587.7761590406,-58655.273,-70694.016,-21251.303,-18092.082,-21668.54,-9250.082,-21750.164,16950.36
1223587.7801590357,-58660.484,-70694.664,-21248.902,-18092.326,-21663.656,-9245.28,-21744.873,16946.004
1223587.784159031,-58667.277,-70704.266,-21252.93,-18095.174,-21670.98,-9252.808,-21755.291,16936.28
1223587.788159026,-58662.52,-70706.664,-21256.877,-18093.22,-21675.986,-9259.318,-21764.975,16928.346
1223587.7921590214,-58657.105,-70704.1,-21257.162,-18091.188,-21673.463,-9259.318,-21765.586,16928.426
1223587.7961590164,-58655.844,-70700.32,-21250.408,-18089.314,-21666.627,-9253.988,-21760.336,16923.463
1223587.8001590115,-58662.273,-70697.15,-21246.746,-18090.658,-21664.795,-9248.82,-21754.232,16930.258
1223587.8041590068,-58668.703,-70697.23,-21252.197,-18092.205,-21673.666,-9254.272,-21760.05,16937.826
1223587.8081590019,-58664.797,-70699.51,-21258.424,-18092.938,-21680.746,-9261.475,-21766.887,16935.791
1223587.812158997,-58657.92,-70696.695,-21255.33,-18090.252,-21676.066,-9257.895,-21762.777,16930.502
1223587.8161589922,-58661.5,-70693.61,-21249.432,-18089.682,-21669.11,-9249.634,-21757.324,16928.834
1223587.8201589873,-58664.39,-70691.37,-21244.264,-18089.967,-21667.156,-9247.641,-21753.094,16932.129
1223587.8241589826,-58665.367,-70694.586,-21247.314,-18091.473,-21670.166,-9255.737,-21757.854,16929.607
1223587.8281589777,-58663.74,-70699.67,-21252.32,-18092.285,-21674.56,-9261.638,-21764.242,16934.979
1223587.8321589727,-58657.023,-70696.78,-21249.879,-18089.723,-21672.486,-9259.196,-21762.736,16929.729
1223587.836158968,-58663.574,-70698.49,-21251.832,-18091.309,-21668.906,-9252.36,-21755.25,16927.166
1223587.840158963,-58669.07,-70698.0,-21250.896,-18090.861,-21665.65,-9248.698,-21750.855,16935.71
1223587.8441589582,-58670.207,-70699.914,-21252.564,-18090.7,-21670.086,-9257.121,-21757.53,16940.553
1223587.8481589535,-58666.344,-70702.6,-21259.197,-18091.473,-21675.781,-9266.439,-21767.66,16935.506
1223587.8521589485,-58659.875,-70703.29,-21258.342,-18090.373,-21673.707,-9265.585,-21767.498,16934.652
1223587.8561589438,-58660.77,-70695.15,-21252.93,-18088.746,-21660.727,-9254.802,-21754.559,16935.791
1223587.860158939,-58667.688,-70692.14,-21248.047,-18089.6,-21661.256,-9248.617,-21743.572,16942.424
1223587.864158934,-58675.01,-70699.42,-21251.994,-18092.205,-21669.963,-9253.012,-21751.506,16945.842
1223587.8681589293,-58679.484,-70711.51,-21257.162,-18096.803,-21678.06,-9262.045,-21762.777,16942.139
1223587.8721589244,-58673.504,-70709.92,-21257.365,-18094.482,-21676.27,-9262.411,-21764.893,16945.436
1223587.8761589194,-58671.797,-70703.82,-21251.059,-18091.92,-21666.3,-9255.371,-21760.418,16941.854
1223587.8801589147,-58675.945,-70703.66,-21249.268,-18093.22,-21662.07,-9253.622,-21760.742,16934.734
1223587.8841589098,-58675.293,-70706.34,-21251.832,-18094.076,-21671.104,-9261.027,-21768.352,16933.553
1223587.8881589049,-58672.363,-70715.414,-21258.057,-18093.14,-21674.277,-9269.897,-21782.268,16930.502
1223587.8921589002,-58670.004,-70720.7,-21259.4,-18089.152,-21671.348,-9268.2705,-21784.424,16924.316
1223587.8961588952,-58672.57,-70717.125,-21254.598,-18087.2,-21662.436,-9259.685,-21775.473,16920.94
1223587.9001588905,-58681.195,-70718.14,-21254.436,-18089.275,-21663.086,-9257.772,-21771.893,16923.91
1223587.9041588856,-58685.14,-70722.13,-21258.504,-18092.488,-21671.875,-9264.16,-21777.508,16925.578
1223587.9081588807,-58674.156,-70720.586,-21260.945,-18092.123,-21675.498,-9270.183,-21786.297,16917.236
1223587.912158876,-58658.49,-70712.77,-21254.883,-18087.646,-21669.883,-9268.799,-21783.652,16914.959
1223587.916158871,-58651.574,-70701.336,-21243.043,-18081.707,-21655.967,-9257.04,-21767.172,16925.984
1223587.920158866,-58657.066,-70700.56,-21238.973,-18082.234,-21652.71,-9253.988,-21760.092,16931.152
1223587.9241588614,-58664.88,-70707.6,-21245.564,-18084.31,-21659.018,-9260.783,-21767.254,16937.5
1223587.9281588565,-58660.523,-70712.12,-21250.691,-18082.234,-21669.312,-9266.806,-21772.95,16937.744
1223587.9321588518,-58654.95,-70710.62,-21247.762,-18077.8,-21663.453,-9263.754,-21763.592,16939.291
1223587.9361588468,-58661.258,-70710.734,-21244.344,-18075.807,-21652.914,-9256.755,-21762.777,16931.275
1223587.940158842,-58669.395,-70712.28,-21244.588,-18077.84,-21654.135,-9254.558,-21760.336,16932.373
1223587.9441588372,-58670.86,-70715.82,-21251.424,-18079.143,-21664.633,-9260.417,-21767.416,16933.594
1223587.9481588323,-58668.703,-70721.07,-21258.83,-18080.281,-21669.678,-9265.625,-21774.049,16929.81
1223587.9521588273,-58665.324,-70725.47,-21261.354,-18080.12,-21668.701,-9264.201,-21773.967,16923.992
1223587.9561588226,-58665.12,-70722.336,-21256.389,-18078.248,-21661.338,-9255.697,-21766.357,16924.643
1223587.9601588177,-58671.43,-70720.3,-21250.041,-18077.475,-21659.629,-9253.337,-21764.16,16924.805
1223587.9641588128,-58677.33,-70724.65,-21253.053,-18078.166,-21666.953,-9259.115,-21768.596,16928.346
1223587.968158808,-58674.805,-70727.625,-21257.977,-18078.613,-21671.387,-9265.869,-21776.043,16930.055
1223587.9721588031,-58666.63,-70726.445,-21259.725,-18078.084,-21668.254,-9263.469,-21772.705,16930.42
1223587.9761587984,-58666.26,-70721.16,-21254.598,-18077.84,-21659.668,-9253.906,-21762.451,16929.322
1223587.9801587935,-58674.93,-70721.44,-21252.28,-18079.021,-21658.164,-9248.413,-21756.633,16932.293
1223587.9841587886,-58685.184,-70732.1,-21256.877,-18081.584,-21665.977,-9254.599,-21762.127,16931.396
1223587.9881587839,-58688.03,-70742.92,-21265.016,-18083.375,-21675.537,-9263.266,-21773.723,16923.422
1223587.992158779,-58681.03,-70745.2,-21266.316,-18081.625,-21674.113,-9261.882,-21775.473,16916.545
1223587.996158774,-58680.137,-70741.82,-21260.05,-18078.37,-21666.709,-9253.825,-21769.084,16912.762
1223588.0001587693,-58690.715,-70740.84,-21260.05,-18080.77,-21664.389,-9252.971,-21768.84,16917.277
1223588.0041587644,-58697.918,-70744.39,-21265.828,-18083.049,-21669.76,-9257.568,-21774.375,16920.004
1223588.0081587597,-58694.094,-70747.03,-21270.793,-18081.543,-21671.184,-9264.567,-21778.932,16920.492
1223588.0121587547,-58684.082,-70743.9,-21267.742,-18078.695,-21664.877,-9264.404,-21777.385,16917.562
1223588.0161587498,-58680.79,-70736.164,-21260.092,-18077.596,-21653.158,-9256.714,-21771.566,16906.494
1223588.020158745,-58684.043,-70730.8,-21254.72,-18076.742,-21649.863,-9253.134,-21767.375,16918.457
1223588.0241587402,-58687.176,-70738.81,-21258.383,-18079.793,-21659.1,-9262.492,-21774.863,16924.398
1223588.0281587353,-58683.637,-70744.51,-21260.174,-18078.654,-21665.61,-9269.165,-21784.14,16918.986
1223588.0321587306,-58676.516,-70742.84,-21258.668,-18076.742,-21663.941,-9269.165,-21787.477,16908.732
1223588.0361587256,-58676.8,-70738.89,-21255.453,-18075.928,-21654.135,-9261.475,-21782.594,16893.637
1223588.040158721,-58682.21,-70737.555,-21253.947,-18077.068,-21651.531,-9259.726,-21777.588,16899.822
1223588.044158716,-58681.848,-70738.28,-21256.43,-18076.945,-21657.47,-9266.724,-21779.176,16913.982
1223588.048158711,-58675.54,-70736.695,-21259.115,-18073.895,-21660.32,-9270.264,-21783.203,16916.342
1223588.0521587064,-58667.766,-70733.12,-21257.406,-18070.477,-21653.89,-9266.4795,-21779.826,16917.195
1223588.0561587014,-58664.39,-70723.02,-21251.018,-18068.686,-21642.375,-9256.674,-21768.555,16922.242
1223588.0601586965,-58664.43,-70719.65,-21245.564,-18068.604,-21640.666,-9252.441,-21760.662,16935.467
1223588.0641586918,-58675.58,-70729.01,-21250.652,-18072.877,-21651.49,-9256.958,-21762.656,16939.047
1223588.0681586869,-58680.504,-70738.37,-21256.592,-18074.219,-21659.832,-9263.266,-21770.59,16930.176
1223588.072158682,-58679.973,-70741.46,-21257.0,-18074.016,-21661.906,-9263.794,-21772.34,16920.492
1223588.0761586772,-58684.53,-70739.95,-21255.535,-18075.236,-21656.25,-9256.348,-21765.098,16923.707
1223588.0801586723,-58693.566,-70740.52,-21256.836,-18076.701,-21657.146,-9255.127,-21763.592,16926.31
1223588.0841586676,-58698.895,-70746.016,-21264.08,-18079.469,-21665.447,-9263.184,-21772.99,16921.51
1223588.0881586627,-58695.883,-70748.25,-21269.125,-18079.834,-21670.371,-9269.897,-21781.455,16922.363
1223588.0921586577,-58688.926,-70743.0,-21267.416,-18079.305,-21666.953,-9267.253,-21778.402,16922.527
1223588.096158653,-58691.69,-70741.62,-21264.812,-18077.637,-21657.92,-9257.935,-21767.863,16919.598
1223588.100158648,-58699.26,-70742.68,-21263.104,-18079.266,-21655.967,-9256.958,-21763.877,16923.38
1223588.1041586432,-58705.61,-70750.81,-21267.537,-18082.602,-21664.145,-9266.113,-21771.648,16924.398
1223588.1081586385,-58703.492,-70757.41,-21272.87,-18081.463,-21671.104,-9272.949,-21781.494,16911.58
1223588.1121586335,-58696.453,-70757.125,-21273.031,-18080.81,-21667.766,-9271.647,-21781.658,16907.47
1223588.1161586288,-58698.57,-70751.23,-21270.59,-18079.875,-21661.826,-9262.573,-21773.072,16906.658
1223588.120158624,-58706.586,-70748.984,-21269.328,-18079.021,-21659.75,-9256.674,-21770.59,16905.965
1223588.124158619,-58719.445,-70758.14,-21275.92,-18081.584,-21666.627,-9261.108,-21774.293,16916.219
1223588.1281586143,-58715.293,-70765.95,-21279.744,-18084.555,-21677.084,-9270.386,-21783.611,16908.895
1223588.1321586093,-58699.426,-70761.805,-21273.967,-18082.602,-21675.457,-9271.484,-21785.768,16894.37
1223588.1361586044,-58701.742,-70761.68,-21269.695,-18081.219,-21669.475,-9265.178,-21779.014,16895.71
1223588.1401585997,-58707.195,-70763.51,-21267.904,-18082.967,-21669.434,-9261.76,-21774.455,16906.697
1223588.1441585948,-58708.54,-70764.734,-21273.967,-18084.352,-21675.254,-9267.456,-21780.967,16905.885
1223588.1481585898,-58708.54,-70770.51,-21277.71,-18083.375,-21680.787,-9273.356,-21791.22,16891.846
1223588.1521585851,-58702.477,-70768.68,-21276.123,-18082.967,-21678.06,-9271.973,-21790.203,16885.662
1223588.1561585802,-58700.36,-70763.23,-21269.287,-18081.707,-21668.986,-9264.079,-21781.373,16883.79
1223588.1601585755,-58701.457,-70758.75,-21264.16,-18079.916,-21665.61,-9261.027,-21780.07,16877.523
1223588.1641585706,-58707.48,-70762.82,-21268.758,-18080.078,-21671.51,-9267.009,-21787.72,16876.22
1223588.1681585656,-58705.324,-70771.65,-21274.455,-18081.746,-21677.816,-9276.53,-21799.154,16866.008
1223588.172158561,-58699.06,-70770.914,-21272.543,-18080.281,-21674.928,-9274.089,-21798.828,16860.393
1223588.176158556,-58697.633,-70765.875,-21266.033,-18078.328,-21668.254,-9265.951,-21789.918,16859.578
1223588.180158551,-58705.12,-70765.51,-21264.12,-18081.543,-21669.271,-9261.353,-21784.22,16869.14
1223588.1841585464,-58711.062,-70768.64,-21267.986,-18083.455,-21673.91,-9266.317,-21789.227,16873.738
1223588.1881585415,-58708.05,-70771.94,-21271.607,-18083.984,-21678.508,-9274.089,-21794.678,16871.582
1223588.1921585368,-58703.25,-70769.53,-21269.898,-18083.984,-21673.992,-9270.752,-21788.168,16874.47
1223588.1961585318,-58705.65,-70765.14,-21265.545,-18084.393,-21667.033,-9258.911,-21774.943,16875.732
1223588.200158527,-58707.727,-70762.58,-21261.598,-18086.955,-21667.074,-9256.552,-21771.852,16878.621
1223588.2041585222,-58705.363,-70764.81,-21264.324,-18089.275,-21670.94,-9262.045,-21775.107,16887.492
1223588.2081585173,-58700.89,-70771.37,-21268.799,-18089.355,-21676.27,-9267.782,-21780.479,16885.986
1223588.2121585123,-58693.08,-70766.93,-21265.91,-18085.693,-21671.266,-9266.724,-21779.42,16875.285
1223588.2161585076,-58690.15,-70756.72,-21259.604,-18081.543,-21659.506,-9258.708,-21770.996,16869.71
1223588.2201585027,-58695.76,-70753.38,-21257.365,-18083.13,-21658.082,-9256.063,-21766.643,16875.367
1223588.224158498,-58706.504,-70764.164,-21264.771,-18087.81,-21670.166,-9265.747,-21772.828,16884.074
1223588.228158493,-58707.766,-70772.75,-21271.404,-18089.314,-21678.955,-9276.001,-21786.459,16866.902
1223588.2321584881,-58702.15,-70767.984,-21273.438,-18086.793,-21677.41,-9274.536,-21788.168,16855.348
1223588.2361584834,-58695.965,-70757.125,-21268.19,-18083.62,-21667.074,-9263.998,-21776.775,16850.709
1223588.2401584785,-58697.023,-70752.28,-21263.469,-18083.049,-21662.598,-9259.318,-21772.746,16847.576
1223588.2441584736,-58697.836,-70752.73,-21264.771,-18084.188,-21669.963,-9265.91,-21779.826,16846.844
1223588.2481584689,-58698.45,-70760.58,-21271.2,-18087.402,-21677.94,-9274.333,-21790.283,16840.78
1223588.252158464,-58696.574,-70760.87,-21271.281,-18085.734,-21674.725,-9272.339,-21791.871,16836.102
1223588.256158459,-58696.168,-70751.836,-21264.04,-18082.602,-21664.918,-9265.422,-21780.355,16837.322
1223588.2601584543,-58700.156,-70748.336,-21262.086,-18081.502,-21660.645,-9262.451,-21772.299,16843.018
1223588.2641584494,-58707.4,-70757.695,-21269.084,-18086.305,-21670.736,-9269.084,-21777.385,16846.924
1223588.2681584447,-58703.777,-70764.445,-21276.896,-18087.688,-21676.963,-9276.327,-21786.297,16836.508
1223588.2721584397,-58698.773,-70766.36,-21278.564,-18085.775,-21672.404,-9276.693,-21786.094,16827.76
1223588.2761584348,-58701.297,-70764.65,-21272.217,-18084.637,-21666.18,-9268.066,-21774.7,16833.537
1223588.28015843,-58705.0,-70762.695,-21265.057,-18085.37,-21662.68,-9265.503,-21772.217,16828.125
1223588.2841584252,-58707.24,-70768.19,-21269.695,-18088.258,-21670.615,-9273.031,-21780.479,16824.178
1223588.2881584202,-58704.754,-70774.7,-21275.188,-18087.77,-21677.002,-9281.616,-21786.012,16822.266
1223588.2921584155,-58699.098,-70773.07,-21272.46,-18085.775,-21670.371,-9280.64,-21785.117,16816.203
1223588.2961584106,-58701.906,-70770.02,-21267.986,-18085.408,-21661.215,-9271.2,-21774.822,16817.383
1223588.300158406,-58706.91,-70768.64,-21268.678,-18086.14,-21661.906,-9267.863,-21770.793,16824.666
1223588.304158401,-58710.45,-70773.97,-21275.27,-18087.2,-21668.986,-9275.269,-21776.328,16824.627
1223588.308158396,-58704.31,-70774.87,-21276.287,-18086.426,-21674.684,-9283.081,-21785.28,16813.03
1223588.3121583913,-58696.777,-70770.55,-21272.176,-18085.002,-21672.852,-9279.948,-21781.738,16808.432
1223588.3161583864,-58694.703,-70763.1,-21266.072,-18082.357,-21663.453,-9270.793,-21774.863,16803.875
1223588.3201583815,-58696.535,-70759.04,-21261.883,-18081.014,-21661.906,-9267.05,-21771.037,16812.582
1223588.3241583768,-58697.348,-70764.125,-21263.021,-18083.863,-21672.648,-9272.095,-21774.09,16822.225
1223588.3281583718,-58692.59,-70769.94,-21265.992,-18083.904,-21677.328,-9275.31,-21777.71,16822.55
1223588.332158367,-58686.28,-70765.1,-21263.387,-18080.69,-21668.54,-9272.827,-21777.1,16817.383
1223588.3361583622,-58689.94,-70760.13,-21259.441,-18078.492,-21658.164,-9263.469,-21768.516,16815.064
1223588.3401583573,-58698.812,-70764.0,-21258.912,-18080.81,-21658.53,-9259.481,-21763.836,16818.441
1223588.3441583526,-58705.527,-70771.85,-21266.357,-18084.107,-21668.336,-9265.625,-21770.02,16813.6
1223588.3481583477,-58706.91,-70782.11,-21275.432,-18086.426,-21678.63,-9272.787,-21781.047,16807.049
