timestamp,Fp1,Fp2,F3,Fz,F4,Cz,Pz,Oz
1313637.4903766257,-83153.69,-60490.684,-32809.734,-15639.934,3172.8923,-3353.1494,-37940.066,43823.285
1313637.4943766203,-83146.65,-60491.254,-32805.707,-15639.242,3174.6826,-3353.9226,-37936.32,43822.55
1313637.4983766146,-83138.72,-60494.875,-32798.42,-15638.876,3173.6248,-3354.4517,-37932.293,43828.492
1313637.5023766092,-83146.61,-60493.53,-32798.016,-15638.672,3171.997,-3353.109,-37929.117,43834.35
1313637.5063766036,-83164.92,-60496.83,-32803.754,-15641.968,3169.1895,-3353.8818,-37933.72,43824.098
1313637.5103765982,-83173.14,-60501.996,-32802.29,-15643.148,3165.568,-3353.6785,-37935.508,43825.24
1313637.5143765926,-83154.91,-60495.89,-32800.293,-15639.608,3168.0503,-3353.231,-37934.816,43828.9
1313637.5183765872,-83142.58,-60494.957,-32797.363,-15637.492,3168.2537,-3353.475,-37935.426,43835.816
1313637.5223765816,-83153.93,-60506.88,-32803.996,-15641.276,3164.917,-3358.8054,-37937.258,43837.445
1313637.5263765762,-83154.87,-60509.277,-32803.836,-15641.5205,3162.8826,-3357.788,-37939.332,43834.27
1313637.5303765705,-83155.11,-60505.7,-32800.293,-15641.806,3162.2722,-3354.777,-37942.547,43823.812
1313637.5343765651,-83159.47,-60503.906,-32800.945,-15640.788,3163.615,-3353.3936,-37943.36,43823.0
1313637.5383765595,-83155.32,-60509.117,-32801.883,-15641.846,3162.2722,-3355.4282,-37941.57,43817.465
1313637.542376554,-83154.87,-60513.348,-32805.016,-15644.491,3158.1626,-3358.358,-37943.035,43815.918
1313637.5463765487,-83161.26,-60513.957,-32807.984,-15645.915,3157.5522,-3356.771,-37944.5,43817.465
1313637.550376543,-83170.414,-60514.895,-32807.047,-15646.037,3158.4473,-3353.109,-37945.395,43815.918
1313637.5543765377,-83171.875,-60510.5,-32804.2,-15643.799,3161.5806,-3351.0742,-37942.18,43820.395
1313637.558376532,-83160.56,-60501.465,-32800.133,-15642.334,3165.4053,-3354.0447,-37941.203,43822.754
1313637.5623765267,-83160.65,-60501.06,-32804.2,-15643.393,3164.4287,-3356.486,-37942.06,43824.992
1313637.566376521,-83159.75,-60506.39,-32808.676,-15642.904,3162.5571,-3352.0103,-37940.473,43824.707
1313637.5703765156,-83154.26,-60506.797,-32804.73,-15641.032,3165.039,-3349.6501,-37936.727,43828.98
1313637.57437651,-83150.96,-60504.395,-32798.016,-15637.085,3165.9343,-3350.1792,-37933.676,43829.47
1313637.5783765046,-83143.555,-60498.535,-32803.914,-15634.685,3169.7185,-3352.8647,-37935.387,43826.824
1313637.582376499,-83137.25,-60494.223,-32805.746,-15633.464,3172.7703,-3354.126,-37934.9,43826.99
1313637.5863764936,-83146.65,-60496.137,-32807.008,-15636.23,3171.6309,-3353.5564,-37937.094,43831.668
1313637.590376488,-83154.055,-60496.664,-32808.066,-15637.085,3172.811,-3350.6267,-37935.344,43837.117
1313637.5943764825,-83159.55,-60493.816,-32805.137,-15635.864,3172.567,-3346.7205,-37927.816,43844.035
1313637.5983764771,-83152.914,-60493.33,-32799.36,-15637.817,3173.1772,-3346.5576,-37922.61,43847.21
1313637.6023764715,-83144.01,-60492.637,-32797.28,-15637.167,3172.16,-3346.517,-37917.684,43851.402
1313637.606376466,-83144.94,-60493.086,-32794.84,-15636.638,3170.8984,-3345.5405,-37918.863,43852.582
1313637.6103764605,-83141.16,-60495.484,-32795.25,-15633.423,3168.579,-3346.395,-37922.61,43847.58
1313637.614376455,-83135.13,-60496.79,-32795.41,-15631.348,3167.9688,-3348.1445,-37925.336,43843.914
1313637.6183764494,-83147.26,-60494.508,-32798.34,-15631.511,3168.0908,-3350.586,-37925.824,43844.24
1313637.622376444,-83156.7,-60496.707,-32802.613,-15634.115,3164.3066,-3354.6958,-37928.996,43839.97
1313637.6263764384,-83156.17,-60500.0,-32802.574,-15633.301,3163.9812,-3351.9695,-37929.89,43840.21
1313637.630376433,-83155.52,-60500.082,-32799.723,-15633.708,3162.7605,-3345.6218,-37928.836,43835.816
1313637.6343764274,-83158.25,-60498.58,-32799.277,-15632.69,3168.1724,-3344.9302,-37929.527,43831.465
1313637.638376422,-83152.51,-60492.188,-32801.883,-15635.336,3168.5386,-3350.0977,-37933.023,43824.91
1313637.6423764166,-83150.48,-60488.69,-32802.938,-15636.801,3169.3115,-3350.0977,-37934.33,43823.203
1313637.646376411,-83152.836,-60495.85,-32801.96,-15635.254,3167.6433,-3350.2605,-37934.652,43825.074
1313637.6503764056,-83157.555,-60503.5,-32804.402,-15634.196,3166.7888,-3346.4763,-37933.39,43830.977
1313637.6543764,-83134.52,-60486.168,-32801.35,-15629.477,3167.277,-3348.6328,-37934.246,43825.727
1313637.6583763945,-83134.93,-60488.08,-32801.15,-15628.418,3172.6482,-3350.6675,-37931.805,43827.637
1313637.662376389,-83152.305,-60495.566,-32800.863,-15627.768,3171.0205,-3349.5688,-37931.56,43833.78
1313637.6663763835,-83146.32,-60481.324,-32799.156,-15627.116,3171.9565,-3351.115,-37934.695,43830.73
1313637.6703763779,-83130.414,-60470.83,-32799.6,-15628.662,3176.3103,-3349.935,-37935.426,43828.695
1313637.6743763725,-83110.07,-60454.184,-32794.516,-15627.401,3181.6,-3350.3418,-37935.953,43824.504
1313637.6783763668,-83092.82,-60434.652,-32789.88,-15626.465,3184.2449,-3353.7192,-37936.81,43817.26
1313637.6823763615,-83077.234,-60420.168,-32790.285,-15625.977,3190.5925,-3355.3875,-37936.688,43815.066
1313637.6863763558,-83070.48,-60405.48,-32791.707,-15625.977,3194.0918,-3353.9634,-37933.27,43822.797
1313637.6903763504,-83062.625,-60398.6,-32788.902,-15625.326,3194.4175,-3352.824,-37934.816,43810.223
1313637.694376345,-83057.01,-60400.8,-32784.508,-15623.251,3196.5332,-3354.248,-37936.89,43802.29
1313637.6983763394,-83027.63,-60384.156,-32778.81,-15618.449,3201.945,-3361.369,-37945.273,43792.074
1313637.702376334,-83002.56,-60352.99,-32775.027,-15617.351,3205.9326,-3364.2578,-37951.54,43793.703
1313637.7063763284,-82998.82,-60348.51,-32773.113,-15620.646,3200.2769,-3360.5552,-37947.31,43810.832
1313637.710376323,-82999.516,-60350.914,-32774.293,-15620.158,3195.6382,-3359.0088,-37947.836,43808.434
1313637.7143763173,-82998.09,-60349.164,-32775.594,-15619.385,3195.7603,-3358.0322,-37944.99,43809.855
1313637.718376312,-82998.66,-60351.523,-32775.105,-15618.734,3199.3816,-3358.1138,-37936.2,43815.918
1313637.7223763063,-82996.42,-60343.26,-32774.21,-15619.751,3198.3643,-3360.5144,-37932.78,43824.016
1313637.726376301,-83000.61,-60344.77,-32774.617,-15622.844,3196.045,-3358.4392,-37930.582,43831.3
1313637.7303762953,-83002.73,-60342.164,-32778.484,-15624.96,3195.4346,-3358.073,-37937.38,43821.574
1313637.7343762899,-83008.266,-60338.38,-32775.676,-15621.867,3194.9463,-3355.5908,-37938.76,43814.332
1313637.7383762843,-83010.74,-60343.59,-32775.516,-15620.81,3195.8008,-3358.1138,-37937.785,43811.363
1313637.7423762789,-83022.55,-60353.965,-32780.316,-15625.529,3193.8071,-3361.084,-37940.227,43807.742
1313637.7463762735,-83039.35,-60366.7,-32785.035,-15629.965,3188.4766,-3359.1309,-37941.57,43807.984
1313637.7503762678,-83048.016,-60377.44,-32788.86,-15631.592,3185.3435,-3354.2888,-37937.582,43816.082
1313637.7543762624,-83053.43,-60380.047,-32788.168,-15631.348,3185.9946,-3354.3296,-37935.547,43813.19
1313637.7583762568,-83063.766,-60387.82,-32783.12,-15630.656,3187.5408,-3351.644,-37928.67,43814.047
1313637.7623762514,-83070.234,-60396.527,-32782.88,-15635.376,3182.8208,-3349.2026,-37923.746,43822.188
1313637.7663762458,-83081.914,-60405.52,-32784.87,-15635.661,3180.0537,-3347.412,-37925.05,43814.7
1313637.7703762404,-83086.19,-60417.24,-32785.89,-15637.451,3177.653,-3343.9128,-37924.93,43810.426
1313637.7743762347,-83081.914,-60419.68,-32787.027,-15639.934,3176.7986,-3341.6748,-37923.22,43812.785
1313637.7783762293,-83087.0,-60422.0,-32787.438,-15641.684,3178.5483,-3344.686,-37923.18,43809.492
1313637.7823762237,-83095.38,-60424.277,-32787.844,-15640.91,3177.8972,-3347.046,-37922.49,43808.23
1313637.7863762183,-83096.48,-60428.71,-32790.12,-15640.3,3172.3633,-3343.3838,-37924.97,43804.61
1313637.7903762127,-83097.74,-60437.91,-32792.562,-15639.975,3170.2068,-3340.617,-37928.1,43796.43
1313637.7943762073,-83101.85,-60439.496,-32793.945,-15637.899,3172.7295,-3338.2976,-37927.207,43796.387
1313637.798376202,-83112.02,-60444.418,-32795.492,-15638.591,3170.4917,-3340.739,-37928.47,43792.766
1313637.8023761963,-83117.64,-60445.844,-32795.656,-15638.55,3168.986,-3341.7563,-37926.84,43796.31
1313637.8063761909,-83123.336,-60441.246,-32799.156,-15639.608,3169.4744,-3339.6812,-37927.29,43796.387
1313637.8103761852,-83130.25,-60446.984,-32801.96,-15640.951,3166.3005,-3336.3445,-37927.29,43797.977
1313637.8143761798,-83128.83,-60447.633,-32799.562,-15639.934,3165.5273,-3336.8328,-37926.15,43802.168
1313637.8183761742,-83123.17,-60444.664,-32794.68,-15637.045,3167.3992,-3340.088,-37924.36,43805.79
1313637.8223761688,-83122.97,-60444.867,-32794.23,-15637.777,3166.4226,-3341.1865,-37926.23,43805.79
1313637.8263761632,-83127.28,-60449.668,-32796.062,-15639.12,3164.6729,-3338.9893,-37927.45,43809.855
1313637.8303761578,-83135.664,-60452.516,-32797.812,-15637.939,3162.8826,-3336.2632,-37925.78,43815.918
1313637.8343761521,-83132.41,-60449.14,-32798.42,-15637.451,3161.5806,-3338.0942,-37922.85,43819.703
1313637.8383761467,-83122.56,-60448.45,-32797.445,-15636.963,3162.313,-3341.5527,-37919.637,43818.688
1313637.8423761413,-83114.305,-60451.133,-32794.76,-15636.882,3164.5916,-3341.9597,-37913.777,43827.883
1313637.8463761357,-83119.75,-60455.49,-32794.477,-15637.37,3162.191,-3340.332,-37912.355,43832.887
1313637.8503761303,-83128.5,-60458.824,-32794.72,-15638.306,3161.0515,-3337.606,-37910.402,43838.625
1313637.8543761247,-83123.45,-60448.367,-32794.84,-15637.858,3166.6667,-3338.2568,-37909.63,43832.562
1313637.8583761193,-83117.555,-60440.637,-32793.17,-15635.458,3170.3289,-3341.146,-37911.62,43831.79
1313637.8623761137,-83112.06,-60437.258,-32793.01,-15634.604,3172.7703,-3341.2273,-37908.164,43843.59
1313637.8663761083,-83114.664,-60436.08,-32793.5,-15634.888,3173.991,-3338.6638,-37910.81,43834.676
1313637.8703761026,-83119.59,-60438.723,-32790.73,-15633.708,3173.584,-3337.199,-37913.29,43827.637
1313637.8743760972,-83114.586,-60436.688,-32786.215,-15631.999,3174.9268,-3336.5479,-37912.273,43828.777
1313637.8783760916,-83108.65,-60430.055,-32784.426,-15628.988,3179.1587,-3339.152,-37910.727,43825.605
1313637.8823760862,-83106.04,-60428.71,-32784.098,-15627.93,3178.833,-3341.5122,-37911.46,43822.266
1313637.8863760806,-83111.125,-60433.434,-32783.45,-15630.168,3176.1882,-3339.9253,-37912.07,43820.477
1313637.8903760752,-83119.305,-60436.688,-32781.008,-15628.5,3174.5605,-3334.2693,-37910.973,43826.824
1313637.8943760698,-83110.68,-60437.34,-32778.445,-15627.686,3174.8047,-3333.0486,-37909.508,43828.816
1313637.8983760641,-83104.33,-60431.4,-32780.113,-15628.256,3176.229,-3335.7341,-37910.402,43829.1
1313637.9023760587,-83102.336,-60431.6,-32781.13,-15630.9,3172.3633,-3338.1348,-37911.746,43825.605
1313637.906376053,-83108.16,-60439.94,-32784.18,-15631.592,3169.3115,-3337.4023,-37914.105,43824.992
1313637.9103760477,-83111.62,-60439.58,-32784.586,-15629.843,3171.7937,-3335.0017,-37914.88,43826.457
1313637.914376042,-83106.04,-60430.46,-32780.76,-15627.89,3175.4966,-3332.479,-37911.824,43829.062
1313637.9183760367,-83098.516,-60424.36,-32779.055,-15627.035,3175.3745,-3337.443,-37911.785,43828.98
1313637.922376031,-83093.55,-60422.812,-32778.24,-15625.8545,3176.351,-3339.1113,-37909.223,43836.957
1313637.9263760257,-83100.06,-60425.742,-32780.926,-15629.3545,3173.5027,-3335.8562,-37906.7,43844.727
1313637.93037602,-83101.28,-60425.66,-32781.58,-15629.924,3170.7764,-3331.2988,-37905.355,43849.61
1313637.9343760146,-83096.6,-60424.727,-32779.703,-15628.825,3176.107,-3332.5603,-37907.39,43836.914
1313637.938376009,-83095.79,-60425.906,-32780.844,-15629.761,3177.4902,-3332.601,-37906.863,43842.734
1313637.9423760036,-83097.29,-60426.598,-32779.137,-15628.947,3175.7812,-3331.0142,-37901.492,43853.72
1313637.9463759982,-83099.33,-60428.918,-32778.566,-15631.633,3174.276,-3331.7058,-37899.254,43853.8
1313637.9503759926,-83105.555,-60425.09,-32778.484,-15631.999,3175.578,-3332.8044,-37904.746,43845.785
1313637.9543759872,-83103.35,-60420.82,-32777.06,-15627.401,3178.06,-3331.4617,-37903.32,43847.168
1313637.9583759815,-83087.85,-60419.883,-32772.664,-15624.35,3180.6235,-3329.834,-37897.016,43856.203
1313637.9623759761,-83084.03,-60421.227,-32772.543,-15626.181,3181.3965,-3331.4617,-37894.125,43857.75
1313637.9663759705,-83091.19,-60427.207,-32780.6,-15627.238,3178.3447,-3328.7354,-37891.03,43869.59
1313637.9703759651,-83091.27,-60425.09,-32781.13,-15626.425,3180.5828,-3326.7417,-37890.504,43866.09
1313637.9743759595,-83087.37,-60425.62,-32777.305,-15625.0,3181.6814,-3325.5615,-37888.43,43862.184
1313637.978375954,-83081.016,-60422.527,-32768.516,-15624.064,3182.9429,-3326.1313,-37887.332,43864.625
1313637.9823759485,-83081.55,-60417.93,-32768.92,-15626.099,3183.5532,-3329.7527,-37890.34,43861.043
1313637.986375943,-83087.89,-60421.754,-32772.79,-15626.465,3180.5015,-3328.2065,-37894.53,43859.01
1313637.9903759374,-83084.11,-60422.324,-32773.684,-15628.418,3178.5076,-3327.8809,-37897.664,43855.348
1313637.994375932,-83084.555,-60419.965,-32773.723,-15629.069,3178.5483,-3329.9155,-37901.652,43846.56
1313637.9983759266,-83090.17,-60422.73,-32771.973,-15626.872,3180.4607,-3333.1707,-37900.516,43845.582
1313638.002375921,-83091.68,-60424.36,-32772.91,-15625.57,3180.3794,-3335.5308,-37901.082,43847.09
1313638.0063759156,-83089.03,-60424.766,-32772.867,-15625.163,3180.5015,-3333.6182,-37904.83,43844.77
1313638.01037591,-83088.055,-60428.47,-32771.363,-15622.844,3178.5889,-3331.7466,-37908.773,43840.293
1313638.0143759046,-83083.82,-60426.598,-32771.484,-15624.228,3176.107,-3334.1472,-37911.01,43843.547
1313638.018375899,-83082.44,-60419.76,-32771.65,-15623.251,3179.891,-3337.5244,-37909.75,43842.164
1313638.0223758935,-83091.59,-60419.965,-32771.484,-15622.192,3181.8848,-3339.5996,-37911.215,43835.45
1313638.026375888,-83087.484,-60417.562,-32771.65,-15619.182,3182.495,-3335.8154,-37910.93,43836.914
1313638.0303758825,-83085.25,-60415.324,-32772.992,-15616.943,3182.9429,-3329.3052,-37909.71,43841.188
1313638.034375877,-83079.555,-60410.523,-32768.555,-15613.403,3187.0117,-3327.6775,-37908.406,43837.605
1313638.0383758715,-83077.07,-60411.38,-32765.992,-15614.258,3187.622,-3328.4507,-37908.285,43836.793
1313638.0423758659,-83082.766,-60413.086,-32767.58,-15617.92,3189.2905,-3329.4272,-37906.78,43841.39
1313638.0463758605,-83084.76,-60413.82,-32768.312,-15620.524,3188.5986,-3328.003,-37908.164,43842.125
1313638.050375855,-83090.375,-60413.94,-32773.113,-15621.379,3184.2856,-3324.0154,-37909.63,43839.887
1313638.0543758494,-83090.45,-60415.69,-32772.3,-15621.054,3183.309,-3323.3643,-37907.96,43838.137
1313638.058375844,-83095.09,-60420.37,-32769.53,-15622.966,3182.0068,-3328.7354,-37910.89,43836.02
1313638.0623758384,-83096.56,-60420.207,-32775.35,-15624.023,3181.9255,-3331.4617,-37912.965,43834.555
1313638.066375833,-83093.23,-60421.715,-32777.996,-15624.675,3183.4312,-3327.352,-37912.11,43840.008
1313638.0703758274,-83088.46,-60418.99,-32774.54,-15621.623,3184.6519,-3325.0327,-37913.656,43843.06
1313638.074375822,-83084.516,-60410.32,-32769.777,-15616.74,3188.1104,-3324.8699,-37912.152,43848.555
1313638.0783758163,-83086.39,-60411.055,-32769.207,-15617.432,3187.2153,-3327.3113,-37909.793,43847.78
1313638.082375811,-83092.37,-60410.93,-32770.266,-15616.74,3188.8835,-3329.3052,-37909.668,43840.82
1313638.0863758053,-83089.84,-60412.03,-32774.414,-15618.856,3187.3374,-3327.23,-37914.31,43836.914
1313638.0903758,-83085.695,-60417.645,-32774.82,-15621.948,3184.7332,-3324.7886,-37914.266,43839.684
1313638.0943757945,-83085.414,-60420.37,-32774.82,-15621.542,3184.0415,-3324.829,-37912.027,43842.41
1313638.098375789,-83085.77,-60419.23,-32772.79,-15619.955,3184.367,-3329.3865,-37914.145,43834.883
1313638.1023757835,-83095.055,-60421.266,-32775.555,-15621.664,3181.8442,-3334.0251,-37915.203,43838.664
1313638.1063757779,-83097.54,-60420.207,-32775.72,-15621.989,3183.2275,-3329.183,-37918.457,43838.83
1313638.1103757725,-83094.16,-60419.68,-32776.082,-15620.605,3182.2917,-3325.9277,-37917.727,43835.246
1313638.1143757668,-83094.89,-60420.82,-32774.414,-15619.467,3182.4138,-3326.4976,-37912.844,43835.086
1313638.1183757614,-83091.39,-60414.062,-32771.527,-15619.141,3185.0586,-3329.2236,-37915.324,43831.34
1313638.1223757558,-83095.664,-60415.12,-32771.445,-15620.077,3186.0352,-3331.2583,-37916.953,43832.97
1313638.1263757504,-83100.266,-60420.41,-32773.113,-15620.565,3183.1462,-3328.125,-37915.445,43833.863
1313638.1303757448,-83109.375,-60421.875,-32776.773,-15619.955,3180.827,-3321.8994,-37913.7,43834.8
1313638.1343757394,-83109.58,-60423.91,-32779.176,-15617.717,3180.664,-3319.865,-37911.46,43833.984
1313638.1383757337,-83095.87,-60424.562,-32778.65,-15617.961,3182.9834,-3324.2188,-37911.01,43834.92
1313638.1423757283,-83094.445,-60425.742,-32777.184,-15620.565,3183.4312,-3328.003,-37915.242,43826.5
1313638.146375723,-83104.49,-60423.22,-32774.414,-15623.942,3182.2917,-3325.3582,-37914.676,43829.47
1313638.1503757173,-83099.9,-60424.766,-32776.695,-15624.878,3181.6814,-3322.2656,-37913.574,43833.09
1313638.154375712,-83096.234,-60421.43,-32779.91,-15622.396,3185.5063,-3319.865,-37912.152,43836.223
1313638.1583757063,-83095.055,-60416.344,-32780.477,-15622.6,3188.6394,-3319.6616,-37908.816,43840.457
1313638.162375701,-83094.85,-60415.12,-32776.53,-15623.169,3189.2498,-3322.6726,-37905.52,43847.58
1313638.1663756953,-83095.87,-60420.695,-32776.492,-15621.867,3186.8083,-3323.7305,-37907.676,43843.1
1313638.1703756899,-83096.93,-60425.254,-32778.973,-15624.023,3184.2449,-3324.9512,-37911.746,43838.95
1313638.1743756842,-83096.56,-60424.035,-32777.996,-15621.704,3185.2622,-3322.5505,-37911.46,43833.254
1313638.1783756788,-83093.23,-60420.94,-32776.45,-15619.751,3188.314,-3321.2078,-37910.523,43833.375
1313638.1823756732,-83096.93,-60419.19,-32775.35,-15620.077,3190.3484,-3322.6318,-37909.223,43837.605
1313638.1863756678,-83109.42,-60421.754,-32778.402,-15620.891,3186.8896,-3323.2017,-37909.914,43841.23
1313638.1903756622,-83106.85,-60426.11,-32781.74,-15621.786,3182.6987,-3323.2422,-37911.46,43841.23
1313638.1943756568,-83098.96,-60431.438,-32780.438,-15621.582,3179.647,-3323.4863,-37908.0,43847.58
1313638.1983756514,-83092.37,-60432.496,-32778.605,-15620.443,3182.536,-3327.0671,-37908.977,43841.066
1313638.2023756457,-83089.48,-60428.71,-32775.35,-15618.327,3187.0933,-3328.2065,-37911.99,43837.08
1313638.2063756404,-83092.98,-60423.137,-32776.246,-15618.449,3186.605,-3329.1423,-37915.527,43834.8
1313638.2103756347,-83094.52,-60422.65,-32774.7,-15619.589,3185.4248,-3327.9216,-37915.12,43845.01
1313638.2143756293,-83088.5,-60419.516,-32771.445,-15616.537,3186.1572,-3326.3755,-37913.94,43839.64
1313638.2183756237,-83087.61,-60421.836,-32775.84,-15617.961,3185.9539,-3331.543,-37913.777,43835.734
1313638.2223756183,-83091.15,-60425.906,-32775.637,-15621.176,3182.129,-3331.9907,-37911.094,43841.066
1313638.2263756127,-83100.836,-60429.61,-32775.516,-15619.182,3180.7861,-3326.4568,-37908.53,43845.258
1313638.2303756073,-83112.555,-60429.73,-32778.08,-15618.979,3178.5483,-3320.4346,-37904.99,43852.785
1313638.2343756016,-83112.39,-60432.824,-32774.66,-15619.019,3179.6062,-3320.7195,-37902.67,43851.44
1313638.2383755962,-83102.99,-60433.8,-32772.38,-15621.013,3182.3325,-3323.7305,-37904.176,43841.676
1313638.2423755906,-83099.61,-60434.367,-32775.35,-15623.413,3180.2979,-3324.585,-37909.098,43834.883
1313638.2463755852,-83105.555,-60439.293,-32778.77,-15624.064,3176.5137,-3325.4802,-37911.664,43840.17
1313638.2503755798,-83113.164,-60444.582,-32779.094,-15623.007,3172.3228,-3320.272,-37911.176,43845.582
1313638.2543755742,-83108.69,-60442.465,-32777.02,-15620.81,3175.4966,-3317.749,-37909.426,43840.293
1313638.2583755688,-83102.42,-60438.4,-32777.426,-15619.345,3181.7627,-3320.0278,-37908.977,43840.7
1313638.2623755632,-83107.83,-60435.547,-32780.113,-15620.361,3181.5593,-3323.405,-37910.117,43838.46
1313638.2663755578,-83116.46,-60443.36,-32782.676,-15622.803,3176.1882,-3323.8525,-37911.336,43837.242
1313638.2703755521,-83116.09,-60447.633,-32783.285,-15622.396,3176.1882,-3318.9697,-37911.05,43841.51
1313638.2743755467,-83107.1,-60442.06,-32777.67,-15619.182,3180.5828,-3316.9353,-37906.168,43841.72
1313638.278375541,-83111.9,-60437.258,-32774.54,-15619.345,3181.9255,-3320.3533,-37906.332,43840.293
1313638.2823755357,-83116.414,-60434.9,-32771.566,-15619.507,3179.769,-3324.8699,-37907.188,43848.066
1313638.28637553,-83108.766,-60433.758,-32768.598,-15621.948,3179.5654,-3326.7822,-37908.49,43850.344
1313638.2903755247,-83098.31,-60429.12,-32770.508,-15620.769,3179.4841,-3321.6553,-37905.844,43852.133
1313638.2943755193,-83092.82,-60425.215,-32767.172,-15617.758,3183.3496,-3320.394,-37902.59,43853.926
1313638.2983755136,-83089.27,-60420.086,-32761.354,-15613.688,3185.791,-3321.4111,-37900.23,43850.547
1313638.3023755082,-83090.17,-60421.754,-32760.174,-15616.252,3184.9773,-3324.4224,-37901.98,43846.844
1313638.3063755026,-83089.766,-60424.36,-32763.43,-15617.758,3183.3496,-3320.9636,-37901.004,43853.273
1313638.3103754972,-83092.25,-60425.375,-32766.684,-15617.595,3181.3152,-3318.9697,-37902.832,43855.67
1313638.3143754916,-83097.01,-60429.445,-32767.172,-15617.554,3179.0366,-3320.8823,-37906.25,43850.953
1313638.3183754862,-83092.53,-60425.906,-32762.9,-15617.717,3181.7222,-3324.5037,-37908.895,43842.816
1313638.3223754806,-83093.18,-60427.41,-32762.615,-15618.368,3180.0945,-3327.9624,-37910.44,43840.332
1313638.3263754752,-83100.99,-60427.168,-32768.27,-15618.571,3180.664,-3326.701,-37913.414,43838.95
1313638.3303754695,-83111.086,-60426.11,-32772.586,-15618.327,3180.0132,-3323.7712,-37914.47,43837.65
1313638.3343754641,-83103.27,-60428.348,-32771.85,-15618.979,3178.1414,-3322.0215,-37911.133,43835.004
1313638.3383754585,-83094.98,-60422.934,-32770.836,-15619.304,3182.536,-3322.0215,-37906.984,43838.79
1313638.342375453,-83091.19,-60420.37,-32768.598,-15617.961,3185.018,-3321.452,-37906.74,43835.492
1313638.3463754477,-83096.93,-60426.84,-32767.986,-15619.141,3184.082,-3318.4001,-37906.09,43843.223
1313638.350375442,-83100.51,-60427.492,-32771.16,-15622.396,3181.6814,-3315.7146,-37906.453,43848.473
1313638.3543754367,-83100.95,-60425.78,-32773.355,-15622.437,3181.1523,-3314.9822,-37906.414,43845.785
1313638.358375431,-83104.25,-60422.0,-32771.61,-15620.036,3182.8613,-3313.3545,-37900.797,43847.496
1313638.3623754256,-83108.93,-60422.65,-32774.7,-15622.355,3182.495,-3317.9119,-37900.797,43845.258
1313638.36637542,-83111.086,-60430.42,-32774.945,-15624.634,3181.071,-3317.505,-37900.676,43844.035
1313638.3703754146,-83112.19,-60432.496,-32777.344,-15624.228,3177.2056,-3315.267,-37906.047,43842.695
1313638.374375409,-83115.766,-60429.688,-32778.117,-15621.704,3178.06,-3315.9995,-37906.453,43837.402
1313638.3783754036,-83108.484,-60425.05,-32773.52,-15617.798,3183.3904,-3316.9353,-37904.01,43834.473
1313638.382375398,-83101.484,-60425.05,-32770.754,-15615.927,3184.8145,-3318.1152,-37903.77,43831.83
1313638.3863753926,-83101.16,-60429.812,-32771.363,-15616.781,3178.6296,-3318.2373,-37902.305,43836.754
1313638.390375387,-83108.73,-60433.84,-32773.316,-15618.246,3173.869,-3314.9414,-37904.83,43838.176
1313638.3943753815,-83105.555,-60432.21,-32770.957,-15615.683,3175.293,-3313.5173,-37906.863,43835.29
1313638.3983753761,-83099.57,-60429.527,-32767.58,-15616.008,3176.5137,-3314.7788,-37904.703,43835.45
1313638.4023753705,-83098.11,-60429.566,-32764.121,-15617.31,3177.0427,-3321.696,-37908.285,43833.54
1313638.406375365,-83101.12,-60430.46,-32765.992,-15619.548,3176.5544,-3322.9167,-37907.918,43840.7
1313638.4103753595,-83098.76,-60430.055,-32767.66,-15616.984,3177.2056,-3315.7554,-37904.785,43854.29
1313638.414375354,-83092.41,-60428.836,-32763.957,-15615.031,3178.711,-3313.6394,-37904.785,43850.832
1313638.4183753484,-83092.2,-60424.562,-32757.814,-15612.834,3178.833,-3318.0747,-37906.78,43844.93
1313638.422375343,-83095.7,-60419.19,-32757.895,-15613.566,3180.5828,-3318.034,-37907.066,43848.676
1313638.4263753374,-83089.32,-60422.895,-32764.04,-15616.659,3177.2869,-3313.9648,-37906.78,43852.582
1313638.430375332,-83083.09,-60425.863,-32763.145,-15616.415,3173.8281,-3310.5876,-37907.84,43852.46
1313638.4343753264,-83081.305,-60423.465,-32759.768,-15614.99,3177.2056,-3311.1167,-37905.52,43850.06
1313638.438375321,-83082.52,-60422.61,-32757.406,-15615.234,3179.525,-3314.6973,-37902.06,43854.004
1313638.4423753154,-83081.586,-60423.953,-32757.57,-15616.455,3178.2634,-3316.1216,-37898.64,43859.58
1313638.44637531,-83088.46,-60427.816,-32761.312,-15618.571,3177.2869,-3315.0635,-37898.723,43858.156
1313638.4503753046,-83093.305,-60431.113,-32765.504,-15622.519,3171.8345,-3314.1685,-37899.457,43857.383
1313638.454375299,-83103.88,-60433.96,-32768.84,-15626.262,3171.5496,-3316.8132,-37900.105,43856.49
1313638.4583752935,-83101.89,-60427.613,-32773.074,-15624.512,3174.3572,-3317.749,-37895.184,43862.836
1313638.462375288,-83090.375,-60421.266,-32770.793,-15622.111,3178.06,-3315.3892,-37892.66,43859.742
1313638.4663752825,-83091.07,-60423.75,-32769.125,-15621.379,3180.1758,-3311.2388,-37891.074,43863.203
1313638.4703752769,-83090.3,-60425.742,-32765.342,-15621.176,3177.0427,-3309.082,-37891.03,43863.16
1313638.4743752715,-83084.88,-60422.49,-32763.55,-15619.589,3180.8677,-3308.7566,-37894.29,43859.62
1313638.4783752658,-83091.07,-60421.227,-32765.057,-15619.223,3182.129,-3311.6863,-37895.59,43856.69
1313638.4823752604,-83100.305,-60422.445,-32766.36,-15620.361,3180.0537,-3315.4297,-37897.46,43857.26
1313638.4863752548,-83099.66,-60427.94,-32770.633,-15621.298,3178.1414,-3313.2324,-37894.246,43870.2
1313638.4903752494,-83108.28,-60429.324,-32774.414,-15622.192,3178.7517,-3308.96,-37894.207,43873.25
1313638.4943752438,-83106.98,-60428.184,-32773.6,-15621.379,3179.6875,-3305.9897,-37893.11,43874.84
1313638.4983752384,-83099.445,-60427.94,-32772.586,-15621.135,3180.0945,-3308.1462,-37889.85,43875.164
1313638.502375233,-83091.8,-60424.887,-32774.945,-15621.704,3182.536,-3311.727,-37892.703,43867.23
1313638.5063752274,-83094.65,-60426.027,-32774.58,-15621.582,3183.2275,-3312.0933,-37896.89,43866.7
1313638.510375222,-83096.44,-60427.004,-32772.176,-15618.571,3182.658,-3309.1636,-37894.938,43874.637
1313638.5143752163,-83094.36,-60423.18,-32768.758,-15615.072,3181.7627,-3306.7222,-37894.734,43867.39
1313638.518375211,-83091.88,-60422.49,-32764.934,-15614.665,3180.7861,-3310.6284,-37897.83,43855.43
1313638.5223752053,-83088.95,-60424.562,-32761.271,-15616.293,3181.1523,-3317.1794,-37900.27,43847.7
1313638.5263752,-83097.7,-60427.168,-32762.209,-15616.74,3183.5938,-3318.4814,-37902.996,43843.75
1313638.5303751943,-83104.29,-60427.492,-32765.139,-15619.345,3181.5186,-3314.2905,-37907.39,43840.17
1313638.5343751889,-83106.24,-60425.293,-32764.527,-15617.229,3182.2104,-3311.9304,-37905.19,43846.152
1313638.5383751832,-83092.98,-60424.93,-32762.29,-15616.496,3182.658,-3314.3718,-37901.285,43853.68
1313638.5423751778,-83083.26,-60428.02,-32761.11,-15619.345,3178.8738,-3316.569,-37900.15,43854.86
1313638.5463751724,-83088.055,-60431.97,-32766.074,-15620.81,3176.3103,-3315.0635,-37896.688,43857.465
1313638.5503751668,-83092.94,-60428.508,-32767.701,-15618.083,3179.24,-3310.0586,-37894.816,43859.09
1313638.5543751614,-83084.68,-60422.812,-32763.307,-15617.106,3182.9429,-3309.4077,-37894.45,43859.375
1313638.5583751558,-83082.36,-60418.906,-32757.326,-15618.164,3185.0586,-3310.9539,-37891.36,43862.43
1313638.5623751504,-83090.984,-60420.777,-32761.924,-15618.979,3184.6519,-3313.6394,-37889.977,43868.855
1313638.5663751448,-83093.75,-60423.586,-32765.219,-15619.101,3182.4546,-3312.0525,-37890.91,43871.016
1313638.5703751394,-83092.125,-60423.016,-32762.9,-15618.652,3182.0068,-3307.6987,-37890.625,43878.133
1313638.5743751337,-83096.97,-60419.312,-32760.133,-15616.74,3183.5125,-3306.3152,-37890.098,43878.418
1313638.5783751283,-83087.65,-60414.188,-32758.953,-15614.096,3188.436,-3309.1228,-37888.67,43870.242
1313638.5823751227,-83075.445,-60412.64,-32759.156,-15614.502,3191.4062,-3308.8787,-37885.906,43870.77
1313638.5863751173,-83076.055,-60416.504,-32760.377,-15618.734,3186.198,-3307.5767,-37882.527,43880.414
1313638.5903751117,-83080.28,-60419.477,-32761.76,-15621.216,3185.5469,-3305.2166,-37884.684,43883.426
1313638.5943751063,-83081.34,-60423.465,-32759.604,-15620.361,3185.5876,-3301.229,-37885.01,43881.348
1313638.5983751009,-83085.53,-60419.355,-32759.035,-15620.81,3189.8193,-3301.229,-37879.11,43885.094
1313638.6023750952,-83086.71,-60415.57,-32759.074,-15621.664,3191.7725,-3304.891,-37877.44,43884.117
1313638.6063750898,-83090.25,-60417.97,-32757.326,-15622.6,3189.0056,-3302.653,-37876.832,43889.73
1313638.6103750842,-83096.234,-60420.29,-32756.633,-15623.454,3182.2104,-3299.276,-37876.547,43891.97
1313638.6143750788,-83097.17,-60417.97,-32757.895,-15622.111,3182.6987,-3298.5435,-37875.773,43890.137
1313638.6183750732,-83083.78,-60415.12,-32753.541,-15619.223,3189.2498,-3298.6248,-37875.773,43885.133
1313638.6223750678,-83073.53,-60415.773,-32750.57,-15618.9375,3191.2437,-3304.6062,-37879.11,43879.723
1313638.6263750622,-83075.445,-60414.96,-32751.955,-15618.53,3189.86,-3308.3904,-37884.684,43875.45
1313638.6303750568,-83086.43,-60418.457,-32758.83,-15619.345,3187.0525,-3305.7456,-37887.86,43879.926
1313638.6343750511,-83099.66,-60419.598,-32762.127,-15619.06,3185.8318,-3303.0193,-37890.91,43870.2
1313638.6383750457,-83103.6,-60420.207,-32761.516,-15618.53,3187.2966,-3301.6765,-37886.92,43871.46
1313638.64237504,-83099.41,-60418.176,-32761.516,-15617.31,3188.3953,-3305.1758,-37883.344,43872.438
1313638.6463750347,-83100.67,-60425.133,-32765.748,-15617.961,3183.6345,-3305.42,-37882.45,43878.582
1313638.6503750293,-83107.99,-60432.336,-32771.04,-15622.274,3178.5076,-3306.3965,-37889.04,43868.41
1313638.6543750237,-83117.11,-60434.855,-32766.766,-15624.472,3175.3745,-3306.5593,-37892.418,43864.707
1313638.6583750183,-83110.92,-60431.36,-32759.97,-15621.745,3180.0945,-3305.2166,-37889.04,43873.21
1313638.6623750126,-83103.72,-60431.48,-32761.354,-15624.553,3180.0945,-3309.4482,-37891.52,43864.42
1313638.6663750072,-83101.73,-60433.8,-32762.818,-15626.791,3178.06,-3307.3325,-37895.062,43867.758
1313638.6703750016,-83097.25,-60430.258,-32760.5,-15626.262,3177.816,-3304.0771,-37897.992,43865.766
1313638.6743749962,-83099.29,-60427.94,-32757.773,-15625.366,3178.1821,-3303.9958,-37896.89,43868.652
1313638.6783749906,-83093.18,-60423.707,-32752.523,-15624.187,3183.1462,-3305.0945,-37893.555,43874.31
1313638.6823749852,-83088.914,-60421.55,-32751.262,-15622.03,3187.7441,-3309.4482,-37889.69,43883.06
1313638.6863749796,-83095.87,-60428.793,-32750.938,-15622.641,3185.7505,-3306.9663,-37890.87,43884.402
1313638.6903749742,-83100.51,-60440.15,-32753.053,-15623.169,3183.2683,-3302.0427,-37893.84,43884.117
1313638.6943749685,-83092.94,-60437.582,-32755.047,-15622.885,3184.5298,-3299.1943,-37891.52,43883.383
1313638.6983749631,-83080.125,-60430.383,-32751.1,-15621.908,3186.076,-3300.4558,-37889.445,43885.418
1313638.7023749577,-83073.695,-60431.6,-32750.652,-15620.81,3185.5469,-3306.1523,-37887.94,43890.016
1313638.706374952,-83077.84,-60430.79,-32750.652,-15622.233,3187.5,-3303.06,-37887.492,43893.883
1313638.7103749467,-83084.96,-60433.23,-32753.5,-15621.542,3186.5642,-3299.8047,-37885.99,43902.832
1313638.714374941,-83079.15,-60430.664,-32755.982,-15621.582,3185.5469,-3297.689,-37882.773,43903.934
1313638.7183749357,-83069.7,-60424.074,-32751.426,-15619.955,3190.2263,-3298.6248,-37882.773,43900.88
1313638.72237493,-83071.125,-60421.266,-32749.473,-15617.839,3193.3594,-3302.6938,-37885.66,43894.453
1313638.7263749246,-83073.57,-60425.133,-32750.57,-15617.839,3191.0808,-3303.955,-37888.957,43894.168
1313638.730374919,-83084.96,-60430.664,-32749.717,-15617.636,3188.2324,-3299.235,-37890.504,43891.766
1313638.7343749136,-83084.35,-60433.188,-32746.623,-15618.571,3184.2449,-3297.8923,-37890.18,43886.883
1313638.738374908,-83084.59,-60443.605,-32749.188,-15620.565,3181.478,-3297.689,-37886.8,43887.535
1313638.7423749026,-83095.3,-60453.94,-32751.506,-15622.111,3177.4902,-3301.8394,-37886.15,43889.812
1313638.7463748972,-83095.79,-60442.465,-32753.582,-15622.111,3179.647,-3304.4434,-37885.418,43895.918
1313638.7503748916,-83076.87,-60427.41,-32753.053,-15619.67,3187.6628,-3301.7578,-37887.98,43894.207
1313638.7543748862,-83067.586,-60421.348,-32752.361,-15616.74,3191.976,-3300.1304,-37888.875,43892.254
1313638.7583748805,-83078.62,-60423.137,-32757.936,-15615.845,3195.7603,-3303.5483,-37888.227,43884.93
1313638.7623748751,-83085.9,-60426.92,-32762.697,-15619.263,3195.394,-3306.1118,-37885.703,43887.9
1313638.7663748695,-83096.4,-60432.09,-32766.154,-15623.942,3193.156,-3301.7986,-37885.418,43889.082
1313638.770374864,-83101.85,-60439.09,-32766.195,-15625.529,3188.7207,-3297.404,-37887.004,43891.562
1313638.7743748585,-83098.23,-60435.508,-32763.795,-15622.803,3189.331,-3297.2007,-37890.79,43887.777
1313638.778374853,-83095.46,-60442.547,-32763.674,-15624.064,3186.7676,-3298.9097,-37890.098,43885.703
1313638.7823748474,-83101.61,-60451.297,-32763.836,-15626.547,3184.0415,-3302.0835,-37890.668,43885.418
1313638.786374842,-83112.96,-60450.24,-32767.416,-15626.181,3183.3496,-3300.7407,-37890.992,43885.867
1313638.7903748364,-83126.47,-60450.81,-32769.086,-15626.099,3182.9834,-3297.282,-37890.26,43887.94
1313638.794374831,-83120.2,-60449.426,-32769.125,-15624.187,3185.8726,-3298.6655,-37892.945,43884.44
1313638.7983748256,-83111.25,-60448.242,-32767.498,-15624.431,3189.331,-3302.2869,-37894.41,43883.914
1313638.80237482,-83104.49,-60451.5,-32770.957,-15626.425,3189.1277,-3303.1821,-37896.08,43880.656
1313638.8063748146,-83111.984,-60457.195,-32774.13,-15626.953,3184.4482,-3298.3806,-37895.875,43884.156
1313638.810374809,-83118.45,-60458.418,-32774.863,-15628.5,3182.129,-3293.9453,-37894.37,43885.54
1313638.8143748036,-83121.46,-60454.797,-32776.043,-15627.441,3185.669,-3296.875,-37898.316,43875.367
1313638.818374798,-83125.66,-60452.965,-32776.652,-15626.262,3186.7676,-3300.0083,-37896.934,43871.543
1313638.8223747925,-83119.14,-60450.277,-32774.13,-15626.343,3187.4187,-3304.9316,-37895.062,43874.637
1313638.826374787,-83121.91,-60448.45,-32773.6,-15626.059,3186.9712,-3303.3855,-37894.53,43879.316
1313638.8303747815,-83122.64,-60449.504,-32777.75,-15625.204,3186.2793,-3298.584,-37897.707,43881.96
1313638.8343747759,-83119.875,-60452.434,-32783.49,-15624.838,3187.4187,-3297.16,-37895.67,43883.63
1313638.8383747705,-83124.76,-60448.652,-32780.805,-15623.82,3188.5173,-3300.537,-37892.703,43885.62
1313638.8423747648,-83124.27,-60444.906,-32777.875,-15621.582,3190.5518,-3305.1353,-37894.574,43886.027
1313638.8463747595,-83109.78,-60444.824,-32775.105,-15620.728,3190.4705,-3301.6357,-37894.37,43892.54
1313638.850374754,-83107.95,-60448.73,-32774.617,-15619.833,3188.436,-3298.9097,-37892.703,43896.527
1313638.8543747484,-83114.586,-60459.883,-32773.6,-15621.257,3182.3325,-3300.1304,-37892.824,43896.527
1313638.858374743,-83100.51,-60444.215,-32764.445,-15619.263,3185.669,-3302.409,-37889.324,43900.27
1313638.8623747374,-83078.25,-60420.207,-32755.941,-15616.089,3193.1152,-3307.9834,-37889.85,43898.64
1313638.866374732,-83077.84,-60426.312,-32757.936,-15617.758,3190.4297,-3304.24,-37890.992,43897.625
1313638.8703747264,-83083.21,-60432.21,-32760.295,-15617.065,3189.4126,-3298.4214,-37891.766,43897.543
1313638.874374721,-83087.12,-60433.92,-32760.865,-15618.856,3188.314,-3294.7185,-37887.98,43898.6
1313638.8783747153,-83088.87,-60433.676,-32759.482,-15620.605,3188.1104,-3298.9097,-37883.344,43897.34
1313638.88237471,-83087.69,-60430.746,-32758.83,-15621.664,3188.9648,-3303.1414,-37882.977,43895.223
1313638.8863747043,-83079.914,-60429.527,-32756.105,-15619.955,3187.5815,-3301.88,-37885.215,43895.793
1313638.890374699,-83088.46,-60437.46,-32759.197,-15621.582,3181.1118,-3298.2993,-37886.07,43893.19
1313638.8943746933,-83093.75,-60438.805,-32759.238,-15620.321,3181.1118,-3294.1895,-37883.14,43890.75
1313638.8983746879,-83083.7,-60429.77,-32757.814,-15620.891,3184.4482,-3294.7185,-37880.086,43897.258
1313638.9023746825,-83076.26,-60427.734,-32756.715,-15622.314,3186.7676,-3301.229,-37879.52,43900.8
1313638.9063746769,-83085.086,-60431.6,-32758.709,-15623.576,3184.1636,-3300.6592,-37878.62,43903.402
1313638.9103746715,-83093.18,-60432.863,-32757.732,-15621.989,3185.5876,-3296.6716,-37878.094,43903.566
1313638.9143746658,-83086.39,-60433.96,-32757.65,-15619.345,3185.791,-3294.9219,-37878.785,43904.258
1313638.9183746604,-83076.83,-60434.734,-32760.215,-15620.321,3185.5063,-3296.6309,-37876.59,43904.543
1313638.9223746548,-83087.28,-60437.91,-32760.662,-15620.972,3183.9194,-3300.0083,-37876.914,43904.785
1313638.9263746494,-83093.55,-60441.246,-32761.924,-15621.135,3182.9429,-3301.0254,-37879.56,43902.547
1313638.9303746438,-83094.85,-60435.875,-32763.307,-15619.955,3184.367,-3298.2993,-37885.742,43897.34
1313638.9343746384,-83091.92,-60435.875,-32765.707,-15617.676,3184.896,-3296.4683,-37884.035,43899.457
1313638.9383746327,-83090.45,-60436.566,-32767.701,-15618.652,3184.774,-3299.235,-37880.453,43900.516
1313638.9423746273,-83091.8,-60435.02,-32766.154,-15617.961,3185.2622,-3306.193,-37883.26,43891.97
1313638.946374622,-83095.91,-60440.023,-32768.758,-15620.158,3181.1523,-3307.536,-37887.613,43893.516
1313638.9503746163,-83101.484,-60444.824,-32771.08,-15620.28,3179.4434,-3302.8564,-37885.906,43900.84
1313638.954374611,-83111.53,-60445.395,-32770.55,-15617.595,3180.0945,-3302.0427,-37884.36,43898.48
1313638.9583746053,-83112.96,-60445.477,-32767.783,-15615.52,3180.7048,-3300.171,-37882.527,43899.457
1313638.9623745999,-83102.91,-60445.844,-32768.395,-15616.537,3180.7456,-3305.9082,-37885.54,43897.42
1313638.9663745943,-83098.06,-60447.797,-32768.312,-15618.9375,3180.6235,-3307.251,-37888.062,43896.527
1313638.9703745889,-83091.76,-60448.04,-32765.057,-15616.211,3180.4607,-3301.9614,-37887.004,43900.188
1313638.9743745832,-83094.56,-60447.266,-32763.145,-15615.112,3180.9082,-3298.7876,-37884.195,43898.848
1313638.9783745778,-83091.02,-60445.152,-32761.232,-15612.793,3182.129,-3301.1475,-37883.668,43896.566
1313638.9823745722,-83089.03,-60446.7,-32762.004,-15613.77,3182.536,-3305.949,-37885.094,43893.15
1313638.9863745668,-83096.6,-60448.812,-32764.486,-15617.106,3180.7048,-3305.42,-37882.977,43892.945
1313638.9903745612,-83100.63,-60450.89,-32766.074,-15619.06,3177.531,-3300.3337,-37879.64,43905.234
1313638.9943745558,-83103.516,-60454.797,-32764.65,-15618.368,3176.5137,-3297.404,-37878.582,43902.344
1313638.9983745504,-83098.43,-60449.586,-32764.73,-15617.106,3180.42,-3297.6074,-37874.51,43901.043
1313639.0023745447,-83105.555,-60449.63,-32765.871,-15620.117,3180.42,-3301.6357,-37872.477,43902.547
1313639.0063745393,-83115.32,-60452.355,-32764.162,-15622.763,3177.002,-3299.8047,-37873.7,43907.227
1313639.0103745337,-83109.83,-60451.824,-32762.533,-15620.972,3175.9849,-3297.4854,-37874.39,43915.406
1313639.0143745283,-83098.836,-60452.844,-32759.562,-15617.351,3178.955,-3298.0552,-37877.566,43909.668
1313639.0183745227,-83086.51,-60445.11,-32755.332,-15613.77,3183.8787,-3301.351,-37881.348,43895.633
1313639.0223745173,-83081.75,-60433.105,-32754.477,-15611.125,3189.4126,-3303.1006,-37880.332,43890.91
1313639.0263745117,-83077.44,-60431.152,-32757.488,-15611.694,3190.6333,-3302.7344,-37880.008,43893.637
1313639.0303745063,-83081.46,-60437.91,-32763.307,-15616.577,3186.8083,-3301.5137,-37882.367,43901.53
1313639.0343745006,-83081.87,-60437.176,-32761.598,-15616.496,3186.076,-3299.0317,-37880.008,43910.688
1313639.0383744952,-83083.375,-60429.484,-32757.732,-15615.112,3187.907,-3298.706,-37875.938,43913.535
1313639.0423744896,-83083.17,-60427.37,-32757.57,-15616.496,3189.209,-3299.9675,-37873.293,43912.438
1313639.0463744842,-83080.445,-60429.527,-32758.262,-15618.734,3184.0415,-3299.8862,-37872.4,43918.297
1313639.0503744788,-83077.88,-60434.043,-32759.523,-15617.514,3183.8787,-3294.8406,-37870.08,43923.87
1313639.0543744732,-83077.234,-60431.277,-32759.604,-15615.683,3187.378,-3293.213,-37873.21,43911.297
1313639.0583744678,-83081.75,-60425.703,-32756.553,-15615.927,3191.203,-3296.8345,-37873.78,43908.0
1313639.0623744621,-83083.17,-60427.734,-32755.617,-15615.764,3196.167,-3302.4902,-37873.17,43906.984
1313639.0663744567,-83080.445,-60433.23,-32759.889,-15619.873,3189.1277,-3304.647,-37876.547,43908.203
1313639.070374451,-83082.69,-60438.6,-32760.5,-15622.437,3185.0994,-3303.06,-37880.13,43902.47
1313639.0743744457,-83083.74,-60441.406,-32759.604,-15621.013,3184.4077,-3300.3745,-37881.55,43903.688
1313639.07837444,-83079.875,-60436.2,-32756.838,-15618.164,3187.0525,-3305.5015,-37883.18,43899.58
1313639.0823744347,-83080.53,-60434.207,-32756.35,-15615.316,3190.3484,-3310.3843,-37884.277,43897.87
1313639.086374429,-83081.26,-60436.566,-32755.129,-15616.008,3186.7676,-3305.42,-37883.016,43902.793
1313639.0903744237,-83078.86,-60438.4,-32754.396,-15616.171,3182.536,-3299.9268,-37885.867,43896.28
1313639.094374418,-83079.914,-60438.64,-32752.97,-15612.468,3181.8848,-3300.6592,-37887.777,43889.12
1313639.0983744126,-83080.33,-60436.28,-32748.373,-15609.741,3186.1167,-3300.2117,-37885.418,43889.363
1313639.1023744072,-83079.1,-60435.02,-32743.084,-15610.515,3188.5173,-3301.7578,-37886.027,43885.582
1313639.1063744016,-83088.42,-60439.535,-32747.072,-15611.9795,3185.4656,-3304.4028,-37890.18,43892.945
1313639.1103743962,-83094.73,-60438.723,-32751.262,-15613.119,3183.6345,-3300.6187,-37890.055,43899.66
1313639.1143743906,-83079.39,-60428.1,-32750.896,-15609.131,3187.907,-3301.0662,-37890.055,43893.27
1313639.1183743852,-83073.49,-60423.87,-32748.74,-15606.608,3190.5518,-3301.9207,-37887.86,43893.35
1313639.1223743795,-83069.5,-60422.04,-32745.12,-15605.307,3194.6616,-3304.525,-37888.227,43888.918
1313639.1263743741,-83073.08,-60421.348,-32749.553,-15606.934,3194.58,-3304.1587,-37888.875,43892.293
1313639.1303743685,-83079.1,-60429.12,-32750.814,-15608.195,3191.2437,-3299.0317,-37885.38,43897.258
1313639.134374363,-83079.76,-60430.34,-32747.031,-15607.463,3190.145,-3294.5964,-37882.73,43902.266
1313639.1383743575,-83078.984,-60425.906,-32746.34,-15607.87,3193.3594,-3296.753,-37881.754,43897.625
1313639.142374352,-83078.82,-60429.242,-32746.867,-15609.213,3191.9353,-3302.1648,-37879.8,43893.598
1313639.1463743465,-83100.016,-60452.23,-32751.955,-15614.096,3183.187,-3298.0552,-37872.805,43903.85
1313639.150374341,-83120.85,-60470.34,-32760.092,-15619.385,3177.3682,-3290.6902,-37868.9,43916.3
1313639.1543743357,-83107.38,-60455.895,-32759.156,-15616.618,3185.0586,-3290.1611,-37870.16,43921.875
1313639.15837433,-83093.875,-60444.094,-32755.535,-15614.462,3190.023,-3290.9343,-37868.004,43924.113
1313639.1623743246,-83096.234,-60437.91,-32751.385,-15614.299,3196.045,-3295.3289,-37865.152,43930.625
1313639.166374319,-83102.26,-60444.62,-32753.988,-15617.392,3194.5396,-3291.626,-37863.242,43937.746
1313639.1703743136,-83116.46,-60456.016,-32759.238,-15619.548,3191.2842,-3289.3474,-37864.42,43935.914
1313639.174374308,-83123.66,-60466.23,-32760.744,-15619.873,3190.023,-3287.435,-37865.36,43935.14
1313639.1783743026,-83121.42,-60473.715,-32759.156,-15620.199,3188.029,-3290.039,-37866.457,43927.207
1313639.182374297,-83132.695,-60477.46,-32758.586,-15623.657,3190.4297,-3295.044,-37866.254,43927.938
1313639.1863742915,-83137.86,-60477.99,-32763.104,-15626.059,3194.9463,-3295.6543,-37871.46,43916.707
1313639.190374286,-83145.836,-60490.93,-32770.67,-15631.267,3188.9243,-3292.1958,-37876.63,43917.89
1313639.1943742805,-83150.8,-60491.58,-32769.734,-15629.639,3187.8257,-3286.377,-37871.38,43931.766
1313639.1983742751,-83141.484,-60484.66,-32765.992,-15625.163,3191.0808,-3288.33,-37867.92,43929.2
1313639.2023742695,-83137.45,-60488.16,-32764.934,-15625.977,3191.8132,-3291.504,-37868.164,43919.027
1313639.206374264,-83132.49,-60489.18,-32767.092,-15627.116,3191.8132,-3289.6323,-37866.375,43925.66
1313639.2103742585,-83139.61,-60485.72,-32771.445,-15627.401,3190.6738,-3287.8013,-37869.344,43923.098
1313639.214374253,-83148.97,-60486.453,-32771.484,-15625.57,3188.6394,-3284.79,-37867.312,43922.977
1313639.2183742474,-83151.2,-60485.434,-32767.375,-15622.233,3189.8193,-3286.499,-37865.074,43924.684
1313639.222374242,-83150.15,-60487.836,-32766.887,-15625.326,3190.7554,-3291.504,-37866.66,43920.25
1313639.2263742364,-83147.38,-60488.566,-32769.734,-15626.75,3187.5815,-3292.6025,-37867.27,43919.23
1313639.230374231,-83148.97,-60491.254,-32773.074,-15626.018,3185.3027,-3287.191,-37866.008,43926.637
1313639.2343742254,-83146.28,-60495.688,-32772.38,-15623.861,3184.0415,-3285.726,-37865.848,43927.777
1313639.23837422,-83149.7,-60495.16,-32773.074,-15624.023,3184.7332,-3289.8357,-37867.188,43924.316
1313639.2423742143,-83157.8,-60496.79,-32771.527,-15627.89,3183.8787,-3294.271,-37866.008,43924.03
1313639.246374209,-83155.56,-60497.438,-32774.332,-15628.093,3182.4138,-3292.3992,-37864.87,43923.91
1313639.2503742035,-83157.836,-60499.758,-32778.32,-15629.3545,3181.356,-3289.4695,-37863.527,43937.5
1313639.254374198,-83156.01,-60502.65,-32777.14,-15628.662,3179.0771,-3284.7087,-37862.67,43937.543
1313639.2583741925,-83152.75,-60498.375,-32771.65,-15626.994,3180.7861,-3284.0576,-37860.92,43928.062
1313639.262374187,-83162.88,-60497.277,-32768.066,-15626.262,3181.2744,-3285.6853,-37852.742,43940.35
1313639.2663741815,-83170.125,-60502.44,-32770.47,-15627.523,3178.3447,-3288.5337,-37853.844,43943.035
1313639.2703741759,-83156.86,-60503.906,-32778.24,-15628.784,3180.1758,-3286.499,-37857.547,43937.215
1313639.2743741705,-83149.78,-60505.008,-32779.01,-15630.615,3177.7751,-3284.9937,-37858.4,43936.28
1313639.2783741648,-83148.89,-60498.09,-32777.06,-15629.436,3182.129,-3283.9763,-37853.395,43948.61
1313639.2823741594,-83151.164,-60493.37,-32771.445,-15630.981,3183.309,-3287.5571,-37850.832,43948.324
1313639.2863741538,-83157.31,-60498.09,-32772.38,-15631.877,3185.1401,-3286.1328,-37850.79,43949.016
1313639.2903741484,-83155.805,-60503.785,-32773.766,-15633.708,3179.4434,-3284.953,-37856.285,43944.824
1313639.2943741428,-83150.15,-60505.332,-32775.23,-15632.284,3181.478,-3283.0405,-37857.504,43942.586
1313639.2983741374,-83152.55,-60498.863,-32775.72,-15631.226,3185.5063,-3284.3018,-37855.715,43940.227
1313639.302374132,-83153.98,-60489.258,-32774.008,-15628.54,3189.5752,-3288.4116,-37852.867,43936.24
1313639.3063741263,-83150.68,-60487.023,-32774.293,-15628.866,3188.8428,-3286.1736,-37855.797,43937.582
1313639.310374121,-83150.39,-60490.36,-32773.234,-15629.517,3185.3435,-3280.7212,-37859.703,43942.223
1313639.3143741153,-83154.18,-60492.676,-32771.16,-15627.279,3187.0933,-3281.6162,-37862.633,43937.703
1313639.31837411,-83146.69,-60490.277,-32769.86,-15624.838,3189.2498,-3285.2783,-37864.83,43927.004
1313639.3223741043,-83143.805,-60491.008,-32766.887,-15627.441,3187.5408,-3287.1501,-37866.824,43920.332
1313639.326374099,-83144.49,-60492.8,-32770.957,-15630.778,3183.1055,-3284.8308,-37866.863,43923.992
1313639.3303740933,-83145.67,-60495.324,-32770.348,-15630.981,3181.3965,-3282.5928,-37864.34,43928.836
1313639.3343740879,-83145.67,-60494.223,-32768.23,-15628.093,3182.536,-3282.3486,-37861.94,43934.855
1313639.3383740822,-83137.05,-60487.387,-32766.033,-15626.831,3182.6172,-3284.2612,-37860.27,43941.164
1313639.3423740768,-83133.016,-60481.773,-32762.818,-15627.727,3185.669,-3289.7544,-37863.04,43938.965
1313639.3463740712,-83139.81,-60488.04,-32766.725,-15630.493,3184.774,-3289.0625,-37864.42,43945.152
1313639.3503740658,-83139.484,-60492.188,-32772.504,-15631.796,3180.0945,-3285.1562,-37865.195,43948.324
1313639.3543740604,-83138.39,-60490.97,-32770.59,-15629.558,3179.24,-3278.9714,-37865.805,43947.676
1313639.3583740548,-83144.414,-60491.457,-32770.754,-15630.453,3177.531,-3277.3438,-37864.664,43949.14
1313639.3623740494,-83151.53,-60488.16,-32767.05,-15630.249,3181.478,-3283.6914,-37864.22,43947.145
1313639.3663740437,-83149.46,-60491.66,-32770.305,-15630.778,3182.495,-3286.255,-37865.152,43949.668
1313639.3703740383,-83144.695,-60493.45,-32773.805,-15632.609,3178.5076,-3280.5583,-37869.508,43942.508
1313639.3743740327,-83140.34,-60492.312,-32773.926,-15631.145,3178.6296,-3277.9136,-37871.625,43938.113
1313639.3783740273,-83141.08,-60487.957,-32772.098,-15628.134,3181.9255,-3280.8433,-37870.445,43939.21
1313639.3823740217,-83144.58,-60483.766,-32768.35,-15627.197,3184.5298,-3282.186,-37868.33,43937.137
1313639.3863740163,-83144.53,-60486.41,-32770.55,-15626.547,3183.4312,-3280.5176,-37870.688,43938.926
1313639.3903740107,-83142.87,-60486.613,-32772.46,-15624.39,3182.658,-3278.3203,-37875.406,43937.95
1313639.3943740053,-83141.89,-60491.375,-32773.64,-15623.861,3183.6753,-3277.1404,-37877.36,43938.03
1313639.3983739999,-83143.234,-60492.92,-32772.3,-15623.657,3186.8896,-3280.477,-37876.914,43938.03
1313639.4023739942,-83138.305,-60489.137,-32772.137,-15624.1455,3184.2449,-3285.319,-37877.24,43933.066
1313639.4063739888,-83144.984,-60496.582,-32773.52,-15626.994,3180.664,-3285.5632,-37880.617,43934.98
1313639.4103739832,-83163.414,-60500.367,-32772.098,-15626.709,3178.6296,-3279.5005,-37881.105,43940.555
1313639.4143739778,-83160.61,-60497.56,-32770.914,-15625.57,3179.4434,-3276.408,-37880.21,43944.215
1313639.4183739722,-83145.71,-60491.17,-32768.11,-15620.728,3183.3496,-3276.001,-37875.203,43943.973
1313639.4223739668,-83137.58,-60488.566,-32763.51,-15619.711,3185.2622,-3282.1453,-37873.617,43937.01
1313639.4263739611,-83137.984,-60489.34,-32766.848,-15620.6875,3183.7566,-3281.4128,-37871.785,43947.105
1313639.4303739558,-83142.87,-60494.47,-32769.004,-15625.407,3181.9663,-3278.0356,-37873.58,43952.637
1313639.4343739501,-83144.01,-60500.855,-32768.92,-15626.994,3179.4841,-3276.001,-37874.918,43953.98
1313639.4383739447,-83147.26,-60502.81,-32763.266,-15627.116,3178.2227,-3275.5942,-37872.965,43956.625
1313639.442373939,-83147.79,-60499.31,-32764.69,-15625.57,3180.1758,-3277.9949,-37871.746,43953.98
1313639.4463739337,-83151.33,-60499.92,-32768.598,-15625.8545,3177.8564,-3274.943,-37871.582,43946.777
1313639.4503739283,-83147.22,-60486.004,-32767.092,-15623.007,3180.7048,-3274.821,-37879.312,43939.7
1313639.4543739227,-83137.58,-60481.73,-32762.86,-15621.46,3182.4138,-3270.752,-37878.664,43948.69
1313639.4583739173,-83129.84,-60489.543,-32761.232,-15622.722,3178.955,-3268.7988,-37874.594,43950.727
1313639.4623739116,-83124.8,-60484.945,-32765.342,-15623.413,3182.5767,-3277.1812,-37874.637,43943.973
1313639.4663739062,-83139.33,-60482.87,-32768.516,-15627.482,3183.4717,-3278.4832,-37874.51,43950.32
1313639.4703739006,-83139.734,-60483.81,-32769.004,-15625.651,3183.9194,-3275.7568,-37876.953,43948.527
1313639.4743738952,-83136.27,-60481.812,-32768.027,-15622.803,3182.6987,-3270.5078,-37876.87,43952.19
1313639.4783738896,-83139.61,-60478.883,-32769.207,-15623.901,3182.495,-3272.461,-37876.426,43952.76
1313639.4823738842,-83137.17,-60477.62,-32766.44,-15624.228,3181.5186,-3276.4487,-37875.0,43950.32
1313639.4863738785,-83139.33,-60481.812,-32766.033,-15625.814,3181.356,-3275.5942,-37873.25,43953.574
1313639.4903738732,-83137.49,-60489.746,-32764.975,-15626.221,3180.1353,-3270.2231,-37872.56,43959.516
1313639.4943738675,-83139.0,-60490.195,-32765.545,-15625.122,3178.7517,-3267.3748,-37871.664,43963.582
1313639.4983738621,-83140.914,-60485.883,-32767.416,-15625.244,3180.0537,-3270.5078,-37871.137,43963.055
1313639.5023738567,-83136.15,-60483.44,-32764.61,-15624.431,3183.4312,-3275.8384,-37873.414,43955.73
1313639.506373851,-83136.72,-60487.227,-32768.598,-15627.6045,3184.9365,-3278.6865,-37876.832,43952.15
1313639.5103738457,-83142.54,-60491.336,-32771.973,-15627.035,3184.4482,-3274.0073,-37875.977,43962.2
1313639.51437384,-83145.555,-60490.766,-32771.73,-15625.651,3180.1758,-3273.397,-37877.44,43962.2
1313639.5183738347,-83148.27,-60489.87,-32767.742,-15622.396,3181.8442,-3275.5127,-37878.38,43950.887
1313639.522373829,-83146.484,-60489.992,-32764.283,-15619.873,3179.7283,-3280.5583,-37879.395,43946.902
1313639.5263738236,-83150.8,-60496.055,-32770.02,-15622.641,3174.8862,-3281.372,-37879.273,43954.227
1313639.530373818,-83153.73,-60495.85,-32769.043,-15622.641,3174.276,-3277.7507,-37881.51,43953.29
1313639.5343738126,-83152.43,-60496.543,-32764.08,-15619.67,3173.5435,-3274.2107,-37880.37,43951.62
1313639.538373807,-83139.695,-60496.094,-32760.5,-15616.496,3177.8564,-3271.2402,-37875.0,43955.895
1313639.5423738016,-83137.375,-60491.58,-32760.744,-15617.636,3178.3447,-3274.577,-37872.355,43959.676
1313639.546373796,-83139.08,-60493.98,-32757.326,-15622.355,3172.7703,-3276.0417,-37873.902,43966.39
1313639.5503737906,-83143.19,-60500.938,-32754.191,-15622.314,3169.8406,-3273.1934,-37875.773,43960.98
1313639.5543737852,-83147.14,-60499.92,-32757.65,-15621.135,3161.499,-3269.7754,-37875.285,43962.08
1313639.5583737795,-83147.3,-60495.445,-32764.324,-15620.402,3174.3572,-3270.101,-37870.08,43968.06
1313639.5623737741,-83139.125,-60486.37,-32763.55,-15619.833,3181.478,-3274.577,-37867.758,43966.473
1313639.5663737685,-83132.41,-60485.477,-32760.295,-15618.002,3181.2744,-3277.832,-37869.06,43966.676
1313639.570373763,-83139.2,-60495.812,-32764.324,-15621.582,3176.1475,-3274.0073,-37868.652,43976.2
1313639.5743737575,-83156.66,-60495.28,-32765.79,-15623.454,3174.0723,-3271.566,-37866.945,43980.43
1313639.578373752,-83155.16,-60491.05,-32763.836,-15623.495,3176.5544,-3275.228,-37868.367,43969.85
1313639.5823737464,-83136.48,-60486.574,-32763.348,-15622.437,3181.234,-3280.1921,-37870.363,43962.16
1313639.586373741,-83142.336,-60491.58,-32769.37,-15625.244,3180.0537,-3276.6113,-37869.1,43961.55
1313639.5903737354,-83166.34,-60511.312,-32776.734,-15628.784,3172.933,-3268.7988,-37866.254,43969.363
1313639.59437373,-83146.445,-60496.34,-32770.426,-15625.204,3176.1882,-3268.1072,-37869.957,43974.285
1313639.5983737246,-83114.09,-60461.754,-32762.533,-15618.53,3184.4482,-3274.2515,-37874.43,43967.043
1313639.602373719,-83113.164,-60457.805,-32760.295,-15616.496,3184.6519,-3278.9714,-37871.38,43968.75
1313639.6063737136,-83126.23,-60461.71,-32761.68,-15618.693,3182.6172,-3275.3093,-37871.01,43971.723
1313639.610373708,-83110.03,-60451.17,-32760.092,-15617.473,3183.309,-3273.1528,-37874.51,43966.105
1313639.6143737026,-83083.055,-60435.47,-32758.994,-15613.363,3187.0933,-3271.6064,-37873.58,43967.695
1313639.618373697,-83080.125,-60437.582,-32759.035,-15612.427,3185.9946,-3274.292,-37875.203,43970.543
1313639.6223736915,-83070.92,-60421.594,-32754.355,-15610.393,3189.9414,-3282.7556,-37884.195,43953.125
1313639.626373686,-83073.61,-60405.97,-32751.588,-15609.294,3193.5222,-3282.5928,-37886.844,43953.047
1313639.6303736805,-83065.555,-60400.473,-32750.57,-15607.138,3193.1152,-3277.6287,-37883.465,43960.816
1313639.6343736749,-83050.01,-60396.812,-32745.77,-15603.801,3192.3828,-3274.821,-37883.707,43958.09
1313639.6383736695,-83049.805,-60399.254,-32742.88,-15603.923,3192.3828,-3279.7039,-37886.19,43951.54
1313639.6423736638,-83050.13,-60395.55,-32743.49,-15604.533,3196.4927,-3286.2957,-37889.406,43948.934
1313639.6463736584,-83055.26,-60399.58,-32745.81,-15604.858,3194.0105,-3285.075,-37890.586,43952.15
1313639.650373653,-83058.15,-60406.78,-32747.072,-15605.713,3191.569,-3284.3425,-37888.754,43957.277
1313639.6543736474,-83056.766,-60408.203,-32742.678,-15606.323,3189.6567,-3281.2095,-37888.023,43952.56
1313639.658373642,-83058.555,-60411.01,-32742.27,-15606.161,3190.8774,-3280.1108,-37885.703,43950.36
1313639.6623736364,-83058.68,-60410.117,-32740.684,-15605.998,3190.4705,-3282.1045,-37887.86,43946.25
1313639.666373631,-83061.36,-60411.297,-32739.707,-15606.608,3188.1104,-3279.948,-37887.535,43947.062
1313639.6703736254,-83074.1,-60413.94,-32740.928,-15610.84,3185.9946,-3278.0762,-37886.027,43949.63
1313639.67437362,-83078.45,-60414.918,-32744.914,-15611.45,3185.669,-3276.652,-37884.605,43954.918
1313639.6783736143,-83064.86,-60412.844,-32745.607,-15610.718,3188.5173,-3276.5708,-37883.79,43948.285
1313639.682373609,-83063.44,-60412.926,-32745.973,-15610.026,3192.2607,-3278.5645,-37884.81,43947.062
1313639.6863736033,-83067.016,-60418.54,-32747.682,-15611.857,3187.4187,-3278.4832,-37885.824,43954.59
1313639.690373598,-83066.53,-60426.11,-32744.996,-15613.485,3182.9429,-3275.7976,-37885.99,43953.37
1313639.6943735923,-83061.85,-60427.734,-32743.084,-15613.892,3181.8848,-3270.1824,-37882.73,43958.7
1313639.6983735869,-83062.91,-60425.09,-32740.44,-15614.462,3184.4482,-3271.9727,-37878.01,43964.844
1313639.7023735815,-83072.59,-60421.594,-32738.975,-15616.415,3186.7676,-3279.541,-37880.21,43956.22
1313639.7063735758,-83078.66,-60423.625,-32744.182,-15618.53,3183.838,-3278.4424,-37880.086,43961.63
1313639.7103735704,-83073.164,-60427.613,-32749.797,-15619.548,3179.362,-3276.3267,-37876.14,43974.938
1313639.7143735648,-83064.66,-60421.51,-32748.984,-15617.106,3179.8503,-3276.7742,-37873.617,43982.707
1313639.7183735594,-83061.57,-60414.023,-32744.223,-15614.502,3183.4312,-3276.001,-37870.32,43988.895
1313639.7223735538,-83063.6,-60412.234,-32743.938,-15612.834,3185.3435,-3277.1404,-37867.676,43994.305
1313639.7263735484,-83063.234,-60420.777,-32744.264,-15614.177,3182.7393,-3278.524,-37866.496,43999.797
1313639.7303735428,-83073.37,-60421.67,-32743.41,-15615.601,3181.2744,-3275.5127,-37867.516,43998.496
1313639.7343735374,-83089.56,-60423.34,-32747.275,-15618.449,3180.0132,-3272.7866,-37869.71,43987.67
1313639.7383735317,-83077.27,-60425.863,-32744.71,-15618.9375,3179.3213,-3274.17,-37868.125,43982.18
1313639.7423735263,-83065.02,-60424.44,-32745.729,-15617.595,3180.827,-3274.17,-37865.438,43989.055
1313639.7463735207,-83064.13,-60425.375,-32747.764,-15618.327,3181.071,-3274.943,-37867.188,43986.98
1313639.7503735153,-83073.04,-60430.055,-32746.135,-15618.49,3178.6296,-3273.1934,-37870.523,43974.734
1313639.75437351,-83076.625,-60431.074,-32743.898,-15616.618,3176.5137,-3268.392,-37869.14,43973.836
1313639.7583735043,-83070.84,-60425.863,-32742.393,-15614.218,3180.9082,-3270.0603,-37870.28,43967.734
1313639.7623734989,-83069.5,-60425.418,-32744.264,-15616.699,3183.1055,-3274.5361,-37872.723,43960.207
1313639.7663734932,-83071.58,-60425.703,-32750.611,-15618.205,3183.3904,-3275.1465,-37877.89,43951.094
1313639.7703734878,-83077.64,-60428.43,-32754.232,-15619.792,3182.5767,-3273.9258,-37880.7,43957.562
1313639.7743734822,-83096.73,-60427.33,-32757.041,-15620.81,3183.4312,-3272.705,-37883.79,43954.59
1313639.7783734768,-83094.2,-60428.754,-32754.762,-15619.955,3184.1636,-3271.566,-37882.242,43950.562
1313639.7823734712,-83077.64,-60423.707,-32750.734,-15619.507,3186.7676,-3276.6113,-37884.645,43942.586
1313639.7863734658,-83072.31,-60425.293,-32751.018,-15621.42,3187.0117,-3277.6694,-37886.434,43941.0
1313639.7903734602,-83071.62,-60426.11,-32750.855,-15619.67,3187.0933,-3273.6003,-37883.75,43950.727
1313639.7943734548,-83070.03,-60424.48,-32750.408,-15616.984,3188.5986,-3268.8396,-37883.87,43953.94
1313639.7983734491,-83071.45,-60419.312,-32749.188,-15617.106,3190.023,-3269.4907,-37882.12,43951.254
1313639.8023734437,-83074.625,-60414.023,-32743.938,-15617.1875,3191.9353,-3271.8914,-37879.598,43954.918
1313639.8063734383,-83077.07,-60411.867,-32743.734,-15616.659,3191.6912,-3273.1528,-37880.777,43956.42
1313639.8103734327,-83079.39,-60421.145,-32748.252,-15619.548,3186.198,-3270.9148,-37882.0,43957.113
1313639.8143734273,-83081.71,-60422.0,-32750.652,-15622.07,3182.0476,-3269.694,-37882.938,43957.316
1313639.8183734217,-83072.516,-60414.594,-32747.56,-15620.199,3183.7974,-3270.63,-37878.99,43958.133
1313639.8223734163,-83062.79,-60412.152,-32741.049,-15617.106,3184.774,-3271.6472,-37874.39,43963.625
1313639.8263734106,-83064.05,-60420.25,-32736.818,-15619.304,3182.78,-3275.0244,-37872.56,43973.715
1313639.8303734052,-83069.17,-60424.848,-32737.916,-15619.955,3179.0771,-3271.8506,-37874.15,43972.7
1313639.8343733996,-83078.53,-60426.598,-32740.44,-15617.636,3179.7283,-3265.747,-37874.594,43967.734
1313639.8383733942,-83085.05,-60425.5,-32741.172,-15615.805,3181.7222,-3267.1714,-37872.56,43973.145
1313639.8423733886,-83082.28,-60427.125,-32738.283,-15616.333,3178.4263,-3274.6177,-37875.45,43969.2
1313639.8463733832,-83081.914,-60435.996,-32741.984,-15617.961,3175.6187,-3275.2686,-37876.508,43970.137
1313639.8503733778,-83083.17,-60438.723,-32747.031,-15620.769,3170.695,-3267.985,-37872.355,43979.617
1313639.8543733722,-83080.734,-60434.043,-32744.834,-15619.467,3167.1958,-3263.9976,-37872.355,43973.96
1313639.8583733668,-83079.59,-60424.156,-32742.473,-15618.652,3169.6777,-3267.3748,-37877.24,43962.85
1313639.8623733611,-83069.38,-60417.44,-32743.613,-15616.252,3174.0317,-3273.6003,-37881.023,43957.684
1313639.8663733557,-83075.12,-60425.5,-32743.898,-15619.019,3174.9268,-3272.99,-37882.082,43959.516
1313639.87037335,-83087.73,-60430.258,-32748.252,-15620.524,3175.578,-3266.683,-37879.11,43964.64
1313639.8743733447,-83082.805,-60430.258,-32750.367,-15618.327,3174.5605,-3265.2183,-37878.094,43963.707
1313639.878373339,-83081.51,-60427.168,-32747.805,-15616.415,3176.8394,-3264.608,-37876.14,43959.72
1313639.8823733337,-83073.29,-60411.582,-32743.734,-15612.956,3184.0007,-3269.0837,-37877.523,43955.203
1313639.886373328,-83072.15,-60409.1,-32744.143,-15612.509,3187.1338,-3272.461,-37880.902,43957.645
1313639.8903733226,-83064.82,-60409.02,-32741.984,-15612.549,3191.162,-3271.1182,-37881.348,43965.21
1313639.894373317,-83052.25,-60406.13,-32739.91,-15612.671,3192.505,-3268.6768,-37882.773,43962.445
1313639.8983733116,-83050.58,-60400.516,-32743.084,-15611.613,3193.9292,-3269.694,-37883.547,43958.54
1313639.9023733062,-83050.87,-60394.695,-32743.816,-15611.654,3199.829,-3272.99,-37881.227,43961.67
1313639.9063733006,-83050.58,-60393.19,-32741.09,-15612.427,3204.4272,-3277.0183,-37889.566,43945.598
1313639.9103732952,-83059.86,-60389.977,-32740.764,-15614.95,3202.0671,-3274.6177,-37893.15,43945.965
1313639.9143732896,-83054.85,-60383.87,-32740.602,-15613.159,3201.4976,-3269.2058,-37887.004,43958.254
1313639.9183732842,-83055.79,-60382.812,-32742.717,-15614.055,3202.108,-3270.8335,-37882.938,43955.08
1313639.9223732785,-83061.69,-60391.887,-32742.717,-15616.333,3202.23,-3272.7458,-37878.258,43955.04
1313639.9263732731,-83043.42,-60388.145,-32736.37,-15614.909,3199.7478,-3275.6348,-37880.74,43955.65
1313639.9303732675,-83025.84,-60366.66,-32733.725,-15612.265,3200.521,-3273.397,-37883.344,43963.664
1313639.934373262,-83029.83,-60372.805,-32734.58,-15612.834,3196.8994,-3268.27,-37877.08,43974.49
1313639.9383732565,-83038.695,-60379.19,-32732.057,-15614.258,3194.4175,-3266.683,-37873.13,43976.766
1313639.942373251,-83041.016,-60383.383,-32730.959,-15614.258,3196.167,-3269.287,-37870.117,43971.723
1313639.9463732454,-83043.46,-60391.727,-32734.336,-15616.537,3195.7195,-3268.7988,-37867.637,43980.266
1313639.95037324,-83041.47,-60393.273,-32734.54,-15618.896,3195.0684,-3264.2417,-37867.105,43984.863
1313639.9543732347,-83054.37,-60401.367,-32737.875,-15621.338,3191.4878,-3261.5562,-37868.41,43984.01
1313639.958373229,-83061.57,-60402.996,-32734.213,-15619.629,3191.2842,-3259.5623,-37865.562,43979.086
1313639.9623732236,-83051.19,-60395.996,-32731.975,-15618.774,3193.2373,-3263.1836,-37866.496,43974.57
1313639.966373218,-83053.47,-60403.28,-32734.05,-15623.088,3185.791,-3266.2761,-37869.06,43979.902
1313639.9703732126,-83061.52,-60412.152,-32736.004,-15625.488,3182.6987,-3262.492,-37869.832,43980.918
1313639.974373207,-83068.93,-60417.44,-32737.346,-15627.849,3179.24,-3259.1553,-37866.617,43983.32
1313639.9783732016,-83074.42,-60421.43,-32737.225,-15629.11,3176.5137,-3259.8472,-37861.98,43981.445
1313639.982373196,-83078.49,-60421.797,-32733.48,-15629.477,3177.3276,-3262.3699,-37863.04,43977.38
1313639.9863731905,-83077.555,-60420.656,-32732.139,-15628.378,3179.1992,-3264.73,-37869.957,43962.566
1313639.990373185,-83073.98,-60425.293,-32741.049,-15627.6455,3178.5483,-3263.3057,-37871.38,43965.496
1313639.9943731795,-83069.336,-60425.457,-32741.74,-15627.727,3181.1523,-3258.1787,-37867.15,43972.414
1313639.9983731739,-83066.086,-60426.477,-32740.56,-15628.296,3179.6062,-3260.9863,-37864.46,43972.25
1313640.0023731685,-83071.62,-60430.992,-32740.643,-15629.15,3177.002,-3261.8003,-37863.65,43970.38
1313640.006373163,-83081.51,-60429.73,-32740.643,-15631.389,3175.7407,-3259.5215,-37862.918,43982.06
1313640.0103731574,-83090.17,-60434.33,-32743.775,-15632.609,3171.753,-3259.074,-37867.105,43985.11
1313640.014373152,-83088.18,-60441.53,-32744.875,-15633.464,3170.8171,-3260.0505,-37869.914,43984.62
1313640.0183731464,-83076.664,-60445.723,-32742.678,-15633.383,3172.2412,-3262.207,-37869.02,43984.62
1313640.022373141,-83077.4,-60438.477,-32742.596,-15629.965,3174.398,-3266.1948,-37868.004,43983.32
1313640.0263731354,-83086.51,-60440.918,-32746.34,-15630.9,3171.6716,-3268.6362,-37873.293,43981.406
1313640.03037313,-83097.25,-60445.8,-32746.014,-15634.277,3168.9453,-3268.5955,-37878.46,43979.332
1313640.0343731244,-83091.59,-60440.637,-32747.072,-15634.726,3169.5557,-3264.323,-37881.96,43981.285
1313640.038373119,-83087.73,-60439.414,-32749.96,-15632.65,3169.1082,-3264.73,-37880.94,43977.785
1313640.0423731133,-83083.82,-60436.973,-32747.479,-15628.947,3174.6013,-3268.1885,-37878.703,43975.098
1313640.046373108,-83073.65,-60434.734,-32747.967,-15628.134,3175.7407,-3268.4734,-37880.617,43978.312
1313640.0503731025,-83075.766,-60440.31,-32752.2,-15630.331,3170.695,-3267.2935,-37883.668,43978.027
1313640.054373097,-83089.195,-60440.715,-32755.006,-15630.697,3170.1255,-3265.5845,-37886.56,43978.11
1313640.0583730915,-83083.58,-60432.008,-32748.373,-15628.418,3173.6655,-3265.6658,-37887.86,43968.14
1313640.0623730859,-83079.23,-60432.457,-32745.525,-15627.6455,3175.1304,-3270.752,-37887.74,43970.215
1313640.0663730805,-83078.375,-60433.594,-32746.543,-15628.703,3171.4275,-3272.461,-37885.867,43977.297
1313640.0703730749,-83080.53,-60430.543,-32743.693,-15629.639,3169.1895,-3268.4326,-37886.23,43977.176
1313640.0743730695,-83081.99,-60429.934,-32739.748,-15629.761,3168.4978,-3266.154,-37885.906,43979.086
1313640.0783730638,-83078.62,-60429.04,-32739.625,-15629.313,3166.7888,-3265.3403,-37884.402,43980.918
1313640.0823730584,-83078.734,-60423.26,-32735.88,-15626.262,3171.0205,-3267.0898,-37881.062,43978.516
1313640.0863730528,-83073.61,-60423.34,-32732.016,-15626.303,3172.4448,-3268.6768,-37877.44,43976.277
1313640.0903730474,-83071.66,-60425.5,-32735.19,-15626.384,3171.6309,-3262.4106,-37874.227,43987.67
1313640.0943730418,-83068.08,-60425.99,-32736.94,-15625.8545,3172.4448,-3256.3071,-37873.414,43996.867
1313640.0983730364,-83067.18,-60432.21,-32735.027,-15625.8955,3171.3054,-3257.9346,-37872.355,43995.934
1313640.102373031,-83070.44,-60430.83,-32729.006,-15628.256,3172.933,-3261.2305,-37872.03,43994.793
1313640.1063730253,-83075.12,-60422.73,-32731.73,-15628.703,3172.6482,-3262.085,-37870.566,43997.6
1313640.11037302,-83075.445,-60426.965,-32739.828,-15630.005,3167.8467,-3260.5796,-37876.26,43995.81
1313640.1143730143,-83072.555,-60428.836,-32741.984,-15629.721,3168.986,-3258.6265,-37878.297,43991.457
1313640.118373009,-83076.54,-60426.84,-32741.334,-15629.639,3167.7654,-3261.027,-37877.77,43989.18
1313640.1223730033,-83075.445,-60422.242,-32737.102,-15630.127,3173.869,-3264.4043,-37874.43,43982.668
1313640.1263729979,-83084.15,-60424.36,-32738.607,-15633.993,3173.0957,-3265.625,-37876.06,43985.76
1313640.1303729923,-83084.88,-60427.453,-32742.393,-15632.202,3172.7295,-3260.0505,-37874.84,43993.777
1313640.1343729869,-83079.8,-60431.562,-32741.74,-15632.568,3170.1255,-3254.232,-37874.023,43996.176
1313640.1383729812,-83074.34,-60433.72,-32744.71,-15635.539,3166.9517,-3252.0347,-37873.617,43996.34
1313640.1423729758,-83079.914,-60433.473,-32746.34,-15638.794,3167.9688,-3258.0974,-37874.15,43986.656
1313640.1463729702,-83089.03,-60433.88,-32748.496,-15640.137,3170.0034,-3262.6548,-37877.035,43981.855
1313640.1503729648,-83090.45,-60438.195,-32748.781,-15641.235,3170.2068,-3261.19,-37879.477,43985.68
1313640.1543729594,-83094.52,-60443.81,-32756.023,-15643.474,3168.335,-3258.3416,-37878.99,43993.29
1313640.1583729538,-83098.72,-60443.973,-32755.861,-15641.846,3165.6494,-3266.2761,-37884.562,43977.297
1313640.1623729484,-83102.91,-60441.246,-32753.826,-15640.625,3165.9343,-3272.7866,-37893.473,43963.664
1313640.1663729427,-83095.54,-60444.62,-32753.867,-15642.66,3166.2192,-3272.8271,-37891.887,43964.48
1313640.1703729373,-83095.95,-60447.836,-32761.068,-15645.305,3165.039,-3271.159,-37889.445,43972.332
1313640.1743729317,-83089.89,-60443.2,-32763.674,-15644.694,3165.039,-3265.5437,-37886.76,43973.39
1313640.1783729263,-83090.09,-60440.105,-32761.842,-15643.962,3163.9812,-3266.2761,-37886.477,43977.785
1313640.1823729207,-83092.77,-60440.066,-32758.709,-15644.328,3164.022,-3272.583,-37888.145,43975.79
1313640.1863729153,-83096.88,-60441.855,-32758.22,-15643.921,3166.504,-3273.3562,-37885.54,43982.383
1313640.1903729097,-83103.11,-60445.8,-32757.041,-15645.02,3167.7654,-3271.2402,-37887.82,43987.227
1313640.1943729043,-83103.4,-60447.633,-32761.232,-15648.031,3162.8418,-3273.3562,-37894.86,43983.113
1313640.1983728986,-83095.87,-60443.2,-32760.418,-15648.275,3160.9294,-3275.5127,-37895.348,43980.55
1313640.2023728932,-83089.68,-60437.258,-32759.562,-15646.281,3164.3882,-3281.2095,-37894.33,43975.914
1313640.2063728878,-83097.58,-60436.89,-32757.406,-15643.799,3162.4756,-3284.0984,-37893.434,43976.973
1313640.2103728822,-83107.34,-60443.89,-32756.715,-15644.938,3157.308,-3282.837,-37896.324,43981.773
1313640.2143728768,-83096.4,-60440.31,-32757.895,-15643.515,3154.663,-3280.599,-37895.793,43983.562
1313640.2183728712,-83084.76,-60439.94,-32758.547,-15642.131,3157.5522,-3281.25,-37897.016,43977.99
1313640.2223728658,-83089.68,-60441.367,-32755.373,-15642.66,3158.1218,-3286.7026,-37898.562,43973.633
1313640.2263728601,-83094.89,-60443.36,-32757.57,-15647.136,3155.7617,-3289.4287,-37900.96,43974.367
1313640.2303728547,-83093.55,-60443.523,-32759.074,-15646.811,3156.0874,-3286.377,-37900.35,43978.72
1313640.234372849,-83096.88,-60444.418,-32760.703,-15646.647,3151.7742,-3283.6914,-37901.652,43981.285
1313640.2383728437,-83103.68,-60443.24,-32762.941,-15648.682,3151.53,-3285.1562,-37904.01,43978.76
1313640.242372838,-83105.63,-60443.973,-32763.795,-15651.53,3150.5535,-3290.853,-37903.566,43975.383
1313640.2463728327,-83113.08,-60448.49,-32765.79,-15652.792,3147.5017,-3292.3179,-37900.434,43979.535
1313640.250372827,-83115.89,-60456.625,-32769.29,-15656.332,3141.9272,-3289.6729,-37900.758,43980.797
1313640.2543728217,-83103.92,-60461.47,-32770.184,-15657.349,3139.5671,-3284.1797,-37901.57,43978.19
1313640.2583728163,-83104.54,-60469.2,-32773.277,-15657.227,3137.329,-3285.5632,-37901.45,43974.203
1313640.2623728106,-83114.95,-60471.316,-32769.98,-15655.478,3140.5845,-3290.446,-37900.027,43971.926
1313640.2663728052,-83103.35,-60446.29,-32764.445,-15652.344,3150.9197,-3293.5386,-37905.19,43970.867
1313640.2703727996,-83101.195,-60441.57,-32770.633,-15651.693,3148.1528,-3290.9343,-37904.91,43974.57
1313640.2743727942,-83108.36,-60462.934,-32772.098,-15654.907,3140.3809,-3285.4004,-37903.117,43981.812
1313640.2783727886,-83105.76,-60452.395,-32764.812,-15654.135,3145.3044,-3285.4004,-37900.96,43974.895
1313640.2823727832,-83106.08,-60440.637,-32763.062,-15651.205,3153.1982,-3288.1267,-37900.066,43971.152
1313640.2863727775,-83099.24,-60437.297,-32766.521,-15651.896,3152.2217,-3292.684,-37902.957,43968.75
1313640.2903727721,-83093.914,-60436.566,-32767.863,-15651.815,3151.5708,-3289.6323,-37901.207,43980.023
1313640.2943727665,-83088.87,-60440.023,-32767.701,-15651.286,3152.3032,-3286.255,-37903.32,43976.645
1313640.298372761,-83091.516,-60442.1,-32766.44,-15651.489,3148.6816,-3288.2488,-37904.215,43965.82
1313640.3023727557,-83098.31,-60439.13,-32765.139,-15651.611,3153.646,-3291.4634,-37900.758,43966.51
1313640.30637275,-83096.56,-60441.406,-32766.887,-15654.216,3154.5818,-3294.0674,-37896.363,43979.574
1313640.3103727447,-83099.86,-60441.855,-32767.742,-15655.803,3154.419,-3290.853,-37893.72,43986.37
1313640.314372739,-83101.195,-60435.14,-32766.154,-15653.158,3158.488,-3280.2734,-37889.242,43998.617
1313640.3183727337,-83107.67,-60437.46,-32767.13,-15654.013,3161.7432,-3281.9824,-37886.637,43996.297
1313640.322372728,-83111.45,-60438.926,-32767.213,-15652.995,3160.1157,-3288.5337,-37887.86,43993.777
1313640.3263727226,-83114.38,-60440.758,-32767.54,-15655.029,3160.1562,-3293.3757,-37892.62,43989.137
1313640.330372717,-83113.164,-60453.574,-32772.016,-15659.587,3152.3845,-3292.4805,-37892.66,43993.367
1313640.3343727116,-83115.36,-60454.797,-32772.586,-15660.278,3147.0542,-3285.1562,-37889.566,43995.32
1313640.338372706,-83115.4,-60447.96,-32775.434,-15658.732,3147.868,-3286.8247,-37889.285,43994.71
1313640.3423727006,-83111.82,-60445.395,-32774.54,-15658.61,3151.7334,-3292.8467,-37891.805,43991.375
1313640.346372695,-83114.18,-60448.938,-32776.164,-15657.878,3154.2563,-3294.8813,-37892.254,43986.816
1313640.3503726895,-83127.61,-60453.453,-32782.31,-15659.424,3149.5361,-3292.2363,-37892.742,43989.016
1313640.3543726841,-83132.94,-60455.65,-32783.53,-15659.018,3146.7285,-3289.4695,-37896.445,43989.016
1313640.3583726785,-83121.95,-60454.184,-32781.047,-15658.244,3147.2168,-3292.6025,-37898.926,43975.547
1313640.3623726731,-83121.055,-60456.098,-32780.4,-15657.1045,3149.2515,-3299.6013,-37903.89,43965.496
1313640.3663726675,-83125.53,-60461.305,-32780.926,-15656.698,3148.6816,-3299.8862,-37904.055,43970.01
1313640.370372662,-83131.67,-60461.348,-32781.984,-15658.244,3147.0947,-3296.9158,-37905.03,43979.13
1313640.3743726565,-83136.07,-60462.484,-32781.008,-15658.813,3145.63,-3296.0205,-37908.45,43976.562
1313640.378372651,-83139.57,-60463.42,-32779.46,-15658.203,3142.9443,-3299.52,-37908.285,43967.938
1313640.3823726454,-83140.625,-60459.68,-32779.46,-15656.21,3143.5547,-3302.3276,-37909.223,43974.285
1313640.38637264,-83138.39,-60461.71,-32781.25,-15656.738,3141.7236,-3304.891,-37911.5,43975.832
1313640.3903726344,-83131.67,-60465.54,-32780.723,-15656.942,3138.3464,-3302.9785,-37913.086,43974.406
1313640.394372629,-83139.33,-60469.117,-32780.723,-15659.994,3136.0679,-3300.0488,-37910.81,43975.79
1313640.3983726234,-83150.59,-60470.83,-32776.938,-15658.651,3140.2183,-3296.3867,-37902.875,43985.312
1313640.402372618,-83136.92,-60467.082,-32774.54,-15657.1045,3141.683,-3298.9097,-37896.77,43993.246
1313640.4063726126,-83125.164,-60462.28,-32774.7,-15661.174,3140.9912,-3302.2869,-37900.88,43990.36
1313640.410372607,-83131.72,-60464.926,-32774.496,-15662.272,3138.0615,-3302.124,-37903.363,43989.586
1313640.4143726015,-83129.48,-60459.598,-32773.6,-15661.703,3141.561,-3300.0083,-37906.09,43982.707
1313640.418372596,-83123.414,-60454.47,-32774.254,-15660.36,3144.287,-3298.8281,-37907.555,43984.945
1313640.4223725905,-83125.86,-60457.727,-32772.543,-15660.808,3142.334,-3303.955,-37904.137,43984.01
1313640.426372585,-83133.22,-60460.53,-32771.934,-15665.08,3138.143,-3308.6753,-37905.03,43981.49
1313640.4303725795,-83143.19,-60463.992,-32777.305,-15667.155,3135.0098,-3306.3152,-37907.473,43981.527
1313640.4343725739,-83131.88,-60462.04,-32778.08,-15668.173,3133.5857,-3300.415,-37903.566,43988.406
1313640.4383725685,-83120.89,-60453.086,-32773.887,-15666.464,3137.4512,-3297.404,-37896.12,43997.234
1313640.4423725628,-83124.02,-60450.156,-32774.863,-15664.714,3143.2292,-3299.276,-37893.15,43992.434
1313640.4463725574,-83122.32,-60448.977,-32780.52,-15664.592,3144.8975,-3304.647,-37900.88,43980.633
1313640.4503725518,-83129.72,-60452.355,-32782.51,-15666.789,3144.4092,-3304.3213,-37900.105,43985.72
1313640.4543725464,-83136.44,-60451.457,-32782.797,-15668.01,3144.572,-3294.5557,-37895.836,43988.973
1313640.458372541,-83129.07,-60449.586,-32781.21,-15667.033,3146.7285,-3293.5386,-37894.613,43989.42
1313640.4623725354,-83121.75,-60446.617,-32778.77,-15663.696,3148.8853,-3298.8281,-37892.824,43987.145
1313640.46637253,-83127.61,-60446.21,-32779.42,-15665.324,3148.7224,-3299.6013,-37890.992,43995.934
1313640.4703725243,-83126.34,-60446.37,-32782.145,-15668.051,3146.566,-3296.0205,-37889.69,43997.64
1313640.474372519,-83124.48,-60445.76,-32783.938,-15667.074,3148.4375,-3291.87,-37886.477,43997.76
1313640.4783725133,-83120.57,-60445.395,-32779.785,-15666.179,3153.1577,-3289.4695,-37882.57,43997.03
1313640.482372508,-83119.55,-60450.195,-32779.297,-15668.417,3153.7273,-3295.4102,-37884.645,43991.05
1313640.4863725023,-83123.13,-60450.727,-32780.4,-15670.329,3152.7915,-3298.706,-37889.85,43991.008
1313640.490372497,-83133.99,-60456.26,-32783.652,-15671.631,3147.705,-3298.2178,-37894.816,43992.35
1313640.4943724913,-83134.4,-60460.168,-32779.42,-15669.719,3144.2466,-3292.7246,-37893.72,43995.89
1313640.4983724859,-83127.36,-60454.266,-32776.33,-15666.952,3146.7693,-3293.7012,-37893.434,43988.566
1313640.5023724805,-83127.0,-60448.527,-32777.793,-15666.301,3147.5425,-3300.8628,-37899.332,43971.76
1313640.5063724748,-83130.375,-60446.656,-32777.793,-15666.342,3146.5251,-3302.653,-37901.938,43973.758
1313640.5103724694,-83137.78,-60452.434,-32778.605,-15668.62,3144.7754,-3301.1475,-37904.055,43981.69
1313640.5143724638,-83133.06,-60459.027,-32778.85,-15671.469,3141.032,-3296.3867,-37902.1,43986.656
1313640.5183724584,-83125.77,-60458.008,-32777.957,-15669.922,3140.7065,-3296.3867,-37899.293,43986.168
1313640.5223724528,-83123.45,-60458.66,-32773.234,-15667.521,3142.0085,-3302.531,-37901.855,43976.44
1313640.5263724474,-83128.016,-60458.05,-32776.938,-15670.329,3140.3809,-3307.2917,-37900.96,43984.09
1313640.5303724417,-83127.445,-60463.707,-32782.676,-15675.415,3133.5044,-3307.536,-37901.938,43991.54
1313640.5343724363,-83128.664,-60471.887,-32781.617,-15675.7,3131.5918,-3303.9146,-37904.297,43989.625
1313640.5383724307,-83135.79,-60473.27,-32780.805,-15673.137,3132.9753,-3299.6013,-37901.33,43987.47
1313640.5423724253,-83136.516,-60464.52,-32775.88,-15671.0205,3135.1726,-3299.8455,-37898.316,43982.137
1313640.5463724197,-83138.47,-60463.098,-32775.35,-15670.248,3137.5327,-3302.4902,-37900.15,43981.445
1313640.5503724143,-83154.13,-60471.76,-32784.383,-15675.009,3131.6326,-3302.5718,-37904.5,43982.016
1313640.554372409,-83148.16,-60471.152,-32786.094,-15677.45,3127.5635,-3303.2634,-37904.95,43980.633
1313640.5583724033,-83134.195,-60466.637,-32781.617,-15676.352,3128.9062,-3303.0193,-37902.71,43975.14
1313640.5623723979,-83128.5,-60469.117,-32782.35,-15675.09,3131.063,-3306.234,-37900.188,43974.082
1313640.5663723922,-83131.8,-60469.32,-32785.727,-15675.131,3131.9175,-3307.4138,-37901.367,43978.477
1313640.5703723868,-83138.8,-60476.93,-32789.39,-15678.264,3127.0752,-3302.7751,-37903.85,43985.965
1313640.5743723812,-83138.8,-60476.727,-32792.195,-15679.443,3126.587,-3299.6826,-37902.63,43988.895
1313640.5783723758,-83142.414,-60472.25,-32789.43,-15677.246,3131.6733,-3298.869,-37899.742,43985.516
1313640.5823723702,-83148.52,-60469.2,-32786.336,-15677.246,3133.789,-3300.0488,-37896.812,43984.418
1313640.5863723648,-83147.75,-60466.594,-32789.023,-15679.973,3134.2368,-3303.6704,-37896.324,43989.22
1313640.5903723591,-83145.63,-60469.445,-32793.215,-15680.664,3130.127,-3302.9785,-37897.504,43992.555
1313640.5943723537,-83151.0,-60469.445,-32790.367,-15677.043,3128.2554,-3301.0254,-37903.28,43981.57
1313640.5983723481,-83148.766,-60468.305,-32784.668,-15676.758,3129.2725,-3301.4731,-37902.387,43980.55
1313640.6023723427,-83135.42,-60467.57,-32783.043,-15676.962,3132.9346,-3304.9316,-37897.176,43985.637
1313640.6063723373,-83130.13,-60467.938,-32783.49,-15679.077,3133.9927,-3309.082,-37901.246,43988.69
1313640.6103723317,-83124.72,-60464.844,-32782.473,-15677.002,3133.1787,-3304.891,-37899.66,43988.363
1313640.6143723263,-83130.336,-60468.75,-32781.25,-15676.636,3130.8594,-3298.991,-37897.46,43987.184
1313640.6183723207,-83132.37,-60463.867,-32777.387,-15678.386,3132.08,-3299.9675,-37891.766,43994.957
1313640.6223723153,-83128.3,-60451.742,-32778.402,-15677.246,3138.916,-3303.2634,-37889.406,43997.03
1313640.6263723096,-83130.25,-60453.332,-32780.844,-15679.77,3138.1836,-3305.42,-37891.6,43988.77
1313640.6303723042,-83133.42,-60461.348,-32783.773,-15683.716,3134.725,-3299.642,-37888.67,44005.086
1313640.6343722986,-83135.336,-60463.91,-32783.367,-15686.279,3129.9644,-3297.567,-37890.504,44010.133
1313640.6383722932,-83132.29,-60462.363,-32780.805,-15684.326,3129.5166,-3299.4385,-37890.26,44001.223
1313640.6423722876,-83125.98,-60457.727,-32776.367,-15680.461,3133.016,-3302.0427,-37889.445,43988.973
1313640.6463722822,-83140.67,-60455.566,-32776.082,-15683.838,3132.3242,-3304.4841,-37888.875,43998.74
1313640.6503722765,-83139.9,-60460.695,-32780.03,-15688.151,3130.4119,-3305.6235,-37895.145,43999.96
1313640.6543722712,-83132.2,-60467.367,-32783.0,-15689.738,3129.4353,-3301.5137,-37897.38,44000.9
1313640.6583722658,-83132.53,-60466.676,-32786.094,-15689.738,3128.7842,-3300.7,-37895.387,43998.945
1313640.6623722601,-83134.08,-60460.574,-32781.414,-15686.401,3130.656,-3301.7986,-37888.47,44004.234
1313640.6663722547,-83134.445,-60462.934,-32779.99,-15685.954,3130.6152,-3302.8972,-37884.97,44008.18
1313640.670372249,-83142.336,-60472.13,-32783.938,-15689.657,3127.401,-3300.3745,-37885.703,44005.453
1313640.6743722437,-83150.19,-60477.703,-32789.88,-15693.197,3124.9187,-3298.0552,-37889.895,44000.082
1313640.678372238,-83148.44,-60477.38,-32789.348,-15691.284,3123.413,-3300.6592,-37893.516,43990.926
1313640.6823722327,-83148.4,-60471.965,-32788.13,-15689.209,3127.6855,-3306.8442,-37890.953,43992.555
1313640.686372227,-83149.62,-60469.89,-32793.457,-15689.738,3128.9878,-3310.3843,-37894.168,43985.15
1313640.6903722216,-83155.32,-60473.918,-32794.56,-15693.686,3124.227,-3310.018,-37900.637,43982.3
1313640.694372216,-83157.555,-60473.88,-32785.2,-15690.756,3124.5933,-3304.7283,-37899.254,43988.12
1313640.6983722106,-83155.16,-60474.895,-32781.863,-15688.273,3124.6338,-3306.356,-37899.13,43986.168
1313640.7023722052,-83151.0,-60475.914,-32790.527,-15687.5,3122.396,-3313.7615,-37900.84,43980.39
1313640.7063721996,-83147.14,-60475.223,-32793.05,-15687.988,3122.8027,-3313.1104,-37901.41,43987.062
1313640.7103721942,-83150.84,-60479.902,-32793.336,-15689.372,3124.2676,-3311.8896,-37903.727,43986.86
1313640.7143721886,-83153.32,-60483.24,-32792.684,-15689.331,3122.1519,-3311.8083,-37907.51,43986.53
1313640.7183721832,-83155.234,-60479.777,-32789.145,-15688.3955,3122.274,-3311.605,-37908.164,43985.92
1313640.7223721775,-83152.34,-60475.71,-32783.855,-15685.751,3125.4883,-3312.9478,-37907.27,43984.824
1313640.7263721721,-83148.27,-60476.32,-32786.906,-15687.094,3123.0063,-3317.7085,-37913.168,43982.06
1313640.7303721665,-83153.73,-60477.215,-32789.633,-15690.186,3118.042,-3316.9353,-37915.812,43980.797
1313640.734372161,-83162.27,-60479.21,-32788.13,-15689.982,3115.153,-3313.029,-37917.645,43981.57
1313640.7383721555,-83154.055,-60477.703,-32783.895,-15686.401,3115.9668,-3311.076,-37915.367,43978.72
1313640.74237215,-83148.36,-60474.406,-32779.297,-15685.466,3120.3208,-3310.791,-37911.258,43984.09
1313640.7463721444,-83141.03,-60478.152,-32777.996,-15687.012,3119.9138,-3314.087,-37911.99,43983.645
1313640.750372139,-83139.37,-60474.285,-32780.64,-15688.029,3121.5415,-3309.896,-37911.867,43987.67
1313640.7543721336,-83147.79,-60475.832,-32783.53,-15686.972,3120.4834,-3303.3042,-37909.223,43998.25
1313640.758372128,-83143.07,-60471.07,-32778.973,-15685.263,3124.3083,-3304.0771,-37906.25,43997.355
1313640.7623721226,-83139.125,-60466.27,-32775.84,-15685.141,3126.3428,-3308.065,-37903.727,43999.797
1313640.766372117,-83142.01,-60470.83,-32782.227,-15684.774,3129.232,-3308.4717,-37900.188,44002.81
1313640.7703721116,-83151.37,-60478.598,-32790.977,-15687.094,3126.2207,-3305.827,-37901.695,44003.297
1313640.774372106,-83153.32,-60467.773,-32789.31,-15684.001,3124.878,-3304.362,-37906.047,44007.203
1313640.7783721006,-83139.0,-60458.05,-32788.13,-15683.879,3124.1455,-3304.3213,-37907.594,44004.68
1313640.782372095,-83127.24,-60459.8,-32785.605,-15684.042,3126.994,-3304.9316,-37903.605,43996.992
1313640.7863720895,-83126.02,-60461.266,-32784.26,-15685.1,3129.7202,-3305.0537,-37902.47,44002.2
1313640.790372084,-83133.79,-60454.43,-32787.11,-15687.622,3128.4995,-3305.949,-37904.746,44008.26
1313640.7943720785,-83125.9,-60452.637,-32786.95,-15687.419,3129.7607,-3301.2695,-37902.02,44016.36
1313640.7983720729,-83121.625,-60449.63,-32782.633,-15685.385,3133.4636,-3299.9675,-37898.723,44010.99
1313640.8023720675,-83123.21,-60446.21,-32781.008,-15683.31,3134.196,-3302.4902,-37899.008,44007.285
1313640.806372062,-83133.22,-60449.26,-32782.88,-15687.5,3133.1787,-3305.1353,-37903.81,44005.535
1313640.8103720564,-83140.26,-60455.773,-32789.062,-15692.017,3126.2207,-3303.06,-37905.234,44010.867
1313640.814372051,-83144.78,-60460.53,-32788.94,-15693.237,3119.6697,-3299.9675,-37904.5,44014.406
1313640.8183720454,-83145.02,-60460.207,-32778.28,-15691.325,3121.6228,-3302.7751,-37908.164,44001.75
1313640.82237204,-83125.57,-60460.043,-32771.363,-15690.756,3123.291,-3309.082,-37910.32,43998.414
1313640.8263720344,-83117.68,-60461.1,-32773.074,-15690.308,3123.4946,-3311.4421,-37910.36,43997.6
1313640.830372029,-83130.54,-60462.73,-32780.52,-15689.86,3123.82,-3308.96,-37908.082,44002.81
1313640.8343720234,-83144.37,-60465.496,-32783.855,-15689.86,3121.5007,-3304.9316,-37909.26,44002.32
1313640.838372018,-83139.85,-60464.277,-32786.094,-15690.471,3120.8496,-3305.7048,-37909.06,44003.83
1313640.8423720123,-83128.42,-60459.23,-32780.926,-15687.053,3122.9656,-3311.4014,-37911.46,43997.152
1313640.846372007,-83128.336,-60458.293,-32781.74,-15688.029,3120.6462,-3314.9414,-37912.68,43998.66
1313640.8503720013,-83137.78,-60466.758,-32782.96,-15690.186,3116.1296,-3310.8318,-37911.54,44008.992
1313640.854371996,-83142.336,-60468.914,-32781.375,-15685.669,3115.8855,-3307.536,-37910.973,44012.207
1313640.8583719905,-83129.16,-60457.93,-32779.297,-15684.245,3120.6055,-3307.373,-37908.043,44012.94
1313640.8623719849,-83119.95,-60453.047,-32774.21,-15682.658,3124.5525,-3309.489,-37906.453,44009.645
1313640.8663719795,-83118.164,-60450.605,-32773.113,-15684.164,3123.7793,-3311.605,-37908.49,44008.098
1313640.8703719738,-83129.11,-60454.062,-32777.26,-15687.5,3122.4773,-3309.4077,-37909.832,44010.582
1313640.8743719684,-83134.195,-60457.848,-32776.41,-15685.791,3120.5242,-3307.0068,-37910.156,44012.82
1313640.8783719628,-83130.25,-60451.215,-32775.84,-15681.03,3126.6685,-3307.6172,-37909.953,44013.47
1313640.8823719574,-83123.01,-60447.633,-32777.47,-15680.461,3127.4822,-3311.727,-37911.258,44005.008
1313640.8863719518,-83125.086,-60448.855,-32775.105,-15682.414,3129.1912,-3314.4531,-37910.727,44005.168
1313640.8903719464,-83137.66,-60453.94,-32777.184,-15683.635,3128.2146,-3313.192,-37912.516,44010.785
1313640.8943719408,-83138.47,-60457.684,-32780.316,-15682.78,3125.4478,-3308.9194,-37914.47,44013.918
1313640.8983719354,-83130.62,-60455.895,-32781.453,-15683.96,3126.2615,-3307.536,-37913.656,44012.777
1313640.9023719297,-83123.375,-60452.15,-32784.26,-15685.669,3127.1973,-3310.1807,-37911.582,44008.87
1313640.9063719243,-83129.195,-60456.098,-32790.527,-15688.477,3123.4946,-3311.849,-37911.176,44007.0
1313640.910371919,-83132.695,-60454.957,-32791.953,-15688.599,3119.3035,-3311.727,-37911.703,44005.293
1313640.9143719133,-83132.77,-60458.984,-32791.26,-15689.819,3116.8213,-3310.018,-37912.477,44003.055
1313640.918371908,-83129.56,-60454.59,-32784.996,-15688.11,3122.5994,-3309.774,-37914.188,43993.043
1313640.9223719023,-83124.59,-60449.383,-32781.13,-15685.913,3126.994,-3314.4531,-37910.688,43997.56
1313640.9263718969,-83133.38,-60453.125,-32783.285,-15687.5,3124.4712,-3317.5457,-37907.676,44005.332
1313640.9303718912,-83131.516,-60459.516,-32786.62,-15690.43,3120.8904,-3316.2437,-37909.793,44012.617
1313640.9343718858,-83126.47,-60460.492,-32785.523,-15691.895,3118.0015,-3309.6519,-37910.81,44009.156
1313640.9383718802,-83121.95,-60465.332,-32786.01,-15691.406,3117.7573,-3306.3965,-37908.61,44009.93
1313640.9423718748,-83119.1,-60460.86,-32781.656,-15691.895,3119.629,-3312.4187,-37909.18,44007.285
1313640.9463718692,-83122.44,-60455.73,-32782.227,-15692.139,3120.402,-3318.5222,-37911.824,44004.926
1313640.9503718638,-83123.5,-60460.938,-32785.645,-15692.546,3116.4146,-3314.7788,-37911.906,44009.277
1313640.9543718584,-83127.2,-60468.02,-32788.98,-15693.237,3115.1123,-3309.5703,-37911.867,44009.97
1313640.9583718528,-83134.81,-60471.723,-32790.164,-15692.709,3115.8042,-3309.1636,-37913.98,44001.18
1313640.9623718474,-83137.62,-60464.438,-32786.906,-15692.18,3118.0015,-3314.5752,-37914.594,43994.59
1313640.9663718417,-83136.64,-60455.285,-32784.914,-15690.634,3120.7683,-3319.9463,-37915.285,43995.2
1313640.9703718363,-83132.98,-60459.92,-32788.656,-15691.0,3117.4316,-3316.6099,-37914.062,44000.69
1313640.9743718307,-83125.86,-60463.95,-32789.023,-15691.977,3113.037,-3313.029,-37915.12,44000.203
1313640.9783718253,-83122.4,-60463.34,-32783.938,-15689.453,3115.8042,-3312.0933,-37913.453,44000.855
1313640.9823718197,-83124.836,-60463.543,-32780.19,-15687.297,3120.3613,-3315.2263,-37911.133,44001.547
1313640.9863718143,-83127.16,-60466.31,-32784.793,-15689.047,3118.6118,-3320.0684,-37913.25,44001.02
1313640.9903718086,-83127.28,-60466.594,-32787.64,-15688.884,3117.3096,-3318.441,-37916.992,43999.188
1313640.9943718032,-83132.41,-60468.387,-32789.266,-15690.186,3114.9497,-3315.6333,-37920.086,43990.195
1313640.9983717976,-83145.59,-60465.457,-32789.188,-15691.284,3115.8447,-3315.3892,-37919.434,43993.652
1313641.0023717922,-83152.55,-60464.64,-32788.168,-15691.8545,3117.269,-3321.6147,-37921.387,43991.414
1313641.0063717868,-83147.016,-60463.38,-32792.44,-15692.831,3120.565,-3323.527,-37922.28,43989.707
1313641.0103717812,-83144.78,-60467.57,-32800.09,-15692.709,3117.92,-3319.0918,-37920.816,43998.25
1313641.0143717758,-83147.055,-60468.75,-32796.633,-15691.081,3115.153,-3314.087,-37920.9,44002.32
1313641.0183717702,-83141.28,-60471.965,-32796.266,-15690.39,3115.56,-3314.1277,-37922.406,43994.266
1313641.0223717648,-83133.18,-60467.773,-32792.035,-15688.437,3118.856,-3318.2373,-37921.305,43993.53
1313641.0263717591,-83134.195,-60470.34,-32793.01,-15690.756,3116.9028,-3321.2485,-37923.137,43998.25
1313641.0303717537,-83140.586,-60475.547,-32798.055,-15693.645,3115.1123,-3317.749,-37924.156,43999.555
1313641.034371748,-83147.14,-60476.77,-32801.8,-15693.808,3111.776,-3314.738,-37924.156,44000.367
1313641.0383717427,-83149.7,-60477.258,-32799.03,-15692.139,3110.8806,-3311.8083,-37918.297,44004.438
1313641.042371737,-83152.43,-60474.203,-32796.793,-15689.575,3115.4785,-3317.0166,-37918.54,43998.58
1313641.0463717317,-83151.33,-60474.203,-32796.43,-15690.186,3117.1062,-3320.272,-37922.65,43997.438
1313641.050371726,-83137.78,-60477.336,-32795.207,-15693.278,3111.1248,-3318.156,-37923.34,44004.234
1313641.0543717206,-83136.07,-60477.746,-32794.76,-15692.912,3107.1372,-3313.1104,-37922.203,44004.07
1313641.0583717152,-83137.17,-60475.223,-32791.63,-15691.691,3107.1372,-3312.2559,-37919.965,43999.31
1313641.0623717096,-83134.81,-60471.64,-32787.516,-15691.569,3112.0605,-3316.6912,-37919.68,43993.29
1313641.0663717042,-83132.49,-60468.47,-32783.977,-15692.953,3115.4785,-3317.5864,-37916.465,44000.69
1313641.0703716986,-83132.98,-60467.367,-32787.883,-15691.691,3114.6648,-3314.4126,-37915.082,44007.324
1313641.0743716932,-83139.81,-60465.984,-32791.344,-15690.959,3115.1938,-3308.9194,-37910.562,44019.125
1313641.0783716876,-83139.484,-60463.79,-32781.78,-15688.437,3117.2283,-3306.6814,-37907.27,44017.17
1313641.0823716822,-83131.72,-60456.42,-32780.113,-15686.442,3118.164,-3312.9478,-37910.32,44010.54
1313641.0863716765,-83128.7,-60456.79,-32783.367,-15688.232,3118.571,-3319.5396,-37910.523,44018.477
1313641.0903716711,-83137.29,-60463.3,-32784.06,-15688.721,3117.6353,-3317.3015,-37912.152,44019.695
1313641.0943716655,-83134.52,-60466.35,-32787.234,-15691.61,3113.6475,-3314.86,-37916.63,44011.8
1313641.09837166,-83129.03,-60461.387,-32788.047,-15690.593,3113.3628,-3316.732,-37921.062,43998.7
1313641.1023716545,-83129.16,-60457.6,-32783.855,-15689.372,3115.56,-3319.0918,-37918.863,43997.438
1313641.106371649,-83126.51,-60456.383,-32782.676,-15690.918,3117.6758,-3321.4927,-37915.73,44006.797
1313641.1103716437,-83128.336,-60460.33,-32785.44,-15691.691,3116.211,-3320.9636,-37916.547,44009.766
1313641.114371638,-83136.15,-60462.73,-32789.836,-15692.017,3115.316,-3316.9353,-37918.54,44006.96
1313641.1183716326,-83139.53,-60461.59,-32786.746,-15690.593,3117.7166,-3312.7441,-37914.51,44001.875
1313641.122371627,-83146.94,-60468.832,-32786.46,-15693.726,3114.8276,-3315.7554,-37910.727,43998.13
1313641.1263716216,-83159.875,-60479.004,-32790.57,-15695.557,3113.1592,-3314.494,-37907.145,43998.457
1313641.130371616,-83176.27,-60494.836,-32799.156,-15699.707,3108.195,-3310.791,-37907.43,44006.188
1313641.1343716106,-83152.18,-60481.0,-32794.637,-15696.493,3111.5317,-3310.5876,-37908.0,44013.145
1313641.138371605,-83132.29,-60464.52,-32788.74,-15691.977,3117.391,-3307.8613,-37907.84,44007.49
1313641.1423715996,-83140.914,-60471.723,-32788.777,-15695.842,3113.4849,-3309.489,-37904.5,44006.27
1313641.146371594,-83145.19,-60480.227,-32785.727,-15696.94,3110.189,-3308.6753,-37901.41,44009.156
1313641.1503715885,-83147.79,-60484.863,-32787.723,-15696.777,3109.8633,-3303.3447,-37899.008,44023.766
1313641.1543715831,-83156.62,-60485.35,-32789.43,-15699.911,3108.602,-3300.8628,-37897.504,44030.926
1313641.1583715775,-83159.43,-60485.15,-32787.965,-15700.928,3108.6833,-3302.3276,-37897.707,44025.39
1313641.162371572,-83157.06,-60485.11,-32783.855,-15698.446,3110.7585,-3305.664,-37896.973,44022.79
1313641.1663715665,-83154.99,-60485.72,-32785.32,-15697.429,3111.8164,-3308.1462,-37900.35,44021.85
1313641.170371561,-83145.266,-60488.934,-32785.688,-15697.388,3109.9854,-3304.6062,-37899.21,44028.32
1313641.1743715554,-83147.71,-60491.457,-32786.703,-15699.911,3107.2593,-3301.2695,-37899.05,44034.26
1313641.17837155,-83155.52,-60487.51,-32785.93,-15698.853,3108.9683,-3302.1648,-37898.355,44033.53
1313641.1823715444,-83152.02,-60482.383,-32782.51,-15696.574,3110.189,-3307.9429,-37900.27,44031.047
1313641.186371539,-83152.39,-60480.188,-32779.176,-15695.15,3111.613,-3312.9478,-37902.508,44026.125
1313641.1903715334,-83163.21,-60487.47,-32783.734,-15701.62,3106.8115,-3315.918,-37906.78,44029.46
1313641.194371528,-83157.31,-60492.84,-32789.062,-15704.428,3103.6785,-3313.9648,-37911.336,44024.13
1313641.1983715224,-83154.42,-60495.566,-32790.69,-15704.184,3102.824,-3311.5642,-37911.824,44020.266
1313641.202371517,-83150.15,-60495.28,-32788.168,-15704.59,3101.6846,-3314.2498,-37908.57,44022.83
1313641.2063715116,-83155.88,-60493.86,-32787.355,-15706.584,3100.1384,-3318.8477,-37906.535,44028.035
1313641.210371506,-83161.7,-60496.867,-32792.523,-15708.7,3098.2666,-3315.3076,-37906.7,44035.08
1313641.2143715005,-83158.0,-60499.066,-32796.715,-15708.049,3097.2495,-3308.96,-37906.617,44035.035
1313641.218371495,-83162.4,-60495.324,-32795.453,-15706.869,3101.237,-3309.2449,-37906.984,44026.695
1313641.2223714895,-83163.13,-60492.027,-32791.3,-15706.34,3101.644,-3312.0525,-37904.215,44017.62
1313641.2263714839,-83163.62,-60490.562,-32789.39,-15707.52,3106.3232,-3314.901,-37902.914,44013.836
1313641.2303714785,-83169.84,-60494.59,-32794.07,-15707.113,3103.9634,-3311.483,-37905.723,44016.277
1313641.2343714728,-83160.89,-60499.88,-32797.08,-15706.828,3099.8943,-3307.8613,-37911.05,44015.625
1313641.2383714675,-83149.21,-60496.22,-32792.523,-15704.672,3104.0854,-3308.96,-37911.5,44010.176
1313641.2423714618,-83148.484,-60487.305,-32788.94,-15704.102,3107.0151,-3311.1572,-37908.12,44015.547
1313641.2463714564,-83148.89,-60483.156,-32788.574,-15705.119,3108.8054,-3312.7036,-37906.21,44024.21
1313641.2503714508,-83151.125,-60483.44,-32786.582,-15705.974,3110.067,-3310.4656,-37903.85,44029.625
1313641.2543714454,-83148.44,-60488.04,-32788.98,-15707.683,3107.3406,-3308.7566,-37905.844,44033.53
1313641.25837144,-83142.17,-60489.42,-32786.906,-15706.137,3105.5908,-3308.4717,-37908.043,44027.71
1313641.2623714344,-83142.74,-60484.05,-32785.484,-15703.654,3107.2185,-3309.6519,-37904.95,44020.59
1313641.266371429,-83144.86,-60482.016,-32785.156,-15706.543,3106.0386,-3315.2263,-37903.2,44024.008
1313641.2703714233,-83150.19,-60486.207,-32784.87,-15706.869,3101.1558,-3312.9478,-37905.152,44025.637
1313641.274371418,-83155.16,-60483.156,-32782.555,-15706.543,3101.8882,-3307.9429,-37907.84,44023.562
1313641.2783714123,-83146.2,-60482.75,-32782.105,-15705.7295,3102.5798,-3307.536,-37906.863,44024.293
1313641.282371407,-83138.836,-60480.39,-32783.69,-15704.062,3107.1372,-3311.0352,-37907.145,44022.137
1313641.2863714013,-83131.555,-60479.168,-32782.39,-15703.939,3108.602,-3313.9243,-37907.758,44018.883
1313641.2903713959,-83144.05,-60486.695,-32787.027,-15708.578,3104.004,-3313.192,-37910.156,44019.816
1313641.2943713902,-83151.77,-60491.54,-32789.43,-15710.327,3101.9695,-3308.2275,-37908.406,44024.05
1313641.2983713849,-83155.88,-60487.633,-32789.31,-15711.02,3103.6377,-3305.7048,-37904.42,44026.246
1313641.3023713792,-83150.68,-60483.24,-32786.297,-15709.677,3106.364,-3309.5298,-37900.594,44020.67
1313641.3063713738,-83146.12,-60482.668,-32783.855,-15708.903,3110.067,-3315.6738,-37901.9,44020.67
1313641.3103713684,-83151.62,-60487.062,-32785.81,-15710.897,3103.8005,-3311.5234,-37904.543,44025.15
1313641.3143713628,-83155.56,-60491.375,-32789.39,-15710.693,3101.5625,-3304.3213,-37900.758,44033.49
1313641.3183713574,-83147.625,-60488.363,-32791.992,-15711.874,3105.3467,-3301.9614,-37899.984,44026.41
1313641.3223713518,-83140.1,-60485.273,-32789.47,-15711.101,3109.253,-3304.0771,-37897.22,44028.402
1313641.3263713464,-83143.516,-60486.41,-32787.395,-15710.083,3109.6191,-3307.129,-37895.836,44027.223
1313641.3303713407,-83150.44,-60485.72,-32789.062,-15709.311,3108.8462,-3306.2744,-37900.027,44020.59
1313641.3343713353,-83152.23,-60484.133,-32786.336,-15709.799,3108.4392,-3303.1821,-37899.742,44022.22
1313641.3383713297,-83149.91,-60485.883,-32788.86,-15711.711,3104.8992,-3305.2573,-37900.84,44023.723
1313641.3423713243,-83141.234,-60484.254,-32788.535,-15710.287,3107.1372,-3308.4312,-37900.84,44021.85
1313641.3463713187,-83136.48,-60481.04,-32786.62,-15709.106,3107.1372,-3312.0525,-37899.902,44021.973
1313641.3503713133,-83146.41,-60484.17,-32789.797,-15711.06,3105.6724,-3311.2388,-37904.83,44018.598
1313641.3543713077,-83154.5,-60486.74,-32788.902,-15711.955,3106.4453,-3307.373,-37906.863,44022.383
1313641.3583713023,-83160.16,-60490.277,-32785.562,-15710.531,3111.0027,-3305.827,-37905.52,44022.137
1313641.3623712969,-83141.65,-60487.145,-32779.38,-15708.7,3113.5254,-3308.5938,-37904.01,44013.184
1313641.3663712912,-83137.74,-60476.156,-32777.914,-15709.717,3112.3862,-3311.32,-37902.875,44011.434
1313641.3703712858,-83141.484,-60475.914,-32782.39,-15711.996,3106.486,-3308.7566,-37903.08,44019.734
1313641.3743712802,-83139.9,-60482.992,-32783.367,-15713.054,3102.3765,-3304.0771,-37900.027,44030.926
1313641.3783712748,-83140.14,-60480.47,-32781.21,-15711.67,3103.7598,-3297.933,-37897.38,44034.87
1313641.3823712692,-83139.77,-60475.344,-32776.246,-15708.496,3109.1309,-3301.9207,-37896.89,44029.707
1313641.3863712638,-83136.97,-60473.43,-32770.305,-15707.397,3109.5786,-3304.4434,-37896.484,44032.84
1313641.3903712581,-83139.33,-60477.785,-32774.414,-15709.595,3105.835,-3303.1006,-37901.285,44029.91
1313641.3943712527,-83142.46,-60481.855,-32774.21,-15709.595,3104.777,-3299.113,-37901.367,44027.59
1313641.398371247,-83146.94,-60482.26,-32779.625,-15707.683,3104.533,-3298.2993,-37897.664,44033.652
1313641.4023712417,-83148.56,-60479.492,-32781.82,-15703.776,3106.8523,-3300.7407,-37896.77,44034.668
1313641.4063712363,-83137.414,-60483.97,-32780.887,-15704.387,3104.3296,-3301.6357,-37895.793,44035.688
1313641.4103712307,-83151.125,-60497.805,-32784.996,-15710.205,3094.6045,-3296.6716,-37887.37,44052.492
1313641.4143712253,-83157.15,-60493.816,-32788.98,-15711.345,3098.6736,-3289.795,-37887.047,44055.586
1313641.4183712197,-83145.47,-60477.38,-32788.29,-15710.409,3107.7068,-3291.4226,-37892.375,44049.6
1313641.4223712143,-83152.836,-60482.547,-32788.7,-15710.897,3108.073,-3293.742,-37893.19,44043.457
1313641.4263712086,-83152.47,-60485.477,-32788.414,-15709.311,3111.3281,-3295.5322,-37894.37,44038.13
1313641.4303712032,-83144.125,-60481.082,-32790.57,-15707.846,3113.7695,-3296.0613,-37897.46,44039.348
1313641.4343711976,-83148.89,-60481.203,-32794.68,-15708.293,3112.8337,-3294.0269,-37902.914,44033.977
1313641.4383711922,-83153.52,-60478.926,-32797.77,-15706.95,3114.9497,-3293.1724,-37904.746,44031.293
1313641.4423711866,-83146.65,-60472.09,-32791.22,-15701.864,3122.7214,-3295.573,-37907.555,44022.055
1313641.4463711812,-83138.35,-60472.168,-32790.367,-15700.888,3125.0815,-3300.0488,-37909.793,44022.543
1313641.4503711755,-83159.71,-60474.895,-32797.12,-15705.852,3120.7683,-3300.6592,-37913.168,44027.14
1313641.4543711701,-83164.875,-60479.168,-32800.66,-15708.334,3117.1062,-3295.5322,-37915.082,44028.934
1313641.4583711647,-83149.46,-60476.848,-32795.777,-15706.869,3119.0186,-3294.0269,-37916.42,44022.137
1313641.462371159,-83147.71,-60470.055,-32794.477,-15705.485,3123.3318,-3299.235,-37916.668,44013.633
1313641.4663711537,-83142.984,-60465.7,-32795.29,-15704.0205,3126.7498,-3304.8096,-37914.836,44019.207
1313641.470371148,-83142.78,-60473.145,-32794.312,-15704.265,3123.9421,-3303.6296,-37914.957,44027.344
1313641.4743711427,-83147.83,-60473.918,-32794.23,-15706.137,3120.3613,-3297.9736,-37913.37,44031.496
1313641.478371137,-83151.086,-60467.125,-32792.32,-15703.817,3122.396,-3293.742,-37910.688,44028.81
1313641.4823711317,-83155.88,-60466.188,-32792.074,-15701.986,3124.6338,-3298.2178,-37911.46,44025.84
1313641.486371126,-83146.61,-60463.83,-32788.37,-15702.556,3125.6104,-3303.7517,-37912.844,44026.125
1313641.4903711206,-83140.625,-60466.797,-32786.46,-15705.933,3117.269,-3302.7751,-37914.797,44029.42
1313641.494371115,-83148.07,-60472.78,-32793.418,-15707.764,3115.6414,-3296.3054,-37916.22,44031.09
1313641.4983711096,-83146.164,-60472.496,-32794.477,-15705.444,3114.9497,-3294.5151,-37916.098,44027.67
1313641.502371104,-83145.8,-60470.95,-32790.04,-15706.259,3115.8447,-3296.3462,-37914.348,44028.28
1313641.5063710986,-83145.8,-60472.332,-32789.39,-15706.95,3115.3564,-3300.537,-37910.688,44028.484
1313641.5103710932,-83155.36,-60474.12,-32791.016,-15707.52,3113.9324,-3299.235,-37908.69,44037.844
1313641.5143710875,-83155.27,-60475.996,-32793.215,-15708.74,3109.7007,-3294.1895,-37907.27,44051.555
1313641.5183710821,-83147.55,-60475.14,-32790.082,-15709.025,3109.66,-3291.748,-37902.63,44051.68
1313641.5223710765,-83154.26,-60477.258,-32793.54,-15708.374,3109.7412,-3298.4214,-37899.66,44050.05
1313641.526371071,-83143.72,-60477.54,-32791.953,-15708.618,3111.6538,-3300.4558,-37898.844,44050.457
1313641.5303710655,-83134.73,-60472.94,-32791.383,-15708.456,3113.851,-3299.1943,-37903.605,44050.984
1313641.53437106,-83138.06,-60476.402,-32791.668,-15708.862,3108.6426,-3294.7185,-37905.4,44055.22
1313641.5383710545,-83147.22,-60478.598,-32790.285,-15707.846,3110.3516,-3295.3696,-37901.9,44058.027
1313641.542371049,-83144.086,-60473.188,-32790.367,-15707.764,3113.7695,-3298.8281,-37897.83,44062.34
1313641.5463710434,-83137.58,-60466.96,-32787.438,-15706.747,3114.7869,-3297.1191,-37893.96,44065.918
1313641.550371038,-83146.94,-60469.65,-32790.04,-15709.147,3111.8164,-3295.573,-37898.64,44065.594
1313641.5543710324,-83154.87,-60476.24,-32795.492,-15709.27,3111.1655,-3292.6433,-37900.88,44062.664
1313641.558371027,-83157.35,-60480.676,-32791.22,-15707.968,3110.3923,-3290.8936,-37899.254,44063.965
1313641.5623710216,-83150.11,-60471.03,-32783.12,-15703.898,3115.0718,-3296.2646,-37900.96,44057.332
1313641.566371016,-83130.21,-60462.12,-32783.164,-15701.416,3120.0767,-3299.0317,-37901.938,44056.562
1313641.5703710106,-83127.89,-60463.543,-32790.73,-15704.265,3116.5366,-3296.753,-37906.047,44057.496
1313641.574371005,-83134.81,-60467.855,-32790.04,-15705.404,3113.9731,-3293.1316,-37908.285,44056.316
1313641.5783709995,-83138.266,-60471.19,-32785.81,-15704.59,3114.7869,-3292.8062,-37909.06,44046.145
1313641.582370994,-83135.46,-60472.25,-32782.633,-15704.428,3114.6648,-3296.5903,-37907.35,44045.004
1313641.5863709885,-83144.82,-60474.53,-32785.24,-15705.933,3112.6304,-3301.5952,-37905.723,44052.246
1313641.590370983,-83151.94,-60476.24,-32788.74,-15709.066,3108.8462,-3302.0835,-37907.145,44055.098
1313641.5943709775,-83150.11,-60479.086,-32790.895,-15708.537,3108.1543,-3298.0957,-37908.043,44053.996
1313641.5983709719,-83150.72,-60476.2,-32785.688,-15706.015,3111.4502,-3295.5322,-37907.473,44053.633
1313641.6023709665,-83160.36,-60470.99,-32778.445,-15702.189,3114.0952,-3296.1833,-37904.215,44049.727
1313641.606370961,-83153.0,-60473.39,-32778.32,-15703.613,3114.5427,-3300.3337,-37908.855,44041.3
1313641.6103709554,-83153.65,-60480.797,-32787.926,-15706.462,3111.776,-3298.0144,-37908.61,44044.477
1313641.61437095,-83155.07,-60486.535,-32796.715,-15708.456,3107.0557,-3292.8467,-37906.496,44049.4
1313641.6183709444,-83154.26,-60482.383,-32796.023,-15708.7,3107.1372,-3290.3647,-37904.91,44047.406
1313641.622370939,-83153.85,-60483.24,-32795.492,-15708.212,3108.7646,-3295.7358,-37902.47,44042.117
1313641.6263709334,-83154.79,-60480.918,-32792.074,-15708.659,3111.2876,-3300.0083,-37901.734,44036.785
1313641.630370928,-83162.11,-60480.633,-32792.074,-15711.02,3110.3516,-3296.7937,-37902.387,44044.07
1313641.6343709223,-83157.02,-60483.605,-32795.207,-15712.6875,3108.2764,-3294.7185,-37901.816,44049.562
1313641.638370917,-83163.13,-60482.22,-32792.97,-15709.799,3110.433,-3293.1316,-37895.508,44055.34
1313641.6423709113,-83172.04,-60479.656,-32793.215,-15709.961,3111.9385,-3298.6248,-37896.61,44048.625
1313641.646370906,-83156.82,-60473.797,-32794.07,-15708.781,3112.5896,-3302.5718,-37899.902,44044.434
1313641.6503709003,-83150.92,-60474.977,-32794.15,-15709.066,3111.0027,-3301.5137,-37901.41,44054.445
1313641.654370895,-83152.914,-60479.29,-32799.234,-15708.212,3110.6772,-3299.113,-37901.164,44059.082
1313641.6583708895,-83148.56,-60476.074,-32798.91,-15706.747,3112.4268,-3300.9033,-37903.08,44054.2
1313641.6623708839,-83148.766,-60473.88,-32793.336,-15705.648,3116.5771,-3302.7751,-37902.47,44053.1
1313641.6663708785,-83148.234,-60474.977,-32790.04,-15704.916,3116.6587,-3304.769,-37902.508,44054.61
1313641.6703708728,-83154.664,-60476.074,-32792.035,-15706.909,3112.4675,-3302.8972,-37903.24,44056.113
1313641.6743708674,-83164.875,-60477.38,-32793.785,-15706.015,3108.8462,-3299.113,-37906.535,44053.996
1313641.6783708618,-83159.14,-60473.27,-32789.51,-15703.654,3109.2937,-3297.6482,-37908.977,44048.91
1313641.6823708564,-83145.59,-60467.246,-32786.5,-15701.132,3112.6304,-3300.0083,-37906.617,44044.92
1313641.6863708508,-83134.445,-60464.926,-32780.56,-15700.155,3113.5254,-3302.5718,-37904.703,44042.97
1313641.6903708454,-83140.625,-60469.117,-32781.21,-15702.881,3112.5488,-3300.2117,-37904.83,44048.83
1313641.6943708397,-83142.664,-60474.938,-32785.562,-15703.898,3107.951,-3294.5964,-37906.21,44047.934
1313641.6983708343,-83138.8,-60474.61,-32785.28,-15701.05,3107.8289,-3292.7654,-37902.508,44046.875
1313641.7023708287,-83140.55,-60471.56,-32783.855,-15700.725,3113.5254,-3296.4683,-37900.92,44041.668
1313641.7063708233,-83141.65,-60472.168,-32782.473,-15702.597,3110.189,-3299.113,-37899.617,44041.914
1313641.710370818,-83149.25,-60477.95,-32785.77,-15706.218,3106.3232,-3297.1191,-37900.84,44038.7
1313641.7143708123,-83158.29,-60481.527,-32787.723,-15706.137,3108.4392,-3292.8062,-37901.367,44046.633
1313641.718370807,-83165.65,-60480.51,-32789.754,-15704.224,3109.497,-3290.568,-37901.855,44051.027
1313641.7223708013,-83151.695,-60471.723,-32787.844,-15700.562,3110.8806,-3292.4805,-37900.31,44048.465
1313641.7263707959,-83142.984,-60471.152,-32784.18,-15702.881,3109.9854,-3294.7185,-37900.555,44045.37
1313641.7303707902,-83144.62,-60480.145,-32787.07,-15707.275,3102.2136,-3294.8813,-37900.594,44052.492
1313641.7343707848,-83144.05,-60480.145,-32789.227,-15707.357,3101.3591,-3291.7075,-37899.332,44058.96
1313641.7383707792,-83145.8,-60478.883,-32788.86,-15706.584,3102.1729,-3291.504,-37900.758,44057.58
1313641.7423707738,-83140.26,-60473.555,-32786.38,-15705.404,3106.9336,-3296.4275,-37900.88,44051.35
1313641.7463707682,-83142.21,-60474.203,-32784.508,-15706.665,3110.5957,-3302.7751,-37904.46,44042.89
1313641.7503707628,-83161.7,-60478.8,-32786.46,-15709.921,3108.5613,-3301.351,-37906.047,44045.168
1313641.7543707571,-83167.12,-60480.51,-32790.082,-15709.758,3106.1199,-3298.0957,-37908.895,44045.98
1313641.7583707517,-83153.93,-60478.68,-32798.137,-15710.124,3106.4453,-3297.8923,-37910.727,44042.684
1313641.7623707463,-83142.74,-60472.656,-32800.133,-15709.106,3110.2703,-3300.0488,-37907.676,44045.777
1313641.7663707407,-83143.805,-60469.16,-32796.062,-15710.409,3113.322,-3305.0132,-37907.918,44043.54
1313641.7703707353,-83150.64,-60470.297,-32798.79,-15712.036,3109.8228,-3305.9082,-37908.164,44051.8
1313641.7743707297,-83154.586,-60470.867,-32799.195,-15710.327,3107.0557,-3299.1943,-37909.793,44055.46
1313641.7783707243,-83155.48,-60473.676,-32793.824,-15711.711,3106.2827,-3295.858,-37909.914,44047.49
1313641.7823707187,-83149.25,-60471.438,-32790.652,-15712.321,3108.4392,-3300.0488,-37907.188,44050.54
1313641.7863707133,-83155.56,-60470.297,-32792.32,-15712.646,3107.8696,-3303.3447,-37905.438,44044.68
1313641.7903707076,-83165.164,-60471.76,-32793.457,-15712.851,3106.3232,-3298.7876,-37903.035,44053.914
1313641.7943707022,-83155.56,-60478.027,-32791.383,-15714.804,3102.2136,-3291.0156,-37901.492,44059.082
1313641.7983706966,-83147.95,-60479.453,-32787.516,-15717.57,3097.9004,-3292.277,-37902.223,44055.22
1313641.8023706912,-83143.31,-60477.094,-32780.887,-15716.635,3101.766,-3298.2585,-37901.285,44047.12
1313641.8063706858,-83140.22,-60476.645,-32784.71,-15716.269,3102.9868,-3301.3103,-37898.195,44049.03
1313641.8103706802,-83143.31,-60484.297,-32790.367,-15719.6045,3102.7832,-3297.0786,-37897.625,44059.004
1313641.8143706748,-83154.34,-60484.703,-32793.215,-15720.093,3097.575,-3289.4695,-37899.496,44062.258
1313641.8183706691,-83162.11,-60481.977,-32790.73,-15720.663,3096.6797,-3292.1143,-37898.97,44055.137
1313641.8223706638,-83167.36,-60477.867,-32783.895,-15718.872,3101.6033,-3296.4683,-37896.566,44050.293
1313641.8263706581,-83163.01,-60477.094,-32779.703,-15719.442,3100.83,-3300.2117,-37893.92,44052.29
1313641.8303706527,-83144.25,-60476.848,-32780.438,-15720.053,3099.8943,-3298.7876,-37896.28,44060.67
1313641.834370647,-83135.336,-60481.04,-32783.69,-15722.29,3098.5923,-3295.166,-37901.695,44058.96
1313641.8383706417,-83136.88,-60481.0,-32784.06,-15721.843,3097.982,-3293.579,-37903.16,44051.19
1313641.842370636,-83130.05,-60473.88,-32779.95,-15717.937,3104.1667,-3297.0786,-37903.117,44044.395
1313641.8463706307,-83131.72,-60473.594,-32778.08,-15716.879,3105.062,-3300.7407,-37900.39,44045.125
1313641.850370625,-83142.21,-60475.26,-32778.727,-15717.978,3101.644,-3299.52,-37899.414,44058.84
1313641.8543706196,-83145.63,-60474.53,-32778.65,-15717.407,3101.8882,-3294.6777,-37898.562,44067.832
1313641.8583706142,-83150.27,-60475.586,-32783.773,-15717.448,3101.6846,-3290.039,-37897.176,44070.965
1313641.8623706086,-83152.67,-60476.24,-32783.977,-15718.75,3103.5564,-3293.4165,-37897.34,44064.168
1313641.8663706032,-83152.63,-60480.797,-32783.246,-15720.053,3102.7427,-3299.5605,-37897.504,44066.938
1313641.8703705976,-83149.46,-60485.477,-32787.68,-15722.209,3099.691,-3297.8923,-37898.113,44074.586
1313641.8743705922,-83154.79,-60490.195,-32794.637,-15725.749,3096.395,-3292.277,-37897.22,44086.63
1313641.8783705865,-83155.52,-60484.457,-32793.54,-15723.063,3098.9585,-3292.155,-37902.426,44071.617
1313641.8823705812,-83161.13,-60479.25,-32794.883,-15721.273,3100.83,-3297.7295,-37905.805,44058.516
1313641.8863705755,-83155.93,-60478.883,-32792.562,-15721.518,3099.7722,-3303.7517,-37908.367,44052.168
1313641.8903705701,-83153.81,-60481.203,-32789.47,-15722.372,3097.8599,-3303.9958,-37911.746,44046.836
1313641.8943705645,-83148.234,-60489.258,-32790.57,-15723.063,3095.2148,-3298.5027,-37914.31,44048.79
1313641.898370559,-83145.8,-60489.91,-32791.586,-15723.999,3095.2148,-3298.2178,-37914.715,44043.54
1313641.9023705535,-83158.33,-60479.086,-32787.234,-15721.069,3101.8474,-3296.7937,-37912.438,44041.914
1313641.906370548,-83155.16,-60470.867,-32786.133,-15720.134,3108.2764,-3298.584,-37905.64,44043.254
1313641.9103705427,-83157.72,-60471.477,-32785.484,-15720.703,3108.602,-3295.858,-37900.066,44052.734
1313641.914370537,-83157.516,-60478.07,-32790.0,-15723.022,3101.1558,-3292.4805,-37898.195,44059.773
1313641.9183705316,-83156.17,-60482.344,-32791.586,-15725.017,3098.5515,-3288.8184,-37895.67,44062.867
1313641.922370526,-83147.42,-60478.883,-32790.652,-15724.976,3103.3936,-3292.9282,-37895.71,44058.637
1313641.9263705206,-83138.72,-60473.715,-32788.86,-15722.819,3105.6724,-3296.9565,-37896.402,44059.45
1313641.930370515,-83143.48,-60477.5,-32786.336,-15724.691,3105.5908,-3295.9392,-37899.863,44064.902
1313641.9343705096,-83161.055,-60478.395,-32786.582,-15726.685,3105.1433,-3293.213,-37896.77,44070.273
1313641.938370504,-83154.42,-60474.938,-32787.355,-15727.133,3106.8115,-3291.4226,-37892.703,44070.355
1313641.9423704986,-83143.35,-60471.152,-32785.156,-15727.905,3109.66,-3293.2944,-37890.91,44065.676
1313641.946370493,-83138.875,-60469.117,-32779.99,-15727.783,3107.2998,-3295.6138,-37890.42,44063.355
1313641.9503704875,-83132.734,-60471.113,-32781.414,-15730.225,3103.475,-3295.6543,-37893.312,44060.832
1313641.954370482,-83144.984,-60474.57,-32785.688,-15731.039,3101.9695,-3294.1082,-37894.125,44064.984
1313641.9583704765,-83156.82,-60475.223,-32788.574,-15729.736,3101.4404,-3291.2598,-37895.348,44067.508
1313641.962370471,-83151.82,-60473.715,-32788.29,-15728.3125,3101.6846,-3295.6543,-37899.617,44058.31
1313641.9663704655,-83146.61,-60478.76,-32787.68,-15730.551,3100.0977,-3300.944,-37900.516,44059.45
1313641.97037046,-83152.34,-60481.203,-32794.883,-15729.696,3099.935,-3296.9158,-37898.723,44068.44
1313641.9743704544,-83163.21,-60479.7,-32797.49,-15732.178,3095.2964,-3294.0674,-37898.684,44069.297
1313641.978370449,-83150.88,-60479.98,-32793.133,-15731.934,3091.5527,-3293.7012,-37896.85,44063.234
1313641.9823704434,-83139.484,-60474.734,-32787.723,-15729.411,3096.8833,-3295.8171,-37895.754,44059.98
1313641.986370438,-83134.4,-60471.68,-32785.89,-15725.505,3103.0273,-3299.8455,-37897.83,44053.67
1313641.9903704324,-83138.72,-60471.76,-32786.01,-15724.406,3103.5156,-3299.8455,-37903.566,44049.848
1313641.994370427,-83153.484,-60474.246,-32787.477,-15727.905,3101.0742,-3299.5605,-37906.656,44051.883
1313641.9983704214,-83155.48,-60476.035,-32788.656,-15725.749,3102.7427,-3297.567,-37903.688,44056.844
1313642.002370416,-83149.25,-60471.477,-32785.93,-15724.65,3104.9805,-3302.653,-37900.27,44054.402
1313642.0063704103,-83142.945,-60468.71,-32784.508,-15725.383,3103.7598,-3308.96,-37899.457,44051.027
1313642.010370405,-83145.59,-60471.844,-32789.55,-15727.336,3097.6157,-3304.891,-37900.35,44056.887
1313642.0143703995,-83151.49,-60472.008,-32790.285,-15726.359,3097.2495,-3298.1772,-37898.52,44061.727
1313642.018370394,-83142.54,-60471.723,-32789.594,-15723.837,3100.3013,-3293.864,-37894.53,44063.6
1313642.0223703885,-83131.59,-60469.85,-32788.74,-15723.227,3105.4688,-3297.3633,-37894.086,44067.547
1313642.0263703829,-83129.64,-60465.863,-32785.562,-15722.412,3107.8696,-3303.3855,-37895.633,44061.566
1313642.0303703775,-83133.06,-60472.332,-32781.94,-15723.715,3105.7537,-3302.0835,-37898.195,44064.902
1313642.0343703718,-83138.59,-60474.164,-32783.49,-15725.546,3104.4517,-3299.0723,-37900.27,44064.047
1313642.0383703664,-83137.17,-60471.926,-32785.645,-15726.074,3107.2185,-3292.6025,-37896.402,44061.727
1313642.0423703608,-83135.13,-60466.676,-32784.63,-15726.929,3106.2827,-3293.1316,-37893.72,44060.184
1313642.0463703554,-83129.97,-60462.85,-32781.414,-15724.325,3109.4158,-3296.6716,-37889.69,44064.902
1313642.0503703498,-83132.2,-60464.234,-32783.773,-15726.359,3108.1543,-3295.2476,-37889.16,44070.07
1313642.0543703444,-83139.57,-60465.13,-32786.5,-15728.394,3103.5972,-3294.4336,-37892.254,44070.883
1313642.058370339,-83144.086,-60464.766,-32787.438,-15725.871,3108.2358,-3289.2253,-37892.375,44072.633
1313642.0623703334,-83142.336,-60466.758,-32784.344,-15725.871,3108.6833,-3289.4695,-37888.754,44067.63
1313642.066370328,-83137.375,-60467.492,-32780.64,-15726.156,3108.7646,-3292.3992,-37887.047,44066.61
1313642.0703703223,-83148.89,-60470.91,-32785.074,-15728.476,3107.544,-3289.7544,-37886.23,44073.49
1313642.074370317,-83146.81,-60467.695,-32790.527,-15729.899,3105.6724,-3288.0046,-37889.61,44075.848
1313642.0783703113,-83136.44,-60461.836,-32789.145,-15728.3125,3108.0322,-3288.4521,-37891.156,44073.773
1313642.082370306,-83141.484,-60465.66,-32787.152,-15727.905,3110.189,-3287.8418,-37889.363,44073.324
1313642.0863703003,-83145.39,-60470.42,-32786.62,-15729.696,3108.724,-3288.5742,-37887.29,44077.84
1313642.0903702949,-83147.34,-60469.2,-32791.465,-15732.91,3104.126,-3287.7605,-37887.168,44090.332
1313642.0943702892,-83143.555,-60468.47,-32790.855,-15731.894,3101.8882,-3284.953,-37885.66,44093.75
1313642.0983702838,-83141.44,-60466.027,-32788.13,-15729.818,3104.655,-3284.0576,-37887.656,44085.37
1313642.1023702782,-83135.336,-60465.21,-32781.902,-15729.045,3108.1543,-3288.4116,-37888.023,44082.848
1313642.1063702728,-83129.64,-60461.67,-32780.19,-15727.011,3113.5662,-3291.3413,-37888.023,44081.137
1313642.1103702674,-83125.695,-60456.18,-32782.633,-15725.952,3115.9668,-3289.8765,-37892.78,44076.094
1313642.1143702618,-83134.28,-60452.965,-32782.227,-15725.871,3112.9966,-3284.1797,-37893.68,44077.72
1313642.1183702564,-83138.47,-60450.117,-32783.977,-15725.749,3109.8633,-3284.9937,-37898.195,44074.465
1313642.1223702508,-83131.67,-60444.297,-32779.42,-15724.772,3110.2703,-3289.5916,-37900.72,44059.164
1313642.1263702454,-83135.625,-60441.613,-32776.246,-15724.569,3114.746,-3294.6777,-37899.945,44058.758
1313642.1303702397,-83132.0,-60442.14,-32781.293,-15725.627,3113.5254,-3293.9048,-37898.6,44065.27
1313642.1343702343,-83123.7,-60448.367,-32781.82,-15724.162,3109.4565,-3288.0046,-37896.04,44073.04
1313642.1383702287,-83125.25,-60453.125,-32780.52,-15723.308,3108.1138,-3287.1501,-37897.38,44073.203
1313642.1423702233,-83127.0,-60451.945,-32776.367,-15721.3545,3108.358,-3291.4634,-37901.082,44063.887
1313642.1463702177,-83132.164,-60455.65,-32777.06,-15723.022,3109.1716,-3296.8345,-37900.797,44062.42
1313642.1503702123,-83136.07,-60461.387,-32781.047,-15722.168,3107.6255,-3292.6025,-37900.434,44071.98
1313642.1543702066,-83134.4,-60464.152,-32783.69,-15718.425,3105.5095,-3285.3599,-37899.414,44073.445
1313642.1583702012,-83131.266,-60463.586,-32781.74,-15716.187,3105.1025,-3282.6335,-37899.332,44071.492
1313642.1623701958,-83138.63,-60460.168,-32779.664,-15715.414,3107.2185,-3287.9639,-37900.72,44059.082
1313642.1663701902,-83148.03,-60463.176,-32782.145,-15719.035,3107.2593,-3294.2302,-37901.652,44059.043
1313642.1703701848,-83164.76,-60475.832,-32791.707,-15723.227,3104.4922,-3293.8232,-37899.945,44068.32
1313642.1743701792,-83180.42,-60494.957,-32796.55,-15727.946,3095.744,-3288.1267,-37898.03,44069.703
1313642.1783701738,-83160.16,-60483.035,-32788.29,-15725.342,3094.035,-3284.1797,-37899.457,44070.598
1313642.1823701682,-83143.6,-60460.9,-32779.99,-15718.1,3103.0273,-3290.853,-37902.305,44066.12
1313642.1863701628,-83144.086,-60472.58,-32781.535,-15717.285,3103.8818,-3291.3818,-37896.85,44073.285
1313642.1903701571,-83149.05,-60482.383,-32783.734,-15721.436,3098.3074,-3287.7197,-37894.086,44083.984
1313642.1943701517,-83156.7,-60480.266,-32787.56,-15721.68,3094.279,-3284.5867,-37894.695,44086.1
1313642.198370146,-83156.7,-60483.523,-32794.84,-15723.389,3094.7266,-3282.0232,-37894.98,44089.844
1313642.2023701407,-83151.94,-60485.15,-32793.582,-15724.487,3096.7612,-3283.773,-37892.17,44086.348
1313642.206370135,-83158.66,-60487.918,-32789.145,-15725.261,3095.866,-3285.4004,-37894.086,44077.598
