timestamp,Fp1,Fp2,F3,Fz,F4,Cz,Pz,Oz
1312934.8233436865,-107158.29,-80315.63,-46708.457,-28811.646,-5904.175,-34342.613,-55416.223,1021.4437
1312934.8273436811,-107154.71,-80319.664,-46704.715,-28813.396,-5908.0,-34336.59,-55418.05,1013.9567
1312934.8313436755,-107157.43,-80323.125,-46703.9,-28814.941,-5911.296,-34332.156,-55418.38,1003.78424
1312934.83534367,-107164.48,-80325.484,-46708.945,-28815.594,-5909.9937,-34339.76,-55422.69,993.6117
1312934.8393436647,-107168.22,-80323.24,-46712.402,-28813.64,-5903.5645,-34345.055,-55423.992,991.4551
1312934.843343659,-107172.24,-80324.875,-46714.07,-28814.576,-5903.402,-34344.24,-55428.43,980.7943
1312934.8473436537,-107174.32,-80325.484,-46714.844,-28815.797,-5905.925,-34336.1,-55428.305,977.417
1312934.851343648,-107179.94,-80330.85,-46717.773,-28821.006,-5909.139,-34333.008,-55425.703,976.84735
1312934.8553436426,-107181.64,-80333.74,-46720.055,-28821.33,-5908.203,-34334.516,-55417.766,985.83984
1312934.859343637,-107175.01,-80326.336,-46718.387,-28818.645,-5902.181,-34336.71,-55410.523,992.0654
1312934.8633436316,-107170.9,-80322.35,-46715.457,-28816.326,-5901.001,-34334.312,-55404.42,998.16895
1312934.867343626,-107171.35,-80327.03,-46714.64,-28819.541,-5904.0938,-34328.453,-55401.652,998.3317
1312934.8713436206,-107178.59,-80333.945,-46715.13,-28822.47,-5906.4536,-34325.81,-55401.043,993.571
1312934.875343615,-107184.086,-80331.055,-46718.71,-28824.627,-5903.8086,-34329.754,-55399.05,1003.3773
1312934.8793436096,-107179.24,-80326.5,-46716.88,-28823.121,-5899.9023,-34333.05,-55393.84,1015.7064
1312934.883343604,-107176.195,-80324.38,-46715.82,-28823.65,-5902.2627,-34331.46,-55391.81,1022.6237
1312934.8873435985,-107173.625,-80324.266,-46711.47,-28824.342,-5904.5005,-34324.832,-55390.098,1023.3155
1312934.8913435931,-107174.12,-80329.59,-46710.777,-28825.766,-5906.535,-34321.777,-55388.754,1025.1058
1312934.8953435875,-107179.24,-80327.31,-46714.438,-28825.725,-5901.6113,-34327.637,-55389.406,1024.1699
1312934.899343582,-107181.97,-80324.42,-46714.64,-28824.139,-5896.6064,-34333.133,-55390.79,1024.0479
1312934.9033435765,-107176.44,-80320.195,-46710.164,-28821.86,-5894.2466,-34333.17,-55390.465,1029.419
1312934.907343571,-107174.93,-80322.23,-46705.977,-28822.266,-5896.1997,-34326.742,-55389.285,1036.8652
1312934.9113435654,-107175.58,-80324.14,-46704.55,-28823.61,-5899.577,-34322.88,-55388.47,1037.1908
1312934.91534356,-107171.8,-80321.125,-46705.69,-28822.47,-5898.967,-34327.434,-55388.105,1034.0984
1312934.9193435544,-107169.97,-80314.29,-46704.715,-28820.518,-5897.502,-34332.766,-55390.79,1031.5349
1312934.923343549,-107175.46,-80324.75,-46703.086,-28821.25,-5900.0244,-34331.46,-55391.766,1029.8259
1312934.9273435434,-107175.87,-80326.625,-46700.684,-28821.412,-5899.699,-34325.848,-55391.277,1029.8666
1312934.931343538,-107176.72,-80314.29,-46702.68,-28822.145,-5893.718,-34324.06,-55392.418,1026.4893
1312934.9353435324,-107173.55,-80310.55,-46703.125,-28819.988,-5891.968,-34326.703,-55388.633,1031.4128
1312934.939343527,-107166.43,-80306.64,-46705.977,-28818.889,-5890.503,-34330.61,-55383.3,1042.6433
1312934.9433435216,-107165.125,-80297.0,-46704.918,-28818.93,-5886.068,-34328.25,-55378.34,1046.875
1312934.947343516,-107166.43,-80298.914,-46701.99,-28822.715,-5888.957,-34322.348,-55375.816,1047.282
1312934.9513435105,-107166.016,-80301.555,-46700.24,-28824.3,-5892.4155,-34319.05,-55371.91,1050.4558
1312934.955343505,-107156.375,-80294.88,-46697.633,-28821.371,-5889.201,-34322.266,-55369.223,1050.9847
1312934.9593434995,-107145.59,-80283.81,-46700.684,-28818.604,-5882.202,-34330.242,-55369.1,1053.9958
1312934.9633434939,-107138.11,-80280.88,-46701.54,-28818.36,-5882.121,-34329.145,-55368.246,1056.9662
1312934.9673434885,-107137.78,-80282.836,-46698.69,-28818.035,-5884.359,-34321.902,-55369.996,1046.6716
1312934.9713434828,-107140.99,-80284.47,-46700.44,-28821.738,-5886.6377,-34320.312,-55371.34,1044.9626
1312934.9753434774,-107139.81,-80281.05,-46702.35,-28821.777,-5884.6436,-34326.133,-55375.53,1033.8949
1312934.9793434718,-107135.46,-80272.586,-46704.062,-28819.621,-5879.232,-34330.04,-55373.414,1038.0453
1312934.9833434664,-107126.23,-80263.63,-46701.66,-28817.344,-5876.709,-34328.9,-55375.33,1037.8418
1312934.987343461,-107119.914,-80254.44,-46696.453,-28815.715,-5877.1973,-34325.848,-55380.617,1028.3611
1312934.9913434554,-107126.71,-80262.125,-46696.617,-28818.035,-5878.052,-34323.285,-55383.508,1021.0775
1312934.99534345,-107123.7,-80263.1,-46697.105,-28816.773,-5875.163,-34327.76,-55384.688,1018.35126
1312934.9993434444,-107110.805,-80251.71,-46695.19,-28813.314,-5869.2627,-34334.35,-55387.492,1018.7989
1312935.003343439,-107101.12,-80240.73,-46691.57,-28809.57,-5864.99,-34333.54,-55391.32,1021.0368
1312935.0073434333,-107095.016,-80234.54,-46688.805,-28808.96,-5865.6006,-34328.453,-55395.47,1022.0948
1312935.011343428,-107094.164,-80230.96,-46686.32,-28810.752,-5864.665,-34327.15,-55395.633,1020.42645
1312935.0153434223,-107092.33,-80225.47,-46688.887,-28810.996,-5862.0605,-34332.645,-55393.23,1023.88513
1312935.019343417,-107085.53,-80224.49,-46687.664,-28808.96,-5859.131,-34336.266,-55387.86,1035.0342
1312935.0233434113,-107079.02,-80219.36,-46682.617,-28805.625,-5858.1543,-34333.54,-55387.902,1031.7383
1312935.0273434059,-107070.84,-80213.055,-46677.816,-28805.828,-5861.491,-34328.492,-55391.645,1023.3155
1312935.0313434002,-107074.1,-80217.37,-46679.77,-28810.588,-5867.269,-34328.777,-55392.785,1021.1182
1312935.0353433948,-107079.305,-80218.75,-46682.13,-28811.729,-5866.74,-34332.48,-55387.207,1028.5645
1312935.0393433894,-107072.266,-80209.44,-46681.64,-28808.188,-5861.0435,-34335.9,-55382.246,1037.7605
1312935.0433433838,-107064.05,-80204.305,-46678.67,-28806.113,-5859.497,-34334.23,-55378.055,1043.1316
1312935.0473433784,-107063.27,-80204.96,-46677.53,-28807.861,-5862.0605,-34327.434,-55373.375,1050.3337
1312935.0513433728,-107064.87,-80205.53,-46677.695,-28810.182,-5863.5254,-34324.91,-55369.957,1052.3682
1312935.0553433674,-107064.87,-80205.53,-46681.234,-28809.855,-5861.6133,-34329.918,-55368.29,1055.6641
1312935.0593433618,-107052.29,-80195.31,-46680.34,-28804.607,-5855.3467,-34336.793,-55370.73,1048.5433
1312935.0633433564,-107045.25,-80187.055,-46674.4,-28801.963,-5852.702,-34336.508,-55374.31,1040.0798
1312935.0673433507,-107046.96,-80186.57,-46669.598,-28802.613,-5853.6377,-34328.816,-55375.734,1031.1687
1312935.0713433453,-107049.766,-80187.3,-46669.68,-28806.193,-5854.696,-34327.84,-55376.875,1029.541
1312935.0753433397,-107048.42,-80186.12,-46670.86,-28806.64,-5855.2656,-34334.066,-55378.137,1026.4893
1312935.0793433343,-107042.16,-80179.41,-46669.312,-28802.734,-5853.0273,-34338.22,-55376.832,1027.3845
1312935.0833433287,-107042.195,-80180.3,-46667.97,-28801.84,-5851.9287,-34337.08,-55378.137,1027.9949
1312935.0873433233,-107048.99,-80187.42,-46666.547,-28804.363,-5858.3174,-34332.03,-55378.055,1025.9603
1312935.0913433179,-107055.914,-80194.38,-46670.37,-28807.496,-5863.2812,-34329.266,-55378.297,1021.403
1312935.0953433122,-107063.68,-80199.83,-46674.645,-28809.531,-5861.6133,-34333.58,-55378.625,1023.112
1312935.0993433069,-107065.27,-80201.01,-46676.516,-28809.855,-5859.538,-34336.14,-55372.766,1032.1453
1312935.1033433012,-107070.03,-80208.17,-46676.72,-28811.809,-5861.7354,-34332.766,-55369.223,1034.7087
1312935.1073432958,-107079.35,-80219.2,-46674.97,-28814.82,-5866.333,-34325.24,-55366.375,1032.6742
1312935.1113432902,-107090.336,-80231.695,-46675.17,-28818.035,-5870.5244,-34323.0,-55363.65,1040.2832
1312935.1153432848,-107096.07,-80236.66,-46678.062,-28817.912,-5869.873,-34326.62,-55360.637,1045.2474
1312935.1193432792,-107096.6,-80239.016,-46678.184,-28814.373,-5864.99,-34331.42,-55358.727,1050.2523
1312935.1233432738,-107101.73,-80246.46,-46677.734,-28815.594,-5867.0654,-34330.445,-55360.434,1046.9971
1312935.1273432681,-107110.555,-80256.39,-46677.86,-28819.336,-5872.152,-34325.523,-55361.37,1044.8406
1312935.1313432627,-107115.65,-80263.72,-46680.543,-28822.062,-5875.4478,-34322.023,-55360.35,1045.6951
1312935.135343257,-107120.445,-80268.07,-46685.832,-28823.04,-5874.4307,-34327.477,-55363.406,1046.5902
1312935.1393432517,-107121.625,-80267.01,-46688.4,-28821.656,-5870.8496,-34332.03,-55360.434,1051.6765
1312935.1433432463,-107126.75,-80273.64,-46685.63,-28822.307,-5870.6465,-34329.266,-55356.0,1057.2917
1312935.1473432407,-107127.52,-80273.89,-46683.027,-28823.203,-5872.762,-34324.707,-55360.72,1047.1191
1312935.1513432353,-107126.67,-80273.6,-46683.92,-28824.504,-5874.471,-34323.285,-55361.33,1047.0785
1312935.1553432296,-107127.08,-80271.24,-46687.297,-28824.3,-5871.379,-34328.53,-55361.086,1045.7357
1312935.1593432243,-107125.33,-80263.43,-46685.508,-28822.348,-5866.577,-34333.984,-55363.324,1039.3066
1312935.1633432186,-107124.8,-80263.23,-46682.984,-28820.477,-5866.374,-34331.504,-55363.406,1045.4102
1312935.1673432132,-107127.37,-80267.01,-46679.08,-28821.615,-5869.67,-34324.832,-55363.242,1045.7764
1312935.1713432076,-107133.79,-80276.53,-46678.47,-28823.65,-5874.349,-34323.16,-55364.91,1043.864
1312935.1753432022,-107137.49,-80279.625,-46679.934,-28824.748,-5876.1396,-34329.715,-55364.42,1052.4496
1312935.1793431966,-107137.54,-80274.945,-46681.562,-28822.104,-5871.216,-34333.254,-55360.35,1058.3496
1312935.1833431912,-107140.47,-80278.61,-46682.457,-28821.29,-5870.5244,-34329.715,-55358.117,1060.9539
1312935.1873431858,-107135.99,-80278.484,-46679.85,-28821.656,-5871.7856,-34323.367,-55359.297,1060.7097
1312935.1913431801,-107137.29,-80278.81,-46679.65,-28822.674,-5872.518,-34322.023,-55362.633,1052.7751
1312935.1953431747,-107140.625,-80275.96,-46682.78,-28822.186,-5870.7275,-34329.145,-55365.562,1045.6543
1312935.199343169,-107133.18,-80267.58,-46683.637,-28819.012,-5864.909,-34333.457,-55365.766,1045.8171
1312935.2033431637,-107121.914,-80257.33,-46679.04,-28814.738,-5862.1826,-34331.625,-55366.17,1042.5212
1312935.207343158,-107118.414,-80252.08,-46674.562,-28813.762,-5864.2173,-34324.06,-55363.527,1039.0219
1312935.2113431527,-107119.63,-80255.01,-46672.895,-28817.18,-5866.5366,-34323.895,-55362.227,1033.4473
1312935.215343147,-107115.766,-80252.36,-46675.58,-28817.059,-5864.502,-34330.934,-55362.266,1033.7322
1312935.2193431417,-107102.95,-80242.88,-46673.75,-28811.89,-5858.4395,-34334.15,-55358.523,1041.4226
1312935.223343136,-107094.81,-80234.54,-46669.355,-28809.775,-5856.323,-34334.23,-55359.785,1043.6199
1312935.2273431306,-107086.67,-80229.33,-46665.082,-28809.246,-5857.3813,-34329.996,-55362.55,1036.7432
1312935.231343125,-107083.5,-80234.17,-46661.543,-28810.996,-5862.8745,-34325.81,-55358.24,1040.324
1312935.2353431196,-107079.72,-80231.33,-46661.336,-28810.059,-5861.8574,-34331.504,-55355.715,1044.6777
1312935.2393431142,-107057.82,-80205.98,-46658.816,-28804.363,-5851.5625,-34337.117,-55349.977,1064.331
1312935.2433431086,-107038.375,-80188.07,-46651.367,-28800.701,-5844.8486,-34334.555,-55349.57,1057.1697
1312935.2473431032,-107033.77,-80185.914,-46654.707,-28801.066,-5845.459,-34328.453,-55351.117,1052.8972
1312935.2513430975,-107032.27,-80189.086,-46656.94,-28803.184,-5844.686,-34323.895,-55349.082,1061.849
1312935.2553430921,-107024.055,-80181.56,-46655.926,-28802.002,-5839.6406,-34329.47,-55345.5,1067.749
1312935.2593430865,-107007.29,-80161.83,-46647.79,-28796.63,-5832.1533,-34336.996,-55348.35,1064.4125
1312935.263343081,-106997.44,-80157.92,-46641.6,-28794.434,-5830.8516,-34333.945,-55347.047,1067.7898
1312935.2673430755,-106987.266,-80160.16,-46633.06,-28795.533,-5832.3975,-34326.66,-55342.98,1072.5505
1312935.27134307,-106979.13,-80152.06,-46624.105,-28795.533,-5830.7295,-34322.47,-55341.15,1076.2126
1312935.2753430645,-106978.97,-80151.37,-46630.414,-28795.818,-5829.6714,-34329.715,-55341.72,1079.7527
1312935.279343059,-106979.414,-80151.86,-46644.043,-28794.8,-5827.759,-34335.695,-55340.617,1079.834
1312935.2833430534,-106975.47,-80148.84,-46647.42,-28794.068,-5825.3174,-34333.78,-55340.008,1077.8402
1312935.287343048,-106976.2,-80150.19,-46645.55,-28796.143,-5826.4976,-34327.066,-55342.45,1071.6146
1312935.2913430426,-106989.51,-80162.92,-46647.055,-28799.684,-5831.7466,-34322.39,-55338.42,1071.4926
1312935.295343037,-107003.055,-80173.016,-46648.562,-28800.498,-5835.6123,-34325.32,-55333.05,1076.294
1312935.2993430316,-107014.53,-80181.16,-46650.27,-28802.734,-5842.6514,-34331.586,-55333.008,1077.1892
1312935.303343026,-107023.64,-80189.58,-46646.363,-28804.688,-5832.8047,-34328.004,-55328.695,1085.1644
1312935.3073430206,-107044.48,-80203.984,-46648.277,-28807.129,-5834.554,-34319.742,-55326.457,1085.9783
1312935.311343015,-107073.04,-80228.48,-46656.047,-28810.508,-5843.75,-34316.53,-55325.44,1075.5209
1312935.3153430095,-107089.52,-80242.96,-46662.312,-28813.152,-5845.622,-34320.438,-55321.496,1077.6367
1312935.319343004,-107099.9,-80246.95,-46665.812,-28809.938,-5840.129,-34324.26,-55318.523,1084.5134
1312935.3233429985,-107114.14,-80257.695,-46665.938,-28811.564,-5840.5356,-34319.176,-55315.715,1089.03
1312935.3273429929,-107142.055,-80286.3,-46665.0,-28817.668,-5850.7896,-34310.1,-55313.438,1089.5183
1312935.3313429875,-107163.945,-80309.695,-46667.44,-28820.518,-5858.3984,-34307.945,-55313.355,1087.4431
1312935.3353429819,-107180.1,-80317.63,-46670.574,-28821.453,-5860.555,-34312.176,-55311.08,1088.1348
1312935.3393429765,-107193.04,-80323.164,-46668.62,-28820.883,-5858.8867,-34316.45,-55308.8,1093.2211
1312935.343342971,-107205.77,-80337.77,-46668.297,-28821.412,-5862.386,-34312.34,-55304.85,1098.0225
1312935.3473429654,-107219.52,-80355.72,-46671.023,-28825.928,-5870.6055,-34303.47,-55301.312,1104.0853
1312935.35134296,-107225.836,-80364.99,-46672.406,-28831.137,-5875.4478,-34297.977,-55298.75,1105.9978
1312935.3553429544,-107227.99,-80370.65,-46670.25,-28831.748,-5876.0176,-34301.758,-55293.254,1112.0199
1312935.359342949,-107231.37,-80373.25,-46664.188,-28829.795,-5876.343,-34306.07,-55288.21,1124.1049
1312935.3633429434,-107240.484,-80381.11,-46657.473,-28830.363,-5880.6562,-34301.312,-55283.57,1130.4119
1312935.367342938,-107246.38,-80390.71,-46659.383,-28833.701,-5884.5625,-34291.22,-55278.605,1135.6201
1312935.3713429323,-107249.8,-80393.44,-46660.2,-28836.549,-5885.9863,-34288.94,-55278.16,1137.5326
1312935.375342927,-107257.04,-80393.96,-46663.086,-28837.77,-5883.0566,-34292.277,-55272.87,1147.2982
1312935.3793429213,-107255.01,-80391.234,-46658.977,-28834.148,-5877.889,-34294.72,-55266.523,1151.6521
1312935.383342916,-107259.766,-80390.46,-46653.85,-28832.398,-5877.1567,-34288.82,-55263.348,1150.5535
1312935.3873429103,-107267.016,-80397.055,-46654.746,-28833.781,-5881.1035,-34279.137,-55260.094,1156.1687
1312935.391342905,-107275.234,-80408.33,-46655.438,-28837.77,-5883.2197,-34275.555,-55261.23,1148.2341
1312935.3953428995,-107276.94,-80411.42,-46656.21,-28839.152,-5883.586,-34278.65,-55259.973,1151.8555
1312935.3993428939,-107277.914,-80413.13,-46657.066,-28836.549,-5881.877,-34282.105,-55259.562,1152.4658
1312935.4033428885,-107277.59,-80417.445,-46652.793,-28835.531,-5882.121,-34279.34,-55262.414,1145.0603
1312935.4073428828,-107282.23,-80419.88,-46649.824,-28838.584,-5887.207,-34273.766,-55263.348,1146.1589
1312935.4113428774,-107287.64,-80424.805,-46651.33,-28841.797,-5890.544,-34270.426,-55262.004,1140.8285
1312935.4153428718,-107289.06,-80428.63,-46655.07,-28842.367,-5887.207,-34275.35,-55262.617,1134.6843
1312935.4193428664,-107293.54,-80432.05,-46657.39,-28839.926,-5884.074,-34277.26,-55259.645,1139.7299
1312935.4233428608,-107300.58,-80437.87,-46659.06,-28841.188,-5887.492,-34273.6,-55259.688,1145.8334
1312935.4273428554,-107298.42,-80438.68,-46656.375,-28842.041,-5890.2183,-34269.29,-55259.2,1148.1934
1312935.4313428497,-107300.78,-80437.95,-46655.316,-28844.564,-5892.7817,-34268.23,-55259.973,1145.2637
1312935.4353428443,-107299.445,-80436.57,-46655.64,-28843.994,-5891.8457,-34273.684,-55259.035,1145.874
1312935.439342839,-107295.695,-80434.41,-46654.297,-28841.025,-5888.794,-34278.2,-55256.715,1153.768
1312935.4433428333,-107299.73,-80437.18,-46651.777,-28841.229,-5886.76,-34273.684,-55254.56,1157.8777
1312935.447342828,-107309.414,-80447.59,-46653.523,-28846.518,-5891.6016,-34265.42,-55250.53,1168.457
1312935.4513428223,-107310.34,-80451.01,-46654.22,-28848.633,-5894.735,-34262.535,-55247.355,1178.5076
1312935.455342817,-107306.03,-80443.16,-46654.42,-28846.191,-5890.3403,-34266.805,-55248.17,1174.1537
1312935.4593428113,-107298.47,-80436.52,-46652.996,-28845.012,-5886.7188,-34272.22,-55247.766,1172.7703
1312935.4633428059,-107295.086,-80435.95,-46649.863,-28843.914,-5887.4106,-34270.305,-55247.48,1170.4102
1312935.4673428002,-107293.945,-80438.195,-46647.137,-28843.629,-5890.259,-34261.68,-55246.016,1178.7517
1312935.4713427948,-107291.1,-80441.086,-46646.973,-28844.89,-5892.8223,-34259.766,-55245.28,1179.8503
1312935.4753427892,-107264.086,-80441.086,-46645.55,-28845.582,-5890.096,-34265.79,-55245.324,1175.8627
1312935.4793427838,-107239.83,-80437.055,-46646.812,-28844.32,-5888.3057,-34271.688,-55243.86,1177.3275
1312935.4833427782,-107237.19,-80436.12,-46645.062,-28842.814,-5887.9805,-34270.184,-55245.2,1172.3226
1312935.4873427728,-107238.484,-80440.555,-46644.168,-28844.564,-5891.7236,-34265.75,-55247.03,1172.2006
1312935.4913427674,-107239.22,-80442.43,-46644.125,-28846.07,-5893.677,-34262.574,-55245.04,1178.1414
1312935.4953427617,-107238.24,-80439.7,-46643.965,-28844.28,-5892.497,-34265.016,-55240.234,1183.4717
1312935.4993427563,-107229.86,-80429.85,-46643.637,-28841.432,-5885.5796,-34270.633,-55238.406,1184.4482
1312935.5033427507,-107231.77,-80428.76,-46641.195,-28841.514,-5884.2773,-34269.53,-55243.207,1180.1758
1312935.5073427453,-107234.58,-80433.31,-46639.73,-28843.344,-5888.4277,-34266.805,-55249.72,1169.4744
1312935.5113427397,-107237.35,-80438.84,-46641.97,-28844.402,-5892.09,-34267.254,-55251.465,1161.8652
1312935.5153427343,-107254.27,-80449.914,-46647.992,-28845.908,-5894.287,-34271.812,-55249.31,1161.8246
1312935.5193427287,-107259.2,-80459.68,-46648.438,-28844.932,-5893.921,-34274.13,-55247.684,1167.3177
1312935.5233427233,-107215.46,-80422.484,-46634.562,-28836.955,-5882.65,-34274.742,-55254.76,1160.9294
1312935.5273427176,-107205.57,-80402.305,-46632.285,-28836.508,-5879.8423,-34273.355,-55261.312,1151.1638
1312935.5313427122,-107216.31,-80412.805,-46635.945,-28840.496,-5883.911,-34269.9,-55255.496,1158.366
1312935.5353427066,-107212.81,-80407.555,-46636.395,-28839.64,-5882.0396,-34274.13,-55254.395,1156.1687
1312935.5393427012,-107199.79,-80394.58,-46634.523,-28836.71,-5878.052,-34277.223,-55252.08,1160.9701
1312935.5433426958,-107196.05,-80398.93,-46629.926,-28837.646,-5880.819,-34273.97,-55249.066,1164.3066
1312935.5473426902,-107187.75,-80396.85,-46624.637,-28839.111,-5884.237,-34268.473,-55251.1,1163.9812
1312935.5513426848,-107189.66,-80390.305,-46625.773,-28838.95,-5886.068,-34269.613,-55253.215,1162.6384
1312935.5553426791,-107194.91,-80392.09,-46626.75,-28838.299,-5884.847,-34276.207,-55254.07,1157.3894
1312935.5593426737,-107199.99,-80392.78,-46627.08,-28837.77,-5883.464,-34279.867,-55250.41,1163.0859
1312935.563342668,-107210.94,-80394.734,-46623.21,-28837.2,-5884.5625,-34277.1,-55247.97,1171.2646
1312935.5673426627,-107232.42,-80403.2,-46621.46,-28840.576,-5891.1543,-34271.363,-55250.125,1167.8875
1312935.571342657,-107243.734,-80408.81,-46620.527,-28842.734,-5896.8506,-34267.945,-55248.457,1168.0502
1312935.5753426517,-107243.29,-80405.03,-46622.723,-28843.1,-5892.741,-34274.945,-55251.305,1160.2377
1312935.579342646,-107241.7,-80399.375,-46623.332,-28841.025,-5888.55,-34279.215,-55249.92,1163.6556
1312935.5833426407,-107241.5,-80398.07,-46621.176,-28840.658,-5888.9976,-34275.84,-55250.207,1164.4695
1312935.587342635,-107245.04,-80403.65,-46619.344,-28842.53,-5891.2354,-34270.266,-55249.676,1165.8123
1312935.5913426296,-107248.91,-80405.44,-46620.89,-28843.182,-5891.7646,-34268.027,-55250.285,1158.081
1312935.5953426242,-107251.51,-80402.39,-46626.06,-28842.979,-5887.9805,-34274.375,-55250.938,1158.6914
1312935.5993426186,-107242.31,-80395.19,-46625.613,-28840.049,-5880.819,-34278.89,-55250.816,1158.6914
1312935.6033426132,-107242.72,-80394.66,-46621.785,-28839.275,-5879.5576,-34276.082,-55251.02,1157.43
1312935.6073426076,-107249.92,-80407.19,-46618.855,-28841.797,-5884.969,-34270.957,-55251.465,1153.117
1312935.6113426022,-107254.805,-80415.24,-46620.242,-28845.297,-5891.7646,-34270.59,-55252.24,1150.9603
1312935.6153425965,-107262.336,-80417.445,-46625.613,-28845.826,-5893.4326,-34277.184,-55252.32,1152.4658
1312935.6193425911,-107259.81,-80411.664,-46624.715,-28843.75,-5889.4453,-34282.51,-55251.63,1150.472
1312935.6233425855,-107252.52,-80407.11,-46620.65,-28842.041,-5888.4688,-34278.117,-55248.78,1155.6396
1312935.6273425801,-107252.77,-80410.04,-46619.63,-28843.873,-5890.2183,-34272.664,-55246.258,1154.7445
1312935.6313425745,-107255.01,-80413.086,-46622.195,-28846.518,-5890.9507,-34272.42,-55247.03,1150.9197
1312935.635342569,-107255.05,-80408.81,-46625.41,-28846.07,-5888.1025,-34277.71,-55248.375,1150.7976
1312935.6393425637,-107250.414,-80404.055,-46622.48,-28842.408,-5883.138,-34280.844,-55245.566,1156.657
1312935.643342558,-107251.02,-80406.45,-46618.246,-28842.408,-5882.7314,-34277.06,-55241.58,1165.1205
1312935.6473425527,-107248.5,-80407.35,-46615.48,-28843.506,-5884.481,-34271.16,-55240.848,1165.0798
1312935.651342547,-107247.89,-80411.3,-46617.39,-28846.273,-5888.5093,-34271.527,-55239.543,1163.4929
1312935.6553425416,-107245.65,-80411.945,-46620.242,-28847.617,-5888.387,-34277.426,-55235.965,1169.9219
1312935.659342536,-107242.96,-80404.83,-46618.816,-28846.232,-5883.6265,-34279.543,-55234.418,1169.5964
1312935.6633425306,-107243.05,-80403.41,-46615.562,-28844.89,-5881.0225,-34274.66,-55234.336,1169.3523
1312935.667342525,-107244.76,-80408.29,-46615.316,-28845.5,-5883.8706,-34268.516,-55235.68,1169.7592
1312935.6713425196,-107248.414,-80411.42,-46618.004,-28847.291,-5886.1084,-34269.938,-55239.34,1165.4053
1312935.675342514,-107252.85,-80408.66,-46623.21,-28847.494,-5882.8535,-34277.67,-55240.44,1161.9873
1312935.6793425085,-107247.6,-80401.66,-46622.844,-28845.379,-5880.371,-34282.066,-55239.83,1163.4521
1312935.683342503,-107245.04,-80403.81,-46620.65,-28846.924,-5883.464,-34279.867,-55238.08,1163.5742
1312935.6873424975,-107248.336,-80409.914,-46619.305,-28849.61,-5889.974,-34274.54,-55237.387,1161.8246
1312935.6913424921,-107250.734,-80411.42,-46618.004,-28849.041,-5891.968,-34272.867,-55237.67,1159.139
1312935.6953424865,-107248.7,-80411.3,-46620.117,-28847.412,-5888.916,-34278.32,-55235.76,1161.9467
1312935.699342481,-107242.07,-80405.16,-46620.605,-28844.605,-5883.464,-34281.58,-55236.125,1162.3129
1312935.7033424755,-107240.234,-80401.9,-46620.605,-28844.727,-5880.5747,-34280.152,-55239.79,1155.6396
1312935.70734247,-107245.94,-80407.555,-46619.344,-28847.088,-5884.1147,-34273.723,-55240.723,1157.0638
1312935.7113424644,-107247.73,-80408.33,-46619.305,-28848.389,-5885.62,-34272.664,-55240.36,1152.6693
1312935.715342459,-107244.914,-80404.75,-46621.137,-28846.477,-5881.836,-34277.426,-55236.125,1160.4412
1312935.7193424534,-107241.375,-80400.27,-46619.55,-28844.646,-5877.889,-34282.473,-55235.07,1164.0219
1312935.723342448,-107249.02,-80410.93,-46617.312,-28845.908,-5880.168,-34276.9,-55229.7,1175.293
1312935.7273424424,-107257.81,-80430.79,-46614.098,-28849.773,-5888.6313,-34269.86,-55225.508,1171.7123
1312935.731342437,-107236.984,-80415.086,-46606.895,-28846.68,-5886.5156,-34271.65,-55231.164,1156.25
1312935.7353424313,-107223.43,-80391.28,-46606.895,-28844.035,-5879.5576,-34280.965,-55236.98,1153.1982
1312935.739342426,-107220.14,-80387.984,-46607.344,-28843.547,-5876.9126,-34286.54,-55236.656,1156.4941
1312935.7433424206,-107221.68,-80392.74,-46603.355,-28844.076,-5878.9473,-34283.33,-55233.277,1157.959
1312935.747342415,-107224.29,-80399.414,-46601.645,-28845.135,-5884.2773,-34276.004,-55231.61,1157.1859
1312935.7513424095,-107224.86,-80401.29,-46601.156,-28846.72,-5886.2715,-34275.27,-55234.336,1148.5189
1312935.755342404,-107227.74,-80399.984,-46607.586,-28848.35,-5884.2773,-34282.51,-55237.1,1149.4141
1312935.7593423985,-107229.375,-80397.18,-46609.785,-28848.838,-5880.5747,-34287.027,-55235.395,1158.2845
1312935.7633423929,-107225.18,-80394.53,-46605.348,-28848.064,-5879.7607,-34281.7,-55235.637,1162.7605
1312935.7673423875,-107228.805,-80401.2,-46606.977,-28849.041,-5886.1084,-34278.32,-55237.266,1156.3314
1312935.7713423818,-107232.836,-80406.86,-46610.883,-28851.318,-5889.4453,-34278.65,-55236.33,1159.8715
1312935.7753423764,-107233.85,-80405.88,-46611.656,-28851.36,-5887.7363,-34284.547,-55233.605,1163.208
1312935.7793423708,-107228.16,-80400.8,-46607.79,-28847.9,-5886.0273,-34286.746,-55229.656,1169.393
1312935.7833423654,-107220.83,-80398.27,-46602.742,-28845.541,-5887.1665,-34283.816,-55229.13,1170.573
1312935.7873423598,-107222.13,-80397.09,-46600.832,-28846.03,-5887.7363,-34279.215,-55231.12,1163.5336
1312935.7913423544,-107230.88,-80402.914,-46604.13,-28847.82,-5888.387,-34278.688,-55230.47,1163.9812
1312935.795342349,-107235.88,-80404.22,-46608.44,-28848.756,-5886.882,-34284.547,-55228.395,1167.6433
1312935.7993423434,-107230.72,-80399.3,-46609.54,-28846.273,-5884.1147,-34287.355,-55225.793,1173.9502
1312935.803342338,-107231.2,-80395.555,-46608.035,-28845.582,-5882.772,-34284.508,-55225.223,1174.642
1312935.8073423323,-107236.17,-80400.02,-46608.562,-28847.209,-5885.3354,-34278.16,-55225.465,1168.0908
1312935.811342327,-107239.625,-80407.555,-46608.24,-28850.342,-5888.143,-34278.16,-55227.133,1164.1033
1312935.8153423213,-107238.08,-80404.87,-46610.434,-28850.262,-5884.7656,-34285.727,-55229.25,1160.6853
1312935.819342316,-107232.875,-80401.05,-46609.17,-28845.867,-5880.168,-34288.574,-55228.355,1162.0281
1312935.8233423103,-107226.445,-80400.59,-46605.31,-28844.402,-5881.185,-34286.664,-55229.94,1162.5164
1312935.8273423049,-107229.66,-80408.77,-46605.594,-28846.559,-5886.312,-34283.49,-55233.36,1160.1156
1312935.8313422992,-107239.1,-80415.9,-46607.79,-28848.918,-5890.259,-34286.258,-55235.516,1161.0515
1312935.8353422938,-107235.27,-80410.69,-46607.707,-28846.885,-5886.9224,-34293.742,-55233.81,1166.3005
1312935.8393422882,-107234.83,-80410.12,-46608.684,-28846.111,-5883.5044,-34300.21,-55234.863,1164.6322
1312935.8433422828,-107236.62,-80412.64,-46606.73,-28845.785,-5883.586,-34297.324,-55233.117,1169.7998
1312935.8473422774,-107238.65,-80414.516,-46605.266,-28847.9,-5886.4746,-34292.24,-55233.727,1166.2598
1312935.8513422718,-107245.28,-80418.13,-46604.94,-28848.918,-5887.9395,-34292.523,-55234.418,1163.4929
1312935.8553422664,-107241.78,-80414.92,-46604.535,-28847.129,-5884.7656,-34298.668,-55231.61,1166.1377
1312935.8593422608,-107236.945,-80408.086,-46605.715,-28845.338,-5881.592,-34304.89,-55231.367,1165.324
1312935.8633422554,-107238.695,-80408.164,-46604.86,-28846.68,-5884.237,-34305.664,-55236.37,1153.6052
1312935.8673422497,-107236.74,-80411.945,-46602.62,-28848.145,-5888.0615,-34301.434,-55236.37,1154.5004
1312935.8713422443,-107237.305,-80412.36,-46602.418,-28849.895,-5888.7534,-34301.883,-55233.32,1155.4363
1312935.8753422387,-107241.945,-80409.95,-46608.035,-28851.197,-5888.3057,-34307.945,-55229.332,1162.8418
1312935.8793422333,-107242.31,-80406.05,-46609.215,-28849.977,-5884.359,-34313.113,-55226.645,1168.6605
1312935.8833422277,-107240.69,-80404.34,-46604.902,-28849.773,-5883.667,-34310.547,-55224.773,1168.2537
1312935.8873422223,-107239.75,-80407.88,-46601.688,-28850.383,-5888.55,-34305.867,-55226.484,1159.1797
1312935.8913422169,-107241.984,-80412.44,-46602.582,-28851.441,-5891.1543,-34305.543,-55225.18,1161.1328
1312935.8953422112,-107240.65,-80409.43,-46603.027,-28847.941,-5888.4277,-34311.973,-55225.344,1160.2783
1312935.8993422058,-107234.22,-80404.46,-46602.254,-28844.443,-5884.6846,-34317.26,-55222.94,1162.8826
1312935.9033422002,-107237.43,-80407.76,-46599.082,-28844.158,-5883.5044,-34313.07,-55216.516,1171.5088
1312935.9073421948,-107244.43,-80413.74,-46600.344,-28848.227,-5888.713,-34309.773,-55213.992,1174.642
1312935.9113421892,-107248.09,-80417.85,-46602.094,-28851.115,-5891.3984,-34309.285,-55211.875,1172.8109
1312935.9153421838,-107250.62,-80417.32,-46603.965,-28850.547,-5890.747,-34315.105,-55210.37,1173.4619
1312935.9193421782,-107241.26,-80407.555,-46599.855,-28846.72,-5884.6846,-34319.418,-55208.66,1173.5433
1312935.9233421728,-107237.02,-80409.99,-46595.664,-28844.443,-5882.6904,-34316.977,-55209.8,1171.3054
1312935.9273421671,-107244.836,-80416.71,-46592.652,-28846.6,-5885.254,-34312.094,-55212.973,1169.0674
1312935.9313421617,-107251.14,-80420.375,-46593.26,-28848.064,-5886.7188,-34312.582,-55215.293,1165.3646
1312935.935342156,-107251.59,-80418.336,-46595.703,-28847.412,-5882.7314,-34321.047,-55216.92,1161.6619
1312935.9393421507,-107245.04,-80411.055,-46594.402,-28843.873,-5878.581,-34326.54,-55219.934,1156.4535
1312935.9433421453,-107241.13,-80411.3,-46588.91,-28843.547,-5880.819,-34323.69,-55217.98,1161.5398
1312935.9473421397,-107243.49,-80418.78,-46586.348,-28845.135,-5886.312,-34319.297,-55217.45,1164.8357
1312935.9513421343,-107250.0,-80423.22,-46589.316,-28847.291,-5887.7363,-34321.74,-55222.7,1158.2031
1312935.9553421286,-107247.195,-80417.04,-46593.02,-28844.89,-5884.6436,-34330.12,-55225.586,1151.6927
1312935.9593421232,-107244.555,-80414.15,-46595.34,-28843.791,-5881.1445,-34335.043,-55228.027,1150.8789
1312935.9633421176,-107245.57,-80417.445,-46593.59,-28842.773,-5881.633,-34333.7,-55228.844,1149.0886
1312935.9673421122,-107244.836,-80418.375,-46591.88,-28843.182,-5883.545,-34330.28,-55233.645,1139.2416
1312935.9713421066,-107248.7,-80422.2,-46593.465,-28844.97,-5885.4575,-34330.363,-55235.56,1133.667
1312935.9753421012,-107250.94,-80419.516,-46596.64,-28843.955,-5882.8535,-34335.367,-55229.13,1143.6361
1312935.9793420956,-107242.92,-80410.85,-46598.676,-28840.984,-5879.5166,-34337.65,-55224.61,1150.5941
1312935.9833420902,-107241.3,-80410.65,-46594.32,-28840.088,-5881.633,-34334.066,-55224.652,1148.2748
1312935.9873420845,-107254.6,-80423.664,-46593.305,-28844.158,-5891.195,-34328.9,-55223.676,1151.8148
1312935.9913420791,-107266.69,-80429.94,-46595.83,-28847.412,-5892.456,-34329.305,-55220.99,1151.6521
1312935.9953420737,-107257.77,-80412.766,-46597.7,-28844.97,-5882.9756,-34335.734,-55218.67,1154.6224
1312935.999342068,-107243.49,-80404.016,-46594.81,-28843.262,-5879.3945,-34339.152,-55215.21,1156.9418
1312936.0033420627,-107241.375,-80401.77,-46592.043,-28844.035,-5882.202,-34332.6,-55209.395,1166.7074
1312936.007342057,-107245.32,-80405.44,-46592.45,-28846.762,-5883.2197,-34326.457,-55205.324,1170.2068
1312936.0113420517,-107249.39,-80413.13,-46594.973,-28849.121,-5885.254,-34325.4,-55202.637,1170.4509
1312936.015342046,-107243.984,-80404.55,-46596.76,-28848.023,-5882.8125,-34330.08,-55200.93,1173.706
1312936.0193420406,-107239.016,-80401.29,-46593.71,-28844.443,-5879.9644,-34332.156,-55197.55,1177.2054
1312936.023342035,-107240.73,-80404.664,-46591.473,-28844.482,-5882.121,-34326.785,-55194.99,1173.2178
1312936.0273420296,-107245.32,-80403.69,-46590.66,-28845.908,-5884.969,-34320.355,-55197.062,1166.748
1312936.031342024,-107249.64,-80407.15,-46591.066,-28847.941,-5886.1084,-34320.844,-55197.797,1168.7826
1312936.0353420186,-107253.83,-80408.37,-46593.508,-28848.105,-5883.5044,-34326.336,-55193.727,1177.531
1312936.039342013,-107250.98,-80403.0,-46593.547,-28846.396,-5877.116,-34329.1,-55190.88,1180.8269
1312936.0433420076,-107242.6,-80397.46,-46588.79,-28846.559,-5875.5293,-34323.16,-55189.58,1181.0303
1312936.0473420022,-107237.1,-80398.89,-46586.184,-28848.35,-5878.3774,-34316.652,-55192.1,1174.642
1312936.0513419965,-107238.125,-80401.77,-46586.184,-28850.098,-5880.819,-34316.285,-55194.582,1167.8467
1312936.0553419911,-107241.13,-80399.46,-46589.355,-28848.797,-5879.3945,-34320.883,-55195.152,1164.7949
1312936.0593419855,-107237.96,-80394.37,-46590.902,-28846.355,-5874.349,-34326.58,-55195.273,1166.5447
1312936.06334198,-107237.23,-80394.66,-46586.957,-28847.412,-5874.7153,-34324.547,-55198.652,1160.6039
1312936.0673419745,-107246.09,-80400.84,-46585.29,-28850.059,-5879.3945,-34317.953,-55197.39,1158.1625
1312936.071341969,-107249.35,-80404.91,-46586.875,-28851.4,-5883.0566,-34318.035,-55200.36,1155.5583
1312936.0753419634,-107254.48,-80406.945,-46591.637,-28850.953,-5881.2256,-34325.523,-55205.363,1149.4548
1312936.079341958,-107254.48,-80404.34,-46592.652,-28848.227,-5878.9473,-34330.28,-55204.633,1153.5238
1312936.0833419524,-107250.45,-80405.766,-46588.34,-28847.25,-5879.354,-34325.24,-55204.918,1154.7445
1312936.087341947,-107247.6,-80409.99,-46586.348,-28849.162,-5883.545,-34320.027,-55206.26,1151.2451
1312936.0913419416,-107248.984,-80411.83,-46589.113,-28851.97,-5887.573,-34320.8,-55206.625,1153.117
1312936.095341936,-107252.445,-80410.81,-46592.41,-28852.092,-5885.4575,-34327.027,-55205.08,1160.4818
1312936.0993419306,-107253.34,-80406.336,-46591.066,-28849.854,-5882.6904,-34330.61,-55204.1,1161.7839
1312936.103341925,-107248.58,-80398.234,-46587.85,-28848.553,-5880.7373,-34324.586,-55199.14,1166.2191
1312936.1073419196,-107250.53,-80401.9,-46586.996,-28851.36,-5883.586,-34318.766,-55195.07,1168.9861
1312936.111341914,-107253.18,-80403.2,-46587.527,-28853.232,-5884.7656,-34319.336,-55191.977,1173.055
1312936.1153419085,-107253.625,-80399.01,-46591.92,-28854.412,-5880.9814,-34327.273,-55192.06,1171.0205
1312936.119341903,-107246.71,-80395.34,-46591.84,-28852.012,-5878.988,-34329.387,-55189.78,1170.573
1312936.1233418975,-107248.25,-80398.4,-46590.332,-28851.768,-5880.046,-34325.32,-55189.863,1173.3806
1312936.1273418919,-107255.414,-80401.37,-46588.707,-28855.592,-5883.0977,-34321.13,-55192.793,1167.6433
1312936.1313418865,-107257.41,-80399.87,-46589.234,-28856.242,-5886.19,-34320.72,-55188.56,1171.1019
1312936.1353418808,-107268.6,-80405.88,-46593.996,-28857.3,-5883.8706,-34327.35,-55186.242,1171.7937
1312936.1393418754,-107261.4,-80394.9,-46595.703,-28854.453,-5880.168,-34329.996,-55186.402,1177.3682
1312936.14334187,-107249.76,-80380.91,-46592.082,-28851.97,-5876.5464,-34326.54,-55188.477,1175.0488
1312936.1473418644,-107239.83,-80370.2,-46587.973,-28851.727,-5875.5293,-34322.55,-55192.02,1168.5385
1312936.151341859,-107241.664,-80371.42,-46587.812,-28851.97,-5876.343,-34323.73,-55193.523,1162.5164
1312936.1553418534,-107228.234,-80350.55,-46587.605,-28849.326,-5869.914,-34334.11,-55198.203,1154.0935
1312936.159341848,-107204.516,-80324.75,-46585.41,-28845.256,-5861.654,-34341.715,-55203.9,1150.2279
1312936.1633418424,-107179.81,-80299.32,-46578.047,-28839.885,-5859.8228,-34340.17,-55210.53,1141.3574
1312936.167341837,-107163.58,-80281.414,-46572.062,-28837.566,-5856.2827,-34337.566,-55217.043,1128.825
1312936.1713418313,-107146.77,-80258.625,-46568.77,-28834.393,-5853.0273,-34340.09,-55220.785,1124.5117
1312936.175341826,-107114.46,-80225.016,-46564.94,-28829.184,-5845.0117,-34349.45,-55225.586,1118.2861
1312936.1793418203,-107076.945,-80189.984,-46559.53,-28823.121,-5835.6123,-34356.406,-55229.37,1112.3047
1312936.183341815,-107054.53,-80174.44,-46557.332,-28820.354,-5833.293,-34354.535,-55232.586,1108.7646
1312936.1873418093,-107047.77,-80169.72,-46559.41,-28823.162,-5836.548,-34350.87,-55231.773,1113.2
1312936.1913418039,-107036.99,-80160.85,-46550.66,-28822.754,-5832.8857,-34353.477,-55232.465,1111.7351
1312936.1953417985,-107033.25,-80146.734,-46551.23,-28819.703,-5825.155,-34363.934,-55238.406,1098.1039
1312936.1993417928,-107022.34,-80141.08,-46556.074,-28816.326,-5821.086,-34367.15,-55235.027,1105.0212
1312936.2033417874,-107023.484,-80144.45,-46559.285,-28818.197,-5820.0684,-34361.53,-55229.004,1115.4379
1312936.2073417818,-107036.99,-80157.76,-46562.055,-28822.307,-5824.829,-34355.348,-55226.035,1114.7461
1312936.2113417764,-107050.74,-80173.875,-46559.33,-28824.83,-5833.537,-34356.16,-55225.547,1115.2344
1312936.2153417708,-107061.69,-80184.164,-46564.09,-28825.277,-5844.157,-34361.33,-55224.285,1119.1
1312936.2193417654,-107068.89,-80191.61,-46563.19,-28823.895,-5832.479,-34361.86,-55218.875,1126.6277
1312936.2233417598,-107084.234,-80202.64,-46561.89,-28825.807,-5829.712,-34356.12,-55218.387,1128.5808
1312936.2273417544,-107104.17,-80220.625,-46556.234,-28831.137,-5840.088,-34351.688,-55219.89,1125.3662
1312936.2313417487,-107120.04,-80232.38,-46561.035,-28831.828,-5847.3716,-34352.457,-55218.71,1126.0173
1312936.2353417433,-107130.984,-80235.48,-46571.453,-28832.684,-5847.7783,-34356.977,-55213.79,1134.1553
1312936.2393417377,-107134.56,-80236.86,-46578.207,-28835.043,-5847.168,-34360.8,-55209.758,1143.4734
1312936.2433417323,-107137.086,-80240.89,-46573.324,-28834.107,-5844.3604,-34354.574,-55206.055,1146.3217
1312936.247341727,-107147.1,-80250.94,-46572.145,-28837.525,-5847.4937,-34348.27,-55205.324,1139.4451
1312936.2513417213,-107155.52,-80264.734,-46574.832,-28840.7,-5851.766,-34348.836,-55203.207,1143.2292
1312936.2553417159,-107162.44,-80271.32,-46577.76,-28839.885,-5850.5454,-34353.965,-55200.727,1152.9949
1312936.2593417102,-107166.836,-80276.53,-46576.01,-28838.42,-5848.674,-34355.715,-55198.12,1158.488
1312936.2633417048,-107179.61,-80286.625,-46575.44,-28839.479,-5852.173,-34350.953,-55196.37,1157.5521
1312936.2673416992,-107196.45,-80297.08,-46577.76,-28841.635,-5855.9165,-34344.566,-55193.973,1156.9824
1312936.2713416938,-107204.67,-80306.27,-46580.08,-28842.53,-5858.236,-34346.52,-55194.38,1161.3363
1312936.2753416882,-107206.99,-80310.914,-46582.97,-28842.041,-5857.91,-34354.047,-55194.99,1164.9578
1312936.2793416828,-107208.055,-80312.09,-46580.65,-28839.682,-5856.4453,-34358.562,-55197.55,1155.8431
1312936.2833416772,-107210.86,-80315.96,-46576.785,-28839.885,-5858.6426,-34353.477,-55200.44,1151.4893
1312936.2873416718,-107212.94,-80325.28,-46576.906,-28842.57,-5865.7227,-34348.105,-55199.953,1152.3845
1312936.2913416664,-107217.25,-80333.3,-46578.613,-28843.588,-5867.4727,-34348.145,-55197.797,1156.5756
1312936.2953416607,-107225.305,-80333.82,-46583.293,-28844.076,-5863.485,-34354.617,-55196.496,1155.3549
1312936.2993416553,-107222.45,-80330.37,-46582.316,-28842.041,-5860.2295,-34357.26,-55193.117,1159.3832
1312936.3033416497,-107229.375,-80335.25,-46580.895,-28843.262,-5863.9326,-34352.05,-55192.87,1162.9232
1312936.3073416443,-107234.87,-80348.88,-46579.227,-28846.396,-5871.826,-34347.617,-55194.5,1156.8604
1312936.3113416387,-107234.54,-80352.26,-46579.1,-28846.518,-5873.169,-34347.94,-55193.28,1156.7383
1312936.3153416333,-107234.625,-80351.69,-46581.543,-28845.703,-5868.6523,-34353.273,-55190.594,1165.8936
1312936.3193416276,-107237.59,-80349.57,-46579.875,-28844.443,-5867.2285,-34355.67,-55188.195,1165.8936
1312936.3233416223,-107233.12,-80351.04,-46575.562,-28844.361,-5869.426,-34348.227,-55186.363,1168.864
1312936.3273416166,-107234.87,-80358.16,-46575.766,-28848.756,-5874.797,-34342.49,-55185.59,1170.8984
1312936.3313416112,-107243.82,-80363.57,-46580.69,-28852.58,-5876.3022,-34341.92,-55181.36,1175.7812
1312936.3353416056,-107245.24,-80363.33,-46585.938,-28851.97,-5874.878,-34347.168,-55177.453,1181.8035
1312936.3393416002,-107243.82,-80360.19,-46585.53,-28849.814,-5873.6167,-34350.87,-55174.684,1185.4656
1312936.3433415948,-107246.95,-80364.305,-46584.72,-28849.65,-5876.587,-34346.883,-55172.527,1189.9414
1312936.3473415892,-107259.32,-80376.02,-46584.23,-28852.54,-5881.2666,-34342.203,-55172.16,1189.8193
1312936.3513415838,-107267.91,-80379.4,-46585.652,-28855.307,-5885.01,-34343.344,-55174.44,1185.3435
1312936.3553415781,-107271.445,-80376.75,-46587.28,-28854.371,-5880.29,-34349.57,-55172.895,1190.1449
1312936.3593415727,-107270.71,-80373.66,-46585.816,-28848.959,-5873.454,-34351.44,-55170.13,1195.0684
1312936.363341567,-107270.35,-80375.33,-46584.434,-28847.494,-5872.2334,-34347.82,-55171.145,1188.2732
1312936.3673415617,-107269.53,-80381.35,-46585.33,-28851.197,-5877.401,-34343.71,-55173.79,1184.3262
1312936.371341556,-107267.336,-80384.6,-46588.176,-28854.248,-5880.29,-34343.832,-55170.86,1188.0697
1312936.3753415507,-107267.54,-80381.39,-46589.113,-28853.191,-5878.011,-34348.836,-55165.45,1195.7195
1312936.379341545,-107263.266,-80377.24,-46585.652,-28847.9,-5870.8906,-34351.523,-55162.723,1203.5726
1312936.3833415397,-107265.42,-80378.26,-46581.258,-28847.535,-5871.257,-34347.21,-55161.785,1206.2582
1312936.387341534,-107266.6,-80381.67,-46577.56,-28849.814,-5873.861,-34342.613,-55165.652,1197.6318
1312936.3913415286,-107267.13,-80384.6,-46578.656,-28851.562,-5874.1865,-34347.086,-55171.387,1191.5691
1312936.3953415232,-107267.22,-80383.18,-46582.684,-28851.562,-5871.338,-34354.9,-55174.277,1185.8724
1312936.3993415176,-107269.086,-80383.42,-46583.58,-28849.447,-5868.449,-34356.57,-55170.82,1190.1449
1312936.4033415122,-107267.13,-80387.945,-46581.992,-28850.547,-5871.4194,-34352.945,-55168.254,1192.098
1312936.4073415066,-107267.016,-80390.016,-46580.406,-28851.645,-5875.5293,-34347.496,-55166.87,1192.5049
1312936.4113415012,-107273.28,-80391.28,-46582.97,-28854.004,-5876.831,-34348.96,-55168.336,1193.6443
1312936.4153414955,-107272.18,-80387.414,-46584.883,-28851.727,-5872.3555,-34357.06,-55172.203,1183.7158
1312936.4193414901,-107268.15,-80383.95,-46587.242,-28848.227,-5868.327,-34359.78,-55172.69,1183.7158
1312936.4233414845,-107268.234,-80387.86,-46586.754,-28849.041,-5869.751,-34354.13,-55170.74,1184.7332
1312936.427341479,-107275.68,-80398.44,-46585.938,-28853.232,-5876.0176,-34352.62,-55174.4,1177.7344
1312936.4313414735,-107280.03,-80401.734,-46588.42,-28854.004,-5878.296,-34355.51,-55174.805,1177.3682
1312936.435341468,-107277.914,-80398.03,-46589.887,-28852.58,-5876.3022,-34361.613,-55174.6,1179.5248
1312936.4393414625,-107271.04,-80394.53,-46587.16,-28849.041,-5873.9014,-34363.484,-55171.266,1183.5125
1312936.443341457,-107272.26,-80396.04,-46583.21,-28847.941,-5877.1567,-34359.5,-55169.844,1182.5359
1312936.4473414517,-107277.19,-80399.375,-46582.723,-28850.383,-5883.423,-34353.516,-55169.883,1180.7455
1312936.451341446,-107283.0,-80401.49,-46583.945,-28851.604,-5884.847,-34354.37,-55166.14,1180.3386
1312936.4553414406,-107282.43,-80396.53,-46585.86,-28849.773,-5882.0396,-34361.29,-55165.164,1181.8035
1312936.459341435,-107278.57,-80393.19,-46583.945,-28846.885,-5880.0864,-34362.47,-55158.816,1192.9932
1312936.4633414296,-107275.76,-80394.695,-46580.324,-28846.03,-5879.1504,-34356.57,-55155.07,1198.6898
1312936.467341424,-107280.195,-80402.266,-46578.94,-28849.854,-5884.7656,-34354.047,-55157.066,1196.5332
1312936.4713414186,-107296.59,-80412.72,-46580.977,-28852.906,-5887.899,-34354.574,-55153.85,1201.0092
1312936.475341413,-107295.984,-80401.98,-46581.87,-28849.162,-5879.476,-34361.613,-55155.723,1197.8353
1312936.4793414075,-107278.61,-80383.586,-46581.055,-28842.45,-5869.67,-34367.066,-55162.477,1189.9008
1312936.483341402,-107275.59,-80385.17,-46582.113,-28844.28,-5871.6636,-34364.91,-55164.797,1187.8256
1312936.4873413965,-107278.77,-80392.055,-46581.707,-28846.07,-5875.8955,-34359.215,-55165.57,1187.1338
1312936.4913413909,-107282.23,-80393.516,-46583.17,-28847.576,-5874.4307,-34360.027,-55165.04,1184.2041
1312936.4953413855,-107285.57,-80394.25,-46588.094,-28847.412,-5870.443,-34368.043,-55163.617,1185.2621
1312936.49934138,-107277.43,-80389.24,-46586.348,-28844.32,-5865.8447,-34370.77,-55161.746,1190.3076
1312936.5033413745,-107278.52,-80386.516,-46582.44,-28844.85,-5867.798,-34364.42,-55159.547,1199.3816
1312936.507341369,-107286.79,-80392.58,-46582.52,-28847.941,-5871.623,-34359.457,-55158.773,1205.4851
1312936.5113413634,-107290.086,-80396.164,-46585.9,-28848.633,-5872.274,-34360.8,-55158.69,1206.9906
1312936.515341358,-107285.93,-80392.945,-46589.4,-28845.623,-5866.4146,-34369.914,-55161.746,1199.6257
1312936.5193413524,-107279.625,-80387.414,-46587.242,-28843.873,-5860.759,-34373.332,-55162.07,1201.3754
1312936.523341347,-107281.87,-80386.84,-46585.613,-28844.28,-5860.962,-34368.082,-55160.28,1197.1029
1312936.5273413414,-107284.914,-80389.04,-46585.53,-28846.111,-5864.543,-34361.816,-55157.188,1193.8477
1312936.531341336,-107284.02,-80388.72,-46586.996,-28847.047,-5865.5195,-34362.145,-55154.258,1193.4001
1312936.5353413303,-107283.53,-80387.945,-46587.2,-28845.459,-5864.0137,-34367.88,-55153.28,1194.1326
1312936.539341325,-107277.914,-80386.195,-46586.508,-28844.158,-5862.671,-34371.38,-55153.2,1197.3877
1312936.5433413195,-107280.56,-80390.305,-46583.457,-28845.256,-5866.4146,-34368.246,-55152.14,1196.696
1312936.547341314,-107287.4,-80394.66,-46582.562,-28846.396,-5869.2627,-34364.664,-55154.38,1195.8008
1312936.5513413085,-107287.64,-80395.14,-46585.125,-28847.494,-5870.565,-34364.95,-55152.875,1199.7885
1312936.5553413029,-107286.055,-80392.336,-46585.125,-28846.6,-5866.13,-34368.855,-55148.36,1206.2175
1312936.5593412975,-107282.88,-80390.26,-46582.887,-28844.117,-5865.438,-34371.22,-55147.707,1205.9734
1312936.5633412919,-107284.67,-80395.19,-46578.086,-28843.994,-5867.2285,-34368.29,-55147.18,1201.9451
1312936.5673412865,-107288.82,-80402.43,-46578.816,-28847.82,-5874.105,-34364.746,-55149.375,1194.2546
1312936.5713412808,-107294.68,-80403.16,-46581.668,-28849.041,-5875.9766,-34366.742,-55150.39,1194.0105
1312936.5753412754,-107296.02,-80402.63,-46584.11,-28846.885,-5875.0,-34375.45,-55150.8,1193.9697
1312936.5793412698,-107293.336,-80400.555,-46583.7,-28845.053,-5871.9893,-34380.37,-55152.754,1195.2719
1312936.5833412644,-107291.914,-80403.65,-46579.184,-28844.361,-5874.919,-34375.652,-55152.832,1199.0154
1312936.5873412588,-107294.27,-80409.63,-46578.9,-28845.42,-5878.296,-34369.305,-55150.312,1204.8748
1312936.5913412534,-107296.72,-80408.41,-46582.195,-28845.664,-5879.11,-34370.973,-55149.984,1203.3285
1312936.595341248,-107295.984,-80405.11,-46584.473,-28843.832,-5874.2676,-34379.355,-55151.164,1199.9512
1312936.5993412423,-107291.1,-80403.81,-46583.863,-28841.92,-5870.6465,-34383.992,-55152.875,1204.3865
1312936.603341237,-107289.266,-80403.61,-46582.277,-28839.682,-5868.5303,-34378.867,-55153.973,1197.1843
1312936.6073412313,-107295.66,-80407.27,-46583.945,-28841.758,-5870.443,-34373.008,-55153.32,1194.0105
1312936.611341226,-107300.375,-80411.91,-46587.324,-28844.238,-5874.227,-34376.305,-55151.41,1197.5505
1312936.6153412203,-107295.984,-80408.29,-46586.754,-28841.797,-5870.6055,-34381.473,-55148.805,1197.0215
1312936.619341215,-107287.97,-80400.44,-46585.207,-28838.055,-5865.7227,-34385.867,-55148.723,1193.0746
1312936.6233412093,-107285.93,-80400.64,-46581.137,-28837.078,-5866.333,-34381.754,-55147.543,1196.0449
1312936.6273412039,-107292.28,-80403.484,-46579.47,-28839.844,-5869.1816,-34378.418,-55148.277,1195.3125
1312936.6313411982,-107298.55,-80407.39,-46581.668,-28842.002,-5870.687,-34380.7,-55148.684,1190.1042
1312936.6353411928,-107298.016,-80403.37,-46584.516,-28839.234,-5868.286,-34387.535,-55146.363,1189.209
1312936.6393411872,-107297.49,-80401.9,-46583.54,-28837.89,-5865.967,-34390.543,-55144.9,1192.0574
1312936.6433411818,-107295.695,-80403.65,-46579.1,-28838.014,-5866.8623,-34384.93,-55144.29,1192.7084
1312936.6473411764,-107294.6,-80407.11,-46576.215,-28840.21,-5871.867,-34379.11,-55144.816,1184.7332
1312936.6513411708,-107299.445,-80409.75,-46579.227,-28842.693,-5875.3257,-34380.37,-55142.05,1189.0869
1312936.6553411654,-107295.695,-80403.484,-46579.43,-28841.146,-5871.623,-34387.207,-55140.586,1191.04
1312936.6593411597,-107283.125,-80391.195,-46574.14,-28837.443,-5866.455,-34389.85,-55139.527,1192.0166
1312936.6633411543,-107283.25,-80395.59,-46571.94,-28839.111,-5868.286,-34383.344,-55134.24,1200.643
1312936.6673411487,-107289.92,-80405.36,-46573.895,-28842.814,-5872.4775,-34377.77,-55131.105,1201.9451
1312936.6713411433,-107290.695,-80399.46,-46576.01,-28842.855,-5870.8496,-34380.047,-55132.812,1196.6146
1312936.6753411377,-107289.06,-80392.26,-46577.027,-28839.682,-5867.717,-34385.99,-55133.63,1193.3187
1312936.6793411323,-107286.55,-80390.1,-46576.62,-28838.135,-5867.025,-34388.31,-55132.324,1199.056
1312936.6833411267,-107283.37,-80390.586,-46572.88,-28839.111,-5869.7104,-34384.24,-55132.773,1197.7539
1312936.6873411213,-107287.48,-80395.266,-46571.21,-28840.373,-5873.739,-34377.2,-55134.81,1191.7318
1312936.6913411156,-107290.94,-80402.1,-46574.14,-28842.326,-5877.401,-34379.312,-55134.688,1190.7146
1312936.6953411102,-107290.49,-80405.11,-46577.883,-28841.96,-5876.628,-34386.027,-55131.555,1192.5457
1312936.6993411048,-107297.0,-80401.57,-46579.348,-28841.105,-5871.0127,-34387.37,-55130.902,1197.5912
1312936.7033410992,-107291.63,-80387.984,-46575.684,-28839.234,-5864.1357,-34382.977,-55134.973,1194.1326
1312936.7073410938,-107279.99,-80379.766,-46574.06,-28840.496,-5863.607,-34380.86,-55138.105,1185.5062
1312936.7113410882,-107287.84,-80387.05,-46578.37,-28842.773,-5866.5366,-34379.312,-55131.758,1195.4346
1312936.7153410828,-107295.695,-80392.5,-46581.87,-28841.514,-5866.6587,-34382.812,-55127.566,1198.8525
1312936.7193410771,-107283.37,-80376.47,-46577.76,-28838.95,-5861.003,-34384.81,-55126.63,1191.5283
1312936.7233410717,-107282.76,-80372.84,-46574.832,-28839.6,-5860.2295,-34378.543,-55124.188,1196.167
1312936.727341066,-107288.29,-80383.67,-46573.895,-28842.652,-5866.8623,-34371.38,-55123.902,1196.6146
1312936.7313410607,-107287.234,-80383.266,-46573.773,-28841.92,-5866.8623,-34373.902,-55124.15,1188.9242
1312936.735341055,-107294.4,-80382.164,-46576.62,-28841.105,-5862.5083,-34378.95,-55120.402,1197.9574
1312936.7393410497,-107296.35,-80379.195,-46576.62,-28838.217,-5858.5615,-34377.035,-55114.668,1205.2816
1312936.7433410443,-107292.81,-80381.43,-46575.766,-28839.764,-5861.1655,-34373.008,-55114.016,1204.305
1312936.7473410387,-107292.93,-80386.805,-46573.527,-28843.344,-5867.147,-34371.094,-55117.312,1196.4111
1312936.7513410333,-107294.6,-80386.234,-46573.855,-28843.467,-5867.5947,-34372.234,-55117.434,1196.2078
1312936.7553410276,-107289.39,-80381.02,-46576.094,-28840.902,-5863.607,-34377.08,-55115.44,1200.5209
1312936.7593410222,-107285.12,-80377.766,-46575.074,-28838.055,-5859.253,-34379.438,-55113.28,1207.1127
1312936.7633410166,-107284.71,-80377.04,-46572.348,-28838.096,-5859.945,-34375.53,-55113.61,1206.6244
1312936.7673410112,-107287.4,-80385.055,-46569.867,-28840.74,-5865.316,-34370.934,-55115.723,1198.2422
1312936.7713410056,-107291.016,-80387.086,-46572.51,-28842.408,-5865.438,-34373.863,-55117.555,1198.0795
1312936.7753410002,-107289.31,-80380.82,-46575.117,-28840.17,-5860.962,-34382.773,-55119.793,1194.6208
1312936.7793409945,-107282.19,-80377.56,-46570.19,-28836.02,-5857.2188,-34385.742,-55120.117,1199.4629
1312936.7833409891,-107280.97,-80381.516,-46565.676,-28835.328,-5857.91,-34377.81,-55116.133,1207.0312
1312936.7873409835,-107286.664,-80386.805,-46565.88,-28838.014,-5860.1484,-34373.453,-55119.184,1196.4111
1312936.7913409781,-107291.38,-80385.664,-46571.004,-28839.355,-5858.9683,-34375.285,-55119.71,1198.4457
1312936.7953409727,-107288.05,-80375.81,-46571.617,-28836.834,-5855.754,-34384.24,-55121.42,1199.5443
1312936.799340967,-107281.45,-80369.51,-46568.688,-28834.758,-5852.7427,-34386.965,-55124.023,1196.9402
1312936.8033409617,-107279.3,-80370.445,-46566.855,-28837.078,-5852.9463,-34379.68,-55120.402,1204.7119
1312936.807340956,-107280.766,-80375.125,-46565.39,-28839.193,-5856.4863,-34372.56,-55115.805,1208.5369
1312936.8113409507,-107280.36,-80374.31,-46567.223,-28838.135,-5856.2827,-34374.15,-55112.348,1210.083
1312936.815340945,-107273.766,-80365.52,-46567.06,-28836.387,-5850.3013,-34381.145,-55112.184,1210.3679
1312936.8193409396,-107274.414,-80363.41,-46564.984,-28833.334,-5847.6562,-34384.32,-55114.22,1205.2002
1312936.823340934,-107278.61,-80367.68,-46563.113,-28834.19,-5849.5283,-34377.156,-55110.84,1212.2803
1312936.8273409286,-107284.23,-80377.24,-46564.21,-28839.031,-5856.8525,-34369.14,-55105.188,1222.7377
1312936.831340923,-107281.82,-80380.375,-46565.473,-28840.455,-5859.375,-34370.2,-55099.816,1225.5046
1312936.8353409176,-107280.52,-80376.71,-46564.78,-28839.275,-5855.754,-34375.57,-55096.723,1224.406
1312936.839340912,-107281.25,-80371.625,-46564.78,-28836.63,-5851.4404,-34377.93,-55092.734,1227.4578
1312936.8433409065,-107279.71,-80370.57,-46562.582,-28836.06,-5851.888,-34371.46,-55092.734,1226.2777
1312936.8473409011,-107282.59,-80374.02,-46561.523,-28838.543,-5854.9805,-34369.793,-55098.473,1216.9597
1312936.8513408955,-107288.414,-80376.836,-46563.113,-28840.902,-5854.411,-34372.684,-55098.797,1219.1976
1312936.8553408901,-107288.45,-80377.28,-46565.918,-28841.229,-5852.702,-34380.535,-55098.43,1221.639
1312936.8593408845,-107283.0,-80372.03,-46564.453,-28838.502,-5850.993,-34382.164,-55095.055,1224.2839
1312936.863340879,-107284.266,-80374.23,-46561.117,-28837.729,-5852.295,-34375.367,-55091.84,1227.946
1312936.8673408735,-107292.97,-80381.63,-46560.957,-28840.7,-5855.306,-34370.77,-55093.06,1222.0867
1312936.871340868,-107292.28,-80378.87,-46559.613,-28838.705,-5854.248,-34373.94,-55096.477,1213.2976
1312936.8753408624,-107288.91,-80374.43,-46561.035,-28836.426,-5850.7896,-34382.082,-55097.21,1209.6761
1312936.879340857,-107284.59,-80373.25,-46559.938,-28834.717,-5849.04,-34384.81,-55095.703,1212.8093
1312936.8833408514,-107284.836,-80375.33,-46556.64,-28835.166,-5851.1963,-34384.44,-55100.465,1200.3988
1312936.887340846,-107287.93,-80380.414,-46555.38,-28836.346,-5854.8994,-34381.473,-55100.426,1201.2126
1312936.8913408404,-107289.11,-80381.15,-46555.586,-28838.055,-5857.544,-34383.992,-55097.7,1201.9451
1312936.895340835,-107289.31,-80378.09,-46558.434,-28837.12,-5855.2246,-34391.074,-55095.34,1206.0955
1312936.8993408296,-107288.17,-80376.836,-46557.902,-28833.945,-5853.2715,-34391.848,-55092.816,1209.5134
1312936.903340824,-107288.336,-80377.85,-46557.293,-28833.172,-5852.9463,-34387.29,-55093.832,1202.3519
1312936.9073408186,-107289.76,-80380.25,-46557.457,-28835.898,-5855.5503,-34385.785,-55095.258,1196.0857
1312936.911340813,-107293.3,-80380.62,-46557.78,-28836.143,-5856.9746,-34386.965,-55089.355,1197.7539
1312936.9153408075,-107293.91,-80376.95,-46559.9,-28833.945,-5854.126,-34391.97,-55084.72,1207.1533
1312936.919340802,-107286.5,-80372.68,-46556.074,-28832.357,-5851.1963,-34394.41,-55084.68,1205.5258
1312936.9233407965,-107285.32,-80375.9,-46553.633,-28833.904,-5855.428,-34388.47,-55080.527,1210.7748
1312936.9273407909,-107288.5,-80379.6,-46552.168,-28835.328,-5857.829,-34382.324,-55075.562,1214.7217
1312936.9313407855,-107297.2,-80373.91,-46556.074,-28834.922,-5854.6553,-34383.832,-55075.035,1209.2693
1312936.9353407798,-107298.42,-80369.71,-46559.613,-28834.922,-5848.796,-34391.684,-55074.016,1210.3679
1312936.9393407744,-107295.49,-80368.62,-46558.92,-28834.19,-5846.273,-34394.207,-55072.96,1207.601
1312936.943340769,-107294.4,-80369.51,-46557.293,-28834.555,-5848.0635,-34387.047,-55069.543,1208.8623
1312936.9473407634,-107295.74,-80374.31,-46556.316,-28836.955,-5850.993,-34380.574,-55066.285,1209.0658
1312936.951340758,-107301.6,-80378.055,-46557.7,-28837.402,-5852.539,-34382.0,-55064.008,1211.0596
1312936.9553407524,-107301.27,-80374.19,-46557.05,-28835.734,-5852.3765,-34387.86,-55060.793,1218.3431
1312936.959340747,-107293.664,-80366.7,-46555.504,-28831.748,-5847.738,-34389.406,-55055.707,1227.7832
1312936.9633407413,-107303.43,-80374.72,-46556.277,-28833.252,-5848.1855,-34382.45,-55052.656,1231.8523
1312936.967340736,-107318.77,-80391.93,-46557.863,-28837.81,-5856.3643,-34377.117,-55051.637,1230.4281
1312936.9713407303,-107307.13,-80385.336,-46554.77,-28836.549,-5854.167,-34382.69,-55054.812,1224.8129
1312936.975340725,-107284.8,-80355.8,-46549.848,-28829.63,-5842.855,-34391.36,-55058.516,1227.9867
1312936.9793407193,-107284.18,-80355.47,-46548.504,-28828.045,-5841.1055,-34392.17,-55055.22,1238.5662
1312936.983340714,-107284.59,-80360.4,-46543.867,-28828.37,-5845.5,-34385.336,-55051.68,1240.8855
1312936.9873407083,-107286.13,-80362.43,-46542.277,-28831.625,-5848.47,-34381.754,-55054.04,1233.9275
1312936.9913407029,-107294.68,-80366.78,-46545.82,-28833.334,-5848.4297,-34385.215,-55056.52,1229.0039
1312936.9953406975,-107292.93,-80360.07,-46548.953,-28829.51,-5843.506,-34391.44,-55056.97,1231.8115
1312936.9993406918,-107290.9,-80358.52,-46548.953,-28827.068,-5841.024,-34391.645,-55054.85,1239.9496
1312937.0033406864,-107294.4,-80361.82,-46546.59,-28829.795,-5843.872,-34387.047,-55057.375,1233.5205
1312937.0073406808,-107299.69,-80367.11,-46545.695,-28831.87,-5847.1274,-34381.676,-55057.54,1232.666
1312937.0113406754,-107301.234,-80370.52,-46545.86,-28834.473,-5850.464,-34383.06,-55055.79,1233.4392
1312937.0153406698,-107297.85,-80363.41,-46546.266,-28831.707,-5846.924,-34390.42,-55057.78,1234.4971
1312937.0193406644,-107296.875,-80358.56,-46546.918,-28828.492,-5842.733,-34394.41,-55061.117,1228.9633
1312937.0233406588,-107295.21,-80360.4,-46543.824,-28827.475,-5842.9365,-34388.348,-55060.71,1227.417
1312937.0273406534,-107296.59,-80364.87,-46543.785,-28828.857,-5846.5986,-34383.79,-55060.387,1230.9164
1312937.0313406477,-107299.89,-80365.32,-46545.004,-28829.428,-5848.3887,-34385.38,-55058.027,1237.915
1312937.0353406423,-107296.31,-80360.07,-46545.125,-28825.848,-5846.029,-34391.93,-55058.88,1233.7646
1312937.0393406367,-107291.586,-80355.266,-46543.336,-28824.79,-5841.6343,-34392.906,-55062.42,1231.6895
1312937.0433406313,-107291.34,-80352.74,-46540.812,-28824.748,-5839.5996,-34388.875,-55065.066,1224.0804
1312937.047340626,-107294.766,-80358.97,-46539.594,-28825.156,-5843.1396,-34384.523,-55066.734,1219.4011
1312937.0513406203,-107299.484,-80362.02,-46540.61,-28826.986,-5845.9473,-34387.29,-55067.14,1223.5922
1312937.0553406149,-107299.65,-80358.56,-46542.93,-28825.645,-5842.6924,-34394.29,-55066.613,1224.0398
1312937.0593406092,-107298.55,-80352.664,-46541.63,-28822.307,-5838.257,-34395.223,-55063.76,1233.8867
1312937.0633406038,-107298.875,-80353.195,-46539.39,-28822.227,-5838.7046,-34389.406,-55063.152,1239.624
1312937.0673405982,-107303.35,-80359.78,-46539.062,-28824.342,-5841.919,-34385.05,-55065.35,1236.1654
1312937.0713405928,-107303.63,-80361.375,-46540.12,-28824.951,-5843.5874,-34387.453,-55066.082,1233.4799
1312937.0753405872,-107295.945,-80357.305,-46541.016,-28821.982,-5840.9424,-34394.41,-55063.316,1239.6648
1312937.0793405818,-107284.875,-80349.734,-46534.508,-28818.36,-5836.955,-34395.02,-55064.66,1237.8337
1312937.0833405762,-107285.65,-80347.336,-46530.273,-28818.604,-5837.158,-34389.61,-55066.57,1234.0902
1312937.0873405708,-107290.53,-80353.48,-46529.46,-28820.72,-5842.855,-34384.156,-55066.285,1236.0027
1312937.0913405651,-107290.734,-80354.49,-46527.832,-28822.918,-5843.384,-34384.766,-55066.367,1237.6709
1312937.0953405597,-107285.73,-80351.4,-46527.754,-28821.412,-5839.2334,-34390.016,-55063.438,1240.6006
1312937.0993405543,-107280.36,-80347.17,-46527.547,-28817.832,-5835.205,-34393.516,-55062.543,1242.5945
1312937.1033405487,-107281.91,-80346.766,-46523.887,-28817.994,-5836.1816,-34387.695,-55062.543,1243.042
1312937.1073405433,-107289.516,-80351.61,-46525.35,-28821.006,-5838.5825,-34382.855,-55064.984,1236.6537
1312937.1113405377,-107297.94,-80351.69,-46530.887,-28822.307,-5838.7046,-34387.168,-55065.918,1233.6019
1312937.1153405323,-107299.766,-80349.29,-46535.08,-28822.227,-5835.6123,-34392.824,-55062.707,1239.9902
1312937.1193405266,-107293.79,-80345.586,-46532.676,-28820.191,-5832.3164,-34390.75,-55059.246,1248.698
1312937.1233405212,-107291.75,-80352.54,-46529.746,-28820.762,-5835.9375,-34384.81,-55059.652,1244.9545
1312937.1273405156,-107308.35,-80371.55,-46529.95,-28824.707,-5845.378,-34380.047,-55059.9,1241.6992
1312937.1313405102,-107326.336,-80376.14,-46534.06,-28825.645,-5845.459,-34382.895,-55059.33,1243.5303
1312937.1353405046,-107315.19,-80350.18,-46539.266,-28822.998,-5830.77,-34393.72,-55065.39,1235.1888
1312937.1393404992,-107292.73,-80326.46,-46537.965,-28818.115,-5816.203,-34397.83,-55072.105,1230.835
1312937.1433404936,-107296.15,-80333.664,-46536.418,-28819.865,-5817.0166,-34390.625,-55070.03,1234.375
1312937.1473404882,-107305.55,-80347.86,-46536.582,-28822.021,-5824.056,-34385.05,-55070.64,1232.666
1312937.1513404828,-107302.49,-80343.95,-46535.117,-28820.762,-5823.039,-34389.12,-55072.227,1234.0496
1312937.1553404771,-107299.85,-80342.45,-46538.94,-28819.336,-5820.1904,-34397.098,-55073.285,1237.6302
1312937.1593404717,-107303.1,-80344.12,-46539.55,-28817.832,-5820.0684,-34398.234,-55071.902,1241.5771
1312937.163340466,-107312.14,-80349.41,-46537.438,-28818.848,-5825.7246,-34391.277,-55070.965,1246.6228
1312937.1673404607,-107315.92,-80359.46,-46536.094,-28821.86,-5831.9907,-34387.492,-55074.18,1241.5771
1312937.171340455,-107317.8,-80359.54,-46537.723,-28821.697,-5830.078,-34389.812,-55076.457,1231.7709
1312937.1753404497,-107312.55,-80350.305,-46539.676,-28817.912,-5822.9575,-34397.746,-55079.957,1225.8301
1312937.179340444,-107310.71,-80347.49,-46537.56,-28816.611,-5819.7837,-34400.594,-55077.68,1232.2592
1312937.1833404386,-107313.4,-80346.68,-46534.508,-28818.115,-5820.0684,-34395.633,-55080.324,1226.3998
1312937.187340433,-107315.27,-80350.016,-46532.797,-28820.924,-5823.242,-34390.543,-55079.51,1222.8597
1312937.1913404276,-107314.7,-80351.85,-46531.82,-28819.947,-5826.2534,-34391.684,-55076.418,1228.5564
1312937.1953404222,-107312.3,-80352.336,-46532.35,-28818.848,-5828.247,-34398.03,-55075.117,1235.7585
1312937.1993404166,-107313.32,-80353.68,-46532.43,-28818.523,-5826.579,-34398.074,-55069.62,1243.5303
1312937.2033404112,-107318.28,-80357.99,-46532.797,-28818.523,-5827.352,-34391.52,-55066.69,1244.0186
1312937.2073404056,-107319.38,-80361.86,-46531.414,-28819.824,-5829.1426,-34389.406,-55068.605,1233.6833
1312937.2113404002,-107319.625,-80360.27,-46531.008,-28819.744,-5828.247,-34391.727,-55072.105,1223.7142
1312937.2153403945,-107319.79,-80358.03,-46534.344,-28818.238,-5825.2363,-34396.77,-55071.94,1230.306
1312937.2193403891,-107319.42,-80360.03,-46533.285,-28818.156,-5822.998,-34397.83,-55069.258,1241.6586
1312937.2233403835,-107315.68,-80357.26,-46531.332,-28817.506,-5821.086,-34391.766,-55070.844,1237.264
1312937.227340378,-107319.42,-80360.96,-46533.203,-28817.383,-5824.1377,-34387.29,-55072.105,1234.9447
1312937.2313403725,-107322.836,-80364.055,-46534.668,-28817.383,-5823.446,-34390.953,-55072.31,1234.782
1312937.235340367,-107318.32,-80354.86,-46532.797,-28813.926,-5817.912,-34398.234,-55072.188,1236.0027
1312937.2393403614,-107309.21,-80347.58,-46530.195,-28812.705,-5815.4707,-34400.96,-55073.203,1239.4207
1312937.243340356,-107310.23,-80347.17,-46527.71,-28813.477,-5817.627,-34394.98,-55071.008,1243.5303
1312937.2473403506,-107315.43,-80354.05,-46529.625,-28816.57,-5821.086,-34391.6,-55072.023,1236.613
1312937.251340345,-107315.516,-80358.484,-46531.008,-28817.871,-5822.2656,-34392.906,-55067.223,1245.0359
1312937.2553403396,-107317.06,-80354.86,-46531.047,-28815.635,-5818.0747,-34398.6,-55060.793,1255.2084
1312937.259340334,-107317.55,-80352.016,-46529.137,-28814.209,-5814.575,-34398.844,-55059.082,1260.905
1312937.2633403286,-107319.46,-80352.42,-46525.434,-28814.902,-5816.6914,-34390.22,-55058.516,1258.0566
1312937.267340323,-107325.56,-80356.49,-46525.72,-28817.627,-5818.563,-34386.312,-55058.434,1259.725
1312937.2713403176,-107325.484,-80356.41,-46528.688,-28818.197,-5818.441,-34390.26,-55061.32,1261.1898
1312937.275340312,-107324.38,-80353.4,-46532.227,-28815.39,-5813.884,-34398.926,-55062.22,1260.8643
1312937.2793403065,-107320.48,-80351.81,-46528.934,-28811.729,-5811.7676,-34398.766,-55059.98,1262.5732
1312937.283340301,-107319.79,-80356.57,-46522.664,-28813.438,-5815.837,-34392.293,-55061.117,1260.2133
1312937.2873402955,-107326.17,-80365.28,-46522.3,-28817.994,-5822.51,-34389.527,-55064.94,1254.0691
1312937.2913402899,-107327.4,-80361.53,-46524.54,-28817.18,-5821.6147,-34392.78,-55064.82,1251.8718
1312937.2953402845,-107324.75,-80355.516,-46525.555,-28814.82,-5815.593,-34399.09,-55062.785,1251.5869
1312937.299340279,-107321.58,-80348.96,-46523.684,-28813.844,-5811.2793,-34400.188,-55060.02,1254.3945
1312937.3033402734,-107324.016,-80348.555,-46521.28,-28814.129,-5812.785,-34393.23,-55058.434,1258.1381
1312937.307340268,-107324.266,-80353.766,-46522.34,-28816.326,-5816.284,-34388.836,-55061.484,1254.1097
1312937.3113402624,-107321.66,-80353.68,-46522.91,-28816.0,-5816.8135,-34393.555,-55064.58,1243.449
1312937.315340257,-107324.51,-80349.94,-46523.316,-28814.453,-5814.1685,-34401.164,-55066.49,1242.4316
1312937.3193402514,-107320.93,-80344.52,-46519.656,-28811.973,-5812.7036,-34401.98,-55065.555,1242.5945
1312937.323340246,-107320.195,-80346.766,-46515.34,-28812.338,-5816.5283,-34395.145,-55064.984,1243.6523
1312937.3273402404,-107321.086,-80352.336,-46515.3,-28816.244,-5819.7837,-34389.812,-55064.74,1247.2738
1312937.331340235,-107321.45,-80349.33,-46515.953,-28815.553,-5818.197,-34390.34,-55060.184,1251.5463
1312937.3353402293,-107319.3,-80342.164,-46518.434,-28813.762,-5813.4766,-34396.242,-55057.457,1250.6104
1312937.339340224,-107317.02,-80340.414,-46518.555,-28812.541,-5810.9946,-34395.836,-55056.52,1251.2615
1312937.3433402183,-107319.22,-80345.95,-46517.01,-28815.064,-5813.965,-34387.37,-55053.996,1259.074
1312937.347340213,-107327.88,-80357.055,-46517.703,-28820.232,-5819.58,-34382.61,-55054.895,1257.6498
1312937.3513402075,-107328.17,-80361.62,-46516.766,-28820.842,-5823.934,-34384.44,-55055.22,1253.6621
1312937.3553402019,-107306.56,-80344.65,-46510.582,-28815.35,-5818.7666,-34392.17,-55059.45,1245.0765
1312937.3593401965,-107296.06,-80335.29,-46508.71,-28813.762,-5813.7617,-34395.387,-55064.617,1234.6599
1312937.3633401908,-107299.85,-80343.18,-46505.453,-28816.0,-5817.302,-34386.8,-55060.47,1241.6179
1312937.3673401854,-107302.78,-80343.914,-46503.055,-28817.506,-5819.377,-34380.496,-55057.336,1248.8607
1312937.3713401798,-107305.1,-80346.11,-46503.133,-28818.848,-5821.6147,-34382.812,-55056.03,1254.0283
1312937.3753401744,-107296.836,-80342.125,-46502.363,-28817.912,-5817.668,-34389.49,-55056.113,1254.2318
1312937.3793401688,-107290.49,-80335.25,-46500.0,-28814.535,-5812.744,-34388.266,-55056.848,1253.5808
1312937.3833401634,-107293.38,-80337.73,-46497.234,-28815.39,-5813.07,-34380.535,-55056.97,1251.0173
1312937.3873401578,-107292.445,-80339.36,-46493.574,-28818.197,-5817.3423,-34376.793,-55058.188,1252.8484
1312937.3913401524,-107292.12,-80341.48,-46491.414,-28819.865,-5819.255,-34378.01,-55056.36,1253.4587
1312937.395340147,-107286.75,-80336.55,-46492.676,-28816.488,-5814.1685,-34382.855,-55049.887,1262.7767
1312937.3993401413,-107279.586,-80324.79,-46489.707,-28812.623,-5806.1934,-34380.453,-55044.598,1271.4844
1312937.403340136,-107285.28,-80329.43,-46488.324,-28813.273,-5807.9023,-34374.023,-55041.87,1275.6348
1312937.4073401303,-107294.6,-80338.586,-46489.668,-28819.133,-5812.7036,-34370.688,-55044.92,1265.9912
1312937.411340125,-107295.695,-80339.234,-46493.207,-28820.557,-5813.436,-34375.0,-55046.023,1264.5264
1312937.4153401193,-107291.55,-80333.13,-46496.137,-28819.053,-5808.5938,-34381.266,-55046.51,1265.7878
1312937.4193401139,-107289.88,-80330.08,-46494.223,-28817.709,-5803.874,-34379.926,-55047.406,1263.3871
1312937.4233401082,-107290.04,-80332.32,-46492.39,-28819.336,-5806.3965,-34371.91,-55045.13,1264.6892
1312937.4273401028,-107289.555,-80334.48,-46492.312,-28820.68,-5809.001,-34368.45,-55045.617,1265.7471
1312937.4313400972,-107294.805,-80335.53,-46492.555,-28821.453,-5807.617,-34372.844,-55045.94,1265.7471
1312937.4353400918,-107298.42,-80336.47,-46494.59,-28819.541,-5804.118,-34380.574,-55045.617,1267.1306
1312937.4393400862,-107292.04,-80332.6,-46491.375,-28817.871,-5801.2695,-34382.082,-55047.324,1267.1713
1312937.4433400808,-107289.88,-80334.59,-46489.625,-28820.395,-5802.6533,-34373.66,-55044.8,1270.9961
1312937.4473400754,-107297.24,-80345.016,-46490.48,-28824.748,-5808.3496,-34369.996,-55044.11,1271.932
1312937.4513400698,-107301.11,-80347.49,-46494.508,-28827.354,-5809.652,-34374.188,-55044.19,1274.7396
1312937.4553400644,-107299.73,-80339.03,-46496.707,-28824.139,-5804.525,-34381.062,-55043.785,1279.541
1312937.4593400587,-107292.89,-80337.28,-46492.84,-28821.494,-5802.8564,-34381.676,-55043.38,1284.5052
1312937.4633400533,-107287.03,-80341.76,-46486.574,-28823.568,-5807.2104,-34375.246,-55045.535,1272.583
1312937.4673400477,-107293.79,-80343.38,-46487.55,-28825.725,-5810.0996,-34371.258,-55045.207,1270.3857
1312937.4713400423,-107301.516,-80346.44,-46493.164,-28827.598,-5809.652,-34372.64,-55042.766,1274.9431
1312937.4753400367,-107298.55,-80342.45,-46494.55,-28824.707,-5804.3623,-34378.215,-55041.504,1276.001
1312937.4793400313,-107291.22,-80330.37,-46490.438,-28821.25,-5800.212,-34377.81,-55040.938,1276.2045
1312937.4833400256,-107294.56,-80332.89,-46488.73,-28823.406,-5804.199,-34371.625,-55041.18,1276.5707
1312937.4873400202,-107295.695,-80339.805,-46486.125,-28826.092,-5807.5767,-34369.344,-55044.598,1271.4031
1312937.4913400146,-107292.766,-80337.69,-46486.207,-28826.865,-5807.617,-34374.39,-55044.64,1271.932
1312937.4953400092,-107287.6,-80331.586,-46489.098,-28823.812,-5802.165,-34380.13,-55044.395,1274.9431
1312937.4993400038,-107287.44,-80327.516,-46486.98,-28822.51,-5799.0317,-34378.094,-55040.12,1285.726
1312937.5033399982,-107292.28,-80328.86,-46484.01,-28824.383,-5800.4966,-34369.754,-55036.703,1290.2426
1312937.5073399928,-107294.03,-80330.77,-46484.336,-28827.598,-5804.199,-34365.234,-55035.973,1288.3708
1312937.5113399872,-107289.92,-80327.805,-46484.99,-28827.068,-5803.955,-34371.5,-55037.844,1283.9763
1312937.5153399818,-107280.73,-80320.88,-46482.465,-28822.51,-5797.4854,-34378.703,-55037.395,1282.7556
1312937.5193399761,-107274.945,-80317.95,-46480.062,-28820.8,-5795.858,-34380.29,-55036.38,1288.208
1312937.5233399707,-107276.45,-80322.23,-46476.93,-28823.203,-5798.747,-34375.246,-55039.145,1281.9824
1312937.527339965,-107283.45,-80327.64,-46477.336,-28825.562,-5801.473,-34371.258,-55040.367,1281.1279
1312937.5313399597,-107286.055,-80324.79,-46478.76,-28825.236,-5798.747,-34372.4,-55038.086,1285.4818
1312937.535339954,-107283.41,-80320.68,-46479.168,-28823.365,-5795.166,-34376.547,-55036.746,1292.155
1312937.5393399487,-107279.914,-80320.72,-46476.24,-28821.371,-5793.7827,-34376.71,-55034.875,1293.1722
1312937.543339943,-107284.63,-80322.836,-46474.12,-28822.998,-5794.4336,-34370.484,-55035.28,1288.4929
1312937.5473399376,-107281.87,-80320.6,-46473.145,-28824.871,-5794.637,-34368.652,-55039.758,1280.8431
1312937.5513399323,-107275.72,-80315.31,-46475.832,-28824.707,-5791.7075,-34375.855,-55042.562,1276.4893
1312937.5553399266,-107276.125,-80315.31,-46479.777,-28824.545,-5787.964,-34382.49,-55041.87,1280.8838
1312937.5593399212,-107278.94,-80316.086,-46478.72,-28823.08,-5786.54,-34381.145,-55037.234,1289.266
1312937.5633399156,-107279.38,-80320.234,-46476.727,-28823.936,-5789.022,-34374.918,-55037.152,1289.1846
1312937.5673399102,-107282.516,-80327.48,-46477.5,-28828.41,-5794.5557,-34372.03,-55038.984,1281.657
1312937.5713399046,-107284.266,-80332.12,-46478.273,-28830.201,-5796.2646,-34377.035,-55038.496,1284.668
1312937.5753398992,-107286.13,-80328.01,-46479.98,-28827.88,-5792.7656,-34383.18,-55035.93,1291.1377
1312937.5793398935,-107289.43,-80323.08,-46475.3,-28826.457,-5790.3647,-34382.164,-55034.668,1291.8701
1312937.5833398881,-107290.41,-80325.484,-46471.477,-28827.598,-5796.224,-34375.816,-55038.414,1289.1846
1312937.5873398825,-107289.88,-80329.8,-46471.234,-28830.12,-5799.2354,-34372.316,-55041.586,1283.3252
1312937.591339877,-107285.73,-80327.48,-46473.39,-28830.607,-5796.8345,-34377.32,-55042.156,1283.7322
1312937.5953398715,-107282.96,-80321.82,-46474.49,-28828.857,-5791.097,-34384.277,-55040.977,1287.9639
1312937.599339866,-107281.664,-80317.016,-46472.496,-28827.068,-5787.191,-34383.016,-55036.703,1297.4447
1312937.6033398607,-107281.984,-80320.234,-46470.01,-28826.986,-5791.5854,-34377.32,-55033.9,1302.7751
1312937.607339855,-107280.16,-80324.875,-46466.72,-28828.29,-5794.3115,-34372.926,-55033.125,1304.362
1312937.6113398497,-107281.01,-80326.375,-46468.996,-28831.137,-5794.515,-34379.598,-55036.95,1299.1943
1312937.615339844,-107277.836,-80320.68,-46469.973,-28826.986,-5790.039,-34386.516,-55036.582,1300.7406
1312937.6193398386,-107270.555,-80313.97,-46466.23,-28822.836,-5785.8887,-34384.117,-55036.543,1297.8516
1312937.623339833,-107269.21,-80316.53,-46462.85,-28824.627,-5789.144,-34378.258,-55038.332,1294.4336
1312937.6273398276,-107267.91,-80322.43,-46460.125,-28825.848,-5792.4805,-34373.7,-55038.008,1293.0095
1312937.631339822,-107269.375,-80320.88,-46464.234,-28826.416,-5791.097,-34377.484,-55037.52,1296.7529
1312937.6353398166,-107267.91,-80312.91,-46467.695,-28825.36,-5784.261,-34381.836,-55037.355,1294.9219
1312937.639339811,-107268.11,-80313.16,-46467.652,-28824.627,-5783.1626,-34380.94,-55034.387,1302.4089
1312937.6433398055,-107271.69,-80315.23,-46466.35,-28826.824,-5787.191,-34374.473,-55032.715,1305.6641
1312937.6473398001,-107271.61,-80320.195,-46465.617,-28829.346,-5789.917,-34371.582,-55033.938,1304.4434
1312937.6513397945,-107274.78,-80324.055,-46468.223,-28829.672,-5789.0625,-34375.938,-55031.293,1306.4373
1312937.655339789,-107274.414,-80320.516,-46468.59,-28828.654,-5784.261,-34382.0,-55028.973,1312.1746
1312937.6593397835,-107260.18,-80306.44,-46463.91,-28825.562,-5779.2563,-34383.06,-55031.74,1306.9255
1312937.663339778,-107264.41,-80305.87,-46461.55,-28825.36,-5780.884,-34377.035,-55034.14,1305.9082
1312937.6673397725,-107270.47,-80313.03,-46463.258,-28827.8,-5782.308,-34372.113,-55034.426,1304.8503
1312937.671339767,-107257.04,-80302.53,-46464.152,-28826.783,-5781.9824,-34378.258,-55035.688,1303.9958
1312937.6753397614,-107245.65,-80288.45,-46465.332,-28825.156,-5776.408,-34385.215,-55035.08,1305.3793
1312937.679339756,-107234.54,-80275.59,-46461.02,-28821.25,-5770.4673,-34383.06,-55035.89,1304.362
1312937.6833397504,-107218.836,-80263.39,-46454.957,-28819.377,-5768.677,-34375.164,-55039.55,1295.2068
1312937.687339745,-107212.77,-80258.016,-46455.242,-28820.883,-5767.741,-34372.64,-55044.19,1285.1156
1312937.6913397394,-107190.84,-80231.695,-46456.258,-28817.994,-5761.841,-34382.69,-55052.574,1274.7803
1312937.695339734,-107163.58,-80200.65,-46452.72,-28811.158,-5751.0176,-34389.527,-55053.266,1269.9789
1312937.6993397286,-107147.586,-80176.96,-46450.766,-28807.414,-5745.7686,-34389.527,-55052.656,1265.1367
1312937.703339723,-107131.11,-80151.82,-46447.47,-28804.852,-5740.2344,-34385.133,-55055.258,1261.7188
1312937.7073397175,-107102.42,-80114.586,-46445.56,-28801.637,-5733.5615,-34386.637,-55063.316,1249.6746
1312937.711339712,-107076.09,-80079.63,-46445.07,-28798.584,-5723.4297,-34394.207,-55067.26,1242.6351
1312937.7153397065,-107055.055,-80051.805,-46445.312,-28796.348,-5715.088,-34402.305,-55068.81,1241.5771
1312937.7193397009,-107033.57,-80028.12,-46443.81,-28790.854,-5705.0376,-34405.273,-55072.715,1239.3392
1312937.7233396955,-107025.48,-80016.44,-46441.938,-28789.47,-5701.538,-34399.414,-55075.44,1234.1716
1312937.7273396899,-107028.98,-80018.68,-46444.01,-28793.377,-5704.2236,-34397.055,-55080.0,1221.517
1312937.7313396845,-107027.34,-80025.516,-46446.004,-28795.207,-5705.77,-34401.938,-55082.36,1216.268
1312937.7353396788,-107023.6,-80020.71,-46445.56,-28793.742,-5701.4976,-34409.344,-55083.58,1219.6045
1312937.7393396734,-107025.59,-80022.14,-46443.562,-28791.424,-5698.5273,-34408.53,-55083.703,1221.9238
1312937.7433396678,-107033.41,-80034.55,-46440.27,-28793.498,-5702.922,-34402.508,-55081.137,1227.1322
1312937.7473396624,-107044.31,-80047.24,-46439.09,-28796.916,-5707.9673,-34396.812,-55077.598,1230.2246
1312937.751339657,-107055.18,-80058.96,-46443.645,-28799.033,-5708.496,-34398.52,-55071.984,1239.2578
1312937.7553396514,-107066.164,-80068.766,-46447.43,-28798.79,-5707.0723,-34405.805,-55070.312,1245.9717
1312937.759339646,-107073.86,-80076.83,-46444.54,-28798.707,-5708.618,-34406.984,-55072.797,1242.8386
1312937.7633396403,-107084.805,-80091.15,-46438.723,-28801.066,-5716.512,-34400.066,-55073.324,1240.1937
1312937.767339635,-107100.914,-80109.54,-46439.375,-28805.096,-5725.057,-34396.04,-55073.49,1237.9965
1312937.7713396293,-107106.98,-80120.41,-46441.61,-28806.723,-5727.7427,-34398.805,-55071.777,1241.6179
1312937.775339624,-107111.53,-80121.625,-46443.562,-28805.828,-5724.3247,-34402.832,-55067.63,1251.1394
1312937.7793396183,-107114.22,-80127.24,-46440.758,-28803.793,-5720.4185,-34400.797,-55065.27,1247.0703
1312937.783339613,-107121.664,-80144.164,-46436.402,-28807.21,-5726.766,-34392.008,-55060.71,1251.4242
1312937.7873396073,-107140.79,-80159.55,-46438.723,-28813.844,-5735.962,-34385.66,-55053.02,1261.5967
1312937.7913396019,-107156.13,-80167.69,-46445.19,-28817.383,-5740.3564,-34388.184,-55045.695,1272.1355
1312937.7953395962,-107160.65,-80169.92,-46447.957,-28815.186,-5737.5083,-34393.555,-55041.465,1275.1058
1312937.7993395908,-107167.93,-80176.07,-46446.574,-28814.738,-5736.6943,-34392.336,-55039.39,1279.6224
1312937.8033395854,-107173.75,-80188.84,-46444.5,-28818.238,-5742.391,-34384.48,-55039.758,1281.0873
1312937.8073395798,-107180.71,-80201.664,-46444.336,-28822.47,-5746.867,-34379.07,-55038.21,1279.419
1312937.8113395744,-107184.9,-80205.445,-46445.152,-28820.965,-5745.036,-34380.496,-55033.203,1287.3129
1312937.8153395688,-107183.8,-80201.91,-46446.004,-28818.115,-5741.496,-34385.38,-55029.055,1301.6357
1312937.8193395634,-107187.18,-80205.53,-46445.883,-28819.744,-5741.9434,-34384.605,-55025.066,1307.0476
1312937.8233395577,-107193.16,-80217.57,-46444.176,-28821.168,-5744.873,-34375.49,-55022.46,1311.6049
1312937.8273395523,-107202.4,-80229.62,-46447.51,-28824.342,-5750.9766,-34373.535,-55022.83,1310.14
1312937.8313395467,-107212.33,-80234.3,-46451.01,-28824.79,-5750.6104,-34377.2,-55021.12,1309.6517
1312937.8353395413,-107216.68,-80232.875,-46452.72,-28823.975,-5747.64,-34383.75,-55020.55,1315.7146
1312937.8393395357,-107211.63,-80232.18,-46449.098,-28823.121,-5744.9546,-34384.766,-55024.05,1315.6738
1312937.8433395303,-107213.42,-80240.16,-46442.996,-28824.545,-5748.2505,-34376.383,-55024.7,1315.1042
1312937.847339525,-107218.34,-80247.84,-46440.188,-28825.318,-5751.9126,-34374.188,-55028.527,1305.7455
1312937.8513395193,-107221.6,-80249.88,-46442.426,-28825.928,-5750.7324,-34380.656,-55029.91,1302.002
1312937.8553395139,-107222.13,-80250.086,-46444.297,-28824.951,-5749.349,-34385.945,-55030.07,1305.4607
1312937.8593395082,-107222.74,-80252.28,-46443.848,-28825.766,-5750.0,-34387.574,-55029.746,1310.018
1312937.8633395028,-107225.914,-80258.266,-46442.63,-28827.434,-5753.174,-34380.496,-55028.16,1315.1855
1312937.8673394972,-107227.46,-80265.46,-46441.45,-28828.574,-5759.3994,-34374.227,-55025.598,1319.0105
1312937.8713394918,-107236.05,-80267.17,-46445.844,-28830.607,-5759.1147,-34380.168,-55022.91,1319.6208
1312937.8753394862,-107238.04,-80262.9,-46448.977,-28829.021,-5753.418,-34386.15,-55021.445,1313.7615
1312937.8793394808,-107234.74,-80261.6,-46448.652,-28827.598,-5749.878,-34383.87,-55017.58,1318.4001
1312937.8833394751,-107237.1,-80271.77,-46446.21,-28829.428,-5754.0283,-34377.32,-55016.766,1323.7712
1312937.8873394697,-107241.7,-80283.57,-46444.176,-28831.91,-5758.1787,-34372.56,-55015.707,1329.6306
1312937.891339464,-107246.55,-80284.06,-46448.203,-28833.375,-5757.65,-34376.71,-55014.934,1329.9154
1312937.8953394587,-107248.375,-80282.27,-46449.75,-28831.584,-5754.6797,-34383.22,-55012.574,1330.9326
1312937.8993394533,-107244.02,-80282.43,-46449.098,-28830.527,-5756.185,-34383.22,-55009.402,1336.1816
1312937.9033394477,-107243.62,-80286.336,-46446.414,-28831.299,-5758.911,-34375.855,-55008.668,1334.5134
1312937.9073394423,-107247.93,-80291.305,-46444.582,-28833.781,-5759.3184,-34373.09,-55009.973,1329.1016
1312937.9113394367,-107247.766,-80287.516,-46447.918,-28833.537,-5756.958,-34379.56,-55010.785,1325.7244
1312937.9153394313,-107242.35,-80284.586,-46447.023,-28830.852,-5754.802,-34384.44,-55007.49,1332.723
1312937.9193394256,-107237.06,-80282.68,-46444.867,-28827.8,-5751.0176,-34383.3,-55007.855,1333.1299
1312937.9233394202,-107245.28,-80290.0,-46442.832,-28830.16,-5752.7266,-34376.996,-55010.01,1328.8982
1312937.9273394146,-107256.63,-80298.83,-46442.75,-28833.252,-5758.423,-34372.56,-55011.68,1325.8871
1312937.9313394092,-107258.79,-80295.58,-46444.867,-28832.357,-5755.697,-34378.5,-55017.297,1316.6912
1312937.9353394036,-107252.69,-80289.92,-46444.05,-28829.59,-5750.936,-34386.15,-55017.5,1316.2842
1312937.9393393982,-107247.805,-80291.18,-46443.44,-28828.818,-5752.0347,-34385.418,-55016.113,1326.3347
1312937.9433393925,-107248.54,-80296.555,-46440.188,-28830.242,-5756.999,-34378.62,-55015.832,1327.474
1312937.9473393871,-107252.0,-80302.695,-46440.594,-28832.275,-5760.946,-34375.0,-55017.62,1322.4691
1312937.9513393817,-107255.945,-80302.01,-46444.297,-28833.334,-5760.62,-34381.797,-55019.777,1314.4531
1312937.955339376,-107254.07,-80293.83,-46444.5,-28830.893,-5756.1445,-34387.574,-55019.207,1314.5752
1312937.9593393707,-107250.66,-80293.016,-46442.223,-28829.387,-5754.0283,-34385.133,-55013.184,1328.9795
1312937.963339365,-107248.91,-80297.61,-46440.31,-28831.299,-5756.7954,-34375.938,-55010.01,1330.9326
1312937.9673393597,-107246.586,-80300.055,-46438.07,-28834.717,-5761.19,-34372.64,-55011.11,1326.9043
1312937.971339354,-107244.8,-80300.414,-46439.82,-28835.37,-5761.4746,-34378.094,-55014.16,1318.3594
1312937.9753393487,-107243.66,-80299.12,-46440.797,-28833.578,-5760.051,-34384.645,-55013.145,1320.8416
1312937.979339343,-107238.53,-80294.35,-46438.68,-28831.543,-5756.1445,-34384.523,-55013.51,1323.3236
1312937.9833393376,-107237.19,-80295.984,-46434.207,-28832.805,-5758.952,-34375.652,-55009.277,1324.9105
1312937.987339332,-107244.76,-80297.57,-46434.773,-28835.246,-5762.329,-34371.22,-55005.74,1326.6602
1312937.9913393266,-107246.34,-80296.35,-46436.85,-28836.752,-5762.573,-34374.555,-55001.996,1330.2002
1312937.995339321,-107241.01,-80294.44,-46437.95,-28835.205,-5759.4404,-34380.94,-55001.793,1332.6824
1312937.9993393156,-107236.62,-80294.31,-46435.426,-28832.236,-5758.586,-34379.723,-55003.582,1331.1361
1312938.0033393102,-107237.8,-80300.414,-46435.02,-28833.252,-5762.4106,-34373.535,-55006.145,1324.0967
1312938.0073393045,-107242.72,-80304.0,-46433.39,-28837.158,-5767.7,-34370.566,-55007.0,1324.585
1312938.0113392991,-107242.68,-80299.234,-46433.31,-28836.143,-5764.8115,-34373.332,-55007.285,1326.823
1312938.0153392935,-107239.51,-80294.15,-46436.484,-28834.473,-5758.952,-34377.93,-55002.28,1336.5072
1312938.0193392881,-107241.78,-80297.0,-46439.453,-28835.654,-5757.121,-34375.164,-55000.043,1339.5996
1312938.0233392825,-107236.49,-80306.36,-46432.617,-28836.508,-5762.004,-34365.766,-55001.06,1332.9672
1312938.027339277,-107213.99,-80290.41,-46423.22,-28833.904,-5760.539,-34362.957,-55006.836,1323.3643
1312938.0313392715,-107217.29,-80281.336,-46426.555,-28833.578,-5757.5684,-34365.97,-55007.164,1322.5912
1312938.035339266,-107233.6,-80293.664,-46430.016,-28834.717,-5757.9756,-34368.652,-55005.496,1323.405
1312938.0393392604,-107227.7,-80292.4,-46423.098,-28833.578,-5760.4575,-34366.457,-55007.082,1322.1029
1312938.043339255,-107221.48,-80290.164,-46425.863,-28835.693,-5762.6143,-34358.727,-55002.28,1332.5195
1312938.0473392496,-107223.72,-80297.81,-46428.348,-28839.885,-5767.009,-34354.695,-54999.473,1329.2644
1312938.051339244,-107221.56,-80295.86,-46427.492,-28839.438,-5765.2183,-34358.4,-55000.49,1327.474
1312938.0553392386,-107218.8,-80290.57,-46428.633,-28837.078,-5762.085,-34365.195,-55001.02,1333.5369
1312938.059339233,-107216.59,-80293.7,-46428.47,-28836.02,-5760.376,-34361.777,-54997.926,1342.8142
1312938.0633392276,-107220.016,-80300.5,-46427.45,-28839.152,-5763.9976,-34354.82,-54998.254,1337.4431
1312938.067339222,-107221.93,-80301.59,-46428.793,-28841.025,-5767.5376,-34351.035,-55001.1,1329.9968
1312938.0713392165,-107226.93,-80304.2,-46431.113,-28843.67,-5769.6943,-34355.023,-55001.02,1331.543
1312938.075339211,-107226.2,-80299.56,-46432.254,-28841.27,-5766.683,-34363.04,-55001.914,1336.0596
1312938.0793392055,-107218.95,-80293.22,-46426.312,-28839.234,-5764.8115,-34361.98,-55001.71,1341.5935
1312938.0833392,-107216.96,-80298.71,-46421.957,-28841.758,-5768.636,-34356.16,-55000.57,1346.0287
1312938.0873391945,-107217.05,-80302.695,-46422.406,-28842.57,-5771.322,-34353.477,-54999.84,1345.9066
1312938.0913391889,-107217.33,-80298.95,-46422.566,-28840.293,-5768.27,-34358.805,-55001.67,1338.8265
1312938.0953391835,-107213.18,-80293.13,-46423.016,-28837.443,-5763.3057,-34364.992,-55005.008,1336.6293
1312938.099339178,-107209.31,-80292.73,-46422.242,-28838.664,-5761.9224,-34365.316,-55008.465,1333.9844
1312938.1033391724,-107211.8,-80298.71,-46419.516,-28840.373,-5766.3984,-34359.824,-55010.824,1334.1879
1312938.107339167,-107212.57,-80299.93,-46419.72,-28842.693,-5768.921,-34357.992,-55011.965,1335.0017
1312938.1113391614,-107209.92,-80294.76,-46421.957,-28841.96,-5764.201,-34363.73,-55013.918,1331.8685
1312938.115339156,-107205.57,-80292.12,-46423.586,-28840.414,-5759.5625,-34369.223,-55013.836,1333.2927
1312938.1193391504,-107207.69,-80288.74,-46418.215,-28838.176,-5758.0977,-34366.21,-55010.254,1344.8894
1312938.123339145,-107205.61,-80290.77,-46415.164,-28839.682,-5761.678,-34358.316,-55004.965,1352.2949
1312938.1273391393,-107208.78,-80294.234,-46418.05,-28840.576,-5762.37,-34355.43,-55001.793,1358.724
1312938.131339134,-107207.89,-80285.65,-46421.184,-28840.008,-5758.301,-34362.59,-55007.49,1350.2605
1312938.1353391283,-107202.6,-80281.375,-46422.0,-28839.275,-5754.7607,-34369.184,-55011.152,1349.8535
1312938.139339123,-107201.625,-80281.01,-46419.07,-28838.787,-5752.645,-34367.84,-55007.812,1357.2998
1312938.1433391173,-107200.56,-80282.555,-46417.93,-28841.105,-5757.65,-34362.02,-55011.477,1354.7363
1312938.147339112,-107208.54,-80289.35,-46421.145,-28844.809,-5763.021,-34359.54,-55015.42,1352.7832
1312938.1513391065,-107211.8,-80291.71,-46423.625,-28845.215,-5762.8584,-34366.21,-55015.91,1350.057
1312938.1553391009,-107205.2,-80285.73,-46422.812,-28842.773,-5758.545,-34371.094,-55014.12,1356.1605
1312938.1593390955,-107195.27,-80282.23,-46421.715,-28842.652,-5757.406,-34369.02,-55013.39,1358.6426
1312938.1633390898,-107195.516,-80283.04,-46419.395,-28843.018,-5757.8535,-34361.777,-55014.445,1357.4626
1312938.1673390844,-107198.86,-80289.76,-46419.92,-28846.762,-5761.3936,-34360.15,-55017.336,1352.9053
1312938.1713390788,-107196.086,-80285.766,-46422.0,-28846.191,-5759.3184,-34366.824,-55018.434,1354.9398
1312938.1753390734,-107192.34,-80279.38,-46417.44,-28843.182,-5756.5107,-34373.94,-55023.03,1344.8486
1312938.1793390678,-107189.21,-80278.57,-46416.18,-28842.652,-5754.8423,-34372.52,-55022.383,1350.3826
1312938.1833390624,-107186.37,-80279.83,-46412.234,-28842.979,-5757.08,-34365.195,-55017.99,1357.2592
1312938.1873390567,-107190.72,-80280.6,-46409.87,-28846.314,-5760.173,-34362.67,-55016.48,1364.502
1312938.1913390514,-107192.02,-80281.414,-46412.8,-28847.82,-5758.1787,-34366.902,-55013.715,1371.4193
1312938.1953390457,-107192.55,-80279.38,-46414.754,-28846.273,-5753.7437,-34371.785,-55010.742,1376.6683
1312938.1993390403,-107187.99,-80279.5,-46413.94,-28845.908,-5752.3193,-34369.67,-55009.973,1378.54
1312938.203339035,-107189.5,-80283.37,-46410.605,-28846.07,-5754.5576,-34361.734,-55009.484,1378.3367
1312938.2073390293,-107193.16,-80288.086,-46410.77,-28849.447,-5758.016,-34358.4,-55010.906,1376.709
1312938.211339024,-107192.71,-80290.24,-46411.01,-28848.105,-5758.423,-34364.707,-55010.176,1377.4008
1312938.2153390183,-107187.625,-80283.49,-46411.824,-28846.436,-5756.1035,-34370.605,-55007.406,1386.434
1312938.2193390129,-107185.43,-80281.58,-46411.176,-28845.379,-5755.046,-34368.98,-55007.895,1390.0146
1312938.2233390072,-107191.9,-80288.05,-46411.297,-28846.477,-5757.4463,-34362.508,-55009.035,1383.6263
1312938.2273390018,-107196.54,-80290.37,-46411.906,-28849.285,-5758.911,-34359.17,-55007.773,1382.2836
1312938.2313389962,-107194.87,-80287.766,-46414.062,-28850.059,-5758.7485,-34363.324,-55004.234,1387.4105
1312938.2353389908,-107187.46,-80283.695,-46413.047,-28847.535,-5756.7954,-34369.06,-55004.152,1386.8408
1312938.2393389852,-107188.6,-80287.6,-46408.57,-28846.803,-5758.138,-34366.824,-55002.117,1389.323
1312938.2433389798,-107190.11,-80289.875,-46404.582,-28847.412,-5760.2134,-34359.742,-55000.367,1397.3389
1312938.2473389741,-107192.23,-80285.766,-46401.734,-28846.111,-5757.324,-34358.074,-55004.355,1382.5277
1312938.2513389688,-107193.12,-80283.45,-46407.188,-28845.176,-5754.2725,-34364.664,-55007.69,1377.9297
1312938.2553389634,-107188.195,-80275.88,-46409.547,-28843.262,-5750.7734,-34371.83,-55006.88,1387.1664
1312938.2593389577,-107188.84,-80274.21,-46405.52,-28840.82,-5747.5586,-34369.71,-55005.535,1388.5092
1312938.2633389523,-107195.6,-80281.7,-46402.875,-28844.28,-5752.767,-34363.242,-55004.438,1391.3574
1312938.2673389467,-107201.586,-80286.336,-46405.926,-28848.553,-5756.6733,-34361.613,-55004.805,1386.2305
1312938.2713389413,-107199.99,-80288.17,-46410.484,-28847.861,-5753.011,-34367.23,-55003.703,1388.143
1312938.2753389357,-107192.63,-80277.875,-46412.07,-28844.85,-5747.8438,-34372.273,-55000.285,1394.9382
1312938.2793389303,-107188.36,-80275.76,-46408.938,-28840.943,-5747.03,-34370.32,-54999.188,1401.8962
1312938.2833389246,-107194.016,-80282.19,-46406.293,-28844.564,-5750.8955,-34364.664,-54998.332,1408.2031
1312938.2873389192,-107196.25,-80284.914,-46405.965,-28847.78,-5753.459,-34363.65,-55000.695,1401.6927
1312938.2913389136,-107197.23,-80283.125,-46410.484,-28849.326,-5751.628,-34369.266,-55001.14,1395.9148
1312938.2953389082,-107189.78,-80278.08,-46412.965,-28846.6,-5746.216,-34373.902,-55001.184,1398.2748
1312938.2993389028,-107184.695,-80277.67,-46408.125,-28845.176,-5745.321,-34371.5,-55001.953,1402.059
1312938.3033388972,-107188.234,-80283.2,-46404.137,-28846.72,-5749.3086,-34366.414,-55003.5,1402.4252
1312938.3073388918,-107192.18,-80286.83,-46406.414,-28849.814,-5753.337,-34364.504,-55003.176,1402.9135
1312938.3113388862,-107189.91,-80283.94,-46402.832,-28848.389,-5751.5464,-34369.547,-55001.875,1406.2908
1312938.3153388808,-107187.95,-80280.56,-46402.223,-28846.314,-5746.704,-34375.367,-54999.88,1414.266
1312938.3193388751,-107185.34,-80276.125,-46410.36,-28845.176,-5743.6523,-34374.797,-55000.977,1408.9763
1312938.3233388697,-107190.11,-80280.52,-46404.95,-28848.145,-5749.5117,-34370.363,-55003.83,1405.599
1312938.327338864,-107192.266,-80282.76,-46406.293,-28851.604,-5754.5576,-34369.547,-55003.625,1409.3425
1312938.3313388587,-107193.04,-80282.516,-46408.816,-28851.562,-5752.279,-34373.047,-55001.547,1411.5398
1312938.335338853,-107184.86,-80274.945,-46408.816,-28848.389,-5745.6055,-34378.336,-55003.418,1410.0342
1312938.3393388477,-107179.125,-80273.97,-46405.316,-28847.209,-5744.914,-34378.664,-55006.188,1404.7445
1312938.343338842,-107181.234,-80278.73,-46402.754,-28849.447,-5747.925,-34371.785,-55004.965,1406.0466
1312938.3473388366,-107185.02,-80279.38,-46401.45,-28850.709,-5751.4243,-34369.67,-55003.543,1410.2783
1312938.3513388312,-107183.68,-80272.22,-46401.45,-28849.326,-5746.2974,-34375.406,-55002.035,1412.8011
1312938.3553388256,-107182.74,-80268.92,-46401.246,-28847.617,-5740.8447,-34381.96,-54999.797,1424.8047
1312938.3593388202,-107178.59,-80266.195,-46398.36,-28846.111,-5738.2,-34380.21,-54998.66,1429.7689
1312938.3633388146,-107176.68,-80269.86,-46394.53,-28846.924,-5742.676,-34370.89,-54994.793,1427.1648
1312938.3673388092,-107174.805,-80275.48,-46393.35,-28849.121,-5744.995,-34367.23,-54993.043,1426.8392
1312938.3713388036,-107185.914,-80279.22,-46399.7,-28850.668,-5744.426,-34373.375,-54992.11,1426.7172
1312938.3753387982,-107188.73,-80277.02,-46402.59,-28849.447,-5741.74,-34378.62,-54988.65,1430.6641
1312938.3793387925,-107186.37,-80276.66,-46398.36,-28848.309,-5741.252,-34376.71,-54988.406,1432.3324
1312938.3833387871,-107184.01,-80277.1,-46393.68,-28849.57,-5743.2456,-34369.06,-54986.94,1436.9304
1312938.3873387815,-107182.91,-80278.89,-46395.918,-28850.342,-5743.8154,-34366.7,-54986.004,1437.2559
1312938.391338776,-107180.18,-80275.92,-46398.684,-28850.424,-5741.9844,-34374.555,-54990.645,1428.4668
1312938.3953387705,-107174.93,-80271.484,-46400.066,-28847.9,-5737.142,-34380.94,-54992.27,1430.0945
1312938.399338765,-107175.055,-80271.57,-46397.543,-28847.373,-5735.311,-34380.86,-54996.34,1424.3164
1312938.4033387597,-107178.39,-80276.33,-46393.11,-28849.162,-5740.3975,-34374.227,-54996.016,1429.6875
1312938.407338754,-107180.26,-80278.61,-46391.074,-28851.4,-5744.548,-34372.234,-54992.72,1436.1166
1312938.4113387486,-107182.984,-80279.016,-46391.277,-28851.156,-5746.7856,-34380.535,-54992.473,1435.3027
1312938.415338743,-107177.9,-80274.3,-46397.91,-28849.488,-5742.1064,-34385.5,-54989.668,1440.1855
1312938.4193387376,-107175.5,-80275.23,-46401.207,-28848.959,-5740.1123,-34382.773,-54990.6,1439.5345
1312938.423338732,-107181.69,-80278.89,-46395.47,-28850.139,-5741.5366,-34375.977,-54990.4,1440.5111
1312938.4273387266,-107182.5,-80280.44,-46391.523,-28850.262,-5742.4727,-34374.637,-54992.883,1438.3138
1312938.431338721,-107177.9,-80276.9,-46393.27,-28849.244,-5741.211,-34381.105,-54992.11,1442.3828
1312938.4353387156,-107170.086,-80272.055,-46393.395,-28847.088,-5736.0435,-34387.535,-54991.58,1448.0795
1312938.43933871,-107168.87,-80268.805,-46393.555,-28846.803,-5733.114,-34387.125,-54995.934,1439.738
1312938.4433387045,-107174.89,-80270.875,-46393.477,-28848.35,-5734.3345,-34379.52,-54995.484,1443.4814
1312938.447338699,-107177.984,-80274.21,-46392.336,-28850.994,-5738.159,-34376.383,-54994.754,1443.8884
1312938.4513386935,-107185.39,-80277.67,-46394.98,-28852.05,-5736.0435,-34382.812,-54994.67,1439.5345
1312938.455338688,-107184.86,-80275.555,-46397.79,-28851.156,-5731.0386,-34389.934,-54991.254,1447.2656
1312938.4593386825,-107171.31,-80269.25,-46392.17,-28848.43,-5727.539,-34388.062,-54991.54,1447.5912
1312938.463338677,-107172.164,-80274.25,-46388.875,-28849.53,-5731.893,-34377.28,-54988.77,1447.6726
1312938.4673386714,-107177.82,-80280.07,-46390.625,-28853.11,-5735.3516,-34374.473,-54989.383,1456.6244
1312938.471338666,-107177.45,-80279.055,-46395.387,-28853.965,-5735.2705,-34381.715,-54988.934,1458.6182
1312938.4753386604,-107176.555,-80273.484,-46393.637,-28851.848,-5731.8525,-34385.824,-54983.32,1471.2728
1312938.479338655,-107177.9,-80272.38,-46391.562,-28851.441,-5733.2764,-34383.992,-54980.55,1475.6267
1312938.4833386494,-107179.2,-80274.74,-46390.22,-28853.8,-5738.2,-34378.297,-54981.527,1472.4935
1312938.487338644,-107180.055,-80280.52,-46389.934,-28855.062,-5740.7227,-34375.895,-54979.82,1475.7488
1312938.4913386384,-107183.8,-80280.36,-46390.016,-28854.9,-5738.159,-34382.367,-54979.94,1480.7537
1312938.495338633,-107175.87,-80271.41,-46389.527,-28852.05,-5731.323,-34389.203,-54981.445,1480.5502
1312938.4993386276,-107164.76,-80264.08,-46387.777,-28850.139,-5729.818,-34387.695,-54980.55,1483.4799
1312938.503338622,-107165.49,-80266.28,-46387.086,-28851.197,-5732.3813,-34381.797,-54980.633,1481.6895
1312938.5073386165,-107174.52,-80270.71,-46385.457,-28852.988,-5734.8228,-34379.926,-54983.156,1476.3998
1312938.511338611,-107174.08,-80270.51,-46388.062,-28852.744,-5731.6084,-34386.434,-54985.8,1475.0164
1312938.5153386055,-107170.375,-80264.445,-46387.207,-28849.365,-5725.179,-34393.598,-54987.348,1471.8832
1312938.5193385999,-107172.2,-80261.27,-46385.62,-28848.023,-5722.209,-34390.42,-54983.605,1477.9053
1312938.5233385945,-107172.08,-80263.76,-46381.39,-28847.941,-5724.8535,-34382.367,-54982.26,1477.2136
1312938.5273385888,-107172.61,-80266.805,-46380.656,-28850.098,-5728.9634,-34380.94,-54981.445,1475.9929
1312938.5313385834,-107177.62,-80266.766,-46383.098,-28850.791,-5729.9805,-34387.492,-54981.04,1473.226
1312938.5353385778,-107170.375,-80260.79,-46382.652,-28847.209,-5722.982,-34393.758,-54978.355,1482.8695
1312938.5393385724,-107164.43,-80258.75,-46381.88,-28846.6,-5721.8833,-34390.016,-54977.5,1482.9102
1312938.5433385668,-107159.47,-80258.914,-46379.883,-28847.82,-5727.783,-34384.523,-54982.75,1475.057
1312938.5473385614,-107161.42,-80264.53,-46379.03,-28849.814,-5727.987,-34383.344,-54981.57,1476.9695
1312938.551338556,-107163.86,-80262.29,-46382.61,-28849.0,-5722.982,-34387.86,-54977.297,1478.8818
1312938.5553385504,-107163.086,-80256.06,-46379.68,-28847.006,-5717.5703,-34393.19,-54975.996,1482.0964
1312938.559338545,-107163.13,-80255.62,-46380.168,-28848.227,-5717.2446,-34391.24,-54977.46,1484.8633
1312938.5633385393,-107167.65,-80265.67,-46378.46,-28850.139,-5725.383,-34384.605,-54974.69,1486.9792
1312938.567338534,-107170.86,-80270.836,-46376.996,-28849.65,-5727.661,-34382.773,-54975.14,1487.2234
1312938.5713385283,-107174.24,-80271.89,-46377.117,-28850.139,-5725.464,-34388.227,-54974.0,1486.7351
1312938.575338523,-107171.875,-80266.195,-46376.426,-28848.35,-5720.459,-34393.8,-54972.09,1491.2517
1312938.5793385173,-107167.32,-80265.18,-46377.035,-28847.088,-5717.9365,-34389.977,-54969.117,1494.2627
1312938.5833385119,-107157.02,-80256.8,-46374.39,-28844.523,-5712.1177,-34385.457,-54971.355,1490.8447
1312938.5873385062,-107165.33,-80259.28,-46377.32,-28846.762,-5717.1226,-34382.49,-54969.65,1490.3158
1312938.5913385008,-107172.0,-80263.47,-46380.617,-28848.553,-5719.8896,-34388.59,-54968.223,1495.158
1312938.5953384952,-107176.07,-80262.53,-46378.785,-28847.291,-5716.5527,-34393.27,-54964.234,1506.3884
1312938.5993384898,-107170.086,-80264.0,-46373.17,-28845.826,-5716.797,-34390.75,-54965.7,1500.3256
1312938.6033384844,-107164.76,-80265.055,-46373.945,-28846.477,-5718.1396,-34385.05,-54969.117,1492.1469
1312938.6073384788,-107163.5,-80264.41,-46375.125,-28848.309,-5718.9536,-34385.01,-54972.94,1492.2689
1312938.6113384734,-107167.97,-80264.24,-46377.77,-28849.814,-5716.838,-34392.457,-54975.71,1487.142
1312938.6153384678,-107161.3,-80252.24,-46376.914,-28843.67,-5709.4727,-34395.996,-54969.484,1496.1345
1312938.6193384624,-107156.58,-80252.36,-46371.625,-28841.309,-5711.955,-34390.992,-54965.09,1507.2836
1312938.6233384567,-107158.086,-80257.65,-46367.676,-28844.117,-5717.1226,-34382.203,-54964.277,1505.6152
1312938.6273384513,-107166.22,-80259.93,-46371.746,-28849.61,-5718.7095,-34380.496,-54964.03,1505.6967
1312938.6313384457,-107173.95,-80262.62,-46373.902,-28849.61,-5719.7676,-34384.48,-54961.67,1509.3588
1312938.6353384403,-107171.8,-80261.6,-46376.71,-28849.041,-5720.1743,-34387.9,-54956.586,1516.805
1312938.6393384347,-107168.055,-80257.41,-46373.902,-28849.244,-5720.744,-34386.76,-54960.37,1512.1664
1312938.6433384293,-107168.055,-80260.83,-46368.695,-28851.889,-5725.6675,-34380.82,-54965.496,1504.2318
1312938.6473384236,-107169.766,-80263.59,-46370.402,-28853.883,-5725.871,-34376.914,-54960.41,1507.7719
1312938.6513384182,-107165.9,-80260.375,-46375.246,-28853.395,-5722.0054,-34384.81,-54960.938,1507.4463
1312938.6553384128,-107165.77,-80258.14,-46379.234,-28851.28,-5717.9365,-34388.797,-54960.004,1499.1455
1312938.6593384072,-107158.86,-80253.38,-46373.414,-28847.494,-5714.3965,-34385.54,-54961.223,1500.0814
1312938.6633384018,-107164.06,-80262.125,-46367.72,-28851.197,-5722.29,-34375.773,-54958.742,1502.5228
1312938.6673383962,-107160.445,-80258.55,-46371.625,-28852.783,-5719.808,-34371.5,-54957.645,1504.1504
1312938.6713383908,-107165.086,-80257.0,-46369.426,-28852.703,-5717.5293,-34375.49,-54956.504,1510.5795
1312938.6753383852,-107163.25,-80253.5,-46375.367,-28852.133,-5715.8203,-34378.297,-54949.914,1520.0195
1312938.6793383798,-107156.375,-80250.2,-46377.727,-28850.098,-5713.542,-34372.6,-54945.11,1525.2686
1312938.6833383741,-107157.76,-80253.46,-46371.625,-28851.441,-5715.373,-34364.95,-54946.13,1525.2686
1312938.6873383687,-107158.45,-80255.086,-46369.305,-28853.191,-5718.0176,-34363.77,-54947.754,1520.3044
1312938.691338363,-107159.914,-80255.05,-46368.652,-28853.516,-5717.163,-34369.344,-54946.168,1522.5424
1312938.6953383577,-107153.32,-80249.31,-46366.008,-28849.244,-5713.135,-34372.03,-54941.816,1535.0342
1312938.699338352,-107146.9,-80250.086,-46364.42,-28848.715,-5714.5996,-34367.434,-54939.25,1541.626
1312938.7033383467,-107144.29,-80254.16,-46360.72,-28849.854,-5717.8145,-34360.883,-54937.746,1547.0785
1312938.7073383413,-107149.984,-80252.766,-46364.586,-28851.28,-5715.617,-34360.027,-54938.723,1543.6199
1312938.7113383356,-107157.27,-80253.38,-46367.88,-28851.28,-5714.4775,-34366.293,-54942.71,1535.075
1312938.7153383303,-107149.336,-80250.25,-46366.7,-28849.53,-5714.559,-34371.664,-54944.418,1536.4177
1312938.7193383246,-107146.24,-80247.93,-46362.02,-28848.877,-5714.2744,-34371.664,-54948.04,1533.9355
1312938.7233383192,-107146.9,-80249.07,-46363.566,-28849.365,-5713.298,-34366.008,-54949.016,1532.4707
1312938.7273383136,-107144.945,-80248.375,-46365.03,-28849.0,-5712.158,-34363.895,-54952.76,1523.1934
1312938.7313383082,-107147.51,-80251.51,-46365.52,-28848.633,-5714.0303,-34368.492,-54952.11,1519.6941
1312938.7353383026,-107135.99,-80238.65,-46361.74,-28843.303,-5708.415,-34371.83,-54947.062,1532.2673
1312938.7393382972,-107133.67,-80235.64,-46357.953,-28842.45,-5707.4385,-34368.938,-54945.19,1543.0908
1312938.7433382915,-107146.04,-80244.14,-46357.383,-28846.314,-5711.711,-34361.043,-54942.508,1545.4102
1312938.7473382861,-107148.28,-80246.14,-46355.836,-28847.738,-5713.5825,-34361.37,-54945.56,1541.2191
1312938.7513382807,-107144.62,-80241.17,-46361.86,-28846.803,-5710.9375,-34366.13,-54941.367,1554.1992
1312938.755338275,-107134.97,-80232.914,-46359.336,-28843.629,-5705.241,-34371.5,-54946.047,1550.3744
1312938.7593382697,-107130.45,-80234.984,-46353.07,-28843.75,-5707.4385,-34369.996,-54947.348,1544.7998
1312938.763338264,-107135.016,-80242.19,-46353.11,-28846.68,-5713.9487,-34362.47,-54947.227,1547.282
1312938.7673382587,-107144.375,-80256.11,-46351.035,-28851.28,-5721.7207,-34360.312,-54943.484,1549.7234
1312938.771338253,-107132.25,-80243.82,-46357.098,-28848.43,-5712.3213,-34368.652,-54942.71,1556.9662
1312938.7753382477,-107129.27,-80237.555,-46353.883,-28845.664,-5708.171,-34372.355,-54941.895,1557.6172
1312938.779338242,-107128.664,-80239.95,-46349.285,-28846.477,-5710.9375,-34368.938,-54938.805,1566.4062
1312938.7833382366,-107125.94,-80239.914,-46347.168,-28848.35,-5713.9893,-34362.633,-54938.56,1566.6912
1312938.787338231,-107130.086,-80240.97,-46349.164,-28849.854,-5711.5073,-34359.418,-54937.094,1567.3422
1312938.7913382256,-107132.734,-80241.945,-46353.312,-28849.365,-5708.9844,-34363.61,-54938.273,1564.3718
1312938.79533822,-107137.414,-80242.27,-46354.414,-28847.738,-5707.3164,-34368.695,-54934.938,1572.876
1312938.7993382146,-107131.39,-80234.984,-46351.44,-28844.646,-5702.474,-34368.816,-54937.91,1576.9451
1312938.8033382092,-107127.32,-80239.22,-46349.164,-28846.803,-5706.136,-34362.836,-54939.984,1575.8464
1312938.8073382035,-107129.93,-80242.27,-46348.633,-28849.447,-5711.6294,-34359.17,-54939.21,1571.9808
1312938.8113381981,-107134.484,-80245.0,-46349.773,-28850.506,-5713.867,-34364.91,-54940.637,1569.987
1312938.8153381925,-107129.16,-80239.79,-46351.24,-28848.023,-5707.601,-34367.84,-54936.402,1583.252
1312938.819338187,-107124.31,-80235.35,-46350.18,-28847.738,-5703.7764,-34365.6,-54933.676,1592.7734
1312938.8233381815,-107130.984,-80244.06,-46350.953,-28851.604,-5708.5776,-34358.848,-54934.57,1586.2224
1312938.827338176,-107133.99,-80244.305,-46354.332,-28854.697,-5710.327,-34357.75,-54933.8,1590.9832
1312938.8313381705,-107135.7,-80241.09,-46357.504,-28853.68,-5707.3164,-34364.137,-54933.758,1593.7908
1312938.835338165,-107131.92,-80237.266,-46353.8,-28850.059,-5704.834,-34366.863,-54927.574,1603.2715
1312938.8393381594,-107129.52,-80237.1,-46352.785,-28848.918,-5704.9155,-34363.04,-54926.35,1606.5674
1312938.843338154,-107130.17,-80238.85,-46352.785,-28851.197,-5705.4443,-34357.34,-54928.67,1607.2185
1312938.8473381484,-107132.734,-80242.88,-46349.652,-28851.807,-5705.2,-34356.406,-54931.36,1601.1963
1312938.851338143,-107134.32,-80245.04,-46349.164,-28852.58,-5705.8105,-34366.617,-54934.777,1599.0398
1312938.8553381376,-107130.5,-80239.34,-46352.215,-28851.074,-5703.166,-34372.844,-54935.387,1601.6846
1312938.859338132,-107128.34,-80238.28,-46346.68,-28850.668,-5701.9043,-34370.566,-54934.98,1604.3295
1312938.8633381266,-107127.24,-80240.4,-46344.24,-28852.662,-5703.5728,-34363.85,-54932.008,1606.9336
1312938.867338121,-107141.16,-80246.91,-46344.16,-28856.69,-5708.8623,-34361.695,-54929.445,1612.1013
1312938.8713381155,-107134.16,-80238.2,-46350.14,-28855.104,-5703.0845,-34371.5,-54933.676,1611.8978
1312938.87533811,-107125.94,-80230.19,-46347.902,-28851.807,-5699.178,-34374.227,-54929.445,1622.518
1312938.8793381045,-107124.48,-80230.836,-46343.02,-28850.586,-5699.87,-34370.445,-54928.633,1621.6228
1312938.8833380989,-107120.04,-80236.78,-46338.79,-28852.824,-5705.2817,-34364.098,-54931.766,1612.3047
1312938.8873380935,-107126.23,-80238.734,-46339.195,-28855.877,-5706.95,-34362.348,-54932.902,1611.1248
1312938.8913380879,-107131.31,-80234.54,-46341.594,-28854.615,-5703.044,-34369.547,-54932.336,1616.9434
1312938.8953380825,-107125.734,-80229.58,-46346.316,-28852.012,-5696.3706,-34376.71,-54932.05,1621.867
1312938.8993380768,-107127.24,-80232.51,-46342.33,-28852.05,-5699.707,-34371.746,-54927.734,1632.8125
1312938.9033380714,-107133.43,-80237.836,-46338.094,-28854.9,-5705.892,-34365.36,-54930.46,1627.767
1312938.907338066,-107132.9,-80238.0,-46341.473,-28855.957,-5706.787,-34365.4,-54932.742,1620.6055
1312938.9113380604,-107133.914,-80240.195,-46344.973,-28855.55,-5707.6416,-34371.91,-54934.734,1624.0642
1312938.915338055,-107128.95,-80234.46,-46345.297,-28852.906,-5703.044,-34376.426,-54936.89,1625.2849
1312938.9193380494,-107125.49,-80233.445,-46345.176,-28851.686,-5699.87,-34375.285,-54935.875,1627.5228
1312938.923338044,-107127.52,-80235.516,-46345.703,-28854.168,-5703.125,-34367.758,-54932.945,1637.6547
1312938.9273380383,-107135.945,-80244.67,-46344.93,-28858.277,-5711.019,-34366.008,-54933.96,1634.196
1312938.931338033,-107137.984,-80243.37,-46345.785,-28857.463,-5706.9907,-34372.52,-54935.47,1628.947
1312938.9353380273,-107129.93,-80229.25,-46350.508,-28853.027,-5696.859,-34378.38,-54934.367,1632.2021
1312938.939338022,-107131.31,-80228.56,-46344.035,-28851.482,-5697.3877,-34371.625,-54929.688,1640.7878
1312938.9433380163,-107132.25,-80233.805,-46338.3,-28854.248,-5703.939,-34364.137,-54928.145,1640.2588
1312938.9473380109,-107131.31,-80237.266,-46336.426,-28856.65,-5706.95,-34362.43,-54930.055,1632.5277
1312938.9513380055,-107128.46,-80233.65,-46338.42,-28854.86,-5702.596,-34369.996,-54931.684,1636.1084
1312938.9553379999,-107128.38,-80234.83,-46338.867,-28853.354,-5701.05,-34373.82,-54928.836,1640.7471
1312938.9593379945,-107132.25,-80234.87,-46335.45,-28853.191,-5700.3584,-34370.605,-54925.906,1649.2107
1312938.9633379888,-107133.99,-80232.51,-46331.465,-28854.818,-5702.881,-34363.973,-54927.734,1652.9541
1312938.9673379834,-107130.91,-80234.83,-46332.156,-28855.957,-5703.369,-34363.04,-54928.918,1652.7507
1312938.9713379778,-107126.63,-80236.78,-46334.598,-28855.348,-5701.335,-34370.934,-54926.11,1653.6052
1312938.9753379724,-107123.664,-80235.07,-46334.676,-28852.988,-5696.0044,-34375.613,-54922.57,1662.0281
1312938.9793379668,-107125.94,-80235.6,-46334.395,-28853.312,-5694.5396,-34370.484,-54919.8,1663.1267
1312938.9833379614,-107130.17,-80236.375,-46335.086,-28855.877,-5696.208,-34366.54,-54923.383,1655.2328
1312938.9873379557,-107130.58,-80237.39,-46340.13,-28856.975,-5698.8525,-34364.258,-54919.68,1657.6335
1312938.9913379503,-107139.164,-80240.44,-46341.473,-28856.771,-5692.424,-34370.89,-54918.38,1656.1279
1312938.9953379447,-107134.93,-80231.445,-46343.465,-28854.412,-5693.5225,-34371.707,-54911.418,1670.5322
1312938.9993379393,-107131.555,-80229.05,-46339.113,-28855.389,-5692.9526,-34369.184,-54913.332,1677.8564
1312939.003337934,-107128.22,-80227.3,-46339.56,-28856.61,-5692.912,-34363.934,-54915.203,1672.8923
1312939.0073379283,-107130.82,-80236.086,-46336.59,-28858.48,-5698.242,-34365.36,-54918.54,1666.3818
1312939.011337923,-107132.45,-80234.58,-46341.434,-28857.992,-5691.6914,-34371.785,-54918.867,1667.6025
1312939.0153379173,-107133.914,-80231.33,-46347.293,-28856.121,-5677.9785,-34376.914,-54919.434,1668.0502
1312939.0193379119,-107121.016,-80227.016,-46336.47,-28853.639,-5686.361,-34373.535,-54916.465,1678.1006
1312939.0233379062,-107118.9,-80225.38,-46330.77,-28854.004,-5691.8945,-34366.457,-54910.89,1688.9648
1312939.0273379008,-107128.55,-80232.586,-46337.363,-28856.65,-5692.0166,-34366.008,-54913.168,1682.5359
1312939.0313378952,-107127.37,-80233.484,-46339.887,-28855.062,-5692.546,-34371.746,-54912.56,1681.6814
1312939.0353378898,-107120.28,-80227.26,-46337.566,-28853.395,-5688.8022,-34376.26,-54909.71,1691.2435
1312939.0393378842,-107122.195,-80228.97,-46335.246,-28854.086,-5687.0527,-34370.445,-54905.07,1696.0449
1312939.0433378788,-107128.055,-80236.25,-46333.906,-28855.836,-5689.9824,-34366.293,-54908.69,1695.6787
1312939.0473378731,-107125.62,-80234.46,-46330.28,-28855.469,-5692.912,-34366.742,-54910.035,1694.3359
1312939.0513378677,-107126.75,-80229.984,-46336.836,-28853.516,-5687.541,-34372.6,-54912.234,1685.6283
1312939.0553378623,-107128.87,-80229.125,-46338.46,-28852.5,-5685.71,-34377.035,-54910.035,1691.976
1312939.0593378567,-107130.21,-80230.47,-46335.29,-28850.953,-5685.913,-34375.367,-54908.977,1694.2953
1312939.0633378513,-107128.75,-80233.89,-46331.625,-28851.074,-5689.8604,-34371.95,-54916.016,1681.6
1312939.0673378457,-107134.766,-80238.81,-46328.777,-28853.598,-5692.912,-34370.484,-54917.523,1685.4248
1312939.0713378403,-107134.766,-80235.234,-46334.758,-28852.05,-5682.414,-34376.87,-54917.277,1684.8552
1312939.0753378347,-107127.0,-80226.93,-46333.254,-28849.895,-5681.722,-34381.797,-54916.344,1684.8145
1312939.0793378293,-107123.46,-80225.14,-46331.383,-28850.953,-5685.8726,-34379.03,-54914.758,1687.1746
1312939.0833378236,-107125.33,-80231.37,-46323.61,-28850.586,-5688.9243,-34372.844,-54917.48,1682.9427
1312939.0873378182,-107128.664,-80239.305,-46327.027,-28854.127,-5691.61,-34371.91,-54918.945,1677.3682
1312939.0913378126,-107126.75,-80236.9,-46332.684,-28852.418,-5688.9243,-34378.418,-54918.867,1679.1586
1312939.0953378072,-107134.24,-80238.85,-46335.695,-28851.768,-5681.356,-34385.945,-54923.06,1672.8109
1312939.0993378016,-107129.97,-80235.11,-46331.258,-28849.65,-5679.4844,-34382.367,-54920.695,1678.1006
1312939.1033377962,-107126.55,-80234.87,-46326.457,-28849.773,-5682.3325,-34373.984,-54914.633,1688.8835
1312939.1073377908,-107142.17,-80248.86,-46329.715,-28853.516,-5688.07,-34372.684,-54917.97,1682.0883
1312939.1113377851,-107135.46,-80236.984,-46325.074,-28850.871,-5689.7383,-34382.285,-54917.035,1688.1104
1312939.1153377797,-107131.39,-80228.31,-46326.785,-28848.186,-5682.129,-34387.41,-54915.69,1693.4814
1312939.119337774,-107130.58,-80228.516,-46323.895,-28848.309,-5683.2686,-34383.914,-54914.227,1697.7539
1312939.1233377687,-107128.7,-80230.1,-46319.01,-28848.43,-5686.9307,-34375.33,-54911.785,1695.8822
1312939.127337763,-107131.39,-80232.55,-46326.582,-28849.977,-5684.1636,-34374.84,-54913.617,1694.6615
1312939.1313377577,-107132.086,-80234.625,-46330.12,-28849.447,-5679.769,-34382.57,-54912.76,1696.6553
1312939.135337752,-107131.836,-80233.6,-46330.527,-28847.656,-5681.8037,-34388.47,-54913.086,1693.4001
1312939.1393377467,-107129.234,-80235.4,-46329.67,-28848.553,-5685.9946,-34382.773,-54910.484,1695.6787
1312939.143337741,-107128.3,-80241.336,-46325.562,-28850.383,-5684.448,-34376.59,-54911.99,1695.516
1312939.1473377356,-107132.57,-80242.8,-46325.887,-28851.727,-5687.3374,-34374.676,-54906.13,1701.4974
1312939.1513377302,-107130.45,-80238.0,-46325.523,-28850.262,-5689.0464,-34381.88,-54907.594,1699.1781
1312939.1553377246,-107128.75,-80233.93,-46328.492,-28847.78,-5681.3965,-34385.99,-54906.293,1701.6195
1312939.1593377192,-107127.32,-80233.234,-46327.15,-28848.186,-5684.9775,-34382.12,-54901.816,1711.1816
1312939.1633377136,-107129.68,-80237.63,-46320.76,-28848.959,-5689.779,-34376.426,-54904.867,1708.0892
1312939.1673377082,-107133.1,-80243.125,-46325.81,-28852.58,-5696.6553,-34374.27,-54902.793,1704.6713
1312939.1713377025,-107130.3,-80244.8,-46326.66,-28852.215,-5694.58,-34381.39,-54899.58,1715.9424
1312939.1753376971,-107127.0,-80241.54,-46325.727,-28850.627,-5688.9243,-34387.777,-54897.95,1719.808
1312939.1793376915,-107127.37,-80244.8,-46325.4,-28850.303,-5691.488,-34382.45,-54894.86,1726.6846
1312939.1833376861,-107130.21,-80248.984,-46322.266,-28851.36,-5693.0747,-34378.824,-54898.52,1722.6156
1312939.1873376805,-107128.99,-80246.42,-46319.01,-28850.303,-5692.0576,-34381.594,-54899.414,1723.4294
1312939.191337675,-107127.73,-80244.51,-46326.863,-28849.732,-5688.5176,-34388.062,-54900.72,1713.9486
1312939.1953376695,-107124.68,-80235.96,-46326.05,-28846.803,-5681.722,-34390.586,-54900.8,1708.5775
1312939.199337664,-107121.625,-80233.12,-46321.332,-28845.744,-5678.5483,-34385.742,-54896.85,1720.7031
1312939.2033376587,-107118.33,-80237.02,-46315.88,-28845.623,-5681.3154,-34379.03,-54897.137,1716.5935
1312939.207337653,-107121.51,-80243.33,-46312.91,-28847.535,-5691.7725,-34376.59,-54892.742,1723.6736
1312939.2113376476,-107121.75,-80244.836,-46315.023,-28847.535,-5689.9824,-34384.44,-54894.86,1720.4183
1312939.215337642,-107120.61,-80239.914,-46313.152,-28845.094,-5686.483,-34390.79,-54897.3,1718.0583
1312939.2193376366,-107128.91,-80240.52,-46320.56,-28844.32,-5684.4893,-34384.81,-54891.035,1721.1101
1312939.223337631,-107129.64,-80241.46,-46322.145,-28846.72,-5685.1807,-34377.44,-54886.72,1728.475
1312939.2273376256,-107133.586,-80245.85,-46321.777,-28848.023,-5684.326,-34377.89,-54889.12,1728.9633
1312939.23133762,-107130.25,-80241.87,-46325.645,-28847.088,-5682.943,-34382.242,-54888.55,1725.4232
1312939.2353376145,-107120.61,-80232.71,-46321.086,-28842.773,-5676.5137,-34389.12,-54890.953,1725.8708
1312939.239337609,-107114.055,-80231.28,-46312.01,-28842.326,-5677.9785,-34388.145,-54887.332,1729.7363
1312939.2433376035,-107115.73,-80235.555,-46316.734,-28846.355,-5680.176,-34380.008,-54882.652,1739.2172
1312939.247337598,-107124.96,-80240.52,-46320.883,-28848.47,-5680.827,-34378.703,-54883.18,1736.1654
1312939.2513375925,-107124.64,-80234.055,-46320.07,-28845.867,-5683.3906,-34383.87,-54880.617,1740.1123
1312939.255337587,-107123.17,-80235.555,-46319.336,-28845.053,-5679.24,-34389.773,-54883.426,1738.1185
1312939.2593375815,-107121.87,-80238.41,-46322.43,-28845.867,-5678.0195,-34387.574,-54883.586,1739.0137
1312939.263337576,-107121.26,-80242.555,-46320.56,-28848.186,-5681.722,-34378.824,-54880.535,1741.2517
1312939.2673375704,-107125.2,-80245.65,-46316.367,-28850.547,-5689.7383,-34378.906,-54877.77,1743.6523
1312939.271337565,-107128.75,-80246.75,-46315.066,-28849.0,-5682.129,-34387.98,-54879.68,1740.5193
1312939.2753375594,-107122.69,-80244.836,-46316.164,-28845.459,-5676.229,-34394.734,-54881.918,1738.322
1312939.279337554,-107121.914,-80239.016,-46312.215,-28843.14,-5677.572,-34389.527,-54879.52,1746.0531
1312939.2833375484,-107127.81,-80250.41,-46318.2,-28848.145,-5684.774,-34380.984,-54878.99,1741.3738
1312939.287337543,-107133.14,-80260.09,-46318.77,-28851.074,-5693.319,-34381.96,-54875.938,1745.28
1312939.2913375373,-107133.75,-80252.56,-46316.57,-28849.365,-5684.5703,-34390.625,-54878.906,1739.9496
1312939.295337532,-107118.086,-80228.6,-46319.133,-28843.223,-5671.0205,-34395.02,-54878.34,1742.1875
1312939.2993375263,-107125.2,-80237.305,-46315.555,-28843.547,-5671.8345,-34389.49,-54877.035,1737.4268
1312939.303337521,-107126.95,-80248.13,-46295.207,-28844.85,-5683.431,-34385.867,-54886.027,1730.9978
1312939.3073375155,-107121.55,-80240.73,-46306.113,-28845.256,-5679.281,-34385.418,-54883.098,1738.4033
1312939.31133751,-107124.27,-80236.53,-46319.54,-28845.053,-5671.4683,-34387.695,-54875.082,1749.2269
1312939.3153375045,-107119.19,-80228.766,-46317.305,-28843.344,-5664.2256,-34392.375,-54875.164,1748.8201
1312939.3193374989,-107101.89,-80221.48,-46303.266,-28839.967,-5676.3916,-34387.613,-54872.277,1757.0394
1312939.3233374935,-107113.04,-80238.24,-46300.66,-28844.238,-5684.9775,-34381.715,-54878.664,1745.931
1312939.3273374878,-107119.8,-80245.61,-46295.25,-28845.135,-5683.065,-34380.777,-54878.906,1748.5759
1312939.3313374824,-107118.78,-80229.49,-46315.715,-28844.443,-5672.16,-34386.355,-54872.766,1753.7435
1312939.3353374768,-107116.13,-80231.61,-46314.047,-28844.564,-5679.403,-34390.3,-54868.816,1761.1898
1312939.3393374714,-107110.805,-80232.1,-46308.555,-28844.035,-5681.1934,-34387.25,-54870.242,1758.2601
1312939.3433374658,-107116.87,-80231.49,-46306.926,-28844.117,-5677.246,-34378.62,-54871.094,1763.2244
1312939.3473374604,-107113.85,-80230.266,-46302.574,-28843.914,-5678.752,-34378.094,-54870.363,1758.3008
1312939.3513374547,-107106.77,-80228.84,-46297.69,-28841.797,-5675.537,-34385.05,-54869.062,1755.9408
1312939.3553374493,-107103.64,-80220.26,-46311.32,-28841.635,-5673.1772,-34386.56,-54858.684,1768.9209
1312939.359337444,-107105.88,-80215.82,-46309.695,-28841.432,-5672.933,-34379.926,-54854.7,1776.2451
1312939.3633374383,-107112.19,-80232.51,-46300.54,-28844.035,-5681.885,-34369.14,-54855.43,1770.7927
1312939.367337433,-107121.75,-80238.0,-46299.6,-28846.111,-5681.722,-34369.14,-54856.242,1767.6189
1312939.3713374273,-107119.63,-80229.375,-46313.438,-28846.191,-5677.7754,-34372.926,-54851.848,1769.165
1312939.375337422,-107119.51,-80229.17,-46308.066,-28845.42,-5680.9897,-34375.938,-54847.656,1779.3376
1312939.3793374163,-107117.6,-80226.484,-46306.844,-28843.262,-5677.7754,-34368.41,-54845.746,1780.1107
1312939.3833374109,-107113.734,-80231.28,-46310.47,-28845.094,-5677.4497,-34360.35,-54846.477,1784.5867
1312939.3873374052,-107119.555,-80240.805,-46306.4,-28846.844,-5674.1943,-34360.516,-54846.355,1785.0342
1312939.3913373998,-107114.18,-80231.37,-46312.95,-28847.78,-5680.217,-34366.008,-54843.59,1785.8074
1312939.3953373942,-107107.99,-80226.12,-46305.3,-28845.256,-5675.2524,-34370.89,-54846.477,1782.1859
1312939.3993373888,-107109.46,-80228.84,-46300.418,-28845.785,-5678.4263,-34364.258,-54843.305,1786.6619
1312939.4033373834,-107109.7,-80226.08,-46299.93,-28846.64,-5681.844,-34356.934,-54845.99,1783.4473
1312939.4073373778,-107119.59,-80236.66,-46296.797,-28848.35,-5684.9365,-34356.85,-54849.734,1777.0996
1312939.4113373724,-107121.46,-80233.73,-46297.04,-28848.43,-5682.7803,-34364.625,-54856.812,1763.7126
1312939.4153373668,-107112.555,-80223.31,-46304.65,-28845.988,-5677.368,-34366.58,-54850.996,1775.2686
1312939.4193373614,-107101.36,-80223.836,-46302.45,-28844.482,-5673.828,-34361.94,-54851.36,1774.7396
1312939.4233373557,-107088.95,-80229.05,-46286.5,-28843.467,-5680.786,-34357.625,-54856.812,1766.1133
1312939.4273373503,-107096.88,-80221.44,-46296.266,-28845.297,-5679.8096,-34355.754,-54851.035,1771.6472
1312939.4313373447,-107105.35,-80221.93,-46301.72,-28845.744,-5674.4795,-34362.67,-54848.918,1775.1465
1312939.4353373393,-107101.69,-80222.91,-46297.08,-28844.28,-5671.672,-34366.617,-54847.863,1777.9949
1312939.4393373337,-107099.164,-80221.03,-46291.992,-28843.547,-5672.7705,-34358.805,-54846.273,1781.2908
1312939.4433373283,-107106.04,-80219.85,-46294.598,-28845.703,-5674.3574,-34353.8,-54847.09,1777.9135
1312939.4473373226,-107105.06,-80222.13,-46290.69,-28846.518,-5678.06,-34354.574,-54847.7,1777.6693
1312939.4513373172,-107100.55,-80220.38,-46293.01,-28845.176,-5675.537,-34361.86,-54845.95,1778.9307
1312939.4553373118,-107100.14,-80217.77,-46297.49,-28843.791,-5671.224,-34364.383,-54840.945,1786.8652
1312939.4593373062,-107104.86,-80221.11,-46293.094,-28846.191,-5671.9565,-34358.4,-54838.098,1796.7937
1312939.4633373008,-107093.875,-80222.62,-46287.926,-28845.297,-5677.4497,-34350.547,-54835.246,1796.5496
1312939.4673372952,-107097.01,-80226.484,-46283.082,-28844.809,-5674.4795,-34351.074,-54839.234,1783.1625
1312939.4713372898,-107111.375,-80228.56,-46287.926,-28844.443,-5664.2256,-34357.504,-54837.73,1790.2019
1312939.4753372842,-107096.56,-80214.16,-46290.527,-28840.617,-5666.4634,-34361.086,-54836.633,1794.1895
1312939.4793372788,-107100.305,-80220.38,-46285.44,-28840.049,-5665.3647,-34357.91,-54837.65,1795.9392
