timestamp,Fp1,Fp2,F3,Fz,F4,Cz,Pz,Oz
1312976.667286098,-107547.125,-78967.61,-44642.254,-28346.6,-4748.2505,-32905.477,-52948.69,1217.1631
1312976.6712860924,-107545.21,-78963.26,-44644.125,-28343.67,-4745.158,-32909.586,-52948.367,1219.279
1312976.675286087,-107542.52,-78962.24,-44640.504,-28343.506,-4746.135,-32904.746,-52946.453,1219.93
1312976.6792860813,-107542.04,-78964.805,-44638.43,-28346.232,-4747.8438,-32894.86,-52947.023,1217.0004
1312976.683286076,-107545.945,-78968.18,-44640.465,-28347.656,-4751.2207,-32893.027,-52948.855,1211.4666
1312976.6872860705,-107544.516,-78968.18,-44641.93,-28347.453,-4751.872,-32901.246,-52953.94,1201.0906
1312976.691286065,-107540.57,-78965.82,-44641.562,-28346.232,-4750.692,-32907.918,-52953.9,1200.6836
1312976.6952860595,-107533.98,-78964.32,-44639.61,-28345.053,-4751.5464,-32905.234,-52952.35,1206.0955
1312976.699286054,-107541.836,-78967.77,-44638.51,-28346.72,-4754.354,-32895.47,-52955.895,1200.5615
1312976.7032860485,-107546.555,-78972.05,-44638.062,-28347.738,-4755.697,-32893.96,-52957.848,1192.3422
1312976.7072860429,-107542.766,-78968.43,-44638.023,-28346.72,-4752.5635,-32902.793,-52957.93,1192.9932
1312976.7112860375,-107544.92,-78966.76,-44641.562,-28345.42,-4747.274,-32909.02,-52958.254,1192.2201
1312976.7152860318,-107547.41,-78966.516,-44640.016,-28346.152,-4745.8906,-32904.99,-52959.11,1192.3422
1312976.7192860264,-107548.38,-78967.82,-44637.207,-28348.959,-4750.7324,-32895.184,-52956.465,1197.6318
1312976.7232860208,-107547.49,-78972.17,-44637.004,-28352.783,-4754.5166,-32892.09,-52953.74,1201.2126
1312976.7272860154,-107550.01,-78971.516,-44640.016,-28352.012,-4751.6685,-32898.355,-52951.54,1203.532
1312976.7312860098,-107545.66,-78962.445,-44638.67,-28349.488,-4743.408,-32902.875,-52952.35,1202.6775
1312976.7352860044,-107541.14,-78958.414,-44635.664,-28347.982,-4741.781,-32897.543,-52951.01,1206.8685
1312976.739285999,-107544.44,-78965.5,-44632.652,-28348.959,-4746.257,-32886.19,-52946.047,1214.4369
1312976.7432859933,-107544.31,-78964.44,-44631.918,-28350.586,-4747.7217,-32884.195,-52944.38,1219.3604
1312976.747285988,-107541.79,-78957.36,-44633.223,-28348.389,-4744.1816,-32891.156,-52943.32,1219.4011
1312976.7512859823,-107542.08,-78954.71,-44632.45,-28348.227,-4738.485,-32896.566,-52942.793,1217.6107
1312976.755285977,-107541.67,-78956.75,-44630.453,-28348.633,-4738.2,-32890.668,-52939.21,1230.835
1312976.7592859713,-107543.42,-78960.01,-44625.938,-28348.877,-4741.699,-32880.82,-52939.617,1229.5736
1312976.763285966,-107542.28,-78959.44,-44625.613,-28349.326,-4743.2456,-32879.723,-52941.203,1224.9349
1312976.7672859603,-107538.984,-78953.82,-44627.44,-28348.268,-4740.6006,-32888.227,-52942.63,1222.1273
1312976.7712859549,-107532.23,-78949.305,-44627.24,-28344.97,-4738.2,-32893.637,-52940.758,1223.5922
1312976.7752859492,-107529.3,-78951.664,-44625.938,-28345.5,-4738.8916,-32888.67,-52939.414,1226.6033
1312976.7792859438,-107544.44,-78955.33,-44626.02,-28349.406,-4740.3564,-32880.13,-52940.84,1223.9177
1312976.7832859384,-107546.555,-78957.73,-44626.832,-28350.262,-4739.8276,-32877.848,-52938.6,1227.4578
1312976.7872859328,-107541.34,-78954.305,-44630.617,-28347.78,-4735.2295,-32884.727,-52937.582,1229.5736
1312976.7912859274,-107531.3,-78948.695,-44630.574,-28344.482,-4729.696,-32889.04,-52935.59,1227.7426
1312976.7952859218,-107532.19,-78952.4,-44628.297,-28346.396,-4732.015,-32883.344,-52934.41,1232.015
1312976.7992859164,-107543.79,-78959.59,-44625.41,-28348.674,-4736.9795,-32875.734,-52935.63,1228.3936
1312976.8032859107,-107546.96,-78957.4,-44626.02,-28349.895,-4738.6885,-32875.938,-52939.496,1223.999
1312976.8072859053,-107541.38,-78953.29,-44628.95,-28348.553,-4736.6943,-32885.906,-52943.727,1220.7031
1312976.8112858997,-107532.31,-78950.28,-44628.055,-28346.477,-4734.253,-32890.79,-52945.234,1215.617
1312976.8152858943,-107533.164,-78952.27,-44625.45,-28344.97,-4732.422,-32884.44,-52944.582,1217.8549
1312976.8192858887,-107541.1,-78963.3,-44626.914,-28349.488,-4738.1187,-32876.832,-52943.605,1219.4824
1312976.8232858833,-107546.72,-78969.81,-44630.902,-28353.11,-4742.5947,-32876.344,-52944.582,1213.623
1312976.8272858777,-107547.164,-78965.336,-44631.51,-28351.686,-4739.8276,-32886.434,-52943.973,1215.4135
1312976.8312858723,-107540.86,-78957.805,-44628.38,-28348.715,-4735.6772,-32894.33,-52945.312,1217.5293
1312976.8352858669,-107538.7,-78958.7,-44625.082,-28347.941,-4736.898,-32890.055,-52945.477,1219.1162
1312976.8392858612,-107539.06,-78965.5,-44620.605,-28350.506,-4741.252,-32879.56,-52941.246,1219.808
1312976.8432858558,-107538.984,-78966.84,-44620.605,-28351.97,-4741.4146,-32877.77,-52943.117,1218.2211
1312976.8472858502,-107533.33,-78959.96,-44621.34,-28349.895,-4736.1655,-32887.004,-52945.312,1218.4246
1312976.8512858448,-107524.984,-78954.266,-44619.71,-28345.785,-4732.2593,-32894.33,-52945.64,1217.8549
1312976.8552858392,-107524.54,-78953.414,-44616.945,-28344.402,-4732.788,-32890.586,-52944.094,1225.0164
1312976.8592858338,-107528.65,-78952.195,-44614.992,-28345.215,-4735.067,-32880.86,-52944.62,1222.9412
1312976.8632858281,-107531.25,-78955.89,-44616.984,-28348.145,-4738.2407,-32879.11,-52946.168,1220.459
1312976.8672858228,-107532.59,-78952.07,-44621.42,-28347.535,-4736.5723,-32887.74,-52948.367,1216.3086
1312976.8712858171,-107526.62,-78942.875,-44619.1,-28343.385,-4730.876,-32891.93,-52948.367,1211.8328
1312976.8752858117,-107519.25,-78940.516,-44611.9,-28341.105,-4727.9053,-32886.273,-52946.13,1216.7969
1312976.879285806,-107521.2,-78945.88,-44611.043,-28343.914,-4732.463,-32879.355,-52947.43,1216.0645
1312976.8832858007,-107524.87,-78948.9,-44613.324,-28346.844,-4735.5146,-32878.46,-52944.867,1221.3949
1312976.8872857953,-107526.82,-78946.414,-44619.996,-28346.396,-4732.2593,-32884.97,-52940.51,1228.8818
1312976.8912857897,-107522.016,-78937.586,-44618.98,-28342.082,-4724.365,-32887.047,-52938.723,1225.9115
1312976.8952857843,-107514.77,-78935.914,-44615.766,-28341.146,-4723.877,-32883.465,-52936.117,1234.904
1312976.8992857786,-107517.17,-78938.16,-44611.613,-28343.344,-4726.888,-32875.125,-52933.84,1238.851
1312976.9032857732,-107519.21,-78941.77,-44610.395,-28344.727,-4729.6553,-32872.273,-52934.57,1237.7523
1312976.9072857676,-107518.516,-78940.06,-44613.566,-28342.896,-4726.4814,-32880.7,-52935.547,1235.5144
1312976.9112857622,-107513.836,-78937.83,-44616.457,-28342.773,-4722.453,-32887.37,-52940.227,1228.9633
1312976.9152857566,-107513.35,-78941.04,-44618.367,-28343.955,-4723.1445,-32884.074,-52940.31,1228.5156
1312976.9192857512,-107523.28,-78944.22,-44619.63,-28346.07,-4724.9756,-32874.39,-52940.758,1224.0804
1312976.9232857455,-107537.07,-78948.734,-44621.258,-28348.145,-4727.2544,-32870.688,-52939.168,1224.6094
1312976.9272857402,-107536.38,-78949.75,-44624.188,-28348.023,-4725.7896,-32878.258,-52937.91,1226.6439
1312976.9312857345,-107529.5,-78942.875,-44619.1,-28344.443,-4720.256,-32880.82,-52935.914,1232.6254
1312976.9352857291,-107530.69,-78944.13,-44615.6,-28343.71,-4722.046,-32876.14,-52935.957,1228.7191
1312976.9392857237,-107530.64,-78952.72,-44615.562,-28346.232,-4728.9634,-32868.734,-52937.38,1226.6439
1312976.943285718,-107534.23,-78958.01,-44617.758,-28349.326,-4732.015,-32868.816,-52940.96,1217.4072
1312976.9472857127,-107534.8,-78952.92,-44619.344,-28347.697,-4731.079,-32880.21,-52947.43,1201.9451
1312976.951285707,-107531.62,-78948.41,-44619.426,-28343.303,-4727.2544,-32886.19,-52946.656,1205.7699
1312976.9552857017,-107532.92,-78949.83,-44616.336,-28341.229,-4727.214,-32877.77,-52941.406,1220.9473
1312976.959285696,-107534.18,-78953.9,-44616.133,-28343.832,-4729.289,-32867.312,-52941.45,1222.7377
1312976.9632856906,-107536.09,-78956.625,-44617.72,-28346.191,-4730.632,-32867.516,-52944.01,1216.3494
1312976.967285685,-107530.52,-78951.17,-44619.63,-28344.443,-4726.8477,-32876.914,-52942.426,1212.4838
1312976.9712856796,-107531.945,-78944.22,-44617.88,-28341.838,-4722.9004,-32879.68,-52936.65,1222.0052
1312976.975285674,-107533.94,-78945.36,-44615.48,-28343.547,-4725.3013,-32872.6,-52927.695,1244.3848
1312976.9792856686,-107533.695,-78952.195,-44612.633,-28345.785,-4728.8413,-32861.043,-52924.44,1250.1221
1312976.9832856632,-107532.59,-78953.62,-44613.61,-28346.803,-4727.539,-32859.215,-52927.492,1238.4441
1312976.9872856576,-107525.48,-78944.87,-44615.48,-28344.809,-4722.453,-32868.98,-52929.527,1240.3972
1312976.9912856522,-107526.21,-78938.84,-44616.457,-28342.611,-4718.872,-32874.918,-52925.375,1250.2441
1312976.9952856465,-107527.19,-78940.76,-44613.406,-28342.938,-4720.093,-32870.242,-52925.293,1248.0062
1312976.9992856411,-107522.875,-78942.51,-44609.66,-28344.361,-4724.813,-32861.207,-52925.17,1247.1924
1312977.0032856355,-107523.16,-78944.625,-44608.645,-28344.688,-4726.3184,-32859.824,-52924.848,1247.7214
1312977.00728563,-107523.16,-78941.9,-44611.695,-28343.385,-4720.5,-32870.65,-52928.957,1241.6179
1312977.0112856245,-107516.484,-78937.91,-44611.613,-28342.041,-4717.0005,-32877.645,-52929.85,1240.3158
1312977.015285619,-107517.46,-78939.78,-44608.727,-28341.92,-4717.2446,-32872.07,-52929.89,1241.9841
1312977.0192856134,-107521.445,-78944.13,-44607.016,-28344.402,-4720.622,-32863.61,-52933.23,1235.555
1312977.023285608,-107522.586,-78945.07,-44607.75,-28345.908,-4721.4766,-32863.242,-52934.004,1231.9336
1312977.0272856024,-107528.85,-78944.17,-44612.996,-28346.844,-4721.0693,-32872.273,-52935.344,1229.533
1312977.031285597,-107523.16,-78935.38,-44612.062,-28343.71,-4716.3496,-32877.89,-52935.426,1232.666
1312977.0352855916,-107516.766,-78931.64,-44607.098,-28340.943,-4714.5996,-32873.09,-52933.188,1236.1248
1312977.039285586,-107519.01,-78938.56,-44603.76,-28344.2,-4719.8896,-32865.03,-52932.17,1237.3861
1312977.0432855806,-107522.586,-78939.414,-44602.906,-28345.988,-4721.965,-32863.812,-52929.973,1242.3096
1312977.047285575,-107517.91,-78935.67,-44605.594,-28344.158,-4718.506,-32871.785,-52933.92,1230.306
1312977.0512855696,-107507.61,-78929.484,-44603.883,-28339.805,-4714.7217,-32876.63,-52933.23,1235.8398
1312977.055285564,-107511.27,-78928.1,-44599.49,-28339.844,-4715.78,-32870.688,-52927.492,1244.5476
1312977.0592855585,-107521.125,-78932.984,-44597.25,-28343.059,-4719.93,-32861.043,-52923.668,1247.3959
1312977.063285553,-107519.62,-78932.87,-44597.13,-28342.326,-4720.825,-32856.812,-52922.285,1247.8027
1312977.0672855475,-107520.305,-78932.09,-44600.586,-28341.35,-4718.1396,-32864.098,-52923.26,1248.3318
1312977.0712855419,-107512.58,-78929.12,-44599.938,-28338.99,-4715.0474,-32870.523,-52924.24,1248.0876
1312977.0752855365,-107509.97,-78927.49,-44599.977,-28338.787,-4714.3555,-32865.64,-52920.25,1261.8002
1312977.0792855308,-107512.945,-78933.27,-44599.812,-28340.414,-4717.3667,-32856.85,-52916.18,1267.7816
1312977.0832855254,-107516.65,-78939.945,-44601.688,-28342.734,-4719.6045,-32856.527,-52917.48,1264.323
1312977.08728552,-107525.555,-78939.01,-44606.773,-28342.734,-4719.6455,-32864.664,-52919.395,1260.3353
1312977.0912855144,-107522.71,-78934.125,-44607.992,-28339.396,-4717.6924,-32870.973,-52919.19,1259.6029
1312977.095285509,-107518.27,-78929.81,-44607.625,-28338.34,-4714.193,-32869.184,-52924.03,1250.4476
1312977.0992855034,-107520.35,-78932.13,-44606.65,-28340.74,-4714.9253,-32862.145,-52928.633,1238.1185
1312977.103285498,-107524.09,-78937.55,-44606.65,-28341.92,-4717.5703,-32862.633,-52931.152,1231.9336
1312977.1072854924,-107521.484,-78934.695,-44607.547,-28340.496,-4714.3965,-32868.938,-52929.242,1235.1482
1312977.111285487,-107515.016,-78930.016,-44606.977,-28337.89,-4709.758,-32873.21,-52925.66,1240.8855
1312977.1152854813,-107513.31,-78932.01,-44603.11,-28336.346,-4712.362,-32867.27,-52923.3,1247.3145
1312977.119285476,-107520.1,-78932.91,-44601.645,-28337.322,-4713.7046,-32859.418,-52925.54,1243.0013
1312977.1232854703,-107520.15,-78935.18,-44602.824,-28338.014,-4714.315,-32859.215,-52928.1,1236.9792
1312977.127285465,-107517.664,-78934.29,-44604.453,-28334.596,-4711.7515,-32867.39,-52929.363,1237.1013
1312977.1312854593,-107522.055,-78933.27,-44604.98,-28333.293,-4708.496,-32873.617,-52929.65,1238.1185
1312977.1352854539,-107518.97,-78930.664,-44602.094,-28332.56,-4707.4385,-32868.41,-52929.04,1237.142
1312977.1392854485,-107520.92,-78935.34,-44599.977,-28333.701,-4710.9375,-32858.277,-52925.375,1246.867
1312977.1432854428,-107520.8,-78940.11,-44598.27,-28335.043,-4713.0127,-32856.406,-52922.445,1249.1863
1312977.1472854374,-107523.195,-78935.266,-44600.71,-28334.922,-4709.9204,-32865.234,-52925.906,1240.3972
1312977.1512854318,-107518.07,-78927.57,-44599.895,-28331.34,-4706.787,-32871.746,-52925.984,1243.9373
1312977.1552854264,-107510.91,-78925.21,-44594.32,-28329.184,-4707.8047,-32866.7,-52925.945,1246.6635
1312977.1592854208,-107512.54,-78931.48,-44592.367,-28331.096,-4712.6465,-32857.098,-52924.684,1245.4021
1312977.1632854154,-107516.97,-78934.53,-44594.89,-28333.496,-4713.8267,-32856.363,-52925.496,1244.1814
1312977.1672854098,-107516.73,-78929.77,-44595.83,-28331.584,-4707.8857,-32865.316,-52927.777,1240.7634
1312977.1712854044,-107511.766,-78922.98,-44593.06,-28328.777,-4703.288,-32869.508,-52927.33,1243.7338
1312977.1752853987,-107504.03,-78919.64,-44589.4,-28327.148,-4701.538,-32865.848,-52927.29,1244.1814
1312977.1792853933,-107505.3,-78920.125,-44589.844,-28327.963,-4703.7354,-32857.098,-52928.145,1240.3972
1312977.1832853877,-107514.33,-78919.234,-44593.465,-28330.527,-4704.0205,-32855.47,-52927.9,1240.3564
1312977.1872853823,-107516.04,-78917.28,-44597.25,-28327.842,-4699.829,-32865.03,-52931.684,1229.2888
1312977.191285377,-107508.67,-78919.15,-44597.332,-28325.684,-4701.05,-32872.07,-52933.637,1228.5156
1312977.1952853713,-107516.6,-78922.08,-44595.215,-28327.271,-4702.7183,-32865.195,-52932.13,1231.8115
1312977.1992853659,-107518.68,-78927.29,-44593.953,-28329.916,-4705.8105,-32856.406,-52927.9,1235.433
1312977.2032853602,-107512.78,-78927.86,-44592.938,-28329.102,-4706.584,-32852.336,-52921.43,1243.042
1312977.2072853548,-107511.805,-78924.08,-44595.297,-28326.742,-4704.2236,-32858.645,-52918.582,1248.3318
1312977.2112853492,-107507.164,-78916.79,-44593.793,-28322.51,-4699.3003,-32863.65,-52916.832,1252.7263
1312977.2152853438,-107505.58,-78919.92,-44591.473,-28321.574,-4700.8057,-32859.457,-52914.676,1257.5684
1312977.2192853382,-107513.39,-78923.1,-44591.92,-28324.139,-4703.8574,-32852.176,-52913.21,1256.1849
1312977.2232853328,-107511.48,-78919.72,-44592.57,-28326.336,-4705.4854,-32851.402,-52914.676,1248.9421
1312977.2272853272,-107503.99,-78916.99,-44591.96,-28323.936,-4704.834,-32858.562,-52913.617,1255.2084
1312977.2312853218,-107504.64,-78910.766,-44591.758,-28320.312,-4700.5615,-32861.777,-52912.477,1254.9236
1312977.2352853164,-107508.34,-78913.25,-44590.863,-28319.947,-4701.9043,-32856.73,-52912.355,1251.2615
1312977.2392853107,-107509.97,-78921.555,-44588.582,-28322.43,-4707.1533,-32846.883,-52912.03,1254.0283
1312977.2432853053,-107506.39,-78922.484,-44586.426,-28322.43,-4707.8047,-32845.46,-52913.168,1241.74
1312977.2472852997,-107497.03,-78916.586,-44585.574,-28320.8,-4704.631,-32853.273,-52912.8,1237.915
1312977.2512852943,-107498.74,-78911.79,-44585.125,-28318.32,-4700.9277,-32855.51,-52908.164,1246.9076
1312977.2552852887,-107502.32,-78910.52,-44583.008,-28318.564,-4701.986,-32849.164,-52903.566,1257.6091
1312977.2592852833,-107491.87,-78909.63,-44578.695,-28318.36,-4702.1484,-32840.13,-52904.625,1250.8545
1312977.2632852776,-107491.5,-78909.14,-44579.062,-28318.93,-4701.416,-32836.793,-52906.66,1245.0359
1312977.2672852722,-107491.7,-78904.87,-44583.336,-28318.686,-4695.4756,-32844.2,-52909.02,1239.9496
1312977.2712852666,-107492.92,-78900.07,-44582.195,-28315.635,-4691.6504,-32846.52,-52905.234,1246.5007
1312977.2752852612,-107493.86,-78900.15,-44578.74,-28314.941,-4692.668,-32840.13,-52904.582,1245.28
1312977.2792852556,-107494.555,-78904.18,-44576.906,-28316.244,-4695.7197,-32830.77,-52906.13,1237.2234
1312977.2832852502,-107499.07,-78906.5,-44579.918,-28318.848,-4697.51,-32828.33,-52906.332,1236.6943
1312977.2872852448,-107498.62,-78907.15,-44584.84,-28318.93,-4695.2314,-32833.54,-52902.508,1240.8855
1312977.2912852392,-107490.69,-78901.734,-44583.457,-28314.494,-4691.732,-32834.516,-52896.77,1247.4773
1312977.2952852338,-107486.05,-78901.94,-44582.195,-28314.902,-4691.325,-32826.742,-52894.695,1252.9705
1312977.2992852281,-107488.65,-78907.31,-44581.992,-28317.871,-4695.394,-32817.465,-52897.055,1245.7275
1312977.3032852227,-107491.78,-78910.2,-44584.27,-28320.354,-4695.842,-32818.24,-52901.082,1233.6833
1312977.307285217,-107500.66,-78906.45,-44588.95,-28319.541,-4693.929,-32826.945,-52904.42,1231.6488
1312977.3112852117,-107500.25,-78902.06,-44589.152,-28317.627,-4689.575,-32832.52,-52904.46,1231.4861
1312977.315285206,-107498.82,-78904.22,-44586.426,-28318.115,-4690.796,-32825.074,-52897.258,1244.9545
1312977.3192852007,-107506.27,-78911.055,-44587.08,-28320.883,-4695.516,-32815.555,-52893.312,1249.8373
1312977.323285195,-107506.59,-78911.7,-44588.055,-28321.29,-4698.8936,-32813.52,-52892.54,1250.407
1312977.3272851896,-107504.48,-78909.18,-44591.39,-28321.006,-4697.551,-32821.13,-52892.78,1248.9421
1312977.331285184,-107498.62,-78905.234,-44591.51,-28319.541,-4693.034,-32826.336,-52894.656,1245.158
1312977.3352851786,-107494.34,-78908.53,-44588.055,-28320.518,-4696.289,-32820.8,-52893.434,1249.0234
1312977.3392851732,-107499.555,-78915.695,-44589.64,-28324.586,-4702.4336,-32812.582,-52892.66,1250.9359
1312977.3432851676,-107505.375,-78920.17,-44589.684,-28325.562,-4703.6543,-32811.44,-52892.62,1251.4648
1312977.3472851622,-107504.32,-78918.13,-44592.246,-28323.812,-4701.05,-32821.617,-52896.566,1242.6351
1312977.3512851566,-107496.99,-78911.7,-44589.316,-28320.762,-4698.2017,-32825.81,-52897.22,1247.1111
1312977.3552851512,-107494.305,-78909.06,-44584.758,-28319.988,-4699.1377,-32818.89,-52898.195,1246.0125
1312977.3592851455,-107496.016,-78911.625,-44582.195,-28320.762,-4701.4976,-32812.297,-52902.508,1241.2109
1312977.3632851401,-107493.58,-78915.9,-44583.336,-28320.477,-4702.3926,-32813.438,-52904.91,1241.4144
1312977.3672851345,-107491.74,-78914.47,-44584.312,-28320.842,-4700.4805,-32823.16,-52907.594,1239.9496
1312977.371285129,-107486.58,-78907.63,-44584.598,-28317.627,-4696.533,-32829.67,-52913.047,1231.9336
1312977.3752851235,-107489.016,-78908.164,-44582.766,-28318.076,-4694.499,-32823.406,-52912.965,1234.5785
1312977.379285118,-107493.82,-78914.15,-44582.156,-28321.738,-4697.4287,-32817.547,-52916.87,1227.946
1312977.3832851124,-107493.25,-78915.77,-44581.668,-28320.598,-4699.26,-32816.203,-52915.773,1229.8992
1312977.387285107,-107490.03,-78909.75,-44583.457,-28318.848,-4694.2954,-32824.79,-52918.582,1221.8425
1312977.3912851017,-107487.35,-78906.86,-44585.246,-28316.406,-4689.575,-32828.74,-52918.824,1217.6921
1312977.395285096,-107487.67,-78912.31,-44581.383,-28316.123,-4692.4644,-32820.68,-52913.29,1229.9805
1312977.3992850906,-107490.805,-78918.91,-44579.145,-28318.238,-4696.981,-32813.273,-52912.234,1232.2592
1312977.403285085,-107497.6,-78918.016,-44580.85,-28319.256,-4697.2656,-32810.06,-52909.793,1235.3923
1312977.4072850796,-107500.734,-78911.91,-44584.312,-28317.709,-4694.702,-32818.484,-52911.95,1226.766
1312977.411285074,-107492.31,-78907.11,-44582.6,-28313.232,-4689.8604,-32824.75,-52913.29,1224.3652
1312977.4152850686,-107484.91,-78908.98,-44578.004,-28313.518,-4690.023,-32819.824,-52911.95,1231.6488
1312977.419285063,-107485.07,-78912.44,-44575.766,-28314.697,-4693.2373,-32809.49,-52908.45,1240.4785
1312977.4232850575,-107490.16,-78914.72,-44579.633,-28317.262,-4694.865,-32809.043,-52907.676,1243.2048
1312977.427285052,-107487.8,-78908.49,-44580.406,-28315.47,-4690.3486,-32815.145,-52904.094,1246.7855
1312977.4312850465,-107474.164,-78900.76,-44575.48,-28311.605,-4685.954,-32820.027,-52903.85,1247.5994
1312977.435285041,-107478.68,-78905.11,-44574.87,-28313.232,-4690.389,-32816.855,-52905.887,1246.5007
1312977.4392850355,-107483.97,-78907.39,-44572.227,-28315.512,-4693.807,-32809.0,-52906.66,1244.6289
1312977.44328503,-107480.43,-78906.3,-44574.14,-28316.162,-4695.3125,-32807.7,-52904.582,1249.9594
1312977.4472850244,-107479.91,-78906.91,-44575.523,-28313.682,-4691.325,-32816.043,-52905.6,1250.529
1312977.451285019,-107479.01,-78901.77,-44574.586,-28311.035,-4687.5,-32819.5,-52906.82,1247.3145
1312977.4552850134,-107471.07,-78900.59,-44571.74,-28310.059,-4689.5347,-32814.453,-52906.66,1253.2146
1312977.459285008,-107476.04,-78905.4,-44570.312,-28311.402,-4693.6445,-32806.887,-52906.78,1250.2035
1312977.4632850024,-107486.05,-78907.72,-44570.883,-28312.826,-4694.092,-32807.902,-52909.75,1239.2578
1312977.467284997,-107486.82,-78902.75,-44572.55,-28310.223,-4690.145,-32817.953,-52910.156,1237.1013
1312977.4712849914,-107480.96,-78898.56,-44571.86,-28308.066,-4685.6284,-32822.023,-52908.406,1244.222
1312977.475284986,-107474.53,-78894.62,-44570.8,-28305.95,-4682.9023,-32816.45,-52908.53,1245.4834
1312977.4792849803,-107486.945,-78902.47,-44571.453,-28309.979,-4688.8022,-32808.84,-52907.676,1248.2097
1312977.483284975,-107494.14,-78905.68,-44573.324,-28313.518,-4688.314,-32808.676,-52909.63,1242.7979
1312977.4872849695,-107485.516,-78900.555,-44575.24,-28310.426,-4683.6753,-32817.75,-52913.453,1236.3281
1312977.491284964,-107474.2,-78895.43,-44571.37,-28306.56,-4676.5547,-32822.184,-52912.355,1241.0076
1312977.4952849585,-107467.0,-78890.38,-44566.33,-28306.072,-4676.107,-32813.883,-52911.703,1244.6697
1312977.4992849529,-107475.95,-78894.9,-44564.863,-28308.799,-4680.42,-32805.34,-52909.87,1243.042
1312977.5032849475,-107481.94,-78894.94,-44565.39,-28308.635,-4679.647,-32803.71,-52909.547,1238.7695
1312977.5072849419,-107480.96,-78892.5,-44567.668,-28308.188,-4676.677,-32812.34,-52908.0,1243.0013
1312977.5112849365,-107473.31,-78889.41,-44566.773,-28305.543,-4673.991,-32816.938,-52906.008,1247.9248
1312977.5152849308,-107467.25,-78884.56,-44561.035,-28304.484,-4674.5605,-32809.367,-52906.617,1249.6338
1312977.5192849254,-107470.75,-78889.81,-44559.816,-28306.64,-4676.473,-32800.863,-52905.52,1248.6166
1312977.5232849198,-107469.484,-78894.01,-44562.46,-28309.002,-4677.7754,-32800.945,-52903.402,1250.3662
1312977.5272849144,-107474.49,-78885.945,-44563.68,-28306.885,-4673.625,-32807.863,-52902.06,1254.7201
1312977.5312849088,-107473.8,-78882.41,-44562.746,-28304.404,-4668.213,-32813.6,-52900.35,1261.1084
1312977.5352849034,-107466.39,-78882.81,-44559.613,-28304.484,-4670.41,-32808.676,-52901.367,1260.1318
1312977.539284898,-107468.43,-78886.15,-44558.516,-28305.502,-4674.276,-32800.133,-52902.63,1255.3711
1312977.5432848923,-107473.11,-78892.625,-44562.746,-28308.676,-4677.2056,-32799.6,-52901.98,1252.6449
1312977.547284887,-107470.586,-78893.516,-44564.332,-28306.764,-4676.1475,-32807.496,-52899.945,1256.6732
1312977.5512848813,-107472.414,-78891.16,-44565.27,-28305.705,-4673.9097,-32813.395,-52901.695,1254.4353
1312977.555284876,-107469.73,-78891.65,-44565.797,-28307.09,-4675.7812,-32806.887,-52902.996,1259.0332
1312977.5592848703,-107471.16,-78895.06,-44564.21,-28308.717,-4681.2744,-32800.254,-52906.7,1251.3428
1312977.5632848649,-107481.98,-78901.49,-44564.496,-28310.832,-4682.658,-32799.4,-52904.297,1253.0111
1312977.5672848593,-107482.67,-78896.94,-44566.12,-28308.838,-4678.711,-32806.4,-52902.184,1256.3477
1312977.5712848539,-107477.38,-78889.57,-44567.14,-28305.746,-4675.3745,-32811.402,-52903.363,1254.0691
1312977.5752848482,-107480.67,-78894.33,-44566.977,-28307.943,-4679.3213,-32806.52,-52903.73,1253.5808
1312977.5792848428,-107483.97,-78901.05,-44562.746,-28310.223,-4683.187,-32798.504,-52904.094,1248.2097
1312977.5832848372,-107483.36,-78902.75,-44563.234,-28309.693,-4683.065,-32798.91,-52906.535,1244.6289
1312977.5872848318,-107483.6,-78900.31,-44566.246,-28308.31,-4680.013,-32807.617,-52908.773,1240.5599
1312977.5912848264,-107473.02,-78895.34,-44564.78,-28304.607,-4676.473,-32811.973,-52906.13,1245.1172
1312977.5952848208,-107467.49,-78891.805,-44562.137,-28302.002,-4673.503,-32804.812,-52903.523,1251.5056
1312977.5992848154,-107477.055,-78893.96,-44559.41,-28302.572,-4674.3164,-32794.395,-52900.473,1255.3304
1312977.6032848097,-107479.86,-78896.445,-44560.184,-28304.932,-4676.473,-32793.66,-52896.406,1258.667
1312977.6072848043,-107476.484,-78892.58,-44564.25,-28303.102,-4673.218,-32801.96,-52895.47,1258.0566
1312977.6112847987,-107479.01,-78895.23,-44564.656,-28301.88,-4671.2646,-32805.664,-52894.777,1263.4685
1312977.6152847933,-107485.6,-78894.086,-44565.676,-28302.166,-4670.8984,-32800.09,-52895.266,1265.9912
1312977.6192847877,-107472.45,-78880.25,-44561.934,-28301.678,-4666.1787,-32793.945,-52900.35,1261.9222
1312977.6232847823,-107472.66,-78879.44,-44561.566,-28302.979,-4665.4053,-32794.15,-52904.42,1251.7498
1312977.6272847767,-107472.7,-78881.59,-44564.414,-28303.184,-4664.9985,-32802.043,-52902.508,1254.3539
1312977.6312847713,-107462.61,-78871.3,-44561.727,-28299.113,-4660.3193,-32807.902,-52901.082,1259.1146
1312977.6352847656,-107462.484,-78868.25,-44559.9,-28298.096,-4661.174,-32801.84,-52899.984,1258.016
1312977.6392847602,-107468.47,-78878.13,-44561.035,-28302.654,-4666.667,-32794.434,-52899.742,1253.825
1312977.6432847548,-107469.52,-78880.45,-44560.305,-28304.078,-4667.684,-32794.883,-52900.105,1253.2552
1312977.6472847492,-107468.95,-78874.72,-44564.25,-28302.287,-4662.7607,-32802.9,-52900.066,1251.5869
1312977.6512847438,-107462.61,-78872.84,-44563.234,-28299.113,-4659.8716,-32808.188,-52900.027,1251.3021
1312977.6552847382,-107466.516,-78877.41,-44560.793,-28300.01,-4664.144,-32802.695,-52899.54,1258.5043
1312977.6592847328,-107473.836,-78885.664,-44560.387,-28303.63,-4671.997,-32795.816,-52901.695,1257.0394
1312977.6632847271,-107477.79,-78890.55,-44560.305,-28303.305,-4674.642,-32794.72,-52899.008,1256.6326
1312977.6672847217,-107483.36,-78888.1,-44562.746,-28302.979,-4670.329,-32803.836,-52900.15,1251.831
1312977.671284716,-107476.28,-78880.29,-44559.45,-28300.62,-4667.1143,-32806.234,-52896.77,1259.847
1312977.6752847107,-107469.2,-78878.5,-44555.34,-28298.79,-4667.3584,-32799.03,-52898.03,1258.3822
1312977.679284705,-107473.43,-78882.53,-44554.812,-28298.79,-4671.3867,-32792.605,-52900.8,1252.6855
1312977.6832846997,-107476.56,-78889.0,-44557.496,-28300.822,-4674.2354,-32793.703,-52902.02,1247.5994
1312977.6872846943,-107471.195,-78889.94,-44558.88,-28299.643,-4673.747,-32803.184,-52905.152,1244.3441
1312977.6912846887,-107468.1,-78887.29,-44558.96,-28297.201,-4670.8984,-32809.082,-52909.383,1245.0765
1312977.6952846833,-107482.47,-78889.695,-44558.594,-28296.469,-4673.34,-32805.258,-52910.117,1244.9138
1312977.6992846776,-107487.76,-78896.445,-44558.15,-28298.219,-4677.165,-32797.203,-52911.746,1244.7917
1312977.7032846722,-107485.516,-78896.28,-44560.426,-28300.049,-4676.595,-32794.965,-52908.816,1247.8027
1312977.7072846666,-107477.09,-78892.26,-44563.03,-28296.143,-4670.8174,-32801.555,-52907.27,1241.333
1312977.7112846612,-107472.78,-78886.195,-44561.77,-28292.48,-4666.097,-32805.664,-52907.918,1239.8682
1312977.7152846556,-107470.7,-78883.914,-44554.61,-28292.115,-4666.8296,-32799.36,-52903.32,1251.4648
1312977.7192846502,-107470.79,-78890.75,-44551.883,-28295.127,-4672.6074,-32791.22,-52898.723,1256.1035
1312977.7232846445,-107478.766,-78892.83,-44551.883,-28295.654,-4673.0957,-32790.934,-52896.895,1254.598
1312977.7272846391,-107478.07,-78888.1,-44553.67,-28294.11,-4668.9453,-32798.3,-52897.34,1255.0863
1312977.7312846335,-107479.62,-78886.234,-44556.074,-28291.504,-4667.44,-32801.84,-52895.836,1260.8643
1312977.735284628,-107480.516,-78887.78,-44554.77,-28291.912,-4670.7764,-32795.777,-52895.305,1263.5906
1312977.7392846227,-107481.125,-78890.42,-44554.688,-28294.15,-4674.7236,-32788.332,-52895.793,1262.2885
1312977.743284617,-107482.95,-78892.664,-44557.902,-28295.41,-4673.95,-32789.594,-52897.42,1259.8877
1312977.7472846117,-107479.695,-78886.88,-44561.605,-28293.701,-4668.1724,-32800.133,-52901.043,1255.8594
1312977.751284606,-107472.5,-78883.34,-44558.027,-28291.668,-4664.9985,-32804.445,-52902.508,1250.7732
1312977.7552846007,-107474.61,-78882.445,-44552.246,-28291.3,-4667.3994,-32797.12,-52901.777,1250.8545
1312977.759284595,-107476.98,-78884.04,-44550.215,-28293.783,-4672.0786,-32789.348,-52902.223,1247.3959
1312977.7632845896,-107473.72,-78886.766,-44550.336,-28295.045,-4673.0146,-32788.82,-52898.4,1250.8545
1312977.767284584,-107473.88,-78885.26,-44553.71,-28293.498,-4668.4165,-32797.65,-52895.754,1255.5339
1312977.7712845786,-107472.01,-78877.484,-44554.2,-28290.08,-4663.8594,-32801.72,-52895.145,1255.6967
1312977.775284573,-107466.07,-78878.055,-44552.574,-28290.283,-4665.039,-32794.07,-52893.434,1258.0974
1312977.7792845676,-107473.59,-78885.87,-44553.754,-28292.725,-4669.7188,-32781.7,-52890.06,1263.8754
1312977.783284562,-107475.875,-78887.58,-44556.97,-28295.248,-4669.8813,-32784.14,-52892.293,1254.7201
1312977.7872845565,-107468.67,-78880.86,-44559.41,-28292.4,-4665.2427,-32795.9,-52895.71,1246.2972
1312977.7912845511,-107471.805,-78873.91,-44557.496,-28289.795,-4662.6387,-32802.37,-52895.754,1248.4539
1312977.7952845455,-107468.43,-78878.055,-44551.68,-28288.494,-4667.033,-32795.86,-52894.004,1254.7201
1312977.7992845401,-107468.75,-78884.97,-44548.543,-28291.668,-4673.1772,-32787.152,-52893.965,1249.9594
1312977.8032845345,-107473.31,-78888.96,-44550.293,-28292.889,-4677.5312,-32788.74,-52895.47,1246.2972
1312977.807284529,-107472.336,-78884.73,-44552.98,-28290.61,-4674.6826,-32798.543,-52899.21,1237.1013
1312977.8112845235,-107471.97,-78881.67,-44552.29,-28287.803,-4671.102,-32802.29,-52896.61,1241.8213
1312977.815284518,-107471.52,-78883.14,-44548.383,-28285.768,-4670.288,-32795.86,-52898.723,1243.4082
1312977.8192845124,-107472.3,-78885.87,-44547.49,-28287.191,-4672.282,-32787.965,-52900.676,1236.8978
1312977.823284507,-107479.49,-78887.695,-44549.074,-28288.615,-4671.509,-32789.836,-52900.39,1236.0027
1312977.8272845014,-107475.23,-78882.57,-44547.934,-28283.53,-4667.7246,-32798.543,-52897.42,1242.1062
1312977.831284496,-107465.336,-78872.68,-44543.297,-28278.484,-4664.022,-32804.445,-52897.91,1243.8965
1312977.8352844904,-107467.86,-78878.26,-44539.145,-28279.785,-4668.01,-32798.016,-52896.2,1251.2615
1312977.839284485,-107476.2,-78885.09,-44538.984,-28284.262,-4673.828,-32789.43,-52896.566,1251.18
1312977.8432844796,-107483.81,-78884.85,-44543.336,-28285.809,-4673.95,-32789.715,-52896.65,1252.5228
1312977.847284474,-107486.695,-78881.31,-44546.633,-28283.57,-4669.6777,-32798.3,-52899.66,1240.3158
1312977.8512844685,-107485.64,-78878.016,-44548.18,-28281.088,-4665.731,-32801.758,-52898.234,1241.9027
1312977.855284463,-107493.49,-78879.195,-44548.098,-28280.6,-4667.0737,-32793.703,-52895.145,1247.9656
1312977.8592844575,-107502.61,-78886.44,-44549.93,-28283.977,-4671.916,-32787.027,-52894.574,1246.9076
1312977.863284452,-107510.99,-78887.086,-44550.863,-28285.4,-4672.3633,-32786.54,-52892.01,1247.6807
1312977.8672844465,-107512.62,-78879.72,-44550.906,-28283.773,-4668.6606,-32795.9,-52891.48,1242.5945
1312977.8712844409,-107503.34,-78873.86,-44549.93,-28280.6,-4663.6963,-32800.824,-52892.824,1240.6414
1312977.8752844355,-107499.23,-78876.836,-44546.797,-28280.885,-4665.6904,-32791.832,-52889.61,1249.5117
1312977.8792844298,-107505.086,-78881.39,-44547.363,-28282.594,-4669.637,-32785.074,-52890.707,1245.6462
1312977.8832844244,-107510.625,-78881.59,-44551.27,-28284.14,-4671.1836,-32787.56,-52890.87,1244.873
1312977.887284419,-107515.95,-78877.69,-44556.844,-28282.268,-4665.975,-32792.848,-52890.465,1241.6992
1312977.8912844134,-107517.7,-78875.086,-44558.31,-28280.07,-4662.883,-32797.49,-52890.504,1242.4316
1312977.895284408,-107516.28,-78875.61,-44552.9,-28279.582,-4663.0454,-32790.164,-52890.91,1246.989
1312977.8992844024,-107519.17,-78879.93,-44552.207,-28282.756,-4666.8296,-32782.555,-52891.277,1246.1345
1312977.903284397,-107519.984,-78882.33,-44553.55,-28284.018,-4670.288,-32784.098,-52891.4,1240.1937
1312977.9072843913,-107526.9,-78878.83,-44556.562,-28283.326,-4670.044,-32790.445,-52888.227,1246.1345
1312977.911284386,-107520.1,-78870.28,-44554.65,-28280.152,-4665.975,-32790.406,-52885.254,1251.2615
1312977.9152843803,-107514.49,-78870.32,-44551.473,-28279.908,-4668.335,-32784.586,-52885.582,1250.3256
1312977.919284375,-107518.44,-78876.02,-44549.645,-28281.332,-4671.875,-32775.39,-52886.07,1245.4021
1312977.9232843693,-107520.836,-78880.91,-44552.9,-28283.326,-4674.6826,-32774.496,-52885.254,1247.2332
1312977.927284364,-107519.62,-78878.625,-44558.066,-28281.902,-4671.346,-32783.855,-52887.004,1247.9248
1312977.9312843583,-107509.93,-78870.484,-44557.78,-28278.443,-4664.4697,-32787.723,-52889.57,1243.4896
1312977.9352843529,-107512.54,-78868.98,-44555.746,-28278.605,-4665.08,-32779.91,-52892.418,1239.0137
1312977.9392843475,-107516.89,-78876.79,-44554.934,-28281.494,-4670.7764,-32771.77,-52897.34,1229.8992
1312977.9432843418,-107518.84,-78878.83,-44555.707,-28281.291,-4672.3228,-32769.938,-52893.965,1230.2246
1312977.9472843364,-107521.41,-78876.23,-44559.285,-28280.723,-4670.451,-32776.652,-52891.727,1235.1888
1312977.9512843308,-107515.51,-78872.52,-44559.734,-28279.258,-4667.8467,-32781.535,-52891.727,1231.0385
1312977.9552843254,-107511.234,-78874.836,-44557.21,-28278.89,-4666.992,-32773.4,-52889.285,1234.7412
1312977.9592843198,-107515.51,-78879.07,-44555.34,-28279.99,-4668.335,-32764.324,-52889.16,1230.8757
1312977.9632843144,-107523.44,-78880.17,-44557.742,-28282.47,-4668.5386,-32767.092,-52889.49,1234.2529
1312977.9672843087,-107531.01,-78878.016,-44561.81,-28282.47,-4665.5273,-32776.004,-52889.49,1235.0668
1312977.9712843033,-107534.51,-78871.46,-44561.08,-28279.379,-4661.9062,-32781.21,-52893.23,1224.3246
1312977.9752842977,-107537.56,-78874.836,-44557.58,-28280.03,-4663.6963,-32774.293,-52893.84,1218.5059
1312977.9792842923,-107540.29,-78880.05,-44555.42,-28282.105,-4668.742,-32764.65,-52890.992,1220.9066
1312977.9832842867,-107545.375,-78882.29,-44555.746,-28283.367,-4670.288,-32764.61,-52891.48,1219.93
1312977.9872842813,-107547.29,-78881.39,-44559.043,-28282.35,-4667.318,-32774.496,-52891.074,1221.9646
1312977.991284276,-107544.195,-78877.28,-44559.246,-28280.355,-4665.202,-32776.125,-52890.383,1221.0287
1312977.9952842703,-107546.63,-78876.18,-44557.617,-28279.785,-4666.219,-32768.72,-52890.18,1220.866
1312977.9992842649,-107561.08,-78881.67,-44559.082,-28284.14,-4669.4746,-32760.744,-52890.504,1223.3074
1312978.0032842592,-107572.39,-78883.51,-44563.6,-28285.4,-4668.742,-32762.412,-52889.895,1227.2136
1312978.0072842538,-107571.086,-78878.625,-44567.098,-28284.385,-4664.144,-32772.3,-52891.277,1225.3826
1312978.0112842482,-107569.95,-78871.55,-44565.39,-28281.17,-4659.7495,-32776.855,-52889.49,1227.1322
1312978.0152842428,-107571.086,-78874.15,-44561.117,-28282.227,-4661.5806,-32771.89,-52892.133,1227.3357
1312978.0192842372,-107578.82,-78879.56,-44559.695,-28284.791,-4667.033,-32765.178,-52891.277,1229.0447
1312978.0232842318,-107586.39,-78883.18,-44560.793,-28286.785,-4668.742,-32764.73,-52886.92,1238.0371
1312978.0272842261,-107586.02,-78879.16,-44562.258,-28286.5,-4667.2363,-32771.445,-52885.703,1235.9213
1312978.0312842207,-107590.62,-78875.61,-44561.035,-28284.14,-4664.9985,-32772.34,-52884.523,1233.6019
1312978.0352842151,-107598.15,-78878.42,-44554.89,-28284.385,-4668.01,-32765.219,-52883.992,1235.3516
1312978.0392842097,-107601.81,-78879.56,-44551.555,-28284.22,-4669.841,-32758.506,-52887.617,1228.0681
1312978.0432842043,-107605.39,-78876.95,-44552.98,-28282.756,-4666.8296,-32760.133,-52889.04,1225.9115
1312978.0472841987,-107608.4,-78874.96,-44557.254,-28281.535,-4665.283,-32769.125,-52889.0,1225.5453
1312978.0512841933,-107605.59,-78870.04,-44555.867,-28280.152,-4664.0625,-32772.016,-52888.43,1228.1494
1312978.0552841877,-107607.47,-78872.12,-44550.62,-28281.78,-4665.2427,-32763.43,-52886.07,1229.4922
1312978.0592841823,-107614.34,-78878.5,-44548.586,-28284.629,-4670.207,-32754.03,-52885.418,1225.3418
1312978.0632841766,-107622.89,-78880.17,-44550.984,-28286.174,-4672.8516,-32754.762,-52881.836,1228.1088
1312978.0672841712,-107627.0,-78874.59,-44554.566,-28284.18,-4669.0674,-32766.36,-52882.164,1224.406
1312978.0712841656,-107624.96,-78869.59,-44553.67,-28281.129,-4664.917,-32772.137,-52884.32,1224.0804
1312978.0752841602,-107627.32,-78870.61,-44551.15,-28281.658,-4665.202,-32765.83,-52883.87,1228.0681
1312978.0792841546,-107635.79,-78876.38,-44549.562,-28283.488,-4670.8174,-32759.238,-52883.344,1232.2998
1312978.0832841492,-107642.22,-78876.51,-44550.945,-28284.059,-4669.6777,-32759.156,-52884.688,1230.5095
1312978.0872841438,-107639.98,-78868.57,-44552.574,-28280.479,-4662.7607,-32766.887,-52887.004,1226.5219
1312978.0912841382,-107636.766,-78866.3,-44551.066,-28278.24,-4661.418,-32771.61,-52889.773,1223.348
1312978.0952841328,-107641.65,-78865.89,-44547.285,-28278.688,-4661.133,-32764.73,-52889.082,1226.9695
1312978.0992841271,-107657.76,-78873.78,-44549.848,-28282.959,-4664.8765,-32757.977,-52887.332,1229.3295
1312978.1032841217,-107670.54,-78877.12,-44556.355,-28285.605,-4666.097,-32760.377,-52885.418,1235.1888
1312978.107284116,-107671.31,-78871.55,-44559.695,-28283.164,-4661.865,-32770.55,-52887.535,1232.3406
1312978.1112841107,-107670.695,-78870.77,-44558.88,-28280.6,-4658.9766,-32773.887,-52888.836,1234.2529
1312978.115284105,-107675.055,-78868.66,-44554.812,-28280.07,-4660.5225,-32767.416,-52890.547,1229.3295
1312978.1192840997,-107679.81,-78869.1,-44554.324,-28282.146,-4664.9985,-32762.412,-52895.02,1217.6514
1312978.123284094,-107681.97,-78872.03,-44556.113,-28284.344,-4666.0566,-32762.777,-52894.043,1218.3025
1312978.1272840886,-107684.29,-78870.484,-44559.57,-28283.896,-4662.964,-32770.062,-52893.23,1219.0349
1312978.131284083,-107687.95,-78865.4,-44557.78,-28283.123,-4661.0923,-32773.6,-52891.93,1223.7142
1312978.1352840776,-107694.42,-78868.164,-44555.46,-28283.57,-4664.022,-32767.62,-52890.992,1229.0039
1312978.1392840722,-107703.82,-78874.43,-44558.188,-28286.094,-4670.6543,-32760.377,-52892.906,1227.1322
1312978.1432840666,-107708.91,-78875.49,-44561.566,-28288.006,-4671.9565,-32761.924,-52893.15,1223.877
1312978.1472840612,-107706.83,-78874.11,-44561.2,-28285.605,-4667.1143,-32768.19,-52892.293,1220.6625
1312978.1512840556,-107705.94,-78869.43,-44559.33,-28283.652,-4665.4053,-32771.77,-52891.805,1217.9769
1312978.1552840502,-107719.65,-78873.05,-44556.03,-28284.912,-4668.335,-32763.795,-52888.918,1222.7377
1312978.1592840445,-107729.25,-78880.375,-44556.6,-28287.232,-4674.1133,-32755.209,-52885.418,1230.0212
1312978.1632840391,-107741.87,-78889.33,-44561.934,-28288.33,-4675.4966,-32756.715,-52883.992,1230.5095
1312978.1672840335,-107751.836,-78895.43,-44565.676,-28286.785,-4674.968,-32764.445,-52883.953,1227.7019
1312978.171284028,-107736.945,-78878.016,-44561.445,-28283.652,-4672.0786,-32772.586,-52888.227,1223.9177
1312978.1752840225,-107728.36,-78864.625,-44554.242,-28282.715,-4670.044,-32767.092,-52890.26,1226.1556
1312978.179284017,-107738.695,-78879.36,-44553.875,-28283.936,-4676.473,-32755.332,-52886.8,1229.6957
1312978.1832840114,-107747.12,-78889.2,-44556.805,-28284.059,-4679.24,-32755.617,-52885.703,1231.4047
1312978.187284006,-107750.62,-78889.94,-44560.14,-28284.059,-4675.7812,-32764.934,-52886.027,1231.2012
1312978.1912840006,-107739.55,-78882.49,-44560.47,-28282.309,-4670.858,-32769.41,-52886.64,1234.2937
1312978.195283995,-107725.305,-78878.46,-44556.316,-28282.023,-4669.271,-32763.713,-52886.92,1237.5896
1312978.1992839896,-107727.18,-78881.47,-44554.73,-28283.652,-4674.5605,-32753.826,-52882.977,1241.4144
1312978.203283984,-107731.53,-78882.81,-44556.97,-28285.889,-4675.863,-32752.932,-52879.76,1243.4082
1312978.2072839786,-107721.805,-78872.64,-44559.57,-28282.676,-4669.7188,-32761.271,-52878.582,1241.5771
1312978.211283973,-107713.38,-78865.6,-44559.125,-28281.21,-4666.097,-32766.44,-52878.906,1240.8041
1312978.2152839676,-107713.586,-78868.53,-44558.594,-28283.652,-4667.928,-32759.035,-52878.664,1240.6414
1312978.219283962,-107717.49,-78874.96,-44557.58,-28283.936,-4670.6953,-32751.385,-52878.01,1243.1641
1312978.2232839565,-107715.414,-78876.63,-44557.863,-28282.838,-4670.9395,-32754.191,-52878.703,1241.1703
1312978.227283951,-107709.44,-78872.805,-44559.652,-28281.535,-4667.318,-32764.242,-52880.496,1233.6019
1312978.2312839455,-107707.445,-78869.55,-44560.426,-28279.705,-4664.551,-32765.383,-52877.85,1243.1641
1312978.2352839399,-107700.36,-78870.0,-44558.72,-28279.95,-4665.609,-32756.594,-52877.035,1246.3787
1312978.2392839345,-107698.41,-78872.73,-44558.758,-28283.285,-4668.132,-32749.676,-52876.305,1248.8607
1312978.243283929,-107708.01,-78873.91,-44560.223,-28283.53,-4667.8877,-32750.164,-52875.0,1250.1628
1312978.2472839234,-107712.85,-78873.45,-44562.176,-28281.902,-4666.545,-32759.97,-52876.465,1249.6338
1312978.251283918,-107707.805,-78873.5,-44562.785,-28280.355,-4667.1553,-32765.139,-52877.605,1252.1973
1312978.2552839124,-107702.72,-78873.945,-44558.797,-28279.908,-4666.423,-32758.953,-52875.203,1253.0925
1312978.259283907,-107700.56,-78878.38,-44556.355,-28281.332,-4668.742,-32751.262,-52874.15,1251.1394
1312978.2632839014,-107700.16,-78878.055,-44559.285,-28281.129,-4669.4746,-32752.402,-52874.92,1253.825
1312978.267283896,-107699.1,-78876.18,-44561.85,-28280.314,-4667.033,-32760.377,-52874.88,1256.307
1312978.2712838904,-107692.914,-78875.29,-44558.27,-28277.955,-4665.1206,-32765.422,-52877.566,1250.5697
1312978.275283885,-107687.26,-78876.71,-44554.527,-28278.85,-4666.992,-32758.342,-52876.14,1256.4697
1312978.2792838793,-107689.74,-78879.6,-44553.55,-28280.6,-4670.329,-32749.797,-52873.17,1257.5684
1312978.283283874,-107694.5,-78883.305,-44557.332,-28280.723,-4670.858,-32752.523,-52876.387,1251.9125
1312978.2872838683,-107696.29,-78879.16,-44559.938,-28280.193,-4666.748,-32762.736,-52881.31,1245.5648
1312978.291283863,-107689.78,-78874.27,-44558.637,-28277.873,-4664.144,-32767.416,-52884.48,1245.2393
1312978.2952838575,-107684.94,-78876.266,-44555.707,-28277.832,-4666.992,-32760.133,-52884.402,1247.7214
1312978.2992838519,-107689.3,-78882.24,-44556.438,-28280.396,-4673.747,-32755.373,-52884.2,1253.1738
1312978.3032838465,-107686.52,-78878.83,-44557.09,-28279.176,-4672.445,-32757.285,-52887.047,1246.0531
1312978.3072838408,-107682.87,-78873.09,-44558.15,-28276.043,-4667.2773,-32765.992,-52887.207,1242.7166
1312978.3112838354,-107674.6,-78869.51,-44557.332,-28273.193,-4664.3477,-32769.33,-52885.5,1246.5414
1312978.3152838298,-107673.71,-78872.64,-44554.402,-28272.787,-4664.917,-32761.354,-52885.094,1247.9656
1312978.3192838244,-107681.89,-78877.32,-44554.89,-28274.455,-4667.6436,-32751.467,-52883.06,1251.3428
1312978.3232838188,-107685.51,-78876.71,-44555.34,-28276.164,-4668.4165,-32753.582,-52881.27,1251.5869
1312978.3272838134,-107678.305,-78872.195,-44556.234,-28273.357,-4665.4053,-32763.348,-52883.504,1246.46
1312978.3312838078,-107670.375,-78866.58,-44556.355,-28269.125,-4663.9814,-32765.422,-52882.977,1252.889
1312978.3352838024,-107669.516,-78868.49,-44554.527,-28270.305,-4667.562,-32759.645,-52883.14,1254.7201
1312978.339283797,-107668.13,-78871.91,-44553.47,-28272.666,-4670.3696,-32751.506,-52881.88,1252.6855
1312978.3432837913,-107666.95,-78869.47,-44551.883,-28271.12,-4668.254,-32752.158,-52878.258,1255.3304
1312978.347283786,-107661.38,-78864.664,-44553.1,-28269.531,-4665.3647,-32761.354,-52878.5,1257.4463
1312978.3512837803,-107660.36,-78861.53,-44551.883,-28269.207,-4661.499,-32763.51,-52877.24,1256.9988
1312978.355283775,-107661.99,-78862.875,-44548.543,-28270.02,-4662.3535,-32756.756,-52876.71,1258.5043
1312978.3592837693,-107657.92,-78864.42,-44546.754,-28268.393,-4664.673,-32749.635,-52876.71,1253.4994
1312978.3632837639,-107659.305,-78863.41,-44550.824,-28268.19,-4663.656,-32752.523,-52876.832,1250.6918
1312978.3672837582,-107662.73,-78861.78,-44556.277,-28267.863,-4661.4585,-32762.209,-52878.867,1246.9076
1312978.3712837528,-107655.69,-78861.086,-44554.973,-28265.748,-4659.0986,-32763.754,-52877.645,1255.7781
1312978.3752837472,-107652.836,-78861.05,-44550.62,-28265.137,-4659.831,-32754.111,-52874.797,1262.0037
1312978.3792837418,-107663.945,-78870.52,-44549.805,-28268.148,-4664.795,-32748.861,-52875.773,1260.2947
1312978.3832837362,-107665.29,-78874.72,-44552.246,-28269.328,-4665.5273,-32752.646,-52873.13,1265.0554
1312978.3872837308,-107661.38,-78874.72,-44554.16,-28269.37,-4663.8594,-32762.127,-52872.805,1263.8754
1312978.3912837254,-107668.79,-78879.56,-44552.45,-28267.578,-4665.5684,-32762.777,-52872.152,1269.572
1312978.3952837198,-107667.24,-78873.54,-44549.277,-28265.178,-4663.2896,-32754.885,-52871.785,1270.7113
1312978.3992837144,-107651.29,-78858.69,-44547.977,-28265.098,-4659.5054,-32750.896,-52875.0,1267.6189
1312978.4032837087,-107657.35,-78862.14,-44555.586,-28266.154,-4658.6104,-32755.129,-52877.688,1255.8187
1312978.4072837033,-107660.484,-78863.89,-44562.258,-28265.422,-4656.942,-32765.016,-52882.082,1250.5697
1312978.4112836977,-107644.86,-78855.67,-44557.742,-28260.742,-4652.7915,-32768.84,-52887.617,1244.3441
1312978.4152836923,-107638.836,-78859.01,-44554.08,-28261.963,-4656.657,-32762.248,-52888.387,1242.0654
1312978.4192836867,-107649.21,-78866.26,-44555.016,-28265.26,-4662.2314,-32754.477,-52886.8,1243.4082
1312978.4232836813,-107655.16,-78869.51,-44554.77,-28266.195,-4663.9404,-32755.576,-52884.93,1243.4082
1312978.4272836756,-107653.57,-78864.99,-44558.15,-28264.16,-4659.0576,-32764.406,-52883.953,1250.0408
1312978.4312836702,-107646.04,-78859.3,-44557.82,-28261.11,-4656.535,-32768.516,-52887.453,1243.5303
1312978.4352836646,-107644.66,-78862.914,-44557.617,-28262.412,-4663.4116,-32763.186,-52888.348,1239.9496
1312978.4392836592,-107649.26,-78869.47,-44556.195,-28265.422,-4667.44,-32754.03,-52887.94,1241.4144
1312978.4432836538,-107645.305,-78869.39,-44555.098,-28266.074,-4667.8467,-32755.78,-52888.348,1243.3269
1312978.4472836482,-107639.04,-78866.54,-44556.766,-28264.61,-4666.911,-32764.975,-52889.73,1237.2234
1312978.4512836428,-107632.45,-78865.6,-44555.42,-28262.207,-4665.731,-32767.824,-52888.47,1236.4502
1312978.4552836372,-107632.0,-78862.14,-44550.336,-28261.23,-4667.0737,-32759.97,-52887.656,1238.0779
1312978.4592836318,-107642.54,-78870.85,-44549.848,-28263.592,-4670.98,-32753.379,-52884.97,1241.9434
1312978.4632836261,-107651.9,-78871.7,-44553.55,-28265.137,-4671.509,-32756.838,-52885.582,1242.5131
1312978.4672836207,-107647.875,-78862.914,-44557.293,-28262.533,-4664.673,-32767.05,-52885.5,1240.8855
1312978.471283615,-107640.47,-78855.96,-44556.723,-28260.295,-4661.133,-32770.02,-52888.875,1231.9336
1312978.4752836097,-107637.66,-78862.02,-44552.9,-28261.23,-4665.6904,-32760.58,-52886.64,1239.3799
1312978.479283604,-107636.36,-78869.51,-44551.19,-28262.695,-4669.1084,-32752.727,-52883.79,1243.8558
1312978.4832835987,-107635.26,-78869.75,-44551.84,-28263.916,-4671.509,-32757.244,-52885.582,1239.7869
1312978.487283593,-107633.875,-78865.234,-44553.47,-28261.924,-4668.4165,-32765.992,-52885.01,1244.4662
1312978.4912835876,-107630.05,-78865.03,-44554.08,-28259.277,-4666.301,-32766.928,-52885.133,1240.031
1312978.4952835822,-107629.805,-78868.45,-44550.78,-28260.986,-4669.271,-32759.28,-52883.547,1249.0234
1312978.4992835766,-107634.12,-78869.914,-44550.05,-28262.736,-4670.98,-32750.979,-52883.953,1248.3318
1312978.5032835712,-107634.445,-78867.76,-44552.86,-28262.371,-4669.149,-32752.97,-52885.05,1241.9841
1312978.5072835656,-107629.766,-78861.9,-44553.184,-28259.4,-4664.4287,-32762.492,-52885.664,1243.6523
1312978.5112835602,-107630.21,-78858.08,-44552.816,-28257.773,-4662.883,-32765.83,-52883.953,1249.0642
1312978.5152835546,-107626.06,-78856.695,-44549.645,-28257.936,-4666.626,-32760.133,-52883.18,1251.18
1312978.5192835492,-107628.75,-78862.59,-44547.566,-28259.727,-4670.288,-32752.076,-52883.26,1249.3083
1312978.5232835435,-107637.945,-78867.72,-44552.613,-28260.336,-4669.4746,-32753.744,-52882.895,1250.5697
1312978.5272835381,-107635.74,-78864.38,-44558.88,-28258.342,-4667.44,-32761.883,-52883.383,1249.5525
1312978.5312835325,-107626.875,-78859.46,-44557.617,-28255.412,-4664.836,-32764.242,-52881.145,1254.4353
1312978.535283527,-107623.984,-78860.84,-44551.758,-28254.844,-4663.7373,-32754.762,-52878.215,1258.2601
1312978.5392835217,-107631.72,-78863.77,-44551.11,-28257.895,-4668.2944,-32746.664,-52876.18,1259.6436
1312978.543283516,-107627.2,-78861.01,-44552.695,-28256.918,-4667.806,-32748.943,-52873.984,1260.8236
1312978.5472835107,-107621.55,-78856.445,-44554.28,-28254.477,-4664.8765,-32757.53,-52873.008,1254.5166
1312978.551283505,-107624.35,-78854.05,-44553.633,-28254.111,-4663.9814,-32759.441,-52872.355,1257.487
1312978.5552834996,-107624.11,-78856.77,-44550.215,-28254.883,-4667.928,-32751.303,-52872.56,1257.7719
1312978.559283494,-107623.25,-78862.305,-44549.93,-28257.895,-4672.811,-32744.387,-52871.38,1259.9285
1312978.5632834886,-107626.914,-78866.13,-44551.434,-28257.691,-4673.747,-32745.77,-52868.53,1258.2195
1312978.567283483,-107623.74,-78862.39,-44553.1,-28254.68,-4669.027,-32754.07,-52870.08,1257.2836
1312978.5712834776,-107621.09,-78856.98,-44555.543,-28253.947,-4666.626,-32759.238,-52872.234,1259.9285
1312978.575283472,-107620.77,-78859.7,-44551.758,-28254.436,-4669.5967,-32748.861,-52869.914,1260.0098
1312978.5792834666,-107613.28,-78862.19,-44547.49,-28255.127,-4671.9565,-32738.486,-52869.426,1253.9062
1312978.583283461,-107617.35,-78860.76,-44549.316,-28257.121,-4670.98,-32740.52,-52869.1,1251.6683
1312978.5872834555,-107624.68,-78859.87,-44551.555,-28255.86,-4668.0503,-32747.355,-52867.066,1254.7607
1312978.5912834501,-107622.766,-78858.28,-44550.457,-28252.97,-4665.1206,-32747.64,-52869.1,1257.2021
1312978.5952834445,-107619.59,-78860.555,-44547.285,-28253.338,-4665.324,-32736.045,-52866.7,1260.7422
1312978.599283439,-107620.28,-78865.195,-44547.566,-28257.0,-4667.318,-32727.092,-52862.996,1267.0898
1312978.6032834335,-107619.96,-78863.33,-44549.93,-28256.836,-4667.7656,-32729.738,-52864.016,1267.456
1312978.607283428,-107613.484,-78856.9,-44549.848,-28254.639,-4665.5273,-32738.404,-52865.438,1260.783
1312978.6112834224,-107605.88,-78854.05,-44547.65,-28253.215,-4662.2314,-32737.713,-52863.527,1262.3291
1312978.615283417,-107606.695,-78855.02,-44546.184,-28253.947,-4663.249,-32727.703,-52861.492,1271.1589
1312978.6192834114,-107610.44,-78859.21,-44547.49,-28257.285,-4666.911,-32721.682,-52860.516,1272.1355
1312978.623283406,-107608.24,-78857.71,-44548.91,-28256.104,-4664.388,-32723.064,-52858.97,1271.3623
1312978.6272834004,-107603.31,-78850.14,-44552.45,-28254.07,-4659.79,-32731.691,-52858.97,1267.8223
1312978.631283395,-107603.03,-78850.22,-44551.8,-28252.727,-4658.6914,-32732.83,-52858.645,1272.2168
1312978.6352833894,-107609.016,-78857.305,-44550.215,-28254.232,-4663.5337,-32725.262,-52862.43,1265.4216
1312978.639283384,-107607.75,-78862.1,-44549.44,-28256.145,-4667.44,-32719.402,-52864.707,1261.8408
1312978.6432833786,-107607.06,-78859.625,-44552.168,-28254.965,-4666.0156,-32721.03,-52864.46,1262.7361
1312978.647283373,-107602.42,-78858.73,-44552.777,-28253.5,-4663.1675,-32728.477,-52862.957,1263.5498
1312978.6512833675,-107597.45,-78859.336,-44550.133,-28253.459,-4666.504,-32733.195,-52864.3,1263.3464
1312978.655283362,-107593.836,-78859.5,-44547.445,-28253.215,-4669.7593,-32727.133,-52866.293,1262.085
1312978.6592833565,-107601.0,-78863.41,-44547.08,-28255.941,-4672.4854,-32720.256,-52865.03,1268.2699
1312978.6632833509,-107604.375,-78867.31,-44549.766,-28257.691,-4671.4277,-32724.285,-52864.137,1268.1478
1312978.6672833455,-107603.64,-78861.86,-44553.266,-28255.615,-4667.684,-32733.562,-52868.207,1260.4167
1312978.6712833398,-107602.5,-78860.11,-44552.37,-28253.826,-4666.667,-32735.475,-52871.543,1256.9174
1312978.6752833345,-107599.45,-78862.23,-44549.316,-28255.047,-4669.393,-32729.533,-52874.434,1254.4353
1312978.6792833288,-107605.15,-78867.96,-44549.727,-28256.797,-4672.8926,-32723.186,-52875.203,1249.4304
1312978.6832833234,-107611.17,-78869.875,-44553.47,-28258.342,-4674.8457,-32725.912,-52875.45,1249.9187
1312978.6872833178,-107611.25,-78866.78,-44553.47,-28257.121,-4670.7764,-32733.318,-52873.617,1252.3601
1312978.6912833124,-107606.29,-78861.29,-44549.93,-28252.117,-4666.545,-32734.865,-52873.7,1253.418
1312978.695283307,-107604.25,-78863.445,-44546.266,-28251.018,-4667.6025,-32727.621,-52873.047,1261.1492
1312978.6992833014,-107602.42,-78865.234,-44545.656,-28251.709,-4668.132,-32721.07,-52873.414,1255.4932
1312978.703283296,-107596.93,-78862.76,-44547.895,-28254.03,-4668.0503,-32724.285,-52870.973,1252.6855
1312978.7072832903,-107600.67,-78858.93,-44553.754,-28254.762,-4666.097,-32732.79,-52869.14,1259.725
1312978.711283285,-107602.336,-78857.875,-44552.043,-28252.605,-4662.557,-32732.586,-52866.66,1265.0554
1312978.7152832793,-107602.87,-78859.54,-44551.23,-28252.809,-4662.9233,-32726.686,-52868.574,1260.376
1312978.719283274,-107611.33,-78866.01,-44553.633,-28255.78,-4667.0737,-32720.541,-52870.32,1255.5339
1312978.7232832683,-107616.26,-78866.3,-44555.543,-28255.412,-4663.7373,-32724.123,-52870.445,1254.0283
1312978.7272832629,-107607.51,-78859.945,-44556.195,-28253.623,-4661.0107,-32733.44,-52869.63,1259.725
1312978.7312832572,-107605.06,-78857.1,-44555.34,-28251.588,-4660.1562,-32733.684,-52868.938,1263.9568
1312978.7352832519,-107600.71,-78855.836,-44552.168,-28252.238,-4661.0923,-32725.424,-52867.188,1264.4857
1312978.7392832462,-107599.41,-78856.85,-44548.707,-28253.135,-4662.1094,-32716.594,-52863.484,1264.8113
1312978.7432832408,-107601.484,-78859.945,-44553.1,-28256.023,-4663.371,-32720.582,-52863.324,1269.1244
1312978.7472832354,-107590.82,-78854.25,-44553.996,-28253.662,-4657.756,-32730.592,-52865.36,1265.2181
1312978.7512832298,-107586.14,-78847.945,-44552.043,-28251.14,-4653.768,-32730.877,-52862.227,1272.3796
1312978.7552832244,-107590.7,-78851.36,-44551.066,-28253.947,-4657.2676,-32724.488,-52862.957,1276.6113
1312978.7592832188,-107587.33,-78853.31,-44550.375,-28255.9,-4661.0107,-32718.914,-52868.45,1262.1257
1312978.7632832134,-107582.56,-78850.51,-44548.953,-28254.314,-4658.4067,-32723.227,-52871.38,1259.8877
1312978.7672832077,-107577.766,-78842.29,-44548.83,-28250.693,-4651.4487,-32732.219,-52868.492,1265.6658
1312978.7712832023,-107573.164,-78841.516,-44545.74,-28250.367,-4650.5127,-32732.627,-52865.113,1270.3451
1312978.7752831967,-107568.93,-78844.93,-44542.523,-28251.182,-4653.1577,-32723.47,-52864.22,1273.7631
1312978.7792831913,-107583.26,-78849.164,-44546.387,-28254.762,-4656.2095,-32720.42,-52865.926,1272.7865
1312978.7832831857,-107592.66,-78848.836,-44549.684,-28255.332,-4655.355,-32726.076,-52866.78,1271.8914
1312978.7872831803,-107581.71,-78838.3,-44548.625,-28250.652,-4648.6816,-32734.213,-52871.016,1262.4105
1312978.7912831749,-107569.22,-78830.2,-44546.266,-28247.64,-4645.345,-32735.434,-52872.03,1258.2601
1312978.7952831693,-107571.78,-78832.484,-44543.66,-28248.455,-4648.3564,-32725.344,-52869.14,1264.6484
1312978.7992831639,-107581.14,-78839.68,-44545.9,-28251.465,-4654.175,-32719.809,-52869.793,1264.8113
1312978.8032831582,-107582.69,-78845.22,-44546.67,-28252.441,-4654.175,-32724.367,-52870.32,1264.4857
1312978.8072831528,-107581.55,-78844.445,-44550.254,-28251.994,-4654.012,-32733.521,-52869.914,1264.974
1312978.8112831472,-107581.625,-78842.05,-44552.168,-28252.523,-4653.3613,-32734.945,-52869.71,1261.6375
1312978.8152831418,-107583.3,-78846.16,-44552.777,-28253.459,-4655.599,-32727.5,-52870.688,1259.6436
1312978.8192831362,-107587.28,-78853.03,-44554.89,-28255.494,-4659.9937,-32720.256,-52868.086,1264.2009
1312978.8232831308,-107587.12,-78850.06,-44554.08,-28253.826,-4659.1797,-32722.697,-52865.723,1266.9271
1312978.8272831251,-107580.49,-78844.16,-44553.305,-28251.22,-4657.43,-32730.877,-52863.77,1269.165
1312978.8312831197,-107583.17,-78842.57,-44551.19,-28249.756,-4657.2266,-32730.877,-52861.168,1272.1355
1312978.835283114,-107593.55,-78848.63,-44550.375,-28251.709,-4660.075,-32722.25,-52861.816,1270.5486
1312978.8392831087,-107595.91,-78854.086,-44551.637,-28253.338,-4661.743,-32716.635,-52862.43,1268.9617
1312978.8432831033,-107593.836,-78852.09,-44553.914,-28252.646,-4660.238,-32721.396,-52862.227,1271.5251
1312978.8472830977,-107586.39,-78846.07,-44554.688,-28250.814,-4656.006,-32728.436,-52864.258,1271.6064
1312978.8512830923,-107587.445,-78847.7,-44555.95,-28250.285,-4654.175,-32731.975,-52869.266,1264.8926
1312978.8552830867,-107588.83,-78851.195,-44556.195,-28250.611,-4657.064,-32726.115,-52875.367,1259.3994
1312978.8592830813,-107586.71,-78850.875,-44553.996,-28250.938,-4661.174,-32720.95,-52877.32,1258.4636
1312978.8632830756,-107587.24,-78849.66,-44553.67,-28250.205,-4661.133,-32723.43,-52874.797,1262.085
1312978.8672830702,-107590.21,-78844.69,-44553.305,-28246.787,-4653.8086,-32731.04,-52875.45,1262.3699
1312978.8712830646,-107584.4,-78840.414,-44552.004,-28246.746,-4652.7915,-32734.092,-52879.152,1254.8422
1312978.8752830592,-107586.14,-78843.305,-44548.22,-28248.332,-4654.0527,-32724.936,-52876.305,1260.6609
1312978.8792830536,-107585.58,-78847.13,-44546.875,-28252.117,-4659.0986,-32716.229,-52877.727,1259.3181
1312978.8832830482,-107581.75,-78845.3,-44548.18,-28253.215,-4656.5757,-32718.71,-52876.06,1259.3181
1312978.8872830425,-107580.65,-78841.02,-44551.23,-28250.244,-4651.9775,-32726.32,-52874.637,1262.9395
1312978.8912830371,-107578.62,-78839.6,-44550.78,-28248.984,-4650.3096,-32727.744,-52873.82,1267.1713
1312978.8952830317,-107575.65,-78839.52,-44547.85,-28249.188,-4651.2046,-32720.094,-52871.95,1263.4685
1312978.899283026,-107576.74,-78842.25,-44547.49,-28251.629,-4655.599,-32713.137,-52867.066,1270.7927
1312978.9032830207,-107577.195,-78839.32,-44548.953,-28251.426,-4654.2563,-32715.293,-52861.777,1276.0824
1312978.907283015,-107576.74,-78837.37,-44551.72,-28249.96,-4650.5127,-32724.691,-52862.227,1272.7458
1312978.9112830097,-107572.31,-78837.445,-44548.953,-28249.594,-4648.275,-32725.994,-52864.016,1270.9554
1312978.915283004,-107571.66,-78839.48,-44544.72,-28250.732,-4651.9775,-32715.943,-52864.34,1271.1182
1312978.9192829987,-107580.94,-78843.63,-44545.613,-28255.006,-4657.5522,-32709.025,-52862.836,1274.9023
1312978.923282993,-107590.91,-78843.875,-44547.934,-28253.867,-4658.081,-32712.648,-52862.715,1271.3217
1312978.9272829876,-107590.3,-78842.98,-44550.78,-28250.732,-4655.5586,-32722.332,-52865.766,1267.2527
1312978.931282982,-107584.68,-78842.2,-44549.113,-28248.576,-4655.5586,-32725.871,-52865.195,1270.6707
1312978.9352829766,-107582.484,-78843.266,-44545.535,-28250.082,-4657.7964,-32718.752,-52867.434,1264.9333
1312978.939282971,-107585.984,-78847.45,-44545.25,-28251.588,-4663.0454,-32712.363,-52866.984,1260.2539
1312978.9432829656,-107588.87,-78850.836,-44547.08,-28251.588,-4664.266,-32716.92,-52866.496,1259.6029
1312978.9472829602,-107585.125,-78846.56,-44549.316,-28248.861,-4657.2676,-32725.994,-52866.09,1265.1367
1312978.9512829545,-107580.85,-78840.984,-44548.707,-28245.89,-4657.3486,-32727.662,-52866.54,1267.8223
1312978.9552829491,-107580.2,-78843.14,-44542.24,-28243.896,-4657.6743,-32718.467,-52866.62,1268.1478
1312978.9592829435,-107584.805,-78846.97,-44542.36,-28246.379,-4660.36,-32715.455,-52870.973,1267.1713
1312978.963282938,-107586.8,-78847.62,-44543.867,-28245.932,-4660.075,-32720.217,-52873.496,1261.2305
1312978.9672829325,-107588.95,-78849.2,-44547.285,-28244.508,-4657.43,-32730.348,-52874.797,1257.5684
1312978.971282927,-107587.2,-78847.945,-44546.957,-28243.896,-4658.9766,-32731.365,-52872.152,1262.8582
1312978.9752829215,-107594.32,-78851.12,-44543.62,-28244.182,-4661.499,-32722.373,-52871.785,1262.085
1312978.979282916,-107599.734,-78855.02,-44544.395,-28246.787,-4665.08,-32717.043,-52875.69,1257.0801
1312978.9832829104,-107599.53,-78855.96,-44550.457,-28246.867,-4663.9404,-32721.965,-52880.617,1254.8828
1312978.987282905,-107592.21,-78847.13,-44550.984,-28243.328,-4656.616,-32728.924,-52879.926,1260.0098
1312978.9912828996,-107574.95,-78835.164,-44546.387,-28240.234,-4652.2627,-32729.777,-52877.32,1263.9974
1312978.995282894,-107577.15,-78840.45,-44544.844,-28242.758,-4656.4536,-32723.674,-52877.156,1261.3119
1312978.9992828886,-107599.86,-78852.13,-44548.098,-28247.803,-4660.238,-32718.791,-52871.582,1268.514
1312979.003282883,-107600.06,-78851.28,-44550.375,-28248.576,-4661.4585,-32720.988,-52869.754,1266.3982
1312979.0072828776,-107595.34,-78848.96,-44551.555,-28245.605,-4660.4414,-32726.156,-52866.945,1269.7754
1312979.011282872,-107591.44,-78848.72,-44548.3,-28243.49,-4660.5225,-32725.588,-52862.754,1280.3549
1312979.0152828665,-107586.71,-78848.63,-44544.027,-28243.49,-4660.3193,-32716.717,-52865.195,1279.7852
1312979.019282861,-107587.28,-78853.97,-44542.523,-28245.322,-4665.039,-32711.834,-52867.676,1272.3389
1312979.0232828555,-107586.914,-78853.84,-44540.73,-28243.205,-4662.9233,-32716.105,-52866.457,1265.7878
1312979.02728285,-107583.055,-78848.63,-44542.32,-28241.008,-4659.709,-32725.75,-52865.684,1270.101
1312979.0312828445,-107579.43,-78849.86,-44542.81,-28240.684,-4659.465,-32726.768,-52864.137,1281.6162
1312979.0352828389,-107581.22,-78854.375,-44539.754,-28243.45,-4663.127,-32716.066,-52862.227,1288.8591
1312979.0392828335,-107587.24,-78858.484,-44540.324,-28244.793,-4665.1206,-32708.01,-52862.508,1288.5742
1312979.043282828,-107590.3,-78855.836,-44543.703,-28245.078,-4664.1035,-32711.63,-52864.42,1283.4066
1312979.0472828224,-107583.78,-78849.734,-44548.22,-28243.693,-4658.773,-32720.42,-52864.91,1281.657
1312979.051282817,-107579.19,-78846.36,-44548.22,-28241.943,-4654.663,-32722.453,-52862.715,1285.9701
1312979.0552828114,-107578.82,-78848.92,-44545.492,-28242.514,-4655.233,-32713.258,-52862.793,1286.8652
1312979.059282806,-107582.73,-78853.805,-44543.215,-28244.71,-4658.651,-32708.822,-52867.35,1273.8445
1312979.0632828004,-107588.055,-78850.63,-44543.17,-28244.873,-4658.4473,-32715.537,-52867.598,1269.6533
1312979.067282795,-107585.82,-78846.93,-44544.477,-28242.27,-4656.616,-32724.123,-52868.53,1272.2168
1312979.0712827893,-107582.195,-78842.05,-44540.69,-28238.242,-4652.2627,-32722.617,-52864.87,1279.0527
1312979.075282784,-107582.36,-78844.445,-44537.19,-28238.078,-4653.28,-32714.357,-52864.22,1278.4017
1312979.0792827783,-107587.28,-78849.125,-44539.145,-28241.62,-4658.2847,-32709.88,-52867.027,1266.8457
1312979.083282773,-107584.68,-78848.76,-44542.766,-28241.252,-4657.3486,-32715.21,-52867.92,1266.8457
1312979.0872827673,-107589.64,-78842.82,-44544.844,-28240.234,-4652.71,-32722.129,-52865.36,1270.4265
1312979.091282762,-107584.27,-78838.79,-44541.14,-28237.428,-4650.879,-32721.803,-52864.668,1274.5769
1312979.0952827565,-107580.94,-78840.945,-44536.906,-28236.654,-4653.2393,-32715.09,-52867.676,1272.8679
1312979.0992827509,-107583.13,-78843.875,-44536.99,-28238.81,-4657.43,-32711.346,-52869.832,1267.9443
1312979.1032827455,-107583.3,-78844.89,-44540.12,-28239.38,-4657.9185,-32715.414,-52868.29,1268.514
1312979.1072827398,-107577.64,-78837.77,-44542.277,-28237.387,-4652.2627,-32722.453,-52865.97,1274.3328
1312979.1112827344,-107572.39,-78835.734,-44540.164,-28234.213,-4649.699,-32722.453,-52864.992,1275.4314
1312979.1152827288,-107579.1,-78844.65,-44540.73,-28237.59,-4654.012,-32714.193,-52865.277,1274.8617
1312979.1192827234,-107587.28,-78852.91,-44546.797,-28241.008,-4660.1562,-32711.184,-52866.945,1268.5547
1312979.1232827178,-107588.586,-78853.44,-44549.6,-28241.21,-4659.668,-32717.326,-52866.984,1268.6361
1312979.1272827124,-107589.4,-78852.586,-44549.6,-28239.178,-4657.6743,-32725.791,-52867.676,1273.1934
1312979.1312827067,-107583.42,-78849.9,-44544.15,-28235.312,-4655.6396,-32727.418,-52871.055,1270.5486
1312979.1352827013,-107581.83,-78848.836,-44537.273,-28234.945,-4660.075,-32718.467,-52870.566,1272.2168
1312979.1392826957,-107582.445,-78857.83,-44536.01,-28237.998,-4666.097,-32712.078,-52867.92,1271.5658
1312979.1432826903,-107585.164,-78857.055,-44540.652,-28240.316,-4665.975,-32716.514,-52865.684,1275.1465
1312979.147282685,-107584.48,-78849.53,-44544.312,-28237.957,-4661.7026,-32724.691,-52863.85,1276.6521
1312979.1512826793,-107584.805,-78850.1,-44544.516,-28235.963,-4660.075,-32724.895,-52865.277,1273.112
1312979.155282674,-107581.18,-78855.15,-44542.93,-28237.184,-4661.7026,-32716.31,-52866.008,1272.1355
1312979.1592826683,-107582.97,-78858.6,-44541.016,-28239.787,-4662.9233,-32710.94,-52868.29,1265.5029
1312979.1632826629,-107585.21,-78857.055,-44541.344,-28238.934,-4662.3945,-32716.799,-52871.297,1254.598
1312979.1672826572,-107579.43,-78850.38,-44539.836,-28236.125,-4657.715,-32724.977,-52872.273,1255.1677
1312979.1712826518,-107575.52,-78847.82,-44536.215,-28233.398,-4655.1924,-32723.023,-52869.223,1260.6609
1312979.1752826462,-107572.88,-78849.53,-44533.977,-28234.986,-4657.308,-32713.299,-52863.973,1268.6361
1312979.1792826408,-107570.68,-78849.57,-44534.383,-28235.922,-4658.9766,-32706.951,-52862.062,1268.8802
1312979.1832826352,-107574.42,-78847.25,-44538.74,-28235.8,-4658.122,-32711.834,-52861.574,1270.9961
1312979.1872826298,-107574.06,-78840.78,-44541.992,-28234.498,-4654.297,-32721.682,-52861.777,1272.5017
1312979.1912826244,-107569.75,-78836.06,-44540.12,-28231.65,-4652.303,-32723.023,-52860.84,1276.2859
1312979.1952826187,-107571.91,-78839.12,-44537.273,-28230.674,-4653.4424,-32712.688,-52863.04,1271.1996
1312979.1992826134,-107573.695,-78839.766,-44537.11,-28231.04,-4655.925,-32706.137,-52862.793,1270.1416
1312979.2032826077,-107578.29,-78838.38,-44540.324,-28232.504,-4654.3784,-32711.875,-52864.18,1262.2885
1312979.2072826023,-107580.53,-78837.164,-44544.11,-28232.3,-4651.6113,-32721.03,-52863.973,1258.7078
1312979.2112825967,-107574.51,-78835.33,-44544.355,-28229.941,-4650.106,-32720.094,-52863.73,1264.3636
1312979.2152825913,-107572.31,-78837.32,-44543.824,-28231.04,-4651.937,-32711.793,-52864.098,1260.905
1312979.2192825857,-107574.55,-78838.99,-44543.215,-28232.91,-4656.291,-32702.19,-52861.004,1263.7533
1312979.2232825803,-107577.805,-78837.94,-44544.965,-28233.643,-4654.541,-32704.754,-52858.277,1264.974
1312979.2272825746,-107571.05,-78837.445,-44544.965,-28230.957,-4652.7915,-32712.688,-52856.285,1271.8099
1312979.2312825692,-107568.12,-78834.19,-44542.402,-28230.021,-4651.123,-32710.246,-52855.633,1271.4031
1312979.2352825636,-107570.73,-78837.65,-44540.082,-28232.504,-4654.5005,-32702.395,-52859.418,1263.2244
1312979.2392825582,-107575.04,-78843.43,-44539.105,-28233.521,-4658.9355,-32695.883,-52861.41,1258.5449
1312979.2432825528,-107579.67,-78843.14,-44540.57,-28233.033,-4657.7964,-32698.447,-52859.703,1261.556
1312979.2472825472,-107573.94,-78837.94,-44542.117,-28230.754,-4655.721,-32705.16,-52861.004,1259.6843
1312979.2512825418,-107572.47,-78836.63,-44539.55,-28228.191,-4656.5757,-32704.469,-52858.93,1264.2009
1312979.2552825361,-107574.63,-78841.88,-44537.234,-28229.248,-4659.79,-32695.477,-52860.15,1261.8002
1312979.2592825308,-107576.336,-78849.77,-44538.94,-28234.01,-4661.8247,-32690.797,-52862.1,1256.5918
1312979.2632825251,-107577.44,-78849.24,-44541.22,-28233.928,-4659.587,-32693.4,-52860.15,1258.4229
1312979.2672825197,-107574.79,-78836.55,-44542.277,-28230.389,-4652.385,-32701.906,-52862.918,1252.4008
1312979.271282514,-107572.59,-78836.305,-44540.652,-28228.72,-4649.9434,-32701.58,-52866.008,1251.18
1312979.2752825087,-107572.266,-78840.78,-44536.95,-28229.941,-4655.233,-32693.197,-52864.625,1254.9642
1312979.279282503,-107575.766,-78844.08,-44536.258,-28231.975,-4658.9766,-32687.826,-52865.645,1253.4994
1312979.2832824977,-107578.86,-78844.77,-44538.74,-28233.521,-4658.244,-32689.982,-52863.203,1255.3711
1312979.287282492,-107574.586,-78839.89,-44540.57,-28231.406,-4654.0527,-32696.86,-52860.15,1259.1146
1312979.2912824866,-107571.375,-78835.29,-44540.773,-28228.924,-4652.0996,-32698.0,-52858.035,1261.1084
1312979.2952824812,-107569.75,-78839.44,-44538.86,-28230.55,-4654.3784,-32689.006,-52859.66,1260.1318
1312979.2992824756,-107570.03,-78844.12,-44537.234,-28232.666,-4655.884,-32681.234,-52856.16,1265.625
1312979.3032824702,-107570.516,-78843.02,-44537.355,-28232.3,-4654.5005,-32686.32,-52857.992,1258.1787
1312979.3072824646,-107564.66,-78837.0,-44536.906,-28229.33,-4649.9434,-32695.68,-52860.637,1250.407
1312979.3112824592,-107566.37,-78833.375,-44537.52,-28228.72,-4647.6646,-32697.186,-52861.29,1256.4697
1312979.3152824536,-107566.45,-78835.086,-44537.234,-28229.656,-4649.1294,-32686.605,-52859.375,1263.9974
1312979.3192824482,-107566.61,-78837.85,-44535.77,-28232.383,-4651.5303,-32677.775,-52856.285,1268.8396
1312979.3232824425,-107576.09,-78838.95,-44538.86,-28234.295,-4650.798,-32681.438,-52851.24,1274.6582
1312979.3272824371,-107568.69,-78833.26,-44539.227,-28229.209,-4645.671,-32687.785,-52848.023,1274.6582
1312979.3312824315,-107563.07,-78832.766,-44538.047,-28228.598,-4646.7285,-32685.426,-52845.95,1278.2797
1312979.335282426,-107561.28,-78837.73,-44533.33,-28232.26,-4650.5537,-32675.01,-52842.9,1283.6101
1312979.3392824205,-107563.93,-78836.23,-44531.17,-28234.336,-4651.3267,-32670.127,-52844.28,1275.1873
1312979.343282415,-107566.82,-78836.1,-44533.043,-28234.457,-4652.0996,-32676.963,-52848.348,1273.2748
1312979.3472824097,-107567.914,-78830.445,-44533.855,-28233.074,-4648.7227,-32687.623,-52851.156,1273.4375
1312979.351282404,-107560.55,-78823.65,-44529.99,-28229.777,-4644.328,-32686.85,-52851.848,1274.3734
1312979.3552823986,-107556.234,-78826.5,-44528.402,-28231.04,-4647.2983,-32679.16,-52848.27,1278.1576
1312979.359282393,-107559.53,-78831.34,-44529.055,-28235.719,-4654.297,-32675.457,-52847.74,1274.3328
1312979.3632823876,-107563.52,-78835.01,-44532.066,-28235.516,-4655.0293,-32680.422,-52849.406,1271.932
1312979.367282382,-107566.29,-78831.55,-44534.668,-28231.65,-4651.164,-32687.338,-52849.57,1273.2341
1312979.3712823766,-107564.21,-78828.94,-44534.06,-28231.445,-4650.757,-32687.826,-52852.824,1269.9789
1312979.375282371,-107560.67,-78830.65,-44532.27,-28233.115,-4652.1406,-32679.078,-52855.715,1264.7705
1312979.3792823656,-107560.34,-78832.195,-44531.414,-28233.277,-4652.2627,-32672.242,-52857.504,1260.3353
1312979.38328236,-107560.71,-78833.74,-44534.668,-28231.61,-4650.635,-32678.713,-52860.72,1255.9408
1312979.3872823545,-107563.84,-78831.22,-44537.234,-28230.348,-4647.0137,-32689.658,-52862.227,1256.8767
1312979.391282349,-107570.48,-78831.14,-44535.688,-28229.941,-4646.8506,-32687.746,-52856.61,1270.0603
1312979.3952823435,-107566.33,-78833.5,-44530.76,-28230.795,-4648.7227,-32678.264,-52853.68,1265.7471
1312979.399282338,-107569.83,-78839.4,-44531.863,-28232.504,-4654.216,-32671.348,-52852.05,1261.7595
1312979.4032823325,-107570.56,-78837.2,-44534.426,-28233.074,-4651.8555,-32675.254,-52852.05,1266.2761
1312979.407282327,-107563.195,-78830.61,-44535.484,-28230.754,-4649.2515,-32684.775,-52855.105,1266.4388
1312979.4112823214,-107557.414,-78826.54,-44533.53,-28228.639,-4646.8506,-32684.611,-52854.902,1269.6941
1312979.415282316,-107564.375,-78831.42,-44532.51,-28230.877,-4648.8037,-32677.451,-52854.25,1270.2637
1312979.4192823104,-107568.41,-78836.51,-44530.64,-28232.3,-4650.3906,-32672.812,-52854.047,1271.0775
1312979.423282305,-107562.22,-78834.72,-44531.25,-28231.242,-4648.3154,-32679.281,-52854.695,1269.9382
1312979.4272822994,-107561.85,-78831.664,-44533.406,-28230.348,-4644.979,-32684.45,-52851.402,1274.3734
1312979.431282294,-107564.13,-78834.72,-44532.96,-28232.586,-4646.3623,-32683.799,-52847.25,1282.2673
1312979.4352822884,-107562.83,-78834.96,-44527.67,-28233.684,-4648.967,-32673.178,-52843.06,1289.5101
1312979.439282283,-107571.91,-78838.625,-44528.77,-28237.63,-4651.3267,-32667.277,-52841.676,1286.7839
1312979.4432822776,-107569.75,-78839.97,-44533.367,-28239.014,-4652.303,-32673.016,-52841.35,1283.081
1312979.447282272,-107557.945,-78832.89,-44533.164,-28236.572,-4648.6006,-32681.479,-52841.434,1282.2266
1312979.4512822665,-107548.51,-78827.35,-44532.35,-28235.352,-4647.502,-32682.21,-52842.977,1277.832
1312979.455282261,-107554.89,-78827.48,-44530.926,-28236.451,-4649.984,-32673.38,-52843.305,1277.832
1312979.4592822555,-107559.77,-78829.1,-44526.246,-28235.84,-4650.0244,-32668.947,-52845.5,1277.71
1312979.4632822499,-107560.305,-78831.22,-44525.188,-28234.701,-4647.746,-32675.62,-52845.137,1277.71
1312979.4672822445,-107551.76,-78824.14,-44524.17,-28230.877,-4641.1543,-32681.275,-52843.875,1275.7976
1312979.4712822388,-107546.63,-78822.43,-44523.766,-28228.842,-4640.8286,-32680.584,-52842.207,1278.9307
1312979.4752822334,-107548.67,-78822.23,-44523.195,-28231.975,-4645.549,-32672.854,-52841.555,1282.9183
1312979.4792822278,-107541.95,-78816.125,-44524.21,-28233.318,-4648.1934,-32668.703,-52844.117,1276.6927
1312979.4832822224,-107531.664,-78807.05,-44527.59,-28232.871,-4646.24,-32674.033,-52844.2,1282.5115
1312979.4872822168,-107519.984,-78795.05,-44528.73,-28229.209,-4639.5264,-32680.91,-52844.605,1284.4238
1312979.4912822114,-107514.65,-78792.16,-44528.566,-28228.354,-4637.5327,-32683.473,-52848.51,1280.8431
1312979.495282206,-107513.35,-78790.33,-44525.72,-28229.533,-4639.9336,-32678.59,-52855.754,1272.8679
1312979.4992822004,-107503.95,-78785.24,-44524.293,-28230.021,-4641.7236,-32673.625,-52857.832,1269.9789
1312979.503282195,-107497.73,-78775.27,-44525.312,-28228.395,-4639.16,-32679.484,-52857.707,1268.5547
1312979.5072821893,-107483.56,-78749.23,-44524.336,-28221.803,-4628.581,-32687.95,-52860.15,1266.3982
1312979.511282184,-107459.96,-78725.875,-44520.59,-28217.814,-4621.0127,-32691.488,-52867.35,1252.4008
1312979.5152821783,-107443.28,-78721.97,-44516.48,-28217.652,-4623.0063,-32683.352,-52868.207,1250.4476
1312979.519282173,-107432.21,-78717.2,-44516.316,-28219.158,-4624.7153,-32679.404,-52867.555,1252.7263
1312979.5232821673,-107410.98,-78698.57,-44517.336,-28216.635,-4620.4023,-32686.32,-52868.695,1251.4648
1312979.5272821619,-107398.12,-78681.195,-44521.527,-28212.443,-4614.421,-32696.412,-52872.234,1248.0876
1312979.5312821562,-107394.414,-78671.1,-44521.934,-28211.955,-4613.4033,-32695.68,-52876.06,1245.7683
1312979.5352821508,-107376.18,-78657.88,-44517.945,-28211.02,-4611.654,-32688.682,-52877.973,1242.4724
1312979.5392821452,-107364.51,-78648.27,-44515.42,-28211.346,-4610.067,-32686.037,-52879.11,1242.391
1312979.5432821398,-107354.21,-78634.93,-44515.465,-28208.62,-4604.5737,-32691.244,-52883.344,1234.782
1312979.5472821344,-107338.055,-78623.74,-44515.75,-28203.818,-4598.755,-32701.254,-52886.598,1229.2888
1312979.5512821288,-107323.125,-78609.984,-44512.13,-28199.992,-4594.2793,-32701.457,-52888.55,1225.5453
1312979.5552821234,-107312.914,-78606.65,-44510.336,-28199.912,-4596.395,-32692.668,-52885.824,1224.5687
1312979.5592821178,-107309.33,-78609.3,-44509.156,-28202.76,-4599.7314,-32687.623,-52882.164,1230.9164
1312979.5632821124,-107313.16,-78607.75,-44511.273,-28203.41,-4599.2026,-32691.691,-52881.55,1235.2703
1312979.5672821067,-107314.336,-78602.99,-44510.05,-28199.627,-4594.9707,-32698.61,-52879.03,1241.1703
1312979.5712821013,-107320.195,-78607.26,-44509.766,-28198.73,-4595.378,-32697.43,-52879.19,1240.3972
1312979.5752820957,-107322.88,-78615.195,-44507.938,-28200.684,-4598.674,-32690.227,-52885.582,1233.5205
1312979.5792820903,-107324.42,-78624.68,-44506.55,-28202.842,-4601.3594,-32685.832,-52890.547,1224.4873
1312979.5832820847,-107337.81,-78630.49,-44507.855,-28202.637,-4599.691,-32690.797,-52889.61,1228.3529
1312979.5872820793,-107350.266,-78638.35,-44511.19,-28203.736,-4599.3247,-32696.738,-52886.64,1234.0088
1312979.5912820736,-107358.36,-78644.984,-44513.47,-28204.795,-4600.708,-32695.762,-52888.062,1227.8646
1312979.5952820682,-107365.69,-78653.73,-44510.867,-28206.666,-4605.1436,-32686.24,-52886.395,1229.7363
1312979.5992820628,-107379.27,-78668.99,-44514.73,-28210.328,-4612.956,-32683.39,-52888.266,1228.7598
1312979.6032820572,-107386.234,-78677.33,-44519.94,-28211.63,-4613.2407,-32690.553,-52888.836,1227.7832
1312979.6072820518,-107391.12,-78679.164,-44522.016,-28209.107,-4608.8057,-32698.447,-52888.266,1233.0322
1312979.6112820462,-107403.41,-78685.67,-44521.445,-28210.125,-4607.5034,-32695.762,-52888.43,1234.5785
1312979.6152820408,-107414.19,-78697.39,-44519.004,-28212.037,-4612.0605,-32684.164,-52883.586,1242.5945
1312979.6192820352,-107430.55,-78711.23,-44520.508,-28216.758,-4618.2456,-32677.654,-52878.906,1248.9014
1312979.6232820298,-107442.18,-78719.32,-44523.152,-28220.703,-4621.257,-32682.455,-52878.582,1249.349
1312979.6272820241,-107440.15,-78721.4,-44522.664,-28217.123,-4618.978,-32688.07,-52874.39,1252.9705
1312979.6312820187,-107440.92,-78724.24,-44521.934,-28214.64,-4619.344,-32685.752,-52869.875,1257.4056
1312979.635282013,-107453.54,-78739.055,-44522.383,-28219.28,-4626.1396,-32676.88,-52866.984,1260.2133
1312979.6392820077,-107461.63,-78750.53,-44525.434,-28221.191,-4632.0396,-32668.824,-52864.34,1260.3353
1312979.6432820023,-107467.49,-78752.69,-44529.746,-28222.25,-4633.301,-32675.213,-52862.996,1260.7422
1312979.6472819967,-107478.88,-78751.79,-44530.477,-28222.9,-4629.5166,-32683.146,-52860.965,1262.1257
1312979.6512819913,-107483.04,-78752.61,-44529.707,-28221.273,-4625.8545,-32682.049,-52863.445,1258.4636
1312979.6552819856,-107484.664,-78761.516,-44528.65,-28222.373,-4631.3887,-32673.38,-52864.22,1258.7484
1312979.6592819802,-107491.58,-78771.61,-44527.63,-28225.668,-4636.3525,-32669.516,-52865.074,1259.3181
1312979.6632819746,-107495.2,-78778.77,-44529.99,-28225.668,-4636.312,-32676.84,-52868.613,1254.8828
1312979.6672819692,-107500.62,-78777.875,-44531.78,-28222.9,-4633.2603,-32685.385,-52866.66,1258.5043
1312979.6712819636,-107506.516,-78779.83,-44530.56,-28222.412,-4634.074,-32682.293,-52863.203,1268.2699
1312979.6752819582,-107511.97,-78784.51,-44531.21,-28224.0,-4638.021,-32673.83,-52862.02,1272.2982
1312979.6792819526,-107510.22,-78792.766,-44531.375,-28226.441,-4643.392,-32670.127,-52863.28,1268.3513
1312979.6832819472,-107510.83,-78792.24,-44533.45,-28226.318,-4642.456,-32674.725,-52861.86,1270.9961
1312979.6872819415,-107520.1,-78786.664,-44536.01,-28226.36,-4636.7188,-32682.943,-52859.62,1273.641
1312979.6912819361,-107514.29,-78781.21,-44533.53,-28224.61,-4632.4463,-32681.926,-52859.375,1272.4203
1312979.6952819307,-107508.586,-78785.69,-44529.38,-28224.406,-4635.0913,-32673.707,-52859.17,1272.9492
1312979.699281925,-107510.22,-78790.0,-44528.566,-28225.709,-4638.916,-32670.574,-52860.395,1269.2465
1312979.7032819197,-107510.13,-78786.945,-44529.707,-28224.977,-4638.3057,-32676.271,-52859.58,1268.2699
1312979.707281914,-107509.41,-78784.016,-44530.113,-28222.25,-4635.254,-32682.984,-52856.49,1276.6113
1312979.7112819087,-107507.086,-78781.945,-44529.01,-28220.215,-4632.406,-32679.729,-52853.598,1287.6791
1312979.715281903,-107510.3,-78788.21,-44527.508,-28221.965,-4634.1553,-32669.23,-52849.812,1292.8467
1312979.7192818976,-107521.33,-78795.125,-44528.89,-28223.553,-4637.9395,-32662.518,-52847.94,1289.6322
1312979.723281892,-107525.11,-78793.5,-44533.69,-28223.309,-4637.329,-32668.703,-52848.31,1286.8652
1312979.7272818866,-107522.586,-78789.39,-44536.297,-28221.885,-4632.6904,-32677.531,-52850.63,1288.615
1312979.731281881,-107516.08,-78788.336,-44534.87,-28221.518,-4632.9346,-32676.107,-52852.133,1291.2191
1312979.7352818756,-107515.42,-78796.06,-44529.785,-28223.145,-4638.591,-32668.133,-52853.23,1294.1082
1312979.73928187,-107524.78,-78806.195,-44529.746,-28225.912,-4641.805,-32663.127,-52852.46,1290.446
1312979.7432818646,-107523.44,-78801.19,-44531.82,-28224.041,-4638.2246,-32667.197,-52851.074,1292.7654
1312979.7472818592,-107524.055,-78795.33,-44535.035,-28221.273,-4635.132,-32675.213,-52852.62,1287.9232
1312979.7512818535,-107522.71,-78793.09,-44531.21,-28221.477,-4636.1084,-32674.318,-52851.605,1289.917
1312979.7552818481,-107519.78,-78797.04,-44527.547,-28222.697,-4640.666,-32666.953,-52850.098,1292.9688
1312979.7592818425,-107523.64,-78804.98,-44527.875,-28224.773,-4644.857,-32663.86,-52851.32,1290.6088
1312979.763281837,-107525.96,-78807.54,-44530.805,-28225.059,-4644.8164,-32671.389,-52852.54,1282.7963
1312979.7672818315,-107528.98,-78807.13,-44533.734,-28224.121,-4641.7236,-32680.38,-52852.297,1286.8652
1312979.771281826,-107528.32,-78807.414,-44531.13,-28221.924,-4640.747,-32680.625,-52856.242,1278.9714
1312979.7752818204,-107526.9,-78806.12,-44528.605,-28222.129,-4642.4155,-32672.975,-52859.54,1271.5251
1312979.779281815,-107532.72,-78810.75,-44529.707,-28224.691,-4642.904,-32669.76,-52859.66,1270.1824
1312979.7832818094,-107538.05,-78814.58,-44534.1,-28226.768,-4645.1416,-32677.898,-52860.598,1271.3217
1312979.787281804,-107538.5,-78809.9,-44535.89,-28223.959,-4642.7,-32687.135,-52863.527,1268.1478
1312979.7912817984,-107532.516,-78809.37,-44530.234,-28220.012,-4642.009,-32685.14,-52862.633,1269.165
1312979.795281793,-107538.7,-78814.45,-44528.242,-28222.617,-4647.6646,-32676.516,-52861.453,1265.8285
1312979.7992817876,-107543.7,-78819.54,-44527.67,-28225.791,-4650.5127,-32669.516,-52859.863,1262.3291
1312979.803281782,-107540.33,-78816.33,-44529.137,-28225.139,-4648.1934,-32673.83,-52857.79,1260.3353
1312979.8072817766,-107532.23,-78816.695,-44528.85,-28223.47,-4644.2466,-32683.352,-52857.91,1265.0146
1312979.811281771,-107539.555,-78818.32,-44528.32,-28223.145,-4645.63,-32682.09,-52857.79,1266.5203
1312979.8152817655,-107547.57,-78819.46,-44527.996,-28223.838,-4649.048,-32673.3,-52858.81,1264.974
1312979.81928176,-107549.4,-78823.94,-44527.875,-28225.424,-4651.2046,-32669.475,-52857.707,1265.2996
1312979.8232817545,-107545.66,-78825.36,-44527.957,-28224.326,-4652.181,-32674.643,-52856.527,1267.741
1312979.8272817489,-107541.55,-78821.66,-44528.2,-28221.965,-4650.2686,-32683.146,-52858.81,1261.556
1312979.8312817435,-107546.875,-78814.86,-44528.363,-28221.518,-4650.5537,-32682.414,-52861.816,1257.9753
1312979.8352817378,-107543.54,-78817.22,-44521.973,-28221.885,-4655.111,-32671.145,-52860.965,1256.958
1312979.8392817324,-107542.61,-78824.14,-44521.85,-28224.732,-4659.831,-32665.732,-52857.668,1261.1898
1312979.843281727,-107543.46,-78821.984,-44526.855,-28224.203,-4656.7383,-32671.348,-52857.344,1261.7595
1312979.8472817214,-107540.125,-78815.72,-44528.77,-28220.867,-4650.8384,-32678.793,-52858.24,1260.0098
1312979.851281716,-107538.66,-78809.9,-44527.63,-28217.855,-4648.1934,-32676.799,-52856.082,1264.1195
1312979.8552817104,-107537.11,-78809.86,-44525.188,-28218.67,-4649.536,-32666.871,-52853.23,1268.8396
1312979.859281705,-107543.91,-78812.99,-44526.246,-28220.256,-4651.245,-32660.28,-52849.285,1271.4844
1312979.8632816994,-107544.195,-78814.375,-44529.99,-28221.07,-4650.9604,-32665.773,-52852.215,1266.0726
1312979.867281694,-107536.18,-78808.35,-44532.27,-28219.158,-4646.444,-32672.893,-52852.254,1268.5547
1312979.8712816883,-107534.18,-78804.89,-44531.535,-28218.14,-4643.0664,-32668.824,-52849.406,1276.0824
1312979.875281683,-107535.98,-78806.32,-44524.863,-28219.688,-4645.0605,-32658.896,-52847.58,1276.7742
1312979.8792816773,-107528.69,-78810.914,-44525.15,-28221.68,-4649.1294,-32656.129,-52851.848,1267.1306
1312979.883281672,-107533.49,-78806.6,-44528.973,-28221.152,-4647.6646,-32662.844,-52855.47,1262.7767
1312979.8872816663,-107545.945,-78798.055,-44527.754,-28216.879,-4640.544,-32670.127,-52856.406,1258.5449
1312979.8912816609,-107540.04,-78795.695,-44524.293,-28215.293,-4637.207,-32666.994,-52855.715,1256.4291
1312979.8952816555,-107532.23,-78800.414,-44519.086,-28214.926,-4639.974,-32655.314,-52849.938,1264.5264
1312979.8992816499,-107532.72,-78806.12,-44521.363,-28217.938,-4643.514,-32651.45,-52847.25,1266.805
1312979.9032816445,-107539.31,-78806.805,-44527.14,-28219.727,-4641.195,-32656.861,-52847.168,1268.1885
1312979.9072816388,-107539.68,-78802.37,-44526.855,-28216.838,-4637.6143,-32662.395,-52848.145,1267.6189
1312979.9112816334,-107537.4,-78800.87,-44523.805,-28217.408,-4636.7188,-32660.482,-52851.2,1256.8359
1312979.9152816278,-107540.77,-78807.62,-44522.383,-28219.523,-4641.1543,-32650.107,-52850.996,1250.1221
1312979.9192816224,-107544.195,-78814.7,-44524.984,-28223.186,-4646.444,-32648.275,-52853.355,1248.2097
1312979.9232816168,-107549.56,-78813.36,-44528.035,-28223.064,-4644.45,-32654.502,-52855.227,1247.1111
1312979.9272816114,-107551.15,-78809.2,-44527.1,-28220.5,-4640.1367,-32659.791,-52855.47,1248.5352
1312979.9312816057,-107546.63,-78809.25,-44527.06,-28219.89,-4637.6953,-32657.229,-52855.715,1249.3083
1312979.9352816003,-107547.04,-78813.56,-44527.426,-28223.186,-4640.747,-32647.787,-52854.98,1248.3318
1312979.9392815947,-107553.76,-78814.7,-44530.684,-28225.262,-4643.0664,-32642.295,-52851.484,1254.2725
1312979.9432815893,-107552.125,-78814.78,-44533.33,-28225.262,-4641.6016,-32647.787,-52849.285,1252.9705
1312979.947281584,-107546.96,-78813.56,-44534.668,-28223.959,-4640.991,-32655.6,-52850.914,1250.9766
1312979.9512815783,-107544.31,-78812.95,-44534.87,-28222.006,-4641.8867,-32655.314,-52854.453,1244.1406
1312979.9552815729,-107546.555,-78816.086,-44532.15,-28224.326,-4643.921,-32644.736,-52848.145,1254.2318
1312979.9592815673,-107552.25,-78815.15,-44533.164,-28226.604,-4644.857,-32640.951,-52843.426,1262.2478
1312979.9632815619,-107554.41,-78813.97,-44536.582,-28227.824,-4642.497,-32647.787,-52845.215,1262.8582
1312979.9672815562,-107549.93,-78811.2,-44537.68,-28225.586,-4638.957,-32656.902,-52848.96,1258.0566
1312979.9712815508,-107548.83,-78813.52,-44537.355,-28226.768,-4639.9336,-32656.535,-52851.848,1260.2947
1312979.9752815452,-107558.39,-78818.41,-44536.01,-28229.98,-4645.1826,-32648.764,-52851.484,1261.434
1312979.9792815398,-107562.99,-78819.336,-44534.668,-28231.324,-4649.577,-32646.445,-52851.117,1259.0332
1312979.9832815342,-107556.32,-78818.69,-44535.77,-28231.486,-4649.7397,-32653.037,-52852.5,1253.7842
1312979.9872815288,-107549.73,-78815.555,-44535.156,-28228.477,-4647.38,-32658.652,-52848.836,1262.9802
1312979.9912815231,-107546.96,-78815.68,-44533.246,-28227.215,-4644.8164,-32656.617,-52847.656,1261.3525
1312979.9952815177,-107544.6,-78817.38,-44529.707,-28229.127,-4646.4033,-32647.543,-52844.484,1264.8113
1312979.9992815123,-107546.72,-78819.87,-44529.22,-28230.674,-4648.275,-32640.992,-52844.402,1267.2527
1312980.0032815067,-107552.375,-78819.42,-44531.863,-28231.365,-4646.6475,-32647.666,-52846.805,1260.5388
1312980.0072815013,-107549.484,-78813.36,-44534.18,-28228.598,-4640.381,-32655.926,-52847.86,1260.6201
1312980.0112814957,-107546.39,-78811.12,-44533.125,-28227.988,-4639.1196,-32653.484,-52845.703,1263.7533
1312980.0152814903,-107552.375,-78817.14,-44531.414,-28230.592,-4644.165,-32645.916,-52846.56,1255.7373
1312980.0192814847,-107556.6,-78821.86,-44532.676,-28232.545,-4648.5596,-32643.88,-52848.066,1251.058
1312980.0232814793,-107559.695,-78819.055,-44537.395,-28232.3,-4646.3623,-32649.943,-52849.977,1251.4242
1312980.0272814736,-107551.27,-78816.57,-44537.03,-28230.348,-4642.334,-32657.717,-52851.81,1249.7966
1312980.0312814682,-107553.39,-78815.266,-44536.133,-28230.104,-4641.3574,-32657.146,-52855.31,1241.2924
1312980.0352814626,-107555.26,-78814.82,-44535.484,-28232.057,-4644.328,-32647.463,-52852.418,1245.8496
1312980.0392814572,-107557.414,-78824.016,-44537.598,-28234.945,-4648.7227,-32643.719,-52846.965,1253.1738
1312980.0432814516,-107556.93,-78818.61,-44536.906,-28231.771,-4643.5957,-32648.764,-52845.215,1252.1566
1312980.0472814462,-107549.03,-78810.71,-44534.953,-28227.58,-4638.2246,-32656.74,-52844.523,1255.4932
1312980.0512814408,-107542.04,-78812.22,-44532.96,-28228.271,-4637.655,-32656.332,-52845.297,1253.4994
1312980.0552814351,-107545.62,-78813.766,-44532.227,-28230.877,-4640.7065,-32648.154,-52845.34,1251.0986
1312980.0592814297,-107545.74,-78813.11,-44534.793,-28232.91,-4643.4326,-32644.898,-52844.2,1254.8422
1312980.063281424,-107550.7,-78814.05,-44538.047,-28233.521,-4641.8867,-32651.328,-52844.605,1255.8594
1312980.0672814187,-107550.54,-78809.98,-44539.43,-28231.08,-4637.655,-32656.943,-52844.2,1255.2084
1312980.071281413,-107545.05,-78807.87,-44536.215,-28229.941,-4637.899,-32654.094,-52843.71,1257.6498
1312980.0752814077,-107548.38,-78811.61,-44532.96,-28232.016,-4641.968,-32645.63,-52845.055,1256.0222
1312980.079281402,-107547.77,-78813.27,-44532.555,-28232.748,-4644.979,-32642.986,-52846.52,1250.407
1312980.0832813967,-107543.99,-78813.234,-44532.31,-28232.545,-4644.7754,-32649.863,-52844.2,1249.6338
1312980.087281391,-107539.88,-78809.05,-44532.023,-28230.998,-4640.991,-32656.82,-52840.21,1259.3588
1312980.0912813856,-107541.95,-78810.305,-44529.91,-28230.266,-4641.4795,-32655.07,-52843.465,1258.0566
1312980.0952813802,-107544.64,-78816.86,-44528.605,-28231.73,-4644.1245,-32645.834,-52845.95,1256.8359
1312980.0992813746,-107551.555,-78819.99,-44532.31,-28234.498,-4646.444,-32644.328,-52848.473,1249.5117
1312980.1032813692,-107548.79,-78818.52,-44533.938,-28232.91,-4645.9556,-32650.92,-52848.39,1247.1517
1312980.1072813636,-107539.43,-78810.8,-44531.21,-28229.371,-4642.009,-32657.309,-52850.547,1246.1752
1312980.1112813582,-107539.31,-78811.32,-44529.785,-28229.453,-4641.6016,-32656.008,-52852.336,1241.4958
1312980.1152813525,-107546.47,-78817.18,-44528.85,-28231.65,-4647.9087,-32647.502,-52852.418,1236.8164
1312980.1192813471,-107544.68,-78819.83,-44527.914,-28233.725,-4650.0244,-32642.375,-52850.668,1239.9496
1312980.1232813415,-107549.65,-78821.945,-44530.965,-28233.684,-4647.38,-32647.99,-52848.27,1243.8152
1312980.127281336,-107551.92,-78819.055,-44532.676,-28230.633,-4642.09,-32654.46,-52844.89,1246.0531
1312980.1312813305,-107546.15,-78816.41,-44530.926,-28228.477,-4640.9507,-32653.443,-52844.727,1248.7386
1312980.135281325,-107545.82,-78820.11,-44529.055,-28230.836,-4642.8223,-32647.137,-52846.152,1251.2615
1312980.1392813195,-107551.96,-78819.46,-44528.688,-28230.998,-4643.799,-32645.469,-52846.844,1251.9531
1312980.143281314,-107548.67,-78817.016,-44531.496,-28230.633,-4643.718,-32650.676,-52847.37,1251.8718
1312980.1472813087,-107541.875,-78814.58,-44534.547,-28230.43,-4640.0557,-32657.512,-52847.656,1248.0876
1312980.151281303,-107547.33,-78813.64,-44533.57,-28229.86,-4640.4624,-32654.299,-52845.01,1251.8718
1312980.1552812976,-107551.11,-78816.86,-44533.164,-28231.975,-4645.63,-32645.549,-52843.793,1253.7842
1312980.159281292,-107557.055,-78821.17,-44534.547,-28235.148,-4646.159,-32642.863,-52845.055,1255.8594
1312980.1632812866,-107557.87,-78820.97,-44536.133,-28234.05,-4643.026,-32647.87,-52844.81,1254.1097
1312980.167281281,-107552.62,-78812.99,-44535.89,-28230.957,-4640.1367,-32655.438,-52845.137,1252.8484
1312980.1712812756,-107548.79,-78812.016,-44532.43,-28231.406,-4642.253,-32654.908,-52845.543,1251.9531
1312980.17528127,-107551.68,-78817.99,-44530.4,-28233.766,-4648.641,-32646.445,-52846.477,1245.5648
1312980.1792812645,-107554.53,-78820.766,-44532.555,-28235.76,-4651.937,-32642.986,-52850.18,1237.8337
1312980.183281259,-107552.53,-78817.79,-44535.36,-28236.125,-4647.339,-32648.846,-52845.906,1247.8435
1312980.1872812535,-107548.18,-78813.48,-44537.395,-28232.707,-4643.4326,-32656.7,-52841.92,1258.5857
1312980.191281248,-107550.54,-78808.15,-44534.914,-28232.666,-4641.6016,-32654.582,-52841.758,1261.9222
1312980.1952812425,-107552.33,-78810.1,-44532.43,-28233.398,-4643.3105,-32646.445,-52845.625,1256.8767
1312980.199281237,-107553.836,-78815.06,-44532.555,-28235.107,-4645.9556,-32645.957,-52849.734,1248.4131
1312980.2032812315,-107553.914,-78813.234,-44536.094,-28234.13,-4641.2764,-32654.99,-52855.145,1237.5488
1312980.207281226,-107553.76,-78810.38,-44534.914,-28232.91,-4637.451,-32664.268,-52857.625,1232.2592
1312980.2112812204,-107552.86,-78811.73,-44531.13,-28232.666,-4639.73,-32661.053,-52857.87,1234.9854
1312980.215281215,-107556.36,-78822.1,-44531.902,-28235.922,-4648.1934,-32653.2,-52861.168,1231.5674
1312980.2192812094,-107558.88,-78825.97,-44530.844,-28237.875,-4653.117,-32649.172,-52861.37,1227.2136
1312980.223281204,-107557.055,-78822.39,-44532.51,-28236.654,-4649.7397,-32653.646,-52863.04,1222.4121
1312980.2272811984,-107550.83,-78814.58,-44532.227,-28232.016,-4642.6597,-32660.646,-52862.996,1223.0632
1312980.231281193,-107547.734,-78809.125,-44529.5,-28230.43,-4639.1196,-32657.92,-52861.453,1227.6611
1312980.2352811873,-107551.555,-78813.88,-44530.4,-28233.154,-4640.991,-32649.293,-52858.727,1232.3406
1312980.239281182,-107558.88,-78815.76,-44534.02,-28234.824,-4643.677,-32645.672,-52857.3,1231.1199
1312980.2432811763,-107557.01,-78813.93,-44535.688,-28233.562,-4642.334,-32651.246,-52855.31,1234.4564
1312980.247281171,-107553.555,-78808.59,-44536.824,-28231.61,-4639.4453,-32658.244,-52853.273,1238.1185
1312980.2512811655,-107549.93,-78812.18,-44535.645,-28231.895,-4639.974,-32653.973,-52851.81,1233.1543
1312980.25528116,-107550.375,-78816.98,-44532.96,-28232.748,-4643.636,-32646.893,-52852.418,1231.1605
1312980.2592811545,-107552.82,-78817.1,-44530.6,-28233.928,-4645.0195,-32644.533,-52853.598,1228.8005
1312980.2632811489,-107551.805,-78815.76,-44532.31,-28233.074,-4641.317,-32651.896,-52850.63,1232.2592
1312980.2672811435,-107547.29,-78814.13,-44533.652,-28230.836,-4638.0615,-32659.385,-52847.332,1242.7979
1312980.2712811378,-107546.555,-78813.31,-44531.13,-28229.941,-4638.794,-32657.756,-52846.926,1245.3613
1312980.2752811324,-107548.99,-78817.18,-44529.22,-28232.79,-4644.0024,-32648.275,-52847.453,1244.6289
1312980.2792811268,-107555.79,-78816.98,-44531.58,-28234.945,-4647.868,-32645.266,-52849.406,1236.084
1312980.2832811214,-107553.71,-78820.68,-44533.773,-28234.172,-4648.1934,-32652.955,-52850.14,1237.0199
1312980.2872811158,-107551.07,-78817.305,-44534.02,-28230.836,-4644.084,-32660.197,-52851.727,1234.1716
1312980.2912811104,-107550.09,-78813.84,-44529.867,-28230.43,-4641.2764,-32655.193,-52851.117,1235.8398
1312980.295281105,-107547.734,-78818.81,-44526.613,-28229.615,-4645.4673,-32646.201,-52848.39,1242.8386
1312980.2992810993,-107549.6,-78822.92,-44525.8,-28230.51,-4651.3267,-32643.107,-52847.58,1243.571
1312980.303281094,-107546.31,-78823.9,-44525.84,-28229.697,-4651.8555,-32650.432,-52844.2,1251.709
1312980.3072810883,-107543.016,-78816.734,-44525.72,-28227.418,-4649.699,-32657.594,-52841.637,1256.6732
1312980.311281083,-107538.414,-78813.766,-44522.176,-28225.506,-4647.705,-32654.908,-52839.4,1262.7767
1312980.3152810773,-107536.95,-78818.445,-44517.01,-28226.686,-4649.6177,-32644.451,-52840.742,1253.6215
1312980.319281072,-107543.016,-78821.086,-44518.68,-28228.8,-4648.7227,-32643.963,-52845.215,1245.7683
1312980.3232810663,-107544.84,-78814.54,-44521.16,-28227.58,-4642.578,-32650.92,-52850.586,1238.8103
1312980.3272810609,-107537.805,-78807.54,-44520.47,-28223.186,-4636.1084,-32659.385,-52851.81,1234.7412
1312980.3312810552,-107537.73,-78806.36,-44521.445,-28222.494,-4633.667,-32659.465,-52853.273,1235.1888
1312980.3352810498,-107538.74,-78808.96,-44523.97,-28225.342,-4636.9224,-32648.398,-52851.848,1242.4316
1312980.3392810442,-107538.25,-78812.26,-44527.344,-28228.312,-4640.0146,-32643.23,-52847.94,1244.9545
1312980.3432810388,-107537.6,-78814.336,-44530.76,-28228.639,-4638.387,-32649.822,-52844.24,1250.7732
1312980.3472810334,-107543.79,-78816.61,-44533.203,-28229.045,-4637.37,-32655.314,-52839.844,1258.9111
1312980.3512810278,-107547.49,-78817.586,-44532.31,-28227.783,-4636.882,-32649.863,-52837.363,1256.8359
1312980.3552810224,-107554.98,-78820.195,-44530.355,-28228.965,-4639.2417,-32639.527,-52837.65,1253.2959
1312980.3592810167,-107557.62,-78824.305,-44532.676,-28230.633,-4640.8286,-32637.209,-52840.496,1242.7572
1312980.3632810113,-107550.3,-78821.62,-44537.926,-28229.941,-4637.0444,-32645.143,-52842.53,1240.6006
1312980.3672810057,-107549.4,-78813.84,-44539.348,-28226.97,-4633.545,-32654.502,-52843.793,1242.4316
1312980.3712810003,-107552.17,-78813.16,-44538.21,-28226.889,-4634.359,-32652.426,-52842.977,1244.751
1312980.3752809947,-107554.98,-78821.58,-44536.785,-28228.516,-4639.2417,-32643.434,-52842.49,1243.2455
1312980.3792809893,-107556.12,-78824.83,-44536.703,-28231.04,-4642.131,-32639.975,-52843.75,1239.8682
1312980.3832809837,-107556.32,-78818.24,-44537.926,-28229.004,-4637.7363,-32646.934,-52843.875,1241.333
1312980.3872809783,-107552.984,-78809.9,-44537.723,-28225.465,-4632.9346,-32653.973,-52845.785,1237.1013
1312980.3912809726,-107547.41,-78814.5,-44536.582,-28226.4,-4634.1963,-32650.88,-52845.867,1239.0544
1312980.3952809672,-107554.734,-78820.84,-44536.785,-28228.068,-4637.573,-32642.336,-52842.773,1239.8682
1312980.3992809618,-107562.34,-78821.62,-44536.094,-28230.348,-4642.253,-32638.957,-52843.465,1239.0137
1312980.4032809562,-107559.086,-78821.375,-44537.883,-28231.65,-4643.4736,-32647.463,-52844.89,1242.3096
1312980.4072809508,-107553.555,-78813.6,-44536.5,-28227.418,-4639.2417,-32653.484,-52845.055,1239.7054
1312980.4112809452,-107552.53,-78814.54,-44531.78,-28225.75,-4641.3574,-32649.7,-52843.793,1242.6351
1312980.4152809398,-107554.69,-78819.13,-44528.484,-28226.074,-4645.793,-32640.871,-52842.57,1245.6462
1312980.4192809341,-107557.26,-78822.92,-44528.035,-28227.336,-4646.6475,-32635.459,-52838.38,1245.0359
1312980.4232809287,-107552.94,-78821.45,-44530.684,-28225.342,-4646.4844,-32641.115,-52834.883,1247.8027
1312980.4272809231,-107544.64,-78815.88,-44530.805,-28221.72,-4641.2764,-32646.852,-52830.04,1252.1973
1312980.4312809177,-107538.29,-78815.68,-44528.035,-28221.273,-4640.4624,-32643.19,-52828.004,1248.6166
1312980.435280912,-107545.336,-78823.695,-44527.223,-28223.145,-4645.2637,-32633.586,-52827.23,1248.2097
1312980.4392809067,-107555.016,-78828.94,-44527.426,-28225.383,-4647.0137,-32632.082,-52832.52,1239.7461
1312980.443280901,-107551.72,-78821.945,-44528.117,-28222.494,-4644.45,-32641.766,-52838.582,1232.544
1312980.4472808957,-107546.06,-78817.75,-44526.53,-28220.176,-4640.8286,-32650.107,-52841.27,1228.7598
1312980.4512808903,-107547.2,-78820.64,-44525.39,-28221.924,-4642.375,-32649.09,-52841.15,1231.4047
1312980.4552808846,-107554.57,-78825.65,-44525.027,-28224.65,-4648.3154,-32641.562,-52842.652,1225.6674
1312980.4592808792,-107557.414,-78829.1,-44526.33,-28225.465,-4651.7334,-32638.307,-52840.945,1221.9646
1312980.4632808736,-107553.266,-78828.49,-44530.195,-28224.977,-4651.4487,-32644.41,-52840.13,1215.2914
1312980.4672808682,-107556.97,-78827.48,-44534.14,-28225.098,-4649.089,-32651.246,-52837.484,1217.4072
1312980.4712808626,-107550.42,-78822.96,-44532.758,-28222.576,-4646.566,-32644.816,-52837.16,1217.448
1312980.4752808572,-107548.875,-78824.99,-44531.902,-28224.326,-4649.089,-32636.395,-52839.195,1209.2285
1312980.4792808515,-107552.25,-78826.7,-44532.555,-28224.53,-4650.8384,-32634.035,-52838.625,1207.9672
1312980.4832808462,-107551.15,-78822.39,-44533.125,-28222.617,-4649.3735,-32639.201,-52836.55,1207.5603
1312980.4872808405,-107550.58,-78820.766,-44534.71,-28219.688,-4645.874,-32643.678,-52836.223,1209.8389
1312980.4912808351,-107548.51,-78824.95,-44535.2,-28220.135,-4647.0137,-32639.568,-52836.957,1198.6492
1312980.4952808295,-107551.15,-78830.33,-44534.996,-28223.43,-4649.1294,-32629.965,-52837.566,1194.0511
1312980.499280824,-107555.51,-78830.98,-44536.703,-28225.953,-4650.1465,-32625.693,-52837.242,1195.2312
1312980.5032808187,-107550.46,-78825.32,-44538.535,-28222.9,-4646.037,-32632.488,-52838.176,1190.7552
1312980.507280813,-107547.08,-78819.22,-44538.086,-28220.379,-4640.869,-32637.98,-52838.582,1196.9402
1312980.5112808077,-107543.055,-78813.64,-44534.953,-28220.541,-4640.259,-32633.059,-52837.688,1195.9229
1312980.515280802,-107537.88,-78815.48,-44530.887,-28221.07,-4642.578,-32621.135,-52833.21,1198.6084
1312980.5192807966,-107540.81,-78821.74,-44530.4,-28223.918,-4645.223,-32615.887,-52829.55,1204.305
1312980.523280791,-107547.04,-78814.01,-44532.188,-28223.715,-4640.9507,-32620.729,-52828.047,1206.4617
1312980.5272807856,-107542.445,-78807.336,-44536.824,-28222.535,-4637.004,-32628.947,-52831.34,1203.8574
1312980.53128078,-107540.41,-78808.72,-44534.223,-28222.291,-4636.5967,-32624.838,-52828.816,1209.8796
1312980.5352807746,-107536.38,-78808.64,-44529.785,-28223.023,-4641.1543,-32612.875,-52823.12,1218.3838
1312980.539280769,-107536.87,-78809.57,-44530.316,-28224.895,-4643.636,-32609.66,-52822.633,1211.7513
1312980.5432807636,-107536.13,-78808.92,-44531.902,-28224.61,-4639.364,-32618.002,-52821.492,1213.8672
1312980.5472807582,-107533.25,-78805.14,-44530.152,-28221.72,-4636.3936,-32625.53,-52821.86,1215.0472
1312980.5512807525,-107522.95,-78802.53,-44523.152,-28219.89,-4635.2134,-32623.373,-52824.586,1213.3789
1312980.5552807471,-107524.09,-78809.86,-44520.387,-28221.518,-4638.713,-32616.457,-52826.906,1212.7686
1312980.5592807415,-107532.23,-78815.06,-44521.2,-28224.285,-4641.3574,-32615.113,-52829.67,1210.6934
1312980.563280736,-107532.43,-78810.14,-44524.008,-28222.209,-4638.387,-32623.984,-52834.676,1199.5037
1312980.5672807305,-107525.516,-78807.945,-44525.39,-28221.68,-4635.0913,-32630.332,-52834.84,1200.7244
1312980.571280725,-107527.51,-78810.06,-44524.414,-28222.25,-4635.8237,-32623.373,-52833.17,1201.7009
1312980.5752807194,-107530.27,-78814.05,-44521.12,-28223.105,-4639.486,-32611.248,-52831.055,1203.1658
1312980.579280714,-107534.02,-78819.22,-44521.324,-28225.547,-4642.1714,-32607.707,-52829.023,1206.3802
1312980.5832807084,-107529.09,-78818.65,-44525.555,-28226.686,-4643.026,-32616.66,-52831.87,1199.6664
1312980.587280703,-107529.016,-78815.88,-44525.8,-28225.262,-4640.2183,-32622.844,-52831.055,1201.7416
1312980.5912806974,-107537.48,-78820.6,-44525.23,-28226.97,-4641.6016,-32620.932,-52830.69,1207.723
1312980.595280692,-107542.08,-78825.73,-44524.336,-28227.703,-4644.5723,-32613.607,-52832.887,1205.5664
1312980.5992806866,-107539.11,-78827.805,-44523.195,-28228.8,-4646.6475,-32612.55,-52836.02,1197.3877
1312980.603280681,-107535.28,-78827.234,-44523.4,-28228.842,-4646.8506,-32621.584,-52838.707,1194.1732
1312980.6072806756,-107535.12,-78821.984,-44525.23,-28227.174,-4644.8164,-32628.215,-52839.52,1195.5974
1312980.61128067,-107535.61,-78821.78,-44523.152,-28226.562,-4645.427,-32625.611,-52841.84,1194.6208
1312980.6152806645,-107540.81,-78823.41,-44520.71,-28228.924,-4648.0713,-32614.096,-52839.52,1197.8353
1312980.619280659,-107542.12,-78827.76,-44524.09,-28231.04,-4650.9604,-32608.848,-52835.246,1206.4209
1312980.6232806535,-107541.99,-78824.586,-44526.164,-28231.406,-4648.2344,-32614.828,-52831.91,1213.5417
1312980.6272806479,-107540.66,-78818.08,-44527.223,-28230.877,-4644.45,-32620.89,-52828.492,1220.459
1312980.6312806425,-107535.89,-78814.78,-44524.7,-28228.72,-4641.561,-32617.393,-52828.453,1221.7611
1312980.6352806368,-107531.54,-78814.45,-44521.566,-28228.395,-4641.1543,-32608.48,-52828.41,1221.2322
1312980.6392806314,-107529.55,-78820.07,-44521.73,-28231.242,-4643.718,-32606.73,-52829.1,1215.7797
1312980.6432806258,-107532.31,-78821.66,-44525.594,-28231.568,-4643.799,-32615.072,-52831.625,1215.21
1312980.6472806204,-107536.664,-78817.79,-44524.902,-28228.15,-4639.8926,-32620.402,-52832.887,1218.0176
1312980.651280615,-107533.45,-78819.945,-44521.77,-28227.418,-4640.0557,-32617.393,-52832.887,1220.3777
1312980.6552806094,-107531.62,-78822.39,-44519.816,-28230.836,-4645.63,-32611.574,-52832.887,1220.866
1312980.659280604,-107535.24,-78819.09,-44519.004,-28231.975,-4647.0947,-32608.521,-52831.34,1224.4873
1312980.6632805984,-107525.72,-78813.11,-44522.664,-28230.266,-4642.497,-32618.693,-52834.96,1219.1162
1312980.667280593,-107521.0,-78808.39,-44525.637,-28228.516,-4638.3057,-32626.832,-52838.34,1213.623
1312980.6712805873,-107526.49,-78813.68,-44525.758,-28228.232,-4639.323,-32620.932,-52837.08,1219.7673
1312980.675280582,-107537.805,-78826.3,-44526.9,-28231.445,-4645.0195,-32610.557,-52832.645,1227.0101
1312980.6792805763,-107552.21,-78827.234,-44531.21,-28234.498,-4644.206,-32607.871,-52829.47,1231.4047
1312980.683280571,-107543.3,-78813.11,-44532.31,-28233.115,-4638.0615,-32615.154,-52829.67,1222.4529
1312980.6872805653,-107533.82,-78809.125,-44530.52,-28232.422,-4637.6953,-32622.275,-52829.348,1225.9521
1312980.6912805599,-107538.91,-78814.78,-44529.38,-28231.65,-4639.608,-32616.863,-52828.535,1224.8129
1312980.6952805542,-107538.58,-78821.54,-44525.72,-28232.463,-4644.2466,-32607.912,-52827.8,1225.6267
1312980.6992805488,-107537.88,-78825.36,-44524.09,-28235.963,-4647.054,-32607.707,-52826.094,1228.1494
1312980.7032805434,-107535.04,-78819.46,-44526.816,-28234.254,-4643.2295,-32615.031,-52826.824,1227.6205
1312980.7072805378,-107536.09,-78816.77,-44529.055,-28233.115,-4640.381,-32622.967,-52831.055,1224.2025
1312980.7112805324,-107537.48,-78819.26,-44527.914,-28232.707,-4638.916,-32618.654,-52829.957,1230.2246
1312980.7152805268,-107544.64,-78822.92,-44526.41,-28233.604,-4640.869,-32607.912,-52824.14,1240.4785
1312980.7192805214,-107548.914,-78823.94,-44528.242,-28234.824,-4642.334,-32606.08,-52824.42,1236.8164
1312980.7232805158,-107541.67,-78819.016,-44530.76,-28232.707,-4641.2764,-32614.463,-52826.297,1237.793
1312980.7272805104,-107535.73,-78812.5,-44530.477,-28230.469,-4637.451,-32623.332,-52829.875,1232.7474
1312980.7312805047,-107534.95,-78812.42,-44528.16,-28230.55,-4638.265,-32619.06,-52830.566,1234.4971
1312980.7352804993,-107536.09,-78815.63,-44525.027,-28232.463,-4640.5845,-32610.027,-52831.18,1236.6943
1312980.7392804937,-107538.82,-78820.68,-44525.72,-28232.748,-4644.4907,-32609.416,-52833.133,1234.782
1312980.7432804883,-107546.92,-78823.53,-44528.242,-28230.795,-4642.8633,-32616.09,-52832.93,1234.5785
1312980.747280483,-107547.37,-78817.79,-44526.613,-28227.865,-4641.2354,-32622.764,-52834.11,1229.4515
1312980.7512804773,-107540.86,-78818.36,-44522.79,-28229.209,-4643.026,-32619.387,-52834.758,1226.9287
1312980.7552804719,-107547.29,-78822.19,-44522.016,-28231.406,-4645.7114,-32608.807,-52830.69,1233.8461
1312980.7592804662,-107548.47,-78824.51,-44521.324,-28233.277,-4647.2983,-32605.674,-52826.62,1240.9668
1312980.7632804608,-107543.26,-78818.28,-44520.996,-28231.975,-4643.514,-32615.072,-52828.74,1240.8855
1312980.7672804552,-107537.4,-78812.91,-44521.04,-28229.004,-4640.096,-32621.664,-52828.94,1243.6117
1312980.7712804498,-107530.16,-78814.984,-44518.598,-28227.824,-4639.73,-32614.828,-52826.01,1244.9138
1312980.7752804442,-107531.09,-78821.62,-44519.125,-28230.957,-4643.148,-32602.215,-52821.7,1253.7029
1312980.7792804388,-107537.234,-78824.586,-44521.85,-28234.295,-4645.1416,-32600.871,-52820.234,1253.3367
1312980.7832804332,-107540.125,-78822.516,-44524.58,-28233.969,-4642.8633,-32609.295,-52821.004,1247.6807
1312980.7872804278,-107539.15,-78820.03,-44525.105,-28230.877,-4639.038,-32613.69,-52818.035,1250.4476
1312980.7912804221,-107536.22,-78817.51,-44522.746,-28230.145,-4640.0557,-32609.783,-52816.12,1256.0222
1312980.7952804167,-107540.164,-78822.39,-44519.9,-28232.342,-4642.578,-32600.547,-52816.246,1256.6732
1312980.7992804113,-107540.125,-78825.08,-44521.566,-28233.277,-4645.0195,-32598.594,-52817.18,1259.9691
1312980.8032804057,-107544.92,-78822.875,-44526.246,-28232.422,-4641.3984,-32607.26,-52818.645,1257.2021
1312980.8072804003,-107544.805,-78820.07,-44527.02,-28230.957,-4638.794,-32615.316,-52818.156,1250.8545
1312980.8112803947,-107544.516,-78823.33,-44524.457,-28232.098,-4641.317,-32609.742,-52818.484,1249.6338
1312980.8152803893,-107547.85,-78828.21,-44525.96,-28235.23,-4643.1885,-32600.383,-52821.168,1247.1111
1312980.8192803836,-107548.625,-78827.64,-44527.754,-28235.719,-4644.1245,-32597.494,-52823.773,1244.8324
1312980.8232803782,-107554.0,-78823.49,-44528.566,-28233.48,-4643.1885,-32604.494,-52823.12,1245.1986
1312980.8272803726,-107548.18,-78818.81,-44526.734,-28230.877,-4639.7705,-32611.29,-52825.074,1243.3676
1312980.8312803672,-107546.875,-78819.055,-44524.293,-28231.242,-4640.1367,-32608.195,-52826.375,1242.1469
1312980.8352803616,-107549.12,-78825.03,-44523.926,-28233.074,-4643.5547,-32600.588,-52826.66,1240.7634
1312980.8392803562,-107554.98,-78826.87,-44525.555,-28235.107,-4643.1885,-32600.018,-52827.35,1238.5662
1312980.8432803506,-107557.984,-78824.71,-44528.035,-28235.352,-4642.5376,-32610.312,-52829.43,1236.2875
1312980.8472803452,-107554.77,-78820.64,-44529.258,-28231.242,-4638.591,-32615.764,-52829.55,1235.1074
1312980.8512803398,-107552.58,-78818.69,-44525.594,-28229.412,-4637.1665,-32610.027,-52827.598,1245.0359
1312980.8552803341,-107554.61,-78821.45,-44522.95,-28231.854,-4640.1367,-32602.58,-52827.8,1245.6462
1312980.8592803287,-107555.55,-78822.72,-44522.992,-28232.3,-4642.1714,-32601.604,-52829.266,1238.4441
1312980.863280323,-107553.15,-78821.125,-44524.54,-28229.29,-4637.899,-32608.604,-52828.656,1238.9324
1312980.8672803177,-107547.734,-78821.086,-44523.113,-28228.191,-4634.9287,-32614.299,-52827.598,1241.6992
1312980.871280312,-107543.83,-78819.664,-44520.957,-28229.209,-4634.2773,-32609.945,-52827.19,1238.322
1312980.8752803067,-107551.555,-78819.945,-44520.47,-28230.633,-4635.9053,-32601.768,-52825.035,1243.7338
1312980.879280301,-107556.03,-78818.36,-44520.47,-28231.568,-4638.1025,-32601.28,-52826.297,1245.0359
1312980.8832802956,-107547.695,-78816.57,-44522.746,-28230.389,-4633.9927,-32610.148,-52826.906,1241.6992
1312980.88728029,-107543.7,-78812.87,-44525.27,-28229.818,-4630.9814,-32616.252,-52826.703,1240.4785
1312980.8912802846,-107542.195,-78814.945,-44523.97,-28229.33,-4633.138,-32610.8,-52824.75,1247.6807
1312980.895280279,-107544.11,-78818.16,-44520.836,-28231.242,-4636.5967,-32602.012,-52825.32,1239.9902
1312980.8992802736,-107541.18,-78820.64,-44520.754,-28231.365,-4638.835,-32600.262,-52824.016,1240.0717
1312980.9032802682,-107552.49,-78820.766,-44523.48,-28230.55,-4638.7534,-32608.44,-52821.74,1245.6462
1312980.9072802626,-107552.05,-78814.375,-44524.66,-28229.086,-4632.4873,-32614.299,-52823.445,1243.0013
1312980.9112802572,-107547.445,-78815.19,-44521.73,-28227.824,-4632.528,-32609.824,-52826.582,1243.4082
1312980.9152802515,-107546.59,-78821.125,-44520.508,-28229.941,-4636.882,-32603.883,-52830.49,1238.322
1312980.9192802461,-107547.65,-78821.9,-44519.29,-28229.941,-4638.5093,-32602.785,-52833.133,1235.0668
1312980.9232802405,-107547.65,-78818.24,-44522.87,-28228.516,-4635.9053,-32611.125,-52834.84,1230.6316
1312980.927280235,-107545.375,-78812.83,-44521.73,-28225.586,-4632.243,-32618.37,-52836.14,1230.7943
1312980.9312802295,-107548.38,-78809.695,-44519.004,-28224.365,-4630.4526,-32615.44,-52836.754,1236.1654
1312980.935280224,-107549.65,-78813.52,-44516.48,-28225.627,-4634.7656,-32606.568,-52834.555,1238.4847
1312980.9392802184,-107548.1,-78817.71,-44517.17,-28227.824,-4637.2886,-32604.533,-52834.15,1237.793
1312980.943280213,-107546.8,-78817.38,-44521.363,-28227.256,-4634.3994,-32611.37,-52834.312,1239.7869
1312980.9472802076,-107543.42,-78813.93,-44521.324,-28225.465,-4630.7783,-32616.822,-52831.504,1249.8373
1312980.951280202,-107540.94,-78814.375,-44516.684,-28224.57,-4631.3477,-32612.672,-52829.43,1256.0629
1312980.9552801966,-107547.08,-78820.03,-44513.594,-28226.562,-4636.5156,-32604.533,-52830.406,1255.8187
1312980.959280191,-107550.22,-78820.56,-44513.43,-28228.924,-4638.3057,-32605.307,-52835.246,1244.0593
1312980.9632801856,-107549.97,-78818.52,-44517.5,-28227.824,-4635.417,-32613.445,-52839.03,1234.7412
1312980.96728018,-107550.055,-78819.336,-44517.17,-28225.383,-4631.633,-32617.96,-52836.67,1240.3972
1312980.9712801746,-107549.08,-78817.38,-44513.43,-28224.732,-4631.714,-32613.527,-52833.742,1244.2627
1312980.975280169,-107553.39,-78818.81,-44511.92,-28227.215,-4635.295,-32605.021,-52834.96,1241.3738
1312980.9792801635,-107553.8,-78820.4,-44514.363,-28228.15,-4635.783,-32601.156,-52834.434,1241.3738
1312980.983280158,-107549.766,-78819.13,-44517.17,-28226.604,-4632.406,-32608.604,-52833.457,1241.6992
1312980.9872801525,-107539.43,-78813.16,-44515.26,-28223.838,-4628.9062,-32611.574,-52830.16,1249.7152
1312980.9912801469,-107544.6,-78810.266,-44513.227,-28224.936,-4630.29,-32605.227,-52825.36,1254.2318
1312980.9952801415,-107549.97,-78813.93,-44511.64,-28225.059,-4633.301,-32595.867,-52823.855,1249.349
1312980.999280136,-107549.195,-78818.41,-44512.168,-28225.465,-4633.8706,-32594.646,-52821.574,1254.598
1312981.0032801304,-107554.41,-78817.914,-44516.48,-28224.65,-4631.063,-32603.436,-52824.87,1249.7559
1312981.007280125,-107554.98,-78812.87,-44520.996,-28223.227,-4627.2383,-32609.701,-52827.312,1248.7386
1312981.0112801194,-107548.266,-78811.81,-44519.29,-28223.309,-4628.3774,-32604.818,-52825.523,1255.3304
1312981.015280114,-107553.266,-78815.63,-44518.8,-28224.406,-4630.3306,-32595.176,-52825.24,1253.54
1312981.0192801084,-107557.87,-78816.86,-44519.41,-28225.465,-4631.5107,-32597.129,-52825.766,1256.8359
1312981.023280103,-107551.195,-78809.25,-44517.5,-28222.453,-4627.4414,-32606.691,-52826.906,1252.6449
1312981.0272800974,-107543.87,-78805.22,-44517.17,-28218.955,-4623.861,-32613.607,-52829.227,1250.2849
1312981.031280092,-107545.125,-78803.76,-44514.406,-28219.28,-4624.797,-32608.318,-52830.566,1252.3601
1312981.0352800863,-107544.84,-78806.4,-44512.9,-28222.738,-4628.703,-32602.215,-52832.562,1250.3256
1312981.039280081,-107544.07,-78810.8,-44513.754,-28223.512,-4631.958,-32601.889,-52832.723,1248.3318
1312981.0432800753,-107541.99,-78808.48,-44513.918,-28222.129,-4628.7437,-32606.771,-52829.957,1249.8373
1312981.04728007,-107541.1,-78803.914,-44514.812,-28220.744,-4625.0815,-32612.875,-52832.195,1247.3552
1312981.0512800645,-107539.836,-78806.44,-44513.31,-28220.908,-4628.7437,-32607.912,-52833.58,1246.582
1312981.0552800589,-107543.3,-78812.664,-44512.492,-28222.494,-4634.8877,-32599.203,-52833.375,1245.6869
1312981.0592800535,-107549.805,-78816.45,-44512.777,-28222.82,-4637.2886,-32597.332,-52834.516,1245.4834
1312981.0632800478,-107552.33,-78815.19,-44515.75,-28221.885,-4635.661,-32606.936,-52837.2,1241.0076
1312981.0672800425,-107547.0,-78813.56,-44516.766,-28220.379,-4633.2603,-32612.672,-52838.094,1239.2986
1312981.0712800368,-107546.875,-78816.77,-44515.79,-28221.07,-4636.19,-32609.824,-52836.387,1240.8855
1312981.0752800314,-107547.29,-78821.54,-44515.465,-28223.838,-4639.8115,-32602.541,-52838.34,1233.6426
1312981.0792800258,-107548.55,-78823.9,-44519.86,-28226.807,-4641.9272,-32600.344,-52836.508,1233.8461
1312981.0832800204,-107551.07,-78823.445,-44523.36,-28224.65,-4641.683,-32606.365,-52833.54,1240.3564
1312981.0872800148,-107548.305,-78814.984,-44524.457,-28220.582,-4637.6953,-32609.336,-52831.586,1246.7041
1312981.0912800094,-107550.01,-78812.336,-44523.562,-28220.053,-4636.312,-32603.639,-52829.348,1252.4008
1312981.0952800037,-107553.555,-78815.39,-44522.95,-28221.518,-4638.021,-32595.094,-52827.273,1253.9877
1312981.0992799983,-107555.22,-78816.66,-44521.363,-28223.43,-4638.3467,-32593.303,-52823.082,1259.6843
1312981.103279993,-107552.86,-78814.336,-44524.375,-28224.53,-4637.329,-32602.988,-52824.344,1253.2959
1312981.1072799873,-107553.914,-78812.38,-44526.043,-28223.309,-4637.0444,-32608.604,-52826.5,1251.3835
1312981.111279982,-107557.5,-78816.086,-44525.027,-28222.941,-4638.3467,-32600.668,-52823.57,1257.4463
1312981.1152799763,-107557.375,-78821.414,-44524.58,-28223.959,-4640.7065,-32591.39,-52822.062,1257.487
1312981.1192799709,-107564.05,-78821.66,-44528.16,-28225.18,-4639.6895,-32589.275,-52822.957,1255.3711
1312981.1232799652,-107565.19,-78817.99,-44528.566,-28222.535,-4633.545,-32594.973,-52822.918,1257.0801
1312981.1272799599,-107557.945,-78809.98,-44525.516,-28219.117,-4629.6387,-32600.303,-52823.367,1255.7781
1312981.1312799542,-107552.33,-78809.05,-44523.52,-28220.094,-4631.6733,-32595.176,-52821.13,1259.1553
1312981.1352799488,-107558.234,-78813.11,-44520.67,-28221.518,-4636.7188,-32585.695,-52819.094,1260.7422
1312981.1392799432,-107555.18,-78812.7,-44519.613,-28222.047,-4639.7705,-32583.904,-52818.36,1259.847
1312981.1432799378,-107551.234,-78809.66,-44522.137,-28222.129,-4638.143,-32592.326,-52817.14,1259.6029
1312981.1472799322,-107553.06,-78807.414,-44521.73,-28220.297,-4633.911,-32596.682,-52819.297,1256.4291
1312981.1512799268,-107553.1,-78806.64,-44518.8,-28220.012,-4632.528,-32590.414,-52823.04,1252.0752
1312981.1552799214,-107552.58,-78809.695,-44516.93,-28221.803,-4633.667,-32582.846,-52826.297,1247.7214
1312981.1592799157,-107546.15,-78810.02,-44515.42,-28221.111,-4634.8877,-32580.324,-52823.652,1255.4932
1312981.1632799103,-107541.06,-78804.08,-44515.668,-28217.164,-4630.2085,-32586.223,-52822.754,1258.0974
1312981.1672799047,-107541.99,-78801.11,-44516.48,-28216.635,-4626.831,-32591.39,-52824.63,1254.1097
1312981.1712798993,-107538.984,-78803.47,-44513.105,-28217.326,-4628.988,-32585.572,-52823.57,1255.9408
1312981.1752798937,-107541.875,-78807.05,-44510.824,-28219.646,-4632.528,-32575.521,-52822.918,1259.5215
1312981.1792798883,-107547.77,-78810.18,-44512.29,-28220.256,-4632.8535,-32572.389,-52820.355,1260.905
1312981.1832798827,-107547.734,-78810.1,-44514.203,-28217.652,-4631.3887,-32579.104,-52818.89,1265.5844
1312981.1872798773,-107539.23,-78805.38,-44515.625,-28215.088,-4627.9297,-32584.107,-52820.355,1260.905
1312981.1912798716,-107539.11,-78805.79,-44515.465,-28216.92,-4626.994,-32577.598,-52821.004,1255.2084
1312981.1952798662,-107542.195,-78807.87,-44515.83,-28219.158,-4628.296,-32567.588,-52818.562,1252.3601
1312981.1992798608,-107540.86,-78809.77,-44518.598,-28220.256,-4629.9644,-32565.47,-52813.68,1262.085
1312981.2032798552,-107541.95,-78807.336,-44520.918,-28219.564,-4627.767,-32574.504,-52815.96,1258.0974
1312981.2072798498,-107544.64,-78802.86,-44521.85,-28218.018,-4624.7153,-32582.48,-52820.11,1254.4353
1312981.2112798442,-107548.875,-78803.875,-44519.246,-28217.53,-4625.0,-32577.678,-52820.965,1259.1146
1312981.2152798388,-107549.484,-78804.65,-44518.598,-28219.768,-4626.5464,-32570.07,-52823.12,1256.4697
1312981.2192798331,-107546.72,-78807.82,-44520.754,-28221.885,-4628.459,-32569.418,-52825.277,1250.8953
1312981.2232798277,-107548.99,-78806.234,-44524.54,-28220.785,-4625.285,-32577.475,-52824.42,1250.9359
1312981.227279822,-107542.12,-78801.03,-44523.074,-28218.059,-4620.6465,-32583.863,-52827.598,1248.1283
1312981.2312798167,-107538.375,-78802.45,-44521.73,-28218.426,-4623.454,-32579.875,-52830.16,1247.0297
1312981.235279811,-107540.66,-78806.97,-44522.95,-28221.314,-4627.645,-32571.412,-52830.934,1246.9482
1312981.2392798057,-107533.98,-78808.35,-44523.805,-28223.023,-4630.371,-32571.047,-52828.41,1250.4883
1312981.2432798,-107543.13,-78802.05,-44523.926,-28221.762,-4626.2207,-32578.898,-52828.613,1247.1924
1312981.2472797947,-107541.305,-78799.32,-44522.383,-28220.094,-4621.948,-32584.23,-52828.777,1244.8324
1312981.2512797893,-107528.08,-78798.79,-44517.254,-28221.273,-4623.169,-32578.045,-52827.72,1251.18
1312981.2552797836,-107532.516,-78805.83,-44513.836,-28223.594,-4628.052,-32567.1,-52822.957,1261.3525
1312981.2592797782,-107542.16,-78810.51,-44517.05,-28226.4,-4631.9175,-32566.936,-52822.47,1261.0271
1312981.2632797726,-107543.22,-78805.79,-44520.793,-28226.768,-4629.598,-32576.254,-52824.016,1258.6263
1312981.2672797672,-107538.375,-78800.62,-44521.08,-28223.064,-4623.4946,-32580.363,-52828.086,1249.7559
1312981.2712797616,-107540.695,-78805.83,-44519.734,-28223.35,-4624.756,-32575.236,-52828.74,1251.0173
1312981.2752797562,-107542.484,-78809.33,-44518.477,-28225.75,-4627.9707,-32567.018,-52825.81,1253.418
1312981.2792797505,-107539.15,-78807.87,-44520.145,-28226.562,-4625.2036,-32564.78,-52824.06,1253.2146
1312981.2832797451,-107534.266,-78803.67,-44523.684,-28225.871,-4622.03,-32572.592,-52822.918,1253.9062
1312981.2872797395,-107536.91,-78797.484,-44524.17,-28226.28,-4619.507,-32576.865,-52821.535,1257.1615
1312981.291279734,-107537.68,-78797.9,-44522.176,-28227.05,-4620.8496,-32571.86,-52817.668,1262.5326
1312981.2952797285,-107533.0,-78802.94,-44521.566,-28228.354,-4624.1865,-32563.967,-52817.344,1259.5623
1312981.299279723,-107543.91,-78805.22,-44524.66,-28230.186,-4626.3022,-32564.943,-52819.094,1258.1787
1312981.3032797177,-107548.38,-78803.34,-44529.46,-28229.127,-4623.1284,-32572.512,-52820.477,1254.598
1312981.307279712,-107547.9,-78801.39,-44530.805,-28227.174,-4620.8496,-32578.654,-52819.582,1258.9926
1312981.3112797067,-107546.59,-78806.07,-44527.832,-28226.807,-4622.4365,-32574.3,-52817.14,1262.4512
1312981.315279701,-107547.125,-78810.34,-44525.8,-28229.004,-4626.994,-32567.791,-52819.094,1259.1553
1312981.3192796956,-107552.33,-78814.13,-44528.28,-28231.975,-4629.8423,-32569.133,-52821.535,1250.8953
