timestamp,Fp1,Fp2,F3,Fz,F4,Cz,Pz,Oz
968749.7495110427,-96880.05,-74175.91,-21214.031,15338.257,-65894.45,-36404.01,-36187.297,-48975.3
968749.7535110413,-96882.164,-74179.77,-21213.95,15332.561,-65872.36,-36408.895,-36192.426,-48979.695
968749.7575110398,-96875.37,-74174.766,-21204.305,15344.076,-65877.28,-36410.28,-36195.273,-48988.812
968749.7615110384,-96871.83,-74165.734,-21214.355,15347.86,-65871.34,-36409.87,-36189.332,-48985.35
968749.765511037,-96883.95,-74178.914,-21211.385,15339.315,-65884.85,-36410.848,-36189.453,-48982.832
968749.7695110355,-96892.375,-74177.37,-21215.455,15328.695,-65886.97,-36411.297,-36186.566,-48974.652
968749.773511034,-96873.13,-74161.87,-21217.123,15330.363,-65882.0,-36411.62,-36184.816,-48959.72
968749.7775110325,-96879.4,-74168.74,-21211.873,15334.717,-65885.87,-36406.78,-36184.45,-48966.35
968749.7815110311,-96887.74,-74177.734,-21216.879,15340.902,-65882.85,-36399.414,-36179.445,-48967.977
968749.7855110297,-96873.05,-74168.945,-21205.078,15341.96,-65884.16,-36402.02,-36181.113,-48965.902
968749.7895110282,-96883.18,-74173.22,-21209.84,15330.444,-65892.01,-36402.957,-36185.67,-48975.996
968749.7935110268,-96876.51,-74164.31,-21212.605,15337.24,-65878.5,-36405.965,-36186.16,-48975.06
968749.7975110253,-96882.61,-74172.484,-21208.781,15349.284,-65881.59,-36406.13,-36184.938,-48971.844
968749.8015110239,-96881.23,-74173.22,-21211.102,15352.661,-65878.38,-36406.535,-36185.508,-48979.82
968749.8055110225,-96881.516,-74172.24,-21206.707,15345.581,-65884.65,-36408.33,-36188.395,-48983.48
968749.809511021,-96883.016,-74167.24,-21219.402,15329.956,-65901.695,-36407.39,-36181.844,-48966.31
968749.8135110196,-96888.516,-74170.086,-21216.797,15330.852,-65900.15,-36404.91,-36178.02,-48964.07
968749.8175110181,-96881.59,-74167.445,-21213.746,15349.365,-65886.64,-36403.934,-36180.46,-48968.953
968749.8215110167,-96887.336,-74176.27,-21208.66,15357.788,-65878.336,-36402.344,-36183.758,-48973.066
968749.8255110153,-96890.95,-74178.23,-21209.88,15346.843,-65884.52,-36399.902,-36179.73,-48965.09
968749.8295110138,-96894.21,-74177.82,-21215.7,15337.484,-65897.42,-36397.543,-36176.92,-48961.63
968749.8335110124,-96896.94,-74180.625,-21223.227,15333.781,-65898.6,-36395.305,-36177.938,-48966.31
968749.8375110108,-96879.11,-74169.88,-21206.299,15346.029,-65883.266,-36403.08,-36185.59,-48968.832
968749.8415110094,-96878.336,-74166.75,-21209.473,15353.3125,-65887.695,-36399.863,-36177.164,-48956.098
968749.8455110079,-96880.7,-74172.33,-21209.555,15345.825,-65899.945,-36401.285,-36177.652,-48956.383
968749.8495110065,-96876.59,-74170.086,-21203.084,15339.396,-65905.07,-36405.68,-36181.4,-48961.59
968749.853511005,-96873.54,-74170.375,-21194.012,15341.553,-65898.12,-36407.105,-36183.758,-48968.547
968749.8575110036,-96886.15,-74174.32,-21207.764,15353.109,-65887.414,-36403.08,-36179.242,-48966.555
968749.8615110022,-96886.97,-74178.23,-21209.107,15354.452,-65883.875,-36399.945,-36179.484,-48968.465
968749.8655110007,-96889.0,-74181.6,-21212.402,15342.407,-65896.08,-36397.664,-36177.29,-48959.8
968749.8695109993,-96884.52,-74179.41,-21211.834,15336.874,-65904.79,-36399.414,-36177.652,-48958.254
968749.8735109979,-96886.68,-74179.24,-21218.344,15340.698,-65907.35,-36399.54,-36175.62,-48957.074
968749.8775109964,-96895.1,-74186.12,-21216.594,15349.04,-65910.41,-36398.844,-36177.246,-48952.516
968749.881510995,-96892.5,-74181.68,-21210.043,15350.302,-65905.27,-36398.152,-36173.055,-48952.56
968749.8855109935,-96883.75,-74176.555,-21208.904,15341.594,-65909.51,-36402.67,-36177.41,-48960.9
968749.8895109921,-96894.086,-74182.984,-21214.031,15333.456,-65920.62,-36404.01,-36178.59,-48960.246
968749.8935109907,-96897.1,-74178.266,-21220.744,15329.55,-65912.97,-36403.605,-36179.445,-48970.176
968749.8975109892,-96901.82,-74186.04,-21216.023,15342.407,-65902.67,-36400.516,-36181.48,-48974.367
968749.9015109877,-96899.21,-74186.61,-21210.531,15358.236,-65895.06,-36396.77,-36178.266,-48975.06
968749.9055109862,-96901.62,-74190.555,-21215.008,15342.123,-65907.39,-36398.113,-36183.23,-48977.703
968749.9095109848,-96897.75,-74187.38,-21215.902,15335.531,-65917.93,-36401.246,-36185.1,-48972.293
968749.9135109833,-96899.17,-74185.43,-21215.7,15343.303,-65905.234,-36401.367,-36187.83,-48979.13
968749.9175109819,-96899.984,-74186.16,-21221.803,15356.771,-65889.94,-36398.438,-36186.28,-48977.133
968749.9215109805,-96890.67,-74182.5,-21221.68,15355.673,-65896.37,-36402.305,-36188.64,-48978.438
968749.925510979,-96891.85,-74185.266,-21218.506,15343.71,-65907.836,-36405.07,-36189.37,-48973.836
968749.9295109776,-96890.83,-74186.36,-21215.658,15332.397,-65916.1,-36408.895,-36191.57,-48977.418
968749.9335109761,-96896.445,-74186.16,-21212.443,15333.578,-65922.2,-36408.855,-36187.99,-48972.617
968749.9375109747,-96896.04,-74184.77,-21218.629,15350.708,-65912.68,-36406.453,-36182.332,-48966.35
968749.9415109733,-96896.65,-74188.234,-21216.309,15355.795,-65913.86,-36403.035,-36183.188,-48967.043
968749.9455109718,-96904.79,-74197.63,-21217.57,15348.674,-65925.055,-36401.082,-36183.637,-48974.324
968749.9495109704,-96897.42,-74189.086,-21226.074,15338.908,-65940.02,-36400.72,-36183.51,-48964.56
968749.953510969,-96894.086,-74184.05,-21219.768,15338.054,-65932.74,-36401.207,-36188.316,-48967.49
968749.9575109675,-96890.1,-74177.984,-21220.5,15344.727,-65930.625,-36398.113,-36183.066,-48962.08
968749.9615109661,-96891.85,-74185.75,-21210.287,15344.32,-65927.49,-36400.35,-36185.344,-48968.06
968749.9655109645,-96904.7,-74197.67,-21206.096,15340.129,-65923.75,-36401.613,-36187.418,-48979.74
968749.9695109631,-96890.016,-74178.305,-21224.041,15339.926,-65921.71,-36399.902,-36171.227,-48955.445
968749.9735109616,-96889.85,-74177.49,-21197.877,15346.3545,-65912.48,-36401.246,-36170.41,-48954.836
968749.9775109602,-96892.945,-74183.39,-21219.686,15351.726,-65905.56,-36398.4,-36167.848,-48946.492
968749.9815109588,-96906.09,-74199.305,-21219.809,15353.598,-65908.695,-36394.816,-36168.457,-48949.87
968749.9855109573,-96925.54,-74220.87,-21222.291,15343.222,-65927.62,-36393.066,-36167.074,-48953.98
968749.9895109559,-96928.14,-74226.65,-21228.191,15327.393,-65936.08,-36393.758,-36168.99,-48954.47
968749.9935109544,-96911.055,-74198.164,-21219.441,15337.362,-65918.42,-36394.938,-36171.43,-48949.016
968749.997510953,-96889.0,-74180.18,-21217.773,15353.027,-65902.23,-36393.68,-36169.516,-48947.51
968750.0015109516,-96904.5,-74203.05,-21222.088,15351.4,-65920.375,-36390.137,-36166.344,-48947.39
968750.0055109501,-96931.484,-74227.54,-21224.61,15334.595,-65928.23,-36391.805,-36167.156,-48948.61
968750.0095109487,-96939.945,-74231.53,-21229.086,15328.085,-65918.945,-36397.34,-36171.43,-48944.664
968750.0135109472,-96936.85,-74228.195,-21225.465,15333.903,-65925.664,-36397.992,-36169.07,-48938.07
968750.0175109458,-96934.57,-74235.39,-21225.912,15349.528,-65914.96,-36396.16,-36168.17,-48942.305
968750.0215109444,-96946.05,-74245.32,-21221.883,15352.417,-65909.51,-36396.12,-36170.98,-48944.62
968750.0255109429,-96961.02,-74259.6,-21229.29,15345.378,-65923.305,-36392.984,-36169.56,-48945.07
968750.0295109414,-96939.984,-74239.22,-21222.006,15341.105,-65917.69,-36393.92,-36163.21,-48928.062
968750.0335109399,-96935.1,-74233.89,-21223.512,15339.4375,-65912.516,-36393.27,-36161.133,-48931.64
968750.0375109385,-96936.89,-74236.33,-21220.215,15344.401,-65900.31,-36390.098,-36158.57,-48928.67
968750.041510937,-96936.12,-74235.27,-21220.744,15349.203,-65901.53,-36391.074,-36161.703,-48936.24
968750.0455109356,-96941.05,-74235.805,-21226.197,15344.6455,-65912.31,-36393.8,-36162.273,-48931.195
968750.0495109342,-96945.48,-74243.05,-21226.807,15334.106,-65922.41,-36397.258,-36166.22,-48931.355
968750.0535109327,-96934.86,-74232.26,-21219.97,15338.095,-65920.734,-36398.074,-36161.46,-48928.914
968750.0575109313,-96920.01,-74219.08,-21222.82,15351.685,-65908.98,-36396.445,-36152.426,-48919.23
968750.0615109298,-96929.41,-74229.21,-21217.488,15355.998,-65916.016,-36396.16,-36155.844,-48922.566
968750.0655109284,-96934.86,-74235.07,-21218.709,15346.313,-65918.91,-36393.68,-36156.7,-48924.887
968750.069510927,-96941.125,-74238.61,-21228.883,15334.351,-65921.67,-36392.17,-36159.02,-48931.684
968750.0735109255,-96934.37,-74230.92,-21235.19,15334.351,-65921.47,-36396.04,-36161.418,-48926.312
968750.0775109241,-96929.37,-74228.234,-21225.342,15349.976,-65898.89,-36393.15,-36160.117,-48924.93
968750.0815109226,-96925.42,-74230.1,-21219.768,15356.934,-65895.02,-36389.69,-36155.56,-48919.312
968750.0855109212,-96938.64,-74235.72,-21224.977,15345.5,-65904.91,-36391.03,-36155.64,-48923.707
968750.0895109198,-96948.53,-74246.586,-21233.969,15337.769,-65911.3,-36393.92,-36159.223,-48930.016
968750.0935109182,-96937.83,-74236.53,-21225.098,15342.937,-65907.76,-36396.73,-36153.035,-48918.824
968750.0975109168,-96927.9,-74225.79,-21224.285,15354.655,-65885.625,-36397.707,-36150.188,-48917.562
968750.1015109153,-96937.55,-74238.12,-21221.355,15354.33,-65891.484,-36397.176,-36157.676,-48936.934
968750.1055109139,-96944.016,-74244.34,-21234.254,15343.303,-65906.54,-36396.73,-36161.785,-48934.695
968750.1095109124,-96945.03,-74241.945,-21236.328,15341.024,-65904.75,-36396.16,-36161.418,-48938.965
968750.113510911,-96952.48,-74247.11,-21226.318,15338.786,-65907.06,-36395.02,-36160.848,-48934.41
968750.1175109096,-96961.63,-74251.23,-21232.057,15346.884,-65903.08,-36388.1,-36152.996,-48931.766
968750.1215109081,-96935.06,-74229.695,-21237.143,15353.842,-65890.79,-36393.68,-36158.49,-48918.38
968750.1255109067,-96941.29,-74237.76,-21226.482,15347.372,-65909.14,-36394.816,-36162.395,-48919.965
968750.1295109052,-96955.61,-74245.57,-21234.578,15328.085,-65916.99,-36401.004,-36168.05,-48927.45
968750.1335109038,-96948.49,-74233.69,-21234.09,15334.392,-65913.45,-36403.08,-36160.2,-48917.117
968750.1375109024,-96942.95,-74229.49,-21233.074,15350.505,-65904.42,-36400.027,-36157.43,-48912.76
968750.1415109009,-96949.14,-74241.58,-21227.377,15358.073,-65904.625,-36398.723,-36161.176,-48914.715
968750.1455108995,-96947.59,-74248.66,-21215.414,15353.964,-65908.29,-36401.45,-36168.906,-48925.703
968750.149510898,-96947.31,-74247.805,-21236.492,15338.379,-65909.266,-36400.637,-36165.57,-48920.86
968750.1535108966,-96950.69,-74243.53,-21239.014,15340.78,-65904.5,-36397.504,-36159.098,-48921.184
968750.157510895,-96948.086,-74242.39,-21231.648,15359.579,-65901.37,-36396.484,-36162.516,-48922.85
968750.1615108936,-96950.6,-74247.88,-21228.557,15357.91,-65909.47,-36395.914,-36164.594,-48931.926
968750.1655108922,-96961.555,-74261.03,-21235.107,15345.459,-65918.13,-36395.1,-36164.062,-48935.875
968750.1695108907,-96966.68,-74260.91,-21231.365,15340.495,-65922.33,-36397.46,-36163.86,-48935.996
968750.1735108893,-96951.13,-74241.78,-21226.766,15350.18,-65908.45,-36396.2,-36153.24,-48921.47
968750.1775108879,-96952.07,-74245.484,-21228.719,15360.881,-65903.445,-36395.875,-36152.793,-48920.25
968750.1815108864,-96947.19,-74244.67,-21239.91,15361.654,-65904.3,-36392.375,-36145.223,-48911.95
968750.185510885,-96957.805,-74253.54,-21236.41,15349.976,-65918.87,-36391.562,-36150.676,-48925.05
968750.1895108835,-96964.32,-74259.484,-21232.666,15333.903,-65934.25,-36393.883,-36155.438,-48929.85
968750.1935108821,-96969.89,-74265.71,-21234.416,15335.002,-65932.05,-36391.48,-36153.65,-48927.492
968750.1975108807,-96950.12,-74253.586,-21235.76,15357.097,-65912.15,-36389.65,-36146.324,-48919.76
968750.2015108792,-96951.945,-74256.516,-21241.62,15361.572,-65914.59,-36387.168,-36143.066,-48920.777
968750.2055108778,-96956.016,-74259.12,-21242.676,15348.022,-65916.38,-36390.055,-36140.953,-48915.082
968750.2095108763,-96951.13,-74253.7,-21240.072,15339.478,-65924.89,-36393.555,-36136.56,-48904.46
968750.2135108749,-96946.45,-74245.77,-21238.566,15342.733,-65923.38,-36393.883,-36132.895,-48898.48
968750.2175108735,-96944.83,-74246.26,-21234.578,15353.394,-65913.66,-36392.254,-36132.164,-48905.76
968750.2215108719,-96945.07,-74249.48,-21229.004,15355.998,-65905.16,-36387.9,-36135.133,-48916.3
968750.2255108705,-96949.1,-74251.38,-21232.79,15346.436,-65906.984,-36387.047,-36139.363,-48920.535
968750.229510869,-96951.7,-74249.02,-21240.56,15337.769,-65919.805,-36387.82,-36139.285,-48914.023
968750.2335108676,-96949.836,-74247.68,-21238.24,15340.536,-65922.2,-36387.207,-36138.145,-48911.38
968750.2375108661,-96947.72,-74242.44,-21232.463,15352.011,-65906.945,-36386.15,-36136.19,-48906.453
968750.2415108647,-96950.52,-74245.08,-21228.395,15357.748,-65905.4,-36387.492,-36136.56,-48907.31
968750.2455108633,-96947.39,-74242.8,-21224.203,15352.255,-65904.79,-36389.324,-36133.504,-48904.137
968750.2495108618,-96934.086,-74234.336,-21219.85,15343.466,-65915.53,-36390.87,-36130.656,-48897.46
968750.2535108604,-96936.2,-74233.16,-21225.953,15343.994,-65917.6,-36387.207,-36123.94,-48887.695
968750.2575108589,-96938.27,-74232.625,-21222.982,15356.527,-65909.99,-36381.754,-36121.867,-48888.062
968750.2615108575,-96934.9,-74234.984,-21230.104,15365.967,-65901.33,-36379.598,-36121.297,-48885.336
968750.265510856,-96939.5,-74239.79,-21229.412,15362.305,-65909.67,-36383.79,-36131.754,-48895.43
968750.2695108546,-96940.02,-74243.33,-21225.586,15356.079,-65917.805,-36387.086,-36137.98,-48906.984
968750.2735108532,-96934.98,-74236.05,-21222.9,15355.591,-65920.62,-36388.387,-36132.203,-48899.008
968750.2775108517,-96927.82,-74229.414,-21231.16,15366.984,-65908.33,-36388.43,-36125.33,-48885.945
968750.2815108503,-96930.664,-74236.94,-21225.75,15367.351,-65906.086,-36385.66,-36121.746,-48875.246
968750.2855108487,-96938.03,-74241.414,-21230.713,15355.713,-65915.445,-36386.07,-36123.496,-48883.992
968750.2895108473,-96932.54,-74233.03,-21232.3,15346.924,-65927.86,-36389.85,-36128.5,-48901.246
968750.2935108459,-96935.23,-74236.62,-21237.875,15347.128,-65935.875,-36387.82,-36128.418,-48903.81
968750.2975108444,-96927.164,-74231.2,-21233.033,15360.2295,-65917.445,-36384.93,-36125.855,-48898.4
968750.301510843,-96925.01,-74228.68,-21228.516,15372.519,-65907.88,-36382.45,-36123.13,-48884.36
968750.3055108415,-96929.734,-74231.2,-21229.33,15361.45,-65917.4,-36384.195,-36127.156,-48889.65
968750.3095108401,-96933.48,-74229.62,-21228.598,15348.471,-65931.64,-36385.418,-36127.727,-48898.152
968750.3135108387,-96929.89,-74224.41,-21227.05,15346.11,-65933.11,-36386.477,-36125.367,-48896.934
968750.3175108372,-96932.46,-74225.836,-21229.615,15358.603,-65931.07,-36382.855,-36120.77,-48888.875
968750.3215108358,-96939.78,-74233.73,-21229.004,15366.455,-65925.26,-36380.29,-36124.105,-48896.445
968750.3255108343,-96934.49,-74231.04,-21231.04,15359.497,-65923.1,-36380.086,-36121.01,-48891.277
968750.3295108329,-96932.09,-74228.4,-21236.736,15347.412,-65929.24,-36382.527,-36120.85,-48890.06
968750.3335108315,-96920.21,-74216.48,-21234.701,15351.685,-65920.9,-36385.66,-36121.176,-48888.594
968750.33751083,-96926.64,-74221.44,-21232.91,15360.2295,-65906.336,-36382.527,-36119.875,-48889.16
968750.3415108286,-96931.52,-74230.63,-21230.633,15366.496,-65895.43,-36382.367,-36123.008,-48893.27
968750.3455108271,-96933.48,-74229.25,-21224.162,15358.969,-65931.89,-36379.68,-36123.66,-48890.465
968750.3495108256,-96940.76,-74229.125,-21242.352,15343.954,-65934.164,-36378.95,-36116.7,-48879.11
968750.3535108241,-96926.6,-74218.06,-21233.398,15349.121,-65909.18,-36384.402,-36118.45,-48880.86
968750.3575108227,-96931.56,-74224.2,-21235.027,15357.626,-65892.78,-36384.44,-36121.867,-48886.598
968750.3615108213,-96933.96,-74226.04,-21230.145,15364.95,-65891.97,-36384.195,-36123.13,-48895.508
968750.3655108198,-96940.92,-74234.055,-21228.312,15352.417,-65925.055,-36383.14,-36122.805,-48896.484
968750.3695108184,-96942.34,-74235.84,-21237.63,15338.664,-65939.05,-36387.086,-36121.42,-48888.227
968750.373510817,-96958.26,-74248.984,-21240.031,15342.204,-65938.6,-36384.97,-36121.83,-48895.062
968750.3775108155,-96946.21,-74235.27,-21238.81,15354.574,-65916.1,-36382.12,-36122.4,-48889.527
968750.3815108141,-96935.51,-74226.32,-21234.701,15359.294,-65911.91,-36382.285,-36126.793,-48893.15
968750.3855108126,-96939.78,-74232.18,-21233.562,15360.84,-65923.95,-36383.668,-36127.89,-48890.06
968750.3895108112,-96938.44,-74229.82,-21229.533,15351.645,-65936.24,-36386.56,-36126.87,-48886.8
968750.3935108098,-96940.07,-74229.33,-21225.139,15348.552,-65932.78,-36386.395,-36125.938,-48888.957
968750.3975108083,-96931.195,-74223.35,-21229.492,15357.422,-65914.59,-36385.99,-36124.105,-48884.688
968750.4015108069,-96937.83,-74232.26,-21224.65,15358.317,-65934.98,-36384.848,-36126.02,-48897.625
968750.4055108054,-96947.31,-74235.516,-21236.94,15352.499,-65936.32,-36386.23,-36131.105,-48908.734
968750.409510804,-96937.75,-74228.555,-21236.248,15348.389,-65929.73,-36387.74,-36125.977,-48892.09
968750.4135108024,-96928.67,-74220.46,-21235.596,15345.988,-65927.49,-36386.07,-36116.17,-48868.53
968750.417510801,-96931.28,-74225.38,-21226.807,15357.056,-65923.016,-36383.707,-36119.71,-48880.574
968750.4215107996,-96941.41,-74234.336,-21230.307,15365.723,-65924.234,-36382.57,-36120.89,-48885.176
968750.4255107981,-96938.97,-74231.41,-21235.719,15356.079,-65943.65,-36384.727,-36122.887,-48890.016
968750.4295107967,-96932.17,-74223.516,-21237.06,15348.227,-65944.09,-36384.81,-36122.152,-48891.074
968750.4335107952,-96925.5,-74223.31,-21230.469,15352.092,-65931.89,-36382.242,-36116.824,-48882.49
968750.4375107938,-96927.375,-74224.49,-21222.9,15358.398,-65938.03,-36377.402,-36111.41,-48869.875
968750.4415107924,-96933.02,-74224.086,-21234.375,15364.38,-65929.77,-36376.14,-36110.516,-48863.812
968750.4455107909,-96941.94,-74232.42,-21238.078,15356.486,-65934.25,-36374.555,-36111.086,-48867.473
968750.4495107895,-96942.18,-74235.76,-21240.887,15342.448,-65941.81,-36373.74,-36110.68,-48875.367
968750.453510788,-96923.51,-74224.33,-21232.79,15352.58,-65932.87,-36378.95,-36111.004,-48877.32
968750.4575107866,-96926.44,-74220.79,-21233.44,15366.74,-65923.75,-36378.62,-36108.48,-48872.887
968750.4615107852,-96933.234,-74230.59,-21235.31,15368.449,-65918.22,-36378.664,-36108.36,-48872.52
968750.4655107837,-96938.52,-74235.72,-21233.398,15361.247,-65922.08,-36378.543,-36107.42,-48872.113
968750.4695107823,-96937.5,-74233.69,-21235.393,15351.889,-65933.02,-36381.88,-36113.406,-48876.71
968750.4735107808,-96938.84,-74234.17,-21241.74,15349.325,-65936.73,-36379.438,-36112.145,-48885.5
968750.4775107793,-96931.44,-74229.086,-21244.508,15356.608,-65925.46,-36378.95,-36109.906,-48877.89
968750.4815107778,-96929.37,-74230.63,-21239.137,15360.637,-65918.945,-36379.965,-36112.633,-48877.727
968750.4855107764,-96937.95,-74237.19,-21240.887,15351.115,-65927.37,-36380.535,-36115.848,-48882.45
968750.489510775,-96935.59,-74229.086,-21244.385,15344.89,-65927.62,-36384.277,-36115.805,-48882.61
968750.4935107735,-96934.98,-74223.47,-21243.979,15349.365,-65924.73,-36385.297,-36114.664,-48877.035
968750.4975107721,-96933.31,-74222.86,-21239.584,15364.462,-65916.99,-36383.06,-36111.043,-48866.133
968750.5015107706,-96926.6,-74218.79,-21236.613,15368.205,-65911.74,-36379.926,-36107.707,-48867.637
968750.5055107692,-96923.47,-74216.63,-21236.125,15359.619,-65908.66,-36379.03,-36108.277,-48879.844
968750.5095107678,-96921.555,-74221.234,-21235.84,15351.115,-65917.85,-36379.477,-36107.016,-48872.926
968750.5135107663,-96929.53,-74228.48,-21240.52,15350.383,-65930.79,-36379.152,-36109.09,-48874.39
968750.5175107649,-96922.81,-74221.766,-21229.656,15356.364,-65922.0,-36378.215,-36109.375,-48870.81
968750.5215107634,-96914.39,-74214.88,-21221.762,15365.031,-65911.664,-36377.24,-36105.023,-48863.484
968750.525510762,-96924.89,-74226.52,-21219.85,15362.468,-65923.055,-36377.2,-36107.3,-48872.926
968750.5295107606,-96922.9,-74220.13,-21242.352,15355.795,-65917.65,-36377.605,-36103.027,-48862.387
968750.5335107591,-96930.26,-74223.15,-21241.578,15361.45,-65912.97,-36378.5,-36105.184,-48868.613
968750.5375107577,-96930.22,-74226.08,-21233.48,15373.088,-65906.01,-36378.867,-36106.73,-48874.637
968750.5415107561,-96939.17,-74234.78,-21241.7,15368.612,-65910.61,-36374.84,-36105.594,-48877.566
968750.5455107547,-96934.0,-74227.42,-21241.334,15365.438,-65921.63,-36372.56,-36102.703,-48872.113
968750.5495107532,-96935.43,-74228.92,-21235.678,15347.819,-65935.02,-36375.734,-36106.934,-48876.18
968750.5535107518,-96942.23,-74236.695,-21228.312,15349.121,-65938.16,-36376.383,-36109.05,-48877.32
968750.5575107504,-96938.6,-74232.305,-21247.03,15361.247,-65924.36,-36372.805,-36103.598,-48865.438
968750.5615107489,-96925.375,-74227.336,-21238.281,15376.059,-65913.21,-36375.0,-36103.027,-48866.414
968750.5655107475,-96933.96,-74233.89,-21240.602,15373.373,-65903.93,-36376.59,-36107.668,-48883.75
968750.569510746,-96936.2,-74230.875,-21237.06,15367.554,-65904.625,-36375.734,-36104.453,-48878.01
968750.5735107446,-96923.14,-74222.62,-21241.74,15368.979,-65895.06,-36376.914,-36097.332,-48861.125
968750.5775107432,-96926.96,-74226.24,-21237.02,15379.761,-65903.04,-36373.74,-36097.656,-48860.434
968750.5815107417,-96931.73,-74225.75,-21235.516,15383.383,-65900.92,-36371.746,-36094.28,-48852.215
968750.5855107403,-96926.516,-74226.52,-21232.79,15377.238,-65911.13,-36371.5,-36094.32,-48851.93
968750.5895107388,-96918.09,-74220.5,-21230.957,15371.135,-65915.57,-36375.203,-36094.117,-48861.86
968750.5935107374,-96921.06,-74218.71,-21233.48,15371.542,-65909.63,-36373.453,-36090.17,-48855.184
968750.597510736,-96924.4,-74217.9,-21245.361,15379.028,-65899.3,-36369.832,-36087.28,-48855.47
968750.6015107345,-96927.414,-74221.84,-21232.748,15380.209,-65903.28,-36372.52,-36090.09,-48857.098
968750.605510733,-96926.44,-74220.336,-21236.654,15371.054,-65905.52,-36373.535,-36087.934,-48852.215
968750.6095107315,-96921.59,-74216.555,-21242.107,15367.798,-65903.36,-36373.66,-36087.688,-48854.414
968750.6135107301,-96920.414,-74219.32,-21235.475,15368.9375,-65908.86,-36372.52,-36088.137,-48854.94
968750.6175107287,-96921.35,-74221.48,-21237.469,15385.783,-65901.164,-36369.47,-36086.875,-48853.516
968750.6215107272,-96927.125,-74226.85,-21236.125,15393.596,-65895.836,-36366.17,-36087.605,-48863.406
968750.6255107258,-96925.58,-74227.055,-21238.934,15381.552,-65905.73,-36363.16,-36083.7,-48859.5
968750.6295107243,-96923.99,-74223.11,-21236.654,15372.396,-65913.01,-36366.824,-36083.742,-48851.766
968750.6335107229,-96930.625,-74227.22,-21243.246,15369.507,-65921.67,-36367.594,-36084.027,-48852.5
968750.6375107215,-96936.484,-74235.48,-21240.193,15378.622,-65922.2,-36369.47,-36090.66,-48873.008
968750.64151072,-96922.85,-74224.086,-21235.799,15390.707,-65914.43,-36371.707,-36085.043,-48857.344
968750.6455107186,-96926.31,-74221.766,-21242.146,15381.592,-65911.055,-36371.95,-36084.11,-48855.55
968750.6495107171,-96939.05,-74228.48,-21240.113,15372.844,-65911.79,-36373.453,-36087.934,-48859.742
968750.6535107157,-96929.65,-74221.56,-21231.934,15379.517,-65918.17,-36370.81,-36084.312,-48864.95
968750.6575107143,-96933.555,-74220.87,-21243.084,15383.423,-65901.53,-36366.617,-36084.434,-48867.027
968750.6615107128,-96931.52,-74226.52,-21240.316,15385.62,-65899.25,-36368.45,-36090.984,-48864.42
968750.6655107114,-96929.98,-74221.56,-21241.008,15382.528,-65911.945,-36369.832,-36091.555,-48866.66
968750.6695107098,-96930.18,-74228.555,-21228.883,15368.164,-65921.71,-36373.293,-36096.316,-48870.77
968750.6735107084,-96918.46,-74219.61,-21237.549,15374.472,-65916.42,-36372.76,-36092.816,-48864.22
968750.6775107069,-96923.305,-74221.72,-21238.12,15388.51,-65913.58,-36370.402,-36089.97,-48857.098
968750.6815107055,-96916.79,-74219.04,-21228.312,15394.857,-65905.195,-36375.33,-36093.793,-48856.406
968750.6855107041,-96905.4,-74212.164,-21230.633,15393.026,-65896.57,-36378.258,-36089.234,-48844.688
968750.6895107026,-96904.664,-74206.51,-21229.94,15382.446,-65893.03,-36380.21,-36092.49,-48847.008
968750.6935107012,-96923.38,-74225.625,-21241.537,15376.547,-65900.72,-36376.914,-36097.496,-48865.562
968750.6975106997,-96916.06,-74219.12,-21242.432,15388.591,-65897.38,-36374.676,-36092.977,-48858.36
968750.7015106983,-96909.75,-74212.28,-21236.043,15393.311,-65895.59,-36372.438,-36096.152,-48860.8
968750.7055106969,-96917.4,-74216.76,-21239.38,15386.841,-65909.99,-36371.34,-36095.055,-48859.297
968750.7095106954,-96922.98,-74219.93,-21239.666,15376.506,-65912.36,-36371.83,-36094.85,-48860.92
968750.713510694,-96922.65,-74219.445,-21241.902,15377.279,-65907.96,-36370.605,-36093.832,-48866.254
968750.7175106925,-96923.38,-74220.87,-21241.293,15388.103,-65903.41,-36370.445,-36093.508,-48863.484
968750.7215106911,-96921.96,-74217.2,-21241.375,15389.567,-65902.38,-36372.438,-36093.953,-48857.465
968750.7255106897,-96926.19,-74222.62,-21238.24,15381.714,-65911.74,-36378.46,-36099.164,-48861.168
968750.7295106882,-96931.234,-74222.58,-21245.361,15374.023,-65911.336,-36383.3,-36100.668,-48863.895
968750.7335106867,-96926.68,-74222.336,-21245.484,15374.675,-65906.945,-36386.56,-36101.89,-48864.586
968750.7375106852,-96931.16,-74228.15,-21241.334,15385.295,-65900.31,-36382.12,-36098.55,-48862.875
968750.7415106838,-96920.33,-74221.48,-21236.531,15399.374,-65889.445,-36378.38,-36097.535,-48861.043
968750.7455106823,-96926.48,-74224.41,-21240.479,15389.934,-65890.016,-36374.473,-36099.0,-48870.28
968750.7495106809,-96931.84,-74227.09,-21236.98,15374.512,-65912.97,-36371.785,-36097.496,-48869.832
968750.7535106795,-96934.695,-74229.82,-21239.096,15368.205,-65915.734,-36368.164,-36094.2,-48867.066
968750.757510678,-96928.266,-74225.22,-21246.258,15374.309,-65905.93,-36366.293,-36088.785,-48854.82
968750.7615106766,-96927.734,-74228.805,-21244.385,15379.11,-65906.21,-36367.555,-36093.71,-48862.266
968750.7655106751,-96934.49,-74231.9,-21241.863,15376.872,-65908.24,-36371.785,-36099.285,-48880.86
968750.7695106737,-96938.07,-74229.984,-21240.643,15372.03,-65916.79,-36375.734,-36099.938,-48873.13
968750.7735106723,-96927.78,-74219.89,-21239.584,15374.675,-65911.3,-36377.81,-36094.156,-48854.453
968750.7775106708,-96927.125,-74221.4,-21238.322,15386.679,-65892.78,-36377.605,-36093.344,-48860.68
968750.7815106694,-96926.15,-74228.31,-21240.52,15389.648,-65881.23,-36375.816,-36094.2,-48873.863
968750.785510668,-96919.6,-74221.44,-21233.602,15376.099,-65903.12,-36371.22,-36083.414,-48862.47
968750.7895106665,-96917.16,-74214.64,-21226.93,15370.158,-65904.09,-36368.41,-36072.594,-48846.19
968750.793510665,-96918.016,-74213.625,-21227.58,15372.844,-65905.16,-36367.188,-36071.207,-48837.527
968750.7975106635,-96929.37,-74216.48,-21246.217,15380.371,-65900.96,-36362.145,-36072.957,-48843.71
968750.8015106621,-96921.06,-74216.35,-21235.76,15390.788,-65894.78,-36358.523,-36067.3,-48838.137
968750.8055106606,-96914.555,-74211.06,-21238.445,15387.817,-65897.79,-36362.184,-36072.266,-48843.14
968750.8095106592,-96915.125,-74210.29,-21240.072,15372.681,-65904.46,-36366.21,-36075.24,-48844.16
968750.8135106578,-96913.7,-74209.96,-21239.705,15374.064,-65893.59,-36368.41,-36076.215,-48844.484
968750.8175106563,-96912.6,-74210.9,-21236.328,15382.65,-65882.81,-36370.81,-36075.48,-48846.52
968750.8215106549,-96914.06,-74216.88,-21232.83,15383.993,-65897.016,-36370.605,-36074.465,-48845.418
968750.8255106534,-96918.5,-74217.33,-21236.94,15383.017,-65908.57,-36369.02,-36074.465,-48845.99
968750.829510652,-96919.03,-74214.93,-21242.596,15377.6045,-65904.83,-36367.84,-36072.43,-48839.844
968750.8335106506,-96921.06,-74218.02,-21242.352,15379.191,-65901.125,-36366.945,-36073.16,-48841.23
968750.8375106491,-96927.33,-74223.67,-21240.643,15381.918,-65913.21,-36365.195,-36076.906,-48847.414
968750.8415106477,-96934.77,-74235.92,-21239.787,15382.568,-65923.46,-36364.992,-36081.258,-48850.832
968750.8455106462,-96949.71,-74242.8,-21245.24,15381.104,-65919.76,-36365.113,-36084.555,-48861.9
968750.8495106448,-96927.375,-74221.68,-21250.0,15378.378,-65915.9,-36366.05,-36076.215,-48853.965
968750.8535106434,-96927.45,-74225.95,-21247.479,15378.866,-65922.164,-36365.4,-36074.22,-48850.383
968750.8575106418,-96915.9,-74219.41,-21236.207,15390.585,-65915.164,-36365.766,-36070.19,-48837.324
968750.8615106404,-96912.73,-74215.05,-21235.637,15394.613,-65900.23,-36364.258,-36066.12,-48832.684
968750.8655106389,-96904.26,-74208.414,-21222.047,15394.043,-65906.086,-36369.02,-36067.383,-48834.676
968750.8695106375,-96912.93,-74208.46,-21241.09,15381.022,-65912.97,-36370.445,-36065.715,-48836.508
968750.873510636,-96918.17,-74212.2,-21240.967,15375.8545,-65914.266,-36370.523,-36070.598,-48848.39
968750.8775106346,-96925.87,-74218.67,-21241.09,15384.766,-65913.945,-36367.594,-36071.207,-48842.33
968750.8815106332,-96928.19,-74224.445,-21238.852,15397.095,-65908.49,-36365.926,-36072.348,-48839.56
968750.8855106317,-96925.984,-74221.766,-21240.154,15389.242,-65911.09,-36368.33,-36077.76,-48853.395
968750.8895106303,-96936.69,-74225.42,-21241.822,15377.849,-65928.47,-36370.035,-36082.438,-48864.383
968750.8935106288,-96944.87,-74240.69,-21239.014,15381.104,-65933.48,-36367.758,-36079.47,-48867.676
968750.8975106274,-96948.125,-74243.66,-21249.268,15385.824,-65924.4,-36365.152,-36072.348,-48854.777
968750.901510626,-96930.42,-74226.6,-21245.076,15394.613,-65904.586,-36369.387,-36072.633,-48851.605
968750.9055106245,-96922.77,-74218.1,-21237.793,15388.428,-65927.77,-36366.7,-36067.996,-48847.008
968750.9095106231,-96908.86,-74207.84,-21234.01,15380.575,-65934.49,-36373.13,-36067.996,-48843.06
968750.9135106216,-96904.87,-74202.516,-21227.092,15383.627,-65933.555,-36373.984,-36069.133,-48843.06
968750.9175106202,-96909.02,-74204.06,-21223.715,15392.294,-65923.46,-36369.223,-36070.11,-48847.293
968750.9215106186,-96912.6,-74210.49,-21243.084,15396.484,-65917.08,-36362.348,-36068.402,-48843.06
968750.9255106172,-96917.16,-74211.34,-21239.178,15391.154,-65920.53,-36360.27,-36069.01,-48846.926
968750.9295106158,-96916.34,-74211.34,-21236.207,15377.482,-65924.97,-36361.94,-36074.18,-48855.47
968750.9335106143,-96922.04,-74215.66,-21240.723,15377.075,-65919.44,-36363.527,-36076.863,-48859.785
968750.9375106129,-96919.11,-74213.625,-21241.13,15391.235,-65909.914,-36363.688,-36076.457,-48859.01
968750.9415106114,-96918.74,-74214.32,-21235.027,15397.787,-65910.89,-36363.566,-36074.668,-48855.43
968750.94551061,-96912.195,-74210.45,-21235.88,15386.557,-65915.33,-36364.016,-36069.094,-48841.84
968750.9495106086,-96914.23,-74211.14,-21223.715,15381.796,-65923.305,-36369.344,-36071.004,-48843.875
968750.9535106071,-96912.03,-74207.84,-21239.87,15380.249,-65924.36,-36368.98,-36069.05,-48854.74
968750.9575106057,-96913.414,-74211.836,-21238.037,15382.487,-65926.39,-36366.457,-36068.484,-48858.4
968750.9615106042,-96930.71,-74224.04,-21240.316,15387.167,-65928.19,-36361.777,-36071.332,-48863.812
968750.9655106028,-96922.04,-74218.02,-21237.916,15388.225,-65922.81,-36362.71,-36072.266,-48854.902
968750.9695106014,-96923.26,-74220.586,-21238.445,15378.866,-65934.125,-36363.363,-36072.754,-48855.348
968750.9735105999,-96922.77,-74217.41,-21237.549,15382.8125,-65934.33,-36360.758,-36067.18,-48844.363
968750.9775105985,-96921.76,-74215.25,-21233.766,15396.77,-65929.12,-36359.133,-36064.656,-48847.25
968750.981510597,-96918.586,-74212.37,-21230.957,15406.738,-65926.76,-36359.293,-36066.734,-48852.906
968750.9855105955,-96915.49,-74209.11,-21230.348,15399.902,-65927.734,-36365.195,-36068.766,-48848.105
968750.989510594,-96916.586,-74212.37,-21225.506,15390.829,-65931.6,-36372.03,-36073.855,-48854.29
968750.9935105926,-96917.36,-74207.73,-21222.576,15394.613,-65924.64,-36376.06,-36079.55,-48863.973
968750.9975105912,-96919.68,-74204.67,-21235.555,15395.142,-65917.6,-36370.81,-36076.785,-48858.727
968751.0015105897,-96915.2,-74208.78,-21233.928,15400.106,-65926.19,-36363.77,-36074.06,-48852.906
968751.0055105883,-96915.29,-74204.14,-21232.342,15398.52,-65924.64,-36360.27,-36069.785,-48838.79
968751.0095105869,-96917.89,-74205.98,-21233.48,15385.417,-65928.71,-36360.312,-36072.47,-48845.176
968751.0135105854,-96912.11,-74204.43,-21238.69,15389.242,-65924.03,-36359.58,-36071.13,-48856.445
968751.017510584,-96911.055,-74206.83,-21235.596,15402.344,-65915.49,-36354.74,-36063.883,-48842.613
968751.0215105825,-96912.73,-74209.92,-21228.719,15403.972,-65915.33,-36351.277,-36061.035,-48845.5
968751.0255105811,-96913.54,-74208.984,-21228.924,15396.118,-65917.03,-36354.695,-36060.387,-48839.152
968751.0295105797,-96912.6,-74207.56,-21225.994,15383.464,-65924.28,-36363.406,-36062.094,-48832.562
968751.0335105782,-96912.64,-74202.15,-21227.498,15390.869,-65935.38,-36365.234,-36055.016,-48823.0
968751.0375105768,-96905.44,-74199.99,-21223.918,15403.728,-65921.914,-36369.426,-36060.06,-48826.17
968751.0415105753,-96894.375,-74193.4,-21215.7,15413.615,-65906.21,-36366.945,-36059.246,-48822.47
968751.0455105739,-96898.73,-74196.9,-21217.693,15403.117,-65911.42,-36361.695,-36062.258,-48829.062
968751.0495105723,-96897.14,-74196.45,-21214.64,15393.2295,-65916.1,-36360.516,-36065.348,-48835.45
968751.0535105709,-96903.164,-74193.24,-21235.555,15392.944,-65911.79,-36354.453,-36058.473,-48824.22
968751.0575105695,-96904.79,-74194.99,-21232.586,15401.042,-65906.13,-36350.992,-36056.805,-48826.133
968751.061510568,-96911.7,-74205.484,-21234.213,15408.163,-65906.62,-36348.676,-36056.48,-48826.17
968751.0655105666,-96911.87,-74207.32,-21233.195,15406.982,-65913.58,-36349.773,-36057.332,-48826.05
968751.0695105651,-96920.17,-74211.266,-21227.621,15393.352,-65919.68,-36352.336,-36060.953,-48833.133
968751.0735105637,-96923.914,-74218.836,-21226.686,15388.225,-65929.0,-36354.656,-36063.805,-48839.56
968751.0775105623,-96924.805,-74219.41,-21226.156,15395.224,-65911.7,-36356.49,-36062.258,-48839.926
968751.0815105608,-96913.086,-74208.62,-21233.48,15406.982,-65896.69,-36362.387,-36063.395,-48833.7
968751.0855105594,-96914.96,-74209.555,-21226.848,15402.67,-65910.32,-36365.848,-36068.645,-48835.492
968751.0895105579,-96918.586,-74212.81,-21231.16,15391.154,-65920.17,-36365.195,-36074.79,-48844.77
968751.0935105565,-96921.67,-74214.03,-21237.469,15396.281,-65909.67,-36362.47,-36074.26,-48848.227
968751.0975105551,-96912.68,-74208.82,-21234.416,15404.623,-65911.74,-36356.406,-36068.973,-48844.688
968751.1015105536,-96912.68,-74209.11,-21233.357,15407.512,-65903.81,-36351.766,-36066.773,-48839.6
968751.1055105522,-96914.76,-74212.98,-21232.666,15398.112,-65904.26,-36350.344,-36065.105,-48835.652
968751.1095105507,-96912.44,-74213.87,-21234.742,15387.289,-65922.445,-36352.215,-36070.477,-48854.98
968751.1135105492,-96916.305,-74216.27,-21236.94,15393.188,-65926.19,-36354.41,-36075.074,-48866.58
968751.1175105477,-96924.08,-74219.65,-21234.213,15400.106,-65914.35,-36354.207,-36073.285,-48860.35
968751.1215105463,-96921.63,-74221.07,-21236.207,15405.518,-65917.24,-36354.004,-36070.8,-48846.926
968751.1255105449,-96910.69,-74216.48,-21225.871,15409.18,-65914.43,-36356.61,-36070.07,-48846.07
968751.1295105434,-96907.23,-74209.15,-21229.94,15400.92,-65904.22,-36362.387,-36072.39,-48856.242
968751.133510542,-96914.11,-74213.016,-21241.09,15398.315,-65903.0,-36359.824,-36071.74,-48851.074
968751.1375105405,-96911.22,-74207.97,-21233.887,15407.1455,-65905.805,-36355.47,-36071.332,-48851.36
968751.1415105391,-96917.61,-74217.695,-21236.736,15407.1455,-65913.62,-36349.406,-36069.824,-48855.633
968751.1455105377,-96927.695,-74222.66,-21243.123,15394.572,-65931.4,-36344.156,-36067.914,-48855.918
968751.1495105362,-96927.984,-74218.38,-21241.496,15389.689,-65930.75,-36345.258,-36066.043,-48849.57
968751.1535105348,-96923.99,-74215.45,-21240.682,15394.45,-65926.59,-36343.305,-36062.055,-48844.688
968751.1575105333,-96929.0,-74221.97,-21236.572,15403.564,-65917.805,-36342.773,-36065.473,-48854.98
968751.1615105319,-96927.53,-74222.945,-21239.543,15410.93,-65906.5,-36342.53,-36064.293,-48852.418
968751.1655105305,-96918.17,-74222.66,-21220.541,15403.605,-65913.49,-36349.0,-36070.23,-48857.75
968751.169510529,-96917.89,-74214.56,-21239.502,15397.055,-65905.52,-36353.273,-36068.402,-48851.156
968751.1735105276,-96918.91,-74213.42,-21238.566,15395.956,-65923.586,-36357.42,-36068.688,-48846.234
968751.177510526,-96923.47,-74214.27,-21241.822,15406.454,-65915.81,-36356.527,-36065.758,-48841.434
968751.1815105246,-96920.695,-74217.61,-21235.434,15417.644,-65911.17,-36360.637,-36077.72,-48857.016
968751.1855105232,-96918.055,-74212.24,-21238.445,15416.179,-65920.695,-36358.766,-36077.15,-48855.957
968751.1895105217,-96928.06,-74217.61,-21244.955,15403.483,-65920.21,-36355.67,-36076.863,-48853.273
968751.1935105203,-96943.445,-74231.125,-21242.107,15392.131,-65924.36,-36349.45,-36074.383,-48860.35
968751.1975105188,-96922.85,-74210.57,-21238.648,15406.86,-65913.29,-36345.906,-36064.984,-48834.188
968751.2015105174,-96915.94,-74213.42,-21230.145,15411.337,-65907.76,-36341.715,-36061.688,-48824.098
968751.205510516,-96919.31,-74219.484,-21235.23,15405.111,-65915.37,-36342.45,-36064.13,-48828.047
968751.2095105145,-96918.99,-74218.79,-21238.607,15402.263,-65917.52,-36345.176,-36065.836,-48839.887
968751.2135105131,-96915.9,-74212.41,-21238.893,15403.769,-65909.99,-36346.477,-36063.723,-48838.746
968751.2175105116,-96912.516,-74208.21,-21234.62,15414.267,-65888.305,-36346.76,-36062.664,-48840.13
968751.2215105102,-96915.04,-74207.805,-21234.578,15419.149,-65887.17,-36348.39,-36062.094,-48832.645
968751.2255105088,-96919.234,-74217.37,-21231.121,15403.972,-65898.6,-36353.72,-36067.098,-48837.445
968751.2295105073,-96914.31,-74211.47,-21229.695,15393.393,-65906.62,-36354.332,-36066.164,-48845.785
968751.2335105059,-96903.08,-74202.516,-21233.766,15401.855,-65897.14,-36350.547,-36061.402,-48831.42
968751.2375105044,-96907.72,-74210.37,-21234.498,15413.371,-65893.19,-36344.402,-36059.0,-48825.44
968751.2415105029,-96917.81,-74225.42,-21236.004,15415.365,-65889.08,-36340.293,-36065.43,-48849.895
968751.2455105014,-96924.93,-74231.24,-21235.922,15399.74,-65893.31,-36339.273,-36068.727,-48858.156
968751.2495105,-96927.66,-74222.05,-21248.617,15392.619,-65897.83,-36339.234,-36061.363,-48844.035
968751.2535104986,-96924.69,-74220.13,-21246.176,15390.788,-65899.01,-36337.242,-36059.734,-48847.008
968751.2575104971,-96911.83,-74210.82,-21235.678,15398.52,-65908.86,-36337.85,-36057.496,-48841.594
968751.2615104957,-96927.984,-74226.04,-21237.02,15410.238,-65907.02,-36336.59,-36056.4,-48837.73
968751.2655104942,-96940.19,-74242.31,-21238.729,15406.128,-65918.74,-36339.56,-36058.23,-48835.41
968751.2695104928,-96929.2,-74226.766,-21236.043,15394.938,-65917.805,-36344.605,-36064.656,-48834.434
968751.2735104914,-96906.984,-74201.09,-21234.13,15400.961,-65895.43,-36343.793,-36063.152,-48827.15
968751.2775104899,-96910.56,-74206.625,-21240.316,15410.319,-65881.516,-36339.113,-36060.26,-48835.98
968751.2815104885,-96898.484,-74207.16,-21223.918,15414.917,-65876.51,-36339.52,-36065.145,-48836.63
968751.285510487,-96908.94,-74209.02,-21232.586,15401.042,-65883.55,-36339.07,-36069.742,-48846.76
968751.2895104856,-96921.23,-74210.25,-21236.531,15395.102,-65902.836,-36340.902,-36073.0,-48858.277
968751.2935104842,-96901.734,-74196.375,-21232.26,15404.175,-65894.086,-36341.92,-36062.258,-48836.223
968751.2975104827,-96907.02,-74205.81,-21235.596,15410.93,-65891.234,-36340.13,-36061.973,-48831.992
968751.3015104813,-96922.734,-74221.68,-21231.854,15416.708,-65899.62,-36337.445,-36064.617,-48832.887
968751.3055104797,-96926.805,-74223.35,-21223.715,15406.616,-65911.38,-36339.76,-36071.82,-48840.254
968751.3095104783,-96919.11,-74211.914,-21233.766,15396.078,-65913.86,-36345.46,-36077.84,-48844.89
968751.3135104768,-96920.086,-74212.81,-21232.342,15393.596,-65920.984,-36346.477,-36082.277,-48855.957
968751.3175104754,-96917.61,-74211.75,-21216.676,15420.37,-65903.41,-36345.34,-36081.016,-48852.906
968751.321510474,-96920.78,-74215.74,-21223.309,15424.805,-65894.414,-36341.797,-36077.637,-48846.52
968751.3255104725,-96925.945,-74221.93,-21237.264,15417.725,-65892.5,-36340.496,-36074.098,-48842.734
968751.3295104711,-96918.5,-74216.48,-21237.875,15416.83,-65894.125,-36343.387,-36078.453,-48844.81
968751.3335104696,-96915.66,-74216.27,-21231.324,15414.917,-65905.07,-36342.652,-36075.848,-48843.793
968751.3375104682,-96923.71,-74226.24,-21242.146,15418.091,-65901.25,-36338.625,-36072.43,-48845.543
968751.3415104668,-96925.336,-74233.36,-21237.996,15419.638,-65900.64,-36336.305,-36073.324,-48848.227
968751.3455104653,-96924.08,-74223.8,-21231.934,15408.244,-65913.54,-36335.53,-36070.152,-48841.188
968751.3495104639,-96931.12,-74226.73,-21244.793,15398.193,-65913.74,-36336.793,-36069.176,-48838.95
968751.3535104624,-96920.62,-74220.79,-21245.32,15406.901,-65895.96,-36338.992,-36075.727,-48843.223
968751.357510461,-96929.37,-74228.27,-21244.14,15413.737,-65894.734,-36334.473,-36071.207,-48847.008
968751.3615104596,-96915.41,-74219.24,-21234.578,15428.711,-65884.195,-36337.242,-36068.93,-48840.7
968751.3655104581,-96925.54,-74223.516,-21235.31,15415.568,-65895.43,-36336.508,-36070.07,-48843.67
968751.3695104566,-96923.99,-74222.74,-21240.193,15403.891,-65900.23,-36338.176,-36069.906,-48837.363
968751.3735104551,-96922.445,-74217.49,-21234.172,15404.541,-65905.64,-36336.14,-36066.855,-48828.37
968751.3775104537,-96911.42,-74212.32,-21238.078,15412.68,-65895.02,-36332.6,-36060.02,-48820.598
968751.3815104523,-96917.81,-74214.4,-21236.248,15419.394,-65891.08,-36334.312,-36067.87,-48840.58
968751.3855104508,-96927.05,-74222.66,-21231.934,15414.714,-65902.18,-36335.086,-36073.977,-48843.63
968751.3895104494,-96933.31,-74230.92,-21206.299,15408.203,-65914.59,-36338.707,-36080.406,-48845.95
968751.3935104479,-96913.66,-74212.89,-21244.588,15411.133,-65900.516,-36333.902,-36068.848,-48827.395
968751.3975104465,-96908.82,-74214.766,-21238.934,15422.526,-65886.4,-36329.836,-36067.18,-48827.11
968751.401510445,-96909.06,-74214.56,-21237.02,15422.893,-65890.26,-36327.84,-36062.664,-48817.996
968751.4055104436,-96913.25,-74216.39,-21235.027,15414.145,-65891.56,-36331.543,-36064.902,-48812.34
968751.4095104422,-96916.55,-74220.055,-21233.154,15405.925,-65895.34,-36332.277,-36067.02,-48822.188
968751.4135104407,-96912.516,-74215.336,-21229.736,15407.512,-65887.695,-36333.7,-36070.395,-48828.41
968751.4175104393,-96905.805,-74213.625,-21247.64,15418.376,-65871.46,-36331.34,-36068.766,-48825.24
968751.4215104379,-96920.01,-74226.08,-21243.572,15424.032,-65874.555,-36327.395,-36067.996,-48837.04
968751.4255104364,-96912.93,-74216.19,-21233.887,15418.498,-65889.37,-36326.62,-36065.31,-48832.684
968751.429510435,-96919.31,-74219.93,-21228.271,15405.029,-65905.93,-36330.812,-36073.812,-48841.31
968751.4335104334,-96912.31,-74214.97,-21237.06,15403.931,-65908.2,-36332.36,-36069.824,-48833.54
968751.437510432,-96911.22,-74219.81,-21239.666,15423.869,-65898.32,-36330.527,-36067.426,-48830.04
968751.4415104305,-96910.04,-74214.36,-21232.219,15432.821,-65891.85,-36328.168,-36061.85,-48823.57
968751.4455104291,-96917.61,-74220.5,-21231.568,15422.323,-65896.57,-36328.9,-36064.13,-48821.94
968751.4495104277,-96908.33,-74210.086,-21234.701,15418.457,-65879.03,-36331.137,-36064.332,-48827.312
968751.4535104262,-96908.41,-74205.08,-21239.34,15416.667,-65865.52,-36329.996,-36062.867,-48825.848
968751.4575104248,-96903.37,-74200.69,-21231.934,15427.246,-65859.54,-36326.09,-36061.44,-48821.7
968751.4615104233,-96910.85,-74206.42,-21228.11,15432.089,-65863.734,-36324.87,-36066.0,-48829.633
968751.4655104219,-96905.195,-74206.55,-21223.227,15423.137,-65878.586,-36325.848,-36069.418,-48831.137
968751.4695104205,-96905.195,-74206.46,-21222.576,15417.521,-65879.97,-36327.15,-36069.906,-48827.76
968751.473510419,-96907.8,-74208.46,-21221.924,15421.672,-65878.18,-36330.73,-36074.383,-48837.605
968751.4775104176,-96898.69,-74200.16,-21225.953,15434.937,-65867.39,-36328.453,-36067.547,-48826.785
968751.4815104161,-96902.51,-74205.53,-21222.209,15440.39,-65863.81,-36326.785,-36066.0,-48824.06
968751.4855104147,-96907.02,-74208.46,-21223.43,15432.373,-65867.48,-36324.953,-36065.43,-48822.39
968751.4895104133,-96915.41,-74215.09,-21220.582,15416.179,-65878.79,-36323.773,-36067.06,-48826.582
968751.4935104118,-96914.555,-74209.39,-21228.598,15412.639,-65872.68,-36322.633,-36066.203,-48823.445
968751.4975104103,-96921.67,-74218.18,-21230.754,15418.417,-65865.44,-36319.54,-36067.832,-48832.848
968751.5015104088,-96915.125,-74220.87,-21230.592,15426.718,-65869.63,-36317.586,-36065.348,-48832.97
968751.5055104074,-96916.63,-74222.54,-21230.55,15421.591,-65873.984,-36320.926,-36067.71,-48829.023
968751.509510406,-96913.58,-74214.195,-21216.432,15419.841,-65885.055,-36326.297,-36071.94,-48825.727
968751.5135104045,-96914.47,-74214.64,-21225.953,15422.7295,-65886.48,-36323.16,-36066.12,-48821.25
968751.5175104031,-96905.07,-74210.734,-21218.791,15433.513,-65872.03,-36324.098,-36071.98,-48835.207
968751.5215104016,-96908.61,-74215.05,-21232.342,15436.361,-65865.805,-36321.29,-36072.266,-48828.168
968751.5255104002,-96905.766,-74213.625,-21236.613,15430.014,-65863.89,-36322.715,-36075.887,-48827.395
968751.5295103987,-96909.43,-74208.21,-21228.15,15423.706,-65874.516,-36324.42,-36078.94,-48838.992
968751.5335103973,-96906.82,-74207.32,-21227.703,15422.16,-65874.11,-36324.91,-36078.74,-48839.684
968751.5375103959,-96913.21,-74211.1,-21231.445,15429.851,-65864.95,-36323.367,-36077.92,-48841.797
968751.5415103944,-96919.4,-74217.164,-21227.295,15433.105,-65864.95,-36323.367,-36076.906,-48834.598
968751.545510393,-96904.55,-74205.61,-21218.588,15426.27,-65860.76,-36324.586,-36070.312,-48821.74
968751.5495103915,-96913.91,-74209.07,-21215.902,15415.365,-65869.836,-36325.848,-36072.266,-48833.7
968751.5535103901,-96918.91,-74208.17,-21239.096,15420.044,-65872.766,-36323.527,-36065.836,-48824.14
968751.5575103887,-96901.37,-74197.555,-21233.48,15444.906,-65847.375,-36325.035,-36067.996,-48824.63
968751.5615103871,-96906.375,-74201.984,-21229.777,15440.43,-65842.33,-36322.754,-36067.75,-48825.727
968751.5655103857,-96918.17,-74212.93,-21229.207,15427.043,-65865.766,-36324.3,-36072.67,-48832.766
968751.5695103842,-96917.65,-74210.53,-21232.79,15422.689,-65869.305,-36324.75,-36069.418,-48828.086
968751.5735103828,-96903.24,-74199.75,-21228.639,15430.136,-65861.37,-36324.383,-36064.25,-48829.715
968751.5775103814,-96906.336,-74201.21,-21221.924,15441.813,-65845.664,-36322.227,-36062.867,-48829.387
968751.5815103799,-96898.73,-74196.945,-21216.39,15447.266,-65854.21,-36318.645,-36057.863,-48823.367
968751.5855103785,-96912.16,-74203.82,-21231.16,15431.356,-65873.91,-36317.3,-36055.543,-48827.8
968751.589510377,-96908.41,-74200.16,-21233.562,15426.27,-65882.94,-36320.23,-36055.707,-48825.44
968751.5935103756,-96910.08,-74202.03,-21233.398,15430.176,-65879.16,-36321.535,-36057.414,-48832.97
968751.5975103742,-96908.29,-74203.86,-21229.656,15440.715,-65871.75,-36320.438,-36055.79,-48830.324
968751.6015103727,-96914.31,-74207.89,-21224.773,15448.12,-65871.75,-36319.094,-36054.85,-48825.44
968751.6055103713,-96909.95,-74205.484,-21227.459,15442.139,-65873.414,-36321.656,-36056.316,-48820.152
968751.6095103698,-96910.52,-74206.22,-21229.9,15436.198,-65877.85,-36323.12,-36058.434,-48820.598
968751.6135103684,-96913.13,-74206.26,-21231.365,15436.768,-65877.65,-36322.145,-36058.84,-48830.812
968751.617510367,-96906.7,-74200.73,-21230.104,15448.161,-65876.14,-36318.523,-36054.77,-48830.812
968751.6215103655,-96909.67,-74204.59,-21226.686,15449.423,-65865.64,-36316.773,-36052.33,-48828.74
968751.625510364,-96910.484,-74207.03,-21229.86,15439.209,-65872.766,-36316.855,-36055.016,-48836.63
968751.6295103625,-96905.805,-74199.1,-21229.777,15439.128,-65876.99,-36318.81,-36053.02,-48832.766
968751.6335103611,-96909.586,-74190.76,-21232.79,15445.435,-65868.98,-36320.23,-36051.598,-48833.457
968751.6375103596,-96912.16,-74198.49,-21232.79,15456.096,-65867.35,-36317.426,-36049.645,-48830.61
968751.6415103582,-96909.95,-74201.945,-21227.092,15463.908,-65867.88,-36313.723,-36047.69,-48834.395
968751.6455103568,-96910.16,-74204.1,-21226.033,15451.782,-65873.13,-36317.098,-36050.254,-48831.137
968751.6495103553,-96910.89,-74202.31,-21231.16,15442.383,-65895.39,-36320.883,-36047.527,-48824.3
968751.6535103539,-96918.79,-74205.81,-21234.09,15447.185,-65879.195,-36323.406,-36048.18,-48834.27
968751.6575103524,-96900.31,-74194.83,-21212.484,15460.979,-65870.93,-36322.348,-36042.848,-48821.492
968751.661510351,-96891.52,-74189.91,-21215.455,15468.181,-65895.71,-36318.24,-36038.94,-48815.473
968751.6655103496,-96899.945,-74196.66,-21224.65,15455.038,-65903.61,-36317.832,-36040.977,-48819.664
968751.6695103481,-96907.92,-74198.24,-21226.441,15439.982,-65916.42,-36316.773,-36041.098,-48824.098
968751.6735103467,-96901.125,-74192.63,-21227.254,15448.446,-65895.266,-36317.668,-36041.707,-48819.95
968751.6775103452,-96905.6,-74196.125,-21223.023,15462.28,-65881.516,-36318.074,-36047.527,-48834.027
968751.6815103438,-96906.375,-74197.76,-21228.68,15465.617,-65884.85,-36318.562,-36050.375,-48841.51
968751.6855103424,-96919.88,-74208.82,-21227.215,15455.322,-65890.625,-36320.438,-36053.71,-48847.94
968751.6895103408,-96949.14,-74230.02,-21240.357,15445.272,-65900.31,-36318.605,-36047.61,-48842.938
968751.6935103394,-96929.61,-74222.375,-21234.09,15448.975,-65894.695,-36317.63,-36041.14,-48830.324
968751.6975103379,-96893.68,-74190.8,-21216.797,15461.345,-65880.695,-36316.773,-36044.965,-48832.074
968751.7015103365,-96890.14,-74177.66,-21223.797,15464.966,-65895.63,-36316.45,-36046.59,-48830.527
968751.705510335,-96894.086,-74183.88,-21228.068,15451.986,-65908.9,-36318.156,-36048.543,-48836.14
968751.7095103336,-96871.95,-74165.49,-21219.564,15452.026,-65895.59,-36324.504,-36050.54,-48838.176
968751.7135103322,-96871.55,-74165.85,-21217.408,15455.038,-65898.84,-36324.75,-36054.363,-48839.438
968751.7175103307,-96860.88,-74157.39,-21219.85,15473.227,-65883.75,-36324.22,-36057.457,-48847.902
968751.7215103293,-96872.52,-74165.53,-21225.018,15477.946,-65885.99,-36323.49,-36060.223,-48856.04
968751.7255103278,-96877.12,-74172.77,-21226.197,15466.553,-65900.68,-36324.91,-36063.883,-48860.516
968751.7295103264,-96867.555,-74167.805,-21223.023,15457.275,-65903.28,-36327.477,-36062.99,-48858.81
968751.733510325,-96871.586,-74166.34,-21226.156,15454.712,-65904.016,-36326.457,-36055.625,-48844.28
968751.7375103235,-96869.51,-74161.87,-21218.506,15467.163,-65898.16,-36323.812,-36047.406,-48828.29
968751.7415103221,-96867.44,-74167.69,-21209.27,15477.011,-65893.31,-36321.902,-36049.03,-48844.727
968751.7455103206,-96868.125,-74165.41,-21221.639,15471.965,-65899.414,-36319.906,-36047.812,-48842.246
968751.7495103192,-96867.84,-74161.13,-21223.877,15467.448,-65894.164,-36320.07,-36047.324,-48839.234
968751.7535103176,-96870.08,-74162.27,-21225.545,15466.635,-65890.586,-36318.93,-36044.23,-48833.17
968751.7575103162,-96873.74,-74167.766,-21224.691,15472.128,-65889.125,-36318.93,-36047.406,-48846.273
968751.7615103148,-96875.25,-74167.28,-21220.785,15481.283,-65881.23,-36318.277,-36048.87,-48846.395
968751.7655103133,-96875.125,-74166.42,-21214.64,15477.214,-65888.06,-36319.5,-36048.383,-48843.344
968751.7695103119,-96882.9,-74169.27,-21222.982,15462.646,-65889.484,-36320.438,-36052.777,-48844.566
968751.7735103104,-96889.49,-74175.09,-21225.545,15460.734,-65891.16,-36322.145,-36058.31,-48846.844
968751.777510309,-96879.88,-74175.09,-21218.385,15474.04,-65885.5,-36320.355,-36056.355,-48846.76
968751.7815103076,-96881.23,-74174.69,-21218.75,15478.231,-65883.42,-36317.87,-36056.4,-48849.45
968751.7855103061,-96892.375,-74180.87,-21223.797,15466.838,-65903.57,-36318.727,-36059.45,-48853.926
968751.7895103047,-96894.21,-74179.08,-21229.045,15462.118,-65908.695,-36318.32,-36054.934,-48851.93
968751.7935103033,-96885.17,-74175.375,-21210.37,15468.466,-65894.37,-36320.395,-36052.125,-48847.332
968751.7975103018,-96886.766,-74176.27,-21221.68,15474.731,-65888.59,-36314.902,-36045.613,-48839.277
968751.8015103004,-96890.055,-74179.98,-21221.111,15481.323,-65889.445,-36314.37,-36045.29,-48837.89
968751.8055102989,-96891.12,-74182.66,-21219.564,15473.999,-65893.234,-36318.44,-36052.652,-48858.277
968751.8095102975,-96888.516,-74179.24,-21228.719,15464.6,-65892.46,-36318.93,-36056.684,-48865.887
968751.813510296,-96887.375,-74174.69,-21229.574,15464.641,-65897.09,-36316.53,-36054.85,-48858.32
968751.8175102945,-96887.49,-74173.87,-21224.324,15468.384,-65902.8,-36316.895,-36050.945,-48846.273
968751.821510293,-96881.76,-74174.03,-21209.717,15479.086,-65898.195,-36317.63,-36049.44,-48844.44
968751.8255102916,-96887.45,-74174.03,-21220.338,15475.668,-65894.734,-36317.3,-36050.21,-48842.652
968751.8295102902,-96891.805,-74179.57,-21225.262,15464.844,-65910.52,-36316.652,-36053.02,-48841.51
968751.8335102887,-96890.14,-74176.11,-21222.9,15469.931,-65904.22,-36315.27,-36052.125,-48839.152
968751.8375102873,-96876.06,-74163.375,-21221.762,15480.225,-65883.1,-36316.164,-36052.652,-48844.65
968751.8415102859,-96877.484,-74165.49,-21219.035,15487.265,-65875.98,-36316.61,-36053.348,-48842.53
968751.8455102844,-96889.9,-74175.54,-21221.68,15471.232,-65888.305,-36316.61,-36052.37,-48839.152
968751.849510283,-96887.9,-74173.51,-21220.826,15461.06,-65898.805,-36318.562,-36050.254,-48836.223
968751.8535102815,-96898.84,-74181.89,-21227.215,15465.292,-65894.62,-36319.62,-36047.445,-48843.465
968751.8575102801,-96902.47,-74190.72,-21229.492,15484.335,-65880.74,-36314.535,-36042.766,-48836.996
968751.8615102787,-96881.63,-74178.43,-21215.902,15493.815,-65871.09,-36314.74,-36048.465,-48840.09
968751.8655102772,-96868.94,-74154.7,-21210.816,15487.712,-65877.61,-36316.69,-36055.3,-48839.07
968751.8695102758,-96869.14,-74155.766,-21213.055,15476.726,-65884.28,-36319.176,-36057.66,-48843.02
968751.8735102743,-96869.1,-74158.94,-21214.844,15480.998,-65887.695,-36324.098,-36064.984,-48856.61
968751.8775102729,-96870.57,-74161.3,-21216.717,15487.834,-65888.15,-36323.0,-36066.57,-48853.516
968751.8815102713,-96875.57,-74168.42,-21217.326,15486.41,-65896.69,-36322.957,-36069.742,-48863.203
968751.8855102699,-96874.19,-74163.17,-21225.912,15481.527,-65900.48,-36322.88,-36065.96,-48861.86
968751.8895102685,-96869.266,-74155.16,-21221.15,15474.406,-65902.47,-36325.6,-36062.703,-48849.773
968751.893510267,-96876.71,-74160.32,-21218.588,15472.819,-65895.875,-36321.25,-36057.293,-48848.918
968751.8975102656,-96875.94,-74163.45,-21219.117,15482.219,-65882.164,-36314.58,-36050.863,-48842.0
968751.9015102641,-96884.65,-74173.055,-21216.268,15485.556,-65876.836,-36314.78,-36059.41,-48861.453
968751.9055102627,-96883.63,-74176.31,-21224.568,15474.487,-65892.5,-36314.74,-36059.164,-48861.33
968751.9095102613,-96876.1,-74172.94,-21221.477,15467.855,-65891.69,-36318.402,-36058.88,-48855.836
968751.9135102598,-96882.29,-74176.07,-21225.098,15470.541,-65887.33,-36320.438,-36061.24,-48860.434
968751.9175102584,-96887.54,-74180.38,-21223.47,15479.696,-65887.62,-36317.18,-36052.613,-48849.043
968751.921510257,-96883.016,-74179.94,-21215.455,15491.699,-65883.18,-36318.2,-36055.258,-48846.273
968751.9255102555,-96883.266,-74176.27,-21224.406,15488.607,-65881.19,-36315.066,-36050.863,-48834.188
968751.9295102541,-96888.67,-74179.41,-21225.83,15476.359,-65880.21,-36315.473,-36052.207,-48839.97
968751.9335102526,-96891.445,-74182.375,-21220.094,15475.952,-65859.21,-36314.168,-36052.695,-48849.652
968751.9375102512,-96875.05,-74171.1,-21221.6,15486.125,-65855.06,-36311.117,-36045.574,-48838.055
968751.9415102497,-96873.87,-74169.6,-21220.744,15490.031,-65872.44,-36310.06,-36046.227,-48838.38
968751.9455102482,-96872.07,-74166.95,-21222.656,15485.189,-65877.52,-36311.2,-36043.54,-48834.23
968751.9495102467,-96871.14,-74164.23,-21223.227,15485.2705,-65874.68,-36314.332,-36042.117,-48831.953
968751.9535102453,-96865.85,-74156.25,-21220.703,15487.59,-65866.13,-36318.523,-36044.883,-48829.43
968751.9575102439,-96864.18,-74153.61,-21217.244,15496.054,-65869.836,-36319.62,-36047.12,-48831.137
968751.9615102424,-96862.96,-74155.68,-21217.285,15495.239,-65883.67,-36318.24,-36047.324,-48833.66
968751.965510241,-96865.32,-74157.23,-21214.031,15486.41,-65894.734,-36320.438,-36053.63,-48841.594
968751.9695102395,-96865.16,-74155.31,-21216.105,15478.842,-65898.195,-36319.133,-36055.34,-48846.113
968751.9735102381,-96854.21,-74149.336,-21209.555,15487.956,-65898.805,-36319.418,-36053.223,-48832.48
968751.9775102367,-96851.04,-74148.56,-21210.652,15494.223,-65888.19,-36316.938,-36051.72,-48837.973
968751.9815102352,-96847.91,-74148.12,-21205.445,15498.983,-65879.27,-36313.64,-36050.008,-48843.14
968751.9855102338,-96853.805,-74153.73,-21202.027,15493.286,-65880.49,-36310.875,-36044.883,-48825.195
968751.9895102323,-96841.59,-74140.95,-21204.793,15482.829,-65878.87,-36311.81,-36040.082,-48821.617
968751.9935102309,-96847.13,-74142.01,-21213.258,15482.748,-65876.914,-36314.74,-36048.016,-48840.414
968751.9975102295,-96853.805,-74148.4,-21220.174,15492.147,-65872.32,-36314.535,-36053.508,-48846.56
968752.001510228,-96863.28,-74158.734,-21217.611,15495.565,-65885.625,-36309.367,-36052.574,-48838.504
968752.0055102266,-96872.07,-74165.41,-21217.123,15486.044,-65872.195,-36306.844,-36052.574,-48833.09
968752.009510225,-96866.17,-74161.83,-21218.182,15483.154,-65879.16,-36310.996,-36056.355,-48836.184
968752.0135102236,-96872.44,-74168.42,-21223.43,15478.109,-65889.24,-36311.523,-36061.81,-48845.5
968752.0175102222,-96869.266,-74166.47,-21217.773,15489.014,-65883.79,-36309.977,-36057.863,-48841.797
968752.0215102207,-96877.08,-74173.55,-21225.262,15487.387,-65894.86,-36309.734,-36060.06,-48846.52
968752.0255102193,-96882.86,-74182.45,-21227.377,15478.964,-65904.586,-36312.297,-36065.066,-48854.535
968752.0295102178,-96894.45,-74192.016,-21226.562,15471.843,-65913.945,-36313.723,-36068.605,-48863.12
968752.0335102164,-96891.03,-74185.14,-21232.666,15474.406,-65909.34,-36312.746,-36065.145,-48861.168
968752.037510215,-96887.74,-74184.86,-21236.207,15487.59,-65898.69,-36312.34,-36068.24,-48861.98
968752.0415102135,-96892.984,-74191.81,-21233.928,15495.321,-65894.414,-36311.28,-36073.16,-48871.22
968752.0455102121,-96899.664,-74196.25,-21237.469,15490.153,-65885.7,-36311.566,-36075.645,-48876.668
968752.0495102106,-96893.4,-74190.8,-21243.693,15477.865,-65894.734,-36310.67,-36069.38,-48867.23
968752.0535102092,-96898.4,-74191.33,-21241.496,15474.731,-65901.29,-36313.477,-36068.44,-48863.69
968752.0575102078,-96902.836,-74197.02,-21241.455,15487.631,-65896.77,-36313.883,-36067.18,-48864.707
968752.0615102063,-96899.91,-74192.75,-21233.318,15495.85,-65887.82,-36316.367,-36074.586,-48880.21
968752.0655102049,-96897.95,-74192.99,-21232.178,15487.997,-65892.62,-36317.3,-36073.61,-48874.39
968752.0695102034,-96908.25,-74197.23,-21229.736,15482.422,-65900.555,-36317.508,-36073.49,-48868.652
968752.0735102019,-96896.04,-74190.72,-21231.121,15487.427,-65872.234,-36317.18,-36071.98,-48866.863
968752.0775102004,-96900.48,-74196.66,-21230.104,15494.751,-65863.32,-36316.977,-36076.297,-48869.223
968752.081510199,-96913.49,-74207.4,-21233.318,15498.373,-65863.81,-36316.855,-36080.812,-48872.195
968752.0855101976,-96927.21,-74215.13,-21242.27,15484.66,-65885.78,-36316.0,-36084.23,-48884.035
968752.0895101961,-96910.73,-74204.71,-21242.96,15480.632,-65894.82,-36319.62,-36086.184,-48886.477
968752.0935101947,-96901.125,-74197.92,-21234.822,15493.693,-65892.62,-36323.203,-36088.46,-48883.547
968752.0975101932,-96902.914,-74201.3,-21230.713,15503.337,-65884.73,-36318.605,-36083.414,-48877.484
968752.1015101918,-96903.69,-74202.805,-21230.836,15506.836,-65887.53,-36317.02,-36080.363,-48875.082
968752.1055101904,-96902.63,-74201.74,-21225.627,15504.232,-65882.81,-36317.63,-36079.55,-48879.64
968752.1095101889,-96896.24,-74195.805,-21221.477,15497.763,-65882.24,-36316.977,-36074.586,-48876.793
968752.1135101875,-96896.98,-74196.9,-21226.36,15499.105,-65883.1,-36316.895,-36074.06,-48874.35
968752.117510186,-96901.49,-74202.234,-21224.324,15506.348,-65881.19,-36315.918,-36074.016,-48874.92
968752.1215101846,-96911.5,-74218.305,-21227.459,15508.545,-65889.445,-36314.7,-36075.195,-48879.477
968752.1255101832,-96939.21,-74251.67,-21230.877,15498.861,-65908.57,-36311.2,-36072.023,-48876.223
968752.1295101817,-96935.51,-74236.9,-21240.887,15488.647,-65906.54,-36313.234,-36069.133,-48861.574
968752.1335101803,-96899.055,-74190.59,-21232.016,15494.345,-65884.484,-36314.37,-36068.688,-48858.562
968752.1375101787,-96895.836,-74191.04,-21226.441,15500.57,-65873.58,-36310.06,-36062.258,-48847.656
968752.1415101773,-96903.164,-74199.38,-21223.553,15503.866,-65873.58,-36306.926,-36058.434,-48841.35
968752.1455101758,-96904.22,-74197.43,-21227.092,15502.319,-65876.836,-36306.316,-36057.82,-48848.88
968752.1495101744,-96910.89,-74198.734,-21233.357,15490.683,-65883.34,-36305.664,-36057.742,-48854.82
968752.153510173,-96906.375,-74191.445,-21231.73,15496.745,-65867.23,-36307.13,-36058.72,-48849.367
968752.1575101715,-96917.32,-74204.266,-21230.998,15503.256,-65862.47,-36303.996,-36058.594,-48858.684
968752.1615101701,-96917.97,-74207.93,-21230.713,15509.399,-65857.38,-36302.246,-36053.223,-48861.086
968752.1655101686,-96926.44,-74216.27,-21237.957,15500.366,-65857.18,-36303.793,-36054.934,-48861.33
968752.1695101672,-96922.445,-74205.37,-21238.12,15483.114,-65871.625,-36304.28,-36048.258,-48844.2
968752.1735101658,-96914.72,-74197.47,-21223.918,15490.031,-65877.04,-36305.38,-36045.125,-48840.82
968752.1775101643,-96909.586,-74198.125,-21224.324,15509.5625,-65859.83,-36302.695,-36043.05,-48837.527
968752.1815101629,-96910.77,-74195.92,-21224.447,15516.073,-65858.16,-36301.92,-36046.55,-48843.305
968752.1855101614,-96904.664,-74193.81,-21223.389,15512.37,-65866.46,-36300.824,-36043.17,-48834.92
968752.18951016,-96907.23,-74198.2,-21226.074,15502.116,-65870.77,-36300.945,-36044.15,-48838.707
968752.1935101586,-96911.5,-74198.9,-21227.336,15497.478,-65873.984,-36300.254,-36045.125,-48835.492
968752.1975101571,-96914.59,-74200.805,-21231.121,15505.046,-65870.445,-36296.145,-36043.945,-48830.977
968752.2015101556,-96917.61,-74202.805,-21232.38,15508.667,-65859.78,-36294.637,-36045.492,-48843.223
968752.2055101541,-96917.85,-74203.78,-21231.975,15505.615,-65860.03,-36295.613,-36049.234,-48857.992
968752.2095101527,-96920.414,-74207.484,-21234.01,15497.152,-65861.164,-36298.707,-36051.395,-48853.883
968752.2135101513,-96915.29,-74204.555,-21227.092,15504.721,-65853.92,-36301.72,-36053.426,-48855.836
968752.2175101498,-96904.7,-74196.62,-21215.7,15521.933,-65840.78,-36303.184,-36056.52,-48855.957
968752.2215101484,-96906.78,-74203.375,-21214.723,15524.902,-65839.73,-36301.598,-36059.734,-48856.855
968752.2255101469,-96916.47,-74209.59,-21223.309,15513.021,-65852.09,-36299.4,-36059.33,-48863.973
968752.2295101455,-96917.28,-74208.984,-21228.719,15496.135,-65866.74,-36301.15,-36056.6,-48850.996
968752.233510144,-96917.36,-74208.74,-21230.021,15502.279,-65855.875,-36300.457,-36051.598,-48838.625
968752.2375101426,-96912.93,-74207.6,-21229.94,15515.707,-65844.04,-36297.69,-36048.543,-48841.88
968752.2415101412,-96911.055,-74208.62,-21225.545,15517.578,-65846.31,-36297.04,-36049.03,-48844.484
968752.2455101397,-96914.31,-74208.01,-21219.93,15513.021,-65854.86,-36299.316,-36052.613,-48845.543
968752.2495101383,-96903.57,-74197.63,-21220.988,15509.237,-65853.516,-36303.59,-36049.234,-48835.29
968752.2535101369,-96904.38,-74200.12,-21219.646,15504.843,-65861.25,-36303.266,-36047.445,-48832.805
968752.2575101354,-96905.48,-74199.18,-21221.273,15511.19,-65859.7,-36300.742,-36048.055,-48833.375
968752.261510134,-96909.95,-74207.195,-21221.6,15515.178,-65852.91,-36296.387,-36047.527,-48830.61
968752.2655101324,-96914.23,-74210.164,-21229.412,15506.308,-65849.24,-36295.41,-36044.92,-48833.375
968752.269510131,-96910.73,-74208.945,-21223.553,15502.075,-65860.39,-36297.85,-36049.03,-48832.93
968752.2735101295,-96909.1,-74206.38,-21232.38,15512.817,-65853.15,-36300.496,-36050.984,-48832.97
968752.2775101281,-96908.98,-74203.164,-21229.086,15518.718,-65840.45,-36298.465,-36045.125,-48824.953
968752.2815101267,-96913.336,-74210.695,-21224.61,15518.555,-65842.98,-36296.793,-36041.547,-48822.715
968752.2855101252,-96921.92,-74217.98,-21223.064,15506.755,-65845.91,-36299.723,-36046.918,-48832.684
968752.2895101238,-96914.15,-74208.21,-21224.977,15498.82,-65857.75,-36301.676,-36047.49,-48838.746
968752.2935101223,-96906.375,-74205.94,-21223.186,15503.581,-65864.22,-36302.53,-36044.434,-48833.133
968752.2975101209,-96914.63,-74210.25,-21219.361,15520.956,-65854.45,-36300.008,-36047.65,-48839.684
968752.3015101195,-96909.02,-74204.914,-21218.832,15520.59,-65852.7,-36299.684,-36048.992,-48842.246
968752.305510118,-96914.35,-74209.48,-21224.977,15513.672,-65862.266,-36298.055,-36048.953,-48843.953
968752.3095101166,-96915.24,-74208.375,-21214.885,15505.615,-65860.68,-36298.746,-36047.363,-48838.137
968752.3135101151,-96917.69,-74205.2,-21224.324,15508.464,-65852.016,-36296.266,-36040.895,-48824.79
968752.3175101137,-96918.7,-74210.25,-21226.441,15520.102,-65844.56,-36294.11,-36038.168,-48828.695
968752.3215101123,-96915.98,-74207.64,-21222.78,15518.2295,-65848.67,-36293.418,-36038.74,-48838.83
968752.3255101107,-96917.16,-74207.73,-21219.768,15505.331,-65862.875,-36294.965,-36039.105,-48834.066
968752.3295101093,-96921.76,-74211.34,-21225.668,15493.815,-65882.65,-36296.43,-36040.406,-48839.277
968752.3335101078,-96913.82,-74205.89,-21226.156,15500.244,-65873.62,-36297.977,-36035.973,-48833.457
968752.3375101064,-96916.42,-74205.28,-21224.61,15510.417,-65858.03,-36292.562,-36031.496,-48833.336
968752.341510105,-96922.65,-74211.266,-21226.686,15511.923,-65854.945,-36288.492,-36029.01,-48827.76
968752.3455101035,-96922.164,-74215.17,-21214.275,15510.132,-65852.055,-36291.586,-36034.14,-48837.04
968752.3495101021,-96923.38,-74213.14,-21230.021,15501.547,-65867.35,-36291.953,-36030.113,-48834.84
968752.3535101006,-96919.805,-74207.36,-21221.436,15503.825,-65872.52,-36295.25,-36031.74,-48832.848
968752.3575100992,-96917.85,-74207.195,-21227.05,15518.107,-65853.48,-36295.047,-36031.78,-48839.113
968752.3615100977,-96921.96,-74213.42,-21226.482,15523.193,-65837.98,-36295.9,-36030.723,-48838.38
968752.3655100963,-96916.836,-74209.76,-21221.15,15515.422,-65850.016,-36295.94,-36030.64,-48831.383
968752.3695100949,-96915.24,-74207.93,-21224.324,15500.814,-65863.85,-36296.062,-36034.02,-48834.395
968752.3735100934,-96918.74,-74210.25,-21229.492,15497.722,-65874.19,-36295.98,-36037.56,-48840.254
968752.377510092,-96920.58,-74213.75,-21227.459,15506.186,-65879.4,-36294.23,-36036.05,-48833.21
968752.3815100905,-96923.914,-74215.62,-21224.162,15517.619,-65880.62,-36290.977,-36033.734,-48831.055
968752.3855100891,-96919.64,-74211.67,-21223.186,15512.045,-65878.99,-36292.766,-36035.074,-48835.938
968752.3895100876,-96922.98,-74212.08,-21222.209,15504.313,-65881.59,-36296.633,-36039.594,-48842.53
968752.3935100861,-96920.29,-74208.78,-21221.477,15512.085,-65872.84,-36296.715,-36037.027,-48834.883
968752.3975100847,-96909.266,-74207.52,-21221.559,15520.996,-65841.15,-36298.953,-36037.844,-48834.72
968752.4015100832,-96922.85,-74216.15,-21220.053,15518.474,-65863.41,-36298.543,-36038.453,-48836.1
968752.4055100818,-96921.47,-74215.54,-21224.0,15512.655,-65866.17,-36300.133,-36039.715,-48838.258
968752.4095100804,-96927.414,-74219.61,-21224.977,15500.732,-65884.36,-36302.574,-36043.215,-48846.07
968752.4135100789,-96925.01,-74216.68,-21227.662,15502.849,-65887.82,-36300.336,-36042.24,-48843.02
968752.4175100775,-96923.71,-74216.555,-21222.088,15515.585,-65881.63,-36295.168,-36037.312,-48839.07
968752.421510076,-96923.914,-74216.35,-21212.688,15525.106,-65879.44,-36293.215,-36035.93,-48842.125
968752.4255100746,-96928.39,-74218.71,-21214.885,15516.765,-65883.95,-36293.582,-36035.727,-48839.766
968752.4295100732,-96924.65,-74218.51,-21224.447,15503.784,-65905.48,-36291.79,-36034.18,-48844.32
968752.4335100717,-96916.34,-74213.3,-21223.918,15507.935,-65907.02,-36295.086,-36036.703,-48848.105
968752.4375100703,-96913.375,-74210.37,-21219.238,15517.578,-65892.83,-36298.707,-36039.918,-48849.324
968752.4415100688,-96917.08,-74216.39,-21222.9,15517.619,-65896.65,-36298.055,-36037.234,-48837.242
968752.4455100674,-96920.66,-74220.13,-21225.139,15515.015,-65902.18,-36297.77,-36038.086,-48840.902
968752.449510066,-96922.08,-74221.516,-21226.889,15511.3125,-65905.234,-36297.49,-36038.047,-48845.867
968752.4535100644,-96922.28,-74217.086,-21232.219,15511.516,-65900.88,-36295.207,-36034.426,-48841.39
968752.457510063,-96925.74,-74221.68,-21231.975,15519.247,-65897.5,-36290.895,-36031.535,-48836.996
968752.4615100615,-96918.375,-74216.23,-21215.17,15527.06,-65899.3,-36290.855,-36032.145,-48838.664
968752.4655100601,-96920.695,-74221.03,-21230.307,15521.403,-65903.73,-36290.12,-36033.895,-48840.617
968752.4695100586,-96921.96,-74221.72,-21229.086,15508.667,-65894.82,-36292.97,-36036.01,-48836.1
968752.4735100572,-96923.26,-74219.69,-21225.424,15508.545,-65883.625,-36291.79,-36031.58,-48831.746
968752.4775100558,-96919.805,-74215.25,-21230.307,15515.259,-65861.05,-36290.977,-36027.914,-48833.945
968752.4815100543,-96921.63,-74216.96,-21225.342,15520.142,-65871.7,-36292.36,-36029.867,-48829.957
968752.4855100529,-96920.78,-74219.52,-21218.709,15519.857,-65886.11,-36292.727,-36031.863,-48833.05
968752.4895100514,-96912.31,-74208.09,-21219.727,15510.376,-65876.1,-36290.12,-36028.77,-48837.16
968752.49351005,-96919.35,-74211.59,-21232.219,15498.21,-65881.02,-36285.727,-36027.02,-48833.7
968752.4975100486,-96917.61,-74211.59,-21220.174,15513.632,-65882.85,-36283.652,-36027.875,-48834.11
968752.5015100471,-96923.99,-74216.19,-21221.762,15519.409,-65882.24,-36280.316,-36025.84,-48830.12
968752.5055100457,-96920.125,-74215.5,-21225.057,15514.404,-65875.125,-36281.168,-36024.863,-48830.49
968752.5095100442,-96919.92,-74217.25,-21226.889,15504.68,-65877.484,-36283.0,-36026.285,-48829.633
968752.5135100428,-96924.16,-74218.71,-21230.633,15510.498,-65864.3,-36285.24,-36028.117,-48826.785
968752.5175100412,-96924.97,-74212.08,-21228.557,15520.63,-65873.375,-36285.605,-36027.305,-48829.348
968752.5215100398,-96914.23,-74208.664,-21220.867,15529.297,-65864.914,-36290.855,-36027.02,-48824.707
968752.5255100384,-96914.43,-74207.52,-21216.064,15522.095,-65877.89,-36291.3,-36027.387,-48820.438
968752.5295100369,-96910.484,-74201.5,-21219.197,15511.149,-65887.49,-36288.574,-36028.81,-48822.43
968752.5335100355,-96903.32,-74200.03,-21218.14,15510.783,-65878.46,-36285.93,-36025.473,-48822.023
968752.537510034,-96913.01,-74205.61,-21219.768,15515.625,-65880.49,-36282.023,-36023.6,-48821.047
968752.5415100326,-96918.54,-74207.36,-21220.379,15523.845,-65869.875,-36280.52,-36026.164,-48821.414
968752.5455100312,-96922.28,-74210.164,-21219.117,15520.793,-65872.93,-36279.38,-36029.094,-48830.324
968752.5495100297,-96914.555,-74206.83,-21216.432,15513.754,-65869.1,-36283.12,-36033.61,-48837.16
968752.5535100283,-96912.48,-74205.89,-21221.477,15516.724,-65871.26,-36283.69,-36032.633,-48835.33
968752.5575100268,-96912.44,-74209.44,-21216.879,15527.67,-65871.3,-36284.953,-36032.633,-48831.87
968752.5615100254,-96919.97,-74218.06,-21210.002,15535.319,-65879.234,-36285.523,-36034.63,-48844.727
968752.565510024,-96911.3,-74212.445,-21206.91,15530.437,-65874.39,-36289.39,-36035.074,-48845.055
968752.5695100225,-96928.06,-74222.984,-21231.771,15511.027,-65885.46,-36289.754,-36037.965,-48844.85
968752.5735100211,-96913.66,-74209.02,-21222.494,15514.038,-65877.04,-36288.29,-36034.465,-48833.984
968752.5775100196,-96902.63,-74203.82,-21221.07,15526.571,-65867.59,-36286.418,-36035.848,-48841.188
968752.5815100181,-96908.9,-74202.84,-21222.006,15535.482,-65864.22,-36282.51,-36033.734,-48835.125
968752.5855100167,-96919.766,-74209.84,-21218.832,15529.46,-65868.37,-36282.918,-36037.273,-48835.9
968752.5895100152,-96912.68,-74208.336,-21222.006,15525.024,-65875.77,-36283.69,-36037.926,-48830.85
968752.5935100138,-96907.76,-74199.914,-21224.812,15524.13,-65879.48,-36283.652,-36037.234,-48833.17
968752.5975100123,-96914.11,-74203.734,-21223.715,15530.966,-65868.164,-36280.965,-36037.76,-48836.184
968752.6015100109,-96914.88,-74208.54,-21221.191,15536.54,-65863.08,-36279.5,-36036.215,-48829.43
968752.6055100095,-96909.38,-74204.266,-21216.676,15529.826,-65878.38,-36281.414,-36040.73,-48843.547
968752.609510008,-96910.16,-74204.266,-21215.535,15520.915,-65884.89,-36284.87,-36042.156,-48844.81
968752.6135100066,-96904.38,-74197.555,-21213.867,15525.351,-65881.875,-36287.07,-36039.55,-48839.684
968752.6175100051,-96906.21,-74196.29,-21210.084,15528.28,-65877.04,-36286.906,-36041.14,-48839.355
968752.6215100037,-96910.65,-74205.08,-21210.652,15533.366,-65879.92,-36283.406,-36042.523,-48842.164
968752.6255100023,-96910.65,-74202.96,-21215.291,15529.338,-65880.375,-36279.95,-36038.86,-48840.09
968752.6295100008,-96915.0,-74202.03,-21219.93,15516.765,-65878.38,-36278.85,-36037.234,-48843.344
968752.6335099994,-96915.24,-74203.984,-21220.906,15518.555,-65878.13,-36275.88,-36034.71,-48842.125
968752.6375099979,-96922.04,-74208.82,-21221.803,15530.233,-65874.39,-36273.152,-36033.69,-48838.79
968752.6415099965,-96913.91,-74206.46,-21221.6,15535.116,-65870.04,-36275.066,-36037.965,-48838.543
968752.6455099949,-96917.81,-74206.914,-21217.938,15523.234,-65870.61,-36276.855,-36040.73,-48848.836
968752.6495099935,-96917.24,-74205.77,-21219.89,15511.801,-65878.336,-36279.38,-36038.617,-48837.04
968752.6535099921,-96916.67,-74207.6,-21219.564,15516.032,-65873.336,-36279.582,-36038.535,-48831.543
968752.6575099906,-96915.77,-74207.64,-21209.676,15531.047,-65864.38,-36279.746,-36038.453,-48837.04
968752.6615099892,-96916.34,-74209.44,-21206.787,15537.924,-65862.23,-36279.258,-36037.234,-48836.957
968752.6655099877,-96918.664,-74211.71,-21221.965,15530.029,-65870.41,-36279.297,-36035.562,-48838.664
968752.6695099863,-96924.484,-74216.07,-21222.982,15519.694,-65870.65,-36282.145,-36041.098,-48847.58
968752.6735099849,-96911.18,-74201.83,-21219.361,15520.02,-65867.23,-36280.113,-36035.645,-48838.34
968752.6775099834,-96920.45,-74208.01,-21219.158,15527.304,-65864.34,-36275.105,-36037.273,-48845.99
968752.681509982,-96923.38,-74210.86,-21221.518,15529.053,-65870.41,-36273.926,-36038.332,-48841.35
968752.6855099805,-96917.445,-74211.47,-21221.762,15526.367,-65871.83,-36275.758,-36040.285,-48835.695
968752.6895099791,-96919.234,-74214.4,-21217.082,15522.258,-65875.9,-36278.32,-36041.22,-48837.324
968752.6935099777,-96918.22,-74208.54,-21215.984,15530.437,-65869.63,-36279.34,-36039.55,-48838.176
968752.6975099762,-96916.38,-74212.52,-21213.502,15544.189,-65866.78,-36280.07,-36042.36,-48842.246
968752.7015099748,-96915.33,-74213.95,-21214.07,15545.37,-65855.47,-36279.258,-36040.082,-48844.77
968752.7055099733,-96902.75,-74200.85,-21206.096,15536.133,-65847.05,-36282.227,-36036.336,-48829.793
968752.7095099718,-96897.95,-74203.984,-21201.457,15526.001,-65864.625,-36282.84,-36039.836,-48838.137
968752.7135099703,-96914.43,-74210.695,-21214.396,15521.606,-65873.58,-36277.305,-36036.46,-48837.65
968752.7175099689,-96919.03,-74209.555,-21213.258,15531.21,-65862.59,-36272.258,-36034.02,-48836.836
968752.7215099675,-96914.72,-74207.28,-21214.314,15536.377,-65858.4,-36270.426,-36033.406,-48826.05
968752.725509966,-96915.734,-74213.586,-21213.135,15525.798,-65867.27,-36270.59,-36040.082,-48829.023
968752.7295099646,-96922.04,-74213.83,-21219.197,15510.702,-65876.1,-36273.4,-36046.266,-48844.16
968752.7335099631,-96911.54,-74209.27,-21216.838,15520.02,-65869.14,-36276.57,-36045.004,-48841.594
968752.7375099617,-96916.22,-74214.234,-21213.867,15533.0,-65855.76,-36278.363,-36046.875,-48844.65
968752.7415099603,-96915.86,-74215.7,-21209.758,15539.47,-65858.12,-36279.99,-36048.42,-48842.734
968752.7455099588,-96914.43,-74211.875,-21210.775,15536.499,-65864.34,-36280.965,-36049.074,-48837.65
968752.7495099574,-96914.11,-74209.88,-21215.576,15530.762,-65861.734,-36281.7,-36047.445,-48830.04
968752.753509956,-96911.95,-74206.42,-21214.52,15530.518,-65855.19,-36280.477,-36049.6,-48843.26
968752.7575099545,-96909.02,-74203.49,-21213.338,15539.511,-65864.18,-36276.855,-36049.848,-48852.01
968752.7615099531,-96920.21,-74214.16,-21213.258,15540.283,-65878.46,-36272.543,-36046.836,-48847.414
968752.7655099516,-96919.195,-74215.74,-21208.293,15528.728,-65873.66,-36272.83,-36049.156,-48847.82
968752.7695099502,-96915.81,-74212.52,-21217.285,15526.245,-65872.64,-36272.22,-36049.03,-48847.984
968752.7735099486,-96925.91,-74218.06,-21213.623,15530.355,-65876.016,-36274.414,-36050.7,-48849.652
968752.7775099472,-96917.85,-74211.266,-21218.426,15539.348,-65859.664,-36273.766,-36049.684,-48843.71
968752.7815099458,-96902.02,-74200.08,-21217.326,15550.171,-65851.65,-36270.996,-36041.63,-48832.645
968752.7855099443,-96903.24,-74200.93,-21217.0,15543.254,-65858.56,-36269.613,-36042.562,-48832.645
968752.7895099429,-96909.55,-74199.18,-21218.465,15530.884,-65847.45,-36267.457,-36043.254,-48836.14
968752.7935099414,-96909.06,-74198.77,-21217.611,15530.844,-65840.82,-36268.027,-36047.406,-48843.75
968752.79750994,-96912.4,-74204.47,-21211.834,15535.849,-65845.09,-36269.9,-36050.984,-48842.0
968752.8015099386,-96916.875,-74210.164,-21205.525,15545.004,-65840.58,-36271.527,-36058.51,-48847.94
968752.8055099371,-96921.35,-74212.0,-21224.244,15536.296,-65854.695,-36269.37,-36056.195,-48851.645
968752.8095099357,-96919.97,-74212.2,-21220.947,15527.507,-65862.555,-36272.707,-36058.31,-48857.137
968752.8135099342,-96915.77,-74208.05,-21214.559,15537.109,-65861.45,-36276.492,-36056.805,-48855.957
968752.8175099328,-96907.48,-74204.02,-21209.066,15546.306,-65849.57,-36274.82,-36052.816,-48849.855
968752.8215099314,-96911.79,-74205.61,-21215.291,15546.713,-65848.31,-36269.574,-36047.203,-48844.24
968752.8255099299,-96913.54,-74207.12,-21211.426,15541.423,-65861.734,-36269.9,-36048.18,-48843.426
968752.8295099285,-96916.55,-74210.86,-21214.967,15532.471,-65874.27,-36268.883,-36049.36,-48844.363
968752.833509927,-96910.445,-74207.32,-21217.408,15534.384,-65871.664,-36265.625,-36046.55,-48841.797
968752.8375099255,-96905.03,-74202.76,-21209.473,15545.573,-65859.055,-36267.09,-36048.746,-48838.664
968752.841509924,-96916.586,-74213.09,-21214.07,15554.606,-65853.27,-36264.69,-36053.02,-48842.816
968752.8455099226,-96917.4,-74212.73,-21219.97,15547.7295,-65860.39,-36267.457,-36052.207,-48834.066
968752.8495099212,-96918.83,-74209.84,-21220.744,15535.075,-65872.766,-36272.83,-36057.7,-48845.867
968752.8535099197,-96920.58,-74212.2,-21216.105,15538.9,-65870.85,-36275.188,-36063.113,-48853.56
968752.8575099183,-96924.56,-74221.64,-21207.764,15548.137,-65864.51,-36274.7,-36066.45,-48854.047
968752.8615099168,-96918.09,-74217.98,-21209.352,15555.746,-65854.33,-36269.9,-36061.566,-48850.508
968752.8655099154,-96913.54,-74209.44,-21215.291,15550.781,-65847.984,-36269.777,-36057.375,-48842.938
968752.869509914,-96904.46,-74202.15,-21210.164,15547.201,-65854.945,-36270.914,-36058.31,-48843.06
968752.8735099125,-96911.87,-74202.76,-21209.676,15543.213,-65851.6,-36271.688,-36060.426,-48841.92
968752.8775099111,-96917.89,-74205.0,-21213.338,15547.526,-65845.13,-36269.246,-36057.902,-48839.07
968752.8815099096,-96923.055,-74210.98,-21208.984,15550.903,-65842.05,-36271.77,-36067.098,-48859.01
968752.8855099082,-96937.3,-74219.85,-21214.07,15546.916,-65853.03,-36270.223,-36061.89,-48863.73
968752.8895099068,-96936.2,-74222.984,-21216.756,15542.318,-65865.6,-36270.836,-36058.758,-48854.695
968752.8935099053,-96904.75,-74198.0,-21200.236,15549.438,-65849.164,-36274.254,-36063.152,-48856.895
968752.8975099039,-96897.305,-74191.04,-21207.113,15559.245,-65844.52,-36270.996,-36060.953,-48856.082
968752.9015099023,-96904.34,-74199.67,-21209.27,15560.181,-65842.734,-36269.53,-36061.08,-48854.94
968752.9055099009,-96906.984,-74197.555,-21213.746,15548.666,-65851.195,-36269.695,-36060.75,-48851.2
968752.9095098994,-96901.125,-74190.15,-21214.275,15536.825,-65847.62,-36271.65,-36065.023,-48854.74
968752.913509898,-96893.48,-74183.43,-21207.723,15538.696,-65852.22,-36272.34,-36065.633,-48856.04
968752.9175098966,-96889.445,-74182.375,-21207.275,15552.938,-65835.695,-36271.04,-36065.633,-48852.742
968752.9215098951,-96893.76,-74187.664,-21206.502,15564.819,-65830.0,-36266.848,-36062.867,-48850.953
968752.9255098937,-96897.42,-74188.27,-21211.467,15558.432,-65823.695,-36265.91,-36059.043,-48847.414
968752.9295098922,-96898.44,-74186.08,-21216.064,15546.387,-65833.945,-36268.27,-36057.902,-48842.977
968752.9335098908,-96894.78,-74182.82,-21211.873,15550.497,-65840.21,-36269.246,-36058.594,-48844.566
968752.9375098894,-96901.57,-74191.04,-21211.305,15563.273,-65842.164,-36266.48,-36061.035,-48855.55
968752.9415098879,-96900.11,-74190.19,-21204.998,15570.435,-65829.43,-36268.473,-36069.99,-48864.79
968752.9455098865,-96902.51,-74193.81,-21203.41,15565.308,-65833.62,-36270.305,-36074.383,-48865.6
968752.949509885,-96899.664,-74194.375,-21207.764,15555.664,-65840.25,-36269.574,-36073.855,-48860.72
968752.9535098836,-96899.01,-74191.445,-21210.408,15551.066,-65836.06,-36268.027,-36072.227,-48855.39
968752.9575098822,-96903.164,-74195.516,-21213.014,15563.11,-65827.19,-36262.94,-36068.688,-48844.81
968752.9615098807,-96902.71,-74197.02,-21205.525,15563.884,-65833.414,-36262.492,-36068.36,-48856.16
968752.9655098792,-96905.805,-74193.61,-21210.613,15552.734,-65843.14,-36262.86,-36066.773,-48860.15
968752.9695098777,-96899.984,-74188.516,-21209.84,15548.462,-65845.99,-36266.44,-36066.938,-48847.496
968752.9735098763,-96898.16,-74186.81,-21209.148,15552.45,-65839.36,-36265.586,-36065.43,-48843.71
968752.9775098749,-96899.82,-74187.664,-21209.188,15564.209,-65832.32,-36264.895,-36065.51,-48846.234
968752.9815098734,-96903.65,-74197.02,-21210.246,15564.941,-65826.46,-36261.76,-36067.996,-48849.324
968752.985509872,-96896.33,-74193.93,-21205.81,15562.378,-65822.47,-36264.0,-36067.14,-48846.52
968752.9895098705,-96901.29,-74199.586,-21205.525,15553.427,-65835.164,-36263.715,-36069.176,-48850.14
968752.9935098691,-96899.984,-74198.61,-21208.66,15555.136,-65842.125,-36261.477,-36065.555,-48846.723
968752.9975098677,-96908.9,-74198.164,-21217.773,15556.804,-65830.85,-36260.867,-36063.52,-48842.45
968753.0015098662,-96914.47,-74205.89,-21215.008,15559.326,-65831.75,-36260.742,-36065.633,-48846.926
968753.0055098648,-96903.77,-74202.805,-21210.572,15559.123,-65836.23,-36261.68,-36065.227,-48845.418
968753.0095098633,-96908.0,-74204.35,-21216.553,15554.24,-65837.04,-36261.68,-36066.57,-48847.535
968753.0135098619,-96903.81,-74200.52,-21216.96,15555.664,-65825.805,-36258.586,-36062.5,-48846.68
968753.0175098605,-96900.19,-74197.76,-21209.596,15565.918,-65812.336,-36255.86,-36060.26,-48845.543
968753.021509859,-96894.58,-74197.875,-21200.604,15571.818,-65810.914,-36256.797,-36060.67,-48841.188
968753.0255098576,-96898.16,-74197.19,-21208.863,15563.192,-65829.836,-36257.04,-36061.65,-48841.637
968753.029509856,-96902.47,-74197.47,-21202.352,15553.549,-65848.59,-36258.26,-36062.625,-48839.07
968753.0335098546,-96894.01,-74190.47,-21213.014,15554.118,-65830.69,-36256.715,-36056.805,-48835.41
968753.0375098531,-96893.234,-74190.88,-21205.078,15556.274,-65838.664,-36256.715,-36058.434,-48835.9
968753.0415098517,-96896.2,-74192.016,-21203.816,15564.128,-65841.555,-36252.81,-36056.277,-48830.406
968753.0455098503,-96898.69,-74190.96,-21213.055,15559.204,-65846.766,-36248.008,-36050.863,-48824.832
968753.0495098488,-96894.21,-74189.54,-21208.984,15557.251,-65842.2,-36246.5,-36046.59,-48823.934
968753.0535098474,-96893.4,-74189.336,-21215.047,15559.408,-65831.586,-36243.613,-36043.215,-48821.617
968753.0575098459,-96893.195,-74188.68,-21210.613,15566.772,-65821.58,-36242.39,-36041.14,-48822.47
968753.0615098445,-96888.59,-74182.05,-21203.248,15572.836,-65818.36,-36244.14,-36042.93,-48824.547
968753.065509843,-96893.6,-74187.26,-21204.875,15564.209,-65834.234,-36244.793,-36044.598,-48831.055
968753.0695098416,-96897.26,-74192.016,-21208.252,15557.373,-65845.83,-36245.16,-36050.7,-48845.418
968753.0735098402,-96894.984,-74191.37,-21213.623,15558.432,-65845.22,-36246.91,-36054.16,-48848.105
968753.0775098387,-96897.46,-74191.125,-21215.088,15566.977,-65839.32,-36246.055,-36054.73,-48848.145
968753.0815098373,-96896.24,-74195.31,-21210.287,15569.784,-65843.95,-36244.957,-36054.04,-48844.65
968753.0855098359,-96905.27,-74203.05,-21205.934,15557.699,-65863.12,-36242.96,-36048.3,-48838.83
968753.0895098344,-96903.52,-74200.32,-21198.934,15553.101,-65863.24,-36244.875,-36054.08,-48847.13
968753.0935098329,-96907.19,-74196.45,-21206.463,15557.495,-65854.82,-36245.77,-36054.324,-48843.67
968753.0975098314,-96903.32,-74194.79,-21217.977,15564.494,-65845.79,-36246.258,-36051.312,-48834.11
968753.10150983,-96919.6,-74206.83,-21213.46,15574.097,-65844.16,-36245.65,-36056.684,-48846.844
968753.1055098285,-96912.516,-74205.94,-21209.473,15570.923,-65849.98,-36245.28,-36056.97,-48848.51
968753.1095098271,-96910.24,-74205.81,-21215.617,15559.814,-65852.336,-36248.21,-36059.0,-48849.895
968753.1135098257,-96903.08,-74192.47,-21208.13,15558.228,-65857.016,-36246.785,-36050.54,-48838.258
968753.1175098242,-96892.83,-74184.9,-21203.777,15569.702,-65840.945,-36244.547,-36044.598,-48838.055
968753.1215098228,-96895.63,-74191.445,-21204.102,15571.696,-65843.79,-36242.027,-36043.99,-48838.176
968753.1255098213,-96898.44,-74192.016,-21206.746,15565.634,-65848.06,-36243.45,-36046.715,-48839.805
968753.1295098199,-96910.85,-74205.08,-21214.031,15556.274,-65857.95,-36245.65,-36050.945,-48837.2
968753.1335098185,-96907.19,-74203.734,-21215.21,15558.146,-65869.39,-36244.02,-36046.836,-48832.97
968753.137509817,-96902.96,-74195.97,-21208.334,15575.521,-65849.61,-36243.855,-36046.387,-48841.96
968753.1415098156,-96903.12,-74199.055,-21212.484,15581.462,-65845.83,-36244.305,-36047.85,-48850.87
968753.1455098141,-96899.58,-74199.55,-21210.857,15571.899,-65846.234,-36245.402,-36050.254,-48857.547
968753.1495098127,-96904.79,-74203.62,-21211.426,15563.192,-65851.65,-36247.113,-36053.223,-48857.668
968753.1535098113,-96929.81,-74223.836,-21214.64,15554.892,-65866.82,-36249.227,-36053.63,-48855.105
968753.1575098097,-96926.11,-74216.92,-21213.094,15568.278,-65855.47,-36251.63,-36058.92,-48853.844
968753.1615098083,-96889.734,-74187.664,-21209.473,15581.299,-65847.82,-36252.727,-36066.855,-48859.336
968753.1655098068,-96895.1,-74184.125,-21216.676,15581.137,-65850.79,-36251.793,-36068.156,-48863.69
968753.1695098054,-96908.0,-74194.54,-21214.07,15575.358,-65858.4,-36250.082,-36067.63,-48869.55
968753.173509804,-96896.53,-74182.17,-21205.975,15573.73,-65852.79,-36249.676,-36060.832,-48859.824
968753.1775098025,-96892.13,-74176.8,-21207.602,15579.265,-65843.14,-36244.71,-36052.45,-48852.01
968753.1815098011,-96899.13,-74186.41,-21202.068,15578.044,-65863.2,-36241.293,-36049.36,-48854.004
968753.1855097996,-96887.695,-74173.34,-21206.463,15574.504,-65862.266,-36243.207,-36041.22,-48845.625
968753.1895097982,-96888.35,-74175.54,-21210.816,15566.203,-65855.67,-36247.152,-36043.457,-48843.793
968753.1935097968,-96895.76,-74186.04,-21204.266,15563.232,-65862.63,-36247.4,-36047.566,-48845.297
968753.1975097953,-96890.22,-74182.21,-21213.42,15574.585,-65851.4,-36244.305,-36042.156,-48836.55
968753.2015097939,-96894.66,-74184.734,-21216.879,15569.499,-65850.47,-36240.723,-36042.44,-48841.88
968753.2055097924,-96902.875,-74188.6,-21215.576,15565.878,-65858.52,-36241.58,-36048.22,-48850.547
968753.209509791,-96906.17,-74189.375,-21217.082,15562.582,-65871.055,-36241.496,-36052.043,-48851.36
968753.2135097896,-96891.89,-74181.4,-21214.152,15568.808,-65866.5,-36242.15,-36050.09,-48849.285
968753.2175097881,-96892.945,-74186.28,-21206.34,15578.857,-65856.734,-36239.137,-36043.17,-48844.77
968753.2215097866,-96883.586,-74184.66,-21212.646,15590.861,-65850.266,-36239.055,-36044.56,-48834.066
968753.2255097851,-96882.57,-74184.57,-21207.928,15583.456,-65876.1,-36239.91,-36046.875,-48845.297
968753.2295097837,-96882.695,-74184.45,-21207.234,15567.871,-65884.85,-36240.48,-36042.93,-48839.355
968753.2335097822,-96885.46,-74183.92,-21208.66,15568.197,-65865.56,-36241.496,-36044.68,-48846.52
968753.2375097808,-96892.664,-74185.18,-21211.955,15573.039,-65846.234,-36243.164,-36051.11,-48861.25
968753.2415097794,-96893.27,-74185.23,-21215.252,15578.939,-65851.04,-36241.13,-36046.51,-48848.066
968753.2455097779,-96904.586,-74194.17,-21214.885,15573.08,-65857.46,-36241.742,-36049.074,-48852.703
968753.2495097765,-96906.375,-74194.79,-21213.42,15565.39,-65854.74,-36244.305,-36051.066,-48857.137
968753.253509775,-96902.34,-74196.62,-21213.623,15568.115,-65847.13,-36244.508,-36050.66,-48854.777
968753.2575097736,-96909.34,-74199.875,-21213.217,15576.742,-65832.93,-36242.676,-36048.953,-48858.93
968753.2615097722,-96910.77,-74203.86,-21213.258,15579.834,-65835.94,-36243.125,-36045.86,-48848.43
968753.2655097707,-96899.13,-74201.91,-21192.506,15573.649,-65845.586,-36246.785,-36048.42,-48847.13
968753.2695097693,-96913.78,-74206.26,-21220.338,15561.85,-65859.375,-36248.21,-36048.668,-48846.316
968753.2735097678,-96913.375,-74205.77,-21221.72,15566.284,-65858.28,-36249.227,-36052.53,-48852.176
968753.2775097664,-96910.81,-74203.45,-21217.205,15579.0205,-65853.84,-36245.363,-36052.53,-48850.26
968753.281509765,-96908.9,-74206.26,-21216.92,15580.526,-65857.95,-36241.902,-36050.496,-48846.438
968753.2855097634,-96906.78,-74201.945,-21217.611,15579.428,-65860.48,-36246.176,-36055.34,-48845.258
968753.289509762,-96907.68,-74200.766,-21215.17,15570.19,-65858.6,-36250.49,-36057.414,-48852.5
968753.2935097605,-96907.68,-74201.17,-21213.664,15569.906,-65843.1,-36254.64,-36058.023,-48849.285
968753.2975097591,-96906.21,-74198.24,-21210.37,15582.927,-65837.41,-36254.234,-36056.355,-48840.58
968753.3015097576,-96910.77,-74202.76,-21208.66,15586.101,-65836.266,-36250.49,-36057.008,-48852.664
968753.3055097562,-96887.66,-74184.61,-21206.422,15582.968,-65840.13,-36248.82,-36045.816,-48831.707
968753.3095097548,-96891.73,-74188.27,-21210.205,15576.01,-65840.78,-36250.895,-36049.93,-48843.793
968753.3135097533,-96894.82,-74191.98,-21211.426,15574.992,-65846.72,-36251.547,-36053.914,-48853.395
968753.3175097519,-96896.53,-74192.34,-21212.2,15584.636,-65860.31,-36249.84,-36054.08,-48846.477
968753.3215097504,-96902.875,-74200.36,-21214.111,15581.95,-65866.17,-36251.383,-36056.684,-48842.41
968753.325509749,-96906.336,-74204.96,-21213.014,15576.294,-65868.45,-36253.5,-36062.297,-48855.266
968753.3295097476,-96907.68,-74206.22,-21216.473,15568.563,-65871.625,-36255.453,-36065.715,-48864.668
968753.3335097461,-96897.38,-74200.65,-21212.443,15571.208,-65867.48,-36257.61,-36065.39,-48856.367
968753.3375097447,-96902.75,-74202.96,-21210.164,15587.891,-65857.79,-36257.082,-36064.293,-48865.438
968753.3415097432,-96905.195,-74203.62,-21215.291,15592.611,-65852.22,-36256.31,-36062.176,-48872.234
968753.3455097418,-96905.93,-74202.88,-21208.62,15580.078,-65854.86,-36257.61,-36060.63,-48864.016
968753.3495097402,-96908.086,-74203.086,-21218.344,15565.959,-65866.54,-36256.797,-36057.7,-48859.09
968753.3535097388,-96906.5,-74200.195,-21223.268,15565.512,-65865.89,-36259.402,-36061.24,-48870.2
968753.3575097374,-96901.33,-74197.43,-21215.373,15573.446,-65850.71,-36264.285,-36066.246,-48866.824
968753.3615097359,-96901.33,-74205.57,-21204.305,15580.7295,-65854.125,-36262.777,-36072.957,-48870.605
968753.3655097345,-96908.61,-74210.21,-21221.314,15577.353,-65855.67,-36260.62,-36073.406,-48873.78
968753.369509733,-96901.164,-74197.875,-21218.14,15568.441,-65849.24,-36262.25,-36068.89,-48867.11
968753.3735097316,-96899.46,-74196.29,-21209.066,15574.667,-65856.98,-36260.906,-36067.87,-48869.305
968753.3775097302,-96889.445,-74187.87,-21213.99,15583.212,-65845.87,-36258.79,-36059.41,-48861.86
968753.3815097287,-96886.766,-74185.586,-21211.996,15587.729,-65839.48,-36259.605,-36053.1,-48846.03
968753.3855097273,-96892.26,-74192.14,-21212.322,15579.956,-65848.47,-36261.598,-36055.867,-48847.74
968753.3895097259,-96896.53,-74194.375,-21215.7,15567.139,-65845.74,-36264.0,-36059.0,-48850.75
968753.3935097244,-96895.43,-74192.95,-21215.129,15575.073,-65848.836,-36262.492,-36055.38,-48842.9
968753.397509723,-96896.164,-74194.91,-21213.338,15588.705,-65843.305,-36260.297,-36055.46,-48847.21
968753.4015097215,-96894.45,-74197.43,-21208.578,15590.983,-65841.23,-36258.14,-36056.48,-48861.25
968753.4055097201,-96898.766,-74201.055,-21207.113,15582.764,-65849.164,-36256.348,-36056.56,-48861.168
968753.4095097187,-96895.63,-74195.11,-21208.416,15577.556,-65847.375,-36258.18,-36053.1,-48853.07
968753.4135097171,-96889.125,-74190.02,-21214.559,15581.015,-65844.69,-36257.0,-36043.336,-48833.293
968753.4175097157,-96881.35,-74188.93,-21211.182,15593.344,-65847.17,-36257.773,-36040.773,-48823.57
968753.4215097142,-96885.87,-74191.9,-21207.602,15592.082,-65845.7,-36255.984,-36041.953,-48833.09
968753.4255097128,-96887.86,-74192.1,-21204.06,15588.339,-65843.43,-36256.594,-36049.48,-48852.094
968753.4295097113,-96884.65,-74186.89,-21209.84,15579.387,-65849.0,-36255.168,-36046.715,-48846.965
968753.4335097099,-96883.47,-74183.23,-21203.41,15579.184,-65832.195,-36254.56,-36046.387,-48841.594
968753.4375097085,-96886.56,-74185.23,-21204.754,15583.008,-65836.47,-36251.87,-36048.625,-48853.395
968753.441509707,-96885.99,-74186.04,-21202.393,15590.861,-65837.73,-36249.676,-36047.934,-48850.18
968753.4455097056,-96885.22,-74189.25,-21192.709,15587.932,-65834.02,-36254.438,-36049.562,-48842.855
968753.4495097041,-96893.03,-74191.125,-21210.084,15578.939,-65844.81,-36255.656,-36049.6,-48840.7
968753.4535097027,-96880.05,-74179.94,-21207.684,15586.304,-65832.64,-36259.684,-36050.7,-48846.316
968753.4575097013,-96877.73,-74180.18,-21203.004,15596.965,-65827.19,-36261.355,-36053.508,-48844.65
968753.4615096998,-96878.55,-74182.375,-21202.027,15600.83,-65814.29,-36260.582,-36054.445,-48842.938
968753.4655096984,-96882.41,-74182.01,-21206.137,15591.472,-65791.95,-36262.613,-36058.105,-48848.39
968753.4695096969,-96900.68,-74194.22,-21208.822,15575.806,-65819.83,-36263.31,-36061.77,-48857.098
968753.4735096955,-96880.984,-74177.01,-21207.398,15582.52,-65822.39,-36262.047,-36052.816,-48839.844
968753.4775096939,-96879.73,-74173.83,-21208.008,15597.168,-65812.016,-36258.586,-36051.473,-48836.55
968753.4815096925,-96882.086,-74190.43,-21198.201,15599.609,-65810.1,-36258.992,-36058.35,-48842.734
968753.4855096911,-96879.73,-74188.27,-21189.9,15597.168,-65831.95,-36259.24,-36055.543,-48840.7
968753.4895096896,-96870.164,-74175.09,-21192.75,15591.024,-65828.01,-36263.51,-36054.117,-48844.688
968753.4935096882,-96865.195,-74170.62,-21194.377,15589.722,-65822.1,-36266.277,-36052.652,-48840.863
968753.4975096867,-96866.375,-74170.94,-21200.521,15598.186,-65829.305,-36265.465,-36055.95,-48849.164
968753.5015096853,-96875.49,-74181.195,-21198.201,15596.436,-65842.86,-36263.47,-36060.67,-48858.36
968753.5055096839,-96872.6,-74177.21,-21197.998,15595.785,-65835.25,-36264.04,-36061.44,-48856.445
968753.5095096824,-96875.86,-74174.69,-21201.254,15590.617,-65832.6,-36265.79,-36062.137,-48853.477
968753.513509681,-96875.86,-74174.84,-21202.434,15592.163,-65829.63,-36267.375,-36065.27,-48858.24
968753.5175096795,-96876.836,-74176.555,-21201.416,15601.889,-65809.2,-36267.78,-36070.395,-48868.45
968753.5215096781,-96875.94,-74174.93,-21203.451,15605.713,-65787.97,-36268.11,-36068.402,-48858.848
968753.5255096767,-96878.13,-74177.734,-21197.877,15593.71,-65823.2,-36271.65,-36070.965,-48858.035
968753.5295096752,-96881.72,-74184.49,-21184.408,15583.008,-65831.914,-36281.008,-36083.17,-48874.066
968753.5335096738,-96885.46,-74178.71,-21212.443,15586.792,-65838.18,-36278.77,-36078.574,-48867.11
968753.5375096723,-96894.17,-74189.82,-21211.182,15595.256,-65837.37,-36274.254,-36079.145,-48876.71
968753.5415096708,-96898.766,-74198.695,-21211.629,15601.97,-65830.04,-36270.793,-36077.11,-48872.03
968753.5455096693,-96897.016,-74202.11,-21206.502,15596.924,-65832.07,-36277.426,-36089.03,-48880.86
968753.5495096679,-96889.94,-74198.65,-21205.69,15586.711,-65848.63,-36275.31,-36079.062,-48871.867
968753.5535096665,-96884.24,-74194.22,-21209.31,15586.101,-65856.57,-36274.293,-36075.81,-48862.875
968753.557509665,-96894.086,-74200.89,-21214.764,15587.24,-65854.86,-36272.95,-36075.195,-48861.41
968753.5615096636,-96897.26,-74204.96,-21215.008,15593.994,-65846.56,-36274.09,-36077.84,-48855.918
968753.5655096621,-96890.875,-74196.45,-21208.7,15589.966,-65846.234,-36275.105,-36075.848,-48851.688
968753.5695096607,-96881.02,-74191.125,-21211.426,15586.426,-65849.41,-36277.996,-36076.254,-48856.406
968753.5735096593,-96890.42,-74197.06,-21215.291,15588.176,-65856.04,-36277.02,-36080.08,-48868.086
968753.5775096578,-96883.305,-74186.65,-21211.346,15597.25,-65850.47,-36278.77,-36081.016,-48865.277
968753.5815096564,-96879.16,-74185.55,-21201.863,15602.987,-65835.66,-36278.523,-36082.195,-48856.855
968753.585509655,-96887.086,-74194.625,-21212.24,15595.337,-65835.62,-36277.1,-36083.78,-48857.625
968753.5895096535,-96890.83,-74190.63,-21220.623,15577.963,-65846.72,-36277.67,-36080.445,-48856.895
968753.5935096521,-96894.21,-74196.01,-21206.014,15582.927,-65844.61,-36276.855,-36084.434,-48874.676
968753.5975096506,-96885.26,-74188.805,-21211.182,15602.783,-65828.164,-36274.09,-36078.613,-48864.707
968753.6015096492,-96877.484,-74185.75,-21209.31,15614.99,-65817.95,-36273.152,-36073.324,-48850.668
968753.6055096476,-96889.445,-74192.99,-21188.396,15599.121,-65820.766,-36275.188,-36075.32,-48852.906
968753.6095096462,-96883.71,-74187.79,-21215.496,15583.659,-65825.73,-36274.66,-36073.69,-48850.18
968753.6135096448,-96880.945,-74182.91,-21223.309,15585.083,-65817.016,-36274.21,-36073.49,-48858.727
968753.6175096433,-96880.25,-74185.02,-21211.71,15596.64,-65825.16,-36270.914,-36070.56,-48864.016
968753.6215096419,-96878.83,-74181.766,-21202.23,15606.812,-65817.586,-36270.1,-36067.3,-48852.176
968753.6255096404,-96883.63,-74186.04,-21214.234,15598.796,-65809.77,-36271.445,-36071.453,-48850.996
968753.629509639,-96882.2,-74186.65,-21220.174,15589.56,-65807.09,-36274.09,-36075.195,-48860.11
968753.6335096376,-96873.336,-74177.37,-21212.158,15594.809,-65826.17,-36270.305,-36069.38,-48857.18
968753.6375096361,-96872.234,-74178.875,-21203.328,15609.863,-65814.49,-36271.89,-36070.598,-48854.207
968753.6415096347,-96868.125,-74177.125,-21207.602,15609.701,-65805.7,-36272.258,-36069.094,-48851.24
968753.6455096332,-96871.914,-74183.84,-21203.166,15598.796,-65819.99,-36273.52,-36068.848,-48851.973
968753.6495096318,-96889.0,-74185.63,-21225.383,15581.909,-65826.46,-36275.516,-36069.418,-48854.74
968753.6535096304,-96880.74,-74179.57,-21215.576,15591.757,-65819.945,-36276.816,-36069.742,-48853.477
968753.6575096289,-96858.16,-74169.35,-21202.88,15608.643,-65794.15,-36274.902,-36063.64,-48836.062
968753.6615096275,-96864.875,-74178.02,-21203.572,15615.52,-65800.87,-36273.844,-36067.18,-48839.684
968753.665509626,-96871.99,-74180.586,-21208.984,15602.865,-65810.23,-36275.637,-36071.535,-48851.81
968753.6695096245,-96872.52,-74177.21,-21199.748,15594.157,-65817.586,-36278.85,-36075.727,-48859.297
968753.673509623,-96878.55,-74181.48,-21201.172,15593.954,-65822.23,-36278.32,-36075.645,-48854.37
968753.6775096216,-96870.37,-74173.305,-21210.287,15609.904,-65805.914,-36276.492,-36069.906,-48838.582
968753.6815096202,-96865.28,-74169.15,-21204.469,15620.81,-65801.96,-36277.305,-36067.75,-48831.953
968753.6855096187,-96866.87,-74168.17,-21203.207,15612.834,-65805.46,-36279.258,-36070.19,-48840.7
968753.6895096173,-96870.2,-74172.445,-21202.963,15600.098,-65809.695,-36282.715,-36072.754,-48843.465
968753.6935096158,-96867.96,-74174.03,-21201.05,15601.848,-65803.914,-36284.06,-36076.863,-48850.914
968753.6975096144,-96867.03,-74174.93,-21206.99,15601.767,-65801.35,-36282.633,-36080.203,-48848.96
968753.701509613,-96870.85,-74179.89,-21214.967,15611.166,-65794.68,-36282.188,-36079.145,-48849.977
968753.7055096115,-96871.99,-74181.6,-21205.934,15607.382,-65802.9,-36282.188,-36076.254,-48852.99
968753.7095096101,-96870.81,-74177.9,-21199.951,15603.679,-65814.086,-36281.902,-36068.605,-48845.297
968753.7135096086,-96868.414,-74173.71,-21201.213,15607.91,-65814.82,-36282.797,-36067.668,-48842.0
968753.7175096072,-96870.81,-74178.1,-21201.742,15617.1875,-65802.29,-36280.805,-36068.688,-48846.6
968753.7215096058,-96860.4,-74172.125,-21199.26,15615.601,-65792.56,-36282.918,-36069.582,-48848.633
968753.7255096043,-96863.57,-74174.89,-21202.393,15602.499,-65801.555,-36285.36,-36074.18,-48856.977
968753.7295096029,-96877.12,-74183.31,-21204.998,15592.041,-65819.42,-36286.215,-36077.35,-48854.82
968753.7335096013,-96871.586,-74176.03,-21201.783,15595.215,-65819.17,-36287.68,-36077.23,-48852.38
968753.7375095999,-96870.2,-74174.805,-21205.77,15609.375,-65804.12,-36286.746,-36075.523,-48850.832
968753.7415095984,-96869.76,-74177.86,-21202.475,15616.089,-65794.35,-36285.44,-36078.25,-48857.3
968753.745509597,-96873.01,-74183.39,-21199.666,15607.463,-65798.34,-36284.953,-36077.312,-48859.254
968753.7495095956,-96889.0,-74193.52,-21201.05,15595.012,-65822.47,-36284.832,-36072.47,-48853.926
968753.7535095941,-96867.59,-74175.7,-21196.697,15602.865,-65809.33,-36284.953,-36060.953,-48833.05
968753.7575095927,-96864.18,-74174.28,-21198.08,15612.956,-65787.805,-36283.45,-36062.176,-48844.93
968753.7615095912,-96867.76,-74180.586,-21198.771,15613.566,-65792.73,-36284.547,-36065.633,-48850.87
968753.7655095898,-96875.57,-74185.95,-21203.898,15604.94,-65814.984,-36285.562,-36067.344,-48849.45
968753.7695095884,-96870.65,-74179.52,-21203.533,15600.302,-65817.914,-36286.46,-36065.633,-48840.17
968753.7735095869,-96862.67,-74174.93,-21187.623,15606.934,-65811.2,-36289.145,-36069.336,-48844.89
968753.7775095855,-96875.2,-74179.52,-21206.178,15611.898,-65810.71,-36286.867,-36067.26,-48848.145
968753.781509584,-96867.84,-74178.266,-21206.137,15618.612,-65812.26,-36286.582,-36066.57,-48848.633
968753.7855095826,-96875.37,-74184.37,-21206.951,15610.84,-65827.27,-36287.598,-36067.586,-48856.16
968753.7895095812,-96878.5,-74188.48,-21209.88,15600.708,-65820.6,-36291.06,-36069.867,-48850.383
968753.7935095797,-96876.02,-74187.79,-21213.95,15595.175,-65818.766,-36289.676,-36066.324,-48843.465
968753.7975095782,-96876.38,-74190.11,-21208.455,15607.138,-65821.984,-36287.355,-36063.926,-48846.152
968753.8015095767,-96873.62,-74188.516,-21206.219,15619.548,-65818.195,-36284.586,-36061.727,-48848.676
968753.8055095753,-96881.72,-74196.66,-21196.615,15613.403,-65826.26,-36286.094,-36065.555,-48852.297
968753.8095095739,-96878.055,-74186.98,-21191.082,15609.863,-65822.305,-36288.902,-36066.652,-48857.18
968753.8135095724,-96865.08,-74176.68,-21218.1,15610.474,-65815.43,-36286.5,-36060.14,-48850.63
968753.817509571,-96860.805,-74174.73,-21206.055,15620.361,-65812.22,-36286.46,-36062.703,-48848.676
968753.8215095695,-96866.83,-74176.31,-21204.225,15623.657,-65816.125,-36285.81,-36063.316,-48848.348
968753.8255095681,-96872.93,-74178.02,-21202.922,15610.556,-65826.625,-36285.688,-36062.785,-48840.293
968753.8295095667,-96877.12,-74181.44,-21201.092,15609.294,-65829.875,-36287.355,-36061.93,-48837.16
968753.8335095652,-96870.89,-74179.65,-21206.38,15618.49,-65792.52,-36288.902,-36066.324,-48852.094
968753.8375095638,-96863.37,-74181.766,-21197.836,15622.722,-65794.15,-36289.266,-36066.49,-48857.18
968753.8415095623,-96879.234,-74191.81,-21209.717,15622.314,-65822.67,-36284.75,-36059.734,-48856.73
968753.8455095609,-96899.3,-74202.92,-21217.611,15614.299,-65826.09,-36283.203,-36056.766,-48854.86
968753.8495095595,-96909.75,-74216.8,-21214.275,15612.834,-65836.914,-36284.426,-36057.332,-48851.562
968753.853509558,-96870.28,-74193.195,-21199.26,15621.257,-65823.85,-36289.105,-36057.78,-48839.234
968753.8575095565,-96857.34,-74176.516,-21195.312,15631.43,-65822.02,-36287.844,-36060.914,-48844.727
968753.861509555,-96857.34,-74178.51,-21195.68,15633.464,-65821.66,-36286.785,-36058.39,-48840.21
968753.8655095536,-96862.555,-74186.89,-21192.871,15622.152,-65822.516,-36289.145,-36061.65,-48843.06
968753.8695095521,-96864.18,-74190.72,-21197.062,15601.196,-65830.41,-36294.395,-36069.785,-48851.605
968753.8735095507,-96866.83,-74190.11,-21202.84,15605.551,-65836.02,-36294.92,-36071.453,-48854.414
968753.8775095493,-96854.086,-74178.14,-21191.854,15624.35,-65819.3,-36293.457,-36064.82,-48844.77
968753.8815095478,-96859.22,-74185.63,-21193.197,15626.913,-65818.445,-36291.91,-36063.52,-48843.63
968753.8855095464,-96860.6,-74188.4,-21187.908,15623.454,-65823.94,-36292.195,-36067.996,-48844.2
968753.8895095449,-96856.445,-74181.84,-21191.0,15614.34,-65832.84,-36292.48,-36065.105,-48840.21
968753.8935095435,-96852.99,-74180.75,-21191.61,15613.403,-65831.71,-36293.62,-36067.668,-48847.332
968753.8975095421,-96849.25,-74180.22,-21185.629,15623.413,-65823.0,-36291.18,-36065.676,-48850.996
968753.9015095406,-96836.71,-74175.46,-21182.17,15631.308,-65823.98,-36290.324,-36062.543,-48848.066
968753.9055095392,-96851.28,-74183.35,-21181.885,15621.42,-65836.43,-36290.855,-36061.2,-48848.758
968753.9095095377,-96857.99,-74183.59,-21189.861,15608.317,-65845.91,-36296.023,-36063.965,-48846.76
968753.9135095363,-96865.93,-74192.586,-21185.873,15612.183,-65849.9,-36297.406,-36068.93,-48851.973
968753.9175095349,-96856.49,-74187.09,-21184.367,15634.318,-65826.5,-36298.18,-36069.254,-48849.652
968753.9215095333,-96857.38,-74190.516,-21190.959,15636.353,-65819.13,-36296.227,-36069.01,-48847.37
968753.9255095319,-96863.04,-74192.71,-21189.088,15629.843,-65837.2,-36295.74,-36068.973,-48845.38
968753.9295095304,-96853.11,-74182.13,-21198.08,15622.274,-65845.46,-36296.836,-36068.36,-48851.727
968753.933509529,-96853.766,-74182.91,-21196.127,15620.85,-65839.07,-36297.28,-36071.86,-48860.637
968753.9375095275,-96858.36,-74188.73,-21196.127,15628.581,-65832.16,-36296.43,-36067.426,-48848.188
968753.9415095261,-96858.56,-74188.48,-21198.69,15624.472,-65838.09,-36295.25,-36064.94,-48843.914
968753.9455095247,-96859.016,-74187.79,-21202.352,15622.478,-65846.805,-36295.37,-36062.625,-48841.23
968753.9495095232,-96862.47,-74188.68,-21205.525,15616.699,-65843.305,-36295.777,-36061.81,-48843.63
968753.9535095218,-96859.3,-74187.586,-21203.328,15622.07,-65835.94,-36295.37,-36060.426,-48843.67
968753.9575095203,-96851.41,-74181.68,-21199.627,15634.481,-65833.74,-36296.633,-36060.184,-48838.46
968753.9615095189,-96859.625,-74189.01,-21200.277,15636.76,-65827.516,-36298.707,-36064.09,-48844.16
968753.9655095175,-96858.65,-74185.266,-21199.139,15627.6045,-65830.85,-36302.33,-36067.71,-48849.246
968753.969509516,-96853.03,-74181.48,-21198.895,15613.322,-65836.75,-36303.63,-36070.19,-48854.25
968753.9735095146,-96849.81,-74182.375,-21198.486,15616.984,-65842.734,-36303.754,-36070.844,-48857.668
968753.9775095131,-96856.734,-74187.87,-21196.777,15631.022,-65841.35,-36303.14,-36070.152,-48858.645
968753.9815095117,-96863.734,-74194.625,-21198.527,15633.911,-65834.72,-36302.246,-36070.76,-48860.965
968753.9855095102,-96863.164,-74194.91,-21199.3,15631.43,-65834.39,-36299.6,-36064.82,-48853.07
968753.9895095087,-96858.24,-74188.88,-21200.725,15626.547,-65854.58,-36300.78,-36061.035,-48844.402
968753.9935095073,-96854.9,-74186.08,-21201.457,15625.529,-65846.805,-36301.92,-36059.53,-48834.27
968753.9975095058,-96850.63,-74184.41,-21196.98,15633.708,-65838.14,-36302.125,-36056.195,-48823.977
968754.0015095044,-96854.82,-74201.3,-21199.016,15631.063,-65843.875,-36302.37,-36061.65,-48830.61
968754.005509503,-96867.76,-74205.0,-21203.816,15622.966,-65846.516,-36303.754,-36067.14,-48839.152
968754.0095095015,-96867.72,-74200.6,-21203.492,15619.426,-65855.15,-36306.152,-36069.62,-48838.91
968754.0135095001,-96869.14,-74209.15,-21193.686,15625.57,-65862.71,-36307.332,-36076.785,-48855.348
968754.0175094986,-96873.984,-74214.68,-21197.918,15632.772,-65860.68,-36306.316,-36078.207,-48860.35
968754.0215094972,-96887.375,-74223.06,-21211.873,15630.819,-65876.586,-36303.59,-36079.836,-48871.22
968754.0255094958,-96894.414,-74227.375,-21214.844,15617.514,-65873.25,-36305.664,-36083.375,-48882.04
968754.0295094943,-96869.06,-74207.52,-21209.432,15611.206,-65875.81,-36306.438,-36072.47,-48851.562
968754.0335094929,-96873.945,-74211.63,-21208.578,15616.333,-65873.086,-36305.625,-36074.707,-48858.44
968754.0375094914,-96875.086,-74215.375,-21205.525,15632.935,-65859.09,-36303.67,-36079.227,-48873.535
968754.04150949,-96875.25,-74216.27,-21205.648,15640.219,-65851.24,-36302.004,-36078.86,-48868.652
968754.0455094886,-96880.66,-74217.61,-21211.426,15628.378,-65846.88,-36301.473,-36079.266,-48870.89
968754.049509487,-96881.11,-74216.27,-21211.102,15616.089,-65854.414,-36304.363,-36080.08,-48867.27
968754.0535094856,-96879.234,-74214.97,-21204.469,15615.072,-65868.62,-36305.38,-36078.004,-48858.766
968754.0575094841,-96884.69,-74216.27,-21206.219,15620.239,-65863.164,-36303.875,-36077.84,-48869.305
968754.0615094827,-96901.21,-74235.07,-21220.582,15624.064,-65860.84,-36302.45,-36075.93,-48873.74
968754.0655094812,-96891.93,-74226.65,-21212.443,15618.774,-65864.18,-36304.812,-36075.035,-48861.25
968754.0695094798,-96864.305,-74201.83,-21206.91,15616.496,-65858.44,-36307.66,-36072.957,-48862.062
968754.0735094784,-96868.86,-74203.375,-21204.59,15625.041,-65852.09,-36306.64,-36073.977,-48872.438
968754.0775094769,-96873.58,-74204.875,-21205.69,15632.243,-65835.0,-36304.242,-36069.133,-48869.02
968754.0815094755,-96865.08,-74201.375,-21201.336,15640.3,-65827.27,-36305.91,-36071.414,-48861.086
968754.085509474,-96862.305,-74204.47,-21195.271,15626.587,-65852.09,-36306.113,-36068.562,-48855.266
968754.0895094726,-96863.9,-74198.65,-21199.057,15619.833,-65854.78,-36310.1,-36065.96,-48847.293
968754.0935094712,-96865.08,-74194.016,-21207.846,15625.937,-65841.92,-36308.555,-36059.246,-48836.14
968754.0975094697,-96858.766,-74192.14,-21194.824,15636.923,-65831.95,-36306.48,-36059.773,-48845.094
968754.1015094683,-96855.23,-74191.37,-21186.402,15645.427,-65828.414,-36303.426,-36060.184,-48843.914
968754.1055094668,-96861.53,-74193.04,-21197.674,15641.684,-65822.19,-36303.062,-36060.14,-48844.402
968754.1095094654,-96864.22,-74197.836,-21194.54,15633.301,-65829.43,-36307.332,-36068.605,-48862.266
968754.1135094638,-96854.945,-74181.195,-21192.262,15638.469,-65824.67,-36306.723,-36061.16,-48843.344
968754.1175094624,-96859.5,-74185.43,-21189.941,15644.653,-65824.26,-36304.04,-36057.17,-48840.375
968754.121509461,-96851.04,-74185.47,-21192.547,15650.554,-65833.414,-36300.336,-36051.15,-48838.95
968754.1255094595,-96854.695,-74189.91,-21193.727,15645.508,-65828.984,-36303.1,-36055.992,-48841.105
968754.1295094581,-96860.64,-74190.63,-21198.406,15636.597,-65831.87,-36306.195,-36057.58,-48840.457
968754.1335094566,-96852.336,-74185.95,-21194.092,15639.079,-65826.54,-36308.23,-36057.7,-48836.348
968754.1375094552,-96855.516,-74191.24,-21190.389,15644.694,-65809.82,-36307.863,-36060.1,-48847.332
968754.1415094538,-96859.78,-74191.445,-21187.012,15653.524,-65826.91,-36304.973,-36058.31,-48845.582
968754.1455094523,-96857.266,-74192.75,-21201.54,15638.713,-65844.65,-36303.508,-36055.176,-48836.02
968754.1495094509,-96859.945,-74195.64,-21200.277,15630.249,-65835.86,-36304.688,-36058.797,-48835.53
968754.1535094494,-96856.61,-74188.11,-21201.498,15639.975,-65826.26,-36303.71,-36059.45,-48839.56
968754.157509448,-96854.086,-74186.61,-21193.441,15647.421,-65820.805,-36302.86,-36059.246,-48841.105
968754.1615094466,-96849.125,-74185.34,-21192.668,15653.931,-65813.27,-36302.41,-36054.77,-48825.156
968754.1655094451,-96854.01,-74193.36,-21195.11,15643.433,-65821.78,-36305.79,-36056.805,-48826.54
968754.1695094437,-96853.44,-74196.414,-21193.768,15635.132,-65835.05,-36306.316,-36060.06,-48838.46
968754.1735094422,-96857.266,-74195.195,-21198.854,15638.55,-65828.086,-36307.414,-36060.875,-48835.164
968754.1775094407,-96857.95,-74195.31,-21198.08,15650.473,-65820.56,-36308.84,-36064.535,-48831.83
968754.1815094393,-96856.94,-74197.875,-21192.709,15657.471,-65821.695,-36307.945,-36071.94,-48849.773
968754.1855094378,-96849.33,-74193.93,-21192.506,15640.341,-65824.83,-36309.57,-36071.98,-48839.887
968754.1895094364,-96854.21,-74196.945,-21198.73,15627.035,-65835.05,-36312.543,-36073.65,-48837.363
968754.1935094349,-96857.95,-74193.89,-21207.846,15628.093,-65825.234,-36312.34,-36073.367,-48847.535
968754.1975094335,-96855.35,-74191.77,-21201.54,15644.857,-65806.805,-36311.402,-36072.754,-48854.902
968754.201509432,-96861.01,-74194.625,-21200.033,15653.646,-65802.984,-36307.902,-36067.668,-48852.01
968754.2055094306,-96853.88,-74191.37,-21192.18,15654.663,-65805.55,-36310.793,-36065.43,-48835.207
968754.2095094292,-96852.336,-74191.33,-21193.4,15644.491,-65807.945,-36311.523,-36066.61,-48833.66
968754.2135094277,-96850.23,-74192.875,-21200.848,15644.735,-65806.64,-36313.113,-36069.5,-48842.977
968754.2175094263,-96855.875,-74192.71,-21198.486,15645.183,-65810.14,-36311.08,-36068.562,-48843.793
968754.2215094249,-96859.7,-74194.87,-21200.236,15643.148,-65806.16,-36309.57,-36071.82,-48844.89
968754.2255094234,-96860.11,-74203.734,-21196.29,15640.219,-65818.04,-36313.723,-36077.23,-48847.09
968754.229509422,-96877.57,-74222.86,-21200.928,15633.301,-65831.51,-36314.7,-36075.24,-48842.043
968754.2335094205,-96894.9,-74238.53,-21205.73,15635.905,-65831.55,-36312.055,-36074.42,-48840.13
968754.2375094191,-96875.05,-74210.62,-21202.88,15646.2,-65809.61,-36312.01,-36073.242,-48838.867
968754.2415094175,-96841.48,-74177.57,-21198.162,15658.407,-65786.13,-36311.688,-36070.11,-48835.816
968754.2455094161,-96850.75,-74182.82,-21203.98,15653.646,-65806.64,-36311.81,-36072.348,-48837.04
968754.2495094147,-96859.945,-74191.41,-21204.998,15643.759,-65809.695,-36315.43,-36075.645,-48844.89
968754.2535094132,-96858.56,-74187.336,-21208.172,15643.148,-65799.36,-36319.46,-36082.4,-48860.598
968754.2575094118,-96841.72,-74170.62,-21211.426,15656.454,-65790.77,-36317.18,-36079.996,-48857.22
968754.2615094103,-96844.69,-74177.695,-21207.967,15662.883,-65785.484,-36313.234,-36078.53,-48849.652
968754.2655094089,-96842.94,-74172.37,-21206.91,15653.361,-65790.77,-36316.0,-36079.67,-48847.82
968754.2695094075,-96845.22,-74176.19,-21211.305,15644.45,-65798.055,-36318.645,-36080.895,-48853.312
968754.273509406,-96852.055,-74186.12,-21213.99,15645.996,-65803.06,-36317.832,-36079.43,-48848.96
968754.2775094046,-96847.91,-74181.93,-21211.793,15652.385,-65799.52,-36316.734,-36078.574,-48848.105
968754.2815094031,-96848.35,-74185.51,-21201.863,15659.506,-65793.22,-36317.75,-36080.973,-48856.445
968754.2855094017,-96850.875,-74184.82,-21203.898,15657.512,-65797.28,-36318.035,-36080.28,-48850.668
968754.2895094003,-96855.67,-74186.484,-21214.682,15652.792,-65802.53,-36320.152,-36078.777,-48841.105
968754.2935093988,-96869.914,-74195.766,-21225.871,15646.403,-65802.66,-36319.867,-36077.555,-48839.805
968754.2975093974,-96856.41,-74190.8,-21212.973,15656.982,-65800.78,-36319.215,-36077.477,-48841.555
968754.3015093959,-96860.44,-74193.93,-21210.49,15655.844,-65802.49,-36318.484,-36083.457,-48847.09
968754.3055093944,-96873.01,-74205.81,-21210.896,15646.606,-65804.28,-36317.465,-36083.21,-48846.03
968754.309509393,-96863.77,-74194.586,-21206.91,15640.219,-65804.04,-36319.133,-36080.895,-48836.957
968754.3135093915,-96862.875,-74192.95,-21210.287,15640.951,-65800.87,-36318.645,-36080.484,-48839.152
968754.3175093901,-96870.61,-74201.91,-21205.037,15657.471,-65791.51,-36318.402,-36083.008,-48850.14
968754.3215093886,-96865.6,-74202.27,-21201.457,15661.947,-65792.32,-36317.586,-36081.992,-48853.11
968754.3255093872,-96866.13,-74198.94,-21208.7,15650.961,-65797.98,-36318.24,-36077.92,-48842.695
968754.3295093857,-96867.15,-74198.98,-21212.89,15639.689,-65805.46,-36320.68,-36076.254,-48844.117
968754.3335093843,-96862.23,-74196.62,-21208.863,15635.986,-65811.04,-36321.332,-36072.55,-48834.758
968754.3375093829,-96864.016,-74199.67,-21204.957,15646.892,-65805.75,-36318.727,-36066.69,-48824.87
968754.3415093814,-96866.17,-74197.67,-21216.553,15654.989,-65796.35,-36316.734,-36064.535,-48833.17
968754.34550938,-96858.484,-74192.34,-21207.643,15657.715,-65791.305,-36320.883,-36068.24,-48835.492
968754.3495093785,-96863.04,-74195.97,-21204.469,15648.723,-65795.984,-36323.324,-36072.47,-48840.09
968754.3535093771,-96858.766,-74189.78,-21206.87,15651.286,-65812.46,-36321.332,-36067.953,-48831.87
968754.3575093757,-96863.85,-74193.12,-21209.31,15657.187,-65801.35,-36321.37,-36067.18,-48831.83
968754.3615093742,-96868.82,-74199.625,-21206.543,15661.947,-65791.71,-36320.19,-36065.145,-48833.78
968754.3655093728,-96862.555,-74196.29,-21209.188,15654.582,-65782.43,-36319.215,-36059.855,-48820.516
968754.3695093712,-96855.06,-74191.04,-21194.58,15651.367,-65783.734,-36319.867,-36055.176,-48809.33
968754.3735093698,-96860.555,-74190.35,-21215.047,15651.611,-65779.664,-36316.043,-36050.09,-48816.082
968754.3775093684,-96865.44,-74193.73,-21211.996,15660.197,-65785.16,-36314.74,-36051.473,-48823.324
968754.3815093669,-96866.21,-74198.0,-21211.996,15660.441,-65799.4,-36314.008,-36052.613,-48819.62
968754.3855093655,-96867.76,-74198.98,-21215.129,15647.624,-65804.81,-36319.05,-36062.46,-48829.754
968754.389509364,-96871.586,-74200.32,-21213.867,15645.224,-65812.79,-36324.137,-36068.645,-48837.402
968754.3935093626,-96864.875,-74190.06,-21211.102,15651.733,-65800.54,-36327.68,-36067.953,-48831.83
968754.3975093612,-96866.7,-74195.72,-21204.102,15664.633,-65787.07,-36328.574,-36071.453,-48835.29
968754.4015093597,-96857.06,-74188.234,-21200.725,15668.62,-65773.766,-36326.742,-36068.2,-48831.504
968754.4055093583,-96860.31,-74191.81,-21201.945,15658.041,-65770.14,-36326.945,-36070.11,-48834.395
968754.4095093568,-96856.94,-74190.11,-21204.672,15642.944,-65797.98,-36325.727,-36066.12,-48833.293
968754.4135093554,-96858.28,-74192.914,-21210.164,15638.266,-65813.03,-36322.715,-36062.258,-48833.418
968754.417509354,-96865.28,-74200.03,-21214.275,15647.299,-65814.01,-36316.53,-36059.9,-48840.375
968754.4215093525,-96860.195,-74197.39,-21207.846,15659.302,-65809.45,-36316.773,-36059.41,-48836.47
968754.4255093511,-96856.445,-74194.17,-21208.66,15657.959,-65802.86,-36317.63,-36055.746,-48826.62
968754.4295093496,-96856.0,-74190.19,-21197.877,15658.8955,-65806.52,-36319.62,-36058.066,-48838.34
968754.4335093481,-96846.766,-74181.6,-21198.04,15664.022,-65791.47,-36325.97,-36061.363,-48833.863
968754.4375093466,-96849.66,-74186.73,-21197.836,15674.154,-65792.16,-36330.04,-36068.36,-48835.004
968754.4415093452,-96863.37,-74193.484,-21197.754,15671.387,-65790.85,-36332.805,-36077.516,-48845.867
968754.4455093438,-96868.94,-74200.73,-21210.572,15658.773,-65802.62,-36333.17,-36082.03,-48851.973
968754.4495093423,-96869.23,-74202.11,-21209.637,15649.577,-65820.11,-36330.363,-36079.793,-48850.87
968754.4535093409,-96861.86,-74202.48,-21204.713,15654.094,-65813.195,-36329.184,-36074.465,-48842.043
968754.4575093394,-96859.42,-74200.6,-21201.863,15666.016,-65809.2,-36325.156,-36065.918,-48831.953
968754.461509338,-96864.914,-74202.64,-21201.416,15671.55,-65805.22,-36320.965,-36059.246,-48828.613
968754.4655093366,-96860.516,-74198.734,-21201.945,15666.138,-65807.09,-36319.46,-36050.742,-48817.996
968754.4695093351,-96858.52,-74195.6,-21205.934,15657.349,-65818.36,-36319.54,-36048.098,-48826.945
968754.4735093337,-96862.8,-74192.71,-21206.828,15653.402,-65824.51,-36322.31,-36050.824,-48829.793
968754.4775093322,-96865.32,-74196.54,-21210.287,15669.841,-65812.75,-36322.47,-36051.883,-48822.88
968754.4815093308,-96867.35,-74202.96,-21207.234,15678.142,-65799.03,-36323.285,-36059.246,-48834.395
968754.4855093294,-96866.46,-74200.65,-21207.928,15666.992,-65805.914,-36322.348,-36058.92,-48833.66
968754.4895093279,-96862.02,-74198.24,-21208.74,15656.332,-65812.83,-36323.082,-36057.496,-48828.98
968754.4935093265,-96860.555,-74197.555,-21206.828,15655.07,-65811.08,-36323.73,-36057.58,-48832.156
968754.4975093249,-96864.14,-74202.48,-21198.201,15661.662,-65812.99,-36322.918,-36057.09,-48837.77
968754.5015093235,-96867.03,-74203.734,-21197.469,15667.888,-65819.055,-36321.902,-36053.348,-48827.637
968754.505509322,-96877.65,-74215.945,-21209.758,15659.465,-65823.33,-36319.215,-36054.242,-48829.266
968754.5095093206,-96891.65,-74230.67,-21213.135,15646.281,-65837.69,-36318.44,-36051.883,-48830.73
