timestamp,Fp1,Fp2,F3,Fz,F4,Cz,Pz,Oz
968099.4577463053,-92231.445,-50027.547,-20499.553,-4717.204,-58770.387,-40238.65,-37736.29,-42025.72
968099.4617463038,-92225.14,-50028.89,-20494.67,-4715.373,-58768.555,-40236.453,-37732.34,-42019.613
968099.4657463024,-92225.63,-50029.5,-20492.92,-4715.6577,-58773.684,-40237.02,-37731.977,-42014.812
968099.469746301,-92232.55,-50034.75,-20497.6,-4721.7207,-58786.867,-40239.22,-37732.91,-42016.887
968099.4737462995,-92240.69,-50041.832,-20501.303,-4725.179,-58789.105,-40243.207,-37733.4,-42017.984
968099.4777462981,-92238.484,-50041.14,-20501.344,-4722.087,-58784.465,-40242.434,-37731.895,-42016.03
968099.4817462966,-92231.33,-50039.227,-20499.594,-4716.5938,-58771.69,-40240.234,-37731.895,-42016.48
968099.4857462951,-92226.65,-50033.125,-20495.688,-4712.6465,-58764.04,-40239.707,-37732.953,-42014.61
968099.4897462936,-92220.3,-50026.695,-20492.84,-4715.088,-58774.984,-40239.95,-37733.562,-42008.3
968099.4937462922,-92214.52,-50017.418,-20492.717,-4716.4717,-58781.332,-40240.03,-37735.27,-42011.19
968099.4977462908,-92214.766,-50014.934,-20494.71,-4715.495,-58776.043,-40242.96,-37738.85,-42023.684
968099.5017462893,-92222.45,-50019.492,-20495.443,-4712.606,-58763.55,-40243.777,-37740.97,-42025.105
968099.5057462879,-92230.72,-50025.15,-20498.291,-4715.8613,-58766.766,-40245.688,-37742.15,-42019.938
968099.5097462864,-92231.33,-50023.64,-20500.164,-4721.3135,-58782.84,-40247.723,-37743.777,-42013.715
968099.513746285,-92229.45,-50018.27,-20502.156,-4722.738,-58780.64,-40249.188,-37745.035,-42018.27
968099.5177462836,-92232.914,-50017.457,-20504.639,-4721.2324,-58773.48,-40247.6,-37744.387,-42028.973
968099.5217462821,-92235.35,-50025.35,-20501.506,-4719.3604,-58770.836,-40240.562,-37739.137,-42023.4
968099.5257462807,-92230.92,-50026.33,-20494.955,-4718.7095,-58756.715,-40236.777,-37735.637,-42026.45
968099.5297462792,-92228.4,-50022.746,-20492.799,-4719.8896,-58768.555,-40235.312,-37730.47,-42019.734
968099.5337462778,-92230.67,-50022.95,-20494.752,-4719.3604,-58783.203,-40234.824,-37729.82,-42019.938
968099.5377462764,-92230.8,-50020.996,-20494.588,-4716.39,-58789.188,-40235.434,-37729.656,-42018.883
968099.5417462749,-92233.03,-50027.14,-20493.734,-4715.7393,-58785.28,-40238.85,-37733.36,-42025.92
968099.5457462734,-92237.02,-50036.258,-20495.443,-4720.337,-58784.668,-40241.78,-37738.484,-42032.918
968099.5497462719,-92240.56,-50034.87,-20499.635,-4724.284,-58787.926,-40241.58,-37737.996,-42031.94
968099.5537462705,-92238.89,-50034.465,-20500.0,-4722.9414,-58787.477,-40239.34,-37734.945,-42024.09
968099.557746269,-92239.625,-50034.832,-20502.156,-4723.9585,-58785.566,-40237.59,-37734.01,-42021.242
968099.5617462676,-92243.53,-50038.25,-20501.629,-4723.633,-58771.527,-40232.992,-37734.375,-42026.164
968099.5657462662,-92244.14,-50035.035,-20501.14,-4723.9585,-58781.293,-40230.184,-37734.945,-42035.2
968099.5697462647,-92239.914,-50028.28,-20502.727,-4729.248,-58787.316,-40230.062,-37733.645,-42026.246
968099.5737462633,-92231.61,-50024.66,-20499.92,-4729.94,-58781.58,-40232.34,-37734.457,-42023.074
968099.5777462618,-92232.875,-50022.383,-20499.432,-4727.092,-58776.9,-40237.918,-37734.742,-42019.9
968099.5817462604,-92235.88,-50021.363,-20499.105,-4722.738,-58773.97,-40240.52,-37734.906,-42014.203
968099.585746259,-92239.26,-50020.754,-20500.488,-4722.9414,-58766.684,-40242.594,-37741.414,-42023.195
968099.5897462575,-92241.5,-50024.13,-20501.994,-4726.9287,-58786.055,-40245.16,-37747.234,-42038.047
968099.5937462561,-92239.22,-50027.547,-20499.838,-4727.0103,-58790.12,-40244.71,-37748.902,-42046.266
968099.5977462546,-92236.29,-50029.094,-20501.018,-4726.1963,-58776.29,-40243.57,-37748.984,-42045.613
968099.6017462532,-92239.34,-50036.62,-20503.988,-4728.475,-58783.9,-40241.254,-37749.188,-42054.402
968099.6057462518,-92245.445,-50039.51,-20504.924,-4730.2656,-58794.152,-40237.59,-37745.035,-42047.363
968099.6097462502,-92242.59,-50024.742,-20507.162,-4730.713,-58798.3,-40238.16,-37743.816,-42045.74
968099.6137462488,-92246.79,-50023.113,-20509.277,-4732.6255,-58796.836,-40240.03,-37741.984,-42036.5
968099.6177462473,-92249.43,-50026.652,-20507.203,-4731.1606,-58790.367,-40239.34,-37737.71,-42027.06
968099.6217462459,-92243.984,-50024.78,-20501.465,-4725.3013,-58781.617,-40239.016,-37736.777,-42031.293
968099.6257462444,-92239.83,-50019.9,-20498.902,-4725.586,-58783.0,-40240.36,-37738.65,-42031.09
968099.629746243,-92239.79,-50015.91,-20497.885,-4731.527,-58790.773,-40241.13,-37740.36,-42029.582
968099.6337462416,-92241.7,-50015.992,-20497.885,-4734.66,-58799.316,-40242.758,-37744.266,-42029.703
968099.6377462401,-92239.87,-50017.293,-20496.826,-4730.591,-58789.39,-40240.113,-37743.9,-42029.137
968099.6417462387,-92239.51,-50017.66,-20493.043,-4725.627,-58780.926,-40236.86,-37741.05,-42020.754
968099.6457462372,-92241.26,-50018.434,-20493.775,-4727.8647,-58782.27,-40234.863,-37737.47,-42024.58
968099.6497462358,-92243.01,-50021.688,-20494.344,-4729.4517,-58789.715,-40235.477,-37731.69,-42019.734
968099.6537462344,-92241.984,-50024.496,-20493.855,-4728.0684,-58800.215,-40236.086,-37726.2,-42015.34
968099.6577462329,-92242.555,-50026.207,-20494.223,-4728.5566,-58798.34,-40235.883,-37724.527,-42025.23
968099.6617462315,-92243.82,-50027.14,-20495.037,-4727.173,-58797.61,-40234.293,-37725.426,-42024.414
968099.66574623,-92241.78,-50033.53,-20500.041,-4731.527,-58810.06,-40232.625,-37727.254,-42029.582
968099.6697462286,-92244.836,-50036.258,-20506.145,-4737.3047,-58815.105,-40233.24,-37730.062,-42033.164
968099.673746227,-92250.125,-50038.74,-20507.771,-4737.59,-58806.805,-40233.645,-37731.934,-42036.46
968099.6777462256,-92255.13,-50038.656,-20503.826,-4732.951,-58800.945,-40233.035,-37728.844,-42032.797
968099.6817462242,-92251.836,-50040.04,-20497.559,-4725.9116,-58796.023,-40231.324,-37723.758,-42022.79
968099.6857462227,-92246.87,-50046.1,-20490.926,-4725.464,-58803.55,-40232.83,-37720.703,-42014.0
968099.6897462213,-92240.484,-50040.855,-20487.143,-4727.417,-58811.81,-40237.184,-37717.49,-42008.504
968099.6937462199,-92231.2,-50021.527,-20486.492,-4723.877,-58806.4,-40239.504,-37714.48,-42002.24
968099.6977462184,-92227.336,-50011.23,-20488.16,-4721.3135,-58795.535,-40240.36,-37715.74,-42003.95
968099.701746217,-92222.86,-50015.79,-20485.19,-4716.4717,-58791.87,-40238.934,-37713.34,-41994.67
968099.7057462155,-92216.27,-50015.83,-20482.26,-4717.326,-58793.094,-40238.61,-37712.566,-41995.402
968099.7097462141,-92216.88,-50010.906,-20483.277,-4722.7783,-58800.09,-40237.957,-37710.41,-42004.355
968099.7137462127,-92214.52,-50014.324,-20483.643,-4724.04,-58798.465,-40234.17,-37704.59,-41996.95
968099.7177462112,-92213.14,-50018.555,-20482.38,-4723.755,-58794.965,-40231.977,-37701.785,-41993.652
968099.7217462098,-92216.23,-50019.37,-20480.389,-4720.215,-58794.23,-40229.37,-37700.36,-41991.17
968099.7257462083,-92217.49,-50010.703,-20484.783,-4720.134,-58795.617,-40227.867,-37702.68,-41991.336
968099.7297462069,-92228.516,-50015.79,-20490.805,-4728.475,-58808.027,-40229.574,-37710.043,-42008.707
968099.7337462055,-92242.11,-50029.38,-20498.82,-4731.9746,-58819.824,-40231.65,-37716.758,-42022.95
968099.7377462039,-92252.484,-50044.027,-20503.621,-4732.1777,-58822.836,-40231.285,-37719.688,-42027.957
968099.7417462025,-92254.07,-50050.58,-20501.424,-4730.062,-58815.066,-40230.387,-37722.332,-42031.414
968099.745746201,-92255.7,-50052.33,-20501.629,-4731.527,-58808.555,-40229.94,-37725.098,-42032.633
968099.7497461996,-92265.016,-50053.062,-20507.977,-4738.8105,-58815.555,-40231.49,-37726.688,-42032.918
968099.7537461981,-92268.19,-50058.72,-20510.621,-4738.6475,-58819.46,-40231.49,-37727.54,-42037.027
968099.7577461967,-92272.09,-50066.406,-20513.021,-4736.776,-58823.285,-40230.875,-37727.418,-42040.164
968099.7617461953,-92270.76,-50070.027,-20510.295,-4734.5786,-58825.523,-40229.9,-37729.98,-42043.824
968099.7657461938,-92270.266,-50071.98,-20507.324,-4735.6772,-58835.53,-40228.76,-37731.527,-42045.86
968099.7697461924,-92270.266,-50073.895,-20510.213,-4740.3564,-58841.516,-40229.25,-37730.387,-42044.68
968099.773746191,-92275.234,-50078.9,-20515.096,-4742.391,-58842.33,-40229.535,-37728.07,-42040.285
968099.7777461895,-92285.0,-50084.35,-20518.27,-4741.618,-58834.066,-40229.656,-37727.215,-42042.523
968099.7817461881,-92293.13,-50089.355,-20519.246,-4741.496,-58832.52,-40230.47,-37727.133,-42041.668
968099.7857461866,-92293.3,-50086.426,-20518.475,-4742.798,-58839.805,-40230.67,-37725.465,-42033.773
968099.7897461852,-92284.305,-50081.668,-20513.592,-4742.3096,-58843.47,-40232.42,-37726.727,-42031.453
968099.7937461837,-92270.67,-50073.527,-20506.836,-4739.665,-58839.4,-40234.824,-37731.406,-42041.79
968099.7977461823,-92264.2,-50070.273,-20506.836,-4735.1074,-58834.92,-40239.34,-37735.27,-42044.516
968099.8017461807,-92268.11,-50071.047,-20508.545,-4729.7773,-58827.8,-40242.066,-37738.484,-42038.453
968099.8057461793,-92266.195,-50067.914,-20507.527,-4730.591,-58826.99,-40243.9,-37744.266,-42048.383
968099.8097461779,-92263.836,-50070.64,-20507.895,-4734.9043,-58839.234,-40245.81,-37745.605,-42056.152
968099.8137461764,-92264.0,-50069.05,-20508.342,-4736.776,-58845.703,-40244.754,-37742.39,-42050.457
968099.817746175,-92267.17,-50065.88,-20509.604,-4734.375,-58838.3,-40243.164,-37739.707,-42050.133
968099.8217461735,-92276.9,-50075.117,-20507.65,-4730.998,-58830.773,-40238.406,-37733.727,-42045.41
968099.8257461721,-92281.82,-50079.47,-20506.227,-4730.0215,-58831.055,-40237.223,-37730.062,-42035.727
968099.8297461707,-92275.76,-50075.766,-20505.412,-4731.8525,-58841.31,-40239.258,-37733.113,-42045.168
968099.8337461692,-92275.11,-50074.504,-20507.08,-4733.3174,-58846.234,-40240.03,-37733.316,-42051.96
968099.8377461678,-92285.61,-50090.21,-20509.318,-4733.9277,-58843.75,-40240.277,-37730.55,-42046.184
968099.8417461663,-92281.74,-50092.49,-20502.523,-4730.4688,-58836.633,-40239.098,-37726.32,-42039.55
968099.8457461649,-92276.9,-50084.188,-20494.223,-4728.0273,-58833.457,-40238.08,-37724.04,-42034.098
968099.8497461635,-92277.19,-50087.85,-20492.799,-4727.2544,-58826.17,-40236.37,-37720.34,-42028.934
968099.853746162,-92271.89,-50088.867,-20495.525,-4729.37,-58829.957,-40235.637,-37720.62,-42030.926
968099.8577461606,-92273.07,-50091.473,-20499.512,-4729.8994,-58827.76,-40236.086,-37720.176,-42026.57
968099.8617461591,-92286.38,-50105.633,-20498.006,-4731.9336,-58832.03,-40234.01,-37718.387,-42025.516
968099.8657461576,-92293.42,-50117.15,-20497.314,-4736.4097,-58838.055,-40232.547,-37717.977,-42028.2
968099.8697461562,-92293.375,-50117.72,-20497.723,-4738.6475,-58846.805,-40231.406,-37713.46,-42019.656
968099.8737461547,-92309.66,-50135.54,-20501.588,-4741.6587,-58854.168,-40230.348,-37707.113,-42009.562
968099.8777461533,-92325.89,-50151.734,-20503.338,-4741.6587,-58842.004,-40229.74,-37705.65,-42013.387
968099.8817461518,-92333.26,-50154.543,-20502.076,-4737.2236,-58827.68,-40227.254,-37703.574,-42009.523
968099.8857461504,-92335.37,-50153.85,-20499.92,-4738.8105,-58826.336,-40226.727,-37702.35,-41997.52
968099.889746149,-92342.33,-50162.926,-20501.75,-4744.1816,-58837.445,-40227.297,-37703.25,-42002.402
968099.8937461475,-92351.61,-50173.22,-20500.936,-4746.948,-58848.51,-40227.215,-37701.336,-42000.164
968099.8977461461,-92361.984,-50186.402,-20500.164,-4746.867,-58849.33,-40227.5,-37696.207,-41985.72
968099.9017461446,-92377.61,-50211.02,-20496.99,-4743.449,-58843.26,-40223.88,-37692.14,-41988.445
968099.9057461432,-92396.57,-50236.043,-20493.611,-4747.5586,-58844.2,-40220.95,-37687.215,-41989.664
968099.9097461418,-92421.1,-50256.633,-20497.152,-4755.127,-58855.754,-40218.06,-37684.082,-41987.71
968099.9137461403,-92436.73,-50264.527,-20501.75,-4759.074,-58854.656,-40216.96,-37681.113,-41979.207
968099.9177461389,-92446.21,-50277.67,-20504.232,-4759.969,-58849.773,-40216.023,-37676.92,-41967.613
968099.9217461374,-92472.414,-50302.816,-20505.656,-4762.0444,-58862.715,-40214.76,-37677.45,-41973.676
968099.925746136,-92497.93,-50325.195,-20508.871,-4766.1133,-58868.777,-40212.28,-37678.55,-41972.332
968099.9297461344,-92512.05,-50332.316,-20509.766,-4769.45,-58873.902,-40211.062,-37676.027,-41959.27
968099.933746133,-92515.914,-50339.64,-20506.633,-4768.514,-58869.47,-40212.89,-37676.027,-41960.938
968099.9377461316,-92529.46,-50358.523,-20508.953,-4767.09,-58868.33,-40211.63,-37674.723,-41961.305
968099.9417461301,-92543.5,-50373.7,-20513.021,-4765.1777,-58868.86,-40210.043,-37674.113,-41964.684
968099.9457461287,-92553.96,-50379.438,-20512.654,-4769.45,-58874.797,-40209.758,-37673.055,-41954.633
968099.9497461272,-92559.734,-50383.992,-20512.533,-4773.6816,-58882.895,-40209.27,-37668.945,-41946.86
968099.9537461258,-92570.234,-50391.645,-20516.316,-4775.594,-58882.734,-40208.7,-37665.977,-41946.656
968099.9577461244,-92583.055,-50406.047,-20520.672,-4775.472,-58884.93,-40206.707,-37664.754,-41943.81
968099.9617461229,-92584.68,-50416.344,-20520.102,-4772.0947,-58879.844,-40203.86,-37665.04,-41945.477
968099.9657461215,-92589.97,-50422.65,-20521.566,-4773.3154,-58884.44,-40201.66,-37663.37,-41945.19
968099.96974612,-92597.54,-50427.613,-20524.617,-4778.198,-58898.887,-40201.5,-37660.562,-41935.547
968099.9737461186,-92603.92,-50435.14,-20525.879,-4780.6396,-58900.23,-40203.9,-37661.99,-41944.01
968099.9777461172,-92612.67,-50440.918,-20528.932,-4780.233,-58891.48,-40202.598,-37658.246,-41943.848
968099.9817461157,-92622.4,-50447.266,-20529.664,-4778.646,-58884.277,-40200.727,-37656.78,-41943.688
968099.9857461143,-92629.03,-50449.75,-20528.24,-4780.5176,-58895.266,-40200.93,-37656.902,-41938.152
968099.9897461128,-92636.805,-50455.203,-20529.5,-4784.343,-58901.816,-40200.48,-37657.227,-41939.332
968099.9937461113,-92642.984,-50462.484,-20530.559,-4785.848,-58904.258,-40198.895,-37657.676,-41948.04
968099.9977461098,-92644.94,-50465.82,-20531.047,-4786.5806,-58907.227,-40199.344,-37656.453,-41943.32
968100.0017461084,-92647.22,-50473.43,-20530.72,-4784.3833,-58905.07,-40197.43,-37654.91,-41935.184
968100.005746107,-92648.36,-50477.62,-20529.744,-4784.3833,-58897.668,-40193.645,-37651.246,-41920.535
968100.0097461055,-92652.8,-50477.215,-20531.291,-4787.6387,-58897.668,-40194.62,-37652.14,-41916.953
968100.0137461041,-92656.7,-50478.68,-20533.773,-4789.4697,-58899.742,-40194.99,-37649.21,-41916.87
968100.0177461026,-92662.766,-50484.375,-20536.215,-4791.9517,-58905.64,-40195.19,-37647.79,-41922.242
968100.0217461012,-92668.664,-50491.7,-20536.336,-4791.87,-58904.867,-40195.152,-37649.54,-41926.598
968100.0257460998,-92672.445,-50495.08,-20535.645,-4789.917,-58906.58,-40195.152,-37651.125,-41918.62
968100.0297460983,-92678.914,-50497.64,-20537.15,-4793.6606,-58911.46,-40194.54,-37649.17,-41913.168
968100.0337460969,-92681.44,-50500.816,-20537.557,-4795.614,-58908.33,-40195.07,-37650.027,-41915.73
968100.0377460954,-92680.83,-50502.727,-20535.076,-4792.7656,-58904.582,-40195.19,-37647.91,-41911.215
968100.041746094,-92684.0,-50504.438,-20532.553,-4790.039,-58897.016,-40194.297,-37645.59,-41906.496
968100.0457460926,-92687.22,-50509.688,-20532.186,-4790.283,-58895.55,-40193.93,-37649.375,-41915.324
968100.0497460911,-92694.664,-50514.527,-20536.662,-4797.2007,-58915.0,-40193.93,-37650.15,-41913.047
968100.0537460897,-92698.125,-50515.547,-20541.139,-4800.456,-58916.87,-40194.46,-37648.97,-41909.668
968100.0577460881,-92699.34,-50518.027,-20542.36,-4800.049,-58918.215,-40194.62,-37647.91,-41908.57
968100.0617460867,-92698.734,-50520.387,-20538.777,-4796.0205,-58922.16,-40194.418,-37649.008,-41915.57
968100.0657460853,-92698.85,-50522.098,-20537.03,-4795.329,-58911.83,-40191.938,-37645.67,-41910.688
968100.0697460838,-92702.15,-50524.254,-20537.965,-4800.456,-58909.305,-40192.426,-37643.516,-41905.68
968100.0737460824,-92706.55,-50527.996,-20540.283,-4803.4263,-58911.62,-40192.465,-37640.91,-41897.055
968100.0777460809,-92709.59,-50531.293,-20542.156,-4800.415,-58904.543,-40191.12,-37636.477,-41892.984
968100.0817460795,-92711.266,-50533.773,-20540.04,-4796.4277,-58905.48,-40189.902,-37633.547,-41884.727
968100.085746078,-92709.31,-50532.51,-20539.104,-4797.4043,-58910.89,-40188.64,-37632.324,-41889.895
968100.0897460766,-92714.97,-50538.574,-20543.172,-4802.409,-58918.254,-40190.758,-37632.773,-41892.496
968100.0937460752,-92724.37,-50545.74,-20547.69,-4804.5654,-58919.312,-40192.508,-37632.977,-41888.957
968100.0977460737,-92728.15,-50545.332,-20547.242,-4804.9727,-58911.906,-40190.836,-37632.0,-41887.047
968100.1017460723,-92725.51,-50544.395,-20542.645,-4800.6187,-58907.227,-40187.094,-37629.68,-41883.18
968100.1057460709,-92728.15,-50546.715,-20541.3,-4802.287,-58908.246,-40183.676,-37624.797,-41876.832
968100.1097460694,-92726.12,-50545.535,-20541.342,-4804.647,-58914.062,-40182.617,-37621.543,-41877.24
968100.113746068,-92722.086,-50544.598,-20543.172,-4803.6704,-58917.48,-40182.58,-37622.234,-41878.62
968100.1177460665,-92721.44,-50547.65,-20545.94,-4803.63,-58913.74,-40184.773,-37625.895,-41888.715
968100.121746065,-92720.38,-50549.316,-20544.23,-4802.3276,-58906.496,-40183.96,-37627.523,-41894.98
968100.1257460635,-92719.484,-50549.44,-20543.621,-4802.49,-58904.016,-40182.58,-37629.19,-41891.03
968100.1297460621,-92724.98,-50553.47,-20547.893,-4808.7974,-58901.492,-40182.742,-37631.797,-41890.75
968100.1337460607,-92729.29,-50557.82,-20550.62,-4809.9365,-58917.035,-40186.2,-37633.344,-41896.77
968100.1377460592,-92728.64,-50556.684,-20549.398,-4808.3906,-58914.758,-40185.426,-37632.652,-41897.746
968100.1417460578,-92729.78,-50557.617,-20547.975,-4804.24,-58904.785,-40184.125,-37630.168,-41889.977
968100.1457460563,-92745.12,-50572.797,-20550.13,-4806.5186,-58921.145,-40183.39,-37629.883,-41892.375
968100.1497460549,-92760.87,-50595.867,-20551.434,-4811.6865,-58931.4,-40182.13,-37628.297,-41888.836
968100.1537460535,-92745.98,-50573.324,-20543.58,-4808.431,-58919.72,-40181.03,-37626.71,-41880.574
968100.157746052,-92721.234,-50541.668,-20537.883,-4804.5654,-58902.71,-40184.816,-37632.203,-41888.59
968100.1617460506,-92729.66,-50559.45,-20537.639,-4805.0947,-58903.77,-40185.06,-37629.477,-41880.902
968100.1657460491,-92748.945,-50577.598,-20541.463,-4810.466,-58917.848,-40183.15,-37629.64,-41879.965
968100.1697460477,-92764.33,-50590.984,-20546.225,-4816.732,-58931.723,-40181.52,-37628.258,-41874.96
968100.1737460463,-92770.67,-50597.414,-20551.19,-4816.2437,-58933.15,-40182.332,-37630.74,-41882.12
968100.1777460448,-92774.82,-50598.555,-20553.67,-4814.575,-58926.8,-40183.23,-37631.266,-41885.418
968100.1817460434,-92778.37,-50603.11,-20554.973,-4810.791,-58924.24,-40184.49,-37632.895,-41891.24
968100.1857460418,-92779.016,-50602.46,-20554.443,-4812.4595,-58921.062,-40183.27,-37633.016,-41893.96
968100.1897460404,-92778.73,-50599.367,-20554.281,-4816.1216,-58926.066,-40183.023,-37634.684,-41899.58
968100.193746039,-92777.914,-50596.926,-20553.996,-4817.2607,-58926.23,-40180.504,-37632.527,-41893.15
968100.1977460375,-92775.31,-50591.72,-20553.06,-4813.1104,-58924.113,-40179.484,-37628.824,-41886.434
968100.2017460361,-92770.266,-50593.02,-20550.66,-4810.6284,-58917.402,-40178.387,-37627.645,-41887.41
968100.2057460346,-92770.305,-50597.58,-20549.684,-4814.25,-58923.016,-40179.2,-37629.234,-41887.453
968100.2097460332,-92773.234,-50597.168,-20551.025,-4817.79,-58934.246,-40180.83,-37631.188,-41883.22
968100.2137460317,-92774.91,-50597.7,-20552.205,-4816.7725,-58936.117,-40181.03,-37632.61,-41884.402
968100.2177460303,-92776.86,-50600.63,-20555.867,-4816.5283,-58929.406,-40183.88,-37635.133,-41893.96
968100.2217460289,-92781.05,-50602.254,-20557.414,-4816.5283,-58926.27,-40182.496,-37635.215,-41893.555
968100.2257460274,-92783.29,-50602.336,-20557.496,-4820.15,-58924.035,-40181.723,-37636.355,-41893.598
968100.229746026,-92783.57,-50598.918,-20556.682,-4822.1436,-58921.875,-40182.535,-37636.15,-41892.09
968100.2337460245,-92782.35,-50597.656,-20556.355,-4821.6553,-58925.17,-40182.375,-37631.51,-41878.95
968100.2377460231,-92779.83,-50599.324,-20553.02,-4818.929,-58929.04,-40181.438,-37630.496,-41885.133
968100.2417460217,-92775.68,-50596.883,-20547.16,-4816.6504,-58921.797,-40179.934,-37631.266,-41899.742
968100.2457460202,-92772.51,-50598.145,-20544.678,-4818.3594,-58920.656,-40179.527,-37631.227,-41896.04
968100.2497460187,-92771.41,-50592.695,-20546.346,-4820.2314,-58923.383,-40180.016,-37631.348,-41889.285
968100.2537460172,-92774.375,-50592.41,-20549.113,-4821.0044,-58931.805,-40180.137,-37633.26,-41890.504
968100.2577460158,-92776.33,-50596.355,-20549.072,-4821.208,-58925.375,-40180.34,-37633.87,-41888.387
968100.2617460144,-92779.625,-50603.027,-20546.63,-4819.4175,-58919.965,-40179.527,-37635.05,-41886.844
968100.2657460129,-92778.98,-50601.727,-20547.242,-4818.4814,-58926.965,-40177.41,-37634.97,-41884.44
968100.2697460115,-92777.59,-50601.645,-20550.049,-4820.638,-58928.71,-40180.016,-37639.12,-41894.168
968100.27374601,-92777.14,-50600.02,-20552.938,-4819.1733,-58926.066,-40182.742,-37643.473,-41907.555
968100.2777460086,-92779.3,-50602.05,-20552.979,-4819.4175,-58922.082,-40182.375,-37643.598,-41906.7
968100.2817460072,-92779.7,-50607.344,-20551.31,-4819.7837,-58918.824,-40178.914,-37640.543,-41894.168
968100.2857460057,-92779.99,-50607.586,-20550.375,-4821.6147,-58927.492,-40179.402,-37644.207,-41903.973
968100.2897460043,-92783.66,-50608.684,-20552.043,-4824.0967,-58940.555,-40182.21,-37645.793,-41902.75
968100.2937460028,-92786.016,-50609.703,-20551.393,-4824.463,-58932.824,-40184.164,-37648.438,-41908.33
968100.2977460014,-92786.74,-50610.273,-20551.84,-4824.5444,-58930.22,-40187.176,-37648.887,-41911.906
968100.301746,-92786.83,-50612.996,-20550.904,-4820.8823,-58932.336,-40185.67,-37646.566,-41902.547
968100.3057459985,-92786.46,-50614.504,-20547.445,-4820.1904,-58933.92,-40184.285,-37643.11,-41894.41
968100.3097459971,-92789.59,-50613.812,-20548.178,-4823.9746,-58939.617,-40183.96,-37642.824,-41898.887
968100.3137459955,-92794.07,-50613.28,-20553.467,-4826.172,-58950.32,-40183.96,-37643.516,-41901.125
968100.3177459941,-92791.875,-50612.062,-20555.055,-4823.283,-58941.203,-40184.285,-37644.168,-41906.656
968100.3217459926,-92795.17,-50614.91,-20554.932,-4821.289,-58935.63,-40184.043,-37645.71,-41908.082
968100.3257459912,-92797.734,-50615.52,-20554.77,-4823.242,-58939.82,-40185.223,-37646.324,-41903.973
968100.3297459898,-92793.664,-50613.445,-20554.402,-4826.416,-58950.117,-40186.523,-37647.22,-41903.445
968100.3337459883,-92791.79,-50611.86,-20555.623,-4826.0093,-58950.523,-40185.71,-37646.973,-41903.934
968100.3377459869,-92793.336,-50614.098,-20556.52,-4826.538,-58953.29,-40184.41,-37644.816,-41898.438
968100.3417459854,-92793.7,-50617.027,-20556.805,-4826.2534,-58948.324,-40183.594,-37645.633,-41907.39
968100.345745984,-92791.99,-50616.496,-20554.443,-4824.748,-58934.367,-40180.42,-37644.086,-41906.168
968100.3497459826,-92794.516,-50616.7,-20557.617,-4826.9043,-58943.32,-40180.094,-37643.96,-41902.832
968100.3537459811,-92799.234,-50618.29,-20559.979,-4827.352,-58945.19,-40180.22,-37645.836,-41908.938
968100.3577459797,-92795.9,-50617.188,-20557.496,-4824.504,-58941.652,-40178.508,-37646.242,-41914.715
968100.3617459782,-92795.9,-50618.125,-20556.885,-4822.2656,-58937.99,-40177.777,-37645.914,-41913.74
968100.3657459768,-92799.766,-50617.92,-20557.576,-4822.673,-58940.188,-40177.652,-37645.793,-41911.176
968100.3697459754,-92800.3,-50618.367,-20557.902,-4827.4336,-58951.17,-40181.316,-37646.566,-41909.953
968100.3737459739,-92804.24,-50628.95,-20559.123,-4828.288,-58963.504,-40183.15,-37647.055,-41904.34
968100.3777459724,-92816.66,-50648.03,-20562.012,-4829.3457,-58965.58,-40181.152,-37642.78,-41897.42
968100.3817459709,-92813.56,-50635.05,-20558.635,-4825.8467,-58948.812,-40180.504,-37643.8,-41906.008
968100.3857459695,-92794.68,-50607.547,-20555.705,-4820.964,-58938.76,-40182.047,-37649.293,-41911.38
968100.389745968,-92789.15,-50600.06,-20558.635,-4822.9575,-58944.176,-40184.082,-37652.63,-41916.344
968100.3937459666,-92792.65,-50603.516,-20560.14,-4824.382,-58946.29,-40182.617,-37649.457,-41910.035
968100.3977459652,-92796.23,-50605.715,-20561.482,-4824.0967,-58941.246,-40180.582,-37644.492,-41905.07
968100.4017459637,-92795.086,-50600.668,-20563.844,-4824.6665,-58936.08,-40180.3,-37645.184,-41909.465
968100.4057459623,-92795.17,-50598.31,-20565.064,-4825.9277,-58934.652,-40179.527,-37643.516,-41907.105
968100.4097459608,-92803.51,-50609.297,-20566.53,-4829.2646,-58939.7,-40179.117,-37641.4,-41909.02
968100.4137459594,-92807.7,-50614.258,-20568.36,-4828.9795,-58941.082,-40179.363,-37644.41,-41916.668
968100.417745958,-92804.98,-50611.86,-20569.54,-4825.9277,-58943.727,-40181.234,-37647.38,-41915.082
968100.4217459565,-92800.21,-50612.55,-20569.215,-4821.737,-58939.09,-40181.438,-37649.21,-41916.18
968100.4257459551,-92798.1,-50613.484,-20566.57,-4821.533,-58940.105,-40179.65,-37646.402,-41914.55
968100.4297459536,-92795.125,-50609.215,-20563.396,-4824.056,-58944.703,-40179.2,-37642.375,-41911.133
968100.4337459522,-92801.84,-50612.957,-20564.209,-4825.521,-58948.04,-40179.65,-37641.684,-41905.844
968100.4377459508,-92807.46,-50618.45,-20564.738,-4824.382,-58941.125,-40179.688,-37642.215,-41908.734
968100.4417459492,-92802.86,-50613.973,-20560.385,-4821.452,-58937.094,-40177.86,-37641.074,-41904.785
968100.4457459478,-92798.305,-50613.812,-20557.617,-4821.33,-58942.87,-40177.53,-37637.453,-41901.33
968100.4497459463,-92803.14,-50616.293,-20562.703,-4823.9746,-58953.9,-40176.84,-37635.62,-41903.65
968100.4537459449,-92806.64,-50616.824,-20565.674,-4824.585,-58964.195,-40176.84,-37634.156,-41906.453
968100.4577459435,-92803.836,-50615.03,-20566.773,-4824.4224,-58965.945,-40177.652,-37638.1,-41919.8
968100.461745942,-92807.46,-50622.234,-20565.838,-4822.469,-58962.16,-40175.457,-37636.07,-41910.156
968100.4657459406,-92807.87,-50624.676,-20564.453,-4823.7715,-58958.008,-40173.83,-37637.004,-41910.562
968100.4697459391,-92807.87,-50623.21,-20565.268,-4826.823,-58952.72,-40174.195,-37639.04,-41917.887
968100.4737459377,-92808.68,-50626.387,-20563.924,-4827.3926,-58952.72,-40174.277,-37638.51,-41910.523
968100.4777459363,-92805.46,-50626.387,-20564.332,-4824.463,-58954.1,-40173.83,-37637.9,-41912.19
968100.4817459348,-92801.805,-50627.2,-20562.703,-4819.743,-58945.68,-40170.98,-37635.62,-41907.84
968100.4857459334,-92804.65,-50628.34,-20560.344,-4824.382,-58952.395,-40168.582,-37632.652,-41908.773
968100.4897459319,-92808.8,-50627.484,-20562.582,-4827.5146,-58960.41,-40168.094,-37629.355,-41910.77
968100.4937459305,-92811.85,-50626.75,-20564.453,-4825.4805,-58953.004,-40168.05,-37629.273,-41914.51
968100.497745929,-92813.4,-50629.395,-20564.209,-4823.8525,-58953.86,-40168.99,-37629.07,-41910.562
968100.5017459276,-92812.79,-50631.715,-20562.541,-4819.906,-58953.9,-40170.574,-37629.152,-41904.582
968100.505745926,-92810.51,-50631.31,-20560.873,-4816.976,-58957.03,-40171.145,-37629.152,-41908.61
968100.5097459246,-92809.53,-50628.38,-20561.727,-4819.824,-58960.33,-40170.816,-37629.723,-41903.81
968100.5137459232,-92810.63,-50629.03,-20563.314,-4820.5977,-58964.4,-40170.25,-37629.477,-41901.004
968100.5177459217,-92811.93,-50628.34,-20560.994,-4819.0513,-58957.316,-40169.15,-37627.32,-41893.066
968100.5217459203,-92817.38,-50633.71,-20563.396,-4821.6147,-58953.777,-40170.29,-37630.984,-41902.223
968100.5257459189,-92821.58,-50640.098,-20567.547,-4821.8184,-58958.984,-40171.062,-37635.945,-41909.14
968100.5297459174,-92824.34,-50639.16,-20570.15,-4823.161,-58968.02,-40172.895,-37639.73,-41911.906
968100.533745916,-92825.16,-50638.266,-20571.168,-4823.2017,-58974.367,-40175.05,-37639.895,-41915.242
968100.5377459145,-92822.72,-50637.98,-20570.436,-4822.0625,-58968.59,-40174.316,-37635.742,-41911.99
968100.5417459131,-92822.72,-50639.445,-20568.807,-4820.1094,-58960.246,-40171.957,-37631.836,-41907.105
968100.5457459117,-92821.336,-50641.316,-20565.877,-4821.167,-58961.59,-40171.875,-37632.12,-41915.652
968100.5497459102,-92819.5,-50640.42,-20569.012,-4823.8525,-58968.793,-40171.47,-37629.152,-41907.96
968100.5537459088,-92818.97,-50639.082,-20570.312,-4824.87,-58963.543,-40171.062,-37629.273,-41908.246
968100.5577459073,-92823.81,-50641.24,-20568.604,-4823.7305,-58959.8,-40171.793,-37631.797,-41919.395
968100.5617459059,-92827.31,-50645.062,-20569.133,-4823.8525,-58957.156,-40172.69,-37634.97,-41920.777
968100.5657459045,-92826.945,-50645.793,-20568.197,-4824.7886,-58969.89,-40172.895,-37637.207,-41920.74
968100.5697459029,-92831.305,-50649.09,-20570.516,-4827.4336,-58973.676,-40173.504,-37634.48,-41917.605
968100.5737459015,-92833.5,-50650.676,-20569.5,-4827.5557,-58971.64,-40173.83,-37634.766,-41918.336
968100.5777459,-92835.33,-50652.184,-20570.68,-4828.9795,-58973.27,-40176.027,-37637.98,-41927.777
968100.5817458986,-92832.32,-50651.53,-20567.994,-4824.056,-58970.625,-40175.133,-37637.86,-41923.258
968100.5857458971,-92831.71,-50653.445,-20564.209,-4823.0796,-58968.67,-40172.61,-37633.63,-41908.69
968100.5897458957,-92828.82,-50648.64,-20562.664,-4824.26,-58963.504,-40172.406,-37632.812,-41912.395
968100.5937458943,-92826.17,-50648.64,-20564.617,-4822.9575,-58962.2,-40172.566,-37634.44,-41921.67
968100.5977458928,-92826.99,-50651.816,-20567.506,-4823.9746,-58970.094,-40174.113,-37633.914,-41916.22
968100.6017458914,-92823.24,-50650.92,-20562.988,-4821.6147,-58963.055,-40173.22,-37631.754,-41915.164
968100.60574589,-92822.76,-50653.08,-20561.32,-4822.0215,-58963.586,-40172.28,-37631.31,-41921.633
968100.6097458885,-92824.14,-50653.934,-20562.42,-4823.0796,-58971.438,-40171.754,-37629.926,-41918.863
968100.6137458871,-92828.45,-50654.746,-20562.703,-4825.4395,-58979.86,-40170.004,-37627.44,-41913.74
968100.6177458856,-92830.85,-50656.78,-20562.338,-4824.585,-58978.19,-40170.98,-37630.168,-41921.875
968100.6217458842,-92828.86,-50658.0,-20562.5,-4821.6553,-58971.76,-40170.574,-37632.203,-41931.438
968100.6257458827,-92828.66,-50658.082,-20562.744,-4822.0215,-58968.63,-40170.656,-37631.51,-41919.477
968100.6297458813,-92829.02,-50657.227,-20564.82,-4824.87,-58978.516,-40171.227,-37630.496,-41911.906
968100.6337458797,-92832.52,-50660.81,-20568.074,-4828.6543,-58984.418,-40171.47,-37632.082,-41912.19
968100.6377458783,-92840.5,-50667.605,-20571.045,-4827.9624,-58979.25,-40172.895,-37634.074,-41922.69
968100.6417458769,-92840.91,-50664.918,-20570.15,-4824.585,-58970.99,-40173.055,-37633.75,-41920.41
968100.6457458754,-92827.11,-50648.152,-20565.633,-4825.7246,-58970.38,-40175.54,-37636.637,-41916.992
968100.649745874,-92822.31,-50644.777,-20564.453,-4826.416,-58977.094,-40177.29,-37640.26,-41930.707
968100.6537458726,-92826.17,-50648.848,-20568.645,-4827.3115,-58977.867,-40177.938,-37641.195,-41939.168
968100.6577458711,-92829.8,-50653.363,-20571.127,-4827.4336,-58980.797,-40175.984,-37637.492,-41928.63
968100.6617458697,-92831.26,-50654.867,-20569.256,-4826.335,-58974.164,-40173.42,-37634.81,-41926.516
968100.6657458682,-92831.71,-50652.06,-20567.586,-4826.823,-58965.66,-40172.77,-37633.914,-41923.465
968100.6697458668,-92833.01,-50652.59,-20569.256,-4828.939,-58969.605,-40172.08,-37633.14,-41923.953
968100.6737458654,-92839.93,-50655.6,-20572.877,-4831.8687,-58971.477,-40172.566,-37631.836,-41918.336
968100.6777458639,-92840.945,-50656.902,-20572.389,-4831.299,-58970.95,-40171.43,-37630.94,-41915.934
968100.6817458625,-92839.48,-50657.84,-20569.295,-4827.3115,-58962.402,-40170.41,-37632.73,-41925.984
968100.685745861,-92843.914,-50659.547,-20569.295,-4827.352,-58963.707,-40170.695,-37634.117,-41929.363
968100.6897458596,-92847.945,-50659.63,-20573.406,-4828.9795,-58971.723,-40172.527,-37635.457,-41925.945
968100.6937458582,-92847.86,-50659.508,-20579.06,-4831.2583,-58973.227,-40174.03,-37638.1,-41930.582
968100.6977458566,-92847.58,-50659.547,-20580.078,-4829.834,-58967.043,-40175.05,-37638.348,-41930.582
968100.7017458552,-92848.266,-50658.57,-20576.62,-4826.091,-58960.29,-40173.87,-37635.785,-41927.98
968100.7057458537,-92847.336,-50656.617,-20575.887,-4827.0264,-58969.08,-40172.895,-37633.707,-41923.953
968100.7097458523,-92846.36,-50656.293,-20577.148,-4829.59,-58977.418,-40174.113,-37631.836,-41919.92
968100.7137458508,-92842.86,-50654.5,-20576.54,-4831.299,-58973.39,-40173.586,-37632.773,-41922.12
968100.7177458494,-92841.31,-50656.09,-20574.3,-4829.753,-58970.01,-40172.77,-37633.79,-41922.977
968100.721745848,-92843.8,-50661.258,-20574.83,-4829.061,-58966.637,-40171.47,-37636.598,-41929.363
968100.7257458465,-92845.91,-50661.785,-20576.62,-4828.491,-58975.305,-40170.453,-37639.445,-41931.52
968100.7297458451,-92848.59,-50660.688,-20578.94,-4833.7812,-58981.164,-40173.137,-37643.15,-41933.676
968100.7337458436,-92850.71,-50661.418,-20579.793,-4836.711,-58990.93,-40175.54,-37644.086,-41939.902
968100.7377458422,-92849.77,-50661.297,-20577.352,-4832.5195,-58991.293,-40175.17,-37641.195,-41936.688
968100.7417458408,-92842.57,-50656.414,-20574.342,-4830.078,-58977.906,-40172.77,-37635.867,-41925.62
968100.7457458393,-92838.75,-50655.113,-20570.068,-4831.3804,-58973.43,-40169.84,-37631.31,-41916.504
968100.7497458379,-92838.914,-50655.152,-20569.744,-4832.601,-58977.54,-40169.434,-37633.016,-41916.79
968100.7537458364,-92842.33,-50657.555,-20573.445,-4832.235,-58980.633,-40170.125,-37634.44,-41917.562
968100.757745835,-92843.67,-50654.99,-20576.62,-4831.828,-58977.867,-40169.516,-37635.297,-41921.633
968100.7617458334,-92844.04,-50655.273,-20576.945,-4831.0957,-58973.676,-40168.133,-37636.23,-41922.28
968100.765745832,-92847.25,-50657.27,-20575.725,-4834.5947,-58966.105,-40168.133,-37634.36,-41914.188
968100.7697458306,-92847.414,-50655.64,-20576.945,-4836.3853,-58965.66,-40170.453,-37635.01,-41910.605
968100.7737458291,-92846.44,-50654.543,-20576.457,-4834.1475,-58966.555,-40170.74,-37637.492,-41917.277
968100.7777458277,-92843.875,-50655.113,-20575.643,-4833.822,-58973.066,-40172.61,-37642.09,-41928.793
968100.7817458262,-92841.15,-50656.82,-20573.242,-4829.183,-58966.84,-40173.18,-37640.953,-41929.89
968100.7857458248,-92844.61,-50658.53,-20572.348,-4830.892,-58965.332,-40172.12,-37640.42,-41931.887
968100.7897458234,-92850.14,-50659.465,-20573.04,-4834.066,-58977.703,-40172.61,-37640.543,-41924.03
968100.7937458219,-92854.25,-50659.465,-20572.266,-4836.1006,-58978.844,-40174.074,-37643.68,-41932.008
968100.7977458205,-92855.1,-50661.38,-20575.154,-4834.432,-58972.047,-40176.434,-37647.34,-41939.13
968100.801745819,-92858.24,-50663.29,-20577.068,-4833.74,-58970.99,-40178.914,-37650.027,-41933.023
968100.8057458176,-92857.42,-50661.094,-20574.666,-4832.9673,-58973.43,-40177.246,-37647.867,-41927.98
968100.8097458162,-92854.58,-50663.21,-20572.062,-4833.2114,-58974.043,-40175.906,-37646.324,-41929.08
968100.8137458147,-92859.13,-50665.69,-20575.154,-4835.0425,-58988.0,-40175.906,-37646.402,-41928.914
968100.8177458133,-92862.63,-50669.516,-20578.451,-4835.49,-58978.8,-40176.473,-37647.867,-41938.56
968100.8217458118,-92860.15,-50671.145,-20576.172,-4834.1475,-58962.973,-40175.418,-37648.355,-41939.13
968100.8257458103,-92857.79,-50669.965,-20575.807,-4835.6934,-58968.996,-40174.277,-37645.71,-41929.324
968100.8297458088,-92853.56,-50666.707,-20574.992,-4836.792,-58968.59,-40175.008,-37643.395,-41920.125
968100.8337458074,-92860.96,-50666.992,-20578.857,-4837.8906,-58967.695,-40175.17,-37645.062,-41929.16
968100.837745806,-92866.414,-50668.094,-20579.713,-4838.501,-58966.72,-40174.93,-37647.176,-41935.793
968100.8417458045,-92864.586,-50668.094,-20577.516,-4835.083,-58955.85,-40173.79,-37647.34,-41938.926
968100.8457458031,-92864.75,-50669.72,-20576.742,-4836.914,-58966.39,-40171.875,-37650.516,-41944.254
968100.8497458016,-92865.36,-50672.04,-20577.23,-4839.7217,-58977.133,-40172.16,-37649.21,-41935.387
968100.8537458002,-92867.59,-50672.977,-20577.557,-4837.036,-58980.676,-40172.28,-37647.867,-41932.984
968100.8577457988,-92861.05,-50669.312,-20574.83,-4835.531,-58970.094,-40174.48,-37649.66,-41933.84
968100.8617457973,-92850.914,-50662.76,-20572.713,-4829.631,-58955.566,-40175.375,-37646.65,-41930.016
968100.8657457959,-92850.47,-50662.52,-20574.463,-4831.543,-58958.703,-40177.29,-37648.926,-41944.094
968100.8697457945,-92857.14,-50665.652,-20576.62,-4836.1816,-58965.05,-40178.223,-37650.027,-41941.45
968100.873745793,-92863.33,-50668.703,-20580.201,-4840.088,-58969.77,-40178.793,-37649.09,-41939.58
968100.8777457916,-92866.984,-50670.004,-20581.258,-4841.268,-58978.844,-40178.793,-37649.54,-41936.363
968100.8817457901,-92869.34,-50670.695,-20581.014,-4837.362,-58989.91,-40176.72,-37650.188,-41937.95
968100.8857457887,-92870.98,-50672.363,-20580.73,-4836.467,-58985.027,-40174.48,-37650.066,-41937.867
968100.8897457871,-92870.77,-50672.773,-20581.951,-4839.4775,-58985.027,-40172.16,-37646.28,-41934.652
968100.8937457857,-92869.39,-50670.94,-20584.758,-4838.3384,-58975.465,-40170.656,-37643.637,-41934.855
968100.8977457843,-92872.195,-50672.566,-20585.693,-4838.7046,-58971.844,-40171.43,-37643.8,-41935.1
968100.9017457828,-92876.02,-50675.293,-20584.352,-4838.542,-58972.414,-40171.59,-37643.516,-41931.844
968100.9057457814,-92870.0,-50670.086,-20580.525,-4836.2227,-58971.723,-40169.84,-37644.33,-41933.88
968100.9097457799,-92867.88,-50667.402,-20580.69,-4839.0303,-58975.668,-40169.23,-37643.84,-41936.566
968100.9137457785,-92872.97,-50670.695,-20584.473,-4840.9834,-58978.723,-40168.62,-37644.29,-41934.41
968100.917745777,-92870.52,-50671.227,-20583.172,-4840.576,-58974.367,-40169.883,-37644.45,-41931.6
968100.9217457756,-92864.34,-50669.027,-20579.834,-4838.0127,-58962.89,-40166.465,-37641.48,-41923.746
968100.9257457742,-92859.055,-50666.06,-20577.352,-4838.094,-58959.92,-40167.97,-37642.62,-41925.496
968100.9297457727,-92862.305,-50665.895,-20578.41,-4842.611,-58967.164,-40172.49,-37645.02,-41927.777
968100.9337457713,-92866.945,-50666.586,-20581.014,-4843.913,-58979.13,-40174.645,-37642.742,-41929.688
968100.9377457699,-92865.484,-50664.473,-20581.422,-4841.5527,-58972.13,-40173.91,-37640.707,-41928.266
968100.9417457684,-92862.836,-50663.74,-20576.824,-4836.67,-58974.246,-40171.957,-37637.98,-41927.938
968100.945745767,-92864.664,-50663.617,-20576.092,-4836.7515,-58974.977,-40171.145,-37636.19,-41917.645
968100.9497457655,-92861.53,-50662.598,-20575.643,-4837.3213,-58977.094,-40170.86,-37636.68,-41923.34
968100.953745764,-92858.28,-50660.035,-20574.383,-4837.728,-58972.863,-40170.41,-37634.277,-41924.97
968100.9577457625,-92858.52,-50655.723,-20577.23,-4835.449,-58963.91,-40170.9,-37637.574,-41934.164
968100.9617457611,-92859.87,-50653.363,-20579.102,-4832.723,-58959.473,-40170.94,-37637.9,-41929.73
968100.9657457597,-92858.93,-50654.055,-20579.305,-4836.792,-58964.03,-40169.883,-37637.82,-41925.824
968100.9697457582,-92862.96,-50653.85,-20581.463,-4839.5186,-58953.695,-40171.305,-37641.48,-41928.426
968100.9737457568,-92865.766,-50653.035,-20582.195,-4838.2163,-58959.516,-40172.324,-37644.98,-41927.125
968100.9777457553,-92866.055,-50650.312,-20580.648,-4835.775,-58961.55,-40172.934,-37648.355,-41935.914
968100.9817457539,-92870.77,-50653.523,-20582.52,-4832.723,-58950.523,-40170.168,-37647.46,-41939.496
968100.9857457525,-92892.625,-50670.29,-20590.414,-4837.6875,-58957.805,-40166.63,-37642.824,-41925.7
968100.989745751,-92897.55,-50678.305,-20590.291,-4842.407,-58975.02,-40167.117,-37641.848,-41921.633
968100.9937457496,-92873.66,-50663.777,-20583.252,-4841.5527,-58973.797,-40168.824,-37643.23,-41928.957
968100.9977457481,-92872.97,-50657.84,-20582.52,-4842.611,-58968.75,-40169.273,-37642.496,-41928.426
968101.0017457467,-92862.19,-50651.33,-20578.898,-4837.199,-58961.914,-40168.254,-37638.31,-41914.715
968101.0057457453,-92854.17,-50644.086,-20574.91,-4834.6763,-58968.75,-40169.84,-37639.49,-41912.477
968101.0097457438,-92853.88,-50640.992,-20574.707,-4835.9375,-58975.305,-40170.207,-37641.156,-41916.547
968101.0137457424,-92844.41,-50630.984,-20573.201,-4835.368,-58972.7,-40167.97,-37638.1,-41914.348
968101.0177457408,-92839.12,-50630.453,-20573.201,-4836.1006,-58977.297,-40169.883,-37641.36,-41929.812
968101.0217457394,-92842.45,-50637.004,-20572.592,-4834.554,-58983.4,-40168.785,-37642.496,-41927.246
968101.025745738,-92849.695,-50637.9,-20572.43,-4835.531,-58986.695,-40168.457,-37643.473,-41925.21
968101.0297457365,-92852.09,-50640.953,-20571.045,-4836.1006,-58988.242,-40168.01,-37646.12,-41934.043
968101.0337457351,-92852.26,-50645.918,-20570.312,-4834.88,-58990.44,-40168.945,-37646.445,-41935.996
968101.0377457336,-92852.38,-50648.64,-20574.383,-4833.008,-58984.945,-40167.562,-37644.938,-41924.4
968101.0417457322,-92853.27,-50652.426,-20576.54,-4831.34,-58974.977,-40165.773,-37642.703,-41922.85
968101.0457457307,-92853.234,-50648.64,-20577.148,-4834.758,-58978.844,-40166.06,-37643.11,-41920.168
968101.0497457293,-92853.48,-50646.77,-20576.172,-4839.6406,-58991.457,-40168.336,-37644.816,-41930.83
968101.0537457279,-92856.695,-50649.496,-20576.254,-4842.0005,-59001.26,-40168.62,-37646.89,-41941.812
968101.0577457264,-92858.6,-50647.258,-20576.986,-4840.1694,-58985.84,-40170.535,-37645.957,-41933.758
968101.061745725,-92859.22,-50649.457,-20577.76,-4837.2803,-58980.594,-40171.062,-37645.305,-41932.945
968101.0657457236,-92859.26,-50653.08,-20578.777,-4837.6875,-58982.63,-40168.66,-37644.777,-41932.535
968101.0697457221,-92861.17,-50651.53,-20582.113,-4841.024,-58989.504,-40168.824,-37649.375,-41942.508
968101.0737457207,-92861.25,-50651.613,-20584.514,-4841.797,-58984.133,-40168.336,-37652.75,-41951.01
968101.0777457191,-92861.9,-50653.117,-20582.56,-4840.4136,-58982.504,-40169.027,-37652.426,-41951.133
968101.0817457177,-92861.695,-50652.184,-20577.88,-4839.8438,-58991.375,-40169.23,-37651.125,-41945.23
968101.0857457162,-92863.2,-50654.34,-20578.045,-4839.5996,-58993.29,-40168.133,-37649.09,-41933.434
968101.0897457148,-92866.74,-50654.95,-20579.225,-4839.8438,-58988.49,-40166.465,-37645.793,-41929.08
968101.0937457134,-92867.88,-50654.543,-20579.793,-4840.78,-58998.78,-40166.87,-37647.95,-41936.32
968101.0977457119,-92867.39,-50654.46,-20581.34,-4842.082,-58996.707,-40168.01,-37650.31,-41939.94
968101.1017457105,-92864.664,-50654.055,-20580.73,-4838.867,-58988.203,-40166.91,-37647.46,-41934.977
968101.105745709,-92865.234,-50653.2,-20577.271,-4836.9956,-58989.625,-40164.633,-37644.004,-41936.28
968101.1097457076,-92859.375,-50646.242,-20574.178,-4839.2334,-59004.355,-40162.598,-37639.977,-41934.164
968101.1137457062,-92856.61,-50642.742,-20572.836,-4839.0303,-58997.887,-40163.37,-37639.16,-41933.27
968101.1177457047,-92858.56,-50644.492,-20575.725,-4837.5244,-58991.21,-40165.773,-37640.465,-41936.117
968101.1217457033,-92860.48,-50648.52,-20577.027,-4838.664,-58993.734,-40166.465,-37640.055,-41929.242
968101.1257457018,-92860.35,-50650.27,-20577.475,-4838.623,-59004.438,-40164.676,-37637.777,-41922.28
968101.1297457004,-92858.52,-50650.8,-20578.451,-4839.6406,-59010.133,-40164.39,-37635.945,-41912.273
968101.133745699,-92856.29,-50649.09,-20576.62,-4836.3853,-59002.81,-40164.348,-37636.598,-41919.19
968101.1377456975,-92851.445,-50643.477,-20576.213,-4836.589,-58993.29,-40163.332,-37636.15,-41927.53
968101.141745696,-92845.625,-50637.13,-20576.54,-4833.4556,-58981.164,-40162.844,-37633.79,-41924.887
968101.1457456945,-92847.66,-50634.727,-20579.346,-4833.618,-58976.93,-40162.395,-37633.586,-41920.535
968101.1497456931,-92852.26,-50633.914,-20580.73,-4836.0596,-58986.656,-40162.11,-37634.848,-41917.156
968101.1537456916,-92849.695,-50633.016,-20578.29,-4836.263,-58990.887,-40163.535,-37634.035,-41910.32
968101.1577456902,-92850.305,-50635.703,-20579.957,-4837.5654,-58981.61,-40164.062,-37631.594,-41905.07
968101.1617456888,-92848.266,-50635.215,-20577.719,-4836.2227,-58974.652,-40162.477,-37631.062,-41913.574
968101.1657456873,-92847.29,-50632.895,-20576.863,-4836.914,-58982.14,-40163.414,-37634.24,-41920.613
968101.1697456859,-92849.164,-50633.586,-20581.219,-4837.484,-58995.484,-40166.06,-37636.516,-41927.164
968101.1737456844,-92851.12,-50634.402,-20582.602,-4835.653,-58997.07,-40164.266,-37634.402,-41922.242
968101.177745683,-92849.086,-50633.63,-20583.863,-4834.554,-58990.234,-40163.453,-37635.336,-41921.59
968101.1817456816,-92849.98,-50635.176,-20587.117,-4834.1475,-58979.168,-40162.68,-37636.598,-41921.836
968101.1857456801,-92854.695,-50639.082,-20590.291,-4835.653,-58977.906,-40160.973,-37637.37,-41924.4
968101.1897456787,-92856.9,-50642.78,-20591.512,-4839.1113,-58986.74,-40161.867,-37638.875,-41928.348
968101.1937456772,-92857.1,-50643.312,-20591.553,-4839.3965,-58987.51,-40162.312,-37640.016,-41935.465
968101.1977456758,-92855.15,-50642.58,-20587.81,-4837.7686,-58987.145,-40163.82,-37639.242,-41928.223
968101.2017456744,-92853.11,-50642.375,-20582.846,-4830.404,-58982.22,-40163.86,-37639.12,-41921.145
968101.2057456728,-92853.11,-50640.625,-20579.469,-4830.2817,-58973.145,-40161.785,-37639.242,-41923.707
968101.2097456714,-92852.945,-50639.16,-20581.014,-4834.2695,-58975.18,-40161.297,-37640.543,-41932.58
968101.2137456699,-92852.54,-50639.73,-20585.49,-4835.246,-58980.062,-40162.234,-37639.934,-41930.992
968101.2177456685,-92851.73,-50644.492,-20588.826,-4835.1646,-58982.79,-40163.86,-37641.113,-41927.207
968101.221745667,-92850.71,-50647.543,-20588.42,-4832.7637,-58983.645,-40162.723,-37638.754,-41922.77
968101.2257456656,-92850.18,-50647.91,-20587.932,-4833.3335,-58985.35,-40161.582,-37636.07,-41921.47
968101.2297456642,-92849.086,-50648.152,-20588.338,-4834.4727,-58991.906,-40161.99,-37634.81,-41926.516
968101.2337456627,-92852.3,-50651.695,-20593.1,-4834.6763,-58994.184,-40162.395,-37635.824,-41931.195
968101.2377456613,-92861.53,-50659.668,-20599.691,-4833.659,-58991.984,-40164.062,-37638.145,-41928.59
968101.2417456598,-92867.15,-50669.965,-20598.227,-4829.712,-58996.055,-40164.188,-37639.324,-41927.45
968101.2457456584,-92872.68,-50672.69,-20600.3,-4832.2754,-58996.137,-40165.73,-37644.777,-41935.67
968101.249745657,-92865.84,-50657.594,-20602.906,-4833.944,-58992.395,-40168.215,-37651.125,-41941.0
968101.2537456555,-92857.266,-50648.723,-20600.871,-4832.8857,-58989.016,-40166.87,-37648.48,-41932.742
968101.2577456541,-92856.65,-50646.77,-20599.936,-4830.8105,-58986.37,-40164.754,-37643.598,-41924.03
968101.2617456526,-92853.805,-50646.77,-20594.361,-4826.091,-58980.88,-40161.99,-37641.316,-41924.723
968101.2657456512,-92852.336,-50645.59,-20593.506,-4826.701,-58979.94,-40159.508,-37641.36,-41930.625
968101.2697456497,-92850.51,-50647.137,-20596.6,-4829.1426,-58974.49,-40159.547,-37638.387,-41922.08
968101.2737456482,-92852.46,-50648.723,-20599.244,-4830.892,-58982.465,-40160.562,-37636.395,-41920.453
968101.2777456468,-92852.945,-50650.434,-20599.812,-4831.828,-58980.266,-40159.547,-37634.074,-41922.242
968101.2817456453,-92856.49,-50655.113,-20599.203,-4831.828,-58987.227,-40158.33,-37631.754,-41919.598
968101.2857456439,-92858.73,-50656.74,-20597.412,-4829.061,-58990.156,-40157.88,-37632.855,-41928.875
968101.2897456425,-92859.055,-50659.87,-20599.61,-4830.6074,-58998.008,-40159.26,-37638.754,-41939.656
968101.293745641,-92860.68,-50663.94,-20602.824,-4833.008,-59001.508,-40159.63,-37641.684,-41937.785
968101.2977456396,-92861.45,-50665.324,-20607.748,-4830.6074,-58998.414,-40158.164,-37641.562,-41933.023
968101.3017456381,-92856.98,-50662.477,-20605.916,-4827.6367,-58995.08,-40158.043,-37642.375,-41933.637
968101.3057456367,-92854.82,-50661.785,-20602.498,-4826.9043,-58987.51,-40157.88,-37641.36,-41925.254
968101.3097456353,-92861.33,-50663.13,-20606.404,-4829.3867,-58990.03,-40158.773,-37640.543,-41922.69
968101.3137456338,-92862.51,-50659.465,-20609.904,-4832.845,-59002.035,-40160.77,-37644.086,-41949.75
968101.3177456324,-92857.51,-50658.0,-20608.725,-4833.13,-58999.88,-40161.418,-37642.703,-41945.56
968101.3217456309,-92853.07,-50654.22,-20605.754,-4827.7183,-58992.637,-40158.406,-37636.8,-41933.31
968101.3257456295,-92853.72,-50654.99,-20604.736,-4827.0264,-58994.875,-40155.273,-37631.31,-41928.223
968101.329745628,-92850.79,-50652.14,-20604.736,-4826.66,-58999.23,-40152.63,-37626.793,-41923.42
968101.3337456265,-92853.234,-50650.39,-20609.375,-4828.695,-58993.777,-40152.75,-37624.473,-41921.43
968101.3377456251,-92856.2,-50653.934,-20611.857,-4828.044,-58985.273,-40152.223,-37623.66,-41921.266
968101.3417456236,-92850.18,-50653.523,-20608.887,-4824.4224,-58983.81,-40150.31,-37622.6,-41919.35
968101.3457456222,-92847.984,-50651.207,-20608.195,-4826.2534,-58986.492,-40149.293,-37621.543,-41911.906
968101.3497456207,-92847.336,-50649.09,-20609.254,-4828.532,-58992.188,-40149.902,-37622.64,-41915.445
968101.3537456193,-92850.1,-50650.39,-20610.799,-4828.8574,-58991.863,-40151.367,-37625.0,-41920.535
968101.3577456179,-92851.766,-50651.9,-20612.957,-4828.4507,-58989.87,-40150.188,-37625.69,-41924.277
968101.3617456164,-92846.84,-50651.125,-20608.357,-4825.277,-58980.227,-40144.492,-37619.59,-41916.18
968101.365745615,-92843.18,-50649.78,-20606.16,-4825.8467,-58986.29,-40142.945,-37616.09,-41908.49
968101.3697456135,-92840.87,-50647.746,-20607.342,-4827.3115,-58992.395,-40143.72,-37616.008,-41906.414
968101.3737456121,-92840.945,-50648.64,-20608.074,-4828.939,-58989.137,-40146.73,-37614.46,-41906.78
968101.3777456107,-92843.266,-50649.863,-20609.945,-4829.509,-58988.65,-40149.375,-37616.7,-41909.87
968101.3817456092,-92843.8,-50652.957,-20610.719,-4825.4805,-58985.72,-40149.414,-37617.84,-41916.383
968101.3857456078,-92845.99,-50653.65,-20610.393,-4822.8354,-58981.977,-40147.992,-37618.082,-41915.934
968101.3897456063,-92849.81,-50655.684,-20612.63,-4823.283,-58983.93,-40148.684,-37619.996,-41910.484
968101.3937456049,-92848.76,-50654.746,-20614.91,-4825.9277,-58985.56,-40147.055,-37619.1,-41910.973
968101.3977456033,-92849.0,-50656.863,-20615.723,-4828.8574,-58994.793,-40147.34,-37621.5,-41918.99
968101.4017456019,-92848.68,-50658.33,-20617.025,-4826.66,-58998.58,-40146.77,-37622.03,-41911.05
968101.4057456005,-92848.96,-50655.438,-20616.902,-4825.643,-58994.508,-40145.348,-37622.56,-41905.438
968101.409745599,-92846.03,-50651.652,-20616.902,-4826.294,-58996.137,-40146.08,-37626.71,-41920.41
968101.4137455976,-92845.42,-50650.312,-20618.328,-4825.1143,-58992.84,-40145.305,-37627.32,-41923.543
968101.4177455961,-92840.945,-50648.97,-20620.77,-4823.161,-58985.477,-40144.98,-37628.215,-41927.86
968101.4217455947,-92841.76,-50652.47,-20622.152,-4821.9404,-58983.195,-40147.055,-37631.473,-41931.6
968101.4257455933,-92840.664,-50650.39,-20620.973,-4820.4756,-58977.906,-40149.008,-37633.79,-41937.215
968101.4297455918,-92837.61,-50647.42,-20619.71,-4820.516,-58990.562,-40150.27,-37633.344,-41935.184
968101.4337455904,-92837.89,-50645.223,-20618.164,-4821.6147,-58992.598,-40151.043,-37631.715,-41927.29
968101.437745589,-92842.734,-50646.363,-20621.053,-4820.0684,-58988.28,-40150.637,-37630.25,-41926.676
968101.4417455875,-92841.72,-50647.87,-20620.729,-4816.6504,-58984.336,-40148.152,-37629.76,-41928.062
968101.4457455861,-92836.76,-50645.1,-20617.473,-4817.8306,-58980.39,-40145.426,-37627.402,-41920.33
968101.4497455846,-92840.01,-50646.406,-20620.361,-4821.859,-58979.74,-40145.836,-37627.566,-41918.457
968101.4537455832,-92836.06,-50642.375,-20620.973,-4821.208,-58981.812,-40145.426,-37628.215,-41926.15
968101.4577455817,-92834.48,-50640.504,-20619.264,-4818.4814,-58973.51,-40147.707,-37629.76,-41930.42
968101.4617455802,-92831.586,-50638.062,-20617.229,-4811.361,-58971.03,-40148.03,-37626.953,-41922.445
968101.4657455788,-92830.2,-50637.29,-20619.264,-4811.6455,-58979.168,-40148.195,-37626.59,-41918.375
968101.4697455773,-92836.59,-50640.91,-20623.332,-4814.4126,-58986.29,-40148.97,-37629.355,-41920.125
968101.4737455759,-92837.0,-50640.707,-20625.0,-4812.9478,-58981.203,-40150.797,-37631.348,-41922.69
968101.4777455744,-92833.91,-50638.47,-20623.982,-4812.134,-58977.99,-40151.33,-37633.79,-41928.55
968101.481745573,-92834.555,-50637.332,-20624.635,-4810.3843,-58976.32,-40148.152,-37630.574,-41925.742
968101.4857455716,-92835.164,-50634.156,-20623.21,-4808.9194,-58983.035,-40143.516,-37624.84,-41913.94
968101.4897455701,-92837.24,-50633.465,-20626.018,-4812.3374,-58994.184,-40140.953,-37621.91,-41906.535
968101.4937455687,-92837.28,-50631.348,-20628.5,-4812.622,-58984.215,-40140.79,-37619.875,-41912.64
968101.4977455672,-92833.414,-50628.297,-20627.768,-4811.1167,-58965.13,-40142.293,-37619.06,-41917.887
968101.5017455658,-92832.85,-50632.164,-20625.977,-4809.6113,-58955.16,-40140.586,-37618.695,-41918.094
968101.5057455644,-92838.71,-50640.547,-20627.28,-4812.0117,-58961.47,-40141.074,-37619.914,-41919.19
968101.5097455629,-92845.7,-50647.664,-20631.227,-4813.1104,-58973.31,-40140.543,-37618.367,-41921.145
968101.5137455615,-92844.81,-50639.203,-20632.61,-4812.419,-58976.32,-40141.24,-37618.246,-41921.062
968101.51774556,-92833.336,-50623.82,-20633.383,-4812.0933,-58962.934,-40141.316,-37619.754,-41914.836
968101.5217455586,-92833.414,-50623.984,-20635.254,-4812.256,-58963.746,-40141.113,-37620.566,-41909.098
968101.525745557,-92838.22,-50630.656,-20635.336,-4813.6396,-58962.402,-40142.17,-37621.297,-41911.094
968101.5297455556,-92844.32,-50633.992,-20637.574,-4814.901,-58957.727,-40141.277,-37620.117,-41909.383
968101.5337455542,-92842.25,-50631.062,-20640.219,-4813.9243,-58967.246,-40142.05,-37622.438,-41916.832
968101.5377455527,-92839.12,-50632.57,-20642.863,-4812.2153,-58971.56,-40143.758,-37627.81,-41926.15
968101.5417455513,-92841.88,-50637.37,-20644.328,-4811.7676,-58961.062,-40142.66,-37628.703,-41925.984
968101.5457455498,-92843.51,-50640.504,-20643.678,-4813.192,-58959.516,-40140.83,-37629.395,-41926.066
968101.5497455484,-92844.89,-50639.61,-20644.49,-4814.128,-58965.617,-40141.887,-37630.574,-41922.934
968101.553745547,-92845.87,-50637.617,-20650.188,-4815.4297,-58967.613,-40144.45,-37631.348,-41922.406
968101.5577455455,-92847.66,-50639.773,-20654.5,-4815.389,-58966.84,-40145.426,-37633.87,-41926.15
968101.5617455441,-92846.93,-50641.6,-20652.303,-4811.157,-58964.03,-40144.777,-37635.094,-41932.82
968101.5657455426,-92844.89,-50642.05,-20651.123,-4808.96,-58968.387,-40144.29,-37632.324,-41928.266
968101.5697455412,-92845.664,-50641.44,-20649.293,-4809.4893,-58972.25,-40142.418,-37626.426,-41919.23
968101.5737455398,-92845.42,-50641.97,-20649.861,-4812.0527,-58974.855,-40140.543,-37622.03,-41909.547
968101.5777455383,-92843.95,-50638.633,-20648.072,-4809.8555,-58970.42,-40139.406,-37622.926,-41919.312
968101.5817455369,-92843.06,-50637.168,-20647.014,-4806.885,-58962.65,-40136.23,-37622.316,-41918.906
968101.5857455354,-92843.836,-50639.324,-20646.078,-4809.7334,-58967.164,-40133.504,-37620.242,-41912.477
968101.5897455339,-92846.31,-50639.406,-20647.055,-4812.0933,-58968.305,-40131.754,-37617.027,-41905.887
968101.5937455324,-92846.88,-50638.918,-20647.87,-4811.605,-58977.54,-40131.188,-37614.91,-41912.68
968101.597745531,-92843.23,-50635.664,-20644.166,-4809.245,-58976.645,-40131.39,-37615.723,-41914.957
968101.6017455296,-92840.13,-50635.133,-20642.375,-4805.0947,-58965.496,-40130.656,-37613.973,-41907.39
968101.6057455281,-92840.336,-50634.32,-20641.154,-4804.647,-58965.13,-40130.984,-37614.098,-41905.07
968101.6097455267,-92839.64,-50631.758,-20640.748,-4805.7456,-58954.266,-40130.617,-37612.266,-41902.508
968101.6137455252,-92840.01,-50630.617,-20643.066,-4806.6406,-58957.684,-40129.56,-37609.133,-41899.254
968101.6177455238,-92842.9,-50633.465,-20649.252,-4809.6924,-58958.78,-40130.656,-37611.453,-41902.305
968101.6217455224,-92841.92,-50635.457,-20652.955,-4810.3843,-58954.957,-40130.414,-37612.02,-41896.16
968101.6257455209,-92835.164,-50633.016,-20651.896,-4809.001,-58956.953,-40126.63,-37610.8,-41894.695
968101.6297455195,-92831.914,-50631.633,-20652.303,-4811.5645,-58967.164,-40125.164,-37609.824,-41899.332
968101.633745518,-92831.055,-50629.11,-20652.588,-4814.006,-58970.867,-40123.66,-37609.457,-41903.77
968101.6377455166,-92829.555,-50629.03,-20651.246,-4812.907,-58970.703,-40125.69,-37610.555,-41904.055
968101.6417455152,-92829.15,-50630.74,-20649.373,-4809.204,-58964.48,-40125.0,-37608.887,-41893.758
968101.6457455137,-92825.28,-50629.438,-20647.258,-4806.722,-58963.3,-40123.496,-37611.125,-41902.305
968101.6497455123,-92826.5,-50627.89,-20647.625,-4808.96,-58963.22,-40124.15,-37612.062,-41901.57
968101.6537455107,-92829.23,-50627.484,-20651.814,-4811.4424,-58974.652,-40125.406,-37611.453,-41898.844
968101.6577455093,-92827.11,-50624.51,-20653.646,-4807.9834,-58969.85,-40127.645,-37614.83,-41902.63
968101.6617455079,-92824.586,-50623.414,-20651.611,-4804.7285,-58955.566,-40128.664,-37615.887,-41891.93
968101.6657455064,-92825.93,-50622.76,-20651.367,-4803.3447,-58948.12,-40127.32,-37614.42,-41882.812
968101.669745505,-92824.99,-50619.793,-20654.582,-4805.786,-58953.74,-40127.32,-37617.96,-41896.973
968101.6737455035,-92826.625,-50619.996,-20658.53,-4810.262,-58959.516,-40129.56,-37624.84,-41919.11
968101.6777455021,-92828.125,-50621.83,-20660.441,-4809.8145,-58959.312,-40129.844,-37623.25,-41911.664
968101.6817455007,-92823.49,-50615.36,-20659.018,-4807.4546,-58968.67,-40127.605,-37619.508,-41908.406
968101.6857454992,-92818.445,-50609.703,-20658.488,-4806.7627,-58975.793,-40125.0,-37619.266,-41910.77
968101.6897454978,-92813.88,-50608.36,-20658.814,-4806.0713,-58961.996,-40123.7,-37616.66,-41905.438
968101.6937454963,-92808.72,-50594.44,-20660.076,-4805.786,-58958.58,-40123.414,-37614.098,-41895.508
968101.6977454949,-92789.19,-50583.418,-20656.941,-4801.921,-58953.695,-40124.27,-37614.258,-41903.32
968101.7017454935,-92774.74,-50569.258,-20654.705,-4797.933,-58947.55,-40125.285,-37617.88,-41917.117
968101.705745492,-92769.9,-50560.47,-20653.035,-4797.2007,-58947.39,-40126.14,-37618.367,-41915.203
968101.7097454906,-92761.97,-50550.906,-20653.484,-4795.9395,-58951.457,-40127.28,-37620.934,-41915.773
968101.7137454891,-92742.07,-50531.375,-20654.744,-4794.393,-58952.355,-40132.324,-37628.215,-41923.504
968101.7177454876,-92726.28,-50516.035,-20655.396,-4791.219,-58951.66,-40134.766,-37632.527,-41927.86
968101.7217454861,-92714.32,-50502.81,-20654.46,-4787.883,-58950.81,-40134.24,-37632.203,-41929.402
968101.7257454847,-92698.33,-50482.75,-20653.158,-4784.3833,-58943.645,-40132.73,-37628.418,-41925.09
968101.7297454833,-92682.74,-50469.973,-20650.799,-4783.0,-58932.336,-40131.594,-37623.863,-41921.875
968101.7337454818,-92668.83,-50458.418,-20647.096,-4782.878,-58933.555,-40129.844,-37619.793,-41919.312
968101.7377454804,-92664.88,-50452.72,-20644.695,-4780.5176,-58931.684,-40128.543,-37616.336,-41921.348
968101.7417454789,-92660.36,-50451.457,-20644.328,-4777.873,-58925.133,-40126.996,-37613.527,-41917.277
968101.7457454775,-92655.84,-50446.535,-20647.87,-4777.385,-58934.57,-40127.035,-37616.58,-41922.445
968101.7497454761,-92647.18,-50428.223,-20651.043,-4777.5474,-58926.477,-40129.52,-37623.863,-41933.72
968101.7537454746,-92644.375,-50424.36,-20655.355,-4781.169,-58930.22,-40131.43,-37628.133,-41945.152
968101.7577454732,-92648.36,-50428.508,-20657.797,-4781.942,-58932.336,-40130.94,-37627.44,-41942.426
968101.7617454717,-92649.09,-50430.46,-20653.564,-4779.419,-58934.53,-40130.535,-37624.84,-41938.355
968101.7657454703,-92647.914,-50428.062,-20651.734,-4779.012,-58936.32,-40129.234,-37618.9,-41928.14
968101.7697454689,-92653.65,-50431.6,-20654.094,-4780.884,-58938.477,-40128.867,-37614.3,-41923.504
968101.7737454674,-92660.36,-50438.273,-20654.744,-4781.047,-58941.406,-40127.08,-37610.066,-41917.645
968101.777745466,-92671.19,-50450.277,-20658.936,-4781.494,-58943.77,-40123.984,-37602.99,-41907.227
968101.7817454644,-92678.266,-50455.65,-20658.936,-4778.3203,-58944.703,-40125.53,-37609.906,-41920.9
968101.785745463,-92679.32,-50457.848,-20657.35,-4780.4365,-58945.19,-40124.35,-37610.27,-41921.55
968101.7897454615,-92688.93,-50465.047,-20659.547,-4785.034,-58947.43,-40122.723,-37609.54,-41917.32
968101.7937454601,-92698.734,-50471.926,-20663.777,-4785.4004,-58953.535,-40124.473,-37610.066,-41915.73
968101.7977454587,-92698.53,-50474.855,-20663.209,-4782.878,-58948.367,-40124.15,-37609.906,-41909.344
968101.8017454572,-92708.09,-50484.05,-20664.836,-4783.8135,-58947.023,-40122.113,-37606.773,-41903.566
968101.8057454558,-92717.695,-50493.41,-20663.941,-4784.1797,-58949.016,-40119.1,-37602.906,-41905.113
968101.8097454543,-92725.79,-50500.53,-20666.139,-4786.296,-58953.9,-40117.92,-37603.312,-41916.87
968101.8137454529,-92737.63,-50510.297,-20674.684,-4789.7544,-58954.836,-40119.914,-37604.41,-41917.727
968101.8177454515,-92750.33,-50520.305,-20678.71,-4791.748,-58957.52,-40118.164,-37603.8,-41914.594
968101.82174545,-92760.87,-50526.855,-20679.566,-4792.928,-58953.492,-40117.23,-37602.418,-41916.87
968101.8257454486,-92768.07,-50532.555,-20682.049,-4792.318,-58954.918,-40115.723,-37603.395,-41917.36
968101.8297454471,-92774.984,-50538.535,-20682.373,-4792.1553,-58966.31,-40116.336,-37604.047,-41915.812
968101.8337454457,-92774.7,-50536.582,-20679.402,-4792.6436,-58965.254,-40117.105,-37601.97,-41910.484
968101.8377454443,-92773.28,-50534.344,-20677.775,-4788.9814,-58955.285,-40117.35,-37599.734,-41909.223
968101.8417454428,-92777.266,-50539.062,-20677.49,-4787.557,-58953.695,-40115.277,-37596.805,-41898.926
968101.8457454413,-92778.28,-50543.457,-20680.34,-4789.266,-58965.863,-40114.22,-37597.008,-41903.77
968101.8497454398,-92780.52,-50546.836,-20684.326,-4789.388,-58964.805,-40113.812,-37596.19,-41901.816
968101.8537454384,-92785.0,-50549.277,-20685.791,-4789.9985,-58965.254,-40112.754,-37601.277,-41910.117
968101.857745437,-92787.36,-50548.953,-20686.238,-4791.8296,-58964.234,-40115.805,-37603.516,-41910.484
968101.8617454355,-92786.625,-50551.066,-20684.49,-4790.08,-58955.934,-40113.324,-37597.25,-41895.508
968101.8657454341,-92787.64,-50554.04,-20685.059,-4791.1377,-58959.434,-40109.906,-37593.668,-41887.86
968101.8697454326,-92792.6,-50557.496,-20690.268,-4794.8813,-58972.656,-40110.72,-37594.566,-41891.6
968101.8737454312,-92801.27,-50563.113,-20692.83,-4798.34,-58979.047,-40108.6,-37595.5,-41900.72
968101.8777454298,-92808.11,-50567.71,-20696.453,-4798.1772,-58971.805,-40108.44,-37591.023,-41903.85
968101.8817454283,-92805.51,-50568.523,-20694.865,-4790.6904,-58963.016,-40104.617,-37583.17,-41896.85
968101.8857454269,-92806.4,-50570.152,-20695.477,-4790.5273,-58968.957,-40102.824,-37581.83,-41900.594
968101.8897454254,-92809.98,-50570.926,-20696.697,-4791.8296,-58965.21,-40104.94,-37587.04,-41899.617
968101.893745424,-92814.58,-50573.12,-20696.9,-4794.0674,-58970.95,-40105.875,-37589.113,-41899.863
968101.8977454226,-92814.62,-50573.527,-20697.021,-4793.579,-58970.785,-40105.836,-37588.543,-41896.242
968101.9017454211,-92813.73,-50575.32,-20697.795,-4792.44,-58973.555,-40103.477,-37586.71,-41887.332
968101.9057454197,-92816.49,-50576.863,-20700.154,-4795.7764,-58987.227,-40101.97,-37583.336,-41875.57
968101.9097454181,-92817.63,-50577.68,-20698.895,-4795.41,-58987.59,-40101.24,-37582.36,-41869.875
968101.9137454167,-92820.36,-50580.0,-20699.098,-4794.2305,-58982.832,-40101.605,-37580.527,-41870.363
968101.9177454152,-92821.05,-50578.086,-20703.736,-4794.3525,-58985.15,-40103.395,-37580.973,-41868.613
968101.9217454138,-92822.47,-50578.98,-20707.072,-4790.2427,-58963.664,-40105.023,-37581.83,-41863.242
968101.9257454124,-92826.87,-50585.816,-20712.158,-4791.911,-58964.316,-40106.12,-37584.39,-41864.95
968101.9297454109,-92827.35,-50586.387,-20717.814,-4793.742,-58962.566,-40104.94,-37587.85,-41875.652
968101.9337454095,-92827.6,-50586.996,-20724.121,-4796.3867,-58965.66,-40102.215,-37584.88,-41873.17
968101.937745408,-92829.76,-50588.22,-20731.69,-4797.6074,-58971.805,-40102.01,-37583.58,-41877.2
968101.9417454066,-92827.03,-50588.91,-20737.346,-4793.376,-58979.168,-40099.246,-37581.87,-41875.773
968101.9457454052,-92829.06,-50593.02,-20741.537,-4792.9688,-58980.633,-40098.594,-37581.87,-41876.18
968101.9497454037,-92832.69,-50596.03,-20746.338,-4795.6543,-58974.69,-40100.586,-37582.723,-41872.723
968101.9537454023,-92834.805,-50599.246,-20751.465,-4794.393,-58970.91,-40101.277,-37582.438,-41877.727
968101.9577454008,-92837.52,-50602.5,-20756.715,-4792.3584,-58984.54,-40102.176,-37580.812,-41875.203
968101.9617453994,-92835.01,-50603.926,-20759.318,-4788.1675,-58972.82,-40100.26,-37575.156,-41864.543
968101.965745398,-92833.375,-50603.395,-20762.492,-4786.8247,-58973.51,-40099.12,-37572.88,-41860.637
968101.9697453965,-92832.69,-50604.086,-20763.63,-4787.9233,-58978.844,-40098.43,-37571.37,-41863.566
968101.973745395,-92834.72,-50605.594,-20765.34,-4788.4116,-58976.117,-40095.664,-37567.465,-41861.777
968101.9777453935,-92834.516,-50604.29,-20766.846,-4785.5225,-58971.355,-40093.668,-37563.152,-41855.594
968101.9817453921,-92834.516,-50606.773,-20767.375,-4784.668,-58970.582,-40092.773,-37564.58,-41860.516
968101.9857453906,-92834.11,-50609.01,-20765.666,-4784.3833,-58974.043,-40090.375,-37564.25,-41859.09
968101.9897453892,-92833.984,-50608.113,-20768.31,-4784.1797,-58982.668,-40090.293,-37562.094,-41854.656
968101.9937453878,-92836.67,-50608.195,-20776.246,-4785.6445,-58992.473,-40092.164,-37562.094,-41862.875
968101.9977453863,-92834.76,-50608.6,-20781.332,-4784.302,-58997.277,-40092.855,-37563.723,-41865.887
968102.0017453849,-92832.85,-50607.465,-20784.383,-4780.3955,-58988.28,-40093.547,-37566.812,-41868.938
968102.0057453834,-92836.67,-50612.1,-20784.262,-4782.959,-58978.926,-40093.668,-37569.176,-41866.54
968102.009745382,-92839.32,-50611.816,-20784.383,-4783.366,-58982.22,-40093.63,-37567.3,-41858.48
968102.0137453806,-92838.71,-50608.81,-20786.053,-4781.25,-58987.47,-40094.08,-37568.523,-41869.344
968102.0177453791,-92838.016,-50607.586,-20786.215,-4779.3784,-58984.01,-40093.426,-37569.867,-41875.45
968102.0217453777,-92843.18,-50616.133,-20787.518,-4777.466,-58989.953,-40091.92,-37567.02,-41874.227
968102.0257453762,-92852.87,-50624.066,-20791.219,-4779.175,-58993.37,-40090.58,-37565.555,-41876.465
968102.0297453748,-92843.914,-50609.133,-20792.236,-4779.7446,-58987.184,-40090.293,-37564.414,-41874.473
968102.0337453734,-92834.516,-50599.45,-20791.992,-4777.385,-58981.082,-40091.227,-37563.76,-41876.02
968102.0377453718,-92833.54,-50601.562,-20791.83,-4773.8447,-58985.35,-40090.17,-37560.996,-41869.14
968102.0417453704,-92830.9,-50598.227,-20790.04,-4771.159,-58979.453,-40090.293,-37560.06,-41867.555
968102.0457453689,-92833.26,-50602.297,-20789.795,-4771.6475,-58979.453,-40088.34,-37560.223,-41869.754
968102.0497453675,-92833.5,-50605.43,-20788.697,-4774.211,-58982.953,-40088.785,-37561.85,-41870.973
968102.053745366,-92829.8,-50602.38,-20788.25,-4774.0073,-58984.582,-40090.17,-37563.395,-41869.67
968102.0577453646,-92835.05,-50606.855,-20791.586,-4774.455,-58986.86,-40093.18,-37564.984,-41870.363
968102.0617453632,-92837.28,-50606.895,-20789.55,-4770.0605,-58979.74,-40093.508,-37564.25,-41870.973
968102.0657453617,-92836.266,-50602.62,-20788.818,-4766.5205,-58975.06,-40090.414,-37562.703,-41873.496
968102.0697453603,-92837.734,-50604.656,-20793.58,-4769.857,-58983.523,-40089.355,-37559.773,-41868.695
968102.0737453589,-92840.82,-50606.445,-20798.625,-4773.153,-58989.707,-40091.96,-37560.71,-41864.992
968102.0777453574,-92838.22,-50604.94,-20794.922,-4772.217,-58982.383,-40090.945,-37558.797,-41863.363
968102.081745356,-92836.266,-50601.645,-20790.242,-4769.328,-58973.555,-40087.77,-37553.55,-41852.945
968102.0857453545,-92833.01,-50599.69,-20787.312,-4769.979,-58974.977,-40087.363,-37550.133,-41850.098
968102.0897453531,-92831.99,-50598.105,-20786.947,-4768.718,-58986.535,-40087.973,-37550.418,-41852.457
968102.0937453517,-92833.91,-50600.426,-20790.04,-4769.3687,-58988.12,-40088.38,-37552.37,-41852.38
968102.0977453502,-92835.414,-50601.44,-20791.18,-4768.1885,-58986.086,-40090.496,-37555.258,-41857.953
968102.1017453487,-92835.57,-50603.027,-20790.691,-4766.7236,-58984.582,-40091.715,-37557.17,-41862.43
968102.1057453472,-92837.08,-50605.715,-20787.395,-4766.4795,-58989.504,-40090.457,-37556.195,-41862.223
968102.1097453458,-92838.99,-50607.383,-20791.383,-4770.0195,-58994.348,-40091.594,-37557.254,-41861.492
968102.1137453443,-92841.35,-50608.887,-20795.045,-4771.4033,-58997.844,-40093.547,-37557.617,-41863.566
968102.1177453429,-92839.36,-50608.93,-20794.11,-4767.212,-58987.957,-40094.156,-37556.52,-41868.734
968102.1217453415,-92838.016,-50609.418,-20791.586,-4764.079,-58978.273,-40093.1,-37554.89,-41868.938
968102.12574534,-92839.73,-50611.613,-20791.79,-4766.7236,-58978.8,-40092.367,-37554.605,-41867.105
968102.1297453386,-92841.02,-50611.98,-20790.854,-4768.148,-58976.2,-40088.746,-37552.164,-41859.5
968102.1337453371,-92841.96,-50609.742,-20794.148,-4769.206,-58983.93,-40088.055,-37554.688,-41861.613
968102.1377453357,-92840.82,-50607.79,-20799.52,-4770.1416,-58995.85,-40090.008,-37557.457,-41861.492
968102.1417453343,-92839.03,-50607.22,-20797.078,-4765.503,-58993.207,-40087.973,-37555.625,-41856.324
968102.1457453328,-92835.984,-50606.49,-20793.092,-4765.869,-58998.7,-40086.14,-37550.21,-41851.44
968102.1497453314,-92830.85,-50603.273,-20789.227,-4765.503,-58995.484,-40083.7,-37547.12,-41847.13
968102.1537453299,-92826.664,-50601.32,-20790.447,-4768.3105,-58983.195,-40085.207,-37548.91,-41849.324
968102.1577453285,-92827.6,-50600.832,-20790.691,-4770.1416,-58987.633,-40087.566,-37551.676,-41849.49
968102.1617453271,-92829.555,-50602.176,-20788.656,-4765.4624,-58981.527,-40087.77,-37555.707,-41857.79
968102.1657453255,-92831.26,-50603.11,-20790.486,-4766.0728,-58974.49,-40087.77,-37558.434,-41864.83
968102.1697453241,-92832.28,-50602.664,-20792.48,-4768.1885,-58971.113,-40088.867,-37560.996,-41867.434
968102.1737453226,-92837.2,-50604.086,-20798.299,-4769.2466,-58979.332,-40089.844,-37562.99,-41866.902
968102.1777453212,-92838.914,-50604.695,-20800.13,-4766.0728,-58987.918,-40090.21,-37564.13,-41864.992
968102.1817453197,-92840.62,-50603.8,-20798.137,-4764.4043,-58992.8,-40088.625,-37563.926,-41864.3
968102.1857453183,-92838.625,-50605.145,-20798.707,-4763.1025,-58994.47,-40087.934,-37562.95,-41860.395
968102.1897453169,-92839.73,-50611.9,-20801.229,-4765.0557,-59000.367,-40088.582,-37561.93,-41860.395
968102.1937453154,-92845.42,-50621.016,-20801.678,-4768.3516,-59000.207,-40086.754,-37559.977,-41866.496
968102.197745314,-92835.78,-50608.766,-20800.293,-4765.259,-58993.777,-40086.754,-37559.773,-41865.926
968102.2017453125,-92820.92,-50592.613,-20795.29,-4758.952,-58984.01,-40086.914,-37561.81,-41869.47
968102.2057453111,-92819.87,-50590.047,-20794.312,-4759.1553,-58982.91,-40086.47,-37561.81,-41866.617
968102.2097453097,-92824.06,-50595.418,-20795.94,-4762.899,-58980.47,-40084.88,-37558.84,-41860.758
968102.2137453082,-92827.68,-50599.0,-20799.113,-4766.5205,-58981.12,-40086.266,-37557.58,-41859.78
968102.2177453068,-92825.56,-50598.797,-20803.264,-4766.5205,-58982.42,-40088.785,-37561.08,-41869.508
968102.2217453053,-92823.33,-50597.21,-20801.27,-4761.434,-58980.51,-40088.95,-37564.94,-41879.56
968102.2257453039,-92821.58,-50596.316,-20798.625,-4761.312,-58977.215,-40088.46,-37565.918,-41876.383
968102.2297453023,-92827.4,-50596.68,-20800.62,-4762.5327,-58977.418,-40088.83,-37566.285,-41876.465
968102.2337453009,-92832.52,-50598.555,-20802.49,-4763.021,-58984.5,-40090.74,-37568.2,-41874.43
968102.2377452995,-92833.83,-50600.02,-20804.484,-4762.207,-58985.312,-40092.164,-37569.785,-41874.758
968102.241745298,-92830.08,-50598.39,-20802.775,-4761.3525,-58985.23,-40090.496,-37570.68,-41882.855
968102.2457452966,-92828.125,-50598.105,-20800.334,-4762.248,-58981.367,-40086.14,-37565.31,-41871.707
968102.2497452952,-92826.91,-50597.453,-20801.107,-4761.2715,-58979.777,-40084.066,-37560.508,-41867.105
968102.2537452937,-92828.82,-50598.105,-20802.734,-4762.9395,-58982.832,-40082.926,-37557.617,-41863.12
968102.2577452923,-92830.69,-50597.617,-20802.898,-4762.8584,-58983.97,-40083.78,-37559.855,-41863.85
968102.2617452908,-92831.34,-50596.926,-20803.06,-4759.074,-58985.19,-40080.484,-37557.047,-41858.766
968102.2657452894,-92832.12,-50597.293,-20803.182,-4759.359,-58990.44,-40077.8,-37553.184,-41851.97
968102.269745288,-92833.21,-50596.6,-20802.979,-4760.5796,-58988.0,-40078.41,-37557.414,-41862.633
968102.2737452865,-92835.66,-50597.168,-20804.89,-4760.62,-58982.344,-40079.227,-37557.863,-41859.293
968102.2777452851,-92833.21,-50597.293,-20803.834,-4759.5625,-58981.324,-40080.363,-37556.926,-41858.6
968102.2817452836,-92826.7,-50590.293,-20800.457,-4754.5166,-58973.758,-40079.47,-37558.51,-41868.734
968102.2857452822,-92826.46,-50588.055,-20800.457,-4755.29,-58973.84,-40075.684,-37552.86,-41851.766
968102.2897452808,-92824.95,-50588.664,-20802.246,-4757.0396,-58976.117,-40074.75,-37549.277,-41855.875
968102.2937452792,-92820.234,-50587.73,-20803.71,-4759.4404,-58977.62,-40073.445,-37544.19,-41855.227
968102.2977452778,-92819.09,-50583.54,-20806.031,-4758.342,-58978.883,-40071.656,-37537.926,-41848.633
968102.3017452763,-92817.34,-50582.277,-20803.182,-4755.005,-58976.035,-40069.867,-37534.508,-41838.83
968102.3057452749,-92816.66,-50581.016,-20799.48,-4754.4355,-58972.94,-40067.75,-37532.227,-41834.473
968102.3097452734,-92816.81,-50582.074,-20797.486,-4755.615,-58969.65,-40069.824,-37534.426,-41835.938
968102.313745272,-92816.77,-50580.934,-20799.602,-4756.429,-58975.996,-40072.918,-37537.516,-41839.926
968102.3177452706,-92819.46,-50582.848,-20802.166,-4755.127,-58983.24,-40073.49,-37538.94,-41840.496
968102.3217452691,-92816.125,-50582.848,-20798.422,-4751.1396,-58972.617,-40072.184,-37540.04,-41840.17
968102.3257452677,-92814.01,-50582.97,-20795.248,-4750.244,-58965.54,-40072.43,-37543.418,-41847.168
968102.3297452662,-92813.88,-50582.195,-20797.04,-4751.2207,-58973.145,-40071.574,-37545.613,-41851.402
968102.3337452648,-92818.08,-50585.98,-20798.625,-4751.4243,-58970.785,-40069.54,-37546.47,-41854.13
968102.3377452634,-92822.11,-50589.64,-20802.45,-4750.814,-58975.383,-40072.31,-37551.11,-41860.68
968102.3417452619,-92816.61,-50587.324,-20801.717,-4747.396,-58973.066,-40072.594,-37551.312,-41859.17
968102.3457452605,-92817.75,-50588.22,-20800.293,-4750.0,-58980.754,-40071.168,-37548.42,-41849.773
968102.349745259,-92818.36,-50589.355,-20801.555,-4753.337,-58991.54,-40071.94,-37545.41,-41844.93
968102.3537452576,-92812.18,-50584.395,-20802.002,-4753.052,-58978.64,-40072.88,-37547.28,-41850.63
968102.357745256,-92809.49,-50583.133,-20800.375,-4751.831,-58971.965,-40070.64,-37543.62,-41841.188
968102.3617452546,-92806.484,-50584.395,-20796.266,-4749.634,-58971.113,-40068.035,-37542.727,-41838.22
968102.3657452532,-92803.63,-50584.027,-20795.98,-4749.5117,-58973.758,-40067.14,-37545.816,-41845.746
968102.3697452517,-92804.24,-50585.004,-20798.016,-4751.2617,-58976.074,-40067.547,-37545.168,-41838.055
968102.3737452503,-92805.664,-50584.8,-20800.252,-4753.9062,-58976.402,-40070.438,-37547.527,-41840.7
968102.3777452488,-92807.5,-50585.29,-20801.025,-4753.581,-58964.316,-40072.266,-37551.84,-41856.895
968102.3817452474,-92801.11,-50584.15,-20799.764,-4750.244,-58960.45,-40072.918,-37551.395,-41861.207
968102.385745246,-92795.74,-50580.812,-20795.086,-4749.8374,-58961.02,-40070.395,-37544.637,-41850.832
968102.3897452445,-92792.97,-50579.305,-20793.254,-4751.058,-58961.836,-40069.54,-37542.48,-41846.805
968102.3937452431,-92793.26,-50577.56,-20794.475,-4749.797,-58953.535,-40068.688,-37543.703,-41845.99
968102.3977452416,-92798.75,-50579.836,-20795.248,-4749.797,-58959.11,-40067.586,-37543.582,-41854.41
968102.4017452402,-92797.41,-50578.656,-20793.824,-4749.919,-58959.395,-40064.7,-37544.477,-41859.133
968102.4057452388,-92794.97,-50577.19,-20793.133,-4752.6855,-58961.914,-40062.83,-37542.766,-41847.168
968102.4097452373,-92793.22,-50577.15,-20793.58,-4752.6855,-58968.832,-40064.37,-37544.84,-41846.273
968102.4137452359,-92793.87,-50577.965,-20796.062,-4753.2554,-58964.438,-40065.594,-37545.492,-41850.547
968102.4177452344,-92796.39,-50578.98,-20800.252,-4753.2554,-58964.195,-40068.484,-37544.76,-41839.97
968102.4217452329,-92791.75,-50577.883,-20798.422,-4748.9424,-58965.008,-40069.133,-37546.836,-41847.984
968102.4257452314,-92787.56,-50575.766,-20797.242,-4748.0063,-58964.48,-40069.703,-37547.977,-41849.652
968102.42974523,-92785.52,-50573.0,-20797.404,-4748.9014,-58962.85,-40068.645,-37549.4,-41848.188
968102.4337452286,-92790.57,-50577.56,-20797.363,-4751.1396,-58961.957,-40068.117,-37551.188,-41855.227
968102.4377452271,-92802.53,-50586.836,-20800.62,-4752.279,-58974.69,-40067.832,-37551.92,-41858.848
968102.4417452257,-92803.305,-50590.496,-20798.422,-4749.227,-58977.62,-40065.594,-37553.266,-41860.84
968102.4457452242,-92784.266,-50577.68,-20792.562,-4747.396,-58967.9,-40065.555,-37555.42,-41856.082
968102.4497452228,-92782.96,-50573.445,-20792.725,-4747.8843,-58967.285,-40067.26,-37557.82,-41856.12
968102.4537452214,-92790.695,-50578.168,-20795.736,-4750.7734,-58974.33,-40069.336,-37559.043,-41856.934
968102.4577452199,-92790.695,-50576.66,-20796.998,-4748.6167,-58971.355,-40073.445,-37560.184,-41859.375
968102.4617452185,-92790.98,-50577.72,-20794.23,-4746.379,-58967.207,-40072.88,-37556.844,-41851.44
968102.465745217,-92793.13,-50582.848,-20794.312,-4748.413,-58967.45,-40071.453,-37558.797,-41854.332
968102.4697452156,-92791.914,-50580.73,-20795.41,-4745.687,-58963.098,-40069.418,-37561.32,-41862.305
968102.4737452142,-92792.24,-50577.07,-20795.857,-4746.867,-58965.008,-40067.508,-37558.88,-41859.293
968102.4777452127,-92795.05,-50575.4,-20797.16,-4749.227,-58967.53,-40068.117,-37554.688,-41851.2
968102.4817452113,-92794.92,-50573.61,-20796.143,-4745.2803,-58959.434,-40067.26,-37554.402,-41855.633
968102.4857452097,-92789.39,-50569.38,-20792.766,-4744.629,-58954.67,-40066.61,-37554.16,-41853.11
968102.4897452083,-92789.39,-50569.215,-20793.05,-4746.6636,-58957.684,-40066.49,-37551.027,-41845.906
968102.4937452069,-92790.61,-50567.668,-20794.434,-4744.995,-58963.098,-40068.32,-37550.133,-41842.773
968102.4977452054,-92790.77,-50568.117,-20795.695,-4742.5537,-58974.895,-40071.207,-37553.305,-41843.832
968102.501745204,-92793.83,-50572.31,-20798.178,-4743.9375,-58975.793,-40071.047,-37558.15,-41852.945
968102.5057452025,-92798.016,-50577.11,-20799.846,-4745.158,-58969.688,-40070.68,-37559.816,-41853.8
968102.5097452011,-92799.56,-50579.59,-20801.27,-4746.257,-58975.586,-40069.54,-37559.855,-41856.324
968102.5137451997,-92798.914,-50579.715,-20803.67,-4746.948,-58975.426,-40069.582,-37560.75,-41861.656
968102.5177451982,-92793.055,-50573.406,-20805.096,-4745.117,-58970.785,-40070.152,-37557.863,-41857.42
968102.5217451968,-92789.92,-50568.89,-20803.06,-4741.2925,-58966.105,-40069.54,-37553.266,-41854.535
968102.5257451953,-92788.82,-50570.76,-20799.846,-4743.612,-58967.004,-40067.383,-37549.887,-41846.64
968102.5297451939,-92787.805,-50572.348,-20801.025,-4745.7275,-58965.617,-40065.676,-37547.363,-41837.32
968102.5337451925,-92787.31,-50570.68,-20802.49,-4749.756,-58969.117,-40066.082,-37548.18,-41842.938
968102.537745191,-92787.31,-50568.688,-20802.816,-4745.931,-58973.715,-40068.156,-37552.86,-41853.11
968102.5417451896,-92783.37,-50567.832,-20800.822,-4739.421,-58970.95,-40067.14,-37552.734,-41842.33
968102.5457451881,-92782.555,-50567.71,-20799.602,-4739.665,-58968.996,-40066.0,-37554.527,-41849.45
968102.5497451866,-92785.2,-50565.88,-20800.537,-4740.8857,-58966.15,-40066.0,-37555.258,-41849.527
968102.5537451851,-92784.34,-50564.82,-20803.467,-4742.717,-58962.65,-40067.098,-37553.55,-41851.277
968102.5577451837,-92785.61,-50564.82,-20805.867,-4740.56,-58961.836,-40067.383,-37550.7,-41850.016
968102.5617451823,-92784.1,-50563.844,-20805.908,-4738.2,-58956.79,-40068.2,-37550.824,-41851.117
968102.5657451808,-92781.91,-50562.99,-20803.67,-4739.177,-58955.934,-40066.49,-37555.79,-41862.348
968102.5697451794,-92782.27,-50564.09,-20802.857,-4740.316,-58956.992,-40065.797,-37555.176,-41859.906
968102.573745178,-92780.03,-50562.83,-20801.27,-4740.2344,-58964.562,-40063.68,-37553.47,-41853.477
968102.5777451765,-92782.68,-50561.688,-20800.537,-4738.159,-58965.09,-40067.3,-37554.2,-41852.99
968102.5817451751,-92782.07,-50561.484,-20800.66,-4737.671,-58958.906,-40067.586,-37556.56,-41861.33
968102.5857451736,-92783.164,-50565.27,-20801.96,-4739.9497,-58967.695,-40066.0,-37555.83,-41855.145
968102.5897451722,-92786.13,-50567.508,-20802.287,-4743.408,-58969.89,-40065.188,-37556.926,-41858.562
968102.5937451707,-92784.79,-50565.023,-20801.922,-4744.1,-58958.824,-40065.43,-37556.195,-41856.812
968102.5977451693,-92788.66,-50565.473,-20803.996,-4739.99,-58959.92,-40066.895,-37555.625,-41854.086
968102.6017451679,-92785.41,-50565.105,-20801.555,-4735.4736,-58951.5,-40065.105,-37554.08,-41850.63
968102.6057451664,-92787.4,-50568.035,-20798.992,-4737.5083,-58956.87,-40064.008,-37555.38,-41853.11
968102.6097451649,-92792.97,-50571.453,-20801.473,-4740.2754,-58965.496,-40062.99,-37557.457,-41854.98
968102.6137451634,-92790.9,-50569.785,-20804.363,-4744.0186,-58973.188,-40063.805,-37556.03,-41850.71
968102.617745162,-92790.57,-50569.133,-20805.908,-4744.914,-58979.332,-40063.844,-37555.504,-41855.31
968102.6217451605,-92784.38,-50567.87,-20804.729,-4738.2812,-58969.28,-40061.605,-37551.758,-41850.504
968102.6257451591,-92780.84,-50567.098,-20801.758,-4738.607,-58963.38,-40058.473,-37547.08,-41844.727
968102.6297451577,-92776.45,-50564.008,-20799.072,-4737.8745,-58955.49,-40056.03,-37543.133,-41840.7
968102.6337451562,-92772.305,-50559.285,-20799.52,-4737.5083,-58961.387,-40056.97,-37540.242,-41839.926
968102.6377451548,-92768.4,-50556.316,-20798.422,-4737.3047,-58961.59,-40054.566,-37539.47,-41841.88
968102.6417451533,-92765.586,-50555.055,-20796.55,-4734.497,-58951.945,-40051.96,-37535.156,-41833.78
968102.6457451519,-92777.1,-50562.38,-20796.307,-4735.881,-58958.008,-40048.465,-37528.973,-41825.887
968102.6497451505,-92780.52,-50568.81,-20795.045,-4735.881,-58968.26,-40049.48,-37527.832,-41830.812
968102.653745149,-92761.11,-50559.773,-20789.062,-4733.6836,-58965.984,-40052.246,-37526.9,-41822.836
968102.6577451476,-92755.78,-50555.098,-20787.395,-4733.3174,-58967.9,-40053.47,-37526.33,-41818.44
968102.6617451461,-92759.56,-50561.363,-20786.621,-4730.3467,-58957.6,-40053.266,-37530.07,-41840.984
968102.6657451447,-92753.586,-50557.414,-20785.441,-4730.3877,-58954.918,-40051.72,-37530.926,-41840.66
968102.6697451433,-92751.914,-50555.95,-20787.8,-4731.0386,-58960.004,-40050.54,-37530.6,-41838.707
968102.6737451417,-92752.52,-50556.03,-20791.79,-4732.422,-58975.465,-40050.496,-37530.438,-41833.984
968102.6777451403,-92754.36,-50558.92,-20792.318,-4734.375,-58981.285,-40052.45,-37533.406,-41841.555
968102.6817451388,-92754.4,-50562.95,-20791.871,-4731.1606,-58969.81,-40052.652,-37533.816,-41840.984
968102.6857451374,-92754.195,-50566.977,-20792.807,-4733.6426,-58977.133,-40052.33,-37532.39,-41838.504
968102.689745136,-92756.47,-50567.426,-20793.05,-4732.707,-58975.305,-40053.348,-37533.12,-41838.664
968102.6937451345,-92757.77,-50567.71,-20794.23,-4733.6426,-58983.36,-40054.566,-37532.555,-41844.28
968102.6977451331,-92760.375,-50571.453,-20798.178,-4733.358,-58984.54,-40055.625,-37529.867,-41843.1
968102.7017451316,-92756.63,-50568.117,-20796.062,-4730.7944,-58980.47,-40053.996,-37526.773,-41837.81
968102.7057451302,-92754.36,-50566.53,-20792.115,-4730.754,-58981.04,-40050.008,-37520.914,-41831.668
968102.7097451288,-92755.78,-50568.402,-20790.65,-4732.3,-58989.34,-40050.008,-37521.2,-41827.965
968102.7137451273,-92757.66,-50567.26,-20794.598,-4735.067,-58993.816,-40053.67,-37526.207,-41827.76
968102.7177451259,-92759.28,-50569.01,-20794.76,-4735.1484,-58980.47,-40052.37,-37524.293,-41828.98
968102.7217451244,-92759.24,-50569.54,-20794.312,-4731.323,-58969.32,-40051.11,-37526.855,-41836.14
968102.725745123,-92756.06,-50568.117,-20794.637,-4730.0215,-58963.746,-40050.7,-37527.914,-41832.6
968102.7297451216,-92754.16,-50567.305,-20794.354,-4728.475,-58961.305,-40050.984,-37526.004,-41825.44
968102.7337451201,-92754.4,-50567.547,-20795.777,-4728.6787,-58970.38,-40051.758,-37525.27,-41827.68
968102.7377451186,-92752.93,-50565.88,-20794.19,-4729.9805,-58969.65,-40051.92,-37526.492,-41837.973
968102.7417451171,-92753.09,-50568.81,-20794.393,-4730.4688,-58965.984,-40049.195,-37521.65,-41831.055
968102.7457451157,-92753.625,-50569.95,-20795.248,-4730.7944,-58975.26,-40047.85,-37520.426,-41832.03
968102.7497451142,-92748.336,-50568.562,-20794.88,-4729.4517,-58980.062,-40050.336,-37523.844,-41833.58
968102.7537451128,-92750.41,-50572.188,-20796.266,-4732.422,-58969.727,-40055.176,-37526.98,-41837.934
968102.7577451114,-92752.12,-50572.957,-20793.58,-4732.015,-58976.89,-40056.64,-37529.215,-41845.01
968102.7617451099,-92746.3,-50571.37,-20788.697,-4726.0337,-58976.81,-40052.938,-37526.855,-41838.22
968102.7657451085,-92747.16,-50574.504,-20788.615,-4727.214,-58979.13,-40051.555,-37526.082,-41839.64
968102.769745107,-92750.82,-50575.605,-20790.975,-4728.9634,-58983.81,-40050.09,-37526.9,-41839.684
968102.7737451056,-92755.984,-50578.777,-20797.16,-4735.2705,-58994.184,-40052.574,-37531.902,-41847.086
968102.7777451042,-92758.55,-50578.86,-20800.496,-4735.3516,-58995.605,-40056.234,-37533.816,-41854.9
968102.7817451027,-92753.46,-50573.69,-20801.637,-4728.6377,-58978.64,-40055.83,-37531.496,-41849.61
968102.7857451013,-92748.91,-50572.957,-20798.26,-4724.813,-58979.777,-40053.875,-37524.293,-41837.402
968102.7897450998,-92746.99,-50569.38,-20795.654,-4725.057,-58970.664,-40052.9,-37519.41,-41831.137
968102.7937450984,-92741.055,-50563.844,-20793.742,-4724.243,-58965.945,-40052.53,-37515.79,-41827.19
968102.797745097,-92737.06,-50564.332,-20792.645,-4723.755,-58970.5,-40052.492,-37513.918,-41821.086
968102.8017450954,-92737.59,-50567.06,-20789.754,-4721.924,-58976.81,-40049.4,-37512.168,-41822.47
968102.805745094,-92737.51,-50567.26,-20784.1,-4721.2324,-58979.047,-40045.29,-37508.14,-41816.367
968102.8097450925,-92738.94,-50565.473,-20781.697,-4722.046,-58973.758,-40044.92,-37509.523,-41816.57
968102.8137450911,-92742.39,-50567.02,-20782.959,-4725.383,-58974.938,-40046.918,-37511.883,-41820.312
968102.8177450896,-92742.64,-50566.285,-20784.059,-4725.83,-58980.88,-40051.027,-37515.22,-41827.35
968102.8217450882,-92741.58,-50566.938,-20781.902,-4722.534,-58986.37,-40053.996,-37518.883,-41827.84
968102.8257450868,-92739.14,-50567.668,-20779.094,-4720.215,-58991.457,-40055.22,-37520.793,-41832.926
968102.8297450853,-92741.336,-50568.973,-20778.89,-4721.843,-58984.336,-40054.16,-37519.938,-41833.54
968102.8337450839,-92741.58,-50565.84,-20783.041,-4724.569,-58980.55,-40053.55,-37516.48,-41823.49
968102.8377450824,-92739.914,-50563.965,-20782.43,-4722.6562,-58978.234,-40053.47,-37516.44,-41827.477
968102.841745081,-92741.375,-50562.91,-20780.965,-4719.6045,-58970.094,-40051.516,-37519.168,-41837.117
968102.8457450796,-92740.89,-50562.094,-20777.547,-4719.7266,-58968.1,-40049.4,-37517.293,-41839.234
968102.8497450781,-92733.03,-50558.555,-20776.246,-4721.0693,-58967.613,-40047.73,-37513.797,-41829.715
968102.8537450767,-92733.6,-50556.195,-20782.879,-4724.0806,-58964.152,-40051.72,-37512.453,-41827.395
968102.8577450752,-92735.96,-50556.97,-20783.123,-4723.226,-58968.67,-40054.28,-37513.875,-41835.004
968102.8617450738,-92731.37,-50554.16,-20780.682,-4716.96,-58964.074,-40053.996,-37512.25,-41836.71
968102.8657450723,-92730.23,-50551.84,-20781.861,-4716.96,-58961.914,-40052.9,-37510.05,-41827.68
968102.8697450708,-92729.25,-50554.08,-20783.447,-4717.977,-58958.62,-40051.312,-37508.87,-41827.555
968102.8737450694,-92727.87,-50553.67,-20786.5,-4719.686,-58967.33,-40049.97,-37507.69,-41829.062
968102.8777450679,-92724.164,-50548.465,-20786.215,-4719.7266,-58973.676,-40048.465,-37505.496,-41828.004
968102.8817450665,-92723.72,-50550.703,-20781.78,-4719.6455,-58965.008,-40045.816,-37502.77,-41824.504
968102.885745065,-92725.95,-50554.688,-20777.629,-4720.5405,-58969.77,-40045.98,-37503.95,-41829.47
968102.8897450636,-92722.414,-50552.574,-20774.496,-4718.2617,-58974.855,-40046.633,-37503.5,-41826.824
968102.8937450622,-92722.58,-50552.613,-20774.293,-4719.116,-58972.453,-40047.363,-37504.438,-41826.254
968102.8977450607,-92727.664,-50555.46,-20774.7,-4720.134,-58975.668,-40046.633,-37505.656,-41829.47
968102.9017450593,-92728.72,-50557.742,-20773.764,-4717.407,-58969.32,-40042.277,-37499.96,-41825.6
968102.9057450579,-92729.58,-50558.23,-20773.193,-4719.2793,-58969.484,-40038.7,-37496.094,-41821.82
968102.9097450564,-92727.945,-50557.7,-20776.693,-4721.639,-58978.965,-40039.676,-37497.64,-41825.81
968102.913745055,-92723.43,-50554.65,-20778.973,-4722.7783,-58972.453,-40043.62,-37503.824,-41834.35
968102.9177450535,-92720.016,-50552.043,-20780.682,-4719.8486,-58967.773,-40044.15,-37506.473,-41834.88
968102.9217450521,-92720.055,-50553.062,-20779.867,-4716.2275,-58960.938,-40041.18,-37503.133,-41826.863
968102.9257450507,-92720.38,-50554.16,-20780.111,-4718.5874,-58960.45,-40041.63,-37505.82,-41823.773
968102.9297450491,-92720.79,-50554.363,-20780.111,-4721.639,-58964.48,-40042.36,-37505.168,-41822.227
968102.9337450477,-92721.6,-50555.38,-20780.64,-4720.9473,-58976.402,-40043.215,-37505.086,-41835.492
968102.9377450462,-92722.82,-50554.484,-20781.006,-4722.575,-58992.066,-40041.87,-37501.87,-41836.63
968102.9417450448,-92725.1,-50555.3,-20779.582,-4719.93,-58989.746,-40040.934,-37499.15,-41837.08
968102.9457450433,-92726.73,-50555.707,-20778.768,-4719.5234,-58974.246,-40040.0,-37498.008,-41831.746
968102.9497450419,-92725.1,-50551.15,-20777.264,-4718.506,-58974.69,-40038.37,-37496.582,-41833.78
968102.9537450405,-92723.15,-50548.79,-20778.24,-4718.913,-58979.29,-40039.633,-37496.91,-41836.47
968102.957745039,-92718.55,-50547.566,-20778.402,-4719.93,-58987.348,-40041.75,-37498.535,-41832.723
968102.9617450376,-92705.28,-50538.37,-20775.025,-4715.8203,-58964.6,-40042.074,-37500.285,-41834.88
968102.9657450361,-92698.57,-50532.105,-20774.822,-4714.1523,-58958.906,-40043.375,-37502.2,-41836.63
968102.9697450347,-92693.85,-50529.055,-20774.658,-4715.495,-58967.98,-40048.83,-37508.098,-41839.926
968102.9737450333,-92685.02,-50519.9,-20774.861,-4716.838,-58969.566,-40051.758,-37512.74,-41837.688
968102.9777450318,-92678.34,-50511.76,-20773.479,-4714.7217,-58964.887,-40054.527,-37514.324,-41841.39
968102.9817450304,-92674.52,-50511.11,-20768.066,-4709.0254,-58961.47,-40053.67,-37512.74,-41840.21
968102.985745029,-92672.57,-50508.586,-20768.393,-4710.9785,-58968.02,-40055.22,-37516.645,-41845.418
968102.9897450275,-92663.17,-50501.953,-20769.816,-4713.8267,-58965.617,-40056.723,-37520.305,-41850.504
968102.993745026,-92657.836,-50495.566,-20770.752,-4715.0474,-58955.934,-40057.457,-37521.363,-41852.254
968102.9977450245,-92654.26,-50490.805,-20770.752,-4714.803,-58955.363,-40056.723,-37521.85,-41853.64
968103.0017450231,-92645.39,-50478.152,-20766.969,-4711.141,-58956.668,-40053.67,-37520.508,-41849.734
968103.0057450216,-92631.72,-50461.387,-20762.94,-4708.5776,-58946.008,-40048.258,-37516.6,-41846.07
968103.0097450202,-92609.3,-50447.918,-20760.824,-4707.601,-58940.797,-40047.61,-37514.49,-41847.574
968103.0137450187,-92596.93,-50435.344,-20763.55,-4708.822,-58944.215,-40050.863,-37513.47,-41839.97
968103.0177450173,-92587.94,-50423.383,-20766.521,-4708.74,-58948.242,-40052.574,-37514.363,-41841.31
968103.0217450159,-92586.1,-50420.9,-20764.12,-4704.1016,-58941.367,-40053.754,-37519.9,-41860.92
968103.0257450144,-92568.04,-50402.508,-20759.521,-4700.887,-58937.664,-40055.707,-37523.562,-41862.55
968103.029745013,-92541.38,-50380.047,-20752.809,-4697.0215,-58939.414,-40059.043,-37526.53,-41858.4
968103.0337450115,-92521.81,-50364.016,-20748.982,-4694.6616,-58939.17,-40059.53,-37527.547,-41865.766
968103.0377450101,-92509.61,-50351.035,-20745.605,-4692.546,-58931.36,-40058.066,-37526.816,-41880.21
968103.0417450087,-92495.164,-50341.637,-20738.566,-4688.2734,-58918.945,-40057.375,-37524.09,-41875.57
968103.0457450072,-92491.46,-50332.48,-20733.684,-4689.1685,-58910.156,-40056.52,-37522.098,-41864.504
968103.0497450058,-92495.445,-50335.53,-20733.277,-4689.6567,-58913.496,-40055.746,-37519.004,-41857.586
968103.0537450043,-92488.69,-50333.906,-20732.87,-4690.9995,-58928.266,-40056.355,-37517.742,-41856.977
968103.0577450028,-92491.414,-50334.395,-20735.76,-4692.912,-58934.082,-40058.31,-37515.83,-41857.42
968103.0617450014,-92492.07,-50337.16,-20734.904,-4689.901,-58919.72,-40055.258,-37511.07,-41853.844
968103.0657449999,-92494.06,-50342.816,-20734.945,-4688.4766,-58918.785,-40052.45,-37505.74,-41848.715
968103.0697449985,-92495.57,-50348.555,-20732.625,-4688.436,-58920.656,-40050.906,-37504.355,-41844.44
968103.073744997,-92503.18,-50358.32,-20737.264,-4689.494,-58925.01,-40051.516,-37504.152,-41840.496
968103.0777449956,-92512.984,-50366.78,-20740.56,-4690.674,-58926.434,-40052.29,-37504.355,-41840.375
968103.0817449942,-92514.0,-50368.207,-20739.299,-4687.744,-58920.332,-40054.28,-37509.81,-41853.883
968103.0857449927,-92531.984,-50384.44,-20739.705,-4690.3486,-58914.594,-40052.246,-37509.48,-41856.61
968103.0897449913,-92544.516,-50398.64,-20739.99,-4693.8477,-58921.55,-40051.516,-37508.832,-41848.39
968103.0937449898,-92550.91,-50406.047,-20739.625,-4696.1265,-58924.766,-40052.816,-37511.56,-41844.85
968103.0977449884,-92561.16,-50415.61,-20738.363,-4697.4287,-58923.668,-40052.164,-37510.094,-41844.645
968103.101744987,-92571.05,-50427.734,-20736.531,-4694.499,-58932.336,-40048.465,-37507.61,-41845.543
968103.1057449855,-92579.305,-50437.42,-20737.225,-4697.469,-58942.63,-40045.453,-37506.473,-41846.395
968103.1097449841,-92584.31,-50447.145,-20741.902,-4702.1895,-58934.207,-40044.598,-37504.76,-41846.76
968103.1137449826,-92592.734,-50452.637,-20746.135,-4706.584,-58932.617,-40045.047,-37505.13,-41857.26
968103.1177449812,-92599.81,-50457.44,-20748.25,-4705.77,-58941.406,-40044.07,-37505.13,-41858.645
968103.1217449796,-92608.484,-50465.17,-20747.314,-4702.922,-58938.438,-40043.5,-37504.03,-41852.133
968103.1257449782,-92623.945,-50474.57,-20748.576,-4706.909,-58938.684,-40041.383,-37499.88,-41845.703
968103.1297449768,-92627.16,-50478.883,-20746.135,-4709.2285,-58944.543,-40042.117,-37499.84,-41842.45
968103.1337449753,-92627.73,-50480.145,-20746.094,-4708.659,-58946.29,-40043.418,-37501.18,-41840.7
968103.1377449739,-92632.61,-50483.035,-20746.379,-4708.374,-58943.973,-40045.37,-37501.75,-41837.04
968103.1417449724,-92635.74,-50482.625,-20743.938,-4705.0376,-58934.207,-40045.535,-37502.645,-41838.34
968103.145744971,-92631.516,-50480.633,-20741.455,-4705.648,-58936.484,-40045.29,-37504.152,-41841.84
968103.1497449696,-92636.84,-50487.957,-20741.21,-4709.3506,-58944.055,-40043.582,-37502.32,-41838.42
968103.1537449681,-92643.516,-50490.6,-20746.014,-4714.1113,-58941.49,-40043.99,-37501.832,-41835.33
968103.1577449667,-92643.68,-50493.777,-20747.518,-4715.21,-58945.76,-40046.67,-37505.008,-41842.9
968103.1617449652,-92645.23,-50498.863,-20745.361,-4711.5073,-58941.773,-40047.49,-37507.164,-41851.766
968103.1657449638,-92644.21,-50501.26,-20742.758,-4709.0254,-58940.31,-40047.69,-37506.266,-41851.645
968103.1697449624,-92647.055,-50498.902,-20741.863,-4708.537,-58939.293,-40047.895,-37507.285,-41851.848
968103.1737449609,-92657.15,-50505.293,-20747.723,-4711.9956,-58946.617,-40047.895,-37507.285,-41854.82
968103.1777449595,-92669.31,-50512.82,-20751.344,-4715.8203,-58947.39,-40046.67,-37502.727,-41849.938
968103.181744958,-92671.8,-50512.94,-20751.873,-4715.495,-58949.344,-40043.375,-37497.64,-41842.082
968103.1857449565,-92673.22,-50514.49,-20751.588,-4716.1865,-58943.727,-40040.203,-37493.45,-41829.305
968103.189744955,-92677.21,-50516.848,-20751.953,-4716.838,-58941.69,-40039.145,-37492.35,-41817.79
968103.1937449536,-92678.8,-50519.246,-20753.826,-4718.0586,-58942.547,-40040.12,-37495.973,-41834.27
968103.1977449522,-92678.305,-50516.48,-20755.615,-4717.6514,-58944.824,-40041.26,-37501.465,-41856.977
968103.2017449507,-92676.07,-50515.18,-20752.28,-4717.041,-58941.49,-40040.773,-37505.168,-41856.12
968103.2057449493,-92674.805,-50515.3,-20751.588,-4716.024,-58940.35,-40042.32,-37506.797,-41852.99
968103.2097449478,-92671.72,-50515.42,-20749.838,-4717.326,-58951.99,-40043.824,-37505.777,-41842.203
968103.2137449464,-92669.15,-50514.203,-20749.676,-4718.9536,-58959.19,-40045.004,-37505.496,-41836.1
968103.217744945,-92665.94,-50511.395,-20749.553,-4717.448,-58957.277,-40043.824,-37501.305,-41830.08
968103.2217449435,-92664.88,-50512.25,-20747.111,-4716.146,-58961.633,-40042.562,-37498.17,-41824.22
968103.2257449421,-92663.695,-50515.18,-20743.49,-4718.2617,-58954.836,-40039.715,-37497.64,-41824.625
968103.2297449406,-92668.09,-50518.23,-20744.508,-4719.6045,-58950.645,-40039.31,-37496.785,-41820.926
968103.2337449392,-92671.96,-50518.19,-20748.455,-4719.93,-58956.18,-40041.953,-37496.258,-41821.94
968103.2377449378,-92674.32,-50518.15,-20750.936,-4720.5,-58955.527,-40043.703,-37495.65,-41823.65
968103.2417449363,-92678.67,-50520.062,-20749.553,-4720.5405,-58958.703,-40042.523,-37493.695,-41818.277
968103.2457449349,-92680.016,-50525.188,-20749.35,-4721.761,-58961.145,-40041.06,-37491.13,-41817.953
968103.2497449333,-92678.63,-50526.98,-20750.488,-4721.151,-58971.68,-40040.0,-37491.457,-41823.773
968103.2537449319,-92679.32,-50525.39,-20751.1,-4722.29,-58983.035,-40040.04,-37492.312,-41822.39
968103.2577449305,-92674.234,-50521.934,-20748.17,-4722.046,-58966.027,-40040.69,-37491.008,-41820.76
968103.261744929,-92670.58,-50520.59,-20746.135,-4720.5,-58948.12,-40039.348,-37488.895,-41823.203
968103.2657449276,-92670.984,-50520.387,-20746.053,-4719.4014,-58949.383,-40037.723,-37488.08,-41819.785
968103.2697449261,-92676.35,-50522.46,-20748.332,-4721.2324,-58959.434,-40036.906,-37489.992,-41818.074
968103.2737449247,-92682.17,-50525.312,-20749.879,-4724.2026,-58967.9,-40040.652,-37493.98,-41823.04
968103.2777449233,-92682.09,-50523.97,-20749.432,-4721.5576,-58959.96,-40043.215,-37496.785,-41833.336
968103.2817449218,-92680.95,-50526.816,-20745.402,-4717.285,-58957.684,-40041.586,-37491.984,-41826.133
968103.2857449204,-92681.44,-50531.008,-20744.264,-4717.611,-58960.207,-40040.773,-37490.64,-41827.19
968103.2897449189,-92683.39,-50534.547,-20744.14,-4721.802,-58965.17,-40042.605,-37491.984,-41824.586
968103.2937449175,-92682.945,-50532.676,-20743.246,-4725.0166,-58978.76,-40045.37,-37493.45,-41827.555
968103.297744916,-92679.484,-50526.004,-20745.443,-4723.0635,-58983.4,-40045.94,-37489.176,-41826.375
968103.3017449146,-92676.516,-50530.03,-20742.635,-4718.9536,-58974.69,-40042.97,-37483.727,-41810.387
968103.3057449132,-92681.12,-50533.285,-20738.363,-4719.4014,-58970.01,-40041.344,-37479.777,-41801.11
968103.3097449117,-92680.586,-50530.723,-20735.637,-4717.448,-58974.203,-40041.668,-37481.16,-41808.84
968103.3137449102,-92680.914,-50530.273,-20739.828,-4719.808,-58979.94,-40042.48,-37483.887,-41817.75
968103.3177449087,-92695.516,-50540.855,-20744.344,-4725.6675,-58975.793,-40044.23,-37484.78,-41828.168
968103.3217449073,-92704.71,-50551.72,-20746.746,-4723.877,-58972.008,-40041.953,-37478.68,-41819.867
968103.3257449059,-92688.68,-50546.957,-20742.555,-4721.8833,-58974.57,-40041.383,-37476.81,-41815.836
968103.3297449044,-92672.2,-50530.477,-20737.469,-4716.2275,-58975.383,-40042.523,-37479.047,-41823.12
968103.333744903,-92673.14,-50523.926,-20737.996,-4718.669,-58986.004,-40045.453,-37479.656,-41826.418
968103.3377449015,-92683.35,-50531.13,-20740.967,-4722.168,-58992.96,-40047.566,-37479.207,-41822.227
968103.3417449001,-92680.055,-50529.258,-20737.06,-4717.448,-58983.727,-40044.92,-37476.97,-41822.348
968103.3457448987,-92674.56,-50526.695,-20732.707,-4718.75,-58993.816,-40045.004,-37479.332,-41834.758
968103.3497448972,-92671.39,-50523.805,-20729.86,-4720.9473,-59002.24,-40043.785,-37475.75,-41832.926
968103.3537448958,-92669.31,-50521.527,-20731.242,-4723.2666,-58999.39,-40044.027,-37475.3,-41837.527
968103.3577448943,-92667.97,-50523.234,-20729.248,-4723.877,-58992.395,-40047.363,-37476.277,-41838.543
968103.3617448929,-92665.77,-50521.242,-20727.824,-4721.1104,-58985.07,-40046.55,-37475.426,-41836.387
968103.3657448915,-92668.42,-50524.902,-20727.133,-4719.7676,-58986.453,-40045.047,-37475.668,-41834.188
968103.36974489,-92671.47,-50529.707,-20727.295,-4721.924,-58997.234,-40045.816,-37475.14,-41830.61
968103.3737448886,-92671.19,-50533.125,-20729.94,-4725.4233,-59013.227,-40045.86,-37472.168,-41822.266
968103.377744887,-92665.53,-50531.453,-20729.248,-4726.5625,-59012.207,-40044.35,-37465.25,-41811.81
968103.3817448856,-92665.33,-50530.76,-20728.8,-4724.4873,-59008.426,-40042.44,-37463.016,-41819.582
968103.3857448841,-92668.5,-50534.75,-20727.377,-4723.918,-59006.145,-40038.82,-37457.156,-41810.465
968103.3897448827,-92669.68,-50537.438,-20725.383,-4723.9585,-59009.484,-40037.68,-37457.074,-41813.438
968103.3937448813,-92670.05,-50536.582,-20731.445,-4726.4,-59015.3,-40039.348,-37460.855,-41819.094
968103.3977448798,-92666.38,-50533.895,-20732.504,-4727.458,-59015.42,-40040.773,-37463.42,-41817.098
968103.4017448784,-92667.195,-50536.5,-20730.836,-4723.2666,-59014.242,-40041.14,-37465.21,-41821.777
968103.405744877,-92671.875,-50539.43,-20729.412,-4722.1274,-59006.715,-40039.55,-37464.844,-41823.04
968103.4097448755,-92668.83,-50535.645,-20725.018,-4724.4873,-59005.58,-40039.266,-37465.13,-41828.25
968103.4137448741,-92673.67,-50537.68,-20727.54,-4729.0854,-59017.703,-40040.855,-37466.84,-41833.17
968103.4177448726,-92673.67,-50540.773,-20730.428,-4727.783,-59017.785,-40042.605,-37469.2,-41831.668
968103.4217448712,-92671.35,-50541.504,-20728.475,-4726.278,-59014.324,-40041.992,-37471.438,-41833.945
968103.4257448697,-92673.38,-50542.93,-20725.994,-4727.6206,-59017.99,-40039.348,-37470.258,-41829.836
968103.4297448683,-92671.43,-50540.812,-20723.512,-4727.051,-59014.12,-40038.453,-37467.125,-41824.098
968103.4337448669,-92670.695,-50541.06,-20724.691,-4729.818,-59016.48,-40040.445,-37466.676,-41819.418
968103.4377448654,-92670.05,-50539.39,-20724.324,-4730.062,-59025.676,-40041.668,-37465.945,-41818.402
968103.4417448639,-92666.71,-50535.93,-20722.535,-4726.644,-59024.902,-40039.31,-37460.855,-41815.51
968103.4457448624,-92667.56,-50537.19,-20720.338,-4724.7314,-59015.586,-40039.957,-37458.336,-41817.996
968103.449744861,-92666.95,-50541.14,-20715.291,-4723.755,-59012.047,-40038.004,-37453.41,-41809.977
968103.4537448596,-92668.54,-50540.527,-20716.512,-4727.458,-59009.277,-40036.38,-37451.05,-41802.004
968103.4577448581,-92668.945,-50542.074,-20719.32,-4728.1494,-59000.45,-40035.44,-37451.17,-41799.887
968103.4617448567,-92665.445,-50542.24,-20714.803,-4724.569,-58996.543,-40033.49,-37448.16,-41797.16
968103.4657448552,-92663.945,-50539.51,-20712.77,-4724.365,-58993.086,-40033.855,-37454.43,-41816.69
968103.4697448538,-92660.89,-50533.977,-20709.188,-4724.2026,-58989.258,-40034.26,-37457.113,-41821.94
968103.4737448524,-92668.055,-50537.07,-20713.299,-4728.0684,-58996.83,-40035.81,-37456.746,-41820.152
968103.4777448509,-92669.84,-50536.703,-20717.082,-4728.76,-59010.664,-40037.8,-37456.95,-41819.99
968103.4817448495,-92663.78,-50533.125,-20711.549,-4725.586,-58996.176,-40036.46,-37454.305,-41821.086
968103.485744848,-92660.16,-50531.17,-20707.887,-4725.383,-58982.832,-40033.977,-37449.832,-41812.99
968103.4897448466,-92663.984,-50530.316,-20709.92,-4725.871,-58985.07,-40032.96,-37448.69,-41810.465
968103.4937448452,-92669.555,-50534.914,-20712.973,-4730.306,-58991.17,-40035.645,-37447.594,-41810.793
968103.4977448437,-92665.81,-50532.715,-20712.402,-4729.045,-58989.707,-40038.13,-37449.586,-41815.836
968103.5017448423,-92671.35,-50536.95,-20714.275,-4729.5737,-58988.527,-40037.883,-37449.098,-41811.605
968103.5057448407,-92669.84,-50539.55,-20713.338,-4728.231,-58981.57,-40036.582,-37448.0,-41810.344
968103.5097448393,-92664.88,-50534.87,-20712.566,-4729.289,-58979.37,-40037.07,-37448.285,-41813.113
968103.5137448378,-92661.625,-50530.965,-20709.393,-4730.3877,-58981.61,-40038.7,-37445.56,-41812.83
968103.5177448364,-92658.81,-50531.047,-20705.852,-4730.6724,-58984.54,-40041.3,-37444.418,-41808.31
968103.521744835,-92655.195,-50531.902,-20699.951,-4728.5566,-58972.74,-40038.37,-37442.18,-41806.684
968103.5257448335,-92653.04,-50530.64,-20699.098,-4731.12,-58976.402,-40034.06,-37440.27,-41802.125
968103.5297448321,-92652.63,-50530.113,-20698.283,-4731.7305,-58985.76,-40034.18,-37439.656,-41801.434
968103.5337448306,-92658.86,-50532.96,-20699.504,-4732.7476,-58989.098,-40037.598,-37441.855,-41807.945
968103.5377448292,-92667.4,-50542.97,-20702.84,-4735.3516,-58994.184,-40038.535,-37443.484,-41812.95
968103.5417448278,-92674.73,-50556.887,-20701.092,-4731.4863,-58989.34,-40036.05,-37442.3,-41813.113
968103.5457448263,-92668.83,-50548.504,-20699.139,-4729.7773,-58984.215,-40036.094,-37445.76,-41826.01
968103.5497448249,-92655.93,-50531.74,-20698.324,-4730.3877,-58984.66,-40034.832,-37443.074,-41815.918
968103.5537448234,-92657.72,-50534.793,-20703.857,-4735.3516,-58993.246,-40035.156,-37439.82,-41812.703
968103.557744822,-92665.77,-50537.76,-20705.281,-4739.0547,-58996.95,-40033.285,-37435.305,-41807.457
968103.5617448206,-92665.29,-50537.11,-20704.834,-4737.2236,-58997.355,-40032.27,-37434.207,-41807.414
968103.5657448191,-92663.66,-50537.312,-20705.404,-4734.741,-58984.99,-40032.023,-37435.387,-41805.625
968103.5697448176,-92667.04,-50540.12,-20704.225,-4733.8867,-58966.758,-40031.414,-37434.33,-41794.516
968103.5737448161,-92671.875,-50540.242,-20707.479,-4738.078,-58972.453,-40034.426,-37435.06,-41795.74
968103.5777448147,-92671.266,-50537.965,-20708.863,-4737.427,-58981.652,-40037.07,-37439.008,-41816.367
968103.5817448132,-92668.09,-50539.473,-20707.805,-4733.7646,-58974.977,-40035.688,-37440.105,-41824.547
968103.5857448118,-92666.875,-50542.035,-20704.998,-4733.032,-58969.484,-40033.33,-37440.023,-41820.965
968103.5897448104,-92670.33,-50542.89,-20703.898,-4736.0435,-58972.94,-40032.105,-37438.64,-41813.52
968103.5937448089,-92675.17,-50542.645,-20705.404,-4740.7227,-58985.312,-40032.43,-37441.61,-41817.18
968103.5977448075,-92679.484,-50545.168,-20701.824,-4740.3564,-58991.133,-40032.227,-37442.547,-41821.777
968103.601744806,-92675.13,-50545.086,-20696.941,-4733.4395,-58986.492,-40031.7,-37439.656,-41819.418
968103.6057448046,-92670.945,-50545.695,-20695.15,-4732.829,-58980.023,-40031.21,-37438.723,-41817.71
968103.6097448032,-92671.35,-50548.098,-20695.557,-4732.7476,-58980.836,-40031.293,-37439.414,-41815.227
968103.6137448017,-92674.65,-50548.668,-20699.342,-4735.3516,-58980.023,-40033.043,-37440.145,-41816.734
968103.6177448003,-92675.625,-50549.848,-20700.521,-4736.5723,-58984.375,-40034.508,-37443.035,-41825.727
968103.6217447988,-92677.086,-50552.086,-20699.951,-4732.5034,-58977.62,-40032.31,-37440.594,-41823.406
968103.6257447974,-92678.305,-50553.184,-20698.486,-4731.9336,-58976.32,-40030.477,-37438.805,-41817.87
968103.629744796,-92678.76,-50552.41,-20697.877,-4734.294,-58977.133,-40029.95,-37439.656,-41818.81
968103.6337447944,-92673.18,-50542.48,-20696.492,-4736.6133,-58979.414,-40031.617,-37438.805,-41825.645
968103.637744793,-92671.19,-50536.582,-20693.807,-4734.497,-58980.754,-40032.51,-37432.902,-41820.8
968103.6417447915,-92671.59,-50536.746,-20689.168,-4730.876,-58969.605,-40032.797,-37432.21,-41820.027
968103.6457447901,-92671.555,-50536.746,-20688.355,-4731.649,-58967.855,-40032.84,-37435.344,-41819.664
968103.6497447887,-92677.05,-50541.547,-20692.059,-4734.945,-58977.824,-40033.977,-37438.03,-41819.254
968103.6537447872,-92680.99,-50548.91,-20695.15,-4738.9326,-58985.72,-40035.28,-37439.453,-41821.207
968103.6577447858,-92680.95,-50549.645,-20695.027,-4738.2,-58982.707,-40034.098,-37440.594,-41825.4
968103.6617447843,-92680.914,-50552.043,-20692.22,-4734.741,-58976.117,-40033.938,-37442.914,-41825.035
968103.6657447829,-92678.39,-50552.9,-20688.436,-4733.114,-58969.934,-40035.523,-37445.965,-41831.18
968103.6697447815,-92674.73,-50549.887,-20683.473,-4732.707,-58961.184,-40035.117,-37443.766,-41835.9
968103.67374478,-92671.43,-50551.19,-20683.229,-4734.3345,-58965.008,-40034.87,-37442.586,-41832.156
968103.6777447786,-92669.64,-50550.906,-20682.82,-4736.5723,-58966.96,-40034.14,-37440.555,-41832.848
968103.6817447771,-92669.516,-50549.195,-20682.129,-4735.0264,-58961.55,-40032.39,-37438.883,-41829.793
968103.6857447757,-92670.78,-50551.598,-20680.705,-4735.067,-58966.72,-40033.61,-37439.168,-41827.477
968103.6897447743,-92671.96,-50552.656,-20680.908,-4736.247,-58970.258,-40034.383,-37442.508,-41832.36
968103.6937447728,-92670.66,-50551.72,-20680.055,-4737.59,-58971.52,-40036.215,-37444.297,-41834.15
968103.6977447713,-92665.9,-50548.098,-20677.043,-4734.375,-58976.117,-40038.168,-37445.11,-41834.312
968103.7017447698,-92660.766,-50547.363,-20673.299,-4731.9746,-58966.676,-40037.438,-37446.94,-41834.598
968103.7057447684,-92661.22,-50548.83,-20675.213,-4734.945,-58960.246,-40034.06,-37446.004,-41830.73
968103.7097447669,-92665.86,-50553.062,-20676.148,-4737.0605,-58962.77,-40031.78,-37448.367,-41833.902
968103.7137447655,-92672.81,-50557.13,-20681.52,-4742.798,-58981.445,-40032.633,-37450.6,-41837.65
968103.717744764,-92675.625,-50558.637,-20681.805,-4743.3677,-58991.66,-40031.168,-37450.645,-41836.996
968103.7217447626,-92678.51,-50565.633,-20678.71,-4738.2812,-58986.33,-40030.355,-37452.027,-41843.59
968103.7257447612,-92678.1,-50565.39,-20675.334,-4738.7695,-58977.094,-40030.234,-37451.133,-41846.598
968103.7297447597,-92666.71,-50547.445,-20670.574,-4737.2236,-58966.758,-40032.473,-37451.54,-41843.02
968103.7337447583,-92650.31,-50533.53,-20668.457,-4734.8633,-58967.285,-40037.07,-37453.656,-41839.4
968103.7377447569,-92647.95,-50535.688,-20669.23,-4734.497,-58976.688,-40040.57,-37453.777,-41839.152
968103.7417447554,-92654.18,-50540.652,-20672.283,-4732.0967,-58977.867,-40041.344,-37457.113,-41853.19
968103.745744754,-92663.62,-50549.156,-20672.283,-4734.05,-58980.88,-40037.395,-37460.125,-41861.41
968103.7497447525,-92664.35,-50552.695,-20672.078,-4737.3047,-58973.88,-40034.508,-37459.72,-41858.24
968103.7537447511,-92668.664,-50551.68,-20673.748,-4740.56,-58980.88,-40034.75,-37456.91,-41856.977
968103.7577447497,-92670.33,-50556.277,-20677.45,-4740.2344,-58984.215,-40034.953,-37453.777,-41853.965
968103.7617447481,-92666.14,-50553.875,-20674.56,-4737.5083,-58983.562,-40033.285,-37450.24,-41855.754
968103.7657447467,-92666.914,-50554.445,-20672.16,-4736.654,-58983.035,-40030.6,-37444.05,-41845.38
968103.7697447452,-92668.26,-50555.137,-20672.771,-4739.4614,-58977.215,-40030.355,-37442.71,-41836.1
968103.7737447438,-92668.54,-50552.29,-20674.154,-4739.258,-58979.902,-40032.918,-37445.926,-41838.91
968103.7777447423,-92669.92,-50551.19,-20674.113,-4740.0312,-58978.273,-40033.734,-37447.105,-41841.92
968103.7817447409,-92670.086,-50554.402,-20672.975,-4739.095,-58971.234,-40032.918,-37449.098,-41849.527
968103.7857447395,-92669.07,-50554.2,-20670.857,-4737.793,-58970.42,-40032.96,-37451.05,-41847.617
968103.789744738,-92668.87,-50551.19,-20671.266,-4739.746,-58975.465,-40034.14,-37454.43,-41849.0
968103.7937447366,-92666.06,-50549.36,-20672.363,-4743.327,-58982.098,-40035.035,-37453.086,-41847.617
968103.7977447351,-92670.086,-50550.863,-20674.684,-4745.687,-58979.25,-40036.094,-37452.35,-41845.46
968103.8017447337,-92672.33,-50551.758,-20673.707,-4744.8325,-58971.68,-40036.582,-37454.59,-41850.223
968103.8057447323,-92673.71,-50555.3,-20674.398,-4744.1406,-58969.89,-40033.406,-37454.996,-41855.145
968103.8097447308,-92676.39,-50557.66,-20673.055,-4747.0703,-58973.918,-40031.656,-37453.656,-41857.79
968103.8137447294,-92676.92,-50557.293,-20673.137,-4750.2036,-58972.09,-40031.902,-37450.81,-41852.742
968103.817744728,-92679.69,-50560.184,-20672.322,-4749.7153,-58976.93,-40032.715,-37445.883,-41845.258
968103.8217447265,-92682.58,-50560.223,-20670.207,-4746.582,-58973.633,-40032.066,-37446.37,-41861.453
968103.825744725,-92682.5,-50560.184,-20669.312,-4744.344,-58978.234,-40029.625,-37447.633,-41866.336
968103.8297447235,-92687.83,-50562.176,-20671.225,-4748.047,-58989.953,-40029.664,-37447.266,-41857.18
968103.8337447221,-92689.78,-50557.82,-20671.63,-4749.1865,-58992.15,-40031.453,-37446.86,-41845.664
968103.8377447206,-92684.49,-50552.33,-20669.637,-4748.169,-58986.613,-40034.87,-37450.4,-41854.617
968103.8417447192,-92675.46,-50548.75,-20664.877,-4743.327,-58975.06,-40034.426,-37449.383,-41857.34
968103.8457447177,-92670.9,-50544.965,-20664.104,-4740.7637,-58972.82,-40032.023,-37447.88,-41854.13
968103.8497447163,-92673.305,-50548.34,-20664.918,-4741.9434,-58973.35,-40031.7,-37450.887,-41857.87
968103.8537447149,-92671.67,-50548.34,-20662.15,-4744.222,-58979.13,-40035.32,-37455.203,-41864.543
968103.8577447134,-92664.96,-50543.54,-20661.133,-4745.809,-58989.625,-40039.55,-37456.707,-41863.688
968103.861744712,-92659.95,-50542.402,-20656.535,-4740.2344,-58978.07,-40038.94,-37454.348,-41860.8
968103.8657447106,-92653.57,-50541.383,-20655.232,-4736.5723,-58967.855,-40036.258,-37450.93,-41857.098
968103.8697447091,-92652.266,-50541.63,-20652.873,-4737.3047,-58970.094,-40036.336,-37452.84,-41856.363
968103.8737447077,-92655.93,-50540.242,-20653.484,-4739.543,-58972.09,-40039.145,-37457.848,-41860.68
968103.8777447062,-92653.484,-50535.156,-20654.256,-4739.9497,-58975.914,-40039.957,-37456.746,-41860.84
968103.8817447048,-92653.484,-50534.59,-20653.85,-4738.1187,-58984.742,-40038.332,-37454.67,-41859.863
968103.8857447034,-92647.18,-50530.234,-20651.287,-4735.3516,-58982.383,-40035.44,-37455.406,-41861.492
968103.8897447018,-92645.305,-50529.543,-20654.176,-4738.3223,-58983.645,-40036.906,-37460.207,-41869.47
968103.8937447004,-92643.44,-50523.64,-20656.82,-4739.38,-58979.94,-40039.754,-37464.438,-41873.21
968103.8977446989,-92635.336,-50514.324,-20650.473,-4736.328,-58974.285,-40041.547,-37464.234,-41877.81
968103.9017446975,-92629.68,-50510.176,-20645.387,-4731.3643,-58964.48,-40039.105,-37460.086,-41872.438
968103.905744696,-92612.59,-50502.28,-20639.242,-4730.998,-58963.746,-40035.156,-37458.336,-41868.367
968103.9097446946,-92602.42,-50490.195,-20635.701,-4733.1953,-58970.258,-40033.895,-37457.887,-41867.96
968103.9137446932,-92592.734,-50474.406,-20638.266,-4736.206,-58969.688,-40036.297,-37460.777,-41873.617
968103.9177446917,-92581.99,-50461.71,-20639.283,-4736.9385,-58975.02,-40038.656,-37463.258,-41872.926
968103.9217446903,-92569.3,-50453.656,-20637.451,-4732.3,-58966.105,-40039.062,-37465.332,-41873.293
968103.9257446888,-92555.914,-50438.6,-20634.521,-4729.37,-58947.39,-40038.29,-37466.105,-41873.74
968103.9297446874,-92545.82,-50424.316,-20632.977,-4726.8066,-58940.715,-40040.082,-37467.734,-41872.723
968103.933744686,-92529.55,-50407.27,-20631.389,-4727.336,-58946.29,-40041.344,-37471.926,-41885.906
968103.9377446845,-92513.516,-50389.895,-20633.098,-4723.9585,-58944.258,-40043.01,-37474.324,-41893.27
968103.9417446831,-92501.67,-50376.14,-20629.559,-4721.802,-58939.863,-40042.684,-37476.035,-41892.863
968103.9457446816,-92488.57,-50366.62,-20622.885,-4721.7207,-58943.2,-40042.156,-37478.844,-41894.246
968103.9497446802,-92480.39,-50355.348,-20624.553,-4721.395,-58944.99,-40044.11,-37481.363,-41898.074
968103.9537446786,-92472.66,-50344.28,-20625.896,-4722.29,-58943.89,-40047.08,-37477.664,-41892.66
968103.9577446772,-92469.32,-50338.42,-20624.35,-4722.738,-58945.723,-40048.18,-37475.547,-41892.58
968103.9617446758,-92471.27,-50339.805,-20625.164,-4719.8896,-58937.664,-40046.875,-37477.133,-41896.242
968103.9657446743,-92474.61,-50347.984,-20624.432,-4720.5,-58935.184,-40044.35,-37476.402,-41901.45
968103.9697446729,-92479.336,-50358.035,-20623.25,-4725.586,-58943.566,-40043.945,-37476.605,-41897.746
968103.9737446714,-92472.7,-50348.797,-20624.879,-4727.58,-58946.617,-40047.16,-37483.24,-41903.688
968103.97774467,-92472.984,-50345.867,-20625.244,-4725.179,-58949.426,-40049.97,-37487.633,-41908.57
968103.9817446686,-92482.266,-50362.02,-20623.658,-4722.6973,-58941.33,-40049.684,-37485.477,-41909.87
968103.9857446671,-92488.98,-50369.832,-20619.955,-4723.0635,-58942.87,-40048.34,-37485.637,-41913.168
968103.9897446657,-92507.53,-50385.99,-20623.455,-4726.7256,-58956.953,-40047.16,-37487.266,-41913.617
968103.9937446642,-92524.336,-50400.88,-20628.582,-4730.713,-58970.582,-40045.816,-37484.375,-41907.39
968103.9977446628,-92532.76,-50406.984,-20629.518,-4732.7476,-58977.094,-40046.145,-37480.105,-41900.066
968104.0017446614,-92543.58,-50414.836,-20629.314,-4727.7427,-58966.637,-40044.68,-37476.766,-41896.812
968104.0057446599,-92551.27,-50426.27,-20627.076,-4726.888,-58966.434,-40043.703,-37473.633,-41901.164
968104.0097446585,-92557.17,-50438.68,-20627.564,-4728.4346,-58977.336,-40044.598,-37474.203,-41901.285
968104.013744657,-92566.04,-50448.04,-20629.436,-4732.829,-58982.79,-40045.656,-37476.48,-41903.727
968104.0177446555,-92573.53,-50457.234,-20627.93,-4732.015,-58975.383,-40045.125,-37473.188,-41897.258
968104.021744654,-92580.24,-50468.305,-20630.33,-4730.957,-58976.645,-40042.562,-37470.38,-41894.207
968104.0257446526,-92583.21,-50473.105,-20630.086,-4732.341,-58982.18,-40040.855,-37470.582,-41895.387
968104.0297446512,-92590.3,-50480.633,-20629.924,-4735.555,-58993.98,-40039.715,-37471.805,-41889.934
968104.0337446497,-92601.56,-50489.746,-20634.686,-4741.211,-58994.387,-40041.22,-37473.715,-41896.73
968104.0377446483,-92605.23,-50491.293,-20635.174,-4739.7056,-58986.33,-40041.87,-37472.535,-41895.508
968104.0417446468,-92604.62,-50494.957,-20630.738,-4736.084,-58981.57,-40040.49,-37471.03,-41889.49
968104.0457446454,-92611.33,-50501.387,-20626.709,-4737.2236,-58970.99,-40038.94,-37470.664,-41884.605
968104.049744644,-92615.52,-50504.316,-20627.605,-4735.6772,-58959.68,-40036.54,-37466.473,-41876.71
968104.0537446425,-92616.26,-50505.332,-20629.762,-4739.543,-58971.438,-40035.523,-37468.914,-41887.98
968104.0577446411,-92621.016,-50510.297,-20629.436,-4742.391,-58977.05,-40036.176,-37472.7,-41897.016
968104.0617446396,-92629.766,-50521.566,-20630.941,-4741.008,-58981.895,-40035.973,-37471.64,-41889.363
968104.0657446382,-92634.52,-50526.082,-20628.947,-4739.8276,-58993.695,-40034.14,-37469.93,-41884.93
968104.0697446368,-92639.53,-50533.49,-20629.639,-4741.455,-59002.93,-40033.12,-37471.477,-41900.594
968104.0737446353,-92643.15,-50538.25,-20631.756,-4744.8325,-58993.98,-40036.62,-37472.168,-41906.496
968104.0777446339,-92644.94,-50537.8,-20631.715,-4743.1235,-58995.65,-40036.867,-37468.793,-41897.83
968104.0817446323,-92643.19,-50537.883,-20628.174,-4737.264,-58998.58,-40034.71,-37466.797,-41889.566
968104.0857446309,-92642.625,-50539.39,-20624.553,-4734.05,-58993.734,-40034.26,-37468.426,-41899.78
968104.0897446295,-92645.8,-50542.89,-20626.709,-4735.759,-58990.97,-40033.895,-37471.19,-41910.484
968104.093744628,-92650.516,-50545.695,-20628.947,-4739.787,-58997.766,-40035.035,-37471.64,-41905.273
968104.0977446266,-92650.84,-50544.598,-20628.338,-4739.1357,-58997.887,-40035.77,-37473.023,-41909.344
968104.1017446251,-92654.016,-50548.79,-20625.814,-4734.375,-58993.45,-40032.758,-37471.965,-41905.113
968104.1057446237,-92655.27,-50550.293,-20625.896,-4734.7007,-58997.438,-40029.746,-37467.9,-41892.008
968104.1097446223,-92658.2,-50551.92,-20628.297,-4738.2407,-59002.93,-40032.88,-37472.37,-41895.633
968104.1137446208,-92663.62,-50554.16,-20630.047,-4741.9434,-59007.938,-40036.664,-37474.164,-41897.79
968104.1177446194,-92664.02,-50554.812,-20628.133,-4741.9844,-59025.312,-40038.902,-37475.26,-41898.113
968104.1217446179,-92664.23,-50555.79,-20623.943,-4735.555,-59017.824,-40037.965,-37472.82,-41889.527
968104.1257446165,-92660.32,-50553.062,-20622.682,-4733.5205,-59017.09,-40037.19,-37472.984,-41887.86
968104.129744615,-92660.766,-50556.64,-20623.7,-4737.834,-59024.21,-40036.5,-37474.0,-41882.12
968104.1337446136,-92666.914,-50559.164,-20628.459,-4743.856,-59024.945,-40037.312,-37472.414,-41879.76
968104.1377446122,-92672.28,-50558.72,-20629.598,-4744.426,-59021.895,-40036.906,-37468.508,-41877.727
968104.1417446106,-92669.84,-50559.367,-20625.896,-4738.851,-59008.547,-40033.855,-37467.57,-41888.31
968104.1457446092,-92669.15,-50562.703,-20624.635,-4738.8105,-59011.8,-40031.332,-37466.676,-41896.324
968104.1497446077,-92668.87,-50561.89,-20625.367,-4741.8623,-59019.74,-40029.664,-37465.945,-41895.1
