timestamp,Fp1,Fp2,F3,Fz,F4,Cz,Pz,Oz
968069.4697571544,-89876.266,-50598.023,-20245.281,-4347.168,-58514.285,-40955.08,-38250.613,-42260.703
968069.4737571529,-89850.71,-50571.94,-20245.564,-4347.209,-58512.695,-40962.65,-38260.297,-42268.96
968069.4777571515,-89823.9,-50543.906,-20243.408,-4344.32,-58523.97,-40965.535,-38260.133,-42265.055
968069.4817571499,-89816.04,-50526.004,-20241.334,-4338.135,-58509.402,-40967.816,-38262.453,-42265.137
968069.4857571485,-89799.93,-50506.023,-20240.113,-4333.4556,-58506.105,-40967.0,-38266.36,-42268.516
968069.489757147,-89781.945,-50489.992,-20239.34,-4333.9844,-58514.69,-40964.234,-38267.984,-42269.53
968069.4937571456,-89774.62,-50477.785,-20246.379,-4338.0127,-58514.445,-40966.758,-38269.45,-42271.12
968069.4977571442,-89763.76,-50465.254,-20243.938,-4338.8267,-58514.406,-40972.984,-38271.566,-42275.72
968069.5017571427,-89751.43,-50451.094,-20244.629,-4332.4385,-58498.496,-40968.387,-38269.45,-42276.613
968069.5057571413,-89746.14,-50447.227,-20242.39,-4330.4443,-58494.59,-40966.066,-38267.418,-42271.445
968069.5097571398,-89737.43,-50432.984,-20237.508,-4331.8687,-58499.023,-40973.105,-38277.63,-42274.863
968069.5137571384,-89736.58,-50431.03,-20239.299,-4335.1646,-58503.38,-40973.88,-38279.46,-42289.188
968069.517757137,-89738.94,-50432.984,-20240.357,-4337.1177,-58507.69,-40973.105,-38273.887,-42283.0
968069.5217571355,-89736.53,-50434.938,-20238.77,-4333.0894,-58494.793,-40969.93,-38268.516,-42278.688
968069.5257571341,-89727.13,-50421.387,-20231.771,-4327.596,-58483.4,-40968.06,-38270.145,-42278.16
968069.5297571326,-89736.66,-50429.445,-20234.863,-4334.188,-58499.434,-40965.293,-38268.19,-42283.977
968069.5337571312,-89753.87,-50438.805,-20238.607,-4341.0645,-58509.36,-40968.508,-38268.027,-42284.508
968069.5377571298,-89761.97,-50445.883,-20246.42,-4343.099,-58507.855,-40970.5,-38262.613,-42276.492
968069.5417571283,-89776.9,-50459.637,-20253.744,-4342.611,-58509.156,-40966.35,-38262.613,-42268.027
968069.5457571268,-89783.086,-50467.33,-20245.729,-4338.5825,-58517.215,-40964.195,-38261.883,-42259.766
968069.5497571253,-89789.88,-50477.742,-20243.328,-4339.7217,-58515.3,-40963.707,-38260.05,-42260.254
968069.5537571239,-89808.44,-50498.13,-20250.082,-4347.9414,-58528.65,-40963.625,-38258.63,-42262.332
968069.5577571224,-89810.51,-50504.03,-20248.982,-4347.046,-58528.04,-40962.402,-38254.11,-42257.164
968069.561757121,-89820.64,-50513.387,-20246.338,-4343.913,-58520.184,-40957.316,-38246.543,-42252.605
968069.5657571196,-89830.61,-50530.113,-20243.084,-4344.116,-58511.72,-40954.02,-38242.188,-42238.566
968069.5697571181,-89836.8,-50534.793,-20242.432,-4349.935,-58515.465,-40953.492,-38244.875,-42245.363
968069.5737571167,-89852.5,-50551.15,-20251.832,-4356.9336,-58535.93,-40956.83,-38250.69,-42254.965
968069.5777571152,-89865.08,-50561.566,-20255.697,-4353.3125,-58534.832,-40961.305,-38253.703,-42257.855
968069.5817571138,-89877.16,-50570.965,-20255.9,-4349.8945,-58516.97,-40958.742,-38250.69,-42254.273
968069.5857571124,-89882.53,-50574.953,-20253.744,-4349.6504,-58518.273,-40956.18,-38251.1,-42249.676
968069.5897571109,-89888.15,-50576.254,-20258.016,-4353.3936,-58507.53,-40952.72,-38245.688,-42242.15
968069.5937571095,-89892.58,-50579.305,-20258.953,-4358.5615,-58520.793,-40955.08,-38244.996,-42244.59
968069.597757108,-89901.29,-50589.766,-20260.213,-4360.7993,-58537.438,-40956.83,-38246.34,-42248.414
968069.6017571066,-89905.32,-50592.613,-20258.22,-4359.2124,-58532.27,-40954.715,-38244.914,-42244.305
968069.6057571052,-89906.91,-50594.89,-20255.25,-4355.6724,-58519.574,-40952.15,-38244.266,-42236.613
968069.6097571036,-89910.484,-50601.24,-20257.527,-4356.6895,-58533.41,-40954.793,-38247.152,-42235.555
968069.6137571022,-89917.445,-50606.57,-20262.004,-4361.776,-58528.89,-40959.92,-38253.664,-42243.613
968069.6177571007,-89922.77,-50606.203,-20263.348,-4364.177,-58534.875,-40958.414,-38249.96,-42251.465
968069.6217570993,-89918.664,-50602.46,-20261.19,-4358.2764,-58522.992,-40957.4,-38247.844,-42250.49
968069.6257570978,-89922.65,-50611.043,-20258.057,-4358.073,-58518.15,-40954.996,-38243.9,-42236.94
968069.6297570964,-89925.91,-50609.906,-20262.41,-4362.8745,-58528.688,-40955.973,-38243.734,-42235.19
968069.633757095,-89931.6,-50610.92,-20264.324,-4366.252,-58542.523,-40955.484,-38246.582,-42255.25
968069.6377570935,-89938.73,-50617.35,-20266.033,-4368.2456,-58541.547,-40953.207,-38241.008,-42250.734
968069.6417570921,-89939.414,-50622.4,-20267.822,-4364.3394,-58532.676,-40950.645,-38236.086,-42248.496
968069.6457570906,-89945.11,-50632.69,-20267.537,-4363.9326,-58532.676,-40943.973,-38226.97,-42240.926
968069.6497570892,-89946.29,-50629.316,-20263.836,-4367.025,-58538.902,-40941.734,-38223.55,-42230.633
968069.6537570878,-89950.85,-50627.523,-20266.277,-4374.0234,-58551.477,-40943.605,-38224.324,-42227.254
968069.6577570863,-89952.234,-50629.844,-20266.684,-4375.4478,-58554.895,-40942.996,-38223.227,-42224.49
968069.6617570849,-89950.69,-50629.07,-20262.127,-4368.3677,-58542.035,-40945.438,-38225.668,-42210.98
968069.6657570835,-89949.42,-50626.387,-20261.19,-4364.909,-58530.113,-40945.68,-38226.277,-42205.895
968069.669757082,-89950.65,-50628.38,-20258.709,-4366.333,-58528.32,-40947.227,-38229.207,-42210.367
968069.6737570805,-89953.66,-50629.844,-20257.568,-4370.809,-58538.86,-40949.91,-38228.516,-42212.2
968069.677757079,-89958.945,-50635.336,-20267.293,-4373.047,-58534.465,-40947.633,-38223.88,-42206.668
968069.6817570776,-89953.86,-50635.336,-20259.889,-4366.9434,-58528.73,-40943.562,-38215.58,-42191.246
968069.6857570761,-89955.9,-50638.387,-20255.982,-4363.729,-58521.242,-40940.797,-38215.66,-42197.633
968069.6897570747,-89953.82,-50630.74,-20251.547,-4366.618,-58538.496,-40941.53,-38219.402,-42195.477
968069.6937570733,-89957.52,-50630.535,-20258.709,-4371.826,-58550.457,-40943.277,-38219.688,-42197.47
968069.6977570718,-89960.37,-50630.7,-20266.398,-4371.826,-58543.664,-40943.2,-38216.637,-42199.383
968069.7017570704,-89960.984,-50633.098,-20263.307,-4367.0654,-58527.1,-40942.383,-38222.984,-42213.176
968069.7057570689,-89959.516,-50630.74,-20257.771,-4362.6304,-58530.805,-40942.668,-38232.098,-42219.523
968069.7097570675,-89967.53,-50640.79,-20265.26,-4369.792,-58543.785,-40940.797,-38228.027,-42208.902
968069.713757066,-89970.79,-50635.05,-20269.328,-4374.0645,-58545.29,-40944.906,-38229.695,-42200.766
968069.7177570646,-89975.38,-50636.92,-20270.955,-4376.2617,-58547.242,-40946.004,-38232.707,-42205.895
968069.7217570632,-89972.984,-50640.625,-20267.986,-4369.629,-58539.473,-40943.074,-38231.69,-42206.79
968069.7257570617,-89971.97,-50640.34,-20267.416,-4365.6006,-58535.32,-40939.902,-38227.664,-42199.832
968069.7297570603,-89976.766,-50640.625,-20265.38,-4367.513,-58540.69,-40938.56,-38225.26,-42192.914
968069.7337570589,-89983.97,-50644.492,-20267.904,-4371.216,-58550.254,-40940.633,-38227.99,-42200.277
968069.7377570573,-89987.23,-50643.883,-20272.46,-4374.675,-58550.336,-40943.688,-38231.69,-42207.723
968069.7417570559,-89988.89,-50647.707,-20272.625,-4371.46,-58539.227,-40941.49,-38231.445,-42208.133
968069.7457570544,-89995.164,-50655.723,-20275.635,-4370.2803,-58538.574,-40937.215,-38230.67,-42206.258
968069.749757053,-89995.28,-50650.105,-20273.926,-4371.826,-58540.203,-40938.07,-38228.76,-42197.43
968069.7537570515,-90001.266,-50650.188,-20275.96,-4375.5293,-58550.863,-40941.203,-38229.13,-42201.62
968069.7577570501,-90003.7,-50652.1,-20274.74,-4374.8374,-58558.637,-40944.215,-38233.93,-42205.69
968069.7617570487,-90006.47,-50658.652,-20277.02,-4370.1987,-58542.562,-40942.87,-38235.84,-42207.645
968069.7657570472,-90003.625,-50658.285,-20274.902,-4368.408,-58531.047,-40939.047,-38230.67,-42208.824
968069.7697570458,-90003.586,-50653.445,-20274.943,-4370.9717,-58531.535,-40939.047,-38230.47,-42214.684
968069.7737570443,-90006.35,-50654.582,-20275.758,-4374.0234,-58539.105,-40942.383,-38236.53,-42219.402
968069.7777570429,-90009.85,-50657.31,-20280.314,-4375.163,-58540.855,-40944.906,-38235.84,-42216.188
968069.7817570415,-90002.81,-50653.81,-20271.24,-4369.5884,-58540.49,-40946.086,-38242.473,-42221.152
968069.78575704,-90003.055,-50656.09,-20271.484,-4367.7573,-58530.152,-40944.01,-38240.723,-42212.402
968069.7897570386,-90003.26,-50657.637,-20268.719,-4370.036,-58533.613,-40940.594,-38240.438,-42213.094
968069.7937570371,-90005.984,-50655.52,-20268.799,-4372.7217,-58543.176,-40942.71,-38243.9,-42222.25
968069.7977570357,-90007.164,-50659.26,-20270.387,-4374.675,-58545.492,-40943.562,-38245.89,-42227.945
968069.8017570341,-90001.586,-50658.53,-20264.363,-4369.2627,-58524.05,-40940.023,-38243.938,-42218.953
968069.8057570327,-90007.57,-50665.855,-20261.19,-4367.0654,-58516.887,-40937.01,-38244.344,-42215.13
968069.8097570313,-90005.82,-50663.332,-20267.822,-4367.717,-58521.895,-40937.055,-38238.65,-42211.305
968069.8137570298,-90011.64,-50662.598,-20270.06,-4370.321,-58541.223,-40942.18,-38238.566,-42213.83
968069.8177570284,-90030.234,-50679.28,-20274.049,-4374.8374,-58553.348,-40946.902,-38241.414,-42217.53
968069.821757027,-90017.375,-50672.445,-20269.531,-4367.1875,-58539.918,-40945.395,-38240.766,-42216.227
968069.8257570255,-90001.63,-50653.73,-20264.242,-4363.5664,-58523.03,-40945.76,-38245.402,-42222.656
968069.8297570241,-90012.25,-50663.414,-20267.13,-4368.6523,-58530.438,-40944.094,-38245.77,-42227.457
968069.8337570226,-90016.08,-50663.535,-20266.56,-4372.3145,-58540.0,-40948.285,-38249.39,-42231.57
968069.8377570212,-90022.34,-50665.61,-20264.648,-4373.1284,-58541.06,-40949.344,-38250.816,-42237.508
968069.8417570197,-90021.08,-50670.492,-20271.322,-4367.676,-58526.855,-40944.297,-38244.14,-42225.79
968069.8457570183,-90021.04,-50670.25,-20269.246,-4364.258,-58519.656,-40943.117,-38241.457,-42221.03
968069.8497570169,-90028.77,-50677.613,-20273.52,-4370.6465,-58525.88,-40944.906,-38245.08,-42233.316
968069.8537570154,-90039.555,-50688.438,-20279.5,-4379.5576,-58540.773,-40947.67,-38249.88,-42242.96
968069.857757014,-90035.32,-50682.82,-20274.496,-4377.2383,-58542.523,-40947.43,-38242.15,-42228.273
968069.8617570125,-90039.72,-50687.91,-20274.822,-4371.501,-58531.863,-40945.07,-38234.62,-42219.44
968069.865757011,-90043.99,-50688.965,-20272.258,-4369.751,-58538.047,-40944.703,-38241.984,-42216.15
968069.8697570096,-90045.29,-50690.023,-20271.24,-4372.1924,-58543.906,-40942.3,-38240.926,-42222.574
968069.8737570081,-90046.836,-50686.89,-20274.7,-4376.0176,-58545.617,-40945.312,-38240.4,-42218.59
968069.8777570067,-90048.51,-50689.13,-20275.432,-4378.54,-58548.79,-40947.266,-38236.043,-42211.062
968069.8817570052,-90048.75,-50694.906,-20272.014,-4373.698,-58531.58,-40943.32,-38235.555,-42218.914
968069.8857570038,-90045.25,-50692.098,-20267.863,-4371.826,-58529.137,-40938.723,-38231.324,-42216.96
968069.8897570024,-90042.195,-50688.723,-20269.654,-4374.634,-58530.887,-40937.137,-38229.656,-42219.08
968069.8937570009,-90047.28,-50692.02,-20274.496,-4382.6094,-58543.176,-40936.85,-38224.203,-42216.797
968069.8977569995,-90047.53,-50693.93,-20274.293,-4384.033,-58543.176,-40939.984,-38224.0,-42214.273
968069.901756998,-90042.12,-50689.453,-20267.172,-4374.9595,-58529.707,-40940.31,-38225.344,-42206.91
968069.9057569966,-90037.805,-50684.57,-20267.09,-4370.321,-58524.05,-40938.52,-38221.965,-42199.91
968069.9097569952,-90044.72,-50685.223,-20271.729,-4373.535,-58523.848,-40941.043,-38231.203,-42208.902
968069.9137569937,-90050.945,-50685.26,-20271.443,-4375.814,-58532.715,-40944.297,-38235.23,-42210.574
968069.9177569923,-90051.11,-50689.25,-20269.816,-4378.662,-58548.098,-40943.766,-38232.625,-42210.695
968069.9217569908,-90050.46,-50688.965,-20270.752,-4373.21,-58532.15,-40938.152,-38226.81,-42210.53
968069.9257569894,-90051.31,-50688.316,-20264.934,-4368.6523,-58511.72,-40936.523,-38222.94,-42206.707
968069.9297569878,-90052.45,-50688.844,-20262.94,-4371.9893,-58520.348,-40935.71,-38218.953,-42203.004
968069.9337569864,-90059.86,-50691.652,-20268.393,-4378.825,-58531.984,-40936.85,-38215.7,-42200.562
968069.937756985,-90059.53,-50691.773,-20275.27,-4379.4355,-58550.824,-40936.727,-38209.8,-42197.88
968069.9417569835,-90062.91,-50696.332,-20277.629,-4374.2676,-58552.492,-40935.71,-38211.223,-42197.918
968069.9457569821,-90046.63,-50680.42,-20263.348,-4366.6587,-58526.367,-40936.44,-38215.047,-42205.77
968069.9497569806,-90047.85,-50679.65,-20262.086,-4370.3613,-58525.23,-40936.727,-38218.02,-42206.625
968069.9537569792,-90049.73,-50681.805,-20265.057,-4374.634,-58537.03,-40936.85,-38218.71,-42205.527
968069.9577569778,-90051.805,-50688.68,-20268.025,-4375.4478,-58538.82,-40935.02,-38213.664,-42206.016
968069.9617569763,-90050.09,-50686.32,-20265.951,-4371.826,-58528.65,-40935.59,-38221.52,-42209.23
968069.9657569749,-90051.516,-50685.71,-20262.004,-4371.46,-58523.113,-40932.414,-38218.793,-42209.516
968069.9697569734,-90052.45,-50685.793,-20261.027,-4373.9014,-58530.76,-40933.066,-38217.125,-42203.125
968069.973756972,-90061.08,-50686.89,-20263.672,-4379.3135,-58542.44,-40936.08,-38216.227,-42193.074
968069.9777569706,-90062.95,-50690.27,-20258.668,-4379.5166,-58550.945,-40937.34,-38220.176,-42214.56
968069.9817569691,-90058.44,-50681.48,-20265.992,-4374.797,-58534.59,-40935.63,-38220.176,-42219.08
968069.9857569677,-90054.37,-50674.44,-20264.934,-4370.1987,-58508.75,-40934.043,-38218.26,-42211.344
968069.9897569662,-90057.664,-50681.805,-20263.143,-4376.384,-58532.227,-40932.047,-38217.0,-42200.848
968069.9937569647,-90063.4,-50682.13,-20263.387,-4382.243,-58543.457,-40935.344,-38219.484,-42201.133
968069.9977569632,-90052.45,-50672.04,-20264.486,-4379.72,-58533.203,-40935.63,-38217.734,-42197.51
968070.0017569618,-90050.625,-50673.3,-20264.16,-4374.4307,-58525.758,-40929.402,-38208.254,-42184.207
968070.0057569604,-90050.3,-50675.215,-20263.143,-4376.2617,-58523.805,-40926.516,-38205.527,-42189.82
968070.0097569589,-90051.88,-50674.316,-20262.29,-4379.0693,-58520.836,-40925.254,-38205.406,-42199.625
968070.0137569575,-90052.45,-50669.19,-20264.04,-4382.7314,-58531.008,-40928.426,-38201.785,-42193.484
968070.017756956,-90053.67,-50666.383,-20263.51,-4384.9287,-58536.785,-40928.836,-38197.023,-42184.855
968070.0217569546,-90049.6,-50663.37,-20258.465,-4378.052,-58520.996,-40926.758,-38194.867,-42179.08
968070.0257569532,-90046.06,-50662.355,-20254.15,-4375.692,-58510.01,-40924.645,-38194.254,-42168.824
968070.0297569517,-90047.734,-50661.055,-20254.68,-4378.825,-58510.297,-40926.066,-38195.027,-42167.32
968070.0337569503,-90052.78,-50664.96,-20261.719,-4385.539,-58525.312,-40928.305,-38194.867,-42171.062
968070.0377569488,-90058.44,-50666.63,-20268.19,-4387.8174,-58533.41,-40930.34,-38198.285,-42174.93
968070.0417569474,-90054.2,-50661.543,-20263.55,-4380.7373,-58517.5,-40930.3,-38199.953,-42173.746
968070.045756946,-90053.06,-50661.664,-20260.092,-4378.988,-58519.043,-40930.137,-38205.324,-42175.984
968070.0497569445,-90053.39,-50662.8,-20262.33,-4382.1616,-58532.35,-40931.766,-38206.18,-42181.684
968070.053756943,-90057.21,-50665.977,-20263.348,-4386.1494,-58547.812,-40932.66,-38204.227,-42185.1
968070.0577569415,-90061.89,-50667.36,-20263.795,-4390.544,-58543.418,-40932.254,-38202.027,-42183.27
968070.0617569401,-90060.14,-50668.17,-20259.441,-4385.9053,-58528.445,-40926.84,-38194.5,-42171.062
968070.0657569387,-90057.87,-50667.074,-20257.121,-4384.3994,-58516.4,-40924.36,-38193.035,-42164.47
968070.0697569372,-90063.11,-50669.11,-20264.486,-4388.5093,-58512.414,-40922.65,-38198.367,-42175.66
968070.0737569358,-90061.37,-50660.81,-20264.16,-4391.2764,-58528.08,-40925.58,-38200.93,-42182.17
968070.0777569343,-90071.58,-50666.914,-20267.13,-4392.456,-58543.457,-40929.85,-38209.516,-42194.05
968070.0817569329,-90064.74,-50663.7,-20262.086,-4385.539,-58542.688,-40929.65,-38207.48,-42191.246
968070.0857569315,-90058.68,-50661.5,-20261.15,-4386.2715,-58519.94,-40929.28,-38208.05,-42195.395
968070.08975693,-90063.97,-50667.402,-20260.457,-4394.3687,-58520.633,-40928.426,-38205.484,-42192.14
968070.0937569286,-90071.336,-50669.637,-20262.207,-4399.536,-58533.203,-40926.23,-38204.387,-42182.78
968070.0977569271,-90071.86,-50665.367,-20262.29,-4401.001,-58539.51,-40927.492,-38205.203,-42179.484
968070.1017569257,-90072.43,-50669.92,-20260.092,-4397.6646,-58538.008,-40922.61,-38200.766,-42177.777
968070.1057569243,-90073.33,-50670.777,-20258.627,-4394.6533,-58529.504,-40922.934,-38204.43,-42193.24
968070.1097569228,-90074.625,-50671.387,-20258.342,-4395.671,-58531.78,-40923.22,-38206.258,-42187.83
968070.1137569214,-90071.49,-50663.574,-20261.678,-4400.472,-58558.105,-40921.1,-38199.707,-42181.64
968070.1177569198,-90072.72,-50664.31,-20264.852,-4402.751,-58560.14,-40923.34,-38202.066,-42191.285
968070.1217569184,-90070.766,-50661.99,-20261.842,-4396.4033,-58551.066,-40924.848,-38207.316,-42195.64
968070.1257569169,-90072.31,-50667.277,-20256.674,-4396.4844,-58552.33,-40922.61,-38203.41,-42187.01
968070.1297569155,-90075.766,-50676.027,-20259.033,-4399.7803,-58558.637,-40923.504,-38204.754,-42186.16
968070.1337569141,-90079.63,-50676.96,-20259.441,-4401.4487,-58563.76,-40924.316,-38205.812,-42189.496
968070.1377569126,-90076.664,-50671.957,-20257.0,-4400.3096,-58569.46,-40925.336,-38205.406,-42197.31
968070.1417569112,-90077.68,-50673.953,-20254.354,-4393.4736,-58558.066,-40922.566,-38204.55,-42191.324
968070.1457569097,-90082.73,-50678.062,-20254.965,-4393.8804,-58551.027,-40917.523,-38200.645,-42185.953
968070.1497569083,-90081.875,-50673.992,-20255.25,-4395.3857,-58545.86,-40918.945,-38203.086,-42187.867
968070.1537569069,-90086.51,-50672.12,-20257.936,-4401.6113,-58558.188,-40923.258,-38205.203,-42185.26
968070.1577569054,-90085.94,-50667.727,-20259.93,-4401.5303,-58565.023,-40929.445,-38213.46,-42191.324
968070.161756904,-90086.34,-50674.727,-20261.312,-4397.1357,-58548.3,-40927.777,-38210.367,-42188.68
968070.1657569025,-90094.08,-50685.59,-20258.139,-4395.7114,-58532.15,-40926.8,-38214.56,-42200.36
968070.1697569011,-90091.84,-50674.195,-20252.97,-4394.7754,-58531.74,-40928.63,-38212.85,-42198.242
968070.1737568997,-90084.76,-50672.16,-20253.988,-4398.4375,-58537.68,-40929.527,-38208.902,-42187.215
968070.1777568982,-90082.69,-50668.05,-20258.668,-4398.7227,-58550.742,-40929.28,-38208.133,-42184.652
968070.1817568967,-90085.82,-50671.062,-20256.307,-4394.6943,-58546.266,-40926.96,-38211.957,-42195.926
968070.1857568952,-90090.375,-50679.688,-20257.936,-4397.1763,-58552.734,-40924.93,-38216.31,-42203.656
968070.1897568938,-90101.12,-50690.31,-20259.848,-4402.0996,-58563.844,-40926.72,-38218.344,-42201.05
968070.1937568923,-90116.664,-50700.36,-20268.025,-4406.006,-58569.418,-40929.402,-38219.035,-42199.586
968070.1977568909,-90102.016,-50677.695,-20269.451,-4401.001,-58560.223,-40933.637,-38220.99,-42199.75
968070.2017568895,-90091.96,-50668.62,-20267.904,-4393.8804,-58541.426,-40932.66,-38226.36,-42207.195
968070.205756888,-90093.71,-50671.51,-20264.975,-4392.456,-58533.164,-40929.04,-38223.348,-42207.277
968070.2097568866,-90093.875,-50665.977,-20265.34,-4395.915,-58540.734,-40929.77,-38221.52,-42198.324
968070.2137568851,-90101.61,-50670.207,-20270.508,-4404.2563,-58562.5,-40932.496,-38220.543,-42195.152
968070.2177568837,-90094.89,-50659.996,-20270.467,-4402.507,-58559.695,-40937.137,-38225.383,-42205.65
968070.2217568823,-90093.836,-50664.633,-20266.56,-4397.258,-58550.5,-40932.984,-38223.43,-42198.977
968070.2257568808,-90101.89,-50675.62,-20262.29,-4395.3857,-58551.19,-40930.3,-38219.77,-42195.273
968070.2297568794,-90099.9,-50667.81,-20258.83,-4396.7285,-58560.67,-40935.67,-38225.79,-42193.562
968070.233756878,-90105.02,-50672.285,-20258.627,-4400.228,-58563.07,-40937.664,-38229.13,-42203.613
968070.2377568765,-90104.086,-50669.312,-20264.975,-4399.658,-58571.13,-40937.46,-38228.434,-42193.523
968070.2417568751,-90108.484,-50673.137,-20269.857,-4397.0947,-58563.195,-40932.09,-38227.99,-42189.7
968070.2457568735,-90114.016,-50677.574,-20268.637,-4397.583,-58555.055,-40926.883,-38230.754,-42208.66
968070.2497568721,-90119.47,-50681.844,-20272.46,-4403.4424,-58557.09,-40923.3,-38231.812,-42224.367
968070.2537568706,-90118.53,-50676.516,-20273.52,-4408.325,-58568.28,-40926.758,-38235.516,-42225.71
968070.2577568692,-90113.28,-50670.695,-20270.955,-4404.948,-58574.383,-40927.695,-38229.492,-42203.816
968070.2617568678,-90108.52,-50669.355,-20263.469,-4399.4956,-58566.53,-40923.953,-38221.477,-42197.67
968070.2657568663,-90110.234,-50672.65,-20260.701,-4397.746,-58543.906,-40922.895,-38224.652,-42207.926
968070.2697568649,-90112.59,-50674.44,-20261.395,-4398.8447,-58545.41,-40925.496,-38230.348,-42215.25
968070.2737568634,-90110.555,-50672.08,-20267.293,-4403.9307,-58555.586,-40927.938,-38232.18,-42211.062
968070.277756862,-90113.61,-50667.766,-20268.637,-4405.721,-58557.617,-40927.816,-38231.12,-42201.703
968070.2817568606,-90113.61,-50667.523,-20267.01,-4400.879,-58560.387,-40926.555,-38231.57,-42209.15
968070.2857568591,-90114.055,-50672.16,-20265.422,-4399.089,-58562.38,-40922.406,-38230.633,-42205.973
968070.2897568577,-90111.086,-50668.01,-20265.178,-4401.8965,-58563.195,-40920.047,-38224.04,-42193.93
968070.2937568562,-90118.01,-50669.23,-20264.568,-4409.6274,-58581.75,-40919.35,-38217.53,-42188.883
968070.2977568548,-90115.12,-50663.574,-20261.883,-4406.6978,-58570.19,-40924.93,-38220.094,-42190.758
968070.3017568534,-90113.98,-50664.836,-20259.318,-4398.8853,-58556.926,-40922.69,-38215.984,-42181.64
968070.3057568519,-90116.91,-50667.32,-20258.668,-4399.048,-58551.598,-40920.613,-38218.344,-42186.523
968070.3097568504,-90120.41,-50667.523,-20260.58,-4405.1924,-58555.016,-40925.457,-38222.94,-42196.535
968070.3137568489,-90120.28,-50662.56,-20260.457,-4408.244,-58566.57,-40925.336,-38222.008,-42193.645
968070.3177568475,-90120.81,-50668.62,-20260.662,-4407.5522,-58571.13,-40920.25,-38217.613,-42179.688
968070.321756846,-90123.54,-50667.48,-20258.26,-4402.2217,-58565.31,-40917.195,-38217.855,-42184.734
968070.3257568446,-90124.48,-50665.527,-20258.709,-4402.0996,-58555.46,-40916.707,-38221.355,-42187.625
968070.3297568432,-90126.8,-50666.016,-20259.969,-4407.0234,-58563.316,-40918.945,-38223.633,-42189.414
968070.3337568417,-90125.086,-50663.13,-20262.615,-4412.4756,-58570.844,-40921.633,-38222.656,-42189.94
968070.3377568403,-90122.03,-50662.11,-20265.016,-4412.9233,-58559.734,-40920.9,-38219.08,-42183.27
968070.3417568388,-90122.766,-50661.133,-20258.465,-4406.494,-58560.71,-40916.22,-38212.605,-42173.383
968070.3457568374,-90115.805,-50653.65,-20250.203,-4401.6523,-58559.367,-40913.047,-38207.156,-42166.79
968070.349756836,-90114.34,-50651.652,-20242.758,-4404.46,-58560.63,-40913.332,-38207.766,-42163.82
968070.3537568345,-90122.195,-50654.137,-20254.518,-4409.3833,-58569.133,-40916.63,-38210.574,-42166.26
968070.3577568331,-90129.31,-50661.582,-20262.533,-4412.4756,-58574.504,-40920.37,-38216.758,-42179.605
968070.3617568316,-90129.31,-50660.035,-20250.123,-4408.7324,-58578.94,-40920.125,-38223.227,-42191.53
968070.3657568302,-90124.31,-50659.14,-20254.395,-4407.2266,-58575.81,-40917.48,-38226.277,-42202.883
968070.3697568288,-90123.58,-50656.863,-20258.18,-4409.261,-58565.023,-40921.062,-38229.98,-42202.598
968070.3737568272,-90134.32,-50660.08,-20263.021,-4412.435,-58569.867,-40921.918,-38228.598,-42201.215
968070.3777568258,-90139.0,-50658.855,-20261.922,-4409.546,-58579.875,-40919.8,-38224.12,-42201.62
968070.3817568243,-90133.71,-50657.31,-20257.04,-4404.175,-58573.977,-40916.42,-38221.52,-42201.62
968070.3857568229,-90128.83,-50656.902,-20253.256,-4402.3438,-58568.36,-40916.63,-38220.703,-42196.004
968070.3897568214,-90133.47,-50663.617,-20250.447,-4405.884,-58576.62,-40917.4,-38217.0,-42193.766
968070.39375682,-90131.23,-50657.51,-20249.594,-4409.424,-58587.973,-40922.406,-38218.06,-42189.293
968070.3977568186,-90125.05,-50648.97,-20249.105,-4406.7793,-58585.86,-40926.027,-38220.906,-42184.082
968070.4017568171,-90123.13,-50646.895,-20247.967,-4401.2046,-58572.55,-40923.42,-38220.785,-42177.41
968070.4057568157,-90121.34,-50648.4,-20246.053,-4398.519,-58563.273,-40919.477,-38222.94,-42184.164
968070.4097568142,-90129.27,-50654.258,-20246.867,-4402.059,-58572.715,-40917.605,-38223.105,-42186.85
968070.4137568128,-90143.31,-50658.203,-20254.191,-4408.244,-58576.297,-40920.86,-38227.62,-42195.477
968070.4177568114,-90154.22,-50666.914,-20260.05,-4413.452,-58582.4,-40924.113,-38232.3,-42202.027
968070.4217568099,-90161.7,-50676.637,-20255.494,-4408.651,-58581.504,-40925.293,-38228.92,-42200.074
968070.4257568085,-90160.98,-50677.125,-20256.592,-4405.8027,-58583.133,-40922.0,-38227.867,-42195.395
968070.429756807,-90138.23,-50653.566,-20248.535,-4405.3145,-58581.83,-40921.875,-38229.004,-42198.406
968070.4337568056,-90140.42,-50652.426,-20248.25,-4408.4473,-58585.29,-40922.406,-38230.227,-42205.895
968070.437756804,-90144.45,-50657.637,-20251.953,-4409.709,-58594.89,-40920.86,-38226.36,-42207.723
968070.4417568026,-90134.65,-50650.516,-20246.053,-4401.7334,-58581.79,-40920.37,-38224.324,-42197.145
968070.4457568012,-90134.73,-50649.78,-20246.746,-4401.0825,-58573.812,-40921.918,-38229.086,-42196.492
968070.4497567997,-90133.47,-50649.17,-20247.559,-4404.541,-58584.434,-40925.008,-38230.594,-42191.164
968070.4537567983,-90135.87,-50647.504,-20247.193,-4405.8027,-58597.09,-40928.71,-38231.363,-42191.203
968070.4577567969,-90141.6,-50651.816,-20248.82,-4404.419,-58596.03,-40934.082,-38234.133,-42201.336
968070.4617567954,-90149.74,-50655.438,-20249.146,-4402.954,-58592.855,-40931.64,-38232.383,-42200.81
968070.465756794,-90154.87,-50661.746,-20246.746,-4403.6865,-58586.67,-40928.55,-38232.992,-42203.86
968070.4697567925,-90160.16,-50670.453,-20255.78,-4409.668,-58589.195,-40926.555,-38232.34,-42204.47
968070.4737567911,-90161.7,-50669.516,-20257.527,-4412.313,-58603.68,-40925.496,-38230.51,-42199.87
968070.4777567897,-90152.02,-50661.867,-20255.494,-4408.4067,-58604.086,-40924.44,-38226.93,-42185.305
968070.4817567882,-90150.516,-50664.836,-20252.564,-4403.117,-58594.28,-40921.266,-38224.652,-42188.395
968070.4857567868,-90147.83,-50663.332,-20247.762,-4401.408,-58582.4,-40922.77,-38230.062,-42207.074
968070.4897567853,-90149.05,-50661.46,-20243.938,-4403.9307,-58590.58,-40927.816,-38233.316,-42210.734
968070.4937567839,-90151.086,-50660.035,-20244.588,-4405.599,-58602.54,-40932.13,-38232.465,-42207.805
968070.4977567825,-90152.06,-50663.13,-20243.572,-4406.169,-58599.203,-40936.77,-38237.508,-42207.113
968070.5017567809,-90161.664,-50672.49,-20244.467,-4402.3438,-58590.902,-40933.105,-38237.145,-42205.12
968070.5057567795,-90165.98,-50677.33,-20243.979,-4401.7744,-58589.887,-40929.402,-38237.996,-42206.42
968070.509756778,-90167.93,-50684.98,-20246.135,-4405.477,-58602.906,-40925.58,-38235.477,-42202.72
968070.5137567766,-90174.03,-50689.375,-20254.273,-4411.052,-58616.457,-40921.793,-38228.027,-42204.55
968070.5177567751,-90170.21,-50689.047,-20255.33,-4412.9233,-58621.3,-40919.92,-38223.836,-42202.68
968070.5217567737,-90167.4,-50689.74,-20250.936,-4408.7324,-58611.004,-40918.215,-38221.355,-42197.145
968070.5257567723,-90162.27,-50678.47,-20238.201,-4402.5474,-58588.504,-40924.562,-38232.18,-42202.84
968070.5297567708,-90162.766,-50682.414,-20232.586,-4400.2686,-58592.246,-40929.605,-38231.73,-42198.57
968070.5337567694,-90161.18,-50675.742,-20235.678,-4399.699,-58599.043,-40933.35,-38232.668,-42198.934
968070.5377567679,-90162.195,-50674.93,-20231.893,-4400.676,-58606.12,-40934.0,-38231.363,-42190.39
968070.5417567665,-90158.49,-50676.758,-20230.469,-4397.827,-58593.14,-40930.094,-38230.715,-42191.734
968070.5457567651,-90159.43,-50679.28,-20229.818,-4397.6646,-58583.824,-40929.402,-38233.562,-42192.02
968070.5497567636,-90159.67,-50679.402,-20230.55,-4398.926,-58581.707,-40927.086,-38230.957,-42187.34
968070.5537567622,-90164.88,-50680.992,-20234.863,-4404.826,-58595.785,-40927.41,-38228.355,-42184.938
968070.5577567607,-90165.695,-50681.97,-20239.055,-4406.9824,-58605.023,-40928.14,-38229.656,-42192.87
968070.5617567593,-90168.42,-50682.945,-20237.225,-4401.815,-58595.664,-40927.37,-38231.285,-42201.99
968070.5657567577,-90166.266,-50678.996,-20231.242,-4396.1997,-58582.4,-40927.29,-38227.38,-42192.14
968070.5697567563,-90163.17,-50680.176,-20227.824,-4396.2812,-58583.008,-40929.117,-38226.81,-42190.96
968070.5737567549,-90165.24,-50680.543,-20232.3,-4403.1577,-58605.594,-40931.844,-38224.977,-42183.31
968070.5777567534,-90166.14,-50678.59,-20232.26,-4403.8496,-58607.098,-40930.664,-38225.992,-42193.688
968070.581756752,-90159.67,-50677.777,-20228.436,-4397.9087,-58597.293,-40925.742,-38222.293,-42192.344
968070.5857567505,-90164.02,-50680.22,-20228.312,-4398.1123,-58591.15,-40921.633,-38217.125,-42182.78
968070.5897567491,-90181.64,-50693.44,-20233.277,-4400.757,-58592.246,-40919.312,-38214.844,-42184.207
968070.5937567477,-90190.19,-50706.055,-20237.184,-4406.5757,-58604.656,-40918.863,-38215.293,-42188.273
968070.5977567462,-90169.516,-50695.273,-20232.057,-4404.8667,-58605.023,-40922.527,-38220.703,-42198.773
968070.6017567448,-90147.55,-50670.98,-20225.709,-4394.206,-58593.223,-40923.79,-38221.07,-42202.312
968070.6057567433,-90146.04,-50664.96,-20219.686,-4389.974,-58588.098,-40928.426,-38230.633,-42198.203
968070.6097567419,-90151.37,-50672.363,-20219.809,-4393.677,-58594.89,-40929.527,-38234.66,-42197.39
968070.6137567405,-90154.664,-50671.023,-20222.9,-4397.217,-58599.043,-40932.047,-38235.027,-42199.344
968070.617756739,-90150.31,-50667.605,-20220.988,-4396.3623,-58600.508,-40929.65,-38228.355,-42198.855
968070.6217567376,-90141.89,-50663.7,-20219.076,-4389.8926,-58584.883,-40925.375,-38222.453,-42187.38
968070.6257567361,-90146.08,-50671.875,-20219.361,-4390.747,-58582.277,-40921.55,-38219.85,-42183.188
968070.6297567346,-90151.66,-50677.043,-20220.582,-4396.037,-58586.145,-40922.08,-38224.04,-42197.227
968070.6337567332,-90161.26,-50685.387,-20221.355,-4404.2563,-58601.81,-40924.97,-38223.55,-42194.418
968070.6377567317,-90170.984,-50686.89,-20230.389,-4406.9824,-58612.023,-40927.45,-38222.453,-42194.254
968070.6417567303,-90172.24,-50694.867,-20229.207,-4400.676,-58604.37,-40929.605,-38230.348,-42211.14
968070.6457567288,-90166.51,-50688.723,-20219.97,-4395.2637,-58599.043,-40929.973,-38224.57,-42202.19
968070.6497567274,-90159.67,-50679.73,-20213.258,-4394.328,-58595.95,-40933.35,-38224.45,-42195.273
968070.653756726,-90162.16,-50676.23,-20214.682,-4395.549,-58594.445,-40938.805,-38228.11,-42191.246
968070.6577567245,-90166.914,-50678.67,-20219.809,-4397.5425,-58603.477,-40937.625,-38228.273,-42194.336
968070.6617567231,-90171.15,-50685.26,-20219.158,-4395.7114,-58602.176,-40931.97,-38229.332,-42200.6
968070.6657567216,-90177.86,-50694.99,-20219.158,-4396.4844,-58602.746,-40926.35,-38228.56,-42199.668
968070.6697567202,-90180.42,-50694.664,-20220.5,-4400.2686,-58611.29,-40926.758,-38229.535,-42195.477
968070.6737567188,-90182.3,-50694.215,-20223.389,-4404.7446,-58613.363,-40926.188,-38228.72,-42202.8
968070.6777567173,-90184.734,-50695.723,-20227.418,-4405.925,-58609.297,-40928.02,-38226.81,-42204.062
968070.6817567159,-90182.01,-50694.62,-20225.3,-4399.6177,-58595.42,-40930.055,-38231.285,-42204.836
968070.6857567144,-90173.42,-50685.26,-20215.902,-4393.84,-58586.145,-40930.746,-38231.04,-42200.277
968070.689756713,-90176.44,-50684.164,-20215.129,-4396.1997,-58594.117,-40932.332,-38227.418,-42194.824
968070.6937567114,-90177.78,-50685.957,-20220.053,-4402.0996,-58609.945,-40932.742,-38224.527,-42187.99
968070.69775671,-90181.44,-50687.785,-20226.277,-4402.5474,-58612.227,-40932.7,-38227.582,-42197.145
968070.7017567086,-90176.555,-50685.508,-20220.215,-4395.5894,-58606.0,-40925.863,-38224.246,-42190.918
968070.7057567071,-90178.836,-50688.926,-20218.385,-4395.1826,-58599.043,-40920.9,-38223.188,-42183.188
968070.7097567057,-90180.26,-50687.746,-20218.67,-4399.536,-58601.36,-40921.305,-38223.918,-42189.37
968070.7137567042,-90185.14,-50689.453,-20220.135,-4405.8027,-58610.8,-40925.375,-38226.36,-42197.836
968070.7177567028,-90188.16,-50691.043,-20224.812,-4406.9824,-58620.242,-40927.246,-38224.285,-42189.37
968070.7217567014,-90186.12,-50691.0,-20222.332,-4399.699,-58604.29,-40927.613,-38224.527,-42191.938
968070.7257566999,-90188.234,-50693.074,-20218.994,-4397.0137,-58597.496,-40926.555,-38221.926,-42193.484
968070.7297566985,-90191.9,-50695.07,-20217.082,-4403.4424,-58612.43,-40928.63,-38223.348,-42193.848
968070.733756697,-90190.11,-50692.305,-20220.582,-4407.0234,-58619.266,-40933.23,-38230.145,-42204.918
968070.7377566956,-90197.63,-50696.617,-20221.965,-4407.715,-58620.688,-40933.51,-38233.48,-42209.23
968070.7417566942,-90197.76,-50695.477,-20225.098,-4400.92,-58596.52,-40927.816,-38233.93,-42211.344
968070.7457566927,-90193.36,-50691.203,-20230.877,-4398.4785,-58584.96,-40923.625,-38230.67,-42193.89
968070.7497566913,-90194.46,-50693.32,-20231.121,-4401.937,-58598.473,-40925.418,-38231.082,-42183.637
968070.7537566898,-90196.21,-50691.69,-20230.836,-4406.006,-58611.535,-40926.72,-38230.31,-42184.938
968070.7577566883,-90198.0,-50686.65,-20232.87,-4406.657,-58606.0,-40929.363,-38229.94,-42198.65
968070.7617566868,-90193.766,-50688.887,-20227.742,-4399.211,-58598.473,-40926.598,-38224.164,-42191.938
968070.7657566854,-90194.54,-50691.69,-20222.82,-4396.6064,-58595.297,-40925.133,-38220.582,-42187.543
968070.769756684,-90202.516,-50697.797,-20229.127,-4403.8086,-58596.03,-40926.84,-38222.617,-42192.26
968070.7737566825,-90208.26,-50699.707,-20233.195,-4410.4004,-58609.297,-40930.91,-38225.426,-42199.547
968070.7777566811,-90200.195,-50685.387,-20229.574,-4404.948,-58615.44,-40931.805,-38224.04,-42189.82
968070.7817566796,-90204.266,-50691.69,-20234.416,-4401.5303,-58607.42,-40927.246,-38228.19,-42196.29
968070.7857566782,-90206.55,-50698.04,-20236.166,-4400.35,-58601.2,-40923.91,-38230.348,-42201.5
968070.7897566768,-90205.41,-50692.914,-20236.94,-4404.419,-58611.94,-40922.77,-38227.785,-42193.645
968070.7937566753,-90205.484,-50691.49,-20240.154,-4409.1797,-58616.78,-40924.97,-38227.5,-42188.76
968070.7977566739,-90206.875,-50692.305,-20240.438,-4407.3896,-58608.48,-40926.676,-38230.836,-42198.895
968070.8017566724,-90197.06,-50685.387,-20230.713,-4398.153,-58597.78,-40924.645,-38227.094,-42196.004
968070.805756671,-90200.85,-50688.438,-20229.94,-4398.763,-58600.02,-40922.934,-38220.867,-42188.965
968070.8097566696,-90209.92,-50693.36,-20231.324,-4402.466,-58618.816,-40926.312,-38221.598,-42191.855
968070.8137566681,-90211.96,-50689.7,-20236.857,-4404.46,-58625.246,-40936.93,-38229.37,-42201.703
968070.8177566667,-90205.24,-50683.15,-20235.027,-4400.798,-58618.29,-40940.836,-38229.25,-42193.484
968070.8217566651,-90212.24,-50684.082,-20234.05,-4396.037,-58600.87,-40938.152,-38228.434,-42189.21
968070.8257566637,-90216.555,-50690.35,-20236.043,-4397.583,-58594.035,-40932.17,-38225.547,-42187.46
968070.8297566622,-90218.836,-50689.332,-20235.148,-4401.001,-58599.938,-40928.184,-38221.926,-42191.61
968070.8337566608,-90212.37,-50686.28,-20235.555,-4403.89,-58610.15,-40929.934,-38222.168,-42187.543
968070.8377566594,-90213.5,-50688.355,-20237.102,-4405.3145,-58618.043,-40929.89,-38222.617,-42189.984
968070.8417566579,-90218.95,-50697.633,-20231.201,-4403.3613,-58616.09,-40926.395,-38221.723,-42185.223
968070.8457566565,-90228.36,-50708.418,-20230.184,-4405.5586,-58613.77,-40927.164,-38222.047,-42179.402
968070.849756655,-90228.15,-50697.062,-20232.586,-4405.8027,-58612.227,-40929.85,-38225.383,-42182.984
968070.8537566536,-90210.9,-50672.04,-20232.422,-4405.477,-58613.77,-40935.71,-38231.773,-42188.805
968070.8577566522,-90209.234,-50678.062,-20231.527,-4405.8027,-58611.695,-40938.805,-38235.434,-42193.766
968070.8617566507,-90206.46,-50680.586,-20235.719,-4400.35,-58601.117,-40934.53,-38233.074,-42194.176
968070.8657566493,-90207.28,-50680.016,-20235.027,-4398.967,-58596.887,-40929.73,-38232.06,-42197.51
968070.8697566479,-90208.336,-50684.938,-20234.13,-4401.4487,-58599.895,-40925.78,-38233.074,-42192.098
968070.8737566464,-90211.76,-50683.35,-20236.084,-4407.0234,-58610.76,-40925.58,-38229.332,-42186.117
968070.877756645,-90218.914,-50682.05,-20240.154,-4410.604,-58615.36,-40928.02,-38230.023,-42190.227
968070.8817566435,-90220.26,-50687.258,-20236.695,-4407.43,-58612.43,-40927.125,-38231.16,-42197.51
968070.885756642,-90219.0,-50685.547,-20236.451,-4403.5645,-58608.766,-40925.457,-38230.227,-42196.492
968070.8897566405,-90221.93,-50686.688,-20236.004,-4406.169,-58609.785,-40925.54,-38230.875,-42191.977
968070.8937566391,-90222.21,-50687.91,-20239.705,-4412.1504,-58627.688,-40929.08,-38232.668,-42191.977
968070.8977566377,-90220.91,-50684.652,-20241.049,-4409.8716,-58625.49,-40936.523,-38235.758,-42194.094
968070.9017566362,-90219.04,-50683.23,-20234.254,-4401.7334,-58617.395,-40934.613,-38233.195,-42195.152
968070.9057566348,-90217.98,-50684.246,-20232.178,-4401.367,-58606.934,-40930.582,-38229.207,-42186.08
968070.9097566333,-90223.43,-50686.28,-20232.3,-4405.5176,-58610.23,-40929.04,-38229.453,-42183.758
968070.9137566319,-90228.766,-50688.844,-20235.963,-4411.418,-58625.816,-40926.676,-38232.79,-42199.465
968070.9177566305,-90225.38,-50685.996,-20242.596,-4410.97,-58624.84,-40926.72,-38232.06,-42197.062
968070.921756629,-90227.016,-50685.387,-20243.572,-4405.7617,-58615.4,-40926.676,-38232.83,-42199.016
968070.9257566276,-90229.17,-50688.07,-20245.85,-4406.2095,-58611.695,-40925.09,-38231.04,-42193.766
968070.9297566261,-90231.61,-50692.383,-20246.664,-4412.3535,-58608.97,-40925.66,-38234.09,-42196.617
968070.9337566247,-90234.22,-50691.12,-20248.25,-4414.4287,-58609.297,-40928.426,-38232.18,-42188.76
968070.9377566233,-90234.46,-50684.57,-20246.42,-4412.1504,-58620.324,-40931.316,-38230.918,-42191.246
968070.9417566218,-90233.65,-50688.723,-20243.205,-4408.203,-58610.273,-40929.402,-38232.707,-42199.79
968070.9457566204,-90231.41,-50688.887,-20238.607,-4403.5645,-58593.793,-40925.863,-38224.977,-42178.793
968070.9497566188,-90233.32,-50690.676,-20237.713,-4409.343,-58602.95,-40927.613,-38227.62,-42190.88
968070.9537566174,-90231.08,-50684.9,-20236.898,-4414.836,-58618.652,-40932.254,-38232.22,-42194.215
968070.957756616,-90233.52,-50681.277,-20238.404,-4414.2256,-58622.355,-40934.082,-38234.62,-42188.965
968070.9617566145,-90239.18,-50690.555,-20241.74,-4413.208,-58614.79,-40930.992,-38233.195,-42186.28
968070.9657566131,-90242.76,-50696.574,-20239.625,-4413.127,-58616.984,-40927.86,-38231.61,-42183.023
968070.9697566116,-90241.664,-50690.31,-20240.357,-4412.2314,-58623.375,-40928.63,-38227.05,-42172.12
968070.9737566102,-90238.33,-50684.855,-20242.146,-4412.9233,-58641.97,-40930.137,-38222.008,-42167.32
968070.9777566087,-90232.1,-50680.137,-20240.275,-4412.9233,-58639.406,-40932.984,-38225.383,-42168.297
968070.9817566073,-90231.77,-50682.332,-20236.94,-4408.9355,-58621.707,-40929.605,-38226.848,-42169.15
968070.9857566059,-90231.04,-50683.797,-20242.555,-4408.244,-58613.566,-40925.66,-38227.38,-42168.01
968070.9897566044,-90238.53,-50689.7,-20244.264,-4414.917,-58619.71,-40925.984,-38231.16,-42174.44
968070.993756603,-90247.52,-50693.117,-20253.012,-4422.567,-58630.21,-40927.816,-38237.754,-42193.074
968070.9977566015,-90251.55,-50694.297,-20253.5,-4424.0723,-58638.957,-40929.65,-38235.637,-42184.613
968071.0017566001,-90248.66,-50689.656,-20248.7,-4418.1724,-58632.977,-40926.8,-38230.348,-42169.68
968071.0057565987,-90249.19,-50691.203,-20246.582,-4413.33,-58612.754,-40925.984,-38231.49,-42167.195
968071.0097565972,-90235.88,-50674.52,-20236.492,-4413.6963,-58617.23,-40927.98,-38224.164,-42158.367
968071.0137565957,-90237.47,-50670.25,-20238.078,-4419.2305,-58631.676,-40930.992,-38219.566,-42155.113
968071.0177565942,-90241.09,-50675.945,-20246.908,-4421.7124,-58634.645,-40931.355,-38221.273,-42164.023
968071.0217565928,-90241.87,-50677.41,-20250.326,-4417.806,-58623.82,-40928.793,-38226.97,-42175.17
968071.0257565913,-90242.96,-50672.363,-20250.082,-4415.4053,-58614.83,-40927.29,-38229.617,-42170.816
968071.0297565899,-90246.34,-50675.09,-20248.535,-4418.5386,-58618.004,-40928.59,-38234.254,-42171.59
968071.0337565885,-90246.016,-50669.965,-20248.78,-4422.16,-58635.824,-40931.684,-38237.145,-42181.56
968071.037756587,-90250.9,-50668.99,-20253.826,-4422.119,-58647.746,-40934.125,-38237.47,-42187.746
968071.0417565856,-90249.516,-50669.434,-20250.082,-4416.097,-58637.94,-40932.902,-38235.598,-42182.457
968071.0457565841,-90248.13,-50666.344,-20246.502,-4414.673,-58629.64,-40930.867,-38231.85,-42171.305
968071.0497565827,-90248.45,-50663.21,-20246.541,-4417.1553,-58625.41,-40933.51,-38233.113,-42164.633
968071.0537565813,-90246.55,-50658.285,-20247.762,-4417.562,-58628.297,-40936.24,-38233.6,-42182.375
968071.0577565798,-90241.26,-50656.332,-20247.844,-4418.4165,-58626.184,-40935.832,-38230.633,-42177.53
968071.0617565784,-90239.22,-50656.58,-20245.24,-4414.795,-58621.79,-40932.293,-38230.43,-42167.81
968071.065756577,-90242.35,-50658.652,-20242.025,-4414.2256,-58619.02,-40931.4,-38230.51,-42162.027
968071.0697565755,-90244.914,-50661.99,-20247.762,-4417.4805,-58616.17,-40933.27,-38233.113,-42165.977
968071.0737565741,-90249.15,-50661.38,-20252.32,-4421.9565,-58634.688,-40935.71,-38235.555,-42168.66
968071.0777565725,-90250.94,-50658.49,-20255.656,-4417.8877,-58629.844,-40942.508,-38246.785,-42181.438
968071.0817565711,-90245.484,-50659.26,-20246.541,-4409.7495,-58616.78,-40942.547,-38247.684,-42172.977
968071.0857565696,-90241.74,-50655.152,-20239.34,-4407.715,-58612.633,-40940.473,-38243.98,-42170.29
968071.0897565682,-90237.76,-50651.207,-20242.31,-4410.5225,-58615.156,-40942.465,-38238.973,-42164.062
968071.0937565668,-90239.625,-50647.42,-20243.49,-4416.097,-58634.89,-40943.727,-38235.11,-42156.82
968071.0977565653,-90250.66,-50653.28,-20247.559,-4419.5557,-58647.098,-40940.31,-38234.742,-42165.69
968071.1017565639,-90254.766,-50658.773,-20255.006,-4419.3115,-58646.61,-40935.508,-38233.93,-42172.69
968071.1057565624,-90247.07,-50648.766,-20248.006,-4413.127,-58634.36,-40934.816,-38232.098,-42164.957
968071.109756561,-90247.195,-50651.9,-20250.164,-4416.5854,-58629.965,-40932.82,-38233.805,-42163.37
968071.1137565596,-90248.13,-50653.73,-20251.465,-4422.7705,-58640.668,-40935.06,-38236.695,-42170.98
968071.1177565581,-90250.25,-50653.81,-20253.744,-4424.7236,-58645.59,-40936.566,-38234.945,-42167.727
968071.1217565567,-90250.164,-50653.605,-20249.47,-4416.26,-58631.145,-40932.58,-38229.453,-42155.844
968071.1257565552,-90247.89,-50651.125,-20246.42,-4412.5166,-58627.117,-40931.844,-38227.906,-42151.9
968071.1297565538,-90248.5,-50646.895,-20246.541,-4415.1206,-58632.69,-40937.83,-38234.906,-42157.633
968071.1337565524,-90251.586,-50647.055,-20250.936,-4418.579,-58641.97,-40940.348,-38236.574,-42156.332
968071.1377565509,-90271.69,-50668.582,-20257.812,-4423.1367,-58647.543,-40939.617,-38235.434,-42153.89
968071.1417565494,-90269.01,-50664.348,-20252.85,-4417.4805,-58630.78,-40934.977,-38230.348,-42153.77
968071.1457565479,-90244.14,-50638.062,-20248.332,-4412.7197,-58614.055,-40931.684,-38231.73,-42156.21
968071.1497565465,-90253.54,-50643.84,-20254.68,-4417.2773,-58614.383,-40931.97,-38234.863,-42160.973
968071.153756545,-90266.73,-50655.195,-20261.922,-4424.52,-58626.387,-40935.547,-38237.266,-42165.61
968071.1577565436,-90264.65,-50648.64,-20260.701,-4424.0723,-58635.094,-40939.047,-38236.98,-42172.812
968071.1617565422,-90262.49,-50651.41,-20259.48,-4418.498,-58623.21,-40936.16,-38233.4,-42159.996
968071.1657565407,-90260.375,-50655.684,-20254.11,-4416.0566,-58625.938,-40935.508,-38234.54,-42158.977
968071.1697565393,-90265.47,-50661.746,-20253.621,-4420.2476,-58636.438,-40934.125,-38234.945,-42171.957
968071.1737565378,-90269.086,-50660.156,-20257.244,-4423.381,-58646.895,-40937.543,-38242.23,-42182.375
968071.1777565364,-90274.26,-50663.902,-20262.207,-4423.7876,-58640.953,-40939.168,-38243.082,-42185.184
968071.181756535,-90274.91,-50666.79,-20260.54,-4419.637,-58633.06,-40935.344,-38236.53,-42176.066
968071.1857565335,-90275.44,-50668.99,-20259.236,-4416.911,-58627.605,-40935.832,-38238.77,-42177.086
968071.1897565321,-90276.37,-50669.355,-20260.662,-4419.1084,-58635.254,-40940.227,-38245.688,-42183.88
968071.1937565306,-90278.0,-50668.867,-20261.434,-4420.736,-58646.324,-40944.824,-38250.773,-42186.363
968071.1977565292,-90278.98,-50666.26,-20259.604,-4421.224,-58651.004,-40947.633,-38253.746,-42186.484
968071.2017565278,-90273.12,-50666.668,-20253.338,-4415.161,-58639.69,-40948.324,-38253.297,-42178.914
968071.2057565262,-90268.19,-50666.547,-20245.037,-4410.7666,-58628.83,-40944.664,-38249.758,-42168.457
968071.2097565248,-90262.78,-50659.383,-20243.246,-4412.4756,-58633.63,-40941.895,-38243.652,-42162.8
968071.2137565233,-90266.08,-50660.688,-20246.338,-4417.196,-58643.965,-40942.832,-38239.87,-42164.55
968071.2177565219,-90267.83,-50660.28,-20252.809,-4418.579,-58645.715,-40941.61,-38232.668,-42156.617
968071.2217565204,-90266.73,-50662.234,-20253.541,-4414.5103,-58639.855,-40935.344,-38229.453,-42154.91
968071.225756519,-90273.73,-50670.492,-20254.07,-4415.1206,-58638.062,-40930.746,-38229.086,-42156.25
968071.2297565176,-90281.78,-50673.87,-20257.854,-4421.4683,-58647.098,-40932.617,-38234.54,-42163.902
968071.2337565161,-90286.83,-50672.363,-20261.395,-4424.927,-58645.227,-40938.56,-38240.52,-42175.58
968071.2377565147,-90284.836,-50672.363,-20259.969,-4421.753,-58652.387,-40943.074,-38244.508,-42178.836
968071.2417565132,-90287.07,-50679.2,-20256.55,-4414.3477,-58640.992,-40944.582,-38247.152,-42180.95
968071.2457565118,-90279.5,-50671.715,-20250.326,-4408.325,-58627.65,-40942.914,-38239.625,-42167.523
968071.2497565104,-90275.76,-50668.01,-20251.709,-4411.54,-58638.715,-40941.043,-38234.742,-42158.285
968071.2537565089,-90278.08,-50664.754,-20255.25,-4416.423,-58649.133,-40940.188,-38231.04,-42153.2
968071.2577565075,-90274.336,-50660.24,-20256.47,-4416.301,-58646.61,-40937.867,-38230.957,-42157.758
968071.261756506,-90270.76,-50659.383,-20252.768,-4408.529,-58631.43,-40935.344,-38228.477,-42160.32
968071.2657565046,-90271.164,-50662.8,-20253.094,-4407.0234,-58624.637,-40931.234,-38225.87,-42145.836
968071.269756503,-90267.7,-50660.36,-20255.86,-4412.1094,-58628.094,-40932.902,-38229.74,-42147.543
968071.2737565016,-90273.766,-50663.453,-20258.871,-4419.515,-58645.266,-40934.164,-38233.48,-42163.492
968071.2777565002,-90280.32,-50669.92,-20268.107,-4421.997,-58647.42,-40936.77,-38240.234,-42173.3
968071.2817564987,-90280.56,-50672.08,-20265.584,-4414.2256,-58631.473,-40934.41,-38239.586,-42162.926
968071.2857564973,-90280.93,-50672.934,-20259.969,-4411.621,-58631.555,-40932.78,-38235.516,-42149.742
968071.2897564959,-90282.15,-50669.434,-20255.738,-4411.296,-58638.348,-40938.438,-38241.742,-42158.367
968071.2937564944,-90284.43,-50671.145,-20264.363,-4414.4287,-58640.383,-40940.473,-38243.41,-42167.93
968071.297756493,-90282.35,-50666.63,-20262.94,-4412.557,-58632.203,-40940.105,-38237.875,-42155.07
968071.3017564915,-90280.12,-50665.73,-20259.766,-4407.1455,-58614.79,-40939.414,-38237.387,-42153.523
968071.3057564901,-90277.47,-50667.195,-20255.371,-4403.5645,-58616.418,-40940.676,-38238.566,-42166.668
968071.3097564887,-90284.18,-50672.49,-20254.518,-4406.657,-58636.07,-40940.633,-38236.734,-42164.594
968071.3137564872,-90289.59,-50672.0,-20259.318,-4413.452,-58650.84,-40942.547,-38235.516,-42156.74
968071.3177564858,-90283.45,-50664.754,-20257.0,-4411.662,-58649.66,-40943.2,-38238.812,-42164.188
968071.3217564843,-90283.37,-50664.754,-20258.22,-4406.616,-58633.18,-40939.78,-38235.68,-42156.25
968071.3257564829,-90283.57,-50666.3,-20258.016,-4404.989,-58617.676,-40936.65,-38235.72,-42153.566
968071.3297564815,-90285.484,-50663.94,-20260.295,-4407.5522,-58617.92,-40936.688,-38237.184,-42155.355
968071.3337564799,-90287.84,-50664.227,-20265.625,-4412.679,-58629.64,-40936.89,-38236.125,-42156.25
968071.3377564785,-90285.08,-50664.145,-20259.889,-4411.052,-58640.992,-40939.78,-38237.47,-42160.2
968071.341756477,-90279.5,-50664.145,-20255.574,-4403.0356,-58631.31,-40940.43,-38240.684,-42171.55
968071.3457564756,-90284.67,-50667.117,-20263.225,-4403.646,-58635.215,-40938.56,-38237.47,-42161.95
968071.3497564741,-90286.46,-50666.465,-20262.207,-4405.0703,-58638.88,-40942.223,-38236.94,-42159.305
968071.3537564727,-90292.12,-50674.887,-20262.818,-4410.8076,-58655.438,-40943.727,-38235.72,-42162.56
968071.3577564713,-90304.41,-50690.35,-20266.072,-4412.9233,-58666.223,-40944.254,-38235.066,-42155.273
968071.3617564698,-90298.305,-50676.027,-20263.957,-4401.6113,-58638.797,-40942.426,-38232.83,-42148.277
968071.3657564684,-90284.71,-50656.496,-20265.096,-4399.8213,-58621.258,-40939.008,-38237.305,-42150.96
968071.369756467,-90287.234,-50659.02,-20266.277,-4403.4424,-58622.97,-40940.594,-38241.66,-42159.508
968071.3737564655,-90287.56,-50656.617,-20266.44,-4407.43,-58638.754,-40940.633,-38239.586,-42152.996
968071.3777564641,-90288.58,-50657.188,-20267.254,-4409.424,-58647.016,-40943.727,-38242.637,-42154.703
968071.3817564626,-90292.93,-50661.785,-20266.521,-4404.8667,-58633.3,-40942.465,-38241.496,-42155.926
968071.3857564612,-90284.47,-50656.94,-20264.16,-4398.8037,-58623.945,-40941.082,-38239.016,-42157.594
968071.3897564597,-90280.88,-50651.004,-20261.19,-4400.594,-58626.344,-40943.562,-38240.48,-42157.715
968071.3937564583,-90283.94,-50649.863,-20259.889,-4406.047,-58631.473,-40941.164,-38233.36,-42150.434
968071.3977564567,-90288.13,-50651.695,-20263.55,-4409.017,-58638.715,-40938.355,-38228.68,-42146.934
968071.4017564553,-90292.6,-50656.414,-20263.795,-4404.826,-58633.06,-40934.49,-38228.64,-42148.4
968071.4057564539,-90294.555,-50658.938,-20261.271,-4401.693,-58620.85,-40933.188,-38228.516,-42142.17
968071.4097564524,-90300.74,-50660.24,-20261.678,-4405.8433,-58631.555,-40937.46,-38233.805,-42150.637
968071.413756451,-90302.62,-50656.863,-20265.463,-4409.831,-58646.406,-40942.02,-38236.86,-42155.19
968071.4177564495,-90304.0,-50656.293,-20268.596,-4408.1626,-58644.98,-40943.277,-38236.734,-42148.316
968071.4217564481,-90298.75,-50657.15,-20259.848,-4402.751,-58632.773,-40942.996,-38236.613,-42142.05
968071.4257564467,-90292.85,-50650.594,-20263.754,-4400.635,-58618.492,-40942.383,-38236.98,-42138.023
968071.4297564452,-90289.19,-50647.586,-20259.93,-4402.507,-58625.938,-40943.117,-38240.074,-42144.33
968071.4337564438,-90291.79,-50648.562,-20264.69,-4409.587,-58641.684,-40944.703,-38243.33,-42148.6
968071.4377564423,-90297.0,-50650.39,-20267.701,-4410.1973,-58646.484,-40942.87,-38245.484,-42150.84
968071.4417564409,-90301.48,-50655.56,-20265.625,-4405.1514,-58635.215,-40935.71,-38241.742,-42150.516
968071.4457564395,-90301.96,-50659.914,-20269.002,-4404.8667,-58630.453,-40930.42,-38239.055,-42159.06
968071.449756438,-90305.664,-50663.82,-20270.02,-4408.6104,-58634.402,-40929.117,-38236.168,-42160.28
968071.4537564366,-90305.055,-50657.51,-20268.514,-4411.865,-58635.95,-40933.92,-38233.48,-42154.46
968071.4577564351,-90304.94,-50655.438,-20274.293,-4412.313,-58634.2,-40935.71,-38228.516,-42142.457
968071.4617564336,-90301.31,-50655.477,-20275.35,-4408.1626,-58625.938,-40931.152,-38219.44,-42134.605
968071.4657564322,-90299.65,-50651.734,-20273.723,-4406.372,-58627.85,-40924.234,-38208.66,-42120.363
968071.4697564307,-90296.76,-50643.637,-20271.648,-4405.3955,-58622.844,-40924.562,-38204.793,-42115.113
968071.4737564293,-90300.46,-50645.59,-20273.602,-4409.424,-58638.062,-40929.445,-38208.78,-42127.645
968071.4777564278,-90310.95,-50653.242,-20278.973,-4413.005,-58645.1,-40932.617,-38218.547,-42134.81
968071.4817564264,-90318.08,-50659.914,-20282.43,-4406.942,-58625.938,-40932.945,-38226.766,-42140.586
968071.485756425,-90314.54,-50656.375,-20275.96,-4402.873,-58618.734,-40930.016,-38227.215,-42135.094
968071.4897564235,-90318.24,-50662.844,-20278.523,-4410.5635,-58626.223,-40932.66,-38231.61,-42132.45
968071.4937564221,-90321.82,-50663.984,-20275.594,-4417.033,-58634.848,-40933.637,-38231.406,-42133.914
968071.4977564206,-90322.02,-50662.965,-20275.555,-4416.219,-58635.5,-40932.375,-38225.953,-42128.5
968071.5017564192,-90318.89,-50664.918,-20273.885,-4410.7666,-58632.324,-40928.02,-38221.477,-42125.613
968071.5057564178,-90314.91,-50661.543,-20276.652,-4408.325,-58627.2,-40924.52,-38221.76,-42130.777
968071.5097564163,-90314.91,-50660.24,-20275.838,-4409.953,-58628.625,-40925.293,-38224.04,-42131.836
968071.5137564149,-90317.63,-50659.63,-20279.988,-4413.574,-58638.594,-40925.906,-38222.78,-42130.168
968071.5177564134,-90317.586,-50653.65,-20279.42,-4414.917,-58646.73,-40924.234,-38218.953,-42132.242
968071.521756412,-90317.75,-50655.234,-20276.082,-4410.6445,-58631.227,-40919.76,-38215.375,-42120.934
968071.5257564104,-90314.5,-50655.887,-20275.105,-4407.634,-58618.53,-40919.477,-38215.58,-42115.113
968071.529756409,-90312.75,-50649.945,-20276.002,-4408.8545,-58621.34,-40924.36,-38219.44,-42121.34
968071.5337564076,-90312.26,-50648.234,-20281.17,-4412.8013,-58639.69,-40929.605,-38222.293,-42134.156
968071.5377564061,-90318.89,-50652.184,-20286.906,-4413.615,-58643.434,-40931.152,-38224.855,-42136.72
968071.5417564047,-90315.516,-50652.02,-20283.082,-4407.756,-58639.49,-40927.734,-38223.797,-42137.086
968071.5457564032,-90315.27,-50652.832,-20278.076,-4406.7793,-58635.703,-40923.34,-38222.293,-42129.07
968071.5497564018,-90321.05,-50656.09,-20273.926,-4410.5225,-58642.09,-40920.33,-38220.703,-42127.24
968071.5537564004,-90315.63,-50651.695,-20280.803,-4416.87,-58647.586,-40920.535,-38221.273,-42131.105
968071.5577563989,-90316.61,-50648.316,-20283.162,-4416.5854,-58646.363,-40920.492,-38220.01,-42127.36
968071.5617563975,-90320.07,-50649.457,-20280.193,-4411.0923,-58631.227,-40920.41,-38222.656,-42124.31
968071.565756396,-90313.73,-50641.4,-20277.385,-4408.4067,-58639.0,-40920.453,-38221.477,-42123.78
968071.5697563946,-90322.47,-50647.137,-20280.152,-4409.831,-58648.645,-40922.08,-38220.703,-42130.94
968071.5737563932,-90326.09,-50648.36,-20281.535,-4412.4756,-58650.066,-40925.945,-38225.344,-42144.9
968071.5777563917,-90319.09,-50642.17,-20283.53,-4411.377,-58649.62,-40930.176,-38230.145,-42139.04
968071.5817563903,-90321.414,-50644.29,-20285.28,-4406.942,-58632.082,-40926.066,-38226.32,-42122.438
968071.5857563887,-90314.91,-50639.773,-20276.855,-4404.297,-58622.234,-40922.85,-38226.36,-42123.7
968071.5897563873,-90302.37,-50630.21,-20269.654,-4407.837,-58631.27,-40923.465,-38232.87,-42140.75
968071.5937563858,-90299.56,-50626.26,-20270.264,-4411.052,-58650.555,-40926.35,-38233.035,-42133.832
968071.5977563844,-90302.25,-50626.18,-20274.496,-4411.296,-58661.176,-40925.17,-38229.617,-42135.17
968071.601756383,-90278.41,-50606.69,-20271.525,-4402.954,-58643.965,-40924.52,-38225.383,-42132.45
968071.6057563815,-90256.59,-50584.188,-20265.992,-4394.9385,-58633.26,-40922.934,-38226.605,-42134.93
968071.6097563801,-90241.78,-50573.12,-20266.195,-4396.444,-58633.223,-40924.316,-38228.312,-42138.59
968071.6137563786,-90228.805,-50562.785,-20266.846,-4401.0825,-58648.36,-40925.54,-38230.184,-42141.195
968071.6177563772,-90202.27,-50539.797,-20267.578,-4401.164,-58647.707,-40926.066,-38228.395,-42137.82
968071.6217563758,-90176.84,-50520.1,-20265.422,-4393.84,-58638.266,-40919.312,-38222.37,-42128.418
968071.6257563743,-90160.41,-50502.566,-20264.12,-4392.334,-58628.746,-40915.57,-38221.03,-42124.27
968071.6297563729,-90146.2,-50487.633,-20259.889,-4392.334,-58628.176,-40919.56,-38221.11,-42119.754
968071.6337563714,-90122.73,-50464.277,-20256.877,-4394.8975,-58634.2,-40925.133,-38229.617,-42135.99
968071.63775637,-90079.92,-50421.023,-20247.967,-4388.7534,-58630.13,-40929.2,-38234.66,-42144.938
968071.6417563686,-90057.87,-50398.113,-20242.96,-4380.046,-58618.33,-40927.734,-38233.113,-42139.895
968071.6457563671,-90043.5,-50381.51,-20240.926,-4376.3022,-58619.14,-40925.66,-38232.992,-42141.195
968071.6497563656,-90013.47,-50352.785,-20241.863,-4376.994,-58619.266,-40931.4,-38243.082,-42150.027
968071.6537563641,-89991.945,-50327.72,-20241.863,-4380.249,-58622.355,-40938.56,-38252.035,-42156.375
968071.6577563627,-89981.98,-50313.477,-20242.352,-4377.7266,-58617.395,-40939.7,-38259.195,-42176.066
968071.6617563613,-89966.39,-50300.66,-20235.352,-4371.0127,-58603.56,-40940.39,-38263.59,-42178.836
968071.6657563598,-89960.62,-50286.055,-20232.91,-4367.4727,-58597.453,-40940.188,-38263.918,-42173.746
968071.6697563584,-89949.625,-50267.62,-20232.26,-4366.211,-58601.32,-40940.39,-38264.65,-42174.234
968071.6737563569,-89945.64,-50258.06,-20234.66,-4367.7573,-58612.305,-40944.906,-38268.637,-42184.33
968071.6777563555,-89943.61,-50252.566,-20237.428,-4364.909,-58625.285,-40946.086,-38268.96,-42183.188
968071.681756354,-89942.43,-50249.637,-20239.055,-4358.3984,-58620.08,-40946.004,-38272.707,-42200.97
968071.6857563526,-89938.48,-50240.848,-20239.299,-4357.341,-58597.09,-40947.43,-38280.4,-42218.223
968071.6897563512,-89934.33,-50231.285,-20241.578,-4359.5786,-58600.06,-40949.79,-38283.164,-42219.28
968071.6937563497,-89925.945,-50228.64,-20242.96,-4363.485,-58614.055,-40954.145,-38286.867,-42214.64
968071.6977563483,-89927.58,-50222.008,-20246.541,-4362.7524,-58616.863,-40958.7,-38289.51,-42210.53
968071.7017563469,-89919.27,-50215.742,-20240.316,-4353.5566,-58591.23,-40956.91,-38290.12,-42210.855
968071.7057563454,-89898.84,-50197.51,-20235.84,-4350.83,-58564.902,-40956.668,-38293.094,-42215.21
968071.709756344,-89904.46,-50198.12,-20236.37,-4354.94,-58572.836,-40959.11,-38297.934,-42222.86
968071.7137563424,-89905.03,-50198.324,-20239.666,-4358.8057,-58592.695,-40959.555,-38295.37,-42217.043
968071.717756341,-89897.914,-50186.85,-20243.328,-4357.585,-58592.004,-40961.14,-38293.297,-42210.652
968071.7217563395,-89890.016,-50173.992,-20239.95,-4349.6094,-58576.99,-40958.62,-38292.156,-42208.496
968071.7257563381,-89897.305,-50173.91,-20242.635,-4350.2607,-58567.547,-40954.754,-38289.348,-42206.746
968071.7297563367,-89899.13,-50178.508,-20237.549,-4355.0215,-58576.05,-40957.156,-38294.11,-42214.76
968071.7337563352,-89881.35,-50158.49,-20234.05,-4355.428,-58583.78,-40958.293,-38291.504,-42212.32
968071.7377563338,-89881.836,-50160.2,-20241.414,-4355.5503,-58583.863,-40956.18,-38289.51,-42210.855
968071.7417563323,-89875.125,-50153.523,-20233.602,-4348.4297,-58577.23,-40952.92,-38291.87,-42214.6
968071.7457563309,-89871.87,-50147.098,-20230.957,-4349.04,-58572.633,-40949.18,-38293.254,-42217.57
968071.7497563295,-89874.27,-50150.516,-20231.16,-4353.882,-58584.84,-40950.195,-38294.35,-42213.785
968071.753756328,-89864.055,-50135.785,-20225.709,-4356.242,-58596.355,-40957.805,-38299.195,-42218.914
968071.7577563266,-89868.05,-50133.223,-20230.225,-4356.242,-58601.973,-40961.47,-38302.777,-42224.977
968071.7617563251,-89861.21,-50123.17,-20224.812,-4347.982,-58586.184,-40958.945,-38303.67,-42217.164
968071.7657563237,-89870.164,-50139.0,-20226.033,-4349.2026,-58580.69,-40955.12,-38305.91,-42226.402
968071.7697563223,-89869.59,-50137.168,-20229.168,-4352.458,-58579.875,-40955.324,-38304.117,-42214.195
968071.7737563208,-89860.31,-50122.6,-20230.348,-4355.3467,-58580.812,-40957.926,-38303.996,-42218.63
968071.7777563193,-89855.39,-50117.676,-20233.357,-4356.527,-58591.39,-40957.113,-38300.375,-42222.574
968071.7817563178,-89860.92,-50123.66,-20230.877,-4353.109,-58585.613,-40951.01,-38290.895,-42214.926
968071.7857563164,-89847.45,-50116.05,-20221.639,-4346.802,-58570.56,-40946.453,-38281.496,-42202.516
968071.789756315,-89844.93,-50117.27,-20218.14,-4351.074,-58580.69,-40947.836,-38279.42,-42193.074
968071.7937563135,-89852.13,-50118.734,-20223.389,-4354.0854,-58585.695,-40951.215,-38283.773,-42210.734
968071.7977563121,-89851.65,-50110.68,-20226.441,-4350.2607,-58571.047,-40954.02,-38288.086,-42219.32
968071.8017563106,-89850.18,-50121.137,-20228.11,-4346.802,-58574.87,-40953.98,-38289.145,-42217.082
968071.8057563092,-89845.75,-50115.562,-20228.23,-4343.5874,-58568.402,-40953.33,-38285.973,-42203.816
968071.8097563077,-89842.695,-50108.81,-20224.041,-4344.3604,-58571.617,-40954.55,-38286.99,-42201.17
968071.8137563063,-89839.32,-50104.25,-20223.47,-4346.8833,-58582.727,-40955.77,-38285.24,-42195.312
968071.8177563049,-89841.07,-50101.2,-20223.756,-4345.825,-58584.84,-40955.242,-38286.46,-42201.17
968071.8217563034,-89844.65,-50106.57,-20220.094,-4339.7627,-58568.645,-40948.855,-38280.07,-42191.043
968071.825756302,-89842.49,-50110.23,-20215.496,-4338.8267,-58561.117,-40943.93,-38277.344,-42196.74
968071.8297563005,-89831.914,-50094.484,-20212.973,-4338.9893,-58563.844,-40944.094,-38279.5,-42210.9
968071.8337562991,-89825.97,-50084.96,-20220.5,-4340.78,-58572.754,-40944.99,-38278.24,-42208.21
968071.8377562977,-89831.875,-50085.574,-20225.627,-4343.3433,-58577.965,-40947.266,-38277.06,-42203.777
968071.8417562961,-89831.34,-50089.355,-20224.977,-4336.141,-58569.01,-40949.42,-38277.832,-42200.81
968071.8457562947,-89826.336,-50095.38,-20220.867,-4332.235,-58556.4,-40951.945,-38281.21,-42194.582
968071.8497562932,-89820.03,-50092.207,-20218.14,-4332.357,-58555.176,-40955.16,-38285.2,-42196.414
968071.8537562918,-89818.69,-50081.91,-20221.191,-4335.002,-58563.438,-40959.027,-38291.992,-42201.785
968071.8577562904,-89823.04,-50080.04,-20223.633,-4337.8096,-58573.45,-40956.91,-38288.21,-42197.145
968071.8617562889,-89820.11,-50085.777,-20221.6,-4332.9673,-58564.21,-40950.36,-38284.465,-42201.906
968071.8657562875,-89818.81,-50081.18,-20219.441,-4330.1597,-58555.543,-40947.023,-38283.0,-42200.645
968071.869756286,-89820.92,-50085.53,-20221.965,-4336.3037,-58567.63,-40950.766,-38284.426,-42202.84
968071.8737562846,-89823.37,-50082.848,-20222.088,-4339.966,-58575.24,-40951.62,-38285.36,-42209.92
968071.8777562832,-89823.445,-50076.742,-20223.756,-4338.42,-58573.49,-40950.887,-38283.855,-42206.258
968071.8817562817,-89815.63,-50075.727,-20220.418,-4331.9907,-58562.055,-40947.43,-38282.715,-42205.04
968071.8857562803,-89815.96,-50080.445,-20216.676,-4331.299,-58570.152,-40944.906,-38280.4,-42198.773
968071.8897562788,-89824.875,-50082.234,-20221.965,-4335.6123,-58572.55,-40943.605,-38277.547,-42195.516
968071.8937562774,-89828.414,-50075.562,-20226.807,-4339.6406,-58575.24,-40944.418,-38272.707,-42184.285
968071.897756276,-89809.45,-50066.816,-20220.662,-4336.914,-58570.234,-40948.73,-38269.246,-42179.934
968071.9017562745,-89804.12,-50065.797,-20221.803,-4334.0254,-58567.87,-40945.516,-38267.906,-42176.8
968071.905756273,-89814.5,-50066.49,-20226.686,-4335.4087,-58561.08,-40941.812,-38266.156,-42165.69
968071.9097562715,-89812.87,-50063.438,-20226.482,-4335.8154,-58566.855,-40943.523,-38272.79,-42183.105
968071.9137562701,-89812.46,-50064.375,-20224.0,-4337.3213,-58592.734,-40946.617,-38276.33,-42198.65
968071.9177562686,-89817.23,-50064.535,-20224.854,-4338.2163,-58599.0,-40948.773,-38277.875,-42191.69
968071.9217562672,-89812.95,-50064.535,-20220.297,-4330.5664,-58581.992,-40948.934,-38282.633,-42203.94
968071.9257562658,-89808.19,-50063.273,-20219.361,-4328.817,-58564.863,-40949.22,-38286.297,-42216.066
968071.9297562643,-89813.03,-50062.42,-20223.756,-4333.0894,-58568.688,-40950.887,-38289.55,-42219.85
968071.9337562629,-89817.55,-50059.613,-20228.312,-4338.4604,-58576.418,-40954.145,-38290.652,-42224.367
968071.9377562614,-89818.69,-50060.875,-20232.83,-4340.7393,-58572.145,-40957.766,-38293.906,-42217.246
968071.94175626,-89823.164,-50064.453,-20233.766,-4334.554,-58554.08,-40951.703,-38288.21,-42210.043
968071.9457562586,-89818.85,-50064.453,-20228.963,-4328.9795,-58548.992,-40946.94,-38282.84,-42210.652
968071.9497562571,-89814.5,-50060.914,-20225.75,-4332.1943,-58569.62,-40947.51,-38283.406,-42216.434
968071.9537562557,-89815.555,-50063.152,-20226.766,-4335.368,-58572.55,-40951.17,-38285.035,-42212.566
968071.9577562542,-89811.12,-50055.38,-20233.398,-4335.49,-58573.04,-40949.832,-38282.188,-42206.992
968071.9617562528,-89808.23,-50050.008,-20231.975,-4328.7764,-58556.766,-40946.414,-38282.633,-42202.395
968071.9657562514,-89819.664,-50060.26,-20232.951,-4329.3867,-58554.65,-40947.145,-38282.023,-42199.91
968071.9697562498,-89811.445,-50051.84,-20226.889,-4332.0312,-58558.594,-40953.98,-38289.957,-42201.945
968071.9737562484,-89805.38,-50048.3,-20222.656,-4334.3506,-58557.414,-40956.992,-38291.992,-42208.05
968071.9777562469,-89815.11,-50050.66,-20228.924,-4334.6763,-58559.734,-40958.414,-38293.01,-42207.6
968071.9817562455,-89809.25,-50050.906,-20228.312,-4325.277,-58557.902,-40955.16,-38293.336,-42209.188
968071.985756244,-89809.45,-50053.71,-20221.72,-4322.551,-58552.043,-40951.906,-38292.195,-42206.258
968071.9897562426,-89812.664,-50046.875,-20218.994,-4330.2,-58560.63,-40953.043,-38293.094,-42212.73
968071.9937562412,-89805.914,-50036.215,-20221.844,-4333.049,-58566.855,-40952.477,-38291.22,-42216.35
968071.9977562397,-89804.85,-50039.188,-20223.674,-4330.241,-58569.38,-40949.098,-38285.973,-42202.11
968072.0017562383,-89808.31,-50046.062,-20222.332,-4328.369,-58563.113,-40945.8,-38281.74,-42187.215
968072.0057562368,-89810.06,-50042.24,-20218.385,-4325.8057,-58555.3,-40945.152,-38286.38,-42198.04
968072.0097562354,-89805.18,-50034.344,-20216.432,-4327.9624,-58551.066,-40947.47,-38293.215,-42218.1
968072.013756234,-89805.586,-50033.45,-20217.773,-4331.34,-58556.6,-40951.785,-38294.68,-42215.09
968072.0177562325,-89817.75,-50044.72,-20218.994,-4334.2285,-58567.996,-40957.195,-38296.1,-42219.523
968072.0217562311,-89809.086,-50040.242,-20217.896,-4328.491,-58565.43,-40950.4,-38289.51,-42210.164
968072.0257562296,-89807.17,-50038.047,-20215.943,-4327.922,-58564.74,-40948.242,-38287.844,-42201.99
968072.0297562282,-89813.97,-50047.08,-20221.803,-4331.828,-58557.457,-40951.09,-38289.062,-42197.145
968072.0337562267,-89805.99,-50040.164,-20216.96,-4332.5605,-58568.566,-40950.848,-38288.332,-42201.824
968072.0377562252,-89812.38,-50042.117,-20220.947,-4332.5605,-58576.5,-40950.97,-38286.746,-42201.742
968072.0417562238,-89813.11,-50043.297,-20223.348,-4328.369,-58555.992,-40948.812,-38286.582,-42197.55
968072.0457562223,-89800.5,-50031.82,-20213.094,-4321.981,-58540.45,-40946.414,-38284.508,-42192.383
968072.0497562209,-89799.4,-50033.285,-20211.508,-4325.9277,-58553.55,-40944.133,-38282.105,-42190.023
968072.0537562195,-89799.85,-50030.805,-20213.787,-4332.4385,-58564.7,-40944.133,-38278.523,-42189.902
968072.057756218,-89797.94,-50020.875,-20214.111,-4333.049,-58564.535,-40946.414,-38277.26,-42188.152
968072.0617562166,-89804.85,-50031.414,-20215.414,-4329.0205,-58558.676,-40943.035,-38276.125,-42181.07
968072.0657562151,-89806.4,-50032.105,-20212.361,-4326.213,-58556.6,-40944.5,-38283.938,-42197.023
968072.0697562137,-89811.24,-50030.113,-20215.291,-4329.712,-58557.742,-40947.754,-38292.32,-42215.25
968072.0737562123,-89816.41,-50030.477,-20220.215,-4333.74,-58566.082,-40951.215,-38294.56,-42215.414
968072.0777562108,-89807.05,-50024.824,-20217.041,-4331.0957,-58559.33,-40951.297,-38292.117,-42209.92
968072.0817562094,-89807.01,-50028.605,-20209.92,-4324.2188,-58546.836,-40948.445,-38288.535,-42208.902
968072.0857562079,-89811.81,-50031.17,-20208.781,-4320.923,-58545.086,-40947.43,-38285.688,-42204.754
968072.0897562065,-89810.18,-50029.785,-20210.002,-4326.213,-58559.734,-40948.16,-38286.824,-42200.6
968072.093756205,-89813.48,-50025.72,-20215.129,-4332.8857,-58568.848,-40949.22,-38286.094,-42198.04
968072.0977562035,-89815.35,-50024.254,-20218.914,-4333.252,-58574.3,-40948.16,-38283.977,-42203.453
968072.101756202,-89815.92,-50022.87,-20219.035,-4327.0674,-58562.746,-40944.5,-38281.94,-42202.555
968072.1057562006,-89819.586,-50030.273,-20216.96,-4327.6367,-58556.887,-40944.5,-38285.36,-42195.516
968072.1097561992,-89823.9,-50032.715,-20216.717,-4333.3335,-58569.906,-40947.266,-38289.797,-42191.855
968072.1137561977,-89818.85,-50028.117,-20216.676,-4333.659,-58579.145,-40952.11,-38294.84,-42203.168
968072.1177561963,-89810.836,-50017.78,-20213.99,-4330.2,-58575.035,-40955.16,-38294.637,-42206.016
968072.1217561949,-89807.3,-50016.113,-20208.822,-4323.7305,-58562.83,-40951.457,-38288.37,-42193.44
968072.1257561934,-89805.914,-50014.895,-20207.602,-4322.3066,-58557.008,-40948.895,-38286.297,-42190.594
968072.129756192,-89813.805,-50023.926,-20208.455,-4326.864,-58564.902,-40951.375,-38290.895,-42201.05
968072.1337561905,-89824.67,-50026.125,-20213.258,-4330.4854,-58573.73,-40956.383,-38296.387,-42209.188
968072.1377561891,-89825.85,-50025.39,-20217.45,-4331.421,-58581.625,-40957.4,-38297.16,-42208.09
968072.1417561877,-89821.62,-50023.4,-20211.914,-4327.596,-58576.5,-40953.33,-38298.707,-42205.895
968072.1457561862,-89815.31,-50022.664,-20210.613,-4324.0156,-58567.547,-40949.992,-38300.984,-42213.83
968072.1497561848,-89821.13,-50024.17,-20210.938,-4327.759,-58565.31,-40948.65,-38297.934,-42210.45
968072.1537561833,-89822.63,-50021.16,-20210.693,-4330.2,-58568.77,-40949.87,-38291.547,-42195.56
968072.1577561819,-89824.18,-50024.414,-20215.82,-4331.5024,-58575.035,-40946.414,-38287.598,-42194.297
968072.1617561803,-89818.69,-50026.9,-20213.705,-4326.66,-58570.03,-40944.05,-38288.82,-42202.395
968072.1657561789,-89822.516,-50027.223,-20213.135,-4326.0093,-58563.684,-40944.094,-38289.594,-42206.668
968072.1697561775,-89836.47,-50037.68,-20221.6,-4332.6826,-58577.598,-40946.37,-38292.117,-42218.71
968072.173756176,-89839.64,-50033.613,-20222.006,-4335.368,-58585.168,-40949.992,-38293.62,-42214.805
968072.1777561746,-89831.95,-50021.65,-20217.773,-4333.374,-58585.086,-40951.05,-38289.797,-42201.99
968072.1817561731,-89831.79,-50029.137,-20215.7,-4329.5493,-58576.133,-40949.06,-38293.418,-42212.32
968072.1857561717,-89832.64,-50034.223,-20211.264,-4330.6074,-58579.67,-40947.957,-38297.566,-42211.266
968072.1897561703,-89828.86,-50026.29,-20214.926,-4331.299,-58572.88,-40947.715,-38298.83,-42208.58
968072.1937561688,-89825.69,-50018.027,-20214.275,-4333.3335,-58581.625,-40948.285,-38299.645,-42199.668
968072.1977561674,-89834.31,-50024.66,-20217.244,-4334.758,-58586.47,-40948.934,-38301.066,-42198.855
968072.201756166,-89837.98,-50029.46,-20216.146,-4330.404,-58576.5,-40947.594,-38302.695,-42204.55
968072.2057561645,-89832.03,-50021.73,-20210.002,-4326.7417,-58566.45,-40947.023,-38303.348,-42204.633
968072.2097561631,-89833.945,-50020.875,-20210.408,-4330.6074,-58570.723,-40947.145,-38301.027,-42195.64
968072.2137561616,-89830.2,-50018.72,-20215.82,-4335.327,-58587.363,-40946.29,-38298.586,-42195.68
968072.2177561602,-89831.664,-50020.348,-20216.838,-4334.554,-58592.004,-40948.082,-38301.758,-42210.98
968072.2217561587,-89834.15,-50017.824,-20213.95,-4329.5493,-58577.883,-40945.11,-38300.78,-42210.043
968072.2257561572,-89837.94,-50016.24,-20212.24,-4329.753,-58571.7,-40944.582,-38302.53,-42210.938
968072.2297561557,-89848.31,-50027.426,-20215.414,-4334.717,-58579.754,-40946.94,-38305.137,-42217.164
968072.2337561543,-89844.28,-50028.65,-20216.229,-4335.6123,-58594.117,-40950.36,-38307.58,-42225.465
968072.2377561529,-89840.984,-50022.586,-20214.479,-4333.659,-58600.914,-40949.06,-38303.266,-42219.035
968072.2417561514,-89841.11,-50022.746,-20210.043,-4327.2705,-58588.42,-40942.547,-38298.34,-42209.434
968072.24575615,-89840.5,-50023.52,-20204.06,-4326.091,-58582.52,-40940.227,-38298.055,-42205.73
968072.2497561486,-89837.24,-50015.91,-20208.578,-4330.078,-58589.52,-40942.14,-38295.453,-42193.2
968072.2537561471,-89842.77,-50012.94,-20215.252,-4336.67,-58600.71,-40944.46,-38293.215,-42191.734
968072.2577561457,-89848.43,-50020.957,-20218.873,-4337.199,-58607.75,-40944.99,-38297.73,-42205.363
968072.2617561442,-89843.18,-50019.656,-20214.926,-4329.509,-58588.746,-40944.62,-38297.85,-42205.28
968072.2657561428,-89838.09,-50015.22,-20210.328,-4326.701,-58570.477,-40943.035,-38298.016,-42204.062
968072.2697561414,-89840.664,-50012.168,-20210.205,-4331.0547,-58579.266,-40943.81,-38301.35,-42202.76
968072.2737561399,-89839.07,-50007.406,-20216.553,-4333.252,-58589.355,-40944.99,-38303.793,-42200.277
968072.2777561385,-89834.15,-50005.37,-20214.926,-4330.648,-58591.434,-40946.535,-38301.883,-42190.555
968072.281756137,-89840.17,-50014.49,-20212.037,-4327.352,-58587.08,-40944.664,-38306.316,-42204.996
968072.2857561356,-89846.88,-50017.254,-20211.549,-4329.7935,-58589.766,-40943.89,-38308.188,-42216.35
968072.289756134,-89842.0,-50011.07,-20212.646,-4334.4727,-58603.395,-40944.418,-38306.64,-42207.03
968072.2937561326,-89841.43,-50009.81,-20210.938,-4334.1475,-58610.8,-40947.105,-38304.812,-42202.76
968072.2977561312,-89847.05,-50010.05,-20213.258,-4333.944,-58606.324,-40945.11,-38300.906,-42203.33
968072.3017561297,-89853.56,-50015.383,-20217.488,-4330.2817,-58587.688,-40941.855,-38299.03,-42206.992
968072.3057561283,-89858.24,-50021.77,-20214.926,-4327.4336,-58575.402,-40939.902,-38300.66,-42205.484
968072.3097561268,-89859.87,-50024.863,-20214.355,-4332.235,-58585.086,-40940.758,-38302.043,-42209.027
968072.3137561254,-89860.07,-50021.812,-20215.008,-4337.728,-58598.39,-40945.72,-38307.047,-42215.496
968072.317756124,-89862.914,-50018.434,-20218.588,-4337.4023,-58600.02,-40947.836,-38309.977,-42213.625
968072.3217561225,-89863.484,-50021.934,-20217.773,-4331.706,-58584.637,-40944.906,-38307.332,-42207.48
968072.3257561211,-89856.695,-50016.562,-20216.309,-4330.8516,-58573.855,-40942.18,-38306.438,-42204.145
968072.3297561196,-89861.695,-50022.22,-20219.97,-4335.0425,-58579.387,-40943.562,-38306.316,-42199.3
968072.3337561182,-89868.984,-50028.65,-20221.15,-4340.088,-58600.832,-40946.574,-38307.66,-42197.754
968072.3377561168,-89864.586,-50026.004,-20217.488,-4340.251,-58609.05,-40948.16,-38309.773,-42206.34
968072.3417561153,-89856.41,-50024.54,-20212.037,-4336.1006,-58599.406,-40946.98,-38309.938,-42209.96
968072.3457561139,-89847.25,-50013.67,-20210.002,-4333.4556,-58598.43,-40946.086,-38310.914,-42209.96
968072.3497561124,-89856.164,-50019.168,-20213.543,-4337.7686,-58603.438,-40946.13,-38312.582,-42213.176
968072.3537561109,-89867.64,-50025.27,-20215.82,-4340.698,-58609.457,-40948.203,-38310.184,-42208.21
968072.3577561094,-89858.36,-50017.863,-20212.77,-4337.5244,-58610.19,-40950.848,-38310.63,-42208.54
968072.361756108,-89848.11,-50011.434,-20209.27,-4329.468,-58589.52,-40949.26,-38313.965,-42211.47
968072.3657561066,-89846.03,-50010.54,-20209.717,-4327.596,-58583.09,-40947.348,-38312.99,-42203.086
968072.3697561051,-89855.43,-50012.574,-20212.646,-4332.357,-58595.38,-40947.754,-38315.51,-42206.258
968072.3737561037,-89858.03,-50008.953,-20220.418,-4339.0303,-58612.754,-40950.81,-38314.09,-42203.29
968072.3777561022,-89855.43,-50006.145,-20219.441,-4337.8096,-58614.83,-40956.098,-38311.402,-42199.465
968072.3817561008,-89854.984,-50005.293,-20216.676,-4331.462,-58590.21,-40981.242,-38307.66,-42196.414
968072.3857560994,-89858.36,-50008.75,-20215.576,-4331.299,-58596.07,-40992.84,-38303.754,-42194.867
968072.3897560979,-89857.22,-50008.63,-20210.084,-4335.246,-58605.797,-40995.688,-38303.426,-42195.926
968072.3937560965,-89853.88,-50008.504,-20209.799,-4339.437,-58617.395,-41001.344,-38305.83,-42198.773
968072.397756095,-89853.97,-50004.152,-20213.299,-4336.3037,-58605.715,-41003.133,-38302.86,-42190.43
968072.4017560936,-89849.66,-50003.418,-20212.566,-4329.1016,-58589.03,-41002.36,-38305.137,-42199.465
968072.4057560922,-89843.43,-50002.2,-20209.229,-4327.6777,-58581.953,-41001.668,-38307.984,-42206.098
968072.4097560907,-89844.16,-49996.46,-20210.002,-4330.404,-58589.926,-41001.06,-38306.805,-42197.633
968072.4137560893,-89852.38,-49996.785,-20212.566,-4334.758,-58598.633,-41001.87,-38308.39,-42196.535
968072.4177560877,-89854.54,-50001.06,-20215.82,-4336.019,-58604.777,-41001.87,-38307.984,-42188.234
968072.4217560863,-89856.49,-50011.23,-20213.582,-4332.235,-58599.61,-41003.418,-38310.26,-42192.953
968072.4257560848,-89855.1,-50017.17,-20209.27,-4329.3867,-58591.797,-41003.094,-38310.465,-42196.086
968072.4297560834,-89859.375,-50022.83,-20206.99,-4332.1533,-58594.81,-41002.645,-38310.71,-42203.94
968072.433756082,-89859.375,-50011.598,-20208.496,-4335.8564,-58609.094,-41004.273,-38311.93,-42203.168
968072.4377560805,-89854.695,-50003.543,-20211.14,-4336.8735,-58609.05,-41005.574,-38311.85,-42202.8
968072.4417560791,-89853.97,-50009.402,-20208.62,-4331.7466,-58583.457,-41000.773,-38310.387,-42196.695
968072.4457560777,-89861.66,-50012.9,-20206.055,-4330.8105,-58585.41,-40993.816,-38306.97,-42184.41
968072.4497560762,-89864.1,-50010.54,-20209.27,-4336.141,-58597.58,-40992.8,-38303.875,-42175.66
968072.4537560748,-89867.64,-50014.65,-20209.88,-4339.437,-58614.465,-40996.625,-38305.867,-42178.1
968072.4577560733,-89866.5,-50016.074,-20213.299,-4337.2397,-58619.02,-40995.81,-38310.02,-42185.223
968072.4617560719,-89868.49,-50021.934,-20211.305,-4331.828,-58609.418,-40997.887,-38316.45,-42193.562
968072.4657560705,-89870.164,-50025.88,-20210.164,-4330.8516,-58602.01,-40999.918,-38321.25,-42193.645
968072.469756069,-89862.19,-50019.574,-20206.463,-4330.078,-58600.953,-41001.75,-38326.05,-42203.125
968072.4737560676,-89862.43,-50021.242,-20206.463,-4333.3335,-58607.707,-41001.63,-38327.68,-42208.336
968072.4777560661,-89867.07,-50019.656,-20211.385,-4331.421,-58612.67,-41000.0,-38327.395,-42210.41
968072.4817560646,-89875.53,-50024.945,-20213.908,-4328.695,-58599.0,-40993.207,-38324.016,-42202.516
968072.4857560631,-89868.45,-50026.082,-20213.826,-4330.526,-58598.188,-40990.6,-38322.43,-42192.14
968072.4897560617,-89862.914,-50022.625,-20215.008,-4336.8735,-58607.465,-40994.914,-38325.44,-42202.92
968072.4937560603,-89878.586,-50032.473,-20219.035,-4340.332,-58621.543,-41001.26,-38327.598,-42212.65
968072.4977560588,-89874.516,-50025.92,-20220.094,-4335.6123,-58616.21,-41004.395,-38328.613,-42206.543
968072.5017560574,-89871.586,-50016.316,-20219.727,-4330.078,-58595.95,-41004.07,-38328.125,-42198.242
968072.5057560559,-89880.86,-50026.57,-20218.1,-4328.8984,-58578.086,-41002.24,-38329.55,-42206.95
968072.5097560545,-89882.53,-50032.227,-20221.518,-4332.235,-58588.543,-41001.63,-38328.37,-42206.992
968072.513756053,-89883.99,-50028.688,-20225.3,-4338.501,-58603.11,-41001.344,-38328.25,-42207.52
968072.5177560516,-89889.9,-50028.688,-20228.639,-4339.437,-58600.383,-41001.668,-38325.887,-42202.35
968072.5217560502,-89893.84,-50033.043,-20229.371,-4335.2866,-58597.7,-40999.96,-38318.93,-42191.043
968072.5257560487,-89897.18,-50040.773,-20226.807,-4334.1475,-58596.152,-40998.94,-38320.598,-42197.105
968072.5297560473,-89891.85,-50036.62,-20224.162,-4336.589,-58597.78,-41000.49,-38322.062,-42199.383
968072.5337560459,-89892.984,-50036.46,-20223.797,-4339.2744,-58615.562,-41005.13,-38325.48,-42198.855
968072.5377560444,-89889.28,-50031.17,-20224.977,-4337.199,-58621.38,-41006.676,-38330.85,-42211.832
968072.541756043,-89882.9,-50028.688,-20221.72,-4333.171,-58602.95,-41003.176,-38331.383,-42216.676
968072.5457560414,-89882.81,-50030.477,-20221.436,-4333.496,-58595.176,-40998.617,-38329.508,-42204.918
968072.54975604,-89890.55,-50036.094,-20225.262,-4339.4775,-58599.53,-40998.7,-38329.793,-42207.887
968072.5537560385,-89897.016,-50036.99,-20229.127,-4343.547,-58608.645,-41001.18,-38326.58,-42202.273
968072.5577560371,-89892.46,-50029.99,-20226.521,-4339.885,-58597.375,-41001.426,-38322.55,-42195.438
968072.5617560357,-89884.73,-50027.1,-20227.418,-4332.0312,-58580.242,-41001.305,-38325.24,-42206.383
968072.5657560342,-89889.125,-50031.984,-20226.645,-4329.7935,-58577.844,-40999.637,-38323.977,-42204.715
968072.5697560328,-89891.805,-50029.055,-20227.215,-4332.5605,-58583.133,-41002.035,-38322.797,-42196.29
968072.5737560313,-89893.03,-50022.79,-20226.156,-4334.6763,-58588.867,-41007.367,-38326.215,-42196.047
968072.5777560299,-89897.26,-50025.555,-20226.238,-4338.2163,-58594.727,-41009.97,-38324.79,-42191.324
968072.5817560285,-89902.266,-50030.355,-20222.412,-4333.2114,-58584.758,-41005.535,-38325.48,-42198.895
968072.585756027,-89903.32,-50034.426,-20220.906,-4331.0547,-58573.203,-41002.566,-38325.848,-42203.125
968072.5897560256,-89903.12,-50035.605,-20225.057,-4336.1816,-58571.902,-41001.63,-38324.098,-42198.855
968072.5937560241,-89903.37,-50042.605,-20225.871,-4341.675,-58587.363,-41004.11,-38322.754,-42191.367
968072.5977560227,-89901.66,-50040.855,-20227.742,-4336.914,-58577.15,-41004.723,-38324.06,-42199.91
968072.6017560213,-89897.22,-50035.035,-20224.041,-4329.061,-58571.496,-41001.465,-38321.695,-42201.09
968072.6057560198,-89897.016,-50034.953,-20223.186,-4332.1533,-58566.0,-40996.137,-38319.785,-42194.582
968072.6097560183,-89902.63,-50032.43,-20228.963,-4338.8267,-58575.81,-40993.613,-38320.312,-42191.0
968072.6137560168,-89905.88,-50030.355,-20231.324,-4344.3604,-58589.844,-40995.973,-38321.74,-42188.965
968072.6177560154,-89908.29,-50033.53,-20235.107,-4343.9536,-58589.438,-40996.34,-38321.777,-42191.61
968072.621756014,-89902.8,-50031.902,-20231.648,-4336.0596,-58576.785,-40992.72,-38320.152,-42198.57
968072.6257560125,-89896.28,-50030.64,-20229.168,-4334.5137,-58572.633,-40993.246,-38320.152,-42195.516
968072.6297560111,-89897.95,-50030.965,-20227.742,-4338.786,-58582.24,-40996.91,-38319.664,-42191.812
968072.6337560096,-89895.63,-50025.88,-20230.877,-4342.163,-58586.914,-41001.02,-38319.95,-42196.94
968072.6377560082,-89899.7,-50026.695,-20234.822,-4342.163,-58590.58,-41000.45,-38317.668,-42201.824
968072.6417560067,-89901.21,-50028.73,-20231.975,-4335.897,-58579.43,-40994.547,-38316.652,-42200.277
968072.6457560053,-89900.19,-50028.445,-20229.207,-4337.3213,-58580.406,-40993.367,-38321.492,-42202.637
968072.6497560039,-89899.78,-50032.023,-20229.168,-4343.628,-58591.15,-40995.484,-38322.836,-42196.98
968072.6537560024,-89903.37,-50032.023,-20228.557,-4345.9883,-58591.637,-40997.76,-38324.87,-42201.785
968072.657756001,-89907.27,-50030.07,-20233.928,-4347.2495,-58593.387,-41001.26,-38327.72,-42204.793
968072.6617559996,-89910.61,-50037.844,-20234.742,-4341.919,-58585.086,-40999.188,-38329.1,-42206.625
968072.6657559981,-89905.195,-50036.38,-20229.248,-4339.1523,-58572.96,-40995.523,-38329.996,-42205.12
968072.6697559967,-89899.17,-50029.867,-20230.713,-4340.1694,-58575.074,-40997.07,-38329.754,-42202.19
968072.6737559951,-89901.82,-50030.52,-20235.637,-4342.8955,-58587.812,-41000.613,-38330.73,-42202.92
968072.6777559937,-89901.414,-50027.754,-20237.672,-4342.285,-58583.215,-41002.89,-38330.242,-42196.98
968072.6817559922,-89899.78,-50025.15,-20233.807,-4337.199,-58568.566,-40998.58,-38325.684,-42190.43
968072.6857559908,-89899.664,-50027.754,-20228.883,-4336.3037,-58568.156,-40994.793,-38323.0,-42186.89
968072.6897559894,-89899.54,-50029.137,-20230.021,-4342.0005,-58568.89,-40995.566,-38322.227,-42182.13
968072.6937559879,-89903.164,-50028.934,-20229.371,-4344.9707,-58577.11,-41000.125,-38325.684,-42188.64
968072.6977559865,-89908.734,-50029.258,-20235.555,-4345.134,-58585.98,-41005.13,-38332.113,-42197.105
968072.701755985,-89908.2,-50033.977,-20236.572,-4339.6406,-58586.67,-41003.582,-38333.863,-42201.336
968072.7057559836,-89905.805,-50033.734,-20235.107,-4337.606,-58573.57,-41003.055,-38336.63,-42201.906
968072.7097559822,-89912.4,-50035.645,-20237.875,-4342.163,-58582.36,-41004.8,-38339.64,-42200.113
968072.7137559807,-89910.98,-50030.234,-20240.926,-4344.2383,-58591.188,-41006.348,-38340.78,-42215.617
968072.7177559793,-89912.48,-50021.85,-20241.17,-4342.733,-58580.04,-41004.19,-38338.22,-42227.418
968072.7217559778,-89915.81,-50028.035,-20241.049,-4341.0645,-58572.96,-40996.625,-38330.28,-42212.973
968072.7257559764,-89912.36,-50029.055,-20238.973,-4341.797,-58569.418,-40991.824,-38324.18,-42197.754
968072.729755975,-89904.75,-50022.258,-20234.986,-4345.459,-58575.035,-40995.688,-38318.36,-42189.008
968072.7337559735,-89906.25,-50020.633,-20235.352,-4349.04,-58583.336,-40994.754,-38312.664,-42182.457
968072.737755972,-89921.72,-50030.03,-20239.096,-4348.5923,-58582.97,-40994.63,-38309.977,-42177.043
968072.7417559705,-89920.66,-50027.547,-20238.12,-4342.041,-58552.125,-40996.42,-38315.676,-42183.35
968072.7457559691,-89906.74,-50019.168,-20236.94,-4338.542,-58530.113,-40998.09,-38322.105,-42188.56
968072.7497559676,-89908.53,-50022.46,-20238.037,-4342.082,-58544.477,-40999.27,-38328.207,-42188.6
968072.7537559662,-89919.195,-50030.684,-20242.555,-4347.6973,-58564.82,-41001.832,-38332.156,-42189.58
968072.7577559648,-89919.766,-50027.1,-20238.69,-4345.9067,-58567.465,-41001.914,-38335.574,-42194.38
968072.7617559633,-89916.75,-50024.13,-20234.457,-4341.1055,-58564.09,-41002.035,-38333.17,-42188.844
968072.7657559619,-89906.414,-50020.1,-20230.836,-4339.5996,-58567.426,-40998.17,-38326.58,-42178.305
968072.7697559604,-89905.84,-50019.492,-20228.68,-4343.0586,-58583.418,-40996.5,-38324.18,-42179.445
968072.773755959,-89905.27,-50016.523,-20230.469,-4345.703,-58591.758,-40999.797,-38326.215,-42186.44
968072.7777559576,-89907.68,-50016.727,-20235.678,-4345.5,-58592.57,-41001.953,-38326.66,-42186.117
968072.7817559561,-89908.9,-50015.383,-20234.01,-4339.6406,-58572.633,-40999.023,-38329.754,-42185.02
968072.7857559547,-89915.2,-50020.305,-20233.113,-4338.094,-58560.67,-40998.09,-38334.598,-42186.93
968072.7897559532,-89926.03,-50027.793,-20236.492,-4342.285,-58564.82,-41000.043,-38335.45,-42186.402
968072.7937559518,-89923.75,-50023.848,-20244.914,-4348.0225,-58574.992,-41000.734,-38335.574,-42195.883
968072.7977559504,-89914.35,-50019.29,-20241.781,-4347.6157,-58578.125,-40998.008,-38330.61,-42195.68
968072.8017559488,-89915.94,-50024.66,-20239.46,-4342.977,-58569.215,-40994.59,-38322.55,-42187.664
968072.8057559474,-89922.125,-50030.438,-20237.916,-4342.5703,-58566.49,-40993.082,-38321.086,-42186.65
968072.8097559459,-89920.21,-50023.805,-20236.248,-4345.378,-58576.62,-40995.77,-38324.26,-42204.836
968072.8137559445,-89920.125,-50019.98,-20238.24,-4348.755,-58589.805,-40998.902,-38324.18,-42203.74
968072.817755943,-89921.67,-50025.473,-20242.39,-4349.8535,-58596.64,-41000.043,-38322.918,-42194.582
968072.8217559416,-89924.73,-50029.176,-20242.717,-4344.7266,-58580.527,-40998.09,-38324.465,-42195.516
968072.8257559402,-89923.67,-50026.492,-20238.729,-4341.146,-58574.14,-40998.25,-38325.848,-42192.223
968072.8297559387,-89918.26,-50020.633,-20236.287,-4342.611,-58577.027,-41000.613,-38327.273,-42192.79
968072.8337559373,-89918.91,-50020.957,-20235.76,-4347.0054,-58579.266,-41003.867,-38327.395,-42189.047
968072.8377559358,-89917.32,-50023.03,-20237.996,-4346.273,-58579.754,-41002.156,-38327.8,-42191.938
968072.8417559344,-89914.266,-50019.207,-20233.725,-4339.559,-58567.996,-40997.684,-38326.457,-42187.34
968072.845755933,-89918.664,-50020.918,-20233.398,-4340.78,-58562.38,-40995.89,-38324.26,-42181.07
968072.8497559315,-89925.26,-50016.113,-20236.736,-4345.378,-58562.258,-40998.17,-38329.59,-42189.58
968072.8537559301,-89923.95,-50012.13,-20244.629,-4350.057,-58578.37,-40999.43,-38330.77,-42195.395
968072.8577559286,-89920.53,-50011.56,-20243.816,-4347.534,-58585.043,-40996.785,-38322.836,-42185.75
968072.8617559272,-89923.26,-50021.566,-20244.67,-4343.1396,-58579.59,-40992.516,-38319.215,-42181.805
968072.8657559257,-89922.445,-50020.43,-20243.084,-4343.75,-58574.75,-40994.223,-38320.07,-42182.254
968072.8697559242,-89920.49,-50012.86,-20242.432,-4344.1978,-58574.668,-40999.023,-38324.668,-42192.26
968072.8737559228,-89921.63,-50010.336,-20244.508,-4346.395,-58581.137,-41001.668,-38325.887,-42192.223
968072.8777559213,-89931.07,-50017.375,-20250.123,-4346.273,-58582.97,-41002.973,-38327.516,-42200.24
968072.8817559199,-89931.766,-50018.68,-20246.785,-4341.3496,-58575.81,-41001.344,-38329.227,-42198.04
968072.8857559185,-89924.03,-50016.645,-20241.984,-4340.8203,-58579.348,-41000.406,-38329.348,-42189.984
968072.889755917,-89928.14,-50017.336,-20247.355,-4348.796,-58591.797,-41000.734,-38331.91,-42189.7
968072.8937559156,-89938.11,-50020.387,-20248.78,-4352.661,-58591.31,-41002.24,-38335.41,-42195.07
968072.8977559141,-89944.7,-50020.348,-20252.32,-4350.5454,-58595.215,-41004.312,-38335.41,-42192.668
968072.9017559127,-89942.875,-50022.79,-20249.188,-4343.547,-58582.93,-41002.566,-38335.41,-42193.89
968072.9057559113,-89942.38,-50024.336,-20249.105,-4344.7676,-58575.48,-41002.2,-38336.508,-42197.55
968072.9097559098,-89943.85,-50018.598,-20250.408,-4351.888,-58581.953,-41003.867,-38338.83,-42201.457
968072.9137559084,-89949.586,-50022.258,-20255.494,-4358.032,-58591.637,-41005.7,-38339.926,-42206.707
968072.9177559069,-89944.625,-50021.61,-20255.78,-4356.527,-58593.63,-41002.484,-38336.344,-42204.996
968072.9217559055,-89939.414,-50016.766,-20249.676,-4349.2026,-58584.68,-40997.195,-38335.41,-42202.477
968072.925755904,-89939.086,-50019.9,-20246.46,-4348.674,-58585.043,-40996.38,-38334.516,-42201.09
968072.9297559025,-89936.65,-50017.336,-20246.826,-4352.702,-58593.793,-40998.58,-38331.746,-42196.453
968072.9337559011,-89940.48,-50011.19,-20249.92,-4359.416,-58599.12,-40999.43,-38329.633,-42193.605
968072.9377558996,-89936.81,-50003.785,-20250.611,-4356.3643,-58591.473,-41001.547,-38331.098,-42193.156
968072.9417558982,-89939.45,-50011.477,-20247.438,-4350.627,-58585.37,-40998.008,-38331.18,-42194.05
968072.9457558967,-89940.836,-50016.645,-20248.088,-4349.5283,-58586.67,-40996.664,-38332.562,-42195.965
968072.9497558953,-89946.01,-50013.31,-20254.03,-4354.6143,-58589.887,-40999.88,-38334.188,-42194.785
968072.9537558939,-89950.445,-50010.664,-20258.627,-4359.0903,-58595.34,-41000.652,-38333.62,-42195.72
968072.9577558924,-89948.77,-50008.586,-20258.871,-4360.759,-58593.305,-40999.637,-38332.97,-42201.297
968072.961755891,-89941.86,-50008.098,-20256.795,-4357.463,-58586.67,-40996.46,-38330.65,-42200.36
968072.9657558895,-89940.63,-50006.594,-20252.85,-4357.666,-58586.875,-40996.91,-38330.934,-42198.977
968072.9697558881,-89942.99,-50007.0,-20251.873,-4357.666,-58587.12,-41000.33,-38334.27,-42206.098
968072.9737558867,-89943.56,-50005.78,-20256.43,-4360.5146,-58589.926,-41006.918,-38340.21,-42208.133
968072.9777558852,-89939.74,-50000.57,-20255.9,-4357.91,-58589.562,-41010.703,-38342.203,-42204.227
968072.9817558838,-89941.66,-50003.5,-20252.035,-4352.539,-58581.18,-41008.75,-38341.758,-42199.465
968072.9857558823,-89948.65,-50008.06,-20247.844,-4353.5156,-58577.8,-41003.176,-38337.28,-42189.902
968072.9897558809,-89943.445,-50004.438,-20249.92,-4361.003,-58582.805,-41001.793,-38331.87,-42181.152
968072.9937558793,-89941.37,-50001.426,-20253.744,-4364.665,-58596.926,-41002.645,-38333.78,-42191.367
968072.9977558779,-89949.016,-50003.582,-20256.918,-4362.5083,-58598.066,-41002.645,-38334.39,-42199.465
968073.0017558765,-89948.9,-50003.01,-20251.547,-4355.754,-58586.957,-40999.066,-38328.94,-42192.547
968073.005755875,-89945.84,-49998.74,-20248.617,-4354.289,-58582.4,-40998.332,-38330.65,-42198.773
968073.0097558736,-89945.36,-49996.582,-20251.465,-4356.9746,-58586.914,-40999.676,-38335.043,-42202.19
968073.0137558721,-89953.984,-49998.332,-20258.627,-4363.7695,-58595.46,-41001.426,-38336.59,-42206.992
968073.0177558707,-89950.93,-49991.863,-20259.645,-4361.7354,-58591.188,-41003.785,-38337.445,-42208.336
968073.0217558693,-89943.73,-49994.184,-20256.227,-4354.37,-58581.098,-41001.87,-38336.305,-42202.598
968073.0257558678,-89942.305,-49995.32,-20249.064,-4353.882,-58585.695,-40998.74,-38336.47,-42200.684
968073.0297558664,-89947.875,-49998.535,-20250.611,-4358.5205,-58590.742,-40999.51,-38340.17,-42207.562
968073.033755865,-89953.9,-49995.605,-20254.07,-4362.6304,-58601.156,-41002.77,-38342.57,-42211.305
968073.0377558635,-89947.35,-49993.9,-20257.65,-4361.9385,-58605.55,-41003.46,-38339.926,-42206.87
968073.0417558621,-89938.56,-49994.59,-20251.506,-4353.5566,-58585.45,-41001.02,-38335.45,-42201.05
968073.0457558606,-89940.23,-49992.473,-20247.03,-4351.074,-58577.76,-40997.76,-38330.04,-42191.773
968073.0497558592,-89947.516,-49998.008,-20244.71,-4357.788,-58590.254,-40998.617,-38327.312,-42191.203
968073.0537558577,-89942.99,-49998.74,-20243.775,-4363.973,-58603.965,-41000.855,-38324.832,-42182.984
968073.0577558562,-89938.68,-49994.266,-20247.64,-4363.4033,-58605.43,-41001.914,-38322.348,-42178.47
968073.0617558548,-89948.49,-50006.55,-20246.176,-4360.3926,-58592.57,-41000.246,-38323.367,-42179.812
968073.0657558533,-89948.29,-50008.383,-20242.39,-4357.015,-58590.863,-40998.25,-38325.645,-42190.39
968073.0697558519,-89945.56,-50003.867,-20245.688,-4361.369,-58601.36,-41003.133,-38330.445,-42193.36
968073.0737558504,-89947.19,-50003.62,-20247.926,-4366.333,-58614.34,-41006.31,-38330.85,-42197.918
968073.077755849,-89945.88,-50002.89,-20245.525,-4361.003,-58614.18,-41001.1,-38324.832,-42192.14
968073.0817558476,-89940.48,-50003.5,-20241.375,-4356.4453,-58600.305,-40994.508,-38318.523,-42187.258
968073.0857558461,-89939.05,-50004.234,-20242.799,-4356.2827,-58593.1,-40989.746,-38316.734,-42190.555
968073.0897558447,-89942.43,-50001.793,-20244.914,-4359.0903,-58594.28,-40990.926,-38318.973,-42190.105
968073.0937558432,-89952.72,-50003.867,-20249.188,-4361.7354,-58602.54,-40995.65,-38321.902,-42192.465
968073.0977558418,-89948.04,-49998.414,-20250.367,-4359.9854,-58591.84,-40995.363,-38320.965,-42189.7
968073.1017558404,-89947.76,-49998.047,-20245.646,-4356.3643,-58584.68,-40995.566,-38322.105,-42195.07
968073.1057558389,-89948.24,-50004.316,-20243.572,-4357.137,-58580.566,-40996.785,-38324.137,-42198.527
968073.1097558375,-89951.5,-50007.812,-20243.328,-4361.4097,-58591.88,-40997.805,-38326.01,-42200.727
968073.113755836,-89960.33,-50010.664,-20246.623,-4365.7227,-58605.39,-40997.152,-38321.82,-42191.977
968073.1177558346,-89958.87,-50009.24,-20247.479,-4362.468,-58605.754,-40996.297,-38319.05,-42191.652
968073.121755833,-89951.625,-50010.215,-20239.95,-4356.0386,-58585.53,-40991.21,-38314.94,-42184.0
968073.1257558316,-89942.55,-50005.332,-20235.475,-4354.696,-58573.04,-40987.348,-38310.793,-42176.883
968073.1297558302,-89947.23,-50008.586,-20239.096,-4361.4097,-58582.24,-40990.97,-38311.727,-42175.984
968073.1337558287,-89951.91,-50006.55,-20243.816,-4365.194,-58595.137,-40998.7,-38316.203,-42176.395
968073.1377558273,-89950.04,-50001.875,-20246.014,-4361.206,-58589.52,-41003.664,-38319.46,-42182.293
968073.1417558258,-89952.27,-50003.297,-20241.658,-4354.818,-58576.457,-41002.28,-38319.46,-42186.77
968073.1457558244,-89948.125,-50000.043,-20238.322,-4353.76,-58565.51,-41000.613,-38316.938,-42178.184
968073.149755823,-89949.67,-50005.574,-20237.59,-4356.8115,-58573.773,-40998.82,-38315.797,-42176.312
968073.1537558215,-89954.71,-50008.79,-20242.879,-4360.5957,-58590.254,-40996.38,-38315.836,-42178.63
968073.1577558201,-89954.875,-49999.35,-20246.95,-4360.0264,-58596.723,-40994.793,-38315.88,-42174.848
968073.1617558186,-89952.48,-49998.375,-20242.96,-4353.3936,-58581.87,-40993.082,-38317.586,-42174.848
968073.1657558172,-89955.734,-50007.406,-20240.643,-4353.3125,-58574.63,-40992.88,-38319.582,-42174.195
968073.1697558158,-89961.02,-50009.2,-20242.352,-4359.741,-58586.305,-40995.363,-38319.99,-42177.246
968073.1737558143,-89965.414,-50014.285,-20244.1,-4363.4033,-58592.613,-40996.137,-38315.88,-42171.55
968073.1777558129,-89962.69,-50011.92,-20245.525,-4360.189,-58591.188,-40995.688,-38316.0,-42180.137
968073.1817558113,-89962.52,-50010.5,-20244.832,-4356.527,-58572.145,-40993.938,-38314.535,-42179.85
968073.1857558099,-89968.75,-50014.0,-20247.967,-4354.8584,-58576.05,-40993.043,-38316.61,-42183.473
968073.1897558084,-89968.67,-50010.54,-20248.861,-4355.7944,-58582.195,-40994.71,-38318.156,-42179.973
968073.193755807,-89974.49,-50012.37,-20253.785,-4361.5317,-58587.934,-40997.477,-38318.645,-42184.45
968073.1977558056,-89978.27,-50014.285,-20256.592,-4362.7524,-58591.27,-40997.6,-38320.477,-42196.98
968073.2017558041,-89967.37,-50011.434,-20247.967,-4354.696,-58581.504,-40996.746,-38318.562,-42194.46
968073.2057558027,-89962.0,-50008.75,-20242.432,-4355.306,-58583.05,-40995.973,-38316.324,-42183.31
968073.2097558012,-89965.25,-50011.434,-20242.229,-4357.788,-58600.383,-40995.605,-38316.49,-42180.46
968073.2137557998,-89967.62,-50010.824,-20247.03,-4360.962,-58615.848,-40996.297,-38316.0,-42177.492
968073.2177557984,-89968.71,-50007.12,-20247.07,-4359.416,-58606.04,-40996.664,-38318.93,-42185.223
968073.2217557969,-89965.45,-50006.633,-20247.152,-4354.8994,-58582.074,-40994.02,-38318.645,-42189.37
968073.2257557955,-89969.08,-50011.68,-20246.623,-4355.3467,-58575.074,-40991.457,-38315.39,-42182.535
968073.229755794,-89977.91,-50020.02,-20244.588,-4361.9795,-58581.543,-40990.848,-38316.324,-42180.38
968073.2337557926,-89976.08,-50015.79,-20240.967,-4365.5195,-58596.56,-40994.1,-38317.953,-42174.52
968073.2377557912,-89976.89,-50012.777,-20239.543,-4363.4033,-58613.12,-40996.707,-38315.918,-42169.395
968073.2417557897,-89979.125,-50014.812,-20239.299,-4356.3643,-58601.645,-40996.83,-38315.51,-42175.457
968073.2457557882,-89975.875,-50019.043,-20239.95,-4354.533,-58603.76,-40996.785,-38315.918,-42178.914
968073.2497557867,-89977.055,-50017.742,-20241.822,-4357.7476,-58605.51,-40999.473,-38318.766,-42183.92
968073.2537557853,-89979.336,-50015.87,-20246.582,-4360.5957,-58612.633,-41001.223,-38319.336,-42178.914
968073.2577557839,-89985.44,-50023.97,-20252.523,-4361.8164,-58608.562,-41001.59,-38318.727,-42174.562
968073.2617557824,-89979.82,-50022.79,-20245.525,-4357.666,-58601.562,-40996.664,-38312.625,-42167.684
968073.265755781,-89974.61,-50018.27,-20241.902,-4355.6724,-58594.89,-40991.254,-38313.477,-42178.266
968073.2697557795,-89978.88,-50013.31,-20241.21,-4361.369,-58601.562,-40989.504,-38316.082,-42185.914
968073.2737557781,-89989.38,-50016.277,-20243.855,-4365.194,-58607.22,-40991.293,-38317.87,-42183.105
968073.2777557767,-89988.98,-50024.58,-20243.205,-4363.363,-58614.465,-40996.34,-38322.43,-42191.734
968073.2817557752,-89975.43,-50018.8,-20239.014,-4357.707,-58602.297,-40999.39,-38327.11,-42198.61
968073.2857557738,-89972.01,-50016.36,-20237.06,-4356.5674,-58596.723,-40997.477,-38328.29,-42195.965
968073.2897557723,-89981.734,-50016.562,-20244.996,-4362.0605,-58604.13,-40997.477,-38329.996,-42194.254
968073.2937557709,-89990.28,-50020.55,-20252.93,-4366.5366,-58619.02,-41000.043,-38330.77,-42196.535
968073.2977557695,-89989.016,-50022.42,-20254.354,-4362.834,-58614.625,-40998.74,-38330.242,-42205.445
968073.301755768,-89976.32,-50018.23,-20246.217,-4356.9746,-58597.984,-40993.652,-38325.727,-42196.82
968073.3057557666,-89974.53,-50014.363,-20240.723,-4356.242,-58592.695,-40989.504,-38319.38,-42180.83
968073.309755765,-89977.09,-50013.387,-20241.375,-4360.84,-58601.28,-40990.562,-38318.484,-42191.043
968073.3137557636,-89978.805,-50011.434,-20244.06,-4365.072,-58615.562,-40992.72,-38319.176,-42196.656
968073.3177557621,-89984.42,-50009.93,-20246.176,-4361.2876,-58618.53,-40995.117,-38318.645,-42193.44
968073.3217557607,-89991.945,-50013.875,-20244.996,-4356.4863,-58600.26,-40996.094,-38321.695,-42200.195
968073.3257557593,-89996.87,-50023.074,-20241.62,-4358.9277,-58596.723,-40995.035,-38320.598,-42193.2
968073.3297557578,-89988.85,-50017.5,-20239.137,-4363.729,-58608.44,-40996.867,-38321.98,-42188.19
968073.3337557564,-89989.18,-50014.934,-20241.62,-4368.6934,-58617.188,-40997.273,-38321.82,-42183.35
968073.3377557549,-89993.01,-50019.9,-20242.146,-4368.286,-58615.03,-40997.273,-38320.027,-42187.258
968073.3417557535,-89995.08,-50024.863,-20238.729,-4360.5957,-58612.715,-40993.816,-38318.035,-42187.95
968073.3457557521,-89994.96,-50021.73,-20236.572,-4359.5786,-58603.598,-40992.312,-38318.848,-42189.58
968073.3497557506,-89989.75,-50014.12,-20237.264,-4363.159,-58601.484,-40991.17,-38318.605,-42185.387
968073.3537557492,-89984.42,-50013.594,-20232.79,-4363.078,-58611.94,-40991.902,-38320.07,-42186.65
968073.3577557477,-89986.33,-50012.168,-20235.107,-4363.5664,-58617.11,-40992.312,-38322.31,-42195.56
968073.3617557463,-89986.33,-50016.316,-20241.658,-4361.1655,-58616.254,-40987.55,-38318.973,-42186.973
968073.3657557449,-89988.125,-50015.953,-20238.201,-4358.5205,-58615.805,-40984.742,-38319.094,-42184.082
968073.3697557434,-89988.98,-50010.703,-20238.445,-4364.38,-58621.625,-40989.3,-38326.742,-42205.73
968073.3737557419,-89987.39,-50007.0,-20241.375,-4366.374,-58622.48,-40994.1,-38331.586,-42218.71
968073.3777557404,-89987.8,-50007.285,-20243.979,-4365.6006,-58617.434,-40993.53,-38330.12,-42218.1
968073.381755739,-89990.89,-50009.117,-20243.611,-4363.2812,-58608.766,-40988.566,-38324.137,-42205.65
968073.3857557375,-89995.41,-50016.562,-20238.973,-4362.02,-58604.29,-40986.37,-38322.31,-42194.664
968073.3897557361,-89984.87,-50016.156,-20233.033,-4362.468,-58612.715,-40988.04,-38323.855,-42197.145
968073.3937557347,-89985.03,-50014.527,-20232.992,-4365.9263,-58622.52,-40992.39,-38327.312,-42202.8
968073.3977557332,-89994.875,-50015.75,-20235.963,-4366.9434,-58623.332,-40995.85,-38325.848,-42197.39
968073.4017557318,-89992.76,-50006.676,-20232.992,-4360.1484,-58606.04,-40996.664,-38327.066,-42195.477
968073.4057557303,-89992.35,-50012.25,-20233.113,-4360.067,-58606.527,-40994.754,-38326.297,-42189.293
968073.4097557289,-89989.83,-50015.707,-20232.3,-4365.2754,-58614.016,-40994.223,-38322.184,-42185.71
968073.4137557275,-89986.29,-50014.65,-20232.87,-4365.6006,-58617.027,-40994.02,-38320.56,-42186.2
968073.417755726,-89998.74,-50020.266,-20241.62,-4366.13,-58616.742,-40991.375,-38319.99,-42188.68
968073.4217557246,-90000.86,-50016.113,-20244.385,-4362.02,-58605.633,-40988.12,-38318.32,-42189.21
968073.4257557231,-89994.67,-50012.37,-20241.252,-4360.1484,-58595.46,-40988.16,-38319.582,-42190.023
968073.4297557217,-89995.81,-50013.797,-20238.201,-4363.9326,-58606.61,-40989.176,-38320.56,-42191.12
968073.4337557203,-89998.91,-50011.598,-20236.695,-4367.3506,-58624.105,-40991.336,-38319.62,-42184.49
968073.4377557187,-89996.75,-50012.695,-20240.846,-4366.455,-58624.023,-40991.293,-38317.06,-42177.652
968073.4417557173,-89992.15,-50013.594,-20237.957,-4360.4736,-58607.832,-40988.65,-38320.395,-42188.64
968073.4457557158,-89989.87,-50004.76,-20237.102,-4361.45,-58610.965,-40987.793,-38324.06,-42203.125
968073.4497557144,-89997.32,-50005.168,-20243.611,-4366.5366,-58610.15,-40988.85,-38326.863,-42206.46
968073.453755713,-90002.89,-50012.207,-20248.332,-4369.751,-58617.555,-40988.65,-38326.824,-42203.41
968073.4577557115,-90001.266,-50016.035,-20245.564,-4368.8965,-58613.77,-40988.28,-38328.41,-42209.11
968073.4617557101,-89988.94,-50005.37,-20239.217,-4362.671,-58598.594,-40986.9,-38331.83,-42209.758
968073.4657557086,-89988.24,-49999.715,-20239.217,-4361.7354,-58596.07,-40985.19,-38331.34,-42208.7
968073.4697557072,-89999.02,-50000.69,-20238.729,-4366.74,-58605.023,-40985.72,-38328.695,-42200.4
968073.4737557058,-90008.914,-50006.96,-20242.96,-4372.1113,-58619.348,-40986.004,-38326.906,-42197.836
968073.4777557043,-90001.38,-50008.992,-20241.13,-4372.518,-58630.617,-40984.375,-38323.855,-42203.86
968073.4817557029,-89993.29,-50013.387,-20242.96,-4369.385,-58619.996,-40984.863,-38326.254,-42209.72
968073.4857557014,-89996.79,-50005.453,-20244.14,-4367.147,-58605.145,-40982.953,-38323.895,-42200.32
968073.4897557,-90000.25,-49997.316,-20246.502,-4371.501,-58600.71,-40982.34,-38316.53,-42184.207
968073.4937556986,-90011.56,-49998.58,-20249.432,-4376.465,-58606.04,-40983.645,-38313.805,-42185.02
968073.4977556971,-90009.32,-50002.81,-20244.67,-4370.7686,-58608.887,-40983.727,-38311.81,-42176.598
968073.5017556956,-90000.695,-50003.133,-20237.06,-4362.956,-58604.13,-40981.0,-38308.27,-42169.637
968073.5057556941,-90000.77,-50002.32,-20235.434,-4363.159,-58603.56,-40982.18,-38309.773,-42168.418
968073.5097556927,-90001.875,-50002.645,-20234.54,-4367.717,-58611.535,-40981.406,-38314.94,-42173.137
968073.5137556912,-90006.96,-50003.418,-20237.305,-4371.623,-58624.88,-40981.12,-38318.727,-42178.793
968073.5177556898,-90007.49,-49994.63,-20240.193,-4372.03,-58627.44,-40982.707,-38321.82,-42178.305
968073.5217556884,-90017.5,-50006.39,-20244.06,-4371.9893,-58617.598,-40981.527,-38323.65,-42182.78
968073.5257556869,-90032.31,-50022.016,-20246.135,-4373.8203,-58624.188,-40980.754,-38322.797,-42185.71
968073.5297556855,-90028.89,-50023.234,-20243.49,-4377.1973,-58626.06,-40983.523,-38325.727,-42186.24
968073.533755684,-90028.85,-50021.65,-20246.95,-4380.7373,-58646.812,-40986.574,-38329.633,-42191.895
968073.5377556826,-90042.52,-50023.234,-20255.697,-4379.924,-58655.355,-40988.324,-38330.73,-42188.926
968073.5417556812,-90044.15,-50030.234,-20253.338,-4370.4834,-58626.344,-40986.695,-38332.926,-42198.12
968073.5457556797,-90041.586,-50028.73,-20245.32,-4365.7227,-58617.72,-40986.41,-38336.266,-42207.926
968073.5497556783,-90035.81,-50024.66,-20248.088,-4372.4775,-58626.71,-40990.03,-38336.957,-42202.598
968073.5537556768,-90041.47,-50030.76,-20252.523,-4376.0176,-58637.492,-40990.277,-38336.754,-42201.703
968073.5577556754,-90053.23,-50028.566,-20257.0,-4374.2676,-58631.88,-40989.055,-38335.207,-42201.09
968073.561755674,-90057.82,-50028.523,-20255.535,-4370.565,-58617.066,-40986.695,-38332.36,-42196.414
968073.5657556724,-90057.46,-50028.32,-20250.0,-4370.1987,-58617.027,-40981.934,-38325.523,-42182.7
968073.569755671,-90052.62,-50035.566,-20248.291,-4375.5293,-58630.74,-40980.918,-38315.836,-42164.836
968073.5737556695,-90058.11,-50037.76,-20251.668,-4380.2085,-58628.785,-40981.527,-38311.035,-42151.695
968073.5777556681,-90065.8,-50039.105,-20258.18,-4379.354,-58633.14,-40985.15,-38315.43,-42163.13
968073.5817556666,-90057.664,-50033.53,-20251.344,-4370.3613,-58629.926,-40983.44,-38313.883,-42161.094
968073.5857556652,-90048.51,-50033.367,-20245.117,-4367.513,-58619.793,-40981.527,-38317.914,-42161.336
968073.5897556638,-90050.336,-50035.08,-20243.287,-4371.1753,-58632.69,-40984.703,-38321.004,-42164.145
968073.5937556623,-90061.2,-50035.77,-20247.193,-4374.4307,-58637.98,-40986.125,-38318.24,-42164.918
968073.5977556609,-90060.8,-50034.426,-20251.22,-4372.3145,-58629.316,-40984.254,-38313.926,-42162.516
968073.6017556594,-90054.81,-50030.6,-20250.0,-4368.8965,-58616.66,-40982.22,-38316.082,-42168.99
968073.605755658,-90060.71,-50043.215,-20248.494,-4372.1113,-58615.6,-40978.152,-38317.02,-42174.562
968073.6097556566,-90057.82,-50044.027,-20248.373,-4376.953,-58621.867,-40976.48,-38315.473,-42168.863
968073.6137556551,-90047.41,-50031.414,-20246.826,-4376.0986,-58638.105,-40975.26,-38308.15,-42152.996
968073.6177556537,-90052.05,-50041.26,-20245.85,-4377.1567,-58651.29,-40973.594,-38307.047,-42147.504
968073.6217556522,-90050.54,-50039.188,-20240.357,-4368.1235,-58643.68,-40972.656,-38311.81,-42159.996
968073.6257556508,-90050.336,-50033.246,-20235.88,-4365.6006,-58623.66,-40976.523,-38316.49,-42169.23
968073.6297556493,-90053.51,-50026.29,-20237.184,-4370.809,-58628.176,-40980.387,-38316.812,-42160.523
968073.6337556478,-90050.74,-50023.723,-20242.84,-4375.4478,-58640.465,-40982.42,-38316.12,-42161.297
968073.6377556464,-90048.71,-50027.305,-20239.705,-4374.634,-58638.145,-40984.62,-38318.402,-42169.8
968073.6417556449,-90049.484,-50026.816,-20237.916,-4368.978,-58631.88,-40985.72,-38321.29,-42170.695
968073.6457556435,-90053.8,-50027.14,-20242.188,-4367.5537,-58631.918,-40982.547,-38320.844,-42175.008
968073.649755642,-90061.65,-50035.44,-20241.09,-4374.4307,-58646.973,-40980.062,-38317.71,-42172.04
968073.6537556406,-90065.68,-50036.906,-20244.385,-4381.0225,-58656.984,-40979.29,-38317.71,-42171.793
968073.6577556392,-90063.195,-50032.188,-20251.506,-4380.29,-58652.832,-40978.72,-38317.14,-42173.258
968073.6617556377,-90071.45,-50044.72,-20249.064,-4374.5933,-58641.44,-40972.168,-38311.81,-42162.883
968073.6657556363,-90070.92,-50045.047,-20247.396,-4373.4946,-58637.25,-40970.297,-38304.812,-42149.58
968073.6697556349,-90071.375,-50042.81,-20252.523,-4378.581,-58645.387,-40970.01,-38303.387,-42155.07
968073.6737556334,-90070.36,-50044.312,-20252.197,-4382.406,-58652.387,-40971.76,-38303.793,-42151.938
968073.677755632,-90084.72,-50059.613,-20254.15,-4384.033,-58665.203,-40970.62,-38302.33,-42152.387
968073.6817556305,-90096.195,-50064.09,-20250.732,-4377.889,-58658.855,-40967.855,-38302.45,-42150.555
968073.6857556291,-90092.37,-50058.96,-20253.256,-4377.0347,-58647.137,-40966.758,-38302.37,-42142.945
968073.6897556277,-90091.84,-50061.81,-20248.7,-4380.6562,-58651.777,-40969.523,-38307.17,-42148.316
968073.6937556261,-90092.53,-50060.914,-20245.809,-4381.5513,-58668.38,-40972.453,-38310.914,-42148.723
968073.6977556247,-90107.83,-50074.098,-20249.553,-4383.3823,-58670.98,-40975.098,-38320.56,-42164.957
968073.7017556232,-90114.586,-50080.85,-20252.93,-4379.6387,-58662.844,-40974.855,-38325.887,-42171.875
968073.7057556218,-90117.88,-50085.29,-20256.104,-4379.1914,-58662.477,-40972.74,-38327.395,-42166.18
968073.7097556203,-90138.63,-50098.633,-20261.678,-4386.6377,-58678.43,-40972.332,-38328.33,-42172.406
968073.7137556189,-90144.21,-50100.06,-20261.678,-4388.957,-58681.277,-40975.223,-38328.41,-42179.04
968073.7177556175,-90138.836,-50092.652,-20258.709,-4385.4575,-58674.805,-40976.44,-38326.863,-42175.66
968073.721755616,-90136.6,-50095.867,-20254.68,-4379.3135,-58661.133,-40970.906,-38319.176,-42169.477
968073.7257556146,-90139.445,-50100.87,-20254.762,-4379.72,-58649.254,-40967.33,-38313.56,-42158.49
968073.7297556131,-90138.72,-50098.348,-20259.033,-4386.841,-58664.39,-40968.1,-38314.25,-42161.01
968073.7337556117,-90141.56,-50098.066,-20261.8,-4389.6895,-58675.375,-40968.914,-38313.68,-42158.816
968073.7377556103,-90130.86,-50088.83,-20262.818,-4384.5215,-58669.965,-40970.62,-38315.51,-42159.18
968073.7417556088,-90120.41,-50079.59,-20258.057,-4378.093,-58659.953,-40967.613,-38316.895,-42160.402
968073.7457556074,-90123.945,-50089.48,-20253.133,-4377.6045,-58657.473,-40964.234,-38311.93,-42148.887
968073.7497556059,-90125.25,-50085.938,-20253.662,-4382.9346,-58668.54,-40965.414,-38313.07,-42147.746
968073.7537556045,-90110.64,-50068.848,-20256.186,-4384.5215,-58683.105,-40966.227,-38311.363,-42136.965
968073.757755603,-90101.484,-50060.06,-20256.104,-4382.65,-58678.145,-40967.246,-38309.082,-42132.242
968073.7617556015,-90106.85,-50061.65,-20257.812,-4381.307,-58670.13,-40965.25,-38308.758,-42141.48
968073.7657556001,-90110.11,-50063.152,-20256.918,-4378.1333,-58659.75,-40964.56,-38306.926,-42144.86
968073.7697555986,-90106.53,-50061.85,-20253.053,-4378.9473,-58665.938,-40966.15,-38307.78,-42147.38
968073.7737555972,-90094.28,-50055.79,-20252.238,-4381.429,-58671.715,-40969.605,-38309.125,-42140.91
968073.7777555957,-90090.21,-50049.645,-20257.203,-4382.243,-58671.754,-40971.395,-38315.43,-42152.184
968073.7817555943,-90095.5,-50053.957,-20258.668,-4375.692,-58659.59,-40968.387,-38319.54,-42162.027
968073.7857555929,-90099.77,-50057.82,-20257.244,-4373.1284,-58656.09,-40966.758,-38321.047,-42157.473
968073.7897555914,-90098.06,-50056.4,-20255.818,-4375.7324,-58666.26,-40969.402,-38321.207,-42145.633
968073.79375559,-90096.07,-50054.812,-20257.406,-4376.994,-58672.934,-40972.78,-38320.844,-42141.766
968073.7977555885,-90092.53,-50052.656,-20260.742,-4375.6514,-58678.266,-40973.88,-38320.027,-42148.6
968073.8017555871,-90086.51,-50046.836,-20254.965,-4368.042,-58664.96,-40970.785,-38320.8,-42161.906
968073.8057555857,-90077.92,-50039.96,-20251.832,-4365.1123,-58646.527,-40965.617,-38315.188,-42152.184
968073.8097555842,-90085.29,-50045.492,-20258.627,-4371.704,-58653.242,-40964.113,-38309.9,-42135.742
968073.8137555828,-90092.98,-50051.598,-20264.486,-4377.6045,-58670.41,-40964.195,-38309.285,-42139.934
968073.8177555813,-90093.38,-50052.004,-20266.154,-4374.5527,-58673.098,-40964.6,-38306.234,-42140.79
968073.8217555798,-90094.04,-50051.637,-20263.754,-4368.5303,-58654.22,-40964.316,-38309.367,-42149.13
968073.8257555783,-90097.336,-50057.945,-20262.695,-4369.222,-58650.84,-40963.91,-38314.293,-42159.914
968073.8297555769,-90101.73,-50060.06,-20266.805,-4374.0234,-58673.465,-40966.51,-38319.176,-42156.047
968073.8337555755,-90110.195,-50061.688,-20270.834,-4378.011,-58688.52,-40969.81,-38320.355,-42154.5
968073.837755574,-90106.734,-50051.598,-20273.113,-4375.692,-58674.074,-40968.875,-38317.098,-42156.375
968073.8417555726,-90102.42,-50053.914,-20265.91,-4369.9546,-58653.2,-40960.98,-38308.676,-42144.125
968073.8457555712,-90103.6,-50057.945,-20262.207,-4367.0654,-58643.273,-40956.504,-38303.875,-42136.434
968073.8497555697,-90099.695,-50054.28,-20259.889,-4370.809,-58664.023,-40958.21,-38301.555,-42137.125
968073.8537555683,-90096.4,-50046.55,-20267.13,-4372.8027,-58671.43,-40961.02,-38297.08,-42130.13
968073.8577555668,-90098.92,-50043.99,-20270.184,-4370.3613,-58666.668,-40962.605,-38296.266,-42131.633
968073.8617555654,-90093.47,-50047.363,-20267.172,-4363.6475,-58658.773,-40961.1,-38294.434,-42124.96
968073.865755564,-90086.55,-50044.312,-20263.348,-4361.898,-58649.945,-40960.33,-38294.15,-42121.137
968073.8697555625,-90090.5,-50042.848,-20263.916,-4367.147,-58653.65,-40961.266,-38292.24,-42116.336
968073.8737555611,-90092.45,-50039.754,-20270.63,-4371.2974,-58659.14,-40963.46,-38295.613,-42130.25
968073.8777555596,-90086.43,-50031.78,-20269.94,-4369.792,-58654.625,-40963.016,-38297.16,-42135.133
968073.8817555582,-90086.14,-50035.035,-20265.34,-4365.7227,-58645.184,-40957.4,-38294.07,-42128.664
968073.8857555566,-90088.79,-50043.418,-20259.725,-4362.6304,-58643.11,-40952.965,-38292.24,-42124.918
968073.8897555552,-90093.875,-50043.785,-20262.207,-4364.502,-58649.17,-40952.92,-38292.48,-42125.895
968073.8937555538,-90090.62,-50037.56,-20267.13,-4368.327,-58656.58,-40954.633,-38292.44,-42123.58
968073.8977555523,-90094.81,-50039.43,-20270.102,-4366.9434,-58661.83,-40954.836,-38292.32,-42120.81
968073.9017555509,-90100.95,-50049.113,-20271.404,-4362.793,-58649.78,-40952.19,-38292.81,-42119.754
968073.9057555494,-90098.555,-50051.23,-20270.143,-4361.5723,-58645.67,-40953.207,-38296.062,-42120.77
968073.909755548,-90101.41,-50052.53,-20267.09,-4365.1533,-58655.113,-40952.72,-38298.098,-42124.96
968073.9137555466,-90104.82,-50047.49,-20272.625,-4371.135,-58664.51,-40954.508,-38300.133,-42143.516
968073.9177555451,-90099.86,-50042.402,-20271.81,-4366.211,-58663.293,-40953.9,-38296.145,-42135.094
968073.9217555437,-90101.16,-50049.727,-20264.975,-4358.5205,-58649.457,-40951.09,-38291.098,-42124.51
968073.9257555422,-90108.56,-50059.652,-20263.348,-4357.3,-58645.227,-40947.594,-38290.367,-42128.867
968073.9297555408,-90116.664,-50062.95,-20266.398,-4361.898,-58655.6,-40947.105,-38288.902,-42124.27
968073.9337555394,-90111.33,-50054.566,-20270.264,-4364.299,-58659.223,-40949.098,-38288.98,-42123.25
968073.9377555379,-90111.414,-50052.734,-20269.451,-4360.4736,-58646.85,-40949.75,-38292.887,-42133.016
968073.9417555365,-90120.41,-50069.01,-20268.434,-4356.9336,-58642.133,-40948.12,-38292.48,-42133.016
968073.945755535,-90134.36,-50076.05,-20265.3,-4358.073,-58647.992,-40944.703,-38289.188,-42128.867
968073.9497555335,-90129.36,-50069.867,-20263.957,-4362.9966,-58662.965,-40945.438,-38287.438,-42122.844
968073.953755532,-90127.32,-50073.203,-20271.16,-4367.7573,-58664.39,-40946.98,-38286.38,-42116.824
968073.9577555306,-90130.58,-50077.23,-20276.367,-4365.682,-58652.59,-40946.13,-38286.05,-42119.793
968073.9617555292,-90137.05,-50087.445,-20275.594,-4359.9043,-58642.62,-40942.02,-38285.562,-42112.145
968073.9657555277,-90140.875,-50087.363,-20269.246,-4358.3174,-58636.965,-40938.805,-38285.2,-42112.71
968073.9697555263,-90141.03,-50083.906,-20272.787,-4362.427,-58644.777,-40940.633,-38283.816,-42115.887
968073.9737555248,-90138.836,-50079.348,-20280.03,-4366.2925,-58658.855,-40944.785,-38286.01,-42118.613
968073.9777555234,-90138.59,-50078.777,-20279.582,-4360.9214,-58659.305,-40944.54,-38284.586,-42117.676
968073.981755522,-90137.17,-50080.77,-20276.002,-4353.231,-58645.184,-40941.53,-38283.734,-42116.336
968073.9857555205,-90132.41,-50074.016,-20275.39,-4350.2197,-58630.94,-40939.82,-38283.367,-42113.566
968073.9897555191,-90136.15,-50076.215,-20279.867,-4355.2246,-58637.574,-40941.0,-38284.14,-42110.555
968073.9937555176,-90140.55,-50078.047,-20285.768,-4361.206,-58650.8,-40942.547,-38285.645,-42113.324
968073.9977555162,-90137.695,-50071.74,-20284.059,-4361.247,-58657.434,-40940.594,-38282.105,-42112.305
968074.0017555148,-90130.086,-50063.4,-20277.71,-4353.1904,-58652.426,-40937.543,-38276.246,-42104.777
968074.0057555133,-90125.05,-50061.16,-20275.105,-4350.749,-58639.855,-40936.484,-38276.613,-42111.734
968074.0097555119,-90121.95,-50055.176,-20277.02,-4354.2075,-58645.348,-40937.703,-38277.957,-42102.703
968074.0137555103,-90126.8,-50055.42,-20280.803,-4356.4453,-58665.773,-40939.82,-38280.113,-42104.695
968074.0177555089,-90132.81,-50059.855,-20282.635,-4352.783,-58666.18,-40940.066,-38282.023,-42108.035
968074.0217555074,-90129.4,-50059.45,-20281.697,-4348.552,-58647.22,-40937.582,-38283.53,-42109.863
968074.025755506,-90127.445,-50058.027,-20278.28,-4347.29,-58634.973,-40934.816,-38285.562,-42117.8
968074.0297555046,-90132.04,-50060.02,-20279.988,-4350.993,-58639.895,-40931.766,-38283.652,-42110.27
968074.0337555031,-90131.516,-50056.438,-20280.477,-4354.6143,-58660.035,-40935.223,-38283.0,-42106.527
968074.0377555017,-90124.19,-50052.33,-20279.744,-4349.4873,-58659.75,-40937.258,-38281.82,-42105.918
968074.0417555002,-90125.29,-50058.88,-20279.338,-4344.7266,-58645.305,-40935.02,-38277.957,-42095.258
968074.0457554988,-90126.67,-50057.66,-20277.832,-4342.9365,-58639.812,-40933.72,-38280.6,-42102.094
968074.0497554974,-90136.31,-50062.543,-20280.03,-4346.0693,-58648.36,-40933.92,-38283.895,-42109.05
968074.0537554959,-90144.9,-50070.8,-20283.162,-4350.952,-58663.984,-40932.863,-38283.082,-42105.633
968074.0577554945,-90147.55,-50078.695,-20282.674,-4349.569,-58672.12,-40931.234,-38282.758,-42110.516
968074.061755493,-90156.7,-50088.258,-20283.488,-4345.378,-58655.52,-40927.777,-38278.28,-42101.93
968074.0657554916,-90165.24,-50092.53,-20285.4,-4346.924,-58649.05,-40928.793,-38279.055,-42103.516
968074.0697554902,-90170.74,-50095.5,-20287.436,-4352.3765,-58647.22,-40932.047,-38280.52,-42103.516
968074.0737554887,-90164.39,-50092.53,-20285.32,-4353.882,-58658.246,-40934.367,-38277.59,-42095.664
968074.0777554872,-90167.6,-50091.23,-20287.518,-4351.4404,-58650.555,-40935.67,-38274.7,-42089.4
968074.0817554857,-90174.93,-50092.938,-20287.842,-4347.046,-58645.266,-40934.0,-38275.027,-42091.96
968074.0857554843,-90181.12,-50098.43,-20287.842,-4347.1274,-58643.555,-40932.047,-38275.473,-42088.707
968074.0897554829,-90183.35,-50098.145,-20286.744,-4352.336,-58649.78,-40931.766,-38275.31,-42085.207
968074.0937554814,-90181.12,-50094.402,-20289.062,-4353.3125,-58655.64,-40932.535,-38273.6,-42085.45
968074.09775548,-90180.18,-50092.125,-20289.918,-4347.209,-58654.016,-40933.15,-38276.207,-42096.926
968074.1017554785,-90179.53,-50096.76,-20286.947,-4343.506,-58639.203,-40931.684,-38277.47,-42097.13
968074.1057554771,-90182.13,-50101.81,-20284.303,-4346.761,-58639.0,-40926.758,-38276.9,-42089.273
968074.1097554757,-90183.76,-50099.61,-20282.635,-4349.04,-58644.86,-40925.984,-38274.414,-42079.754
968074.1137554742,-90190.76,-50102.176,-20286.703,-4356.079,-58657.715,-40927.125,-38269.777,-42066.406
968074.1177554728,-90195.16,-50108.887,-20289.998,-4359.538,-58667.97,-40927.86,-38271.363,-42080.61
968074.1217554713,-90196.21,-50111.168,-20287.191,-4350.952,-58646.28,-40925.375,-38271.73,-42093.14
968074.1257554699,-90198.81,-50115.316,-20288.86,-4347.8193,-58644.86,-40921.918,-38267.254,-42082.4
968074.1297554685,-90201.54,-50117.066,-20291.627,-4352.783,-58659.344,-40923.18,-38266.684,-42081.543
968074.133755467,-90203.125,-50113.61,-20291.586,-4352.295,-58662.273,-40925.254,-38269.125,-42095.01
968074.1377554656,-90205.33,-50118.367,-20290.691,-4349.935,-58665.734,-40925.54,-38267.496,-42091.84
968074.141755464,-90201.945,-50118.695,-20285.441,-4343.506,-58658.69,-40923.42,-38264.04,-42081.707
968074.1457554626,-90204.35,-50119.305,-20283.691,-4342.082,-58642.09,-40919.56,-38259.848,-42068.24
968074.1497554611,-90215.74,-50127.81,-20286.541,-4346.924,-58650.598,-40920.125,-38260.457,-42073.445
968074.1537554597,-90220.91,-50128.297,-20288.533,-4352.295,-58666.63,-40921.67,-38261.477,-42076.99
968074.1577554583,-90223.35,-50131.797,-20293.824,-4350.4233,-58668.867,-40923.098,-38264.324,-42073.406
968074.1617554568,-90229.86,-50140.06,-20294.719,-4347.86,-58660.363,-40920.492,-38266.36,-42072.266
968074.1657554554,-90222.336,-50131.062,-20287.518,-4344.442,-58644.25,-40918.824,-38263.715,-42067.832
