timestamp,Fp1,Fp2,F3,Fz,F4,Cz,Pz,Oz
968140.5457314404,-93415.57,-51403.28,-21056.031,-6248.861,-63717.367,-39783.164,-37343.387,-42461.47
968140.549731439,-93418.375,-51404.867,-21057.293,-6255.371,-63727.133,-39785.2,-37342.57,-42463.22
968140.5537314375,-93420.086,-51404.867,-21057.617,-6258.545,-63728.965,-39786.094,-37343.06,-42461.387
968140.5577314361,-93420.78,-51404.664,-21065.43,-6255.697,-63718.996,-39784.426,-37338.867,-42456.137
968140.5617314347,-93420.62,-51404.664,-21055.95,-6252.116,-63711.55,-39784.223,-37335.33,-42443.484
968140.5657314332,-93428.63,-51406.293,-21059.938,-6253.7437,-63709.68,-39784.953,-37334.88,-42442.465
968140.5697314318,-93434.125,-51405.07,-21064.576,-6257.894,-63724.285,-39785.727,-37337.2,-42452.76
968140.5737314303,-93430.586,-51401.125,-21066.121,-6257.7314,-63723.555,-39787.273,-37337.973,-42450.277
968140.5777314289,-93428.76,-51405.273,-21062.297,-6252.523,-63707.074,-39783.734,-37336.63,-42454.875
968140.5817314275,-93426.27,-51405.03,-21061.688,-6250.285,-63701.133,-39777.875,-37329.996,-42450.6
968140.585731426,-93417.81,-51397.098,-21049.56,-6246.826,-63704.387,-39780.355,-37333.62,-42450.277
968140.5897314246,-93420.78,-51395.957,-21052.45,-6251.384,-63719.035,-39781.332,-37336.957,-42451.457
968140.593731423,-93440.92,-51408.53,-21057.984,-6260.376,-63728.19,-39783.406,-37342.977,-42457.316
968140.5977314216,-93428.555,-51404.46,-21058.432,-6254.6387,-63716.516,-39786.01,-37345.176,-42451.17
968140.6017314201,-93420.58,-51401.246,-21056.396,-6249.0234,-63700.81,-39786.01,-37347.902,-42455.73
968140.6057314187,-93433.19,-51411.336,-21060.14,-6253.581,-63707.36,-39783.082,-37347.086,-42456.055
968140.6097314173,-93428.96,-51406.617,-21062.947,-6255.4526,-63718.63,-39786.867,-37354.777,-42467.0
968140.6137314158,-93432.82,-51405.805,-21068.28,-6259.4404,-63723.715,-39788.332,-37353.19,-42468.547
968140.6177314144,-93434.086,-51406.902,-21066.121,-6258.789,-63713.016,-39787.516,-37351.44,-42464.805
968140.621731413,-93430.625,-51407.918,-21062.988,-6254.0283,-63710.816,-39788.617,-37354.29,-42467.203
968140.6257314115,-93432.91,-51411.95,-21060.344,-6255.127,-63720.5,-39790.406,-37359.863,-42473.918
968140.6297314101,-93434.62,-51413.21,-21067.342,-6261.556,-63728.516,-39794.637,-37363.77,-42476.766
968140.6337314086,-93437.87,-51413.86,-21066.773,-6264.079,-63728.76,-39796.875,-37365.6,-42480.754
968140.6377314072,-93441.734,-51412.56,-21064.9,-6259.3994,-63709.516,-39794.8,-37362.957,-42474.12
968140.6417314057,-93438.03,-51409.996,-21066.854,-6253.825,-63691.53,-39789.676,-37358.113,-42463.016
968140.6457314043,-93438.07,-51411.543,-21066.447,-6254.802,-63701.62,-39789.227,-37360.516,-42472.21
968140.6497314029,-93437.016,-51410.973,-21068.807,-6261.8003,-63721.52,-39789.957,-37362.754,-42480.715
968140.6537314014,-93441.25,-51408.45,-21070.354,-6264.73,-63721.477,-39789.797,-37361.695,-42472.617
968140.6577313999,-93438.64,-51409.793,-21060.67,-6259.5215,-63711.02,-39788.617,-37365.723,-42475.098
968140.6617313984,-93429.08,-51409.383,-21054.77,-6254.2725,-63703.25,-39789.023,-37362.02,-42463.746
968140.665731397,-93425.58,-51404.91,-21059.123,-6255.249,-63706.22,-39790.324,-37363.406,-42465.945
968140.6697313956,-93423.34,-51402.06,-21054.973,-6260.5796,-63718.75,-39791.832,-37362.1,-42464.273
968140.6737313941,-93420.9,-51400.27,-21052.166,-6260.4575,-63722.535,-39791.832,-37360.312,-42464.52
968140.6777313927,-93426.35,-51403.65,-21053.834,-6259.359,-63708.742,-39785.523,-37356.445,-42461.63
968140.6817313912,-93435.06,-51412.477,-21055.787,-6260.8237,-63707.24,-39781.863,-37356.445,-42469.402
968140.6857313898,-93424.52,-51404.664,-21055.787,-6262.9805,-63704.43,-39783.082,-37351.562,-42453.25
968140.6897313884,-93435.67,-51409.914,-21056.396,-6269.45,-63722.13,-39785.848,-37354.574,-42449.3
968140.6937313869,-93435.1,-51405.234,-21059.45,-6269.409,-63725.547,-39790.367,-37358.766,-42465.58
968140.6977313855,-93435.1,-51408.125,-21051.717,-6265.0146,-63712.04,-39791.42,-37360.066,-42474.04
968140.701731384,-93437.18,-51412.926,-21054.402,-6259.1963,-63692.87,-39787.11,-37359.99,-42469.08
968140.7057313826,-93424.73,-51400.92,-21052.41,-6256.4697,-63689.21,-39782.88,-37350.79,-42450.32
968140.7097313812,-93421.19,-51393.555,-21047.12,-6261.6377,-63701.62,-39785.117,-37355.715,-42463.95
968140.7137313797,-93427.58,-51400.434,-21046.916,-6266.317,-63709.96,-39784.508,-37355.348,-42466.31
968140.7177313783,-93426.6,-51400.066,-21050.781,-6264.201,-63703.37,-39780.316,-37351.766,-42461.832
968140.7217313767,-93423.71,-51398.48,-21052.898,-6259.8877,-63696.94,-39777.26,-37349.285,-42454.67
968140.7257313753,-93420.9,-51398.6,-21048.828,-6260.4575,-63707.52,-39778.402,-37349.938,-42451.66
968140.7297313738,-93423.75,-51397.504,-21048.951,-6266.8457,-63722.293,-39780.965,-37349.895,-42450.36
968140.7337313724,-93422.94,-51395.02,-21051.514,-6267.253,-63725.953,-39784.71,-37351.81,-42446.004
968140.737731371,-93422.33,-51395.184,-21049.357,-6263.1025,-63726.402,-39787.027,-37352.254,-42444.01
968140.7417313695,-93419.84,-51394.492,-21047.404,-6257.8125,-63722.414,-39787.883,-37356.203,-42457.4
968140.7457313681,-93417.766,-51398.03,-21039.754,-6255.8594,-63722.09,-39788.29,-37359.99,-42461.508
968140.7497313666,-93419.84,-51398.887,-21039.674,-6261.678,-63740.316,-39786.867,-37360.92,-42460.004
968140.7537313652,-93429.2,-51404.83,-21051.393,-6266.4795,-63757.49,-39783.12,-37358.48,-42457.848
968140.7577313638,-93423.625,-51404.094,-21056.682,-6262.8174,-63756.473,-39778.16,-37351.035,-42443.277
968140.7617313623,-93422.734,-51404.297,-21049.072,-6258.667,-63739.258,-39775.473,-37348.51,-42443.117
968140.7657313609,-93423.34,-51405.195,-21046.754,-6260.173,-63745.688,-39776.164,-37351.074,-42454.59
968140.7697313594,-93430.586,-51405.684,-21046.102,-6265.2183,-63756.473,-39779.91,-37352.99,-42461.996
968140.773731358,-93432.5,-51401.613,-21048.422,-6267.8633,-63763.43,-39781.984,-37351.48,-42459.96
968140.7777313566,-93432.3,-51407.39,-21047.527,-6261.76,-63764.895,-39780.723,-37350.992,-42468.223
968140.7817313551,-93437.13,-51413.902,-21048.87,-6257.7314,-63770.305,-39777.26,-37351.44,-42473.918
968140.7857313536,-93444.3,-51416.465,-21049.764,-6260.8237,-63764.69,-39775.676,-37351.48,-42472.984
968140.7897313521,-93443.81,-51419.56,-21050.293,-6263.6313,-63783.938,-39776.285,-37354.004,-42473.836
968140.7937313507,-93437.016,-51418.582,-21053.426,-6264.9336,-63782.39,-39778.28,-37358.48,-42480.633
968140.7977313492,-93433.8,-51420.613,-21048.504,-6261.4746,-63774.742,-39776.082,-37355.51,-42476.24
968140.8017313478,-93435.71,-51421.754,-21047.283,-6262.0444,-63773.645,-39775.434,-37350.223,-42465.17
968140.8057313464,-93437.83,-51421.875,-21048.016,-6267.334,-63786.99,-39776.57,-37346.805,-42461.1
968140.8097313449,-93440.555,-51424.4,-21048.26,-6270.1826,-63799.805,-39776.45,-37341.434,-42457.766
968140.8137313435,-93442.06,-51426.473,-21040.691,-6269.287,-63802.53,-39777.996,-37346.11,-42472.086
968140.817731342,-93433.48,-51420.656,-21036.092,-6264.6484,-63790.324,-39775.84,-37343.06,-42475.953
968140.8217313406,-93417.04,-51411.867,-21032.186,-6255.493,-63772.87,-39772.3,-37333.008,-42456.83
968140.8257313392,-93420.33,-51418.62,-21029.5,-6257.324,-63778.32,-39771.566,-37335.125,-42462.934
968140.8297313377,-93427.78,-51421.1,-21034.18,-6263.9976,-63794.23,-39770.47,-37337.08,-42474.57
968140.8337313363,-93424.08,-51416.547,-21038.656,-6264.1196,-63800.62,-39773.64,-37338.094,-42468.668
968140.8377313348,-93422.94,-51419.844,-21038.086,-6259.847,-63795.453,-39772.95,-37338.582,-42472.332
968140.8417313334,-93419.84,-51418.215,-21033.53,-6255.168,-63783.816,-39771.688,-37341.15,-42471.76
968140.845731332,-93422.08,-51421.31,-21029.826,-6259.033,-63783.246,-39771.08,-37338.094,-42460.777
968140.8497313304,-93420.66,-51415.895,-21026.002,-6262.126,-63791.586,-39772.543,-37334.676,-42466.15
968140.853731329,-93415.57,-51410.484,-21031.576,-6262.126,-63791.668,-39772.504,-37331.3,-42464.195
968140.8577313275,-93414.266,-51408.816,-21031.535,-6258.342,-63788.453,-39770.145,-37329.957,-42453.453
968140.8617313261,-93415.86,-51415.324,-21028.32,-6254.7607,-63782.39,-39767.66,-37331.383,-42448.61
968140.8657313247,-93418.74,-51420.94,-21030.152,-6254.232,-63783.49,-39769.86,-37336.63,-42460.9
968140.8697313232,-93417.85,-51419.965,-21032.186,-6259.3184,-63793.703,-39773.316,-37340.17,-42468.63
968140.8737313218,-93419.88,-51423.668,-21029.094,-6260.539,-63806.723,-39775.758,-37342.0,-42471.395
968140.8777313203,-93417.195,-51425.418,-21025.066,-6255.6562,-63795.453,-39775.88,-37342.246,-42468.387
968140.8817313189,-93415.49,-51424.03,-21034.059,-6253.215,-63784.547,-39772.543,-37337.484,-42461.184
968140.8857313175,-93419.766,-51425.254,-21029.908,-6255.534,-63791.79,-39770.633,-37337.527,-42465.21
968140.889731316,-93413.29,-51414.348,-21035.36,-6259.033,-63791.344,-39768.27,-37331.83,-42457.195
968140.8937313146,-93419.97,-51415.652,-21034.139,-6263.1025,-63796.348,-39768.312,-37333.336,-42463.664
968140.8977313131,-93432.7,-51425.54,-21036.012,-6262.085,-63794.92,-39768.35,-37340.293,-42479.777
968140.9017313117,-93416.18,-51418.703,-21037.557,-6252.8486,-63775.066,-39767.742,-37336.875,-42467.613
968140.9057313103,-93418.58,-51425.008,-21033.773,-6257.365,-63786.746,-39767.133,-37336.875,-42464.684
968140.9097313088,-93414.555,-51419.027,-21031.414,-6259.481,-63791.87,-39768.758,-37334.96,-42463.625
968140.9137313073,-93417.6,-51420.777,-21032.35,-6261.6377,-63789.633,-39769.043,-37333.05,-42467.082
968140.9177313058,-93416.71,-51419.844,-21029.256,-6258.952,-63785.363,-39767.906,-37332.4,-42464.03
968140.9217313044,-93421.72,-51425.418,-21026.043,-6256.755,-63778.28,-39768.23,-37334.27,-42465.332
968140.9257313029,-93424.12,-51430.22,-21032.186,-6260.8643,-63775.96,-39770.55,-37336.996,-42465.25
968140.9297313015,-93417.12,-51419.516,-21032.146,-6262.37,-63764.69,-39774.496,-37336.957,-42473.31
968140.9337313,-93419.31,-51419.598,-21030.926,-6263.5093,-63770.43,-39776.652,-37336.1,-42474.406
968140.9377312986,-93425.78,-51425.254,-21032.43,-6260.946,-63771.242,-39773.6,-37335.207,-42474.246
968140.9417312972,-93428.51,-51430.707,-21025.188,-6255.168,-63751.914,-39771.08,-37336.793,-42476.89
968140.9457312957,-93425.664,-51428.305,-21026.979,-6260.4575,-63755.168,-39770.266,-37332.03,-42464.03
968140.9497312943,-93426.72,-51429.16,-21031.82,-6268.5957,-63768.76,-39768.11,-37327.555,-42461.508
968140.9537312929,-93424.85,-51425.945,-21037.354,-6268.392,-63770.184,-39767.457,-37327.555,-42461.793
968140.9577312914,-93413.414,-51421.47,-21036.133,-6261.8003,-63764.73,-39771.402,-37331.543,-42462.402
968140.96173129,-93409.47,-51426.598,-21031.78,-6257.6904,-63754.03,-39768.72,-37332.234,-42469.08
968140.9657312885,-93412.84,-51426.15,-21029.217,-6261.556,-63762.453,-39769.33,-37336.832,-42470.95
968140.9697312871,-93417.97,-51424.562,-21032.186,-6266.9272,-63761.883,-39772.098,-37340.047,-42472.7
968140.9737312857,-93425.74,-51425.742,-21035.727,-6269.5312,-63763.594,-39772.42,-37338.504,-42468.59
968140.9777312841,-93430.26,-51429.12,-21041.627,-6267.375,-63760.46,-39772.586,-37339.113,-42471.56
968140.9817312827,-93428.875,-51433.35,-21039.55,-6262.777,-63752.24,-39771.08,-37339.07,-42475.547
968140.9857312812,-93421.19,-51431.03,-21036.824,-6263.8755,-63751.26,-39770.793,-37335.98,-42478.19
968140.9897312798,-93418.336,-51427.777,-21033.611,-6268.962,-63756.348,-39771.484,-37335.246,-42477.582
968140.9937312783,-93422.81,-51431.52,-21037.477,-6269.857,-63754.03,-39769.53,-37331.87,-42471.52
968140.9977312769,-93424.97,-51431.844,-21042.074,-6267.456,-63740.645,-39767.17,-37327.72,-42462.973
968141.0017312755,-93421.06,-51426.883,-21038.941,-6263.387,-63730.918,-39765.34,-37326.703,-42461.71
968141.005731274,-93423.75,-51427.695,-21038.045,-6263.143,-63736.98,-39763.875,-37321.82,-42447.88
968141.0097312726,-93425.58,-51425.62,-21038.453,-6267.6597,-63744.14,-39763.797,-37319.176,-42445.11
968141.0137312711,-93421.96,-51425.457,-21039.998,-6270.793,-63746.22,-39765.543,-37328.25,-42472.902
968141.0177312697,-93420.086,-51424.645,-21040.568,-6268.27,-63736.33,-39766.156,-37335.29,-42481.242
968141.0217312683,-93417.24,-51426.19,-21036.785,-6264.079,-63728.477,-39765.26,-37334.066,-42472.21
968141.0257312668,-93417.195,-51426.96,-21034.344,-6263.672,-63729.94,-39763.023,-37331.22,-42466.797
968141.0297312654,-93416.016,-51423.383,-21031.047,-6268.799,-63745.65,-39765.055,-37330.28,-42456.95
968141.033731264,-93417.97,-51424.52,-21032.715,-6271.7695,-63754.152,-39764.65,-37332.848,-42464.97
968141.0377312625,-93424.805,-51430.176,-21040.242,-6272.0947,-63752.035,-39763.957,-37335.246,-42476.97
968141.041731261,-93417.36,-51426.395,-21039.021,-6265.5845,-63736.98,-39765.75,-37338.297,-42483.24
968141.0457312595,-93416.22,-51423.79,-21031.332,-6264.282,-63728.844,-39767.17,-37339.887,-42478.312
968141.0497312581,-93416.99,-51419.598,-21031.332,-6267.5376,-63727.746,-39767.863,-37335.492,-42463.258
968141.0537312566,-93420.45,-51419.273,-21034.059,-6271.444,-63728.027,-39768.27,-37333.05,-42462.85
968141.0577312552,-93407.59,-51414.39,-21035.238,-6267.334,-63723.84,-39765.707,-37332.113,-42460.043
968141.0617312538,-93413.17,-51421.348,-21031.129,-6266.6426,-63722.496,-39764.566,-37335.043,-42471.926
968141.0657312523,-93429.32,-51430.3,-21033.082,-6271.6475,-63733.48,-39765.625,-37339.355,-42477.99
968141.0697312509,-93421.63,-51422.977,-21036.133,-6274.292,-63733.156,-39767.293,-37336.67,-42465.863
968141.0737312494,-93422.61,-51427.043,-21037.273,-6277.0996,-63735.68,-39768.92,-37338.137,-42469.484
968141.077731248,-93422.81,-51428.266,-21032.35,-6273.2344,-63734.375,-39768.395,-37341.188,-42478.395
968141.0817312466,-93414.06,-51422.0,-21034.871,-6266.7646,-63728.64,-39764.285,-37336.184,-42471.68
968141.0857312451,-93419.805,-51425.66,-21034.18,-6269.7754,-63729.21,-39763.55,-37335.29,-42472.332
968141.0897312437,-93427.164,-51428.426,-21035.809,-6277.3438,-63740.6,-39766.4,-37336.793,-42472.453
968141.0937312422,-93434.66,-51437.215,-21040.08,-6283.4473,-63757.734,-39769.734,-37341.31,-42486.37
968141.0977312408,-93440.8,-51445.68,-21034.871,-6279.989,-63755.902,-39767.824,-37343.02,-42491.05
968141.1017312394,-93440.23,-51442.06,-21040.162,-6276.408,-63739.707,-39765.707,-37342.69,-42490.113
968141.1057312378,-93439.3,-51441.45,-21038.29,-6278.117,-63732.91,-39768.15,-37347.008,-42490.113
968141.1097312364,-93440.68,-51444.867,-21041.219,-6282.7964,-63746.504,-39769.168,-37347.008,-42491.336
968141.1137312349,-93439.7,-51442.508,-21044.678,-6284.1797,-63748.414,-39771.77,-37346.52,-42493.33
968141.1177312335,-93437.87,-51441.938,-21042.848,-6281.169,-63741.336,-39771.445,-37346.965,-42494.957
968141.121731232,-93434.05,-51444.258,-21040.203,-6276.6113,-63733.32,-39769.938,-37346.234,-42496.42
968141.1257312306,-93438.766,-51444.99,-21043.172,-6279.6226,-63730.55,-39769.777,-37346.56,-42496.42
968141.1297312292,-93440.43,-51444.133,-21047.81,-6284.587,-63735.23,-39771.402,-37348.797,-42496.176
968141.1337312277,-93444.5,-51447.633,-21048.543,-6285.1562,-63728.312,-39773.52,-37350.953,-42503.785
968141.1377312263,-93442.51,-51447.836,-21040.08,-6282.756,-63717.367,-39774.457,-37355.55,-42509.97
968141.1417312248,-93441.125,-51447.43,-21040.324,-6279.0527,-63713.746,-39773.52,-37355.594,-42502.89
968141.1457312234,-93432.78,-51442.14,-21041.139,-6275.92,-63709.96,-39772.3,-37352.742,-42496.91
968141.149731222,-93436.484,-51443.28,-21039.795,-6280.599,-63723.676,-39773.48,-37353.273,-42495.08
968141.1537312205,-93440.59,-51446.004,-21039.998,-6284.8716,-63735.8,-39776.367,-37355.023,-42503.543
968141.1577312191,-93439.984,-51448.73,-21041.383,-6282.308,-63729.29,-39776.125,-37355.105,-42501.465
968141.1617312176,-93444.46,-51451.703,-21040.771,-6281.0874,-63724.773,-39775.637,-37357.75,-42505.777
968141.1657312162,-93447.23,-51454.55,-21040.691,-6285.482,-63734.5,-39775.35,-37357.625,-42504.477
968141.1697312146,-93444.79,-51449.383,-21042.928,-6288.2896,-63738.363,-39776.367,-37358.074,-42500.082
968141.1737312132,-93446.336,-51445.965,-21045.086,-6289.4697,-63727.336,-39775.92,-37355.184,-42498.332
968141.1777312118,-93454.15,-51456.668,-21045.086,-6287.7607,-63729.25,-39772.992,-37357.137,-42513.836
968141.1817312103,-93444.664,-51453.33,-21045.654,-6282.756,-63718.75,-39770.633,-37357.668,-42517.457
968141.1857312089,-93443.32,-51453.41,-21048.951,-6284.465,-63718.305,-39768.35,-37354.25,-42507.242
968141.1897312074,-93446.49,-51454.55,-21050.984,-6290.6494,-63732.87,-39771.402,-37357.42,-42519.574
968141.193731206,-93439.7,-51448.242,-21048.828,-6291.9517,-63732.668,-39772.992,-37352.945,-42513.836
968141.1977312046,-93437.13,-51442.426,-21049.52,-6286.255,-63721.152,-39770.47,-37346.76,-42505.574
968141.2017312031,-93433.92,-51442.18,-21041.424,-6280.6396,-63712.04,-39768.758,-37348.43,-42509.117
968141.2057312017,-93428.23,-51439.375,-21036.621,-6279.8667,-63710.29,-39767.703,-37351.24,-42509.402
968141.2097312002,-93433.48,-51438.03,-21041.016,-6285.1562,-63720.785,-39769.37,-37353.56,-42511.883
968141.2137311988,-93440.23,-51442.06,-21038.25,-6287.191,-63732.87,-39769.734,-37353.355,-42509.195
968141.2177311974,-93444.26,-51446.332,-21046.387,-6286.2144,-63731.855,-39766.113,-37350.3,-42506.39
968141.2217311959,-93433.02,-51442.508,-21036.256,-6278.4424,-63716.105,-39766.44,-37348.105,-42499.27
968141.2257311945,-93433.8,-51443.645,-21041.586,-6281.535,-63716.105,-39764.85,-37341.88,-42489.22
968141.229731193,-93433.31,-51444.05,-21044.23,-6286.7026,-63730.797,-39767.133,-37343.793,-42498.74
968141.2337311915,-93432.3,-51440.35,-21043.66,-6288.5337,-63727.54,-39766.727,-37341.88,-42499.43
968141.23773119,-93434.25,-51441.082,-21039.389,-6284.6274,-63714.887,-39766.887,-37342.164,-42498.58
968141.2417311886,-93437.87,-51444.215,-21038.371,-6284.6274,-63715.496,-39768.395,-37346.19,-42497.6
968141.2457311872,-93432.17,-51441.164,-21038.615,-6288.4116,-63719.566,-39768.758,-37342.613,-42489.258
968141.2497311857,-93425.78,-51435.223,-21034.18,-6291.789,-63721.64,-39769.98,-37345.746,-42499.27
968141.2537311843,-93430.016,-51440.88,-21032.594,-6294.3115,-63726.973,-39768.8,-37349.285,-42511.23
968141.2577311828,-93434.37,-51444.95,-21034.18,-6291.992,-63718.305,-39766.645,-37349.69,-42510.133
968141.2617311814,-93431.12,-51444.215,-21032.268,-6286.4585,-63703.86,-39763.348,-37348.39,-42505.656
968141.26573118,-93431.4,-51443.035,-21029.094,-6287.191,-63696.82,-39762.613,-37347.25,-42502.2
968141.2697311785,-93427.82,-51436.727,-21027.791,-6291.545,-63710.168,-39763.387,-37344.727,-42499.066
968141.2737311771,-93428.02,-51433.758,-21034.871,-6294.1895,-63717.816,-39764.773,-37341.39,-42496.137
968141.2777311757,-93427.9,-51434.492,-21029.826,-6291.748,-63722.7,-39764.16,-37336.266,-42488.73
968141.2817311742,-93417.04,-51426.68,-21024.008,-6285.604,-63708.05,-39761.72,-37330.28,-42476.766
968141.2857311728,-93415.65,-51429.688,-21020.752,-6286.947,-63708.457,-39762.574,-37335.41,-42486.816
968141.2897311713,-93422.0,-51434.207,-21026.367,-6292.1143,-63718.75,-39764.773,-37338.297,-42486.207
968141.2937311699,-93424.766,-51430.34,-21026.043,-6294.0674,-63720.664,-39765.87,-37342.082,-42494.754
968141.2977311683,-93421.19,-51427.695,-21027.223,-6288.493,-63719.85,-39764.61,-37340.78,-42497.316
968141.3017311669,-93421.836,-51432.414,-21026.979,-6285.1157,-63717.41,-39763.348,-37336.266,-42489.664
968141.3057311655,-93422.41,-51432.54,-21028.89,-6288.9404,-63725.02,-39764.0,-37335.29,-42483.074
968141.309731164,-93429.0,-51436.24,-21028.605,-6294.393,-63741.742,-39763.957,-37333.336,-42473.31
968141.3137311626,-93432.21,-51440.188,-21029.053,-6297.933,-63752.402,-39766.805,-37336.793,-42483.645
968141.3177311611,-93427.37,-51438.844,-21027.344,-6294.7593,-63748.13,-39766.195,-37338.42,-42487.184
968141.3217311597,-93422.61,-51440.188,-21025.146,-6292.3994,-63748.496,-39762.332,-37338.746,-42489.055
968141.3257311583,-93428.71,-51448.812,-21021.363,-6295.8984,-63765.707,-39761.355,-37342.855,-42499.96
968141.3297311568,-93437.055,-51450.562,-21020.549,-6300.9033,-63788.74,-39763.1,-37346.926,-42506.594
968141.3337311554,-93442.14,-51451.457,-21025.146,-6300.334,-63792.562,-39762.41,-37345.418,-42504.152
968141.3377311539,-93436.77,-51445.68,-21033.285,-6295.044,-63783.164,-39758.547,-37336.59,-42492.27
968141.3417311525,-93425.625,-51437.5,-21023.234,-6288.656,-63770.305,-39759.562,-37335.086,-42491.617
968141.345731151,-93423.625,-51439.168,-21020.875,-6288.086,-63765.91,-39759.074,-37333.824,-42485.8
968141.3497311496,-93424.12,-51437.34,-21022.096,-6291.545,-63777.02,-39760.457,-37333.336,-42481.895
968141.3537311482,-93426.72,-51439.008,-21025.838,-6293.823,-63786.83,-39763.145,-37337.2,-42498.375
968141.3577311466,-93429.24,-51442.14,-21026.45,-6292.6025,-63781.617,-39762.332,-37338.992,-42500.285
968141.3617311452,-93430.95,-51443.32,-21024.658,-6290.6904,-63775.11,-39760.05,-37338.664,-42498.74
968141.3657311437,-93431.69,-51449.22,-21023.64,-6292.8877,-63783.203,-39759.848,-37336.996,-42493.29
968141.3697311423,-93430.14,-51448.49,-21024.7,-6297.567,-63794.312,-39761.516,-37339.195,-42492.105
968141.3737311409,-93431.195,-51446.574,-21031.25,-6299.52,-63799.766,-39761.8,-37338.258,-42492.555
968141.3777311394,-93428.47,-51448.12,-21031.453,-6295.2476,-63793.01,-39758.992,-37336.71,-42494.754
968141.381731138,-93430.26,-51449.87,-21030.07,-6292.806,-63782.637,-39757.73,-37336.754,-42493.45
968141.3857311365,-93431.234,-51453.695,-21029.338,-6296.672,-63790.895,-39758.668,-37338.016,-42497.03
968141.3897311351,-93435.23,-51455.0,-21031.78,-6302.124,-63809.98,-39760.906,-37343.75,-42506.715
968141.3937311337,-93441.61,-51458.05,-21033.367,-6305.786,-63816.285,-39762.25,-37346.07,-42507.367
968141.3977311322,-93438.48,-51455.77,-21033.0,-6301.9614,-63807.78,-39762.086,-37346.965,-42505.574
968141.4017311308,-93434.57,-51452.598,-21025.27,-6293.2944,-63795.535,-39761.15,-37348.594,-42506.594
968141.4057311293,-93436.85,-51455.77,-21023.846,-6295.736,-63803.062,-39762.695,-37349.812,-42509.195
968141.4097311279,-93441.25,-51458.58,-21026.287,-6300.9033,-63818.93,-39763.836,-37347.902,-42506.266
968141.4137311265,-93445.805,-51460.164,-21028.85,-6303.874,-63823.938,-39763.348,-37345.746,-42503.664
968141.417731125,-93445.84,-51460.41,-21030.438,-6302.165,-63814.94,-39762.535,-37346.56,-42503.418
968141.4217311235,-93446.54,-51464.48,-21026.043,-6298.259,-63807.336,-39762.29,-37350.953,-42511.23
968141.425731122,-93449.55,-51466.15,-21024.902,-6300.7,-63816.49,-39763.55,-37355.184,-42520.996
968141.4297311206,-93449.75,-51466.31,-21022.42,-6304.8506,-63826.215,-39767.62,-37361.125,-42528.973
968141.4337311191,-93446.01,-51465.375,-21020.955,-6302.9785,-63829.797,-39770.062,-37363.73,-42531.58
968141.4377311177,-93444.46,-51466.23,-21023.193,-6298.828,-63827.76,-39769.777,-37364.586,-42533.406
968141.4417311163,-93447.31,-51470.703,-21021.484,-6295.7764,-63823.49,-39768.15,-37362.633,-42530.56
968141.4457311148,-93446.86,-51470.5,-21018.963,-6300.049,-63829.1,-39770.508,-37363.04,-42526.98
968141.4497311134,-93451.5,-51472.047,-21024.049,-6306.356,-63838.95,-39770.836,-37365.64,-42534.06
968141.453731112,-93447.92,-51468.465,-21022.543,-6303.589,-63835.41,-39769.53,-37360.883,-42526.285
968141.4577311105,-93440.31,-51463.91,-21018.23,-6297.567,-63833.336,-39767.62,-37357.016,-42520.305
968141.4617311091,-93439.78,-51465.617,-21018.758,-6292.196,-63826.418,-39767.17,-37356.242,-42519.492
968141.4657311076,-93438.234,-51464.438,-21020.508,-6294.963,-63828.777,-39766.52,-37357.79,-42525.637
968141.4697311062,-93440.27,-51464.316,-21017.416,-6302.124,-63838.176,-39767.78,-37361.695,-42529.664
968141.4737311048,-93442.75,-51462.04,-21024.781,-6305.013,-63841.188,-39767.09,-37359.906,-42529.176
968141.4777311033,-93440.02,-51460.695,-21022.176,-6303.7925,-63836.957,-39764.445,-37356.406,-42529.83
968141.4817311019,-93439.86,-51465.617,-21016.195,-6298.7876,-63833.742,-39764.977,-37357.75,-42526.246
968141.4857311003,-93441.734,-51465.457,-21011.068,-6298.0957,-63832.562,-39765.668,-37359.703,-42525.105
968141.4897310989,-93446.54,-51466.27,-21015.3,-6303.1416,-63837.85,-39764.16,-37356.242,-42517.78
968141.4937310974,-93444.18,-51465.332,-21021.688,-6304.3623,-63838.746,-39764.08,-37354.25,-42513.59
968141.497731096,-93441.04,-51465.902,-21018.19,-6301.9614,-63835.734,-39763.387,-37352.785,-42517.457
968141.5017310946,-93433.92,-51462.973,-21011.883,-6296.55,-63827.598,-39761.92,-37351.688,-42516.24
968141.5057310931,-93438.07,-51464.887,-21015.096,-6298.462,-63826.457,-39763.754,-37354.695,-42519.41
968141.5097310917,-93443.89,-51469.08,-21018.758,-6305.7456,-63839.562,-39766.93,-37355.715,-42521.73
968141.5137310902,-93441.33,-51468.26,-21019.654,-6306.5186,-63844.934,-39768.637,-37357.34,-42518.19
968141.5177310888,-93441.53,-51469.566,-21020.875,-6302.49,-63842.816,-39768.555,-37355.797,-42508.504
968141.5217310874,-93444.5,-51473.836,-21020.264,-6299.6826,-63842.043,-39766.727,-37356.527,-42517.05
968141.5257310859,-93444.91,-51472.617,-21019.734,-6301.677,-63837.527,-39767.703,-37361.207,-42530.03
968141.5297310845,-93447.96,-51472.82,-21021.932,-6306.6,-63838.91,-39767.945,-37365.074,-42533.246
968141.533731083,-93453.05,-51475.508,-21024.617,-6309.245,-63839.64,-39768.027,-37364.42,-42530.4
968141.5377310816,-93453.82,-51474.57,-21023.967,-6306.6816,-63839.277,-39768.312,-37363.527,-42525.39
968141.5417310802,-93448.445,-51474.367,-21021.566,-6300.293,-63829.797,-39768.066,-37366.945,-42531.863
968141.5457310787,-93443.08,-51473.758,-21017.498,-6299.1943,-63831.953,-39767.17,-37369.67,-42538.74
968141.5497310772,-93449.1,-51475.832,-21019.084,-6302.165,-63839.562,-39767.945,-37368.043,-42537.516
968141.5537310757,-93452.44,-51476.117,-21018.637,-6304.6875,-63838.586,-39770.145,-37367.39,-42532.31
968141.5577310743,-93449.79,-51474.855,-21016.928,-6302.8975,-63830.445,-39770.996,-37368.33,-42532.715
968141.5617310728,-93448.37,-51474.57,-21013.428,-6298.7876,-63822.062,-39768.555,-37365.4,-42527.14
968141.5657310714,-93449.18,-51471.805,-21010.213,-6301.6357,-63827.19,-39769.41,-37364.707,-42526.367
968141.56973107,-93450.56,-51474.082,-21011.15,-6306.6,-63833.09,-39769.816,-37362.996,-42525.473
968141.5737310685,-93448.29,-51474.773,-21011.8,-6309.1636,-63829.387,-39768.84,-37361.94,-42526.695
968141.5777310671,-93444.5,-51473.27,-21010.662,-6303.752,-63827.637,-39766.766,-37361.086,-42524.863
968141.5817310656,-93444.336,-51472.25,-21007.936,-6299.4795,-63824.344,-39765.26,-37361.207,-42523.97
968141.5857310642,-93443.16,-51467.246,-21007.324,-6300.8223,-63826.867,-39765.91,-37361.41,-42518.473
968141.5897310628,-93442.71,-51463.707,-21004.803,-6304.4844,-63836.145,-39766.52,-37359.09,-42511.15
968141.5937310613,-93440.63,-51459.15,-21002.686,-6306.4375,-63847.21,-39768.92,-37358.848,-42511.355
968141.5977310599,-93439.78,-51458.008,-21005.656,-6301.8394,-63840.902,-39769.777,-37358.277,-42507.652
968141.6017310584,-93435.18,-51459.395,-21004.477,-6296.794,-63830.324,-39766.805,-37359.17,-42518.637
968141.605731057,-93430.83,-51457.684,-21004.395,-6299.3164,-63830.61,-39765.87,-37359.375,-42524.496
968141.6097310556,-93438.195,-51461.02,-21008.953,-6304.8506,-63839.684,-39767.133,-37362.223,-42523.234
968141.613731054,-93441.695,-51463.176,-21010.174,-6306.926,-63846.887,-39766.36,-37360.312,-42520.55
968141.6177310526,-93437.18,-51462.566,-21008.26,-6303.3447,-63840.008,-39764.04,-37359.09,-42521.363
968141.6217310511,-93440.31,-51466.473,-21010.701,-6302.246,-63832.4,-39763.023,-37362.957,-42520.67
968141.6257310497,-93443.41,-51468.914,-21012.736,-6303.3857,-63835.695,-39765.465,-37368.246,-42530.234
968141.6297310482,-93442.75,-51465.902,-21015.3,-6307.821,-63835.246,-39767.336,-37366.824,-42527.387
968141.6337310468,-93441.04,-51462.77,-21014.648,-6309.448,-63840.09,-39767.375,-37363.527,-42519.98
968141.6377310454,-93437.34,-51460.37,-21010.05,-6303.3447,-63824.547,-39767.418,-37363.04,-42521.484
968141.6417310439,-93433.27,-51460.652,-21006.959,-6299.276,-63813.684,-39766.684,-37361.53,-42519.492
968141.6457310425,-93434.9,-51464.4,-21006.918,-6302.124,-63822.96,-39766.93,-37364.664,-42524.66
968141.649731041,-93440.96,-51466.434,-21006.836,-6306.844,-63833.133,-39768.434,-37368.125,-42527.914
968141.6537310396,-93446.9,-51468.223,-21007.65,-6309.6924,-63842.285,-39770.71,-37370.85,-42533.0
968141.6577310382,-93448.164,-51474.734,-21007.447,-6307.048,-63833.78,-39773.152,-37374.84,-42533.203
968141.6617310367,-93441.66,-51473.43,-20999.47,-6300.1304,-63826.457,-39772.258,-37375.164,-42528.363
968141.6657310353,-93444.91,-51473.633,-21001.059,-6303.3447,-63823.977,-39770.348,-37374.15,-42534.508
968141.6697310338,-93445.16,-51469.566,-21002.809,-6309.8555,-63829.1,-39769.207,-37368.41,-42529.703
968141.6737310324,-93436.16,-51457.805,-21001.262,-6308.5127,-63829.797,-39769.777,-37362.836,-42522.707
968141.6777310309,-93437.055,-51458.418,-21000.408,-6305.827,-63822.31,-39767.336,-37359.99,-42517.54
968141.6817310294,-93440.72,-51463.707,-21003.5,-6306.1523,-63818.848,-39765.83,-37360.19,-42518.84
968141.685731028,-93440.11,-51463.22,-21003.662,-6307.414,-63818.566,-39765.3,-37362.348,-42518.395
968141.6897310265,-93441.61,-51462.73,-21004.598,-6311.5234,-63828.086,-39766.48,-37366.7,-42526.41
968141.6937310251,-93442.016,-51462.363,-21003.662,-6312.744,-63832.277,-39767.17,-37369.266,-42533.043
968141.6977310237,-93441.2,-51464.152,-21001.344,-6310.1807,-63827.844,-39765.586,-37368.45,-42532.105
968141.7017310222,-93440.59,-51463.504,-21001.873,-6305.9897,-63807.54,-39763.348,-37365.684,-42522.46
968141.7057310208,-93438.195,-51460.41,-21002.645,-6306.4375,-63805.91,-39763.348,-37362.754,-42514.73
968141.7097310193,-93435.71,-51454.062,-21002.035,-6309.9365,-63814.984,-39765.543,-37360.598,-42514.812
968141.7137310179,-93433.02,-51451.094,-21000.53,-6310.913,-63821.574,-39767.742,-37361.695,-42524.863
968141.7177310165,-93433.88,-51455.363,-21004.559,-6310.669,-63818.44,-39769.207,-37367.88,-42532.633
968141.721731015,-93436.73,-51460.86,-21005.086,-6305.5015,-63809.777,-39769.98,-37374.51,-42539.715
968141.7257310136,-93439.984,-51464.48,-21004.11,-6306.5186,-63813.316,-39771.77,-37377.566,-42534.668
968141.7297310121,-93442.836,-51464.844,-21000.611,-6312.622,-63828.168,-39772.867,-37379.273,-42532.594
968141.7337310107,-93439.086,-51456.098,-20996.705,-6312.4595,-63825.93,-39772.22,-37376.87,-42527.02
968141.7377310093,-93432.984,-51452.477,-20995.117,-6308.553,-63817.996,-39768.434,-37371.707,-42523.887
968141.7417310077,-93440.27,-51466.84,-20995.646,-6307.7393,-63814.7,-39762.574,-37365.152,-42518.84
968141.7457310063,-93463.83,-51492.96,-21003.906,-6314.6567,-63824.016,-39759.402,-37359.66,-42515.504
968141.7497310048,-93476.65,-51501.71,-21010.58,-6323.283,-63834.473,-39760.582,-37357.83,-42516.195
968141.7537310034,-93450.4,-51466.023,-21001.424,-6319.9463,-63828.695,-39763.184,-37363.12,-42516.562
968141.7577310019,-93435.47,-51453.94,-20996.99,-6313.1104,-63814.047,-39764.812,-37368.043,-42516.97
968141.7617310005,-93462.41,-51482.707,-21002.238,-6311.727,-63813.52,-39763.55,-37372.4,-42523.438
968141.7657309991,-93471.97,-51496.746,-21002.197,-6314.616,-63816.855,-39763.797,-37374.555,-42522.543
968141.7697309976,-93480.59,-51501.875,-21000.447,-6321.289,-63830.812,-39764.812,-37371.582,-42515.137
968141.7737309962,-93481.29,-51498.496,-21001.912,-6322.795,-63830.73,-39766.074,-37368.777,-42513.47
968141.7777309947,-93482.625,-51503.297,-21005.982,-6322.876,-63829.227,-39766.316,-37371.42,-42522.992
968141.7817309933,-93497.4,-51518.8,-21010.701,-6321.1265,-63824.63,-39765.75,-37370.85,-42523.562
968141.7857309919,-93500.45,-51524.78,-21010.783,-6322.998,-63827.477,-39764.773,-37370.484,-42517.945
968141.7897309904,-93502.77,-51526.652,-21010.254,-6329.3867,-63834.555,-39764.04,-37371.5,-42519.086
968141.793730989,-93506.11,-51526.734,-21013.266,-6332.7637,-63839.195,-39762.37,-37368.98,-42516.36
968141.7977309875,-93504.766,-51520.836,-21012.533,-6328.166,-63827.027,-39758.18,-37363.406,-42510.215
968141.8017309861,-93501.34,-51521.61,-21008.139,-6322.998,-63817.02,-39754.273,-37361.734,-42506.676
968141.8057309845,-93500.2,-51519.33,-21005.615,-6327.0264,-63815.84,-39753.703,-37364.016,-42514.406
968141.8097309831,-93504.516,-51520.793,-21008.871,-6335.002,-63833.863,-39756.754,-37363.324,-42517.78
968141.8137309817,-93508.42,-51523.113,-21012.615,-6335.002,-63835.33,-39758.344,-37362.223,-42518.96
968141.8177309802,-93501.23,-51519.613,-21009.521,-6327.1484,-63827.07,-39759.074,-37363.28,-42516.277
968141.8217309788,-93494.266,-51519.086,-21005.78,-6320.923,-63818.32,-39759.44,-37366.742,-42512.37
968141.8257309773,-93495.37,-51517.62,-21006.756,-6325.9277,-63824.668,-39760.785,-37373.66,-42517.58
968141.8297309759,-93493.086,-51514.977,-21009.889,-6330.6074,-63832.93,-39761.19,-37374.023,-42519.777
968141.8337309745,-93493.86,-51514.73,-21009.441,-6333.171,-63833.62,-39758.953,-37367.758,-42509.848
968141.837730973,-93497.234,-51511.92,-21006.633,-6331.299,-63826.254,-39754.598,-37361.33,-42497.438
968141.8417309716,-93498.82,-51514.934,-21002.035,-6325.643,-63815.31,-39752.035,-37356.445,-42489.46
968141.8457309701,-93500.82,-51515.953,-20998.414,-6325.9277,-63822.266,-39751.426,-37357.06,-42500.895
968141.8497309687,-93502.69,-51518.68,-21000.0,-6331.828,-63830.242,-39751.1,-37353.395,-42496.543
968141.8537309673,-93502.61,-51519.816,-21004.803,-6333.252,-63830.73,-39753.133,-37349.49,-42491.336
968141.8577309658,-93504.27,-51521.973,-21007.121,-6331.7466,-63824.832,-39752.605,-37348.43,-42494.14
968141.8617309644,-93510.42,-51528.89,-21007.527,-6329.997,-63816.367,-39751.668,-37349.45,-42501.75
968141.865730963,-93513.96,-51529.707,-21010.05,-6335.124,-63831.75,-39753.297,-37352.254,-42503.336
968141.8697309614,-93512.414,-51525.72,-21011.19,-6338.786,-63846.477,-39755.617,-37354.168,-42504.64
968141.87373096,-93511.31,-51520.59,-21010.092,-6337.6465,-63840.7,-39756.105,-37354.004,-42504.355
968141.8777309585,-93508.67,-51516.48,-21003.988,-6331.0547,-63827.844,-39753.664,-37350.223,-42492.15
968141.8817309571,-93503.46,-51514.49,-20999.309,-6324.4224,-63813.316,-39750.285,-37346.68,-42484.5
968141.8857309556,-93501.34,-51515.34,-20999.635,-6328.9795,-63814.66,-39748.25,-37342.285,-42475.344
968141.8897309542,-93501.14,-51516.48,-21000.936,-6336.5073,-63824.14,-39750.53,-37343.426,-42473.594
968141.8937309528,-93502.93,-51512.777,-21006.836,-6338.7046,-63831.016,-39750.367,-37344.44,-42479.656
968141.8977309513,-93504.88,-51512.25,-21006.918,-6338.501,-63823.977,-39750.49,-37344.32,-42475.832
968141.9017309499,-93508.14,-51515.18,-21006.959,-6332.7637,-63805.992,-39749.715,-37344.523,-42468.914
968141.9057309484,-93510.016,-51514.285,-21005.412,-6334.31,-63808.8,-39752.156,-37349.04,-42485.8
968141.909730947,-93510.83,-51512.086,-21007.61,-6339.193,-63821.37,-39752.89,-37351.97,-42488.973
968141.9137309456,-93507.98,-51509.402,-21005.9,-6341.2275,-63825.97,-39751.547,-37349.895,-42481.934
968141.9177309441,-93504.73,-51507.203,-21001.059,-6337.85,-63824.547,-39749.555,-37350.3,-42489.87
968141.9217309427,-93502.2,-51505.535,-20995.443,-6328.8984,-63817.508,-39748.535,-37349.812,-42492.23
968141.9257309412,-93502.36,-51506.473,-20995.117,-6331.0547,-63813.6,-39751.1,-37353.273,-42496.137
968141.9297309398,-93502.2,-51506.188,-20999.959,-6335.775,-63818.32,-39753.746,-37358.277,-42500.33
968141.9337309382,-93500.734,-51506.188,-21001.994,-6335.2866,-63821.047,-39755.617,-37363.85,-42512.125
968141.9377309368,-93500.0,-51505.086,-21002.768,-6333.6997,-63812.707,-39755.086,-37365.766,-42511.273
968141.9417309354,-93505.78,-51510.176,-21006.104,-6334.5947,-63810.387,-39754.68,-37368.082,-42515.137
968141.9457309339,-93514.57,-51520.266,-21007.568,-6338.379,-63816.0,-39755.008,-37369.754,-42519.656
968141.9497309325,-93512.49,-51513.797,-21011.15,-6344.8896,-63827.434,-39758.26,-37369.06,-42517.09
968141.953730931,-93511.27,-51515.137,-21010.54,-6344.564,-63844.85,-39758.79,-37362.223,-42504.8
968141.9577309296,-93512.695,-51517.215,-21008.545,-6340.495,-63835.777,-39756.348,-37357.06,-42496.5
968141.9617309282,-93508.55,-51511.883,-21006.227,-6336.426,-63814.7,-39752.605,-37357.137,-42498.902
968141.9657309267,-93508.75,-51512.656,-21004.15,-6337.2397,-63824.63,-39751.305,-37357.26,-42498.82
968141.9697309253,-93509.08,-51510.945,-21006.023,-6342.6514,-63831.586,-39752.24,-37360.027,-42498.414
968141.9737309238,-93516.36,-51515.18,-21009.562,-6346.5986,-63835.004,-39751.87,-37363.812,-42508.504
968141.9777309224,-93543.74,-51540.69,-21017.172,-6348.104,-63840.008,-39748.453,-37362.223,-42509.523
968141.981730921,-93549.44,-51552.9,-21014.73,-6347.3716,-63841.637,-39746.543,-37362.184,-42506.473
968141.9857309195,-93498.58,-51506.145,-21003.377,-6341.96,-63833.742,-39752.08,-37371.625,-42510.215
968141.9897309181,-93472.01,-51469.727,-20999.879,-6340.902,-63826.094,-39758.344,-37378.258,-42515.18
968141.9937309166,-93471.03,-51463.137,-21003.174,-6342.448,-63830.773,-39761.477,-37378.703,-42517.133
968141.9977309151,-93456.95,-51451.133,-21002.93,-6337.5244,-63823.527,-39760.785,-37376.953,-42523.562
968142.0017309136,-93435.51,-51430.543,-20998.617,-6331.014,-63815.15,-39756.715,-37375.043,-42536.01
968142.0057309122,-93420.375,-51415.164,-20996.338,-6330.8516,-63823.082,-39755.7,-37372.316,-42534.426
968142.0097309108,-93422.04,-51410.89,-20997.803,-6337.362,-63832.277,-39756.633,-37369.1,-42524.496
968142.0137309093,-93419.44,-51406.293,-20995.525,-6337.9316,-63828.98,-39756.797,-37367.312,-42523.4
968142.0177309079,-93421.02,-51408.652,-20995.24,-6336.1816,-63826.62,-39757.04,-37365.805,-42521.28
968142.0217309064,-93430.14,-51419.76,-20995.281,-6331.828,-63826.62,-39756.31,-37364.46,-42521.12
968142.025730905,-93432.3,-51422.977,-20992.676,-6333.0894,-63836.754,-39757.938,-37366.414,-42520.836
968142.0297309036,-93434.086,-51423.016,-20992.514,-6337.972,-63846.805,-39758.016,-37366.824,-42517.742
968142.0337309021,-93433.44,-51425.945,-20988.566,-6339.7217,-63856.977,-39756.39,-37366.375,-42516.645
968142.0377309007,-93435.34,-51428.875,-20991.252,-6339.193,-63863.812,-39755.86,-37366.254,-42515.625
968142.0417308992,-93437.46,-51432.05,-20992.146,-6335.7344,-63863.566,-39753.094,-37363.77,-42510.867
968142.0457308978,-93434.94,-51432.742,-20990.479,-6337.362,-63864.22,-39750.895,-37359.5,-42503.094
968142.0497308964,-93433.59,-51432.13,-20991.496,-6340.6577,-63869.062,-39750.0,-37357.137,-42504.723
968142.0537308949,-93433.84,-51431.97,-20994.549,-6341.919,-63870.89,-39751.465,-37361.29,-42512.086
968142.0577308935,-93440.59,-51434.57,-20996.541,-6336.792,-63875.207,-39753.906,-37367.473,-42520.02
968142.0617308919,-93443.36,-51438.234,-20997.682,-6333.049,-63874.88,-39756.105,-37370.28,-42520.47
968142.0657308905,-93442.34,-51435.63,-20999.92,-6335.897,-63879.56,-39759.24,-37372.805,-42516.848
968142.069730889,-93444.945,-51435.996,-21003.094,-6340.007,-63897.46,-39762.86,-37375.855,-42529.176
968142.0737308876,-93447.35,-51439.332,-21004.68,-6341.6343,-63905.195,-39762.004,-37372.723,-42522.867
968142.0777308862,-93445.195,-51441.53,-20999.635,-6339.9253,-63901.41,-39757.938,-37366.457,-42512.9
968142.0817308847,-93442.75,-51443.44,-20991.496,-6333.9844,-63899.7,-39757.04,-37370.973,-42534.18
968142.0857308833,-93441.125,-51446.332,-20990.072,-6334.3506,-63901.246,-39756.676,-37372.723,-42543.824
968142.0897308819,-93441.57,-51444.746,-20993.572,-6340.78,-63917.32,-39757.324,-37369.71,-42534.426
968142.0937308804,-93441.57,-51441.164,-20996.135,-6341.3086,-63916.586,-39758.14,-37367.15,-42526.41
968142.097730879,-93439.66,-51441.57,-20995.402,-6337.5654,-63910.2,-39757.367,-37366.293,-42522.95
968142.1017308775,-93438.88,-51441.816,-20995.361,-6334.0254,-63906.863,-39756.023,-37366.293,-42524.05
968142.1057308761,-93444.38,-51445.598,-20996.135,-6334.6357,-63912.03,-39757.12,-37369.67,-42524.17
968142.1097308747,-93450.89,-51450.81,-20998.617,-6340.373,-63920.25,-39758.953,-37369.754,-42517.254
968142.1137308732,-93451.016,-51452.19,-20998.21,-6340.2915,-63927.043,-39760.094,-37368.246,-42515.586
968142.1177308718,-93448.41,-51450.766,-20997.926,-6335.2866,-63924.113,-39759.44,-37365.6,-42514.895
968142.1217308703,-93447.15,-51454.754,-20997.03,-6329.997,-63913.414,-39759.32,-37364.586,-42511.027
968142.1257308688,-93446.695,-51453.535,-20994.629,-6331.421,-63920.37,-39759.605,-37368.207,-42524.82
968142.1297308673,-93442.1,-51450.887,-20993.531,-6336.711,-63935.02,-39759.81,-37366.78,-42518.066
968142.1337308659,-93440.63,-51448.652,-20990.031,-6335.49,-63935.832,-39760.05,-37363.527,-42514.0
968142.1377308645,-93441.164,-51447.957,-20985.678,-6331.7466,-63926.35,-39758.586,-37365.03,-42519.98
968142.141730863,-93440.19,-51451.375,-20988.566,-6329.7935,-63917.117,-39755.74,-37365.562,-42521.566
968142.1457308616,-93440.39,-51453.207,-20989.705,-6334.3506,-63922.977,-39754.926,-37366.617,-42520.59
968142.1497308601,-93443.69,-51453.695,-20992.676,-6340.1694,-63935.508,-39755.13,-37366.336,-42520.836
968142.1537308587,-93449.79,-51454.348,-20997.396,-6342.611,-63936.32,-39756.266,-37366.21,-42519.695
968142.1577308573,-93453.21,-51454.47,-20997.803,-6339.2334,-63934.652,-39755.13,-37365.03,-42519.816
968142.1617308558,-93447.92,-51450.766,-20995.973,-6335.124,-63931.113,-39756.348,-37370.605,-42532.43
968142.1657308544,-93446.13,-51447.39,-20993.531,-6336.711,-63931.562,-39757.324,-37371.707,-42532.797
968142.1697308529,-93446.86,-51449.953,-20994.508,-6341.716,-63941.164,-39757.812,-37370.28,-42526.082
968142.1737308515,-93445.6,-51447.227,-20994.182,-6343.0176,-63940.758,-39756.754,-37368.777,-42525.027
968142.1777308501,-93443.73,-51449.63,-20994.305,-6338.9487,-63933.516,-39754.723,-37370.688,-42528.727
968142.1817308486,-93440.02,-51452.883,-20989.828,-6333.74,-63931.074,-39750.855,-37368.004,-42529.95
968142.1857308472,-93443.766,-51453.535,-20992.514,-6336.8735,-63935.793,-39748.82,-37364.79,-42527.02
968142.1897308456,-93448.37,-51453.94,-20998.21,-6343.2617,-63951.703,-39750.33,-37363.566,-42530.355
968142.1937308442,-93450.16,-51454.387,-21000.326,-6344.2793,-63956.055,-39753.215,-37362.836,-42534.668
968142.1977308427,-93452.44,-51454.145,-21000.082,-6339.3555,-63945.76,-39751.914,-37359.215,-42527.344
968142.2017308413,-93456.1,-51454.47,-21001.14,-6337.362,-63939.58,-39749.797,-37359.58,-42528.08
968142.2057308399,-93452.15,-51453.74,-21000.408,-6339.1523,-63936.242,-39747.6,-37358.195,-42528.81
968142.2097308384,-93456.26,-51458.05,-21004.803,-6345.093,-63945.395,-39747.477,-37354.777,-42520.426
968142.213730837,-93463.14,-51463.258,-21007.08,-6346.6797,-63952.883,-39749.227,-37354.37,-42521.973
968142.2177308355,-93449.266,-51456.83,-21001.953,-6342.2446,-63945.273,-39749.88,-37357.992,-42523.4
968142.2217308341,-93432.05,-51442.75,-20994.305,-6336.3037,-63935.223,-39750.734,-37363.973,-42527.426
968142.2257308327,-93441.61,-51447.227,-20998.047,-6338.745,-63939.375,-39752.2,-37364.992,-42534.426
968142.2297308312,-93448.33,-51449.26,-21000.408,-6344.32,-63946.617,-39753.99,-37366.375,-42543.54
968142.2337308298,-93447.11,-51450.605,-21000.652,-6345.459,-63947.227,-39754.64,-37364.46,-42538.535
968142.2377308283,-93446.62,-51452.637,-21001.873,-6344.157,-63939.25,-39752.24,-37363.16,-42532.918
968142.2417308269,-93447.31,-51457.6,-20999.676,-6339.966,-63926.23,-39747.355,-37359.703,-42526.285
968142.2457308255,-93448.33,-51457.36,-20995.932,-6341.268,-63929.28,-39746.38,-37359.58,-42530.805
968142.249730824,-93445.195,-51454.387,-20996.297,-6346.1914,-63939.863,-39748.293,-37361.94,-42538.535
968142.2537308225,-93445.27,-51450.605,-20997.03,-6347.1274,-63946.086,-39749.88,-37366.13,-42540.652
968142.257730821,-93447.875,-51449.383,-20997.967,-6343.506,-63942.06,-39750.69,-37368.246,-42538.13
968142.2617308196,-93446.86,-51452.027,-20995.809,-6339.885,-63932.336,-39749.555,-37369.266,-42536.664
968142.2657308182,-93450.445,-51454.957,-20994.223,-6343.425,-63931.48,-39750.285,-37370.28,-42537.926
968142.2697308167,-93455.37,-51458.133,-20997.438,-6350.7896,-63947.227,-39752.566,-37369.63,-42538.168
968142.2737308153,-93453.414,-51454.918,-21001.873,-6352.4985,-63958.742,-39753.46,-37369.426,-42539.836
968142.2777308138,-93454.39,-51456.83,-21004.965,-6349.0806,-63953.207,-39752.24,-37369.67,-42542.48
968142.2817308124,-93456.46,-51459.84,-21003.662,-6347.982,-63940.715,-39752.44,-37369.223,-42540.812
968142.285730811,-93458.414,-51462.242,-21003.012,-6349.284,-63942.223,-39751.668,-37368.41,-42533.895
968142.2897308095,-93460.37,-51462.28,-21004.965,-6352.987,-63943.973,-39752.81,-37371.99,-42538.004
968142.2937308081,-93459.44,-51460.816,-21005.818,-6353.882,-63941.895,-39754.723,-37376.547,-42545.207
968142.2977308066,-93459.11,-51464.6,-21005.209,-6351.074,-63937.055,-39752.2,-37376.06,-42548.016
968142.3017308052,-93457.85,-51466.31,-21002.889,-6346.517,-63936.2,-39749.84,-37375.977,-42547.28
968142.3057308038,-93459.234,-51467.207,-21003.865,-6349.691,-63941.895,-39750.125,-37379.273,-42553.47
968142.3097308023,-93464.89,-51468.06,-21009.156,-6356.9746,-63951.582,-39752.28,-37383.016,-42563.723
968142.3137308009,-93468.305,-51467.367,-21011.719,-6356.6895,-63954.55,-39754.723,-37383.06,-42560.184
968142.3177307993,-93465.414,-51470.99,-21009.441,-6352.987,-63950.81,-39754.68,-37382.082,-42554.2
968142.3217307979,-93465.336,-51473.105,-21008.668,-6350.5454,-63939.863,-39749.84,-37377.28,-42546.1
968142.3257307964,-93467.45,-51472.902,-21008.586,-6355.6724,-63938.887,-39749.105,-37376.832,-42556.195
968142.329730795,-93468.1,-51471.965,-21008.668,-6358.114,-63955.12,-39751.832,-37377.77,-42560.953
968142.3337307936,-93462.77,-51464.355,-21006.918,-6355.835,-63954.348,-39750.53,-37373.94,-42552.98
968142.3377307921,-93459.96,-51463.22,-21003.988,-6353.2715,-63951.38,-39746.176,-37368.33,-42548.79
968142.3417307907,-93456.1,-51463.91,-21001.994,-6350.3013,-63945.395,-39743.29,-37363.04,-42541.18
968142.3457307892,-93458.91,-51462.16,-21003.338,-6354.6553,-63952.19,-39743.53,-37362.43,-42534.02
968142.3497307878,-93462.734,-51462.85,-21007.283,-6359.538,-63960.45,-39743.45,-37362.184,-42531.168
968142.3537307864,-93462.57,-51463.38,-21006.674,-6360.962,-63960.656,-39744.14,-37364.383,-42533.406
968142.3577307849,-93462.2,-51467.125,-21006.186,-6357.0967,-63953.656,-39744.914,-37367.96,-42536.906
968142.3617307835,-93462.65,-51468.875,-21004.273,-6348.674,-63940.27,-39744.957,-37369.02,-42537.598
968142.365730782,-93463.625,-51467.41,-21001.873,-6349.7314,-63945.273,-39745.402,-37369.957,-42533.082
968142.3697307806,-93466.43,-51469.363,-21006.145,-6358.8057,-63955.08,-39747.926,-37370.81,-42535.645
968142.3737307792,-93460.78,-51465.863,-21007.568,-6360.555,-63955.566,-39750.0,-37369.754,-42541.953
968142.3777307777,-93454.875,-51461.914,-21003.174,-6355.713,-63944.824,-39747.887,-37363.85,-42537.395
968142.3817307762,-93453.05,-51461.266,-20996.908,-6350.952,-63937.543,-39744.914,-37359.703,-42532.84
968142.3857307747,-93452.88,-51459.395,-20997.559,-6353.0684,-63939.09,-39744.547,-37360.68,-42537.19
968142.3897307733,-93450.6,-51455.445,-21000.203,-6356.527,-63946.82,-39742.758,-37358.6,-42528.566
968142.3937307718,-93450.484,-51453.004,-21000.896,-6357.015,-63947.918,-39743.734,-37360.27,-42535.2
968142.3977307704,-93450.16,-51453.37,-21003.865,-6353.1904,-63940.676,-39744.59,-37362.47,-42540.527
968142.401730769,-93455.57,-51460.125,-21007.121,-6350.4233,-63928.305,-39745.117,-37363.363,-42536.5
968142.4057307675,-93457.93,-51462.2,-21005.697,-6352.824,-63926.72,-39745.2,-37365.36,-42529.867
968142.4097307661,-93457.32,-51460.043,-21003.5,-6355.6724,-63938.52,-39744.793,-37365.684,-42531.168
968142.4137307646,-93457.234,-51456.586,-21002.238,-6358.114,-63938.316,-39744.547,-37367.92,-42546.47
968142.4177307632,-93453.53,-51455.73,-21000.164,-6355.428,-63912.316,-39742.27,-37364.91,-42538.13
968142.4217307618,-93449.914,-51454.305,-20995.076,-6350.993,-63896.934,-39740.234,-37361.207,-42533.12
968142.4257307603,-93444.7,-51449.26,-20992.596,-6348.2666,-63904.055,-39740.234,-37357.016,-42525.27
968142.4297307589,-93442.75,-51444.867,-20994.914,-6352.214,-63917.848,-39742.72,-37357.465,-42526.207
968142.4337307574,-93443.65,-51446.29,-20998.291,-6353.2715,-63924.44,-39744.426,-37358.44,-42523.277
968142.437730756,-93450.52,-51450.156,-20999.838,-6351.9287,-63921.43,-39745.523,-37362.754,-42528.89
968142.4417307546,-93453.9,-51450.36,-20999.797,-6346.802,-63914.836,-39746.95,-37369.02,-42542.523
968142.445730753,-93452.805,-51451.99,-21001.344,-6350.2607,-63918.176,-39748.496,-37374.758,-42545.94
968142.4497307516,-93453.86,-51453.33,-21002.28,-6356.0386,-63930.625,-39747.926,-37373.94,-42541.3
968142.4537307501,-93457.08,-51453.004,-21004.803,-6355.957,-63931.4,-39748.375,-37375.69,-42542.074
968142.4577307487,-93452.72,-51454.55,-21005.047,-6352.4985,-63921.062,-39746.582,-37375.203,-42540.04
968142.4617307473,-93453.78,-51458.58,-21003.094,-6350.057,-63915.367,-39744.344,-37374.96,-42541.26
968142.4657307458,-93455.0,-51457.277,-21002.889,-6352.9053,-63916.3,-39744.426,-37374.637,-42546.023
968142.4697307444,-93459.35,-51453.656,-21006.715,-6356.9746,-63922.895,-39746.055,-37372.56,-42542.035
968142.4737307429,-93465.13,-51453.9,-21010.295,-6361.2876,-63929.934,-39748.414,-37373.74,-42544.965
968142.4777307415,-93462.28,-51455.77,-21010.783,-6358.6426,-63925.62,-39746.38,-37372.723,-42545.125
968142.48173074,-93463.09,-51457.277,-21010.133,-6355.428,-63922.16,-39743.082,-37371.258,-42539.836
968142.4857307386,-93460.53,-51454.1,-21007.65,-6355.7944,-63921.145,-39743.652,-37371.094,-42540.324
968142.4897307372,-93460.62,-51453.168,-21007.527,-6359.2124,-63924.805,-39745.08,-37371.83,-42541.91
968142.4937307357,-93459.72,-51453.086,-21007.162,-6358.3984,-63918.457,-39746.055,-37371.867,-42535.156
968142.4977307343,-93457.52,-51451.863,-21005.209,-6356.1606,-63907.758,-39745.65,-37373.09,-42538.13
968142.5017307329,-93455.24,-51451.703,-21004.15,-6349.447,-63906.7,-39745.2,-37374.227,-42549.52
968142.5057307314,-93455.94,-51451.582,-21001.465,-6350.342,-63913.82,-39746.137,-37376.793,-42555.992
968142.5097307299,-93460.734,-51453.125,-21003.785,-6358.8057,-63928.266,-39746.746,-37375.938,-42553.67
968142.5137307284,-93460.33,-51452.07,-21005.615,-6361.003,-63933.15,-39745.65,-37372.113,-42543.62
968142.517730727,-93457.44,-51450.44,-21004.924,-6357.3813,-63924.4,-39744.754,-37371.094,-42540.977
968142.5217307255,-93456.46,-51450.36,-21004.395,-6355.1436,-63919.11,-39743.816,-37372.4,-42549.52
968142.5257307241,-93450.36,-51445.965,-21002.93,-6355.51,-63920.047,-39744.547,-37372.113,-42545.453
968142.5297307227,-93447.15,-51443.2,-21002.4,-6356.9746,-63921.918,-39744.02,-37371.34,-42543.5
968142.5337307212,-93451.3,-51444.05,-21006.55,-6357.2188,-63922.61,-39743.57,-37370.934,-42543.01
968142.5377307198,-93446.086,-51440.473,-21004.354,-6353.6787,-63914.797,-39743.207,-37367.96,-42542.97
968142.5417307183,-93444.055,-51438.64,-21002.238,-6351.6846,-63912.234,-39740.684,-37365.152,-42539.227
968142.5457307169,-93448.85,-51441.082,-21001.1,-6356.3643,-63918.457,-39739.625,-37364.016,-42537.273
968142.5497307155,-93450.24,-51441.203,-21000.082,-6359.741,-63926.15,-39740.03,-37361.29,-42530.6
968142.553730714,-93446.82,-51440.88,-21001.262,-6361.5723,-63925.824,-39739.3,-37359.906,-42529.176
968142.5577307126,-93447.15,-51442.508,-21001.14,-6356.4453,-63919.64,-39738.16,-37358.887,-42526.9
968142.5617307111,-93450.445,-51444.133,-21000.123,-6351.4814,-63912.234,-39736.98,-37359.824,-42527.223
968142.5657307097,-93455.69,-51443.77,-21001.75,-6355.3467,-63911.01,-39737.1,-37360.598,-42528.65
968142.5697307083,-93459.35,-51447.227,-21004.518,-6360.1074,-63922.61,-39738.973,-37361.734,-42531.168
968142.5737307067,-93458.5,-51444.906,-21006.959,-6362.1826,-63929.16,-39739.176,-37360.312,-42525.88
968142.5777307053,-93459.48,-51442.223,-21006.227,-6359.619,-63924.195,-39738.73,-37361.695,-42531.617
968142.5817307038,-93456.79,-51437.258,-21001.668,-6353.4346,-63910.402,-39739.83,-37362.266,-42532.633
968142.5857307024,-93454.266,-51436.934,-20996.053,-6351.766,-63909.344,-39738.242,-37360.15,-42529.99
968142.589730701,-93452.64,-51434.164,-20997.844,-6354.533,-63915.246,-39739.137,-37361.33,-42530.805
968142.5937306995,-93452.195,-51433.676,-21000.977,-6352.8647,-63909.63,-39743.082,-37365.48,-42537.19
968142.5977306981,-93449.016,-51433.797,-21000.0,-6350.6675,-63901.652,-39744.426,-37368.57,-42537.11
968142.6017306966,-93446.78,-51433.066,-20997.152,-6347.4937,-63891.277,-39744.47,-37368.043,-42537.56
968142.6057306952,-93447.31,-51431.844,-20994.71,-6348.755,-63895.836,-39741.902,-37362.957,-42532.066
968142.6097306937,-93449.914,-51433.39,-20996.541,-6354.004,-63913.21,-39741.617,-37361.816,-42527.59
968142.6137306923,-93448.9,-51433.797,-20999.309,-6356.242,-63921.43,-39742.27,-37361.41,-42522.867
968142.6177306909,-93443.85,-51431.316,-20997.762,-6351.9697,-63909.75,-39740.684,-37360.35,-42529.95
968142.6217306894,-93442.266,-51431.805,-20993.49,-6348.104,-63900.027,-39739.625,-37362.957,-42540.73
968142.625730688,-93444.18,-51427.938,-20992.066,-6350.7896,-63901.33,-39739.83,-37366.008,-42539.023
968142.6297306865,-93449.95,-51427.168,-20997.152,-6356.6895,-63913.047,-39743.125,-37368.613,-42537.152
968142.6337306851,-93450.484,-51428.508,-21001.059,-6358.1953,-63911.543,-39745.566,-37372.52,-42540.445
968142.6377306835,-93446.49,-51427.125,-21001.873,-6353.3936,-63902.508,-39743.613,-37372.723,-42542.887
968142.6417306821,-93445.766,-51426.27,-20998.7,-6352.661,-63896.04,-39740.03,-37370.566,-42543.336
968142.6457306807,-93443.16,-51421.348,-20998.982,-6354.5737,-63897.383,-39738.406,-37365.684,-42530.52
968142.6497306792,-93446.21,-51420.86,-21000.408,-6359.3345,-63902.223,-39736.492,-37361.94,-42527.305
968142.6537306778,-93447.76,-51420.86,-21000.488,-6359.497,-63897.258,-39737.062,-37361.777,-42533.816
968142.6577306764,-93440.59,-51417.402,-20998.982,-6354.411,-63887.332,-39734.945,-37360.72,-42527.914
968142.6617306749,-93440.43,-51419.355,-20996.379,-6352.824,-63879.234,-39732.625,-37358.6,-42520.184
968142.6657306735,-93439.78,-51419.312,-20993.246,-6356.2827,-63885.664,-39733.766,-37362.1,-42523.844
968142.669730672,-93438.07,-51413.617,-20995.158,-6359.294,-63898.6,-39735.555,-37361.207,-42519.492
968142.6737306706,-93441.94,-51415.242,-20997.6,-6359.3345,-63903.16,-39734.457,-37358.6,-42519.734
968142.6777306692,-93438.766,-51412.355,-20997.111,-6353.597,-63897.707,-39732.016,-37355.387,-42516.97
968142.6817306677,-93429.94,-51405.477,-20994.873,-6347.9004,-63882.324,-39729.207,-37352.5,-42508.504
968142.6857306663,-93430.22,-51407.31,-20994.264,-6348.918,-63887.37,-39731.812,-37354.656,-42514.406
968142.6897306648,-93436.37,-51409.06,-20997.273,-6354.7363,-63897.18,-39733.24,-37356.527,-42519.816
968142.6937306634,-93437.34,-51407.637,-20998.332,-6358.073,-63902.14,-39731.69,-37353.19,-42514.61
968142.697730662,-93438.52,-51409.59,-21000.53,-6358.3984,-63907.51,-39731.324,-37354.695,-42516.805
968142.7017306604,-93443.69,-51414.594,-21001.506,-6352.987,-63907.227,-39730.715,-37358.727,-42527.914
968142.705730659,-93445.4,-51414.715,-20997.355,-6351.522,-63909.223,-39731.16,-37360.637,-42529.785
968142.7097306575,-93445.64,-51412.883,-20999.838,-6356.4453,-63924.848,-39732.098,-37360.312,-42525.637
968142.7137306561,-93444.38,-51412.395,-20999.797,-6356.405,-63925.78,-39733.156,-37360.434,-42526.33
968142.7177306546,-93444.54,-51414.473,-20998.982,-6352.661,-63927.246,-39732.625,-37360.15,-42522.95
968142.7217306532,-93444.7,-51418.703,-20997.967,-6350.0977,-63930.543,-39732.42,-37360.72,-42521.527
968142.7257306518,-93442.51,-51418.5,-20998.902,-6351.522,-63937.582,-39733.113,-37361.695,-42526.938
968142.7297306503,-93445.805,-51418.094,-20998.494,-6356.6895,-63955.977,-39734.945,-37361.734,-42526.45
968142.7337306489,-93444.664,-51415.285,-20997.152,-6358.9277,-63959.84,-39734.99,-37359.66,-42522.055
968142.7377306474,-93440.11,-51415.242,-20997.803,-6355.4688,-63950.035,-39734.66,-37357.547,-42527.387
968142.741730646,-93442.06,-51419.72,-20997.885,-6352.824,-63944.094,-39734.945,-37356.0,-42524.66
968142.7457306446,-93445.195,-51421.797,-20999.105,-6356.0386,-63959.598,-39735.23,-37358.36,-42530.68
968142.7497306431,-93446.62,-51422.16,-20999.879,-6360.6367,-63975.383,-39737.55,-37359.17,-42531.7
968142.7537306417,-93448.164,-51424.195,-20999.594,-6358.6836,-63978.273,-39737.062,-37357.75,-42526.004
968142.7577306402,-93441.61,-51420.656,-20996.258,-6352.214,-63986.37,-39735.758,-37357.42,-42526.695
968142.7617306388,-93438.16,-51415.895,-20991.984,-6347.8193,-63981.69,-39734.336,-37355.836,-42530.477
968142.7657306372,-93441.94,-51418.66,-20991.658,-6349.5283,-63978.516,-39734.336,-37352.54,-42523.97
968142.7697306358,-93441.94,-51414.754,-20993.734,-6353.882,-63979.37,-39733.316,-37351.24,-42523.684
968142.7737306344,-93440.76,-51412.03,-20996.541,-6353.1494,-63976.156,-39729.94,-37343.914,-42518.027
968142.7777306329,-93441.77,-51415.203,-20997.07,-6352.092,-63971.07,-39728.027,-37342.855,-42516.03
968142.7817306315,-93441.57,-51414.43,-20996.582,-6350.057,-63970.785,-39726.645,-37345.664,-42515.543
968142.78573063,-93443.69,-51421.633,-20994.14,-6355.2656,-63978.64,-39727.254,-37345.01,-42511.844
968142.7897306286,-93442.586,-51421.55,-20989.543,-6356.201,-63987.387,-39728.76,-37342.0,-42502.44
968142.7937306272,-93436.89,-51415.773,-20986.613,-6352.2544,-63983.887,-39730.266,-37342.367,-42508.3
968142.7977306257,-93433.64,-51419.516,-20984.742,-6349.9756,-63983.93,-39729.492,-37340.863,-42512.82
968142.8017306243,-93436.24,-51422.285,-20986.328,-6349.6094,-63981.812,-39728.152,-37339.152,-42508.707
968142.8057306228,-93441.61,-51425.254,-20987.549,-6352.0103,-63980.754,-39728.027,-37336.754,-42497.926
968142.8097306214,-93439.82,-51422.61,-20987.102,-6357.015,-63992.516,-39727.254,-37335.492,-42497.6
968142.81373062,-93433.07,-51415.73,-20989.46,-6356.649,-63998.535,-39726.89,-37338.258,-42511.395
968142.8177306185,-93431.32,-51412.52,-20991.902,-6353.1494,-63997.64,-39726.93,-37338.176,-42516.766
968142.8217306171,-93432.17,-51414.062,-20990.438,-6347.9414,-63987.145,-39725.79,-37338.016,-42508.87
968142.8257306156,-93431.07,-51413.74,-20991.252,-6349.243,-63994.71,-39727.01,-37342.855,-42512.25
968142.8297306141,-93436.52,-51417.44,-20996.908,-6353.76,-64002.363,-39730.633,-37346.316,-42517.375
968142.8337306126,-93437.79,-51415.977,-20996.217,-6352.824,-64010.38,-39732.098,-37349.285,-42523.438
968142.8377306112,-93438.6,-51419.355,-20995.605,-6351.1963,-64003.38,-39732.34,-37350.223,-42524.58
968142.8417306098,-93437.664,-51422.445,-20992.799,-6347.6973,-63995.973,-39730.957,-37349.61,-42522.258
968142.8457306083,-93430.914,-51418.945,-20988.484,-6346.3135,-63996.137,-39728.844,-37348.715,-42522.42
968142.8497306069,-93427.01,-51416.75,-20986.613,-6350.586,-63996.38,-39727.742,-37346.19,-42511.965
968142.8537306054,-93426.68,-51416.707,-20987.793,-6352.58,-63997.887,-39729.695,-37348.594,-42514.363
968142.857730604,-93424.36,-51414.633,-20988.607,-6348.7144,-63994.184,-39730.633,-37353.598,-42524.863
968142.8617306026,-93425.46,-51415.49,-20990.234,-6344.2793,-63987.062,-39729.492,-37354.004,-42523.234
968142.8657306011,-93426.11,-51414.676,-20990.764,-6344.8896,-63990.03,-39730.266,-37355.633,-42525.188
968142.8697305997,-93432.78,-51415.285,-20992.514,-6350.9116,-63997.07,-39733.035,-37358.24,-42531.414
968142.8737305983,-93435.71,-51414.43,-20993.734,-6353.3125,-64000.082,-39734.336,-37354.004,-42524.78
968142.8777305968,-93433.59,-51412.844,-20992.27,-6349.447,-63997.97,-39732.707,-37350.465,-42521.85
968142.8817305954,-93425.54,-51410.08,-20986.37,-6343.3433,-63993.574,-39727.945,-37344.156,-42511.15
968142.8857305939,-93428.305,-51412.11,-20985.516,-6348.1855,-63994.996,-39726.32,-37342.45,-42505.574
968142.8897305925,-93427.94,-51411.01,-20987.184,-6352.702,-63997.97,-39728.56,-37345.867,-42511.477
968142.8937305909,-93424.16,-51403.65,-20989.543,-6352.214,-63995.85,-39731.406,-37346.844,-42515.953
968142.8977305895,-93423.586,-51403.242,-20986.654,-6349.813,-63993.29,-39730.31,-37345.055,-42516.316
968142.901730588,-93423.1,-51404.99,-20983.846,-6345.459,-63987.305,-39726.32,-37341.15,-42513.918
968142.9057305866,-93422.85,-51403.2,-20985.066,-6348.3887,-63984.375,-39724.61,-37340.293,-42508.426
968142.9097305852,-93423.22,-51402.754,-20987.02,-6351.7256,-63989.746,-39724.57,-37338.83,-42508.504
968142.9137305837,-93423.95,-51401.938,-20987.428,-6351.6846,-63993.695,-39725.383,-37338.625,-42507.164
968142.9177305823,-93427.01,-51400.188,-20990.113,-6348.7144,-63988.16,-39724.977,-37338.707,-42505.574
968142.9217305809,-93428.875,-51403.523,-20989.178,-6345.4185,-63984.457,-39722.82,-37339.273,-42510.297
968142.9257305794,-93429.32,-51405.723,-20989.87,-6348.755,-63992.555,-39721.355,-37334.676,-42499.066
968142.929730578,-93430.99,-51404.707,-20991.496,-6354.411,-64010.99,-39721.273,-37333.09,-42494.754
968142.9337305765,-93432.87,-51403.605,-20992.27,-6354.533,-64002.16,-39721.64,-37337.28,-42510.418
968142.9377305751,-93435.02,-51407.918,-20990.602,-6349.9756,-63993.816,-39720.746,-37338.094,-42509.81
968142.9417305737,-93434.164,-51410.117,-20988.484,-6348.0225,-63990.074,-39722.21,-37340.008,-42510.54
968142.9457305722,-93430.55,-51407.555,-20988.037,-6348.1855,-63985.637,-39722.94,-37338.137,-42509.605
968142.9497305708,-93429.32,-51407.35,-20987.102,-6350.2197,-63993.492,-39721.844,-37334.027,-42507.73
968142.9537305692,-93425.664,-51404.38,-20988.729,-6351.522,-63995.324,-39721.11,-37331.42,-42507.812
968142.9577305678,-93423.22,-51402.344,-20992.27,-6348.552,-63993.45,-39720.703,-37330.973,-42508.465
968142.9617305663,-93427.86,-51408.367,-20992.596,-6346.029,-63989.625,-39718.508,-37329.754,-42505.25
968142.9657305649,-93428.19,-51406.535,-20990.967,-6346.517,-63985.15,-39718.14,-37330.08,-42501.832
968142.9697305635,-93427.86,-51400.72,-20993.49,-6347.453,-63990.156,-39720.703,-37330.61,-42498.293
968142.973730562,-93429.08,-51401.367,-20992.635,-6348.226,-63996.504,-39723.062,-37333.457,-42499.35
968142.9777305606,-93428.14,-51404.707,-20991.822,-6347.738,-63993.652,-39724.69,-37336.754,-42508.426
968142.9817305591,-93428.914,-51406.66,-20990.887,-6347.4937,-63986.777,-39726.688,-37339.684,-42514.08
968142.9857305577,-93428.914,-51406.535,-20990.193,-6350.0977,-63993.98,-39727.05,-37339.723,-42515.504
968142.9897305563,-93430.26,-51407.555,-20991.943,-6354.126,-64001.47,-39727.336,-37341.555,-42515.055
968142.9937305548,-93432.5,-51408.53,-20992.96,-6353.353,-64003.582,-39728.844,-37342.49,-42510.945
968142.9977305534,-93431.44,-51409.383,-20992.146,-6350.464,-63996.22,-39728.434,-37340.58,-42502.28
968143.001730552,-93427.66,-51409.344,-20989.299,-6345.581,-63986.74,-39725.383,-37341.27,-42507.938
968143.0057305505,-93429.12,-51408.734,-20987.875,-6345.5,-63988.934,-39723.473,-37345.01,-42523.355
968143.0097305491,-93433.31,-51408.855,-20991.17,-6350.993,-63998.17,-39724.324,-37348.715,-42538.29
968143.0137305476,-93437.016,-51410.688,-20995.85,-6353.719,-63993.98,-39724.285,-37348.43,-42534.953
968143.0177305461,-93440.836,-51412.19,-20996.785,-6352.214,-63991.58,-39723.918,-37348.39,-42527.832
968143.0217305446,-93440.02,-51412.03,-20996.053,-6347.9414,-63980.55,-39720.906,-37346.273,-42527.67
968143.0257305432,-93439.62,-51411.785,-20997.64,-6350.0977,-63982.098,-39721.52,-37345.34,-42521.2
968143.0297305417,-93440.63,-51412.52,-21002.28,-6357.0967,-63993.938,-39725.016,-37347.086,-42525.758
968143.0337305403,-93438.32,-51412.598,-21002.809,-6354.411,-63998.457,-39726.605,-37347.617,-42530.4
968143.0377305389,-93439.5,-51416.098,-21003.459,-6350.505,-63989.746,-39725.3,-37344.32,-42527.63
968143.0417305374,-93434.734,-51415.61,-20998.17,-6345.337,-63978.234,-39722.008,-37339.52,-42516.645
968143.045730536,-93432.78,-51411.46,-20995.443,-6346.5576,-63985.84,-39720.95,-37335.125,-42510.38
968143.0497305345,-93437.09,-51412.312,-20997.6,-6352.987,-63990.848,-39723.473,-37336.1,-42524.984
968143.0537305331,-93434.86,-51411.906,-20997.234,-6353.1904,-63980.88,-39723.023,-37333.336,-42523.844
968143.0577305317,-93431.93,-51408.977,-20997.396,-6350.7896,-63978.844,-39720.215,-37331.016,-42518.598
968143.0617305302,-93431.44,-51407.51,-20994.344,-6348.1855,-63974.45,-39718.832,-37332.926,-42518.15
968143.0657305288,-93428.8,-51406.617,-20992.066,-6347.412,-63975.18,-39720.582,-37334.758,-42519.29
968143.0697305273,-93427.94,-51401.98,-20990.846,-6349.8535,-63977.664,-39721.11,-37333.496,-42519.613
968143.0737305259,-93422.53,-51395.71,-20988.363,-6349.284,-63974.164,-39720.99,-37333.54,-42516.36
968143.0777305245,-93418.945,-51396.77,-20988.934,-6345.581,-63967.285,-39717.816,-37330.445,-42513.715
968143.0817305229,-93420.125,-51391.645,-20989.95,-6342.5293,-63958.54,-39716.434,-37329.02,-42510.05
968143.0857305215,-93417.16,-51392.78,-20987.63,-6344.686,-63964.97,-39718.18,-37328.94,-42508.18
968143.08973052,-93419.11,-51392.824,-20987.713,-6347.9004,-63969.28,-39718.387,-37328.574,-42506.227
968143.0937305186,-93422.77,-51389.445,-20990.234,-6349.4873,-63971.805,-39717.977,-37326.824,-42501.426
968143.0977305172,-93423.875,-51388.47,-20988.525,-6349.447,-63970.258,-39715.375,-37323.082,-42494.426
968143.1017305157,-93424.85,-51388.348,-20986.004,-6347.412,-63963.055,-39712.402,-37320.926,-42489.95
968143.1057305143,-93424.12,-51388.875,-20983.113,-6349.7314,-63960.125,-39711.793,-37323.895,-42502.28
968143.1097305128,-93425.91,-51385.133,-20982.951,-6353.801,-63965.293,-39711.59,-37323.69,-42505.82
968143.1137305114,-93428.8,-51384.523,-20986.37,-6351.9287,-63971.4,-39710.734,-37319.01,-42497.6
968143.11773051,-93429.12,-51387.41,-20986.94,-6348.5923,-63964.195,-39711.426,-37323.285,-42506.473
968143.1217305085,-93427.984,-51391.848,-20985.596,-6345.9067,-63960.004,-39711.875,-37328.613,-42518.15
968143.1257305071,-93430.75,-51397.992,-20987.752,-6349.9756,-63962.16,-39711.387,-37329.47,-42512.98
968143.1297305056,-93438.97,-51400.516,-20992.879,-6356.242,-63976.117,-39712.2,-37329.996,-42513.266
968143.1337305042,-93444.26,-51400.516,-20994.71,-6357.788,-63983.195,-39713.582,-37331.3,-42521.242
968143.1377305028,-93448.086,-51404.42,-20997.111,-6357.015,-63981.527,-39713.992,-37333.945,-42526.816
968143.1417305013,-93446.82,-51407.715,-20997.762,-6353.8413,-63972.496,-39716.066,-37338.91,-42527.832
968143.1457304998,-93448.695,-51408.977,-21000.041,-6354.045,-63969.402,-39717.977,-37343.793,-42534.465
968143.1497304983,-93456.26,-51410.402,-21003.865,-6357.3,-63977.01,-39719.727,-37347.168,-42536.99
968143.1537304969,-93457.16,-51411.703,-21004.842,-6358.48,-63981.812,-39721.56,-37351.44,-42536.746
968143.1577304954,-93457.195,-51412.76,-21002.441,-6355.713,-63978.844,-39719.973,-37352.133,-42530.6
968143.161730494,-93460.164,-51417.195,-21001.994,-6353.109,-63972.293,-39718.914,-37356.406,-42546.227
968143.1657304926,-93460.25,-51420.086,-21000.855,-6358.3984,-63979.74,-39720.258,-37359.945,-42551.758
968143.1697304911,-93459.19,-51418.133,-21002.076,-6362.956,-63993.53,-39722.902,-37359.906,-42549.316
968143.1737304897,-93458.13,-51417.727,-21002.889,-6360.189,-63993.41,-39723.594,-37358.805,-42545.86
968143.1777304882,-93455.85,-51414.797,-21003.297,-6356.3643,-63982.383,-39723.715,-37359.17,-42548.91
968143.1817304868,-93453.86,-51412.723,-21002.076,-6352.4985,-63965.414,-39723.676,-37358.727,-42550.54
968143.1857304854,-93455.33,-51414.55,-20998.78,-6354.8584,-63968.59,-39725.223,-37358.766,-42550.05
968143.1897304839,-93455.125,-51414.754,-20999.35,-6360.5146,-63980.676,-39728.19,-37362.957,-42554.363
968143.1937304825,-93452.48,-51410.566,-20999.268,-6360.433,-63984.336,-39728.395,-37362.836,-42558.84
968143.197730481,-93454.02,-51410.484,-20999.635,-6357.2593,-63980.227,-39728.355,-37362.67,-42561.363
968143.2017304796,-93457.08,-51411.46,-21001.344,-6355.998,-63974.082,-39725.832,-37361.246,-42563.965
968143.2057304782,-93461.43,-51409.953,-21002.076,-6356.3643,-63968.1,-39723.27,-37356.65,-42549.848
968143.2097304766,-93459.96,-51405.684,-21003.215,-6361.7354,-63975.793,-39724.082,-37355.023,-42542.4
968143.2137304752,-93456.18,-51403.89,-21004.232,-6362.427,-63981.977,-39723.188,-37355.348,-42549.562
968143.2177304737,-93455.98,-51403.242,-21005.006,-6360.311,-63980.55,-39721.965,-37354.777,-42548.586
968143.2217304723,-93455.28,-51405.195,-20999.512,-6357.422,-63985.35,-39721.56,-37356.12,-42541.63
968143.2257304708,-93457.69,-51406.78,-20996.502,-6356.893,-63985.68,-39721.723,-37357.953,-42546.145
968143.2297304694,-93459.15,-51403.566,-21000.367,-6361.125,-63996.34,-39723.676,-37358.44,-42551.066
968143.233730468,-93454.836,-51401.938,-21002.076,-6361.8164,-63993.492,-39721.965,-37354.29,-42547.445
968143.2377304665,-93451.664,-51401.816,-21001.018,-6358.6836,-63974.816,-39720.094,-37349.324,-42537.027
968143.2417304651,-93452.805,-51401.855,-21001.832,-6356.5674,-63961.957,-39718.26,-37349.977,-42542.195
968143.2457304636,-93446.9,-51398.766,-20998.902,-6358.6836,-63967.285,-39717.53,-37352.01,-42545.574
968143.2497304622,-93448.81,-51399.617,-21002.076,-6363.5664,-63977.99,-39717.977,-37352.99,-42543.5
968143.2537304608,-93454.1,-51401.29,-21005.412,-6364.421,-63980.676,-39719.32,-37353.92,-42546.957
968143.2577304593,-93450.56,-51398.97,-21005.574,-6361.8164,-63970.094,-39719.484,-37354.453,-42545.33
968143.2617304579,-93448.734,-51400.312,-21002.768,-6360.3516,-63962.85,-39716.35,-37351.32,-42538.414
968143.2657304564,-93447.63,-51399.008,-20999.188,-6363.363,-63966.72,-39713.504,-37346.723,-42531.78
968143.269730455,-93445.68,-51395.02,-21000.041,-6368.286,-63977.297,-39713.91,-37345.95,-42535.156
968143.2737304535,-93443.89,-51392.133,-20999.023,-6366.74,-63972.496,-39713.582,-37345.83,-42544.07
968143.277730452,-93439.7,-51388.67,-20995.158,-6360.3516,-63962.527,-39712.934,-37345.133,-42540.164
968143.2817304506,-93436.61,-51388.184,-20993.611,-6357.2188,-63955.16,-39713.746,-37348.88,-42539.266
968143.2857304491,-93435.55,-51386.395,-20991.049,-6359.497,-63949.953,-39714.97,-37353.395,-42540.57
968143.2897304477,-93436.32,-51384.523,-20994.02,-6364.543,-63963.504,-39716.473,-37356.812,-42539.88
968143.2937304463,-93437.09,-51383.3,-20993.938,-6363.3223,-63975.305,-39716.637,-37356.242,-42533.816
968143.2977304448,-93434.05,-51383.547,-20990.643,-6359.3345,-63975.02,-39715.332,-37353.92,-42535.074
968143.3017304434,-93429.32,-51385.54,-20986.492,-6353.719,-63972.58,-39711.47,-37350.79,-42534.344
968143.3057304419,-93433.88,-51388.875,-20985.88,-6353.8413,-63981.04,-39709.96,-37350.79,-42535.688
968143.3097304405,-93432.09,-51387.492,-20985.84,-6356.9336,-63985.76,-39710.367,-37350.14,-42536.38
968143.313730439,-93425.58,-51379.56,-20986.613,-6356.2827,-63984.254,-39708.254,-37345.215,-42532.43
968143.3177304376,-93426.19,-51379.19,-20987.102,-6355.957,-63985.07,-39705.16,-37339.56,-42527.59
968143.3217304362,-93426.72,-51381.594,-20986.775,-6355.0215,-63984.54,-39703.816,-37338.137,-42536.05
968143.3257304347,-93424.766,-51378.133,-20987.793,-6355.835,-63993.816,-39702.273,-37335.855,-42530.477
968143.3297304333,-93429.445,-51380.902,-20989.137,-6360.0264,-64011.926,-39702.72,-37334.39,-42527.06
968143.3337304319,-93427.78,-51381.062,-20988.525,-6360.311,-64013.51,-39703.33,-37334.066,-42528.117
968143.3377304303,-93425.336,-51377.85,-20988.484,-6357.1777,-64011.19,-39703.207,-37333.254,-42526.816
968143.3417304289,-93424.73,-51380.21,-20986.98,-6353.0684,-64000.57,-39702.23,-37333.54,-42530.76
968143.3457304274,-93421.8,-51380.086,-20984.945,-6353.8413,-64009.074,-39703.33,-37332.805,-42529.297
968143.349730426,-93423.34,-51379.68,-20985.475,-6356.7305,-64019.656,-39701.742,-37326.297,-42516.766
968143.3537304245,-93424.12,-51377.77,-20988.12,-6357.5034,-64023.6,-39700.81,-37322.47,-42513.145
968143.3577304231,-93424.52,-51378.46,-20988.484,-6356.2827,-64028.2,-39699.625,-37319.5,-42514.73
968143.3617304217,-93425.625,-51383.18,-20986.531,-6353.353,-64023.723,-39697.88,-37315.96,-42506.266
968143.3657304202,-93426.27,-51383.668,-20988.037,-6353.6787,-64029.582,-39699.75,-37319.05,-42508.75
968143.3697304188,-93426.88,-51382.324,-20991.375,-6360.067,-64044.76,-39700.156,-37321.37,-42516.684
968143.3737304173,-93430.016,-51382.57,-20992.31,-6363.729,-64046.633,-39699.87,-37320.23,-42517.375
968143.3777304159,-93430.664,-51381.918,-20991.049,-6362.7524,-64041.75,-39698.69,-37320.273,-42520.508
968143.3817304145,-93426.48,-51382.895,-20988.525,-6359.5786,-64028.89,-39697.633,-37321.94,-42518.027
968143.385730413,-93426.92,-51383.71,-20986.98,-6358.3174,-64032.797,-39697.836,-37324.098,-42519.41
968143.3897304116,-93427.9,-51384.44,-20985.434,-6359.416,-64036.297,-39700.113,-37327.84,-42524.54
968143.3937304101,-93424.6,-51386.56,-20986.451,-6359.538,-64033.043,-39701.457,-37330.812,-42531.375
968143.3977304087,-93427.33,-51391.195,-20988.934,-6358.1953,-64033.164,-39701.906,-37331.586,-42529.055
968143.4017304071,-93427.086,-51396.16,-20988.078,-6355.957,-64039.758,-39701.375,-37329.305,-42526.652
968143.4057304057,-93431.805,-51397.258,-20986.166,-6360.0264,-64047.12,-39702.516,-37327.84,-42530.64
968143.4097304043,-93433.76,-51394.613,-20986.207,-6363.5664,-64040.812,-39704.55,-37328.453,-42533.49
968143.4137304028,-93434.734,-51397.83,-20988.566,-6363.1187,-64046.715,-39706.098,-37327.965,-42525.92
968143.4177304014,-93436.52,-51399.375,-20990.072,-6357.3813,-64045.047,-39707.074,-37326.336,-42519.9
968143.4217304,-93436.65,-51398.277,-20988.404,-6352.8647,-64037.113,-39706.18,-37326.336,-42521.89
968143.4257303985,-93440.96,-51401.41,-20986.328,-6356.4453,-64043.54,-39706.3,-37328.53,-42526.938
968143.4297303971,-93437.79,-51397.22,-20988.404,-6361.654,-64053.875,-39705.484,-37324.91,-42516.36
968143.4337303956,-93437.99,-51398.48,-20991.455,-6363.6475,-64056.645,-39704.305,-37326.09,-42528.727
968143.4377303942,-93436.445,-51398.97,-20993.734,-6362.793,-64047.855,-39702.883,-37326.17,-42534.75
968143.4417303927,-93430.95,-51397.543,-20989.014,-6355.306,-64044.11,-39700.4,-37324.87,-42536.906
968143.4457303913,-93435.02,-51401.492,-20989.746,-6355.632,-64054.406,-39699.91,-37325.48,-42534.344
968143.4497303899,-93435.305,-51399.945,-20989.87,-6358.8057,-64060.1,-39701.215,-37323.082,-42526.492
968143.4537303884,-93433.11,-51399.008,-20988.729,-6360.1484,-64060.914,-39701.62,-37320.926,-42533.12
968143.457730387,-93436.32,-51401.855,-20991.74,-6361.125,-64058.72,-39702.598,-37321.574,-42532.43
968143.4617303855,-93436.81,-51404.297,-20994.629,-6356.1606,-64045.777,-39700.81,-37321.902,-42532.51
968143.465730384,-93437.99,-51406.535,-20996.014,-6356.9746,-64049.645,-39701.62,-37323.285,-42533.406
968143.4697303826,-93439.3,-51406.535,-20995.525,-6360.1074,-64057.254,-39701.418,-37324.668,-42529.176
968143.4737303811,-93439.375,-51403.28,-20994.996,-6361.45,-64058.637,-39700.113,-37322.023,-42530.477
968143.4777303797,-93438.73,-51401.41,-20993.002,-6358.8057,-64056.316,-39697.633,-37318.973,-42532.633
968143.4817303782,-93434.125,-51399.293,-20988.404,-6355.0215,-64045.168,-39695.68,-37316.938,-42533.406
968143.4857303768,-93428.39,-51393.027,-20985.596,-6355.2656,-64043.336,-39695.273,-37314.78,-42528.973
968143.4897303754,-93423.83,-51391.645,-20983.195,-6359.253,-64059.734,-39695.152,-37312.46,-42522.83
968143.4937303739,-93420.66,-51391.36,-20984.457,-6361.328,-64061.73,-39696.207,-37313.926,-42522.664
968143.4977303725,-93421.39,-51394.125,-20985.271,-6358.1953,-64052.25,-39696.37,-37315.39,-42521.242
968143.501730371,-93421.96,-51398.4,-20984.334,-6353.0273,-64040.367,-39696.902,-37318.484,-42520.914
968143.5057303696,-93424.85,-51397.83,-20982.219,-6352.6206,-64046.105,-39698.977,-37321.37,-42523.113
968143.5097303682,-93425.87,-51396.08,-20984.945,-6357.8696,-64049.562,-39700.4,-37320.438,-42514.895
968143.5137303667,-93425.625,-51397.137,-20984.701,-6357.463,-64049.035,-39700.562,-37320.72,-42517.375
968143.5177303653,-93427.94,-51398.074,-20983.033,-6355.4688,-64047.324,-39699.383,-37321.25,-42530.723
968143.5217303638,-93428.47,-51400.105,-20982.666,-6352.1323,-64045.98,-39696.695,-37318.727,-42525.066
968143.5257303624,-93429.53,-51400.35,-20985.148,-6353.6377,-64045.168,-39696.086,-37317.87,-42522.867
968143.5297303608,-93434.86,-51400.72,-20989.422,-6360.6772,-64054.242,-39697.348,-37319.99,-42527.547
968143.5337303594,-93428.63,-51396.2,-20986.857,-6357.91,-64047.445,-39696.82,-37320.11,-42527.06
968143.537730358,-93423.67,-51395.1,-20986.654,-6354.492,-64042.973,-39697.31,-37320.438,-42526.285
968143.5417303565,-93424.85,-51399.375,-20988.201,-6351.6035,-64036.785,-39696.695,-37319.95,-42525.594
968143.5457303551,-93430.016,-51402.547,-20987.469,-6355.754,-64037.52,-39696.414,-37322.184,-42526.695
968143.5497303536,-93436.445,-51404.95,-20991.863,-6361.7354,-64045.414,-39697.754,-37324.26,-42526.57
968143.5537303522,-93438.11,-51403.117,-20995.037,-6361.7354,-64044.23,-39698.406,-37325.277,-42530.113
968143.5577303508,-93437.26,-51401.695,-20994.264,-6357.666,-64036.258,-39698.367,-37323.445,-42522.016
968143.5617303493,-93435.1,-51399.293,-20991.252,-6354.5737,-64030.355,-39696.74,-37323.406,-42526.125
968143.5657303479,-93433.84,-51399.05,-20990.398,-6357.463,-64032.84,-39694.703,-37322.348,-42530.273
968143.5697303464,-93431.73,-51397.137,-20989.87,-6362.671,-64038.453,-39694.824,-37319.297,-42520.184
968143.573730345,-93430.664,-51394.004,-20994.264,-6362.956,-64036.703,-39697.47,-37321.004,-42518.473
968143.5777303436,-93428.8,-51394.94,-20991.578,-6359.2124,-64029.42,-39697.715,-37320.64,-42516.848
968143.5817303421,-93423.055,-51395.1,-20988.607,-6357.2188,-64029.625,-39695.72,-37318.484,-42515.42
968143.5857303407,-93417.445,-51393.72,-20989.299,-6357.707,-64034.223,-39693.484,-37318.44,-42520.223
968143.5897303392,-93418.74,-51391.523,-20991.09,-6360.555,-64036.746,-39692.465,-37320.395,-42527.426
968143.5937303377,-93424.32,-51392.58,-20991.902,-6362.3047,-64036.215,-39692.3,-37318.605,-42523.64
968143.5977303362,-93427.33,-51391.887,-20991.13,-6361.9385,-64031.496,-39691.61,-37317.63,-42521.04
968143.6017303348,-93425.625,-51391.113,-20988.281,-6357.9917,-64033.695,-39691.812,-37321.207,-42523.844
968143.6057303334,-93432.05,-51396.406,-20990.031,-6358.3174,-64038.86,-39693.848,-37326.54,-42531.7
968143.6097303319,-93436.04,-51396.812,-20992.596,-6362.956,-64044.152,-39694.906,-37327.555,-42536.258
968143.6137303305,-93435.23,-51395.633,-20991.375,-6362.712,-64040.69,-39693.24,-37324.18,-42527.305
968143.617730329,-93434.29,-51395.67,-20989.38,-6360.189,-64029.094,-39692.547,-37321.574,-42524.375
968143.6217303276,-93431.69,-51394.816,-20987.102,-6356.9746,-64020.55,-39691.203,-37317.547,-42518.15
968143.6257303262,-93431.07,-51394.168,-20985.76,-6357.3,-64017.99,-39689.78,-37314.332,-42510.094
968143.6297303247,-93434.0,-51391.97,-20989.137,-6363.159,-64026.53,-39691.0,-37315.145,-42504.926
968143.6337303233,-93435.51,-51392.703,-20993.693,-6365.438,-64028.363,-39691.0,-37314.7,-42503.133
968143.6377303218,-93433.88,-51394.29,-20994.426,-6366.4146,-64024.742,-39689.414,-37313.6,-42508.63
968143.6417303204,-93432.375,-51395.348,-20991.984,-6363.078,-64024.133,-39690.39,-37316.164,-42520.508
968143.645730319,-93433.15,-51398.562,-20991.7,-6362.427,-64031.945,-39694.176,-37320.844,-42523.723
968143.6497303175,-93432.58,-51396.242,-20993.328,-6366.455,-64038.37,-39698.285,-37324.79,-42525.758
968143.6537303161,-93432.5,-51394.004,-20994.793,-6365.2754,-64037.76,-39699.992,-37323.855,-42519.98
968143.6577303145,-93432.375,-51395.184,-20994.629,-6361.8164,-64031.82,-39698.855,-37323.527,-42525.555
968143.6617303131,-93429.65,-51395.633,-20992.473,-6360.2705,-64022.3,-39696.004,-37319.99,-42516.03
968143.6657303117,-93430.14,-51394.125,-20993.084,-6363.607,-64020.793,-39692.14,-37313.805,-42507.242
968143.6697303102,-93432.01,-51395.02,-20995.729,-6369.1406,-64030.316,-39691.203,-37311.117,-42512.41
968143.6737303088,-93431.07,-51397.83,-20996.95,-6370.158,-64030.113,-39688.76,-37309.45,-42519.98
968143.6777303073,-93428.555,-51397.746,-20996.297,-6365.3975,-64021.324,-39686.08,-37308.84,-42517.457
968143.6817303059,-93430.914,-51400.8,-20994.508,-6360.962,-64019.207,-39686.85,-37308.797,-42512.25
968143.6857303045,-93434.695,-51406.293,-20995.117,-6364.177,-64021.895,-39686.363,-37304.85,-42501.996
968143.689730303,-93446.82,-51418.133,-20996.785,-6372.2334,-64032.473,-39686.363,-37301.312,-42494.754
968143.6937303016,-93438.805,-51399.7,-20993.896,-6372.518,-64030.48,-39690.31,-37307.414,-42499.227
968143.6977303001,-93424.4,-51381.96,-20990.316,-6365.804,-64020.227,-39691.734,-37313.19,-42504.477
968143.7017302987,-93430.71,-51393.066,-20992.31,-6362.712,-64009.117,-39690.96,-37312.703,-42505.21
968143.7057302973,-93426.96,-51392.66,-20991.943,-6365.316,-64010.258,-39690.918,-37316.12,-42509.402
968143.7097302958,-93426.88,-51390.137,-20990.764,-6371.4194,-64023.074,-39691.53,-37317.547,-42507.855
968143.7137302944,-93424.195,-51387.41,-20990.357,-6371.216,-64022.668,-39690.918,-37315.348,-42505.82
968143.7177302929,-93420.29,-51386.027,-20990.479,-6368.164,-64013.797,-39688.152,-37311.93,-42503.297
968143.7217302914,-93427.37,-51388.918,-20991.984,-6367.7573,-64007.61,-39686.77,-37312.5,-42510.867
968143.7257302899,-93433.31,-51392.254,-20994.71,-6373.9424,-64014.73,-39687.543,-37312.46,-42513.51
968143.7297302885,-93438.68,-51391.074,-20993.246,-6381.714,-64029.094,-39689.414,-37314.293,-42511.76
968143.7337302871,-93439.78,-51389.242,-20992.107,-6378.296,-64024.293,-39690.023,-37314.78,-42510.254
968143.7377302856,-93437.87,-51393.758,-20992.188,-6373.698,-64018.8,-39690.88,-37315.023,-42517.863
968143.7417302842,-93437.055,-51396.363,-20991.496,-6369.914,-64011.477,-39690.594,-37315.31,-42517.863
968143.7457302827,-93437.55,-51394.086,-20988.445,-6369.4663,-64017.66,-39689.414,-37316.734,-42514.49
968143.7497302813,-93434.33,-51394.9,-20990.072,-6374.349,-64026.45,-39691.043,-37318.562,-42515.953
968143.7537302799,-93430.83,-51392.906,-20991.09,-6374.1455,-64021.203,-39690.918,-37316.324,-42512.453
968143.7577302784,-93432.78,-51389.57,-20992.879,-6372.8843,-64018.477,-39689.58,-37314.656,-42514.445
968143.761730277,-93434.2,-51388.715,-20993.816,-6371.135,-64012.656,-39687.297,-37312.418,-42515.625
968143.7657302755,-93427.45,-51385.215,-20990.193,-6369.914,-64015.504,-39688.355,-37311.727,-42518.555
968143.7697302741,-93432.58,-51386.68,-20991.09,-6374.3086,-64023.074,-39690.758,-37310.465,-42514.445
968143.7737302727,-93439.3,-51388.836,-20995.24,-6374.2676,-64015.953,-39692.14,-37313.805,-42517.78
968143.7777302712,-93438.32,-51390.625,-20995.076,-6371.257,-64005.82,-39691.734,-37317.71,-42519.207
968143.7817302698,-93435.836,-51390.547,-20992.96,-6368.8154,-64002.727,-39691.45,-37320.844,-42520.305
968143.7857302682,-93439.91,-51396.324,-20994.752,-6371.582,-64008.098,-39692.75,-37322.47,-42517.863
968143.7897302668,-93439.5,-51394.94,-20993.531,-6376.058,-64015.14,-39694.176,-37328.25,-42525.797
968143.7937302653,-93437.55,-51389.85,-20994.14,-6378.1333,-64008.18,-39698.406,-37334.23,-42536.664
968143.7977302639,-93437.99,-51388.105,-20992.92,-6374.8374,-64007.33,-39700.32,-37331.992,-42532.715
968143.8017302625,-93440.836,-51389.16,-20991.414,-6370.7275,-64007.45,-39696.82,-37329.754,-42524.21
968143.805730261,-93438.97,-51387.41,-20991.658,-6372.5586,-64010.418,-39696.453,-37330.527,-42526.164
968143.8097302596,-93440.92,-51388.55,-20995.361,-6378.662,-64022.668,-39698.445,-37328.043,-42523.64
968143.8137302581,-93443.65,-51392.09,-20997.152,-6380.615,-64024.742,-39698.324,-37325.277,-42518.758
968143.8177302567,-93444.055,-51396.242,-20999.594,-6377.3604,-64014.242,-39697.67,-37326.945,-42525.473
968143.8217302553,-93444.586,-51396.242,-20998.902,-6375.0,-64003.38,-39696.82,-37328.574,-42523.844
968143.8257302538,-93443.04,-51393.516,-20996.623,-6376.709,-64002.32,-39695.477,-37329.145,-42521.566
968143.8297302524,-93441.53,-51394.41,-20994.914,-6380.046,-64011.07,-39695.477,-37328.29,-42530.355
968143.833730251,-93440.76,-51390.504,-20995.361,-6379.802,-64009.77,-39694.54,-37326.99,-42527.47
968143.8377302495,-93439.086,-51392.293,-20993.816,-6379.4355,-64001.02,-39693.688,-37324.06,-42520.305
968143.8417302481,-93438.84,-51393.312,-20991.822,-6376.4243,-63995.242,-39693.605,-37324.504,-42522.867
968143.8457302466,-93436.85,-51388.145,-20990.438,-6378.052,-63997.277,-39695.395,-37323.977,-42516.97
968143.8497302451,-93439.66,-51387.41,-20995.158,-6382.65,-64006.918,-39697.227,-37321.29,-42507.49
968143.8537302436,-93442.14,-51384.36,-20998.658,-6381.592,-64003.785,-39696.535,-37322.145,-42512.695
968143.8577302422,-93439.13,-51378.867,-21000.164,-6378.1333,-63989.543,-39695.07,-37320.883,-42520.996
968143.8617302408,-93434.0,-51376.793,-20996.99,-6373.291,-63981.12,-39693.074,-37319.703,-42514.324
968143.8657302393,-93429.164,-51372.152,-20992.514,-6374.756,-63986.168,-39693.24,-37319.05,-42512.574
968143.8697302379,-93424.16,-51368.695,-20990.887,-6378.093,-63993.207,-39692.344,-37313.64,-42509.766
968143.8737302364,-93422.61,-51368.043,-20988.525,-6379.476,-63995.812,-39693.156,-37313.64,-42504.11
968143.877730235,-93424.805,-51371.504,-20987.916,-6377.5635,-63988.934,-39695.516,-37319.094,-42504.355
968143.8817302336,-93425.83,-51373.047,-20987.875,-6374.5933,-63986.047,-39696.777,-37326.09,-42517.496
968143.8857302321,-93427.21,-51377.32,-20986.98,-6377.1973,-63994.387,-39697.266,-37327.19,-42518.27
968143.8897302307,-93425.5,-51373.984,-20984.863,-6377.8486,-63993.45,-39696.574,-37324.75,-42509.93
968143.8937302292,-93424.32,-51369.793,-20987.102,-6377.7266,-63989.625,-39695.68,-37322.062,-42508.18
968143.8977302278,-93420.82,-51365.438,-20992.107,-6376.2207,-63980.47,-39693.645,-37321.453,-42514.285
968143.9017302264,-93417.484,-51361.043,-20990.643,-6373.861,-63978.234,-39690.31,-37317.79,-42512.613
968143.9057302249,-93415.0,-51358.32,-20990.031,-6376.831,-63983.562,-39690.023,-37314.09,-42505.74
968143.9097302235,-93418.22,-51360.11,-20990.56,-6381.1035,-63984.66,-39690.836,-37312.664,-42506.188
968143.9137302219,-93417.12,-51359.863,-20988.729,-6380.9004,-63983.117,-39691.043,-37313.477,-42509.848
968143.9177302205,-93417.24,-51356.285,-20986.695,-6377.523,-63978.312,-39692.3,-37315.348,-42506.51
968143.921730219,-93418.336,-51357.18,-20982.342,-6374.0234,-63971.234,-39691.855,-37319.254,-42510.824
968143.9257302176,-93424.766,-51361.656,-20984.05,-6378.6216,-63979.37,-39690.715,-37322.918,-42516.766
968143.9297302162,-93430.95,-51361.492,-20989.34,-6384.359,-63988.363,-39691.203,-37325.32,-42520.59
968143.9337302147,-93427.984,-51361.453,-20992.107,-6382.406,-63982.586,-39692.26,-37326.336,-42514.08
968143.9377302133,-93424.89,-51359.254,-20992.473,-6376.709,-63977.703,-39692.344,-37326.297,-42519.574
968143.9417302118,-93422.33,-51360.883,-20989.828,-6373.739,-63961.223,-39691.895,-37326.418,-42525.027
968143.9457302104,-93420.375,-51363.77,-20989.137,-6375.8545,-63958.09,-39692.465,-37322.348,-42512.86
968143.949730209,-93418.375,-51364.625,-20988.81,-6380.7373,-63971.64,-39694.582,-37320.07,-42507.0
968143.9537302075,-93422.0,-51362.387,-20989.014,-6382.1616,-63970.785,-39697.023,-37322.836,-42516.766
968143.9577302061,-93423.42,-51362.793,-20989.91,-6381.877,-63965.54,-39695.72,-37323.242,-42514.203
968143.9617302046,-93421.72,-51363.203,-20989.422,-6379.9644,-63957.887,-39692.465,-37323.61,-42511.72
968143.9657302032,-93421.92,-51361.98,-20991.74,-6382.08,-63955.85,-39691.855,-37325.156,-42520.062
968143.9697302018,-93421.305,-51358.97,-20994.426,-6385.742,-63956.26,-39691.164,-37322.023,-42515.383
968143.9737302003,-93417.81,-51353.76,-20992.758,-6386.1494,-63952.355,-39690.918,-37316.938,-42505.414
968143.9777301988,-93413.29,-51351.074,-20990.56,-6381.4697,-63950.277,-39692.75,-37317.75,-42500.895
968143.9817301973,-93413.086,-51350.3,-20985.393,-6378.4995,-63940.715,-39694.5,-37318.36,-42496.5
968143.9857301959,-93407.63,-51348.27,-20983.684,-6379.4355,-63941.53,-39694.46,-37317.75,-42492.27
968143.9897301944,-93409.836,-51346.113,-20990.438,-6384.969,-63949.547,-39693.973,-37319.5,-42493.695
968143.993730193,-93415.53,-51348.473,-20992.799,-6388.916,-63963.3,-39694.094,-37320.844,-42500.164
968143.9977301916,-93417.766,-51347.453,-20993.855,-6385.051,-63961.223,-39694.176,-37321.86,-42503.824
968144.0017301901,-93417.445,-51344.566,-20993.611,-6380.6562,-63951.254,-39693.277,-37320.438,-42499.84
968144.0057301887,-93414.02,-51341.473,-20990.154,-6380.9004,-63953.82,-39691.406,-37319.62,-42499.555
968144.0097301872,-93407.92,-51339.277,-20987.834,-6385.376,-63956.26,-39691.938,-37319.418,-42502.848
968144.0137301858,-93402.06,-51335.492,-20985.88,-6382.772,-63945.883,-39691.53,-37317.996,-42507.164
968144.0177301844,-93403.0,-51337.445,-20985.596,-6379.7607,-63954.145,-39690.836,-37318.156,-42509.727
968144.0217301829,-93406.414,-51343.832,-20987.143,-6380.697,-63958.824,-39692.06,-37322.88,-42513.59
968144.0257301815,-93409.51,-51346.805,-20988.973,-6383.911,-63964.195,-39692.098,-37323.977,-42505.984
968144.02973018,-93413.375,-51348.918,-20992.676,-6389.16,-63971.965,-39693.766,-37326.215,-42501.26
968144.0337301786,-93414.72,-51349.734,-20994.508,-6390.5845,-63974.45,-39694.664,-37328.53,-42509.645
968144.0377301772,-93412.64,-51349.164,-20993.45,-6387.248,-63977.906,-39693.484,-37325.195,-42513.47
968144.0417301756,-93409.836,-51350.668,-20989.787,-6383.138,-63981.61,-39690.633,-37322.023,-42507.527
968144.0457301742,-93410.73,-51351.848,-20989.014,-6386.0273,-63989.3,-39689.37,-37320.027,-42501.87
968144.0497301727,-93415.0,-51354.004,-20990.643,-6389.323,-64000.734,-39689.94,-37317.996,-42500.0
968144.0537301713,-93414.35,-51354.82,-20992.514,-6388.387,-64007.652,-39689.496,-37318.36,-42505.82
968144.0577301699,-93416.625,-51358.074,-20997.193,-6387.899,-64009.24,-39690.227,-37320.64,-42518.758
968144.0617301684,-93414.836,-51356.855,-20994.914,-6385.0913,-63993.492,-39688.52,-37321.74,-42522.79
968144.065730167,-93412.27,-51356.367,-20991.62,-6383.9927,-63996.625,-39688.395,-37319.742,-42517.336
968144.0697301655,-93411.336,-51353.8,-20991.17,-6386.8003,-64001.14,-39688.805,-37318.605,-42512.535
968144.0737301641,-93406.74,-51348.43,-20993.531,-6387.004,-64006.227,-39690.51,-37321.98,-42515.87
968144.0777301627,-93409.875,-51355.184,-20995.402,-6387.2886,-64011.11,-39691.812,-37321.82,-42510.906
968144.0817301612,-93413.17,-51361.043,-20992.96,-6383.667,-64004.56,-39689.047,-37320.395,-42510.297
968144.0857301598,-93414.516,-51361.74,-20992.229,-6384.3184,-64005.78,-39686.727,-37320.8,-42516.36
968144.0897301583,-93420.05,-51365.156,-20996.99,-6390.259,-64025.516,-39687.664,-37321.25,-42513.31
968144.0937301569,-93422.65,-51369.426,-20997.152,-6391.0728,-64028.484,-39686.32,-37319.418,-42514.69
968144.0977301555,-93417.32,-51367.35,-20995.688,-6390.3403,-64016.605,-39682.984,-37313.52,-42513.1
968144.101730154,-93414.266,-51365.156,-20994.955,-6388.9976,-64010.785,-39680.258,-37306.887,-42497.355
968144.1057301525,-93415.41,-51363.566,-20992.514,-6391.3574,-64016.156,-39678.996,-37304.89,-42496.785
968144.109730151,-93420.33,-51361.9,-20995.688,-6396.159,-64024.05,-39680.504,-37303.67,-42499.594
968144.1137301496,-93423.55,-51365.645,-20998.291,-6397.705,-64037.113,-39682.293,-37303.02,-42497.805
968144.1177301481,-93423.26,-51369.266,-20996.541,-6394.8164,-64033.082,-39686.727,-37308.066,-42507.285
968144.1217301467,-93418.74,-51366.66,-20993.002,-6387.6953,-64014.773,-39687.867,-37309.41,-42509.645
968144.1257301453,-93417.12,-51364.992,-20991.09,-6386.1494,-64013.39,-39686.65,-37306.766,-42505.453
968144.1297301438,-93417.24,-51363.61,-20993.084,-6390.1367,-64017.375,-39685.59,-37304.65,-42502.688
968144.1337301424,-93417.32,-51361.125,-20993.938,-6392.375,-64013.676,-39683.51,-37303.754,-42499.84
968144.1377301409,-93420.375,-51363.527,-20995.24,-6390.91,-64008.586,-39684.246,-37304.04,-42498.008
968144.1417301395,-93423.14,-51369.47,-20997.926,-6391.561,-64008.465,-39686.973,-37309.773,-42512.777
968144.145730138,-93426.15,-51372.03,-20999.39,-6390.869,-64012.29,-39690.188,-37312.906,-42516.03
968144.1497301366,-93427.01,-51372.64,-21001.832,-6393.677,-64019.453,-39690.555,-37313.152,-42512.37
968144.1537301352,-93429.85,-51374.31,-21004.72,-6394.2466,-64021.04,-39690.836,-37314.617,-42519.613
968144.1577301337,-93428.23,-51373.74,-21007.162,-6391.032,-64020.47,-39688.883,-37311.688,-42512.41
968144.1617301323,-93426.84,-51372.97,-21002.93,-6388.55,-64015.79,-39684.082,-37308.023,-42511.395
968144.1657301309,-93431.6,-51373.09,-21002.768,-6391.3574,-64020.51,-39681.844,-37307.58,-42508.63
968144.1697301293,-93431.52,-51370.402,-21002.28,-6394.3687,-64022.707,-39681.277,-37310.67,-42505.82
968144.1737301279,-93430.87,-51374.105,-21004.07,-6394.4907,-64024.133,-39684.9,-37320.152,-42527.184
968144.1777301264,-93435.59,-51382.246,-21008.992,-6393.799,-64022.586,-39688.965,-37326.54,-42534.953
968144.181730125,-93428.34,-51379.273,-21005.535,-6386.76,-64010.99,-39689.496,-37326.906,-42529.664
968144.1857301235,-93427.164,-51378.5,-21002.768,-6388.1836,-64011.395,-39690.88,-37327.72,-42529.664
968144.1897301221,-93431.07,-51381.39,-21004.436,-6392.6597,-64019.574,-39691.938,-37329.305,-42530.6
968144.1937301207,-93432.336,-51381.105,-21005.412,-6393.5547,-64017.5,-39690.348,-37325.48,-42522.504
968144.1977301192,-93435.305,-51379.68,-21004.518,-6393.0664,-64016.93,-39688.52,-37323.242,-42524.13
968144.2017301178,-93433.72,-51378.094,-21001.18,-6388.55,-64005.25,-39683.51,-37319.582,-42519.9
968144.2057301163,-93429.37,-51376.465,-20995.037,-6389.6484,-64004.76,-39682.414,-37317.668,-42517.742
968144.2097301149,-93430.055,-51376.14,-20996.135,-6393.1885,-64012.21,-39683.23,-37315.31,-42519.043
968144.2137301135,-93429.2,-51377.363,-20999.553,-6391.683,-64008.098,-39684.082,-37313.6,-42527.547
968144.217730112,-93429.94,-51378.746,-21003.377,-6391.3574,-64006.797,-39684.734,-37311.363,-42523.152
968144.2217301106,-93432.01,-51381.676,-21002.361,-6388.3057,-63997.52,-39684.57,-37310.26,-42516.24
968144.2257301091,-93435.59,-51385.133,-21001.75,-6391.4795,-64001.71,-39682.863,-37309.246,-42518.27
968144.2297301077,-93437.99,-51387.94,-21005.006,-6396.7285,-64016.36,-39682.78,-37308.434,-42520.836
968144.2337301061,-93441.04,-51390.06,-21007.244,-6398.2344,-64020.836,-39682.7,-37306.844,-42519.41
968144.2377301047,-93438.07,-51388.67,-21009.562,-6397.99,-64012.004,-39683.797,-37308.92,-42530.273
968144.2417301033,-93437.016,-51391.156,-21009.318,-6396.8506,-64007.734,-39683.105,-37309.45,-42523.97
968144.2457301018,-93436.98,-51392.01,-21005.86,-6396.81,-64010.785,-39681.48,-37310.465,-42529.258
968144.2497301004,-93437.055,-51389.527,-21005.127,-6398.8037,-64016.156,-39681.113,-37311.28,-42532.797
968144.253730099,-93439.086,-51391.4,-21008.586,-6400.3096,-64011.68,-39680.543,-37308.758,-42519.45
968144.2577300975,-93440.8,-51393.27,-21008.953,-6397.2983,-64002.973,-39681.64,-37307.742,-42521.445
968144.2617300961,-93436.77,-51392.824,-21009.197,-6394.287,-64000.695,-39681.07,-37310.305,-42527.426
968144.2657300946,-93438.16,-51395.387,-21012.045,-6396.322,-64008.02,-39681.07,-37310.1,-42528.402
968144.2697300932,-93441.25,-51395.508,-21014.445,-6402.059,-64017.5,-39683.105,-37311.484,-42535.24
968144.2737300918,-93440.555,-51395.387,-21014.975,-6403.7275,-64017.785,-39684.695,-37311.85,-42534.18
968144.2777300903,-93437.13,-51393.8,-21012.492,-6400.676,-64012.13,-39685.184,-37312.297,-42527.63
968144.2817300889,-93435.23,-51392.05,-21009.969,-6396.322,-64007.12,-39684.734,-37309.246,-42521.28
968144.2857300874,-93436.65,-51392.5,-21009.969,-6398.0713,-64008.14,-39683.105,-37306.97,-42515.707
968144.289730086,-93435.75,-51392.5,-21011.963,-6402.5474,-64010.99,-39684.0,-37310.75,-42518.555
968144.2937300846,-93433.72,-51391.645,-21010.865,-6402.2217,-64015.465,-39683.84,-37309.652,-42521.28
968144.297730083,-93437.46,-51396.04,-21014.12,-6400.1875,-64012.37,-39682.78,-37307.535,-42519.98
968144.3017300816,-93438.52,-51398.926,-21012.207,-6397.054,-64007.043,-39680.79,-37309.0,-42529.746
968144.3057300801,-93437.13,-51396.04,-21011.11,-6396.932,-64002.32,-39680.176,-37309.57,-42526.53
968144.3097300787,-93437.055,-51390.75,-21012.41,-6400.879,-64004.56,-39682.457,-37310.63,-42525.72
968144.3137300772,-93439.58,-51392.5,-21011.312,-6401.5303,-64009.89,-39682.66,-37311.93,-42529.258
968144.3177300758,-93439.78,-51394.33,-21014.08,-6399.0073,-64008.668,-39683.92,-37310.184,-42526.695
968144.3217300744,-93436.98,-51392.336,-21011.598,-6395.3857,-64000.0,-39681.926,-37309.33,-42526.125
968144.3257300729,-93438.48,-51390.83,-21011.395,-6397.827,-64002.85,-39682.535,-37311.28,-42523.277
968144.3297300715,-93441.2,-51391.113,-21015.584,-6403.28,-64014.57,-39684.9,-37314.293,-42526.207
968144.33373007,-93438.766,-51387.492,-21013.672,-6401.8555,-64008.098,-39685.14,-37312.746,-42519.29
968144.3377300686,-93434.62,-51384.156,-21011.354,-6395.996,-64015.3,-39684.082,-37308.066,-42507.773
968144.3417300672,-93432.7,-51380.008,-21008.668,-6391.683,-64000.41,-39682.008,-37307.496,-42512.086
968144.3457300657,-93434.086,-51380.617,-21006.592,-6396.1997,-64000.043,-39680.582,-37307.414,-42511.434
968144.3497300643,-93430.26,-51378.176,-21006.756,-6399.211,-64006.27,-39680.055,-37305.664,-42522.22
968144.3537300628,-93429.164,-51373.74,-21007.244,-6399.089,-64015.22,-39681.48,-37306.195,-42521.12
968144.3577300614,-93435.43,-51376.387,-21009.277,-6395.1826,-64006.797,-39682.047,-37309.49,-42519.816
968144.3617300598,-93439.45,-51382.12,-21009.889,-6391.968,-63995.04,-39681.844,-37311.117,-42522.543
968144.3657300584,-93434.86,-51380.047,-21010.498,-6394.206,-63990.234,-39682.047,-37310.832,-42524.457
968144.369730057,-93432.87,-51375.246,-21011.678,-6399.699,-63991.62,-39682.902,-37310.184,-42516.36
968144.3737300555,-93429.28,-51371.504,-21009.645,-6398.275,-63996.867,-39683.188,-37309.652,-42508.383
968144.3777300541,-93430.664,-51371.785,-21008.871,-6395.63,-63994.426,-39684.0,-37312.297,-42510.094
968144.3817300526,-93431.234,-51374.555,-21008.057,-6391.968,-63985.273,-39683.188,-37315.715,-42514.12
968144.3857300512,-93428.02,-51375.977,-21006.55,-6392.456,-63986.004,-39683.51,-37316.164,-42515.34
968144.3897300498,-93427.984,-51375.246,-21007.447,-6398.153,-64001.547,-39684.0,-37317.668,-42518.27
968144.3937300483,-93433.64,-51378.543,-21010.865,-6402.873,-64004.926,-39684.938,-37317.953,-42517.945
968144.3977300469,-93434.86,-51380.902,-21013.387,-6402.954,-64001.344,-39685.71,-37321.656,-42532.797
968144.4017300454,-93434.2,-51379.844,-21013.021,-6399.089,-63995.688,-39683.594,-37319.254,-42532.676
968144.405730044,-93431.16,-51375.9,-21010.498,-6398.397,-63999.92,-39681.844,-37313.68,-42519.004
968144.4097300426,-93434.125,-51374.51,-21009.48,-6402.4253,-64005.902,-39683.27,-37310.832,-42512.29
968144.4137300411,-93439.78,-51375.33,-21010.133,-6403.3613,-64003.664,-39683.88,-37310.71,-42512.695
968144.4177300397,-93437.055,-51375.977,-21010.377,-6402.1406,-63997.64,-39685.465,-37314.414,-42524.902
968144.4217300382,-93436.37,-51376.426,-21006.023,-6396.3623,-63992.473,-39687.094,-37318.2,-42530.316
968144.4257300367,-93435.02,-51375.57,-21008.383,-6397.583,-63997.277,-39688.723,-37321.25,-42529.703
968144.4297300352,-93434.414,-51374.31,-21014.486,-6402.5474,-63999.105,-39689.25,-37321.453,-42528.77
968144.4337300338,-93434.164,-51370.77,-21017.537,-6404.704,-64003.867,-39686.44,-37317.586,-42519.613
968144.4377300324,-93433.11,-51367.066,-21017.578,-6403.5645,-64008.426,-39684.33,-37317.383,-42525.15
968144.4417300309,-93436.73,-51369.02,-21018.678,-6403.3203,-63996.625,-39682.66,-37318.688,-42529.137
968144.4457300295,-93434.9,-51368.086,-21014.445,-6404.5005,-63992.35,-39681.887,-37316.938,-42528.117
968144.449730028,-93434.2,-51369.223,-21011.719,-6409.587,-64004.477,-39682.047,-37315.348,-42526.734
968144.4537300266,-93433.92,-51369.875,-21012.451,-6409.1797,-64006.188,-39682.66,-37315.023,-42522.055
968144.4577300252,-93432.3,-51372.07,-21011.842,-6403.9307,-63994.426,-39682.375,-37315.105,-42517.742
968144.4617300237,-93432.46,-51374.555,-21008.627,-6400.635,-63993.164,-39681.07,-37316.12,-42525.027
968144.4657300223,-93437.42,-51379.395,-21010.254,-6402.507,-64000.207,-39682.58,-37320.23,-42528.523
968144.4697300208,-93440.92,-51377.08,-21013.348,-6407.0234,-64007.652,-39685.14,-37324.91,-42537.76
968144.4737300194,-93440.31,-51370.89,-21013.104,-6407.5522,-64002.85,-39684.652,-37324.668,-42535.562
968144.477730018,-93439.78,-51369.875,-21011.434,-6406.3315,-63993.41,-39683.27,-37321.047,-42527.67
968144.4817300165,-93438.64,-51372.56,-21009.807,-6404.1343,-63986.656,-39683.473,-37321.902,-42525.88
968144.485730015,-93436.32,-51374.27,-21007.527,-6405.1924,-63991.54,-39684.33,-37322.55,-42523.97
968144.4897300135,-93431.93,-51370.28,-21006.104,-6407.1045,-64001.793,-39687.094,-37326.824,-42527.508
968144.4937300121,-93430.625,-51368.574,-21004.11,-6406.942,-64001.02,-39687.137,-37326.703,-42525.27
968144.4977300107,-93430.38,-51367.027,-21003.988,-6405.1924,-63997.234,-39686.973,-37322.145,-42519.207
968144.5017300092,-93427.9,-51366.375,-21003.785,-6401.286,-63989.953,-39684.734,-37319.5,-42514.0
968144.5057300078,-93433.72,-51372.438,-21006.348,-6405.3955,-63996.016,-39683.31,-37322.43,-42525.797
968144.5097300063,-93439.58,-51371.83,-21009.521,-6409.3833,-64005.332,-39682.457,-37320.355,-42519.33
968144.5137300049,-93438.07,-51367.27,-21008.342,-6409.465,-64003.703,-39682.047,-37316.53,-42515.79
968144.5177300035,-93436.57,-51369.47,-21006.55,-6408.6914,-64008.87,-39681.887,-37314.535,-42512.086
968144.521730002,-93438.6,-51376.71,-21004.924,-6407.5522,-64003.95,-39680.016,-37314.21,-42510.5
968144.5257300006,-93436.16,-51373.457,-21002.564,-6407.837,-63995.445,-39679.65,-37311.32,-42508.426
968144.5297299991,-93438.73,-51372.152,-21007.121,-6412.842,-64005.82,-39680.42,-37312.258,-42508.098
968144.5337299977,-93439.78,-51372.273,-21008.465,-6412.6387,-64005.535,-39680.625,-37314.617,-42518.68
968144.5377299963,-93437.55,-51367.473,-21009.521,-6408.773,-63996.867,-39680.992,-37315.43,-42521.242
968144.5417299948,-93436.69,-51366.457,-21006.756,-6405.6807,-63995.484,-39680.46,-37317.18,-42522.3
968144.5457299934,-93438.195,-51366.05,-21005.209,-6406.82,-63998.535,-39679.688,-37316.367,-42518.15
968144.5497299918,-93439.66,-51363.69,-21005.006,-6410.238,-64003.137,-39680.664,-37314.293,-42511.11
968144.5537299904,-93441.66,-51363.406,-21005.818,-6411.9062,-64001.305,-39682.535,-37316.773,-42518.19
968144.5577299889,-93441.0,-51363.61,-21004.924,-6411.0923,-63996.95,-39682.13,-37317.75,-42517.58
968144.5617299875,-93445.48,-51368.695,-21009.4,-6409.7495,-64000.082,-39683.188,-37319.133,-42511.965
968144.5657299861,-93448.445,-51370.484,-21012.004,-6411.865,-64002.688,-39685.832,-37321.86,-42512.86
968144.5697299846,-93445.805,-51365.926,-21008.79,-6413.5337,-64006.797,-39687.543,-37323.855,-42522.258
968144.5737299832,-93445.03,-51365.6,-21006.023,-6412.1094,-64003.01,-39687.258,-37321.047,-42521.28
968144.5777299817,-93444.055,-51365.113,-21005.86,-6413.005,-63999.188,-39685.344,-37320.926,-42523.887
968144.5817299803,-93443.97,-51367.027,-21005.738,-6409.465,-63993.816,-39683.84,-37321.004,-42517.863
968144.5857299789,-93451.3,-51372.926,-21005.574,-6412.9233,-64000.938,-39684.207,-37321.332,-42513.59
968144.5897299774,-93451.74,-51371.91,-21008.586,-6416.301,-64006.715,-39684.285,-37321.574,-42517.09
968144.593729976,-93448.04,-51369.223,-21009.686,-6415.731,-64005.984,-39685.223,-37320.395,-42517.17
968144.5977299745,-93444.79,-51368.695,-21007.771,-6411.662,-63998.535,-39685.75,-37320.516,-42515.18
968144.6017299731,-93439.01,-51366.05,-21005.291,-6406.9824,-63986.125,-39684.45,-37322.145,-42518.15
968144.6057299717,-93436.73,-51361.777,-21002.076,-6408.5693,-63984.742,-39683.023,-37322.062,-42518.8
968144.6097299702,-93436.04,-51358.32,-21001.873,-6414.551,-63992.066,-39682.17,-37322.227,-42511.434
968144.6137299687,-93437.42,-51359.906,-21004.477,-6417.0737,-63993.043,-39683.23,-37325.887,-42508.75
968144.6177299672,-93437.34,-51358.727,-21006.104,-6416.504,-63990.4,-39684.53,-37329.062,-42509.195
968144.6217299658,-93438.48,-51359.824,-21005.86,-6413.33,-63986.33,-39684.734,-37329.47,-42514.61
968144.6257299643,-93440.23,-51362.02,-21006.023,-6415.283,-63990.074,-39685.67,-37327.516,-42512.492
968144.6297299629,-93440.96,-51360.477,-21005.738,-6419.0674,-63998.21,-39687.38,-37326.133,-42504.8
968144.6337299615,-93444.5,-51363.363,-21006.307,-6420.2476,-63999.51,-39688.883,-37326.62,-42506.266
968144.63772996,-93449.914,-51367.516,-21010.254,-6421.997,-64003.176,-39689.13,-37329.184,-42518.27
968144.6417299586,-93447.92,-51368.29,-21011.312,-6418.0503,-63999.88,-39688.113,-37332.113,-42521.04
968144.6457299571,-93445.48,-51362.754,-21012.004,-6418.2944,-64000.207,-39687.582,-37329.184,-42512.656
968144.6497299557,-93442.14,-51358.32,-21010.457,-6420.451,-64004.926,-39687.582,-37327.11,-42514.0
968144.6537299543,-93444.91,-51359.703,-21009.766,-6421.0205,-64008.098,-39686.81,-37323.855,-42507.49
968144.6577299528,-93441.086,-51359.54,-21009.604,-6416.992,-64010.582,-39685.547,-37324.465,-42510.66
968144.6617299514,-93435.8,-51358.81,-21007.447,-6411.621,-64012.98,-39684.773,-37327.68,-42520.02
968144.66572995,-93437.95,-51359.742,-21006.959,-6412.8013,-64018.965,-39684.45,-37328.86,-42517.457
968144.6697299485,-93438.97,-51356.977,-21006.55,-6416.0566,-64023.562,-39684.41,-37327.477,-42509.89
968144.6737299471,-93440.836,-51356.73,-21006.47,-6418.335,-64027.59,-39684.613,-37323.69,-42495.85
968144.6777299455,-93440.8,-51359.09,-21006.43,-6416.4634,-64027.062,-39683.27,-37320.8,-42499.473
968144.6817299441,-93437.5,-51358.44,-21006.145,-6416.748,-64015.707,-39681.684,-37320.844,-42510.824
968144.6857299426,-93437.34,-51360.15,-21006.104,-6418.2944,-64017.336,-39680.137,-37320.72,-42515.625
968144.6897299412,-93437.87,-51357.3,-21007.568,-6418.905,-64029.79,-39682.09,-37321.656,-42508.79
968144.6937299398,-93440.59,-51358.684,-21009.889,-6416.87,-64029.707,-39684.285,-37325.156,-42513.387
968144.6977299383,-93458.54,-51378.094,-21014.404,-6416.1787,-64034.996,-39683.105,-37322.266,-42509.523
968144.7017299369,-93467.82,-51391.727,-21012.86,-6417.806,-64034.914,-39681.766,-37319.906,-42504.56
968144.7057299354,-93440.96,-51365.645,-21004.11,-6417.318,-64030.926,-39684.938,-37321.25,-42509.93
968144.709729934,-93435.836,-51361.043,-21004.598,-6420.3696,-64042.44,-39685.71,-37319.582,-42513.875
968144.7137299326,-93445.07,-51369.914,-21007.771,-6421.346,-64050.824,-39685.26,-37317.547,-42514.69
968144.7177299311,-93436.65,-51358.4,-21008.748,-6418.5386,-64039.473,-39683.72,-37316.977,-42508.18
968144.7217299297,-93436.16,-51360.35,-21007.447,-6415.975,-64026.777,-39683.31,-37320.152,-42512.25
968144.7257299282,-93436.81,-51365.156,-21004.965,-6416.911,-64029.22,-39684.695,-37321.207,-42510.457
968144.7297299268,-93438.766,-51365.805,-21003.053,-6420.1255,-64039.676,-39686.727,-37323.812,-42516.848
968144.7337299254,-93440.23,-51365.723,-21003.582,-6420.858,-64038.58,-39685.305,-37322.348,-42520.305
968144.7377299239,-93437.586,-51363.363,-21003.377,-6416.382,-64041.63,-39683.72,-37319.664,-42517.58
968144.7417299224,-93439.7,-51368.367,-21005.006,-6414.4287,-64038.656,-39683.39,-37322.105,-42517.984
968144.7457299209,-93446.414,-51371.016,-21007.244,-6415.6904,-64041.098,-39684.773,-37323.04,-42511.76
968144.7497299195,-93446.29,-51369.266,-21008.383,-6420.451,-64046.31,-39685.996,-37324.344,-42510.5
968144.753729918,-93445.68,-51368.695,-21011.395,-6424.0317,-64052.125,-39689.37,-37323.16,-42507.977
968144.7577299166,-93446.49,-51368.45,-21012.248,-6421.794,-64058.15,-39690.676,-37324.547,-42516.113
968144.7617299152,-93447.63,-51371.055,-21010.58,-6417.1143,-64051.15,-39691.12,-37327.84,-42522.137
968144.7657299137,-93448.086,-51372.48,-21007.936,-6415.8936,-64048.953,-39692.223,-37328.207,-42516.316
968144.7697299123,-93446.17,-51372.887,-21007.691,-6418.335,-64048.504,-39692.79,-37325.523,-42510.215
968144.7737299108,-93442.836,-51373.82,-21004.924,-6417.196,-64046.633,-39691.324,-37324.06,-42517.17
968144.7777299094,-93444.91,-51375.734,-21006.104,-6416.4634,-64040.69,-39689.13,-37319.38,-42511.965
968144.781729908,-93443.81,-51376.02,-21007.447,-6415.3647,-64034.508,-39688.477,-37317.547,-42504.598
968144.7857299065,-93447.47,-51376.793,-21006.023,-6417.928,-64039.145,-39690.797,-37321.574,-42516.93
968144.7897299051,-93451.22,-51377.85,-21009.521,-6420.6953,-64053.184,-39693.156,-37324.707,-42519.086
968144.7937299036,-93452.4,-51382.49,-21013.592,-6419.6777,-64058.23,-39694.05,-37324.87,-42514.61
968144.7977299022,-93454.59,-51383.63,-21015.057,-6418.335,-64052.25,-39693.848,-37325.32,-42517.133
968144.8017299008,-93451.09,-51383.75,-21013.957,-6416.219,-64043.703,-39691.285,-37326.99,-42514.49
968144.8057298992,-93455.2,-51388.715,-21015.79,-6418.701,-64050.5,-39691.895,-37327.477,-42505.86
968144.8097298978,-93456.51,-51386.027,-21015.992,-6422.2007,-64054.445,-39694.5,-37331.42,-42519.168
968144.8137298963,-93451.22,-51386.8,-21014.283,-6421.9565,-64053.55,-39694.664,-37330.484,-42523.074
968144.8177298949,-93453.25,-51390.625,-21013.957,-6422.282,-64049.93,-39693.766,-37326.945,-42514.0
968144.8217298934,-93449.55,-51389.285,-21011.842,-6418.905,-64043.95,-39695.07,-37329.387,-42521.85
968144.825729892,-93446.086,-51386.883,-21009.766,-6420.288,-64041.223,-39695.72,-37329.062,-42516.316
968144.8297298906,-93448.77,-51384.36,-21011.312,-6423.4214,-64043.215,-39693.688,-37322.55,-42504.19
968144.8337298891,-93448.94,-51383.14,-21011.598,-6423.055,-64041.79,-39691.652,-37317.223,-42496.01
968144.8377298877,-93447.63,-51382.0,-21013.348,-6423.4214,-64038.78,-39689.09,-37315.473,-42495.402
968144.8417298862,-93450.6,-51382.734,-21016.236,-6419.8,-64026.86,-39686.363,-37313.273,-42493.652
968144.8457298848,-93455.04,-51383.3,-21016.602,-6421.8345,-64025.15,-39685.14,-37312.83,-42496.42
968144.8497298834,-93458.945,-51383.426,-21018.514,-6427.124,-64033.367,-39686.24,-37313.19,-42490.438
968144.8537298819,-93457.766,-51385.38,-21017.213,-6428.2637,-64039.594,-39686.688,-37315.43,-42498.453
968144.8577298805,-93456.305,-51387.656,-21016.48,-6427.165,-64033.45,-39687.258,-37316.324,-42500.938
968144.861729879,-93460.33,-51391.195,-21017.945,-6426.0664,-64027.67,-39688.316,-37317.02,-42502.605
968144.8657298776,-93463.83,-51397.258,-21016.277,-6427.9785,-64033.367,-39688.56,-37314.94,-42502.523
968144.869729876,-93467.05,-51396.445,-21018.678,-6433.757,-64045.98,-39688.273,-37311.93,-42495.2
968144.8737298746,-93466.31,-51392.336,-21022.543,-6435.425,-64051.15,-39687.094,-37312.094,-42497.477
968144.8777298732,-93463.46,-51391.887,-21025.066,-6432.3325,-64046.062,-39686.24,-37316.043,-42503.99
968144.8817298717,-93458.3,-51393.68,-21022.87,-6430.542,-64035.035,-39684.816,-37319.99,-42511.637
968144.8857298703,-93460.414,-51392.375,-21023.723,-6430.542,-64032.473,-39683.555,-37318.44,-42504.11
968144.8897298689,-93460.82,-51392.375,-21023.56,-6430.7456,-64036.785,-39684.164,-37315.836,-42493.367
968144.8937298674,-93453.01,-51385.906,-21018.963,-6428.63,-64033.816,-39686.523,-37319.824,-42513.145
968144.897729866,-93449.95,-51383.914,-21015.79,-6428.304,-64030.684,-39687.137,-37319.785,-42519.695
968144.9017298645,-93452.805,-51389.324,-21016.195,-6426.677,-64024.906,-39685.914,-37318.074,-42513.55
968144.9057298631,-93456.71,-51391.24,-21016.969,-6430.2573,-64028.527,-39686.035,-37319.133,-42508.383
968144.9097298617,-93460.94,-51392.375,-21017.537,-6435.3843,-64042.44,-39686.81,-37320.11,-42516.48
968144.9137298602,-93463.38,-51391.195,-21018.025,-6433.5938,-64038.74,-39685.832,-37320.883,-42518.598
968144.9177298588,-93461.67,-51390.42,-21018.678,-6430.949,-64033.977,-39684.164,-37318.2,-42517.17
968144.9217298573,-93458.984,-51390.992,-21015.707,-6427.002,-64024.008,-39681.844,-37316.082,-42514.812
968144.9257298559,-93455.77,-51389.65,-21012.533,-6427.287,-64023.684,-39680.504,-37312.297,-42505.984
968144.9297298545,-93454.76,-51385.457,-21011.8,-6429.3623,-64033.207,-39681.56,-37310.59,-42504.395
968144.9337298529,-93455.484,-51380.656,-21012.492,-6426.9614,-64033.9,-39682.58,-37310.14,-42502.89
968144.9377298515,-93455.61,-51379.844,-21012.045,-6425.578,-64024.09,-39684.652,-37310.832,-42505.29
968144.94172985,-93456.46,-51381.473,-21012.086,-6424.52,-64016.36,-39685.63,-37309.9,-42496.746
968144.9457298486,-93457.89,-51381.27,-21011.395,-6423.625,-64014.12,-39686.32,-37313.723,-42501.06
968144.9497298471,-93458.7,-51379.234,-21015.707,-6425.578,-64014.61,-39688.113,-37319.5,-42507.49
968144.9537298457,-93460.984,-51382.895,-21016.887,-6427.694,-64018.92,-39687.95,-37319.824,-42512.29
968144.9577298443,-93464.36,-51384.766,-21017.334,-6427.165,-64017.297,-39688.19,-37319.5,-42510.094
968144.9617298428,-93465.664,-51387.168,-21015.625,-6424.52,-64007.53,-39686.44,-37317.06,-42505.37
968144.9657298414,-93469.16,-51390.625,-21014.568,-6427.409,-64013.957,-39685.14,-37314.78,-42506.594
968144.9697298399,-93471.56,-51387.004,-21018.758,-6432.8613,-64014.855,-39688.19,-37316.12,-42512.86
968144.9737298385,-93471.6,-51388.023,-21021.852,-6432.495,-64013.348,-39689.617,-37313.805,-42510.05
968144.9777298371,-93470.91,-51393.15,-21021.2,-6428.182,-64012.492,-39688.76,-37311.44,-42511.355
968144.9817298356,-93470.016,-51393.35,-21021.566,-6427.124,-64015.63,-39687.055,-37312.38,-42509.523
968144.9857298342,-93477.3,-51400.188,-21023.64,-6431.0303,-64019.94,-39687.46,-37315.188,-42507.812
968144.9897298327,-93479.086,-51399.13,-21022.705,-6433.6753,-64029.707,-39688.19,-37317.914,-42509.523
968144.9937298313,-93477.22,-51393.312,-21022.014,-6434.8555,-64031.742,-39688.6,-37319.46,-42516.195
968144.9977298297,-93477.54,-51390.668,-21020.346,-6428.9146,-64015.91,-39687.664,-37315.836,-42515.137
968145.0017298283,-93476.61,-51391.97,-21018.148,-6424.927,-64003.582,-39686.973,-37313.316,-42513.633
968145.0057298269,-93473.88,-51390.75,-21018.758,-6426.0254,-64011.438,-39687.38,-37312.215,-42507.773
968145.0097298254,-93476.08,-51390.547,-21021.078,-6432.292,-64020.023,-39689.13,-37312.582,-42511.92
968145.013729824,-93479.86,-51393.516,-21023.234,-6435.0586,-64019.74,-39688.56,-37311.688,-42512.29
968145.0177298225,-93476.65,-51393.312,-21023.438,-6434.245,-64016.195,-39688.883,-37312.664,-42509.035
968145.0217298211,-93474.49,-51394.695,-21021.24,-6433.6753,-64017.094,-39687.38,-37313.6,-42506.145
968145.0257298197,-93475.586,-51398.805,-21019.125,-6435.588,-64023.113,-39686.44,-37315.633,-42513.957
968145.0297298182,-93475.79,-51399.78,-21020.996,-6438.9243,-64023.93,-39688.273,-37317.996,-42515.668
968145.0337298168,-93472.21,-51397.46,-21019.37,-6439.9414,-64030.844,-39686.65,-37316.203,-42505.29
968145.0377298153,-93470.55,-51396.2,-21020.875,-6436.4424,-64019.207,-39686.89,-37316.324,-42504.56
968145.0417298139,-93472.29,-51394.086,-21020.59,-6434.245,-64012.004,-39686.85,-37317.953,-42509.848
968145.0457298125,-93469.04,-51391.4,-21022.176,-6437.419,-64016.766,-39686.93,-37317.465,-42506.39
968145.049729811,-93470.38,-51389.977,-21024.414,-6442.912,-64022.016,-39688.19,-37317.586,-42511.76
968145.0537298096,-93476.81,-51393.598,-21028.32,-6447.7134,-64024.945,-39688.113,-37317.586,-42515.3
968145.0577298081,-93477.38,-51395.55,-21028.28,-6445.7603,-64012.82,-39688.723,-37318.605,-42511.273
968145.0617298066,-93482.51,-51399.09,-21025.473,-6441.4062,-64001.344,-39690.633,-37323.445,-42515.42
968145.0657298052,-93483.56,-51398.438,-21024.537,-6440.8774,-64001.223,-39692.426,-37326.824,-42517.54
968145.0697298037,-93476.61,-51391.766,-21021.932,-6441.162,-64003.258,-39693.24,-37325.113,-42515.79
968145.0737298023,-93475.51,-51387.86,-21021.893,-6440.3076,-64003.137,-39696.535,-37327.027,-42515.79
968145.0777298008,-93474.2,-51386.19,-21022.014,-6437.256,-64004.19,-39697.594,-37328.33,-42511.07
968145.0817297994,-93472.336,-51384.402,-21021.932,-6435.1807,-64002.117,-39694.664,-37328.656,-42512.777
968145.085729798,-93469.32,-51382.938,-21021.973,-6436.3203,-63996.83,-39693.645,-37330.445,-42524.984
968145.0897297965,-93471.03,-51383.668,-21020.996,-6442.0166,-64005.984,-39693.44,-37331.625,-42524.78
968145.0937297951,-93471.73,-51383.586,-21019.37,-6442.1797,-64001.305,-39693.973,-37329.47,-42514.363
968145.0977297936,-93471.52,-51381.633,-21017.62,-6440.715,-63994.305,-39693.727,-37326.62,-42508.06
968145.1017297922,-93473.35,-51384.523,-21015.057,-6438.843,-63996.016,-39691.367,-37324.91,-42505.008
968145.1057297908,-93474.81,-51382.285,-21014.771,-6439.087,-64000.41,-39690.797,-37325.523,-42513.145
968145.1097297893,-93476.93,-51380.535,-21018.107,-6441.732,-64004.19,-39690.797,-37325.156,-42516.805
968145.1137297879,-93479.82,-51380.008,-21019.979,-6442.912,-64006.188,-39692.06,-37325.523,-42521.61
968145.1177297864,-93478.805,-51379.844,-21020.102,-6440.267,-64002.934,-39692.344,-37326.09,-42515.465
968145.121729785,-93473.836,-51380.86,-21018.148,-6436.9307,-64000.41,-39690.676,-37325.684,-42507.812
968145.1257297834,-93477.7,-51382.0,-21017.334,-6439.575,-64010.38,-39687.99,-37322.594,-42507.12
968145.129729782,-93478.03,-51379.56,-21016.072,-6445.4756,-64012.37,-39689.617,-37323.773,-42510.867
968145.1337297806,-93479.78,-51381.39,-21017.457,-6447.1436,-64009.645,-39692.668,-37326.09,-42513.67
968145.1377297791,-93480.266,-51381.105,-21017.904,-6447.225,-64010.582,-39694.094,-37326.99,-42514.61
968145.1417297777,-93475.43,-51375.9,-21013.55,-6440.1855,-64001.793,-39693.766,-37325.887,-42508.22
968145.1457297762,-93473.516,-51373.457,-21012.777,-6438.3955,-64008.18,-39693.973,-37324.547,-42507.73
968145.1497297748,-93477.22,-51373.414,-21015.26,-6444.743,-64010.99,-39694.5,-37324.87,-42509.93
968145.1537297734,-93477.99,-51374.758,-21019.531,-6445.0684,-64010.176,-39693.24,-37325.727,-42509.848
968145.1577297719,-93475.38,-51376.223,-21020.387,-6442.79,-64003.91,-39692.547,-37327.434,-42511.68
968145.1617297705,-93469.57,-51371.297,-21016.887,-6440.0635,-64000.613,-39690.555,-37326.297,-42514.242
968145.165729769,-93467.77,-51370.527,-21014.486,-6442.1797,-64002.934,-39690.43,-37321.168,-42496.746
968145.1697297676,-93472.13,-51370.484,-21016.928,-6446.167,-64012.13,-39692.02,-37320.027,-42497.684
968145.1737297662,-93467.82,-51365.4,-21016.684,-6443.319,-64005.7,-39694.62,-37324.668,-42512.004
968145.1777297647,-93468.43,-51366.293,-21019.49,-6441.081,-63991.457,-39698.04,-37329.55,-42514.812
968145.1817297633,-93472.17,-51369.305,-21020.875,-6439.087,-63992.96,-39698.61,-37336.63,-42532.105
968145.1857297618,-93475.63,-51370.81,-21022.625,-6442.22,-63999.84,-39696.37,-37338.34,-42531.863
968145.1897297603,-93477.74,-51373.09,-21025.635,-6447.917,-64008.87,-39695.395,-37337.32,-42524.7
968145.1937297588,-93478.07,-51373.66,-21025.188,-6448.3237,-64008.508,-39693.562,-37335.164,-42521.242
968145.1977297574,-93477.22,-51376.18,-21025.432,-6449.748,-64015.42,-39693.074,-37336.266,-42529.746
968145.201729756,-93475.51,-51373.535,-21020.387,-6445.7603,-64008.223,-39692.26,-37334.473,-42523.64
968145.2057297545,-93473.96,-51369.875,-21016.398,-6444.336,-63993.777,-39692.79,-37331.91,-42517.09
968145.2097297531,-93475.63,-51366.742,-21018.678,-6449.0156,-63999.434,-39696.207,-37330.484,-42509.402
968145.2137297516,-93473.15,-51364.992,-21016.846,-6450.4805,-64002.89,-39697.55,-37328.86,-42506.43
968145.2177297502,-93469.445,-51361.41,-21016.195,-6446.6147,-63991.66,-39697.31,-37329.67,-42514.65
968145.2217297488,-93469.36,-51360.027,-21017.822,-6443.7666,-63985.23,-39696.25,-37329.793,-42516.24
968145.2257297473,-93469.24,-51362.348,-21016.48,-6447.103,-63989.098,-39693.89,-37325.684,-42510.01
968145.2297297459,-93473.516,-51365.195,-21015.666,-6450.1953,-63999.92,-39692.953,-37322.145,-42505.74
968145.2337297444,-93474.086,-51364.625,-21015.504,-6451.05,-64009.035,-39692.3,-37323.203,-42503.99
968145.237729743,-93473.11,-51365.277,-21016.033,-6452.6777,-64015.953,-39692.71,-37326.54,-42506.96
