timestamp,Fp1,Fp2,F3,Fz,F4,Cz,Pz,Oz
1386922.3094382384,-39816.285,-16149.537,38435.02,-2162.1501,92449.18,500.0,21594.32,71368.45
1386922.313438234,-39817.06,-16151.693,38433.96,-2161.2957,92446.62,499.1455,21595.215,71379.36
1386922.3174382295,-39817.953,-16152.629,38432.58,-2166.7075,92445.195,494.54755,21596.844,71373.375
1386922.3214382248,-39822.594,-16154.46,38427.37,-2172.8923,92442.14,490.47852,21592.53,71360.555
1386922.3254382203,-39834.23,-16157.797,38423.016,-2173.0144,92438.16,490.88544,21586.63,71365.52
1386922.3294382158,-39835.086,-16163.168,38425.418,-2169.149,92441.86,492.87924,21583.09,71352.016
1386922.3334382114,-39819.906,-16158.8955,38428.875,-2167.1958,92446.17,493.89648,21593.059,71369.71
1386922.3374382067,-39812.785,-16150.1875,38429.934,-2171.224,92448.29,492.79785,21604.818,71385.945
1386922.3414382022,-39807.984,-16145.509,38429.484,-2174.8862,92446.17,489.01367,21603.965,71377.08
1386922.3454381977,-39810.14,-16146.078,38428.55,-2175.4558,92440.31,488.64746,21598.023,71379.03
1386922.3494381933,-39810.184,-16151.652,38432.78,-2173.0552,92440.88,491.17026,21591.025,71366.82
1386922.3534381888,-39814.7,-16153.321,38434.285,-2173.6248,92446.086,491.37372,21591.676,71370.2
1386922.357438184,-39822.43,-16156.169,38430.504,-2177.7344,92448.49,488.40332,21597.25,71389.484
1386922.3614381796,-39822.67,-16155.559,38427.207,-2179.525,92448.94,484.09018,21594.89,71388.92
1386922.3654381752,-39821.332,-16152.223,38427.29,-2176.7986,92446.82,483.43915,21586.67,71364.664
1386922.3694381707,-39821.37,-16148.927,38427.53,-2173.5435,92441.2,486.1247,21588.055,71359.46
1386922.373438166,-39815.348,-16146.037,38430.79,-2171.7937,92442.875,491.65854,21600.709,71374.48
1386922.3774381615,-39813.805,-16149.455,38432.375,-2179.0366,92446.336,492.30957,21612.713,71391.52
1386922.381438157,-39815.676,-16151.9375,38433.188,-2186.32,92443.61,489.3392,21607.992,71382.2
1386922.3854381526,-39819.824,-16157.878,38431.113,-2190.7146,92434.62,488.44403,21594.97,71356.85
1386922.3894381481,-39823.445,-16160.6455,38432.332,-2186.9712,92428.836,491.08887,21587.484,71352.22
1386922.3934381434,-39824.383,-16163.575,38434.0,-2186.9304,92433.92,490.47852,21588.176,71367.59
1386922.397438139,-39824.75,-16163.453,38427.9,-2190.7554,92432.13,488.0371,21590.7,71374.76
1386922.4014381345,-39824.26,-16156.413,38421.184,-2194.458,92430.46,483.1543,21579.795,71349.445
1386922.40543813,-39824.098,-16156.088,38417.848,-2193.7664,92427.164,482.54395,21571.941,71346.805
1386922.4094381256,-39827.92,-16152.182,38418.01,-2188.7207,92435.95,484.25293,21569.336,71343.95
1386922.4134381209,-39830.203,-16148.845,38419.312,-2184.896,92437.3,486.08398,21572.918,71343.34
1386922.4174381164,-39830.895,-16150.229,38422.61,-2187.5408,92438.766,484.65985,21577.76,71353.766
1386922.421438112,-39828.53,-16160.279,38422.242,-2191.2842,92437.87,482.17773,21578.695,71358.766
1386922.4254381075,-39825.523,-16163.778,38423.707,-2191.203,92434.49,482.91016,21575.195,71357.26
1386922.4294381028,-39825.24,-16160.727,38425.945,-2186.2793,92437.22,486.73505,21571.615,71348.02
1386922.4334380983,-39825.36,-16158.082,38424.645,-2184.7332,92440.63,487.38608,21577.88,71364.14
1386922.4374380938,-39819.742,-16152.548,38424.316,-2186.8896,92440.8,483.11362,21580.363,71360.19
1386922.4414380894,-39818.035,-16149.659,38423.83,-2189.2905,92437.87,479.61426,21580.04,71355.76
1386922.445438085,-39829.836,-16161.337,38420.492,-2189.7788,92430.46,478.51562,21576.336,71357.14
1386922.4494380802,-39830.566,-16159.059,38421.348,-2185.1401,92433.11,480.99774,21577.678,71368.57
1386922.4534380757,-39830.73,-16158.977,38421.836,-2183.2683,92441.125,483.6833,21584.96,71373.086
1386922.4574380713,-39831.3,-16165.446,38419.434,-2187.1746,92438.07,483.11362,21592.246,71363.41
1386922.4614380668,-39829.754,-16162.843,38419.637,-2189.86,92428.305,480.7536,21595.826,71369.1
1386922.465438062,-39830.04,-16162.883,38421.957,-2186.605,92427.53,481.8929,21592.326,71366.54
1386922.4694380576,-39837.973,-16179.078,38422.69,-2180.3386,92421.266,486.16537,21592.164,71373.086
1386922.4734380532,-39862.59,-16210.49,38419.11,-2182.8613,92411.42,489.37988,21596.07,71371.75
1386922.4774380487,-39864.664,-16195.802,38417.81,-2185.3027,92419.97,484.53778,21593.75,71370.61
1386922.4814380442,-39836.344,-16159.628,38424.645,-2183.5125,92428.96,478.7191,21585.084,71367.15
1386922.4854380395,-39826.742,-16155.437,38425.742,-2178.5483,92430.87,477.21356,21575.604,71361.94
1386922.489438035,-39829.67,-16153.483,38425.05,-2171.8345,92435.95,478.10873,21567.018,71343.914
1386922.4934380306,-39835.816,-16156.169,38425.008,-2170.7358,92446.9,480.79428,21573.121,71364.38
1386922.4974380261,-39830.812,-16154.135,38425.254,-2173.8281,92452.72,481.32324,21581.992,71400.8
1386922.5014380214,-39829.348,-16150.595,38419.637,-2177.1648,92447.39,476.237,21575.156,71380.66
1386922.505438017,-39834.84,-16151.774,38415.242,-2177.816,92444.79,472.73764,21562.867,71333.74
1386922.5094380125,-39838.543,-16152.833,38414.55,-2175.4966,92441.0,477.0915,21564.576,71338.055
1386922.513438008,-39840.13,-16158.977,38413.902,-2177.2056,92445.64,480.99774,21576.783,71361.01
1386922.5174380036,-39850.344,-16165.65,38410.32,-2182.1697,92446.25,480.3874,21588.584,71379.234
1386922.5214379989,-39861.695,-16170.817,38404.5,-2189.901,92437.83,478.02734,21595.582,71405.36
1386922.5254379944,-39869.06,-16176.107,38401.45,-2191.04,92432.414,479.1667,21596.64,71412.6
1386922.52943799,-39865.48,-16171.103,38404.625,-2186.1572,92437.79,482.21844,21593.994,71382.77
1386922.5334379855,-39866.21,-16176.637,38406.656,-2185.0994,92444.22,484.7412,21602.906,71385.42
1386922.537437981,-39869.47,-16182.984,38405.273,-2189.1277,92444.79,484.0495,21609.336,71395.836
1386922.5414379763,-39870.445,-16184.733,38402.63,-2194.0918,92438.68,481.5267,21608.766,71402.75
1386922.5454379718,-39870.363,-16184.489,38400.105,-2194.3767,92429.57,480.87567,21598.877,71374.72
1386922.5494379674,-39870.65,-16183.961,38400.594,-2191.0808,92421.96,482.86948,21593.262,71364.664
1386922.553437963,-39873.09,-16189.494,38399.902,-2191.9353,92428.23,486.0433,21600.668,71392.3
1386922.5574379582,-39874.555,-16191.8955,38394.777,-2196.289,92429.734,483.92743,21604.86,71405.6
1386922.5614379537,-39881.266,-16194.987,38386.844,-2200.7244,92430.34,480.46875,21599.285,71368.05
1386922.5654379493,-39888.67,-16200.888,38386.56,-2201.8638,92426.555,479.37012,21591.717,71356.57
1386922.5694379448,-39887.695,-16197.673,38390.34,-2196.6147,92429.85,480.87567,21585.654,71366.09
1386922.5734379403,-39884.32,-16190.023,38393.68,-2194.2954,92437.99,482.50327,21586.387,71369.23
1386922.5774379356,-39883.14,-16191.732,38390.83,-2196.8994,92437.99,479.1667,21590.861,71371.99
1386922.5814379312,-39882.285,-16192.221,38385.945,-2200.8057,92427.125,472.8597,21584.637,71362.96
1386922.5854379267,-39885.54,-16191.8545,38382.12,-2200.0732,92419.35,472.53418,21577.678,71356.24
1386922.5894379222,-39891.195,-16198.894,38382.12,-2195.394,92421.92,475.7894,21576.945,71353.6
1386922.5934379175,-39891.645,-16204.55,38385.38,-2194.2954,92422.445,477.53906,21584.678,71367.88
1386922.597437913,-39892.254,-16202.312,38387.574,-2199.0154,92422.94,474.89423,21591.025,71384.89
1386922.6014379086,-39895.062,-16206.95,38388.55,-2203.4507,92419.31,470.62177,21590.088,71388.39
1386922.6054379041,-39901.9,-16207.805,38389.566,-2201.3347,92411.625,469.80795,21581.137,71363.57
1386922.6094378997,-39895.1,-16201.864,38391.727,-2197.2656,92412.6,472.0459,21575.4,71348.72
1386922.613437895,-39886.844,-16200.277,38394.574,-2194.743,92422.41,473.348,21576.742,71345.664
1386922.6174378905,-39883.06,-16205.567,38394.086,-2198.4458,92426.39,469.31967,21579.957,71357.42
1386922.621437886,-39888.31,-16209.066,38391.074,-2204.4272,92425.375,467.2038,21580.486,71353.27
1386922.6254378816,-39890.87,-16208.7,38391.887,-2203.939,92418.055,468.09897,21575.562,71346.6
1386922.6294378769,-39897.016,-16212.362,38390.016,-2200.8872,92413.086,471.96454,21574.424,71345.3
1386922.6334378724,-39902.59,-16216.513,38388.348,-2201.0498,92417.12,473.18524,21580.934,71360.92
1386922.637437868,-39904.38,-16206.706,38385.945,-2205.5664,92417.85,471.51694,21586.67,71367.59
1386922.6414378635,-39903.934,-16205.038,38381.266,-2210.368,92411.83,467.36655,21581.584,71362.1
1386922.645437859,-39907.188,-16209.758,38378.38,-2209.1064,92408.37,465.00653,21567.383,71337.77
1386922.6494378543,-39909.668,-16217.204,38381.797,-2204.1423,92410.81,466.14584,21561.2,71323.98
1386922.6534378498,-39909.508,-16217.896,38385.38,-2199.992,92413.91,466.6748,21564.006,71327.76
1386922.6574378454,-39912.477,-16220.988,38381.633,-2202.352,92413.78,463.0534,21564.047,71321.78
1386922.661437841,-39916.26,-16228.028,38376.02,-2208.7402,92402.71,458.41473,21564.047,71323.9
1386922.6654378362,-39919.637,-16227.987,38372.4,-2209.5542,92396.41,459.51337,21562.826,71322.59
1386922.6694378317,-39920.86,-16227.336,38373.332,-2206.0955,92400.11,466.47137,21567.22,71343.71
1386922.6734378273,-39909.71,-16215.048,38376.59,-2204.712,92413.49,468.66864,21574.871,71351.24
1386922.6774378228,-39892.254,-16197.429,38382.406,-2205.363,92424.32,463.0941,21568.482,71335.164
1386922.6814378183,-39908.45,-16221.273,38376.26,-2213.4604,92407.39,457.51953,21560.303,71329.35
1386922.6854378136,-39926.92,-16237.956,38371.22,-2216.4307,92396.04,457.51953,21556.396,71331.305
1386922.6894378092,-39925.945,-16232.463,38374.066,-2210.9783,92402.06,461.3851,21552.125,71309.164
1386922.6934378047,-39921.145,-16229.005,38374.066,-2208.2927,92405.88,461.54785,21553.184,71309.37
1386922.6974378002,-39924.684,-16234.294,38369.793,-2212.2397,92399.58,459.43198,21559.814,71325.65
1386922.7014377958,-39924.97,-16235.067,38368.938,-2216.0645,92398.07,458.12988,21559.45,71333.414
1386922.705437791,-39927.652,-16238.404,38367.473,-2217.3667,92393.516,457.92645,21552.043,71333.414
1386922.7094377866,-39928.47,-16242.921,38368.246,-2214.4775,92395.47,461.58856,21548.26,71324.26
1386922.7134377821,-39929.89,-16241.781,38370.73,-2213.379,92401.086,463.0127,21556.479,71332.03
1386922.7174377777,-39931.766,-16236.451,38367.23,-2218.872,92401.82,460.5306,21561.605,71327.11
1386922.721437773,-39933.72,-16235.841,38364.625,-2222.575,92395.266,458.0892,21559.814,71329.06
1386922.7254377685,-39934.043,-16241.334,38363.445,-2220.7031,92389.28,456.5023,21549.113,71301.64
1386922.729437764,-39926.84,-16238.933,38363.65,-2214.437,92390.79,459.43198,21545.98,71309.57
1386922.7334377596,-39926.676,-16241.008,38367.637,-2212.5652,92399.54,460.48993,21554.688,71331.09
1386922.737437755,-39929.85,-16240.846,38365.03,-2217.4888,92396.77,457.47885,21562.217,71350.836
1386922.7414377504,-39929.65,-16244.345,38363.566,-2220.744,92387.945,453.1657,21557.373,71332.93
1386922.745437746,-39930.867,-16244.345,38364.176,-2220.2148,92387.086,452.59604,21549.928,71323.49
1386922.7494377415,-39934.41,-16238.974,38364.625,-2217.163,92390.22,455.6478,21549.236,71312.664
1386922.753437737,-39927.004,-16238.7295,38363.324,-2216.3494,92393.64,457.723,21560.264,71339.56
1386922.7574377323,-39924.723,-16241.13,38359.5,-2221.6797,92388.43,455.36298,21571.127,71357.016
1386922.7614377278,-39921.1,-16245.443,38356.812,-2226.0742,92383.42,452.59604,21567.1,71325.16
1386922.7654377234,-39920.29,-16243.856,38359.703,-2226.9287,92383.14,452.10776,21560.182,71321.375
1386922.769437719,-39924.195,-16244.996,38361.94,-2224.284,92384.08,455.36298,21559.979,71326.984
1386922.7734377144,-39928.348,-16247.315,38361.94,-2223.0632,92389.61,457.07196,21560.832,71321.375
1386922.7774377097,-39926.35,-16248.414,38359.742,-2227.8647,92395.39,454.75262,21566.123,71334.48
1386922.7814377053,-39932.82,-16252.523,38355.47,-2236.6538,92389.08,451.17188,21565.879,71334.02
1386922.7854377008,-39931.113,-16244.142,38356.85,-2237.02,92388.06,450.43945,21556.56,71315.35
1386922.7894376963,-39928.59,-16242.677,38359.215,-2232.951,92390.51,454.30502,21553.955,71314.66
1386922.7934376916,-39934.57,-16253.215,38358.6,-2233.0322,92393.03,456.74643,21559.367,71323.2
1386922.7974376872,-39934.043,-16251.791,38356.69,-2237.6304,92387.45,454.14227,21564.861,71336.19
1386922.8014376827,-39937.625,-16258.18,38355.387,-2241.9841,92384.24,450.07324,21561.484,71345.22
1386922.8054376782,-39941.734,-16264.079,38353.516,-2242.1062,92382.695,449.99188,21551.148,71318.28
1386922.8094376738,-39943.562,-16259.034,38350.223,-2241.5771,92385.17,451.37534,21548.016,71305.38
1386922.813437669,-39944.867,-16253.337,38347.74,-2240.7227,92393.48,451.0498,21548.219,71298.87
1386922.8174376646,-39942.098,-16254.069,38351.035,-2242.269,92398.766,447.30634,21552.898,71317.914
1386922.8214376601,-39944.824,-16255.575,38352.38,-2245.8904,92391.73,444.6208,21556.479,71332.12
1386922.8254376557,-39948.12,-16259.5625,38353.516,-2246.704,92385.5,445.92285,21556.967,71350.42
1386922.8294376512,-39945.598,-16262.289,38357.098,-2243.4897,92388.39,447.63184,21551.555,71324.51
1386922.8334376465,-39940.758,-16258.017,38361.33,-2240.316,92390.055,448.73047,21554.729,71327.48
1386922.837437642,-39939.09,-16253.988,38361.168,-2243.9373,92389.04,447.10287,21559.002,71333.05
1386922.8414376376,-39940.797,-16257.895,38352.945,-2248.413,92384.16,444.58008,21557.414,71321.86
1386922.845437633,-39943.727,-16260.661,38349.082,-2248.9014,92380.17,445.43457,21552.654,71311.2
1386922.8494376284,-39949.06,-16263.835,38349.285,-2245.9312,92378.75,450.39877,21553.264,71318.28
1386922.853437624,-39953.98,-16262.452,38349.652,-2244.751,92385.99,451.61948,21553.06,71315.47
1386922.8574376195,-39953.656,-16264.486,38348.188,-2249.0642,92387.62,447.50977,21552.857,71311.65
1386922.861437615,-39953.043,-16266.603,38345.906,-2254.069,92374.19,442.0166,21548.38,71311.2
1386922.8654376105,-39958.984,-16279.094,38343.832,-2254.9236,92373.7,438.88348,21538.494,71299.08
1386922.8694376058,-39962.04,-16279.542,38346.03,-2250.122,92377.08,439.90073,21532.594,71297.164
1386922.8734376014,-39956.586,-16274.577,38347.332,-2248.2097,92379.11,440.30762,21536.785,71306.68
1386922.877437597,-39957.684,-16272.746,38346.76,-2252.1567,92381.35,438.3545,21543.498,71310.8
1386922.8814375924,-39957.277,-16271.77,38342.082,-2256.2664,92379.234,436.32,21540.0,71302.33
1386922.8854375877,-39957.438,-16267.335,38340.78,-2254.1912,92379.16,435.5062,21534.1,71285.93
1386922.8894375833,-39957.562,-16268.596,38340.902,-2250.6511,92382.445,439.29037,21532.512,71286.7
1386922.8934375788,-39959.35,-16268.718,38343.875,-2251.3835,92388.39,440.95868,21535.156,71298.016
1386922.8974375743,-39961.426,-16275.1875,38344.484,-2255.534,92386.4,437.62207,21540.812,71318.195
1386922.9014375699,-39969.402,-16283.163,38341.227,-2260.783,92380.54,433.67514,21538.615,71312.22
1386922.9054375652,-39968.426,-16279.542,38339.844,-2259.5623,92383.266,433.91928,21531.006,71299.03
1386922.9094375607,-39957.03,-16272.746,38340.78,-2255.7373,92379.44,435.8724,21530.559,71302.33
1386922.9134375562,-39957.277,-16274.903,38339.844,-2255.127,92379.03,436.76758,21533.53,71310.266
1386922.9174375518,-39959.555,-16280.111,38338.992,-2258.8706,92381.76,435.62827,21538.25,71311.08
1386922.921437547,-39968.26,-16288.046,38334.84,-2265.5437,92374.92,435.75034,21539.47,71314.54
1386922.9254375426,-39977.867,-16291.83,38334.516,-2267.7002,92365.64,437.78485,21538.209,71310.43
1386922.9294375381,-39965.17,-16274.781,38339.52,-2262.6548,92377.445,440.91797,21535.564,71303.266
1386922.9334375337,-39946.414,-16257.528,38343.59,-2258.2603,92386.516,440.7959,21534.832,71297.33
1386922.9374375292,-39950.195,-16263.673,38339.56,-2262.1257,92383.75,437.5,21539.47,71314.82
1386922.9414375245,-39955.08,-16272.909,38335.816,-2268.27,92377.24,431.88477,21534.75,71319.42
1386922.94543752,-39942.26,-16256.389,38336.426,-2263.5906,92371.5,427.53094,21519.531,71281.05
1386922.9494375156,-39955.445,-16269.41,38331.83,-2259.8877,92370.94,428.42612,21513.225,71273.32
1386922.953437511,-39961.47,-16279.664,38327.883,-2260.8237,92371.3,429.11786,21516.684,71285.73
1386922.9574375066,-39954.43,-16260.661,38328.816,-2264.6484,92378.46,426.9206,21520.184,71286.99
1386922.961437502,-39958.09,-16259.929,38324.91,-2271.7285,92373.58,425.82196,21520.225,71301.64
1386922.9654374975,-39960.816,-16267.782,38325.156,-2273.0308,92365.36,425.86264,21515.422,71292.69
1386922.969437493,-39963.95,-16276.693,38328.492,-2270.2231,92370.73,427.85645,21508.018,71266.28
1386922.9734374885,-39976.727,-16278.402,38331.258,-2266.9272,92368.66,428.5075,21512.086,71261.84
1386922.9774374838,-40001.508,-16281.21,38330.73,-2269.1245,92365.766,425.13022,21519.695,71283.24
1386922.9814374794,-39960.125,-16283.814,38324.953,-2273.8853,92364.83,422.56674,21521.934,71286.54
1386922.985437475,-39950.24,-16284.018,38320.598,-2273.397,92362.67,422.93295,21517.498,71272.95
1386922.9894374704,-39955.895,-16281.698,38322.39,-2265.8691,92364.625,426.31024,21518.31,71284.75
1386922.993437466,-39959.758,-16277.345,38324.3,-2262.8174,92367.8,426.7578,21522.584,71296.71
1386922.9974374613,-39960.777,-16276.856,38324.22,-2267.334,92368.01,422.89227,21527.344,71303.1
1386923.0014374568,-39963.055,-16280.274,38321.695,-2272.705,92363.94,420.16602,21524.7,71297.445
1386923.0054374523,-39965.414,-16278.321,38325.44,-2272.99,92362.02,420.6543,21520.143,71291.18
1386923.0094374479,-39961.184,-16279.826,38332.645,-2267.7817,92365.6,424.92676,21522.299,71290.61
1386923.0134374432,-39958.133,-16282.919,38335.938,-2266.7644,92373.74,428.87372,21533.855,71317.34
1386923.0174374387,-39960.367,-16278.81,38332.97,-2273.519,92373.13,427.12402,21540.406,71317.75
1386923.0214374342,-39961.914,-16275.839,38327.68,-2279.663,92359.375,421.875,21534.18,71295.414
1386923.0254374298,-39965.984,-16278.117,38325.113,-2275.9604,92355.02,421.34604,21528.037,71284.75
1386923.0294374253,-39964.887,-16278.932,38325.848,-2268.2292,92364.305,425.5371,21526.45,71288.125
1386923.0334374206,-39963.992,-16275.554,38323.61,-2267.456,92368.82,428.58887,21534.953,71309.37
1386923.0374374161,-39966.676,-16278.605,38321.29,-2274.0073,92367.39,425.33368,21541.016,71321.984
1386923.0414374117,-39966.227,-16285.441,38321.492,-2277.954,92361.33,420.20673,21535.482,71307.7
1386923.0454374072,-39964.355,-16285.482,38326.58,-2276.4893,92358.484,418.74188,21525.92,71291.625
1386923.0494374025,-39963.746,-16285.768,38328.168,-2274.0479,92360.88,421.875,21520.184,71282.72
1386923.053437398,-39964.07,-16288.615,38326.863,-2272.3389,92361.66,423.42123,21521.201,71278.08
1386923.0574373936,-39965.008,-16289.958,38323.203,-2275.8384,92356.41,419.75912,21522.625,71280.27
1386923.061437389,-39972.78,-16288.534,38316.773,-2279.0122,92349.57,415.3646,21521.16,71289.47
1386923.0654373846,-39974.246,-16291.667,38315.145,-2278.0356,92347.5,412.8418,21513.51,71281.17
1386923.06943738,-39970.133,-16290.65,38314.617,-2274.3735,92352.09,415.3239,21509.97,71281.29
1386923.0734373755,-39969.85,-16287.477,38314.535,-2272.2168,92354.58,416.82944,21517.172,71309.33
1386923.077437371,-39971.598,-16286.662,38315.188,-2275.6348,92354.984,412.31284,21520.387,71292.85
1386923.0814373665,-39970.664,-16293.417,38314.535,-2280.8025,92349.53,409.2204,21517.375,71287.195
1386923.085437362,-39972.293,-16295.207,38315.473,-2281.8604,92345.5,410.97006,21509.727,71279.26
1386923.0894373574,-39972.37,-16289.226,38317.996,-2278.239,92354.05,411.82455,21505.656,71272.38
1386923.093437353,-39970.62,-16288.168,38318.035,-2275.1465,92355.43,412.5163,21510.377,71292.6
1386923.0974373484,-39973.43,-16288.127,38315.797,-2278.6052,92358.16,410.97006,21513.184,71293.26
1386923.101437344,-39978.64,-16299.195,38306.56,-2283.5288,92352.13,404.6224,21507.61,71284.55
1386923.1054373393,-39984.863,-16306.071,38305.625,-2283.2847,92347.86,402.70996,21497.682,71267.74
1386923.1094373348,-39982.137,-16299.073,38312.215,-2280.233,92344.04,407.9183,21496.299,71262.945
1386923.1134373304,-39979.29,-16295.858,38315.39,-2279.948,92346.64,409.50522,21497.723,71255.49
1386923.117437326,-39986.453,-16308.1875,38309.246,-2288.0046,92342.77,405.19208,21500.408,71260.17
1386923.1214373214,-39998.453,-16318.645,38303.914,-2294.4336,92335.37,401.3265,21499.39,71267.336
1386923.1254373167,-40026.082,-16318.197,38306.195,-2292.3179,92332.234,400.91962,21495.2,71269.45
1386923.1294373123,-39988.973,-16306.804,38306.277,-2285.4004,92333.09,403.93066,21489.951,71256.47
1386923.1334373078,-39967.69,-16310.019,38302.734,-2284.912,92335.66,405.19208,21491.049,71263.96
1386923.1374373033,-39974.652,-16311.809,38296.266,-2290.0798,92336.06,402.6286,21494.59,71278.445
1386923.1414372986,-39985.23,-16306.845,38292.684,-2293.9048,92332.12,400.43134,21493.328,71264.484
1386923.1454372942,-39987.754,-16309.978,38295.33,-2296.3867,92325.89,401.57065,21489.502,71249.88
1386923.1494372897,-39991.457,-16313.64,38296.957,-2296.1833,92325.56,404.2562,21488.893,71258.305
1386923.1534372852,-39993.082,-16315.837,38299.684,-2293.9048,92334.805,405.80243,21493.084,71274.58
1386923.1574372808,-39986.004,-16317.506,38301.35,-2295.695,92333.09,401.57065,21496.623,71254.92
1386923.161437276,-39980.875,-16314.82,38299.562,-2299.276,92333.62,397.70508,21498.617,71260.5
1386923.1654372716,-39983.805,-16310.792,38296.67,-2298.462,92330.734,397.13544,21495.2,71274.54
1386923.1694372671,-39986.695,-16310.019,38296.793,-2293.579,92329.59,398.60028,21487.875,71261.195
1386923.1734372627,-39987.062,-16311.198,38298.668,-2290.4053,92330.98,400.1872,21487.957,71251.06
1386923.177437258,-39992.758,-16318.441,38296.062,-2295.3696,92328.01,397.09473,21494.305,71267.87
1386923.1814372535,-39999.555,-16319.377,38290.69,-2302.002,92319.79,392.3747,21495.605,71286.5
1386923.185437249,-40003.418,-16320.883,38289.55,-2305.542,92316.086,391.0726,21487.102,71281.05
1386923.1894372446,-40000.082,-16317.302,38294.434,-2298.5435,92324.586,393.31055,21477.215,71246.3
1386923.19343724,-39991.293,-16311.442,38296.145,-2294.4744,92331.51,397.05405,21481.854,71246.38
1386923.1974372354,-39988.445,-16313.437,38289.227,-2296.9158,92330.08,395.54852,21490.113,71262.945
1386923.201437231,-39993.367,-16319.865,38284.87,-2300.578,92327.64,392.7816,21488.81,71259.97
1386923.2054372265,-39992.92,-16322.47,38285.074,-2299.1943,92325.12,393.39194,21484.13,71260.7
1386923.209437222,-39993.9,-16319.377,38285.727,-2295.4102,92322.35,396.15887,21485.516,71262.58
1386923.2134372173,-39997.355,-16319.255,38286.99,-2294.7998,92322.19,396.68784,21493.084,71274.21
1386923.2174372128,-39997.195,-16322.877,38287.312,-2299.8862,92323.41,394.49057,21498.78,71276.62
1386923.2214372084,-40002.605,-16326.01,38281.94,-2306.3152,92321.414,390.74707,21496.543,71268.555
1386923.225437204,-40003.746,-16323.283,38280.76,-2305.1758,92316.66,392.13055,21496.217,71274.17
1386923.2294371994,-39999.918,-16323.731,38284.75,-2300.7812,92317.305,393.79883,21495.443,71272.625
1386923.2334371947,-39996.785,-16324.748,38285.523,-2298.1365,92319.99,392.49677,21494.996,71257.695
1386923.2374371903,-39999.31,-16318.93,38283.0,-2300.3745,92319.54,389.0381,21492.758,71245.37
1386923.2414371858,-40011.19,-16320.069,38278.117,-2303.7517,92317.586,387.61395,21491.62,71263.15
1386923.2454371813,-40046.145,-16328.898,38277.14,-2302.5718,92312.99,387.28842,21483.969,71249.59
1386923.2494371769,-40036.867,-16335.206,38281.21,-2298.9502,92312.13,389.81122,21479.941,71241.5
1386923.2534371722,-40001.223,-16344.157,38279.703,-2300.4558,92317.016,392.90366,21486.857,71255.13
1386923.2574371677,-40004.64,-16344.483,38279.137,-2305.827,92313.97,392.17123,21493.734,71258.67
1386923.2614371632,-40005.86,-16341.432,38277.63,-2311.076,92303.305,387.93945,21489.99,71244.06
1386923.2654371588,-40010.418,-16345.582,38277.184,-2311.2793,92301.805,387.65463,21484.295,71239.79
1386923.269437154,-40007.73,-16344.32,38279.055,-2307.6987,92308.8,390.86914,21480.836,71235.234
1386923.2734371496,-40003.418,-16336.223,38281.496,-2305.2979,92315.02,388.30566,21480.877,71237.51
1386923.2774371451,-40004.03,-16334.596,38280.965,-2309.5703,92311.69,380.61523,21483.807,71257.734
1386923.2814371407,-40008.383,-16334.27,38278.32,-2311.0352,92301.39,375.77313,21478.11,71262.33
1386923.2854371362,-40011.07,-16338.461,38277.305,-2309.204,92299.766,372.84344,21465.781,71238.12
1386923.2894371315,-40009.766,-16341.31,38277.344,-2304.1587,92303.1,376.18002,21464.52,71238.65
1386923.293437127,-40012.777,-16339.396,38274.902,-2305.7456,92308.35,378.2959,21471.924,71266.195
1386923.2974371226,-40017.133,-16346.314,38275.105,-2310.2622,92310.23,375.529,21475.75,71269.21
1386923.301437118,-40013.387,-16347.901,38274.21,-2314.0056,92306.805,371.58203,21470.826,71254.16
1386923.3054371134,-40011.598,-16346.681,38274.457,-2313.8835,92302.86,372.76205,21468.67,71254.805
1386923.309437109,-40013.387,-16340.658,38274.78,-2310.6284,92297.41,376.87177,21465.496,71229.9
1386923.3134371045,-40015.055,-16339.804,38273.277,-2309.774,92300.5,378.25522,21468.914,71228.48
1386923.3174371,-40015.504,-16338.339,38270.145,-2312.2559,92303.8,377.56348,21474.773,71236.984
1386923.3214370955,-40018.883,-16342.53,38264.977,-2316.6504,92300.375,373.29102,21472.861,71245.57
1386923.3254370908,-40020.145,-16353.435,38263.31,-2318.7664,92297.0,369.42548,21468.629,71248.5
1386923.3294370864,-40019.695,-16351.686,38267.133,-2318.9292,92298.22,371.17514,21466.432,71240.234
1386923.333437082,-40022.504,-16350.587,38271.363,-2319.4175,92301.27,376.01727,21472.697,71250.2
1386923.3374370774,-40027.75,-16349.488,38269.45,-2325.1953,92305.016,373.0876,21475.994,71251.55
1386923.3414370727,-40023.64,-16347.901,38268.555,-2330.4038,92298.42,368.97787,21467.855,71240.07
1386923.3454370683,-40024.008,-16352.011,38265.055,-2331.5837,92290.29,366.7806,21453.248,71218.63
1386923.3494370638,-40025.88,-16354.981,38264.895,-2327.23,92295.125,368.16406,21446.25,71211.305
1386923.3534370593,-40024.984,-16353.557,38265.34,-2325.2769,92300.78,368.73373,21448.895,71219.24
1386923.3574370549,-40026.082,-16349.447,38263.31,-2330.892,92301.27,367.6351,21457.154,71237.8
1386923.3614370502,-40030.56,-16350.343,38260.906,-2337.199,92299.97,365.5599,21460.898,71239.38
1386923.3654370457,-40035.44,-16350.465,38260.99,-2338.908,92295.695,366.4144,21458.701,71237.71
1386923.3694370412,-40035.973,-16358.195,38262.9,-2336.8328,92289.43,367.1875,21456.38,71224.445
1386923.3734370368,-40034.547,-16369.06,38265.055,-2336.914,92287.36,367.96063,21458.457,71225.22
1386923.3774370323,-40037.19,-16373.739,38262.613,-2343.1396,92290.37,365.07162,21463.135,71238.164
1386923.3814370276,-40037.883,-16371.217,38257.164,-2350.3013,92287.234,358.35776,21458.66,71233.69
1386923.3854370231,-40037.477,-16372.315,38256.96,-2350.708,92281.3,355.34668,21449.463,71219.766
1386923.3894370187,-40039.88,-16371.908,38256.96,-2346.4355,92279.5,356.03842,21444.459,71209.27
1386923.3934370142,-40039.754,-16367.27,38258.668,-2343.8315,92289.67,357.17773,21449.016,71218.63
1386923.3974370095,-40042.887,-16366.944,38256.715,-2348.5107,92292.65,353.92255,21449.016,71215.984
1386923.401437005,-40046.305,-16369.386,38252.523,-2352.5798,92293.46,351.1963,21447.47,71217.33
1386923.4054370006,-40043.01,-16365.397,38253.543,-2350.2197,92298.38,352.8239,21443.28,71219.445
1386923.409436996,-40035.28,-16354.94,38256.676,-2347.575,92301.555,354.81772,21437.42,71223.266
1386923.4134369916,-40030.4,-16353.395,38258.832,-2345.1335,92306.03,353.3122,21432.496,71219.93
1386923.417436987,-40030.4,-16362.265,38258.914,-2348.5923,92301.6,348.7142,21433.432,71221.31
1386923.4214369825,-40033.49,-16370.24,38256.43,-2354.777,92286.74,345.9066,21433.514,71223.59
1386923.425436978,-40038.37,-16375.978,38256.266,-2353.5972,92278.37,348.47006,21432.537,71224.33
1386923.4294369735,-40039.51,-16372.111,38254.477,-2350.2605,92282.516,354.1667,21438.559,71221.516
1386923.4334369688,-40044.84,-16370.036,38250.895,-2351.115,92288.375,356.8929,21449.3,71239.34
1386923.4374369644,-40045.492,-16369.426,38249.188,-2355.7944,92287.36,353.59702,21451.783,71238.77
1386923.44143696,-40047.61,-16372.315,38249.88,-2360.311,92285.12,348.18524,21451.172,71235.6
1386923.4454369554,-40044.637,-16373.454,38252.28,-2358.8462,92285.65,346.06934,21441.611,71215.78
1386923.449436951,-40040.12,-16371.949,38255.574,-2353.5564,92287.56,347.4121,21437.42,71221.234
1386923.4534369463,-40033.652,-16365.642,38258.18,-2350.1384,92284.79,345.8659,21434.531,71219.65
1386923.4574369418,-40033.246,-16365.397,38257.69,-2353.3936,92284.47,341.2679,21437.135,71240.89
1386923.4614369373,-40034.18,-16371.989,38255.25,-2358.2764,92276.37,336.91406,21431.52,71233.484
1386923.4654369329,-40034.06,-16376.14,38252.727,-2358.073,92267.54,338.0534,21418.621,71194.17
1386923.4694369282,-40043.01,-16380.616,38246.176,-2358.1543,92270.76,342.81415,21416.871,71175.46
1386923.4734369237,-40056.438,-16386.76,38239.383,-2362.5488,92269.53,346.02866,21420.41,71169.15
1386923.4774369192,-40067.426,-16396.607,38234.17,-2370.2393,92264.33,345.74384,21423.096,71167.93
1386923.4814369148,-40074.016,-16406.941,38231.363,-2374.3896,92262.086,341.7155,21419.434,71162.97
1386923.4854369103,-40075.766,-16407.39,38231.934,-2372.8435,92267.13,339.96582,21408.326,71147.22
1386923.4894369056,-40076.05,-16401.45,38236.695,-2368.1235,92266.28,341.55273,21404.908,71155.68
1386923.4934369011,-40073.773,-16402.67,38241.09,-2366.9841,92269.125,342.81415,21410.035,71169.15
1386923.4974368967,-40068.2,-16402.059,38239.504,-2370.036,92270.305,339.51825,21413.9,71172.734
1386923.5014368922,-40065.473,-16400.188,38233.645,-2375.529,92262.33,336.34442,21417.766,71184.29
1386923.5054368877,-40064.168,-16399.617,38232.79,-2377.5635,92255.78,337.76855,21419.883,71200.195
1386923.509436883,-40061.85,-16396.852,38235.027,-2374.1455,92258.875,342.04102,21425.01,71211.305
1386923.5134368786,-40060.223,-16388.428,38237.387,-2371.5415,92269.49,343.95346,21433.025,71199.71
1386923.517436874,-40058.88,-16382.365,38240.195,-2373.0469,92276.66,341.47137,21441.285,71220.26
1386923.5214368696,-40055.22,-16378.419,38240.074,-2377.36,92273.36,335.9375,21441.367,71233.73
1386923.525436865,-40050.496,-16376.222,38241.824,-2374.5117,92268.805,332.76367,21435.791,71238.12
1386923.5294368605,-40045.37,-16373.414,38247.887,-2364.746,92268.68,331.74643,21426.393,71209.64
1386923.533436856,-40047.65,-16376.262,38248.25,-2362.7524,92273.93,329.63055,21423.26,71197.1
1386923.5374368515,-40050.457,-16384.93,38242.637,-2369.629,92270.8,327.67743,21423.828,71196.125
1386923.541436847,-40056.07,-16395.59,38234.66,-2378.6216,92256.88,325.80566,21419.475,71195.92
1386923.5454368424,-40068.81,-16400.594,38224.734,-2383.3008,92256.11,328.89813,21408.732,71176.88
1386923.549436838,-40077.965,-16407.105,38222.008,-2381.5513,92260.375,332.6823,21395.996,71152.59
1386923.5534368334,-40091.188,-16413.615,38220.543,-2380.4932,92264.94,333.37402,21393.23,71154.09
1386923.557436829,-40088.746,-16403.361,38222.047,-2381.7546,92269.25,328.654,21390.219,71156.7
1386923.5614368243,-40073.367,-16388.713,38224.977,-2382.5278,92264.734,322.26562,21380.982,71147.26
1386923.5654368198,-40080.73,-16402.223,38222.496,-2383.952,92248.58,320.3125,21372.52,71126.14
1386923.5694368153,-40088.38,-16411.336,38218.508,-2382.9346,92240.64,322.9167,21373.7,71130.49
1386923.5734368109,-40087.445,-16414.389,38215.496,-2384.481,92242.31,325.60223,21385.377,71168.5
1386923.5774368064,-40090.09,-16416.545,38211.793,-2391.3982,92243.25,324.74774,21396.607,71168.91
1386923.5814368017,-40092.734,-16416.057,38212.85,-2397.3389,92239.664,323.2015,21400.879,71158.2
1386923.5854367972,-40098.227,-16421.713,38216.758,-2397.1355,92237.35,323.2829,21403.77,71182.375
1386923.5894367928,-40090.58,-16422.16,38220.543,-2391.9272,92242.88,324.34082,21400.514,71163.54
1386923.5934367883,-40083.21,-16415.447,38220.34,-2388.9976,92243.37,325.60223,21406.291,71178.51
1386923.5974367836,-40080.934,-16413.006,38221.723,-2391.032,92244.8,322.4691,21415.365,71196.62
1386923.6014367791,-40081.258,-16415.08,38222.293,-2394.694,92241.01,318.92905,21417.197,71206.26
1386923.6054367747,-40080.934,-16417.318,38221.395,-2393.8804,92240.234,318.15594,21410.93,71200.484
1386923.6094367702,-40083.984,-16418.254,38220.785,-2390.2183,92238.61,319.5394,21408.367,71205.89
1386923.6134367657,-40083.984,-16420.166,38218.14,-2389.1196,92245.37,321.167,21413.006,71209.516
1386923.617436761,-40081.46,-16416.951,38214.03,-2393.4734,92251.836,318.84766,21418.986,71207.03
1386923.6214367566,-40079.1,-16404.664,38210.41,-2399.1294,92247.07,317.0166,21417.318,71204.47
1386923.625436752,-40079.43,-16405.6,38213.42,-2399.7803,92244.59,317.74902,21411.256,71199.95
1386923.6294367476,-40079.633,-16401.408,38216.39,-2393.921,92240.97,320.63803,21404.541,71192.67
1386923.633436743,-40081.746,-16403.2,38220.094,-2391.439,92239.83,322.18427,21402.223,71187.664
1386923.6374367385,-40081.543,-16407.959,38218.305,-2396.9321,92239.46,319.9463,21406.861,71194.3
1386923.641436734,-40081.87,-16411.256,38212.934,-2402.0183,92231.9,317.5456,21404.135,71191.24
1386923.6454367295,-40090.82,-16419.8,38206.055,-2402.7915,92228.516,315.51108,21399.658,71195.234
1386923.649436725,-40094.523,-16418.945,38204.633,-2398.3154,92232.42,316.56903,21395.63,71185.02
1386923.6534367204,-40096.926,-16419.76,38202.15,-2399.0073,92238.0,315.389,21394.775,71179.57
1386923.657436716,-40102.703,-16429.89,38198.934,-2404.2156,92231.53,311.60483,21401.531,71195.27
1386923.6614367114,-40106.773,-16434.896,38195.438,-2408.8135,92223.48,306.23373,21400.676,71198.04
1386923.665436707,-40109.133,-16436.89,38194.906,-2408.1218,92219.0,304.23993,21387.818,71157.15
1386923.6694367025,-40111.86,-16438.844,38195.844,-2404.7446,92219.57,308.3496,21385.824,71166.305
1386923.6734366978,-40112.062,-16437.988,38195.152,-2403.4019,92218.875,308.7972,21391.766,71194.7
1386923.6774366933,-40108.074,-16436.402,38192.383,-2407.4707,92218.875,305.41992,21392.783,71183.516
1386923.6814366889,-40112.184,-16438.68,38182.496,-2414.8765,92214.84,301.0661,21391.562,71160.81
1386923.6854366844,-40122.887,-16444.988,38175.62,-2419.0269,92207.85,300.86264,21385.498,71148.73
1386923.6894366797,-40121.867,-16438.68,38180.504,-2413.3708,92215.62,305.01303,21378.5,71127.52
1386923.6934366752,-40121.176,-16440.064,38183.676,-2413.1675,92225.71,307.9834,21384.482,71143.84
1386923.6974366708,-40127.24,-16445.8,38180.258,-2418.335,92226.69,304.2806,21388.55,71157.35
1386923.7014366663,-40123.863,-16443.562,38179.688,-2418.3757,92219.69,298.01434,21380.535,71146.81
1386923.7054366618,-40124.227,-16447.836,38181.316,-2415.609,92214.73,295.3288,21366.66,71131.31
1386923.7094366571,-40129.52,-16461.182,38182.535,-2412.8826,92211.266,294.92188,21352.418,71114.83
1386923.7134366527,-40125.49,-16464.193,38184.938,-2411.9873,92210.414,293.82324,21350.547,71120.24
1386923.7174366482,-40126.305,-16464.396,38184.207,-2416.3818,92208.01,291.54462,21353.883,71116.3
1386923.7214366437,-40126.75,-16463.299,38182.414,-2422.811,92208.13,290.03906,21354.98,71121.34
1386923.725436639,-40124.715,-16460.287,38180.137,-2422.8516,92208.13,291.9922,21354.533,71129.88
1386923.7294366346,-40128.133,-16467.123,38179.65,-2420.4102,92210.734,296.14258,21359.213,71137.86
1386923.73343663,-40125.652,-16461.629,38179.566,-2418.7827,92218.914,298.25848,21369.793,71165.2
1386923.7374366256,-40119.387,-16451.66,38179.934,-2421.5496,92219.08,296.67157,21374.838,71161.74
1386923.7414366212,-40123.047,-16454.754,38175.58,-2426.1475,92214.16,293.00946,21374.229,71157.68
1386923.7454366165,-40127.523,-16465.455,38176.188,-2425.9849,92206.46,291.82944,21368.531,71154.336
1386923.749436612,-40131.023,-16469.564,38178.836,-2420.6138,92198.24,293.45703,21364.055,71158.695
1386923.7534366075,-40129.152,-16468.506,38179.445,-2419.1895,92205.08,291.34116,21362.102,71149.17
1386923.757436603,-40129.03,-16468.262,38175.7,-2425.1304,92207.4,286.70248,21362.225,71138.15
1386923.7614365984,-40128.01,-16466.717,38172.65,-2428.7925,92200.484,282.59277,21360.475,71129.88
1386923.765436594,-40128.258,-16467.244,38170.168,-2429.6062,92198.53,283.12177,21358.48,71141.85
1386923.7694365894,-40130.496,-16465.902,38168.54,-2427.3276,92201.016,286.09213,21353.312,71141.484
1386923.773436585,-40127.32,-16463.908,38171.062,-2426.8394,92203.78,285.60385,21349.61,71118.82
1386923.7774365805,-40133.63,-16460.652,38172.77,-2431.3152,92199.586,281.90106,21351.97,71120.04
1386923.7814365758,-40140.055,-16470.094,38167.36,-2437.0933,92189.414,278.07617,21346.803,71119.18
1386923.7854365713,-40142.742,-16487.957,38162.273,-2438.1511,92182.25,277.30307,21340.455,71120.69
1386923.7894365669,-40143.066,-16489.299,38159.383,-2435.7505,92182.414,278.0355,21332.195,71106.695
1386923.7934365624,-40146.973,-16489.014,38153.973,-2436.8083,92183.88,279.09344,21335.37,71106.0
1386923.797436558,-40151.164,-16489.34,38148.926,-2441.4878,92188.234,275.1872,21337.525,71122.56
1386923.8014365532,-40153.85,-16491.334,38146.08,-2444.865,92183.555,270.9554,21330.566,71105.51
1386923.8054365488,-40162.723,-16493.287,38145.266,-2444.2954,92169.64,268.63608,21320.11,71084.39
1386923.8094365443,-40168.54,-16494.873,38148.887,-2441.6099,92171.875,270.06024,21314.535,71074.18
1386923.8134365398,-40168.906,-16497.355,38150.516,-2441.569,92174.234,269.57196,21315.633,71074.26
1386923.8174365351,-40169.23,-16502.727,38149.984,-2444.1326,92173.42,265.01465,21318.238,71090.54
1386923.8214365307,-40174.234,-16510.498,38148.152,-2449.3408,92158.57,260.62012,21314.861,71090.66
1386923.8254365262,-40180.664,-16520.346,38145.71,-2450.399,92150.39,260.13184,21309.082,71085.98
1386923.8294365217,-40178.875,-16522.055,38144.45,-2445.1904,92152.305,262.16635,21305.664,71078.25
1386923.8334365173,-40181.195,-16524.617,38141.848,-2442.3828,92156.82,261.9222,21307.414,71091.02
1386923.8374365126,-40187.215,-16525.92,38136.15,-2446.574,92160.52,257.16147,21305.787,71068.24
1386923.841436508,-40193.523,-16531.332,38130.535,-2453.2878,92159.34,253.41798,21301.596,71058.43
1386923.8454365036,-40196.37,-16534.1,38129.723,-2453.7761,92158.33,255.57455,21298.137,71059.94
1386923.8494364992,-40193.44,-16528.564,38132.164,-2450.3582,92161.91,259.60287,21299.684,71070.68
1386923.8534364945,-40193.156,-16531.617,38135.824,-2448.6084,92165.65,262.3291,21307.943,71084.64
1386923.85743649,-40192.344,-16531.088,38135.336,-2450.8057,92169.31,258.38217,21307.7,71067.016
1386923.8614364855,-40190.836,-16531.861,38132.164,-2458.3335,92163.82,254.76076,21307.617,71075.484
1386923.865436481,-40188.844,-16531.047,38133.3,-2457.9265,92162.4,256.38837,21306.479,71076.42
1386923.8694364766,-40187.46,-16528.484,38135.906,-2453.817,92159.55,260.09116,21307.496,71075.85
1386923.873436472,-40189.21,-16525.025,38138.797,-2452.9624,92170.125,260.37598,21309.814,71085.45
1386923.8774364674,-40187.99,-16523.479,38138.797,-2456.1362,92178.43,256.1849,21315.064,71104.17
1386923.881436463,-40182.78,-16515.748,38138.754,-2460.0017,92176.805,252.44142,21314.332,71094.81
1386923.8854364585,-40178.062,-16511.19,38139.85,-2460.6934,92172.0,252.9297,21310.262,71078.05
1386923.8894364538,-40170.33,-16510.457,38142.78,-2458.5369,92178.71,258.01596,21313.64,71104.66
1386923.8934364493,-40167.117,-16513.428,38144.98,-2459.4727,92181.56,261.75946,21321.045,71122.97
1386923.8974364449,-40165.082,-16504.965,38144.043,-2463.8267,92177.37,260.00977,21323.895,71100.51
1386923.9014364404,-40164.676,-16502.523,38142.66,-2469.1162,92174.44,255.85939,21322.186,71091.02
1386923.905436436,-40168.05,-16506.43,38140.22,-2470.2556,92168.016,255.12697,21317.871,71086.75
1386923.9094364312,-40171.062,-16505.982,38138.184,-2467.6921,92172.08,257.64975,21314.373,71090.62
1386923.9134364268,-40173.83,-16499.676,38135.742,-2465.3728,92183.02,260.66083,21320.068,71107.016
1386923.9174364223,-40176.92,-16505.78,38131.715,-2470.6626,92186.04,256.99872,21322.062,71107.14
1386923.9214364178,-40175.21,-16511.8,38131.062,-2476.4404,92178.67,250.65105,21319.783,71109.78
1386923.9254364134,-40173.465,-16514.975,38134.277,-2477.295,92168.42,250.0407,21314.129,71104.05
1386923.9294364087,-40171.67,-16515.707,38134.89,-2476.115,92159.305,255.24904,21313.111,71088.016
1386923.9334364042,-40170.816,-16511.516,38133.504,-2475.7488,92170.05,258.13803,21320.15,71099.04
1386923.9374363997,-40165.57,-16502.361,38135.703,-2476.6846,92181.97,255.49318,21327.922,71116.91
1386923.9414363953,-40161.38,-16497.885,38133.18,-2479.5737,92178.305,250.61037,21328.654,71126.06
1386923.9454363906,-40158.164,-16496.014,38131.676,-2478.5156,92177.37,250.81381,21325.074,71111.21
1386923.949436386,-40160.32,-16499.879,38132.69,-2475.1792,92179.484,254.1504,21325.643,71101.56
1386923.9534363816,-40166.383,-16497.314,38135.99,-2473.5923,92184.414,257.36493,21335.166,71125.164
1386923.9574363772,-40162.395,-16493.45,38137.535,-2477.8647,92183.44,254.72006,21338.135,71129.56
1386923.9614363727,-40159.953,-16497.682,38139.445,-2481.0386,92179.2,250.24416,21331.91,71120.98
1386923.965436368,-40163.574,-16501.75,38137.777,-2481.8523,92173.95,247.59929,21320.842,71109.46
1386923.9694363635,-40165.934,-16506.43,38135.66,-2478.1902,92173.016,249.47104,21313.72,71103.97
1386923.973436359,-40165.934,-16511.76,38132.324,-2475.8708,92180.95,250.52898,21310.426,71096.234
1386923.9774363546,-40170.574,-16512.004,38129.598,-2480.062,92184.0,247.11101,21311.523,71100.14
1386923.98143635,-40172.28,-16508.545,38129.03,-2484.497,92182.375,241.21094,21303.02,71081.914
1386923.9854363455,-40176.473,-16513.307,38130.414,-2484.0903,92176.64,240.43784,21296.834,71082.69
1386923.989436341,-40176.555,-16513.021,38134.402,-2481.8115,92167.73,242.2282,21293.336,71077.48
1386923.9934363365,-40171.51,-16506.633,38138.145,-2480.9165,92173.51,241.21094,21293.66,71073.125
1386923.997436332,-40171.184,-16509.156,38138.957,-2485.433,92169.72,240.39714,21301.922,71096.44
1386924.0014363274,-40169.434,-16511.678,38136.598,-2492.147,92161.38,238.60678,21300.496,71085.66
1386924.005436323,-40174.03,-16513.062,38130.617,-2495.0767,92156.54,238.68816,21294.271,71065.06
1386924.0094363184,-40181.766,-16519.328,38127.89,-2491.5771,92158.05,241.94336,21293.904,71070.516
1386924.013436314,-40187.258,-16520.143,38126.668,-2490.2751,92167.36,242.6351,21301.229,71084.35
1386924.0174363093,-40192.3,-16521.24,38119.266,-2494.5884,92167.28,241.25163,21303.143,71079.8
1386924.0214363048,-40197.023,-16529.012,38111.816,-2500.6104,92160.85,238.19987,21300.13,71074.67
1386924.0254363003,-40197.918,-16529.826,38110.598,-2500.3662,92154.09,236.61296,21296.469,71073.85
1386924.0294362959,-40197.227,-16530.111,38114.055,-2496.338,92157.88,237.79297,21294.8,71078.9
1386924.0334362914,-40198.12,-16534.791,38115.562,-2497.8435,92158.37,236.8164,21301.148,71089.805
1386924.0374362867,-40197.023,-16535.28,38114.137,-2502.9705,92156.91,233.84604,21306.805,71086.55
1386924.0414362822,-40195.72,-16539.795,38108.48,-2508.5857,92150.516,230.71289,21303.63,71076.7
1386924.0454362778,-40196.777,-16539.674,38106.812,-2507.243,92144.58,229.20737,21295.857,71069.7
1386924.0494362733,-40201.62,-16540.895,38107.547,-2502.6042,92151.77,229.81772,21291.951,71063.97
1386924.0534362686,-40199.87,-16537.639,38106.324,-2500.7732,92160.28,229.49219,21298.016,71078.33
1386924.0574362641,-40199.137,-16534.547,38101.32,-2505.371,92157.63,226.03354,21300.537,71076.7
1386924.0614362597,-40200.93,-16535.115,38096.477,-2511.2712,92154.26,222.69695,21295.736,71059.9
1386924.0654362552,-40199.3,-16533.123,38094.32,-2508.7078,92151.25,223.14453,21288.209,71050.945
1386924.0694362507,-40206.3,-16539.715,38097.453,-2505.4932,92154.3,226.19629,21288.209,71064.54
1386924.073436246,-40215.78,-16551.799,38097.535,-2507.487,92150.31,224.40593,21286.174,71067.016
1386924.0774362416,-40221.52,-16566.447,38099.69,-2512.2478,92141.69,221.11003,21287.639,71051.07
1386924.081436237,-40213.707,-16560.467,38103.152,-2513.6313,92143.48,217.36655,21278.523,71022.26
1386924.0854362326,-40211.266,-16557.455,38103.312,-2512.9395,92141.445,216.51205,21267.537,71023.12
1386924.0894362282,-40214.887,-16557.537,38101.562,-2509.2368,92142.055,220.29623,21266.195,71028.57
1386924.0934362235,-40216.84,-16551.148,38101.93,-2507.1616,92147.75,222.4935,21273.193,71029.7
1386924.097436219,-40207.6,-16550.252,38102.133,-2509.603,92149.13,219.36035,21278.117,71035.484
1386924.1014362145,-40203.207,-16548.828,38102.664,-2513.3464,92147.99,216.26791,21281.617,71046.1
1386924.10543621,-40204.266,-16546.875,38106.65,-2511.5967,92147.055,216.38998,21280.396,71041.47
1386924.1094362054,-40205.934,-16550.252,38111.29,-2508.789,92139.04,218.46518,21280.152,71044.555
1386924.113436201,-40206.055,-16555.135,38115.684,-2508.9111,92141.89,218.83139,21287.842,71063.27
1386924.1174361964,-40205.242,-16555.828,38115.074,-2511.963,92141.766,214.72168,21292.318,71073.57
1386924.121436192,-40206.22,-16552.572,38112.266,-2514.3638,92139.695,208.69955,21285.115,71049.03
1386924.1254361875,-40207.316,-16549.725,38107.91,-2513.2244,92138.875,207.6416,21281.576,71058.76
1386924.1294361828,-40205.16,-16541.504,38104.29,-2507.4058,92144.21,209.7168,21281.047,71057.336
1386924.1334361783,-40208.7,-16540.324,38103.07,-2506.063,92150.72,211.95476,21286.662,71059.82
1386924.1374361739,-40211.55,-16538.86,38102.742,-2511.2305,92149.7,211.22234,21294.842,71071.01
1386924.1414361694,-40213.055,-16543.904,38102.824,-2516.3574,92148.16,210.04233,21295.777,71061.16
1386924.1454361647,-40213.95,-16554.484,38104.695,-2518.4326,92141.52,212.11752,21295.736,71070.4
1386924.1494361602,-40218.223,-16551.88,38105.836,-2517.1306,92137.695,213.58237,21292.684,71077.64
1386924.1534361558,-40217.734,-16552.084,38106.527,-2515.4216,92142.91,213.17546,21290.691,71055.83
1386924.1574361513,-40216.51,-16558.064,38102.133,-2520.0195,92140.26,208.25195,21288.006,71050.17
1386924.1614361468,-40215.863,-16558.879,38097.94,-2522.3389,92129.234,203.45053,21282.35,71054.41
1386924.1654361421,-40220.867,-16556.111,38096.07,-2520.5078,92127.0,203.97949,21275.39,71042.69
1386924.1694361377,-40215.945,-16552.49,38098.188,-2516.439,92132.9,207.84506,21270.387,71032.35
1386924.1734361332,-40215.74,-16553.875,38094.484,-2516.7644,92143.19,208.61816,21272.502,71054.0
1386924.1774361287,-40220.46,-16559.734,38086.67,-2522.4204,92140.42,206.90918,21275.758,71059.9
1386924.181436124,-40224.855,-16570.191,38084.88,-2528.9307,92131.39,202.96225,21268.963,71044.64
1386924.1854361196,-40225.71,-16573.162,38089.97,-2526.408,92128.26,200.39877,21258.871,71036.79
1386924.189436115,-40226.605,-16571.736,38094.32,-2523.275,92131.68,200.43945,21247.885,71008.75
1386924.1934361106,-40226.523,-16574.139,38094.24,-2523.0713,92136.31,200.56152,21250.326,71006.8
1386924.1974361062,-40230.227,-16573.162,38089.152,-2525.6755,92137.45,200.23601,21265.096,71034.55
1386924.2014361015,-40234.863,-16579.225,38082.03,-2529.9888,92132.24,197.59116,21269.328,71040.125
1386924.205436097,-40232.504,-16580.037,38082.766,-2526.286,92134.16,200.72429,21269.451,71033.695
1386924.2094360925,-40227.094,-16575.44,38090.375,-2520.1416,92138.76,209.06577,21278.28,71052.94
1386924.213436088,-40222.008,-16566.854,38096.56,-2517.3748,92145.67,213.74512,21290.242,71070.6
1386924.2174360836,-40220.582,-16558.676,38096.76,-2519.6533,92152.55,212.52441,21298.543,71078.82
1386924.221436079,-40223.105,-16560.262,38093.305,-2524.8618,92147.79,210.32715,21300.416,71081.055
1386924.2254360744,-40230.918,-16574.057,38090.902,-2526.2046,92137.9,210.9375,21292.889,71074.95
1386924.22943607,-40234.54,-16580.445,38093.387,-2522.3796,92136.68,210.69336,21281.088,71053.8
1386924.2334360655,-40235.15,-16579.754,38093.914,-2518.0664,92141.6,210.53061,21279.012,71049.234
1386924.2374360608,-40233.6,-16577.393,38094.08,-2519.572,92141.484,207.6416,21280.844,71051.59
1386924.2414360563,-40235.92,-16585.572,38089.56,-2525.6348,92130.58,202.3519,21276.814,71052.66
1386924.2454360519,-40233.523,-16584.025,38091.88,-2524.9023,92127.73,200.11394,21265.951,71039.31
1386924.2494360474,-40225.098,-16573.568,38097.293,-2518.7175,92131.76,199.46289,21256.633,71005.945
1386924.253436043,-40224.895,-16571.86,38098.062,-2516.9272,92140.14,200.84636,21261.395,71015.55
1386924.2574360382,-40228.355,-16575.969,38096.07,-2520.6707,92138.19,199.58496,21270.793,71045.25
1386924.2614360338,-40231.0,-16585.572,38092.203,-2525.6348,92132.445,195.3532,21267.01,71038.984
1386924.2654360293,-40229.574,-16587.77,38097.453,-2522.1763,92120.77,194.33594,21256.959,71008.06
1386924.2694360248,-40226.48,-16581.87,38103.68,-2516.9272,92125.41,196.85873,21259.93,71025.516
1386924.2734360201,-40220.99,-16576.58,38105.47,-2515.625,92130.49,200.76498,21272.014,71057.45
1386924.2774360157,-40220.01,-16576.54,38100.3,-2519.6533,92134.85,200.72429,21278.361,71042.805
1386924.2814360112,-40228.92,-16578.736,38092.125,-2527.7507,92127.52,199.62566,21282.43,71054.94
1386924.2854360067,-40238.16,-16581.258,38089.64,-2529.4597,92121.016,199.70703,21275.96,71047.69
1386924.2894360023,-40232.83,-16581.502,38094.77,-2525.1873,92127.93,200.43945,21269.572,71047.2
1386924.2934359976,-40228.11,-16576.58,38094.85,-2521.6064,92135.586,200.64291,21268.963,71066.53
1386924.297435993,-40225.14,-16575.887,38097.047,-2523.2341,92134.93,196.08562,21266.684,71073.49
1386924.3014359886,-40219.156,-16571.941,38097.984,-2524.4548,92134.16,187.5407,21254.639,71049.03
1386924.3054359842,-40219.08,-16568.28,38096.68,-2521.7285,92137.945,183.87859,21242.799,71026.734
1386924.3094359795,-40222.453,-16568.97,38097.086,-2519.0837,92134.61,187.70346,21242.352,71027.95
1386924.313435975,-40225.465,-16568.36,38096.355,-2520.8335,92139.08,190.47038,21245.076,71022.586
1386924.3174359705,-40230.67,-16570.76,38089.6,-2527.6694,92137.17,188.7207,21250.488,71027.06
1386924.321435966,-40237.508,-16575.48,38082.723,-2533.3252,92132.81,186.07585,21250.652,71034.586
1386924.3254359616,-40245.117,-16587.85,38079.508,-2535.6853,92126.266,185.54688,21243.49,71009.56
1386924.329435957,-40247.152,-16588.99,38079.67,-2533.4067,92128.09,189.45312,21245.646,71015.26
1386924.3334359524,-40248.375,-16588.705,38080.812,-2529.8667,92132.98,190.87729,21250.447,71023.27
1386924.337435948,-40241.945,-16584.758,38081.016,-2530.0293,92136.6,186.11655,21250.53,71025.15
1386924.3414359435,-40240.766,-16587.2,38081.18,-2533.1218,92130.91,180.9896,21246.379,71016.93
1386924.345435939,-40243.29,-16592.977,38079.957,-2532.3894,92126.38,180.74545,21239.137,71003.625
1386924.3494359343,-40249.35,-16589.031,38077.23,-2529.663,92124.48,183.06479,21235.352,70995.08
1386924.3534359299,-40249.39,-16587.361,38076.906,-2529.4597,92132.0,183.91928,21240.643,71008.38
1386924.3574359254,-40247.113,-16585.652,38076.133,-2534.668,92135.055,180.37924,21245.281,71017.375
1386924.361435921,-40246.5,-16586.182,38076.215,-2538.2488,92121.625,177.04265,21247.479,71026.9
1386924.3654359162,-40246.01,-16584.27,38079.875,-2534.953,92120.61,174.96745,21240.031,71018.39
1386924.3694359118,-40244.754,-16588.867,38085.9,-2531.0059,92123.7,174.96745,21232.463,71017.78
1386924.3734359073,-40242.92,-16589.803,38088.707,-2528.3203,92127.56,175.5778,21233.277,71024.09
1386924.3774359028,-40243.734,-16589.682,38086.793,-2530.5176,92125.61,171.46811,21232.951,71007.2
1386924.3814358984,-40246.42,-16596.232,38080.61,-2536.6619,92114.1,170.61362,21233.521,71005.78
1386924.3854358937,-40257.164,-16607.463,38074.42,-2539.3066,92113.0,174.60124,21233.846,71009.69
1386924.3894358892,-40268.027,-16617.799,38067.75,-2540.7715,92108.805,179.60612,21234.498,71011.97
1386924.3934358847,-40270.47,-16620.729,38064.82,-2542.4805,92108.28,185.38412,21240.682,71017.54
1386924.3974358803,-40271.08,-16617.066,38061.973,-2546.9565,92110.64,182.1289,21243.408,71012.62
1386924.4014358756,-40273.4,-16618.938,38063.07,-2550.537,92109.87,178.0599,21241.496,71014.734
1386924.405435871,-40271.16,-16617.84,38070.11,-2548.7876,92105.72,176.31023,21231.648,71003.42
1386924.4094358666,-40268.84,-16611.125,38072.51,-2542.562,92107.99,178.0599,21223.47,70984.54
1386924.4134358622,-40275.594,-16614.217,38072.67,-2540.7715,92104.9,179.36198,21227.092,70984.5
1386924.4174358577,-40273.52,-16612.508,38070.883,-2543.1724,92108.12,175.2116,21227.336,70981.734
1386924.421435853,-40271.65,-16609.742,38065.31,-2546.6309,92102.13,168.49773,21218.22,70966.07
1386924.4254358485,-40276.41,-16614.38,38057.742,-2548.0957,92095.13,168.37566,21214.723,70977.945
1386924.429435844,-40278.28,-16614.217,38057.047,-2547.5261,92099.61,170.85776,21217.041,70999.39
1386924.4334358396,-40274.66,-16611.328,38059.45,-2547.0786,92112.39,172.56674,21224.488,70990.32
1386924.437435835,-40270.793,-16607.625,38059.773,-2550.293,92119.8,169.7998,21231.486,70997.16
1386924.4414358304,-40266.4,-16603.23,38059.33,-2555.949,92116.82,166.17839,21234.701,71025.516
1386924.445435826,-40259.766,-16600.18,38061.16,-2554.1992,92112.15,164.42871,21227.092,70997.88
1386924.4494358215,-40254.152,-16592.855,38066.57,-2551.0662,92114.46,168.13152,21224.691,70995.73
1386924.453435817,-40252.566,-16593.588,38067.71,-2552.938,92116.87,171.46811,21231.812,71014.65
1386924.4574358123,-40256.188,-16603.842,38067.668,-2558.1462,92110.6,170.77637,21234.295,71014.164
1386924.4614358079,-40264.566,-16611.004,38063.477,-2563.2324,92107.38,167.60254,21226.36,70999.92
1386924.4654358034,-40269.613,-16617.717,38060.223,-2565.3892,92109.7,168.5791,21218.385,70989.75
1386924.469435799,-40275.434,-16615.846,38057.496,-2565.145,92114.305,172.44467,21217.977,70997.766
1386924.4734357942,-40280.355,-16611.98,38054.73,-2566.325,92119.1,174.3978,21216.717,70982.79
1386924.4774357898,-40286.05,-16620.646,38049.52,-2571.5332,92115.28,172.07846,21218.588,70983.805
1386924.4814357853,-40285.81,-16627.482,38045.9,-2577.5554,92105.63,169.39291,21217.938,70985.96
1386924.4854357808,-40279.094,-16619.426,38045.207,-2575.7651,92101.484,171.54948,21214.64,70987.875
1386924.4894357764,-40275.23,-16613.729,38047.406,-2569.7021,92102.91,174.68262,21214.275,70973.96
1386924.4934357717,-40269.86,-16612.387,38048.83,-2568.685,92106.0,177.12402,21226.441,70993.086
1386924.4974357672,-40270.145,-16610.596,38043.785,-2573.527,92108.69,176.4323,21239.258,71012.62
1386924.5014357627,-40279.746,-16620.973,38038.414,-2579.834,92109.5,175.41504,21240.967,70997.73
1386924.5054357583,-40284.06,-16630.697,38040.12,-2581.3804,92112.555,175.13022,21235.678,70977.79
1386924.5094357538,-40286.297,-16631.43,38046.387,-2577.0671,92112.15,175.53711,21234.945,70990.84
1386924.513435749,-40283.082,-16625.732,38051.27,-2573.2017,92107.47,173.66537,21231.854,70972.45
1386924.5174357446,-40277.1,-16623.291,38055.79,-2572.998,92111.086,170.12534,21234.986,70976.73
1386924.5214357402,-40272.38,-16620.85,38056.4,-2576.294,92106.08,166.5853,21237.957,70998.54
1386924.5254357357,-40277.957,-16628.418,38051.8,-2576.1719,92101.195,166.38184,21233.48,71009.28
1386924.529435731,-40283.246,-16626.668,38050.293,-2573.12,92107.55,167.07358,21224.895,70989.42
1386924.5334357265,-40286.418,-16620.24,38050.62,-2570.6787,92112.35,168.00945,21230.021,71008.83
1386924.537435722,-40287.76,-16620.729,38049.156,-2574.585,92110.35,166.5446,21230.55,71006.72
1386924.5414357176,-40281.535,-16621.338,38051.676,-2578.2065,92107.38,163.77768,21223.918,70977.945
1386924.5454357131,-40284.223,-16623.373,38051.555,-2577.1892,92106.77,162.27214,21212.281,70966.59
1386924.5494357084,-40283.043,-16626.994,38051.8,-2572.7134,92107.71,162.88249,21201.783,70953.29
1386924.553435704,-40285.074,-16627.197,38050.863,-2570.1904,92108.65,163.04526,21200.643,70949.55
1386924.5574356995,-40289.39,-16629.395,38045.492,-2573.6492,92109.42,161.86523,21202.922,70948.734
1386924.561435695,-40289.266,-16632.65,38039.062,-2580.9326,92102.055,159.87143,21201.742,70950.766
1386924.5654356903,-40291.42,-16637.29,38033.895,-2582.6416,92098.15,158.81348,21196.004,70960.82
1386924.5694356859,-40287.965,-16637.004,38035.727,-2579.3052,92095.46,163.2894,21196.615,70964.73
1386924.5734356814,-40285.562,-16632.65,38036.05,-2578.8982,92101.28,165.85287,21202.8,70956.18
1386924.577435677,-40290.934,-16629.842,38033.69,-2583.252,92105.19,164.55078,21214.559,70982.18
1386924.5814356725,-40294.637,-16637.86,38032.188,-2588.623,92101.16,163.41147,21223.592,70992.555
1386924.5854356678,-40295.168,-16635.621,38036.176,-2587.1177,92100.1,164.42871,21223.43,70992.19
1386924.5894356633,-40294.637,-16629.924,38040.0,-2583.4556,92099.77,164.14389,21220.418,70983.234
1386924.5934356588,-40296.633,-16633.748,38039.51,-2583.659,92101.445,163.49284,21222.494,70981.9
1386924.5974356544,-40297.61,-16639.08,38038.047,-2588.1348,92102.99,162.67905,21225.342,70987.59
1386924.6014356497,-40296.47,-16640.38,38035.117,-2593.1804,92100.47,159.91211,21223.959,70988.734
1386924.6054356452,-40299.52,-16637.615,38031.94,-2592.5293,92090.87,160.15625,21221.559,70985.88
1386924.6094356407,-40308.473,-16641.195,38029.83,-2588.5417,92091.02,163.04526,21219.441,70979.25
1386924.6134356363,-40312.99,-16642.578,38030.152,-2586.67,92098.836,162.028,21218.303,70958.414
1386924.6174356318,-40312.582,-16648.275,38029.137,-2589.9658,92095.55,158.89487,21221.07,70966.02
1386924.621435627,-40313.355,-16653.973,38028.81,-2595.0522,92090.414,155.55827,21214.764,70959.19
1386924.6254356226,-40312.83,-16653.484,38031.332,-2593.628,92088.71,154.98862,21205.037,70945.516
1386924.6294356182,-40309.773,-16652.223,38038.168,-2588.8672,92089.93,157.10449,21202.922,70949.875
1386924.6334356137,-40309.164,-16651.043,38045.125,-2586.7515,92096.48,157.4707,21206.625,70955.77
1386924.6374356092,-40308.105,-16650.635,38042.97,-2590.861,92098.11,156.53484,21213.217,70959.8
1386924.6414356045,-40307.09,-16657.879,38038.74,-2597.819,92094.2,155.63965,21218.629,70970.7
1386924.6454356,-40306.723,-16651.896,38036.38,-2597.9412,92087.04,157.59277,21219.727,70975.75
1386924.6494355956,-40309.613,-16641.602,38035.77,-2591.5527,92090.91,160.44109,21220.174,70974.77
1386924.6534355911,-40302.695,-16640.137,38033.977,-2589.437,92099.695,161.82455,21225.83,70985.07
1386924.6574355864,-40300.05,-16641.521,38032.918,-2592.163,92103.64,160.07487,21236.736,71006.67
1386924.661435582,-40301.434,-16643.555,38030.723,-2596.0693,92097.7,156.81967,21235.19,70997.44
1386924.6654355775,-40302.734,-16646.893,38033.53,-2593.1804,92092.77,154.37827,21224.936,70990.89
1386924.669435573,-40301.555,-16649.74,38033.773,-2586.4666,92091.64,152.87273,21213.217,70976.484
1386924.6734355686,-40301.066,-16649.129,38032.51,-2585.2866,92093.63,152.38445,21210.979,70965.09
1386924.6774355639,-40304.402,-16648.396,38025.31,-2591.4307,92093.836,149.49545,21215.332,70979.375
1386924.6814355594,-40306.195,-16646.078,38018.027,-2597.168,92088.38,149.33269,21221.762,71004.11
1386924.685435555,-40304.605,-16645.428,38016.44,-2595.1743,92090.21,151.36719,21216.188,70979.66
1386924.6894355505,-40304.28,-16645.387,38018.555,-2591.8784,92097.45,154.37827,21209.92,70961.8
1386924.6934355458,-40303.996,-16640.992,38023.805,-2590.6577,92098.96,154.78516,21210.979,70978.35
1386924.6974355413,-40312.543,-16654.826,38021.402,-2595.7031,92095.79,149.08855,21211.385,70968.305
1386924.7014355368,-40317.71,-16659.912,38020.348,-2600.8708,92083.664,146.32162,21208.293,70958.7
1386924.7054355324,-40315.105,-16657.39,38023.97,-2601.3591,92078.78,148.15268,21198.365,70942.99
1386924.709435528,-40310.996,-16659.424,38028.117,-2595.866,92078.78,152.26237,21196.574,70948.08
1386924.7134355232,-40305.016,-16655.885,38031.414,-2593.7095,92083.17,155.11069,21204.754,70960.05
1386924.7174355187,-40309.285,-16656.738,38028.85,-2597.982,92089.4,153.8086,21210.775,70972.62
1386924.7214355143,-40314.86,-16664.47,38023.97,-2603.231,92089.234,149.86166,21213.299,70985.84
1386924.7254355098,-40314.168,-16666.504,38023.52,-2602.2136,92086.23,149.98373,21210.287,70973.266
1386924.729435505,-40309.816,-16652.508,38027.875,-2598.3481,92091.43,153.03549,21210.084,70971.68
1386924.7334355006,-40309.45,-16651.246,38030.438,-2596.4355,92094.484,153.19824,21214.438,70985.96
1386924.7374354962,-40307.008,-16652.588,38031.863,-2597.9412,92091.19,151.89616,21220.744,70993.57
1386924.7414354917,-40302.816,-16651.043,38031.168,-2600.2197,92078.375,149.25131,21221.639,70998.91
1386924.7454354872,-40297.934,-16655.762,38030.113,-2596.6797,92079.76,149.16992,21212.729,70967.45
1386924.7494354825,-40301.027,-16650.066,38029.95,-2593.1396,92083.87,151.93686,21210.287,70967.86
1386924.753435478,-40313.926,-16653.809,38026.734,-2594.808,92087.734,154.6224,21218.182,70996.75
1386924.7574354736,-40308.39,-16652.996,38023.438,-2596.11,92094.41,153.27963,21217.45,70981.484
1386924.7614354691,-40305.95,-16651.896,38017.54,-2599.2026,92089.69,149.08855,21215.535,70991.58
1386924.7654354647,-40309.246,-16655.03,38019.004,-2597.4937,92083.01,145.71127,21205.281,70983.44
1386924.76943546,-40305.746,-16648.113,38022.83,-2592.2852,92086.59,143.59538,21191.61,70950.234
1386924.7734354555,-40303.836,-16639.69,38022.46,-2589.6404,92095.55,142.37468,21191.121,70964.68
1386924.777435451,-40305.137,-16649.129,38023.113,-2592.2446,92094.32,137.69531,21193.36,70975.51
1386924.7814354466,-40306.766,-16658.977,38020.266,-2596.9238,92083.26,132.8125,21191.365,70958.7
1386924.7854354419,-40309.855,-16662.965,38014.977,-2597.575,92074.83,131.87663,21185.914,70958.3
1386924.7894354374,-40312.785,-16662.232,38013.43,-2596.273,92080.65,133.2601,21178.63,70945.68
1386924.793435433,-40314.74,-16663.086,38011.76,-2595.2556,92088.586,135.86426,21179.729,70946.984
1386924.7974354285,-40316.0,-16661.336,38012.9,-2598.1853,92091.11,136.35254,21187.5,70952.88
1386924.801435424,-40319.297,-16660.97,38017.703,-2601.522,92086.76,134.64355,21190.715,70957.195
1386924.8054354193,-40323.082,-16666.016,38015.992,-2599.0398,92086.67,134.0332,21184.45,70946.58
1386924.8094354148,-40324.06,-16666.219,38018.11,-2594.1978,92087.32,137.12566,21182.008,70944.46
1386924.8134354104,-40323.773,-16667.562,38020.59,-2594.6045,92087.65,137.98015,21186.482,70954.305
1386924.817435406,-40320.11,-16668.783,38021.445,-2597.2087,92088.46,135.21323,21188.924,70958.05
1386924.8214354012,-40317.3,-16670.94,38020.305,-2602.6206,92084.31,132.24284,21184.367,70946.25
1386924.8254353967,-40317.3,-16668.54,38015.992,-2602.0508,92085.62,132.56836,21180.867,70949.67
1386924.8294353923,-40316.734,-16666.545,38013.31,-2597.6157,92088.79,137.16635,21178.63,70945.44
1386924.8334353878,-40317.832,-16662.8,38016.48,-2596.0693,92093.266,138.75327,21181.396,70944.42
1386924.8374353833,-40324.016,-16658.977,38014.363,-2600.1792,92097.62,137.49187,21189.088,70956.22
1386924.8414353787,-40328.74,-16658.082,38012.453,-2604.2075,92092.53,134.23666,21188.314,70952.516
1386924.8454353742,-40331.258,-16666.016,38013.633,-2603.7598,92092.05,132.28354,21182.617,70969.98
1386924.8494353697,-40329.918,-16669.271,38017.62,-2598.9585,92090.21,134.23666,21179.646,70968.47
1386924.8534353653,-40326.54,-16673.016,38020.47,-2596.9646,92083.5,133.87045,21178.793,70956.38
1386924.8574353606,-40326.17,-16672.81,38019.125,-2601.644,92086.71,132.60905,21183.229,70966.92
1386924.861435356,-40326.5,-16678.67,38014.285,-2605.7537,92078.78,132.44629,21188.03,70972.49
1386924.8654353516,-40324.26,-16676.88,38011.312,-2605.9978,92072.92,132.48698,21186.523,70965.336
1386924.8694353472,-40328.9,-16672.771,38007.938,-2603.5972,92075.85,136.80014,21189.494,70972.62
1386924.8734353427,-40328.94,-16669.475,38006.633,-2602.417,92084.48,138.1836,21187.664,70932.54
1386924.877435338,-40330.895,-16673.504,38003.582,-2606.649,92077.555,137.93945,21194.215,70945.195
1386924.8814353335,-40340.414,-16683.514,37997.438,-2614.2578,92068.41,135.66081,21193.727,70946.21
1386924.885435329,-40346.56,-16693.4,37994.59,-2617.3503,92058.84,134.0739,21182.576,70928.14
1386924.8894353246,-40348.676,-16697.795,37997.152,-2615.031,92056.36,135.00977,21173.87,70913.086
1386924.89343532,-40351.32,-16705.078,37997.152,-2615.438,92059.05,134.39941,21174.195,70921.15
1386924.8974353154,-40355.31,-16709.27,37996.137,-2617.9607,92058.68,130.57455,21175.945,70932.01
1386924.901435311,-40357.504,-16713.705,37997.64,-2620.0767,92057.74,125.52898,21170.248,70917.195
1386924.9054353065,-40360.15,-16720.744,37997.195,-2618.8152,92058.64,124.87793,21165.486,70909.34
1386924.909435302,-40358.523,-16706.34,37999.39,-2612.1826,92063.93,127.40072,21163.982,70899.5
1386924.9134352973,-40352.742,-16693.28,37999.105,-2608.2764,92077.6,130.00488,21171.102,70913.984
1386924.9174352929,-40352.05,-16695.395,37990.52,-2614.1765,92076.87,127.19727,21176.596,70921.555
1386924.9214352884,-40356.0,-16704.225,37985.11,-2618.2048,92068.85,126.180016,21178.63,70924.6
1386924.925435284,-40361.9,-16705.607,37986.816,-2618.042,92062.09,127.27865,21172.322,70906.414
1386924.9294352795,-40366.863,-16715.74,37991.293,-2616.4146,92060.914,130.33041,21168.457,70910.16
1386924.9334352748,-40363.445,-16714.844,37998.21,-2615.2344,92062.26,130.98145,21171.916,70920.984
1386924.9374352703,-40357.75,-16715.7,38000.246,-2616.618,92068.81,129.92351,21178.182,70936.28
1386924.9414352658,-40352.418,-16712.688,38000.734,-2617.4316,92066.29,127.0752,21176.799,70928.59
1386924.9454352614,-40349.285,-16703.451,37998.82,-2615.438,92067.1,125.569664,21171.916,70922.81
1386924.9494352567,-40354.617,-16696.736,37996.867,-2611.4502,92074.22,128.2959,21175.863,70935.34
1386924.9534352522,-40357.953,-16698.242,37996.258,-2610.3516,92082.03,130.65593,21189.332,70964.03
1386924.9574352477,-40350.26,-16697.348,37996.582,-2613.078,92076.664,130.24902,21194.418,70945.64
1386924.9614352433,-40341.96,-16691.57,37995.934,-2615.1938,92067.55,126.79037,21187.582,70923.1
1386924.9654352388,-40336.67,-16692.18,38002.688,-2612.671,92065.96,126.38347,21182.293,70933.555
1386924.969435234,-40337.566,-16702.312,38009.562,-2606.771,92070.36,129.76074,21180.176,70938.44
1386924.9734352296,-40333.7,-16700.115,38011.76,-2605.4282,92071.21,129.67937,21181.152,70935.586
1386924.9774352252,-40330.484,-16697.062,38008.75,-2609.2124,92066.66,128.21452,21184.979,70944.74
1386924.9814352207,-40331.87,-16701.457,38006.266,-2613.2812,92063.88,127.03451,21184.938,70946.58
1386924.985435216,-40331.586,-16702.312,38003.176,-2614.0952,92065.02,126.87175,21177.287,70937.664
1386924.9894352115,-40339.4,-16697.55,38000.33,-2609.0903,92069.54,130.04558,21176.148,70934.9
1386924.993435207,-40346.316,-16700.807,37998.863,-2608.48,92070.36,131.5918,21180.217,70939.01
1386924.9974352026,-40351.32,-16704.387,37994.06,-2616.4146,92069.22,129.10971,21184.246,70937.055
1386925.0014351981,-40353.434,-16704.754,37988.324,-2624.878,92057.87,125.24415,21184.041,70946.54
1386925.0054351934,-40353.72,-16713.014,37990.195,-2624.878,92050.54,124.34896,21177.043,70938.68
1386925.009435189,-40349.57,-16706.299,37993.816,-2620.402,92058.84,126.74968,21176.107,70942.99
1386925.0134351845,-40340.13,-16704.021,37997.195,-2617.391,92071.58,127.929695,21183.717,70951.91
1386925.01743518,-40339.64,-16699.545,37994.996,-2621.582,92079.43,125.691734,21193.238,70971.4
1386925.0214351753,-40343.996,-16699.666,37987.996,-2626.3022,92077.555,121.58203,21194.459,70987.39
1386925.0254351709,-40351.32,-16705.69,37985.15,-2630.0457,92077.805,120.56478,21184.814,70969.41
1386925.0294351664,-40357.137,-16706.99,37986.574,-2629.6387,92077.516,123.45378,21177.41,70949.586
1386925.033435162,-40360.883,-16701.945,37990.438,-2629.232,92077.27,125.97657,21180.787,70954.266
1386925.0374351575,-40364.543,-16704.754,37991.254,-2633.545,92077.07,122.84343,21182.21,70950.97
1386925.0414351528,-40367.066,-16711.59,37989.34,-2641.2354,92068.52,120.80892,21179.973,70952.76
1386925.0454351483,-40361.207,-16710.287,37996.867,-2640.2996,92064.17,122.84343,21171.387,70940.72
1386925.0494351438,-40357.504,-16709.025,38001.223,-2634.5215,92064.91,126.180016,21167.969,70933.39
1386925.0534351394,-40358.4,-16712.117,38000.45,-2632.1208,92068.93,127.27865,21171.713,70937.42
1386925.057435135,-40356.527,-16712.729,37994.305,-2635.1726,92072.67,125.0,21180.258,70962.98
1386925.0614351302,-40361.734,-16715.088,37986.734,-2641.0728,92067.266,117.1875,21177.205,70947.23
1386925.0654351257,-40374.39,-16720.703,37980.062,-2649.0073,92055.51,108.72396,21164.43,70926.516
1386925.0694351213,-40371.785,-16719.238,37982.42,-2648.5596,92053.39,106.85222,21157.146,70907.76
1386925.0734351168,-40369.1,-16719.32,37984.133,-2649.0886,92057.91,105.143234,21157.879,70914.266
1386925.077435112,-40377.035,-16725.3,37977.824,-2656.0059,92051.84,101.969406,21162.68,70923.305
1386925.0814351076,-40385.418,-16730.998,37972.21,-2663.086,92046.1,98.79558,21162.557,70924.69
1386925.0854351032,-40388.023,-16736.736,37970.543,-2664.5508,92034.47,97.941086,21155.518,70920.984
1386925.0894350987,-40387.613,-16743.328,37970.297,-2659.8716,92044.195,100.05697,21149.74,70921.67
1386925.0934350942,-40385.99,-16737.713,37968.305,-2656.9011,92050.46,101.68457,21150.432,70926.35
1386925.0974350895,-40380.496,-16734.295,37967.164,-2660.1562,92047.65,98.91765,21152.629,70940.15
1386925.101435085,-40383.26,-16739.34,37962.16,-2665.446,92040.695,93.62793,21145.346,70924.805
1386925.1054350806,-40387.086,-16735.76,37961.754,-2663.1675,92041.95,88.05339,21131.348,70893.64
1386925.1094350761,-40380.74,-16724.365,37965.863,-2656.942,92049.52,89.35547,21127.727,70895.47
1386925.1134350714,-40372.4,-16717.814,37969.81,-2655.5583,92049.805,91.430664,21134.441,70909.305
1386925.117435067,-40369.06,-16726.4,37969.605,-2661.255,92048.51,88.37891,21142.742,70923.83
1386925.1214350625,-40372.07,-16730.021,37964.723,-2667.7654,92044.97,86.222336,21145.264,70935.51
1386925.125435058,-40377.36,-16730.307,37962.242,-2667.5212,92040.695,87.03613,21143.555,70937.26
1386925.1294350536,-40380.7,-16731.445,37962.16,-2665.4868,92042.69,90.0472,21139.445,70918.625
1386925.1334350489,-40383.383,-16730.916,37964.234,-2666.626,92044.766,94.36035,21145.875,70921.35
1386925.1374350444,-40391.6,-16742.146,37960.125,-2671.875,92045.62,93.22103,21154.705,70935.63
1386925.14143504,-40395.387,-16748.414,37955.77,-2677.8564,92038.62,90.73894,21155.844,70932.82
1386925.1454350355,-40398.723,-16751.629,37956.22,-2678.3042,92031.3,90.779625,21148.52,70908.734
1386925.1494350308,-40400.027,-16753.662,37958.293,-2677.2056,92035.32,93.09896,21145.955,70910.89
1386925.1534350263,-40401.164,-16746.053,37961.55,-2675.2524,92041.38,96.51693,21150.879,70914.15
1386925.1574350218,-40402.223,-16740.52,37960.777,-2678.0193,92044.11,94.319664,21150.879,70908.9
1386925.1614350174,-40403.973,-16741.74,37955.895,-2681.5186,92038.21,88.012695,21139.16,70887.734
1386925.165435013,-40408.33,-16750.123,37951.58,-2679.8503,92036.42,86.995445,21127.85,70872.32
1386925.1694350082,-40406.617,-16747.314,37951.99,-2674.642,92038.54,89.640305,21128.338,70888.39
1386925.1734350037,-40399.008,-16738.77,37953.816,-2669.8406,92043.91,91.30859,21135.783,70891.36
1386925.1774349993,-40419.312,-16740.682,37955.69,-2672.16,92048.586,90.20996,21147.584,70906.54
1386925.1814349948,-40414.062,-16743.816,37951.01,-2680.1758,92041.51,87.768555,21153.932,70919.11
1386925.1854349903,-40392.457,-16747.234,37944.176,-2684.367,92040.04,89.59961,21151.652,70926.11
1386925.1894349856,-40393.23,-16752.117,37945.76,-2682.4546,92037.11,93.70931,21150.838,70935.914
1386925.1934349812,-40394.33,-16754.232,37951.785,-2680.2166,92040.86,95.37761,21150.96,70906.336
1386925.1974349767,-40394.125,-16745.158,37953.25,-2680.9897,92045.74,92.48861,21150.105,70898.766
1386925.2014349722,-40398.64,-16747.07,37953.25,-2682.9429,92041.67,86.95476,21146.24,70904.99
1386925.2054349675,-40400.758,-16751.344,37952.395,-2681.2744,92036.18,86.18164,21137.371,70898.69
1386925.209434963,-40396.2,-16746.826,37951.336,-2675.3337,92036.99,88.62305,21129.72,70884.445
1386925.2134349586,-40394.125,-16742.84,37950.035,-2671.9158,92047.57,89.92513,21128.744,70892.17
1386925.2174349541,-40397.664,-16743.734,37946.535,-2677.2056,92046.266,86.66992,21130.291,70904.18
1386925.2214349497,-40403.484,-16744.588,37945.07,-2681.5593,92042.445,84.18783,21131.227,70902.23
1386925.225434945,-40408.895,-16748.494,37944.215,-2682.3325,92042.195,85.57129,21134.156,70920.78
1386925.2294349405,-40406.535,-16744.14,37946.98,-2676.4324,92050.17,89.518234,21137.98,70918.91
1386925.233434936,-40406.984,-16742.39,37951.742,-2672.6074,92060.266,90.29134,21145.184,70924.195
1386925.2374349316,-40407.51,-16746.094,37951.418,-2674.4385,92059.086,86.100266,21148.885,70917.32
1386925.2414349269,-40406.78,-16749.39,37953.86,-2675.7407,92043.09,81.66504,21145.793,70909.67
1386925.2454349224,-40406.58,-16749.756,37954.348,-2674.4385,92040.37,81.705734,21141.521,70909.47
1386925.249434918,-40401.164,-16743.49,37955.203,-2669.5151,92042.73,87.6058,21143.922,70916.38
1386925.2534349135,-40400.92,-16744.06,37951.99,-2669.2302,92049.52,90.535484,21149.334,70919.72
1386925.257434909,-40402.47,-16745.89,37948.69,-2674.398,92057.87,89.96582,21152.264,70921.67
1386925.2614349043,-40407.758,-16747.967,37946.332,-2679.9316,92052.78,86.100266,21147.38,70914.15
1386925.2654348998,-40409.87,-16749.797,37946.37,-2680.0945,92045.21,83.862305,21136.598,70902.59
1386925.2694348954,-40415.082,-16755.9,37947.227,-2678.06,92044.4,85.40853,21126.75,70880.58
1386925.273434891,-40425.293,-16760.824,37949.707,-2676.1882,92047.61,84.3099,21125.447,70883.586
1386925.2774348862,-40417.523,-16754.883,37951.375,-2675.4966,92049.73,80.52572,21126.059,70892.09
1386925.2814348817,-40412.395,-16753.297,37951.09,-2677.2869,92046.266,77.96224,21123.25,70887.62
1386925.2854348773,-40412.355,-16756.877,37948.324,-2677.246,92047.24,77.75879,21118.123,70874.39
1386925.2894348728,-40416.87,-16761.434,37947.105,-2674.9268,92045.25,79.67123,21114.422,70876.586
1386925.2934348683,-40417.36,-16759.645,37946.207,-2674.6013,92044.6,81.949875,21122.111,70908.24
1386925.2974348636,-40413.7,-16756.592,37946.414,-2679.118,92052.94,79.711914,21129.598,70915.77
1386925.3014348592,-40410.81,-16757.812,37945.273,-2685.018,92052.05,77.14844,21131.104,70915.77
1386925.3054348547,-40413.13,-16759.115,37946.37,-2683.5125,92047.61,79.7933,21130.494,70907.72
1386925.3094348502,-40412.355,-16759.48,37951.5,-2678.5889,92047.24,82.15332,21125.936,70893.11
1386925.3134348455,-40407.797,-16757.771,37955.566,-2676.5952,92044.555,82.967125,21129.68,70893.76
1386925.317434841,-40410.24,-16759.766,37955.445,-2679.4841,92046.02,82.56023,21142.13,70916.1
1386925.3214348366,-40410.523,-16758.139,37952.434,-2683.2683,92040.734,79.7933,21145.996,70921.51
1386925.3254348321,-40408.367,-16764.73,37949.75,-2682.8208,92037.805,80.200195,21141.277,70899.82
1386925.3294348277,-40409.996,-16766.195,37949.383,-2680.9082,92043.79,84.06576,21140.504,70900.64
1386925.333434823,-40415.406,-16768.678,37949.87,-2680.5828,92046.63,87.768555,21146.688,70906.74
1386925.3374348185,-40420.613,-16768.475,37947.023,-2684.5703,92048.38,85.40853,21151.775,70913.74
1386925.341434814,-40426.637,-16763.021,37942.26,-2687.9478,92043.99,82.15332,21148.682,70910.89
1386925.3454348096,-40415.61,-16760.213,37944.418,-2685.2622,92039.555,80.6071,21140.463,70897.55
1386925.349434805,-40406.984,-16753.5,37951.17,-2679.0771,92041.99,82.92644,21138.428,70899.664
1386925.3534348004,-40402.75,-16755.006,37954.754,-2675.7407,92042.195,84.47266,21142.701,70912.11
1386925.357434796,-40396.688,-16754.924,37959.066,-2676.9207,92047.164,82.39746,21145.793,70912.72
1386925.3614347915,-40402.793,-16754.72,37958.54,-2679.3213,92045.125,78.65398,21143.107,70913.945
1386925.365434787,-40410.117,-16754.803,37955.566,-2678.2227,92048.305,77.96224,21138.021,70917.484
1386925.3694347823,-40410.727,-16758.3,37952.516,-2673.0144,92056.69,81.09538,21132.812,70898.36
1386925.3734347778,-40417.035,-16760.05,37949.75,-2672.9736,92062.79,83.41472,21135.824,70902.55
1386925.3774347734,-40419.68,-16760.254,37944.664,-2678.1006,92053.59,80.36296,21137.045,70902.14
1386925.381434769,-40418.133,-16761.719,37946.777,-2681.5186,92048.55,78.165695,21134.604,70902.836
1386925.3854347644,-40414.957,-16758.465,37951.457,-2680.0945,92047.9,76.70085,21125.936,70888.305
1386925.3894347597,-40416.18,-16764.363,37953.086,-2677.002,92044.516,76.70085,21118.652,70876.914
1386925.3934347553,-40413.047,-16762.33,37955.16,-2674.1943,92048.99,78.61328,21125.652,70895.34
1386925.3974347508,-40406.984,-16758.098,37953.004,-2674.4385,92053.96,77.35189,21133.139,70898.89
1386925.4014347463,-40412.07,-16765.504,37946.414,-2678.7925,92046.63,74.625656,21131.348,70897.34
1386925.4054347416,-40421.227,-16769.084,37940.066,-2678.1006,92042.89,74.54427,21130.941,70906.54
1386925.4094347372,-40421.387,-16766.277,37941.855,-2674.642,92051.11,76.45671,21131.877,70907.35
1386925.4134347327,-40418.457,-16761.719,37944.336,-2672.811,92054.28,77.35189,21131.43,70895.14
1386925.4174347282,-40421.266,-16762.166,37946.13,-2675.822,92050.13,75.60222,21133.79,70897.5
1386925.4214347238,-40421.754,-16771.12,37950.81,-2679.9724,92042.73,73.64909,21134.686,70905.4
1386925.425434719,-40420.574,-16774.049,37955.527,-2680.1353,92039.72,74.137375,21129.15,70903.32
1386925.4294347146,-40420.41,-16775.555,37953.574,-2675.6592,92035.08,76.82292,21122.273,70893.516
1386925.4334347101,-40416.87,-16772.746,37947.957,-2674.8862,92041.38,77.84017,21123.373,70900.23
1386925.4374347057,-40416.14,-16765.3,37945.395,-2677.7344,92050.055,78.57259,21130.412,70916.875
1386925.441434701,-40421.754,-16769.043,37944.01,-2681.3152,92052.01,76.13119,21134.4,70925.09
1386925.4454346965,-40424.44,-16768.025,37941.773,-2680.8677,92052.53,74.4222,21129.314,70929.28
1386925.449434692,-40426.8,-16764.404,37942.87,-2675.0488,92054.98,75.032555,21116.7,70881.516
1386925.4534346876,-40427.043,-16772.055,37946.13,-2672.9736,92058.72,77.27051,21120.729,70887.01
1386925.457434683,-40425.09,-16773.275,37947.266,-2676.7578,92056.234,75.56152,21127.28,70893.27
1386925.4614346784,-40424.684,-16775.27,37951.5,-2680.827,92048.586,72.95736,21128.053,70892.055
1386925.465434674,-40422.73,-16773.031,37949.668,-2680.7456,92043.7,73.81185,21124.594,70887.78
1386925.4694346695,-40418.945,-16773.602,37948.73,-2677.2869,92046.15,77.22982,21122.479,70886.44
1386925.473434665,-40422.527,-16774.373,37947.227,-2675.0896,92049.69,79.305016,21128.377,70907.96
1386925.4774346605,-40425.496,-16776.693,37942.63,-2678.5889,92045.29,75.805664,21130.086,70905.84
1386925.4814346558,-40428.062,-16775.025,37936.44,-2682.0476,92043.22,71.28906,21122.6,70883.67
1386925.4854346514,-40432.742,-16777.426,37933.758,-2681.071,92040.125,70.353195,21111.287,70867.35
1386925.489434647,-40434.855,-16779.744,37936.363,-2677.124,92039.35,71.77734,21105.266,70871.91
1386925.4934346424,-40431.64,-16778.32,37940.27,-2674.235,92043.79,73.97461,21112.184,70905.52
1386925.4974346377,-40422.203,-16774.17,37943.973,-2676.3916,92052.25,73.893234,21119.955,70906.66
1386925.5014346333,-40416.504,-16770.793,37946.902,-2679.9316,92047.37,71.248375,21120.361,70898.32
1386925.5054346288,-40418.66,-16768.475,37945.926,-2680.2979,92043.016,70.63802,21112.508,70879.07
1386925.5094346243,-40421.348,-16770.996,37944.133,-2678.4668,92041.305,73.36426,21108.643,70880.82
1386925.5134346199,-40422.895,-16770.549,37942.508,-2677.8972,92043.664,75.805664,21117.514,70909.266
1386925.5174346152,-40432.047,-16777.791,37940.836,-2681.6,92046.15,75.56152,21125.732,70920.05
1386925.5214346107,-40435.832,-16780.518,37935.875,-2686.9304,92035.445,71.9808,21123.576,70895.914
1386925.5254346062,-40434.45,-16784.139,37933.31,-2686.605,92029.14,68.76628,21116.902,70886.4
1386925.5294346018,-40440.555,-16790.324,37934.207,-2682.8613,92029.99,74.17806,21117.799,70904.99
1386925.533434597,-40438.19,-16788.941,37936.85,-2681.3152,92029.55,77.06706,21122.193,70911.09
1386925.5374345926,-40435.793,-16786.377,37934.53,-2684.9365,92032.836,75.84636,21129.07,70915.695
1386925.5414345881,-40439.94,-16787.232,37931.887,-2690.7146,92029.18,74.17806,21130.656,70902.67
1386925.5454345837,-40434.855,-16783.855,37935.387,-2687.907,92035.445,75.96843,21127.238,70895.71
1386925.5494345792,-40436.28,-16781.291,37933.188,-2684.4482,92039.43,77.27051,21125.611,70907.43
1386925.5534345745,-40437.38,-16781.697,37932.293,-2682.0476,92045.125,75.64291,21123.006,70903.69
1386925.55743457,-40437.297,-16781.17,37931.355,-2683.6345,92048.586,69.70215,21120.729,70886.64
1386925.5614345656,-40446.047,-16782.309,37929.85,-2688.5986,92042.69,64.453125,21116.375,70898.805
1386925.565434561,-40450.81,-16792.645,37929.934,-2689.087,92040.125,64.453125,21108.643,70888.02
1386925.5694345564,-40448.934,-16797.242,37934.695,-2685.5876,92038.54,68.237305,21105.307,70872.07
1386925.573434552,-40445.56,-16792.44,37937.38,-2685.0994,92039.266,68.84766,21104.695,70874.63
1386925.5774345475,-40443.277,-16790.486,37937.34,-2689.1685,92040.37,65.87728,21109.54,70891.44
1386925.581434543,-40439.94,-16793.416,37933.72,-2695.0278,92040.33,65.06348,21113.24,70902.51
1386925.5854345385,-40437.785,-16790.812,37931.277,-2695.8008,92039.67,64.819336,21107.504,70886.92
1386925.5894345338,-40440.715,-16787.842,37935.426,-2693.7664,92044.92,69.25456,21108.846,70901.41
1386925.5934345294,-40447.145,-16790.812,37933.96,-2695.4753,92047.9,71.5739,21111.166,70904.22
1386925.597434525,-40442.79,-16792.074,37937.176,-2698.405,92048.67,69.986984,21110.352,70887.58
1386925.6014345204,-40449.383,-16791.668,37934.53,-2703.4912,92038.375,66.28418,21104.94,70880.9
1386925.605434516,-40457.277,-16802.49,37929.65,-2704.5493,92026.86,65.75521,21095.215,70859.83
1386925.6094345113,-40460.41,-16810.588,37929.812,-2702.0671,92023.52,69.70215,21096.559,70864.46
1386925.6134345068,-40464.64,-16814.412,37928.55,-2702.4333,92026.0,72.143555,21104.98,70875.164
1386925.6174345023,-40472.984,-16814.738,37922.895,-2706.0547,92032.11,71.248375,21110.719,70882.086
1386925.6214344979,-40471.152,-16817.465,37917.32,-2711.4258,92026.695,68.88835,21109.457,70873.945
1386925.6254344932,-40465.21,-16808.879,37915.57,-2710.612,92021.24,70.55664,21105.877,70863.69
1386925.6294344887,-40467.977,-16804.078,37918.863,-2707.357,92027.75,74.58496,21104.98,70866.87
1386925.6334344842,-40469.523,-16804.566,37922.49,-2704.5898,92033.164,74.70703,21107.137,70868.9
1386925.6374344798,-40470.746,-16803.996,37923.137,-2707.5603,92034.18,70.353195,21111.613,70876.875
1386925.6414344753,-40470.297,-16810.588,37923.016,-2711.8328,92026.62,66.65039,21111.898,70888.39
1386925.6454344706,-40467.773,-16813.232,37923.83,-2710.4492,92019.695,67.87109,21105.754,70872.84
1386925.6494344661,-40465.535,-16814.373,37923.746,-2708.2927,92014.734,69.9056,21099.406,70864.055
1386925.6534344617,-40469.08,-16809.896,37921.387,-2707.3975,92021.33,71.94011,21103.354,70868.77
1386925.6574344572,-40469.605,-16806.234,37919.35,-2708.4148,92033.94,71.81804,21110.555,70887.49
1386925.6614344525,-40467.33,-16806.031,37917.074,-2712.7686,92029.95,71.08562,21112.672,70898.27
1386925.665434448,-40468.465,-16802.37,37917.848,-2710.6934,92026.086,70.3125,21106.934,70882.98
1386925.6694344436,-40470.746,-16804.973,37922.895,-2705.6885,92029.95,71.5739,21103.76,70875.86
1386925.673434439,-40471.723,-16813.355,37928.426,-2703.2878,92034.71,72.75391,21108.766,70886.72
1386925.6774344346,-40471.234,-16810.994,37930.055,-2705.5664,92036.3,70.231125,21112.996,70890.664
1386925.68143443,-40467.57,-16801.31,37928.67,-2709.8389,92031.05,66.080734,21107.707,70878.5
1386925.6854344255,-40460.043,-16801.717,37930.094,-2709.2693,92026.29,66.28418,21105.916,70881.31
1386925.689434421,-40448.895,-16798.625,37929.77,-2703.4912,92029.016,68.84766,21106.812,70884.85
1386925.6934344165,-40452.637,-16789.227,37930.664,-2699.829,92040.41,72.387695,21115.031,70900.68
1386925.6974344118,-40456.992,-16786.459,37929.85,-2702.3926,92044.11,69.74284,21118.408,70897.016
1386925.7014344074,-40459.066,-16789.104,37930.22,-2706.1362,92043.016,66.04004,21115.805,70887.25
1386925.705434403,-40463.746,-16791.463,37928.14,-2704.5493,92044.27,64.73796,21110.027,70883.51
1386925.7094343984,-40461.266,-16792.156,37930.543,-2700.3174,92045.82,65.34831,21104.777,70869.43
1386925.713434394,-40460.004,-16795.695,37935.71,-2698.283,92045.74,66.691086,21109.254,70876.1
1386925.7174343893,-40458.945,-16798.34,37935.63,-2701.945,92036.87,66.324875,21117.799,70886.07
1386925.7214343848,-40460.164,-16805.299,37932.457,-2708.4148,92034.71,64.331055,21116.578,70879.64
1386925.7254343804,-40467.043,-16806.64,37928.59,-2709.2693,92038.695,65.47038,21116.252,70879.48
1386925.729434376,-40465.78,-16797.607,37925.293,-2706.95,92047.484,69.29525,21121.746,70892.87
1386925.7334343714,-40454.062,-16790.08,37924.93,-2704.4272,92053.914,72.46908,21129.273,70901.086
1386925.7374343667,-40456.543,-16785.97,37923.586,-2706.787,92058.07,72.06218,21133.83,70900.84
1386925.7414343623,-40462.445,-16785.727,37924.03,-2712.9722,92050.87,70.109055,21131.47,70895.8
1386925.7454343578,-40464.97,-16788.209,37925.78,-2713.4604,92044.15,69.9056,21125.611,70894.49
1386925.7494343533,-40462.81,-16793.701,37931.277,-2710.368,92042.97,71.32976,21120.32,70888.875
1386925.7534343486,-40461.223,-16795.125,37932.58,-2710.1646,92044.31,73.28288,21124.92,70914.67
1386925.7574343442,-40461.184,-16796.51,37933.35,-2710.9783,92048.1,71.5739,21126.14,70905.27
1386925.7614343397,-40467.977,-16806.072,37929.85,-2713.2976,92044.97,68.278,21117.025,70872.36
1386925.7654343352,-40473.836,-16808.676,37926.516,-2712.6465,92044.97,67.30144,21111.004,70880.86
1386925.7694343308,-40476.562,-16808.96,37924.684,-2710.3271,92041.55,70.719406,21108.846,70878.54
1386925.773434326,-40476.24,-16811.2,37923.137,-2709.6355,92042.445,70.3125,21106.242,70860.6
1386925.7774343216,-40474.69,-16814.941,37920.535,-2714.4775,92046.63,67.342125,21112.428,70878.016
1386925.7814343171,-40475.71,-16810.262,37917.81,-2719.564,92043.5,63.028973,21112.305,70887.01
1386925.7854343127,-40477.05,-16810.426,37919.273,-2716.268,92041.1,61.97103,21104.29,70887.984
1386925.789434308,-40478.07,-16813.6,37921.387,-2713.501,92037.16,63.720707,21095.135,70876.23
1386925.7934343035,-40477.01,-16811.89,37923.625,-2713.7046,92041.51,63.842777,21089.844,70851.36
1386925.797434299,-40480.918,-16812.664,37921.59,-2716.6748,92045.86,61.23861,21095.418,70857.95
1386925.8014342946,-40486.086,-16821.656,37914.188,-2720.0928,92043.99,58.797203,21097.535,70866.46
1386925.80543429,-40482.79,-16827.76,37909.63,-2719.3198,92039.836,57.291668,21092.611,70866.74
1386925.8094342854,-40483.562,-16820.639,37912.395,-2713.4197,92044.766,59.122723,21092.732,70864.46
1386925.813434281,-40481.12,-16810.629,37916.668,-2709.7168,92045.74,60.058594,21097.371,70862.836
1386925.8174342765,-40477.785,-16809.002,37916.22,-2709.6355,92050.336,57.617188,21102.215,70876.23
1386925.821434272,-40478.883,-16821.127,37913.453,-2713.7046,92041.34,53.833008,21098.268,70872.16
1386925.8254342673,-40476.93,-16819.783,37916.832,-2712.077,92041.67,53.62956,21089.682,70852.375
1386925.8294342628,-40475.098,-16817.18,37922.527,-2707.9265,92040.0,56.396484,21086.182,70845.055
1386925.8334342584,-40474.285,-16817.994,37924.113,-2706.0955,92044.11,59.32617,21091.676,70858.484
1386925.837434254,-40473.062,-16823.162,37921.715,-2708.6182,92042.16,58.18685,21098.553,70878.91
1386925.8414342494,-40472.902,-16822.186,37918.945,-2712.0361,92034.75,56.925457,21101.4,70884.69
1386925.8454342447,-40477.582,-16819.133,37919.395,-2712.484,92037.6,55.867516,21093.465,70858.32
1386925.8494342403,-40487.348,-16820.395,37921.1,-2710.2458,92041.625,58.30892,21089.479,70857.83
1386925.8534342358,-40485.68,-16820.354,37924.234,-2708.9844,92046.555,61.76758,21099.203,70888.02
1386925.8574342313,-40480.633,-16818.441,37924.36,-2713.6638,92047.04,60.343426,21104.168,70876.34
1386925.8614342266,-40478.92,-16822.062,37921.793,-2718.9536,92040.9,56.925457,21100.18,70858.12
1386925.8654342222,-40479.695,-16830.281,37916.18,-2718.7908,92037.11,57.53581,21096.883,70877.81
1386925.8694342177,-40481.445,-16832.316,37915.49,-2715.861,92034.47,59.570312,21090.902,70868.45
1386925.8734342132,-40480.797,-16829.102,37914.227,-2713.4604,92047.24,59.814453,21087.973,70856.445
1386925.8774342088,-40484.457,-16821.33,37911.824,-2714.9658,92050.5,56.477867,21090.047,70854.53
1386925.881434204,-40490.766,-16826.01,37913.13,-2717.733,92048.67,51.066082,21083.09,70819.87
1386925.8854341996,-40498.78,-16832.56,37914.754,-2718.2617,92047.695,51.635742,21079.713,70835.0
1386925.8894341951,-40502.89,-16838.299,37915.57,-2715.332,92040.77,53.385418,21076.824,70846.6
1386925.8934341907,-40498.008,-16838.664,37918.01,-2715.4949,92041.016,53.30404,21075.725,70850.266
1386925.8974341862,-40488.566,-16829.59,37919.72,-2716.7969,92042.36,51.310223,21077.516,70841.8
1386925.9014341815,-40485.395,-16829.957,37919.965,-2720.1743,92038.13,49.804688,21083.13,70855.43
1386925.905434177,-40487.43,-16833.252,37918.133,-2720.7031,92039.23,50.00814,21080.73,70859.46
1386925.9094341726,-40484.99,-16824.707,37917.523,-2713.7046,92048.18,53.019207,21076.54,70834.19
1386925.913434168,-40490.48,-16827.8,37917.848,-2713.0127,92056.73,55.257164,21080.404,70836.02
1386925.9174341634,-40489.95,-16827.352,37916.016,-2715.9832,92056.44,55.29785,21088.582,70854.05
1386925.921434159,-40491.008,-16824.586,37915.242,-2717.4072,92051.84,53.62956,21090.943,70849.125
1386925.9254341545,-40496.176,-16828.94,37916.75,-2715.21,92053.19,53.263348,21085.45,70837.32
1386925.92943415,-40497.438,-16832.316,37918.582,-2711.9956,92053.06,55.41992,21084.555,70848.8
1386925.9334341455,-40488.77,-16826.66,37921.51,-2711.8328,92054.98,53.95508,21082.56,70843.34
1386925.9374341408,-40483.156,-16833.66,37923.137,-2715.332,92053.76,52.246094,21086.467,70853.84
1386925.9414341364,-40484.05,-16832.52,37920.74,-2717.7734,92050.46,49.560547,21087.973,70849.94
1386925.945434132,-40482.06,-16827.475,37919.07,-2714.9658,92050.58,48.583984,21080.037,70844.16
1386925.9494341274,-40479.332,-16823.04,37919.56,-2710.8154,92051.68,50.49642,21073.04,70834.88
1386925.9534341227,-40482.547,-16823.975,37918.54,-2711.2224,92056.234,52.001953,21074.463,70847.74
1386925.9574341183,-40490.97,-16829.184,37914.676,-2715.9832,92058.44,49.479168,21079.875,70868.05
1386925.9614341138,-40496.055,-16836.834,37913.86,-2720.2556,92045.66,45.81706,21076.213,70846.48
1386925.9654341093,-40499.88,-16840.455,37913.168,-2722.1274,92037.195,43.497723,21065.633,70824.016
1386925.9694341049,-40503.582,-16842.732,37913.574,-2720.1743,92037.88,46.30534,21062.541,70824.75
1386925.9734341002,-40509.117,-16850.383,37911.133,-2720.9473,92042.484,48.543297,21071.33,70850.55
1386925.9774340957,-40508.63,-16854.127,37907.84,-2725.5046,92045.01,46.79362,21074.098,70849.125
1386925.9814340912,-40513.59,-16862.102,37897.42,-2732.788,92040.29,43.70117,21073.527,70856.77
1386925.9854340868,-40520.223,-16873.455,37888.51,-2734.0496,92032.19,41.9515,21059.773,70824.51
1386925.989434082,-40524.414,-16878.094,37885.5,-2729.3296,92032.8,43.33496,21049.969,70808.72
1386925.9934340776,-40525.39,-16862.957,37887.695,-2728.0273,92036.586,42.64323,21050.66,70818.93
1386925.9974340731,-40530.56,-16864.828,37889.12,-2732.9917,92035.24,39.510094,21050.334,70808.07
1386926.0014340687,-40537.395,-16872.803,37888.145,-2739.3394,92026.734,35.19694,21047.12,70797.28
1386926.0054340642,-40540.73,-16878.906,37889.934,-2738.8916,92020.266,34.70866,21041.342,70790.98
1386926.0094340595,-40544.19,-16884.848,37891.03,-2734.253,92021.33,36.946617,21038.86,70788.375
1386926.013434055,-40540.812,-16887.94,37891.887,-2730.6316,92025.11,37.353516,21041.139,70796.836
1386926.0174340506,-40542.97,-16887.777,37883.465,-2734.4565,92017.74,33.243816,21042.969,70800.09
1386926.021434046,-40552.246,-16885.865,37874.227,-2740.031,92016.766,30.151367,21039.674,70793.625
1386926.0254340416,-40554.85,-16883.18,37871.91,-2738.2,92022.87,32.511395,21034.383,70776.0
1386926.029434037,-40554.445,-16883.504,37875.0,-2733.8054,92027.836,34.179688,21032.756,70784.71
1386926.0334340325,-40552.043,-16883.424,37877.645,-2730.713,92025.96,33.97624,21033.773,70782.72
1386926.037434028,-40555.707,-16880.9,37878.176,-2733.602,92024.91,31.453451,21037.518,70781.29
1386926.0414340235,-40555.258,-16880.371,37879.883,-2737.5083,92020.67,29.337566,21040.568,70796.23
1386926.0454340188,-40551.555,-16884.766,37884.766,-2736.5723,92019.01,30.069988,21036.053,70798.18
1386926.0494340144,-40548.34,-16878.826,37890.75,-2730.0212,92024.91,32.633465,21029.297,70780.03
1386926.05343401,-40539.39,-16874.47,37897.91,-2725.708,92035.85,33.040367,21031.129,70777.71
1386926.0574340054,-40533.895,-16872.6,37900.066,-2730.2654,92038.375,31.453451,21037.762,70793.625
1386926.061434001,-40535.93,-16873.25,37896.16,-2732.0557,92034.95,29.581707,21036.865,70780.11
1386926.0654339963,-40533.816,-16870.281,37891.277,-2728.8005,92025.76,28.808594,21032.553,70774.87
1386926.0694339918,-40537.07,-16861.654,37890.79,-2723.6328,92020.47,31.453451,21036.092,70778.77
1386926.0734339873,-40530.887,-16865.316,37894.656,-2723.0632,92023.805,34.62728,21043.986,70790.9
1386926.0774339829,-40528.85,-16870.484,37892.906,-2729.004,92026.57,34.58659,21052.41,70805.3
1386926.0814339782,-40533.203,-16873.332,37891.6,-2734.0903,92026.734,35.27832,21055.34,70811.98
1386926.0854339737,-40531.008,-16875.691,37895.71,-2734.2124,92026.9,36.783855,21051.27,70806.195
1386926.0894339692,-40527.957,-16875.855,37902.387,-2730.5908,92031.82,38.85905,21048.26,70805.83
1386926.0934339648,-40526.164,-16867.635,37905.234,-2726.8474,92037.4,39.22526,21051.596,70809.9
1386926.0974339603,-40520.266,-16862.06,37902.793,-2726.4404,92039.43,36.743164,21057.088,70812.22
1386926.1014339556,-40518.68,-16863.363,37897.38,-2729.248,92036.18,33.162437,21054.158,70804.28
1386926.1054339511,-40519.246,-16857.38,37894.938,-2727.539,92037.48,32.999676,21050.416,70809.82
1386926.1094339467,-40517.945,-16857.26,37895.754,-2724.3652,92038.74,35.237633,21051.88,70826.26
1386926.1134339422,-40514.445,-16858.113,37899.21,-2723.1445,92035.69,36.254883,21057.049,70836.34
1386926.1174339375,-40521.402,-16860.027,37899.78,-2728.5564,92032.836,33.77279,21058.879,70834.64
1386926.121433933,-40524.902,-16863.363,37899.66,-2733.3984,92033.33,30.639648,21057.984,70831.71
1386926.1254339286,-40529.34,-16870.605,37898.4,-2734.7412,92040.33,30.639648,21053.305,70830.2
1386926.129433924,-40529.703,-16867.352,37899.617,-2730.9978,92044.92,32.918297,21047.607,70814.086
1386926.1334339196,-40528.117,-16858.928,37900.066,-2728.231,92054.484,34.83073,21049.602,70822.02
1386926.137433915,-40525.23,-16854.533,37900.434,-2730.6724,92055.914,33.691406,21053.06,70830.04
1386926.1414339105,-40519.98,-16859.334,37899.617,-2735.4736,92045.82,27.832031,21042.766,70796.71
1386926.145433906,-40518.598,-16860.31,37897.91,-2737.915,92040.49,25.675457,21036.092,70804.61
1386926.1494339015,-40523.03,-16863.81,37897.055,-2736.776,92039.43,28.605145,21029.42,70800.336
1386926.153433897,-40522.746,-16866.822,37896.16,-2738.8916,92047.164,29.825848,21026.246,70780.16
1386926.1574338924,-40521.324,-16869.14,37894.043,-2744.629,92051.44,28.645834,21030.193,70780.36
1386926.161433888,-40528.523,-16872.234,37894.043,-2748.698,92049.73,26.65202,21033.406,70794.64
1386926.1654338834,-40541.06,-16870.729,37891.4,-2748.698,92052.66,27.34375,21031.414,70797.98
1386926.169433879,-40539.39,-16874.959,37889.08,-2746.0532,92057.54,29.052734,21027.14,70784.51
1386926.1734338743,-40536.46,-16876.791,37889.445,-2745.809,92053.39,31.168621,21031.25,70789.23
1386926.1774338698,-40537.234,-16876.262,37887.777,-2749.9187,92047.164,30.639648,21038.982,70797.98
1386926.1814338653,-40544.477,-16885.662,37883.832,-2754.8015,92038.945,29.541016,21044.557,70802.25
1386926.1854338609,-40551.188,-16896.037,37882.082,-2757.1208,92027.71,30.354818,21046.062,70799.6
1386926.1894338564,-40545.98,-16887.654,37883.914,-2754.1912,92034.43,33.447266,21046.102,70797.85
1386926.1934338517,-40542.727,-16890.3,37884.36,-2752.8892,92039.39,37.516277,21049.764,70804.61
1386926.1974338472,-40538.82,-16898.723,37885.906,-2757.4463,92040.24,36.010742,21054.607,70815.555
1386926.2014338428,-40540.445,-16892.945,37884.89,-2762.085,92043.375,30.80241,21050.66,70799.766
1386926.2054338383,-40542.195,-16885.418,37883.832,-2759.4402,92044.64,29.866537,21043.865,70794.6
1386926.2094338336,-40540.773,-16879.395,37883.63,-2751.9531,92056.195,28.320312,21032.309,70777.51
1386926.2134338291,-40536.95,-16878.133,37882.406,-2748.291,92056.07,25.227865,21027.547,70774.91
1386926.2174338247,-40534.793,-16878.826,37878.543,-2749.9187,92055.38,23.15267,21029.338,70790.164
1386926.2214338202,-40534.344,-16875.977,37875.613,-2755.534,92048.22,18.554688,21023.113,70795.29
1386926.2254338157,-40533.816,-16877.97,37878.95,-2755.5747,92044.03,19.49056,21018.23,70800.46
1386926.229433811,-40530.273,-16879.436,37887.41,-2750.8953,92051.92,23.15267,21017.701,70801.31
1386926.2334338066,-40523.97,-16875.164,37891.6,-2750.936,92063.84,24.129232,21020.223,70800.3
1386926.237433802,-40529.01,-16872.479,37888.918,-2756.4292,92067.305,21.606445,21026.611,70805.625
1386926.2414337976,-40537.477,-16880.453,37882.895,-2762.5327,92059.77,18.025717,21025.31,70802.37
1386926.245433793,-40547.812,-16884.48,37876.508,-2762.4106,92050.78,18.636068,21020.752,70800.78
1386926.2494337885,-40543.742,-16887.41,37873.047,-2759.0332,92051.555,20.914715,21015.584,70775.8
1386926.253433784,-40547.527,-16893.637,37873.496,-2758.667,92045.945,24.088543,21023.357,70767.58
1386926.2574337795,-40553.02,-16900.758,37872.6,-2763.9568,92037.516,24.129232,21034.344,70768.44
1386926.261433775,-40555.582,-16906.088,37868.57,-2770.5078,92029.055,22.176107,21037.11,70758.71
1386926.2654337704,-40561.727,-16914.959,37871.01,-2771.6472,92029.055,24.820965,21036.865,70766.73
1386926.269433766,-40566.406,-16917.562,37874.066,-2771.159,92032.63,24.251303,21032.674,70767.336
1386926.2734337614,-40565.066,-16918.824,37875.082,-2773.9666,92031.7,22.338867,21035.115,70790.94
1386926.277433757,-40560.1,-16915.324,37876.547,-2777.2625,92034.14,19.36849,21040.73,70803.39
1386926.2814337523,-40552.246,-16903.564,37876.465,-2777.9949,92034.266,15.54362,21040.08,70799.805
1386926.2854337478,-40548.098,-16901.043,37876.14,-2775.3093,92035.12,15.50293,21036.215,70787.31
1386926.2894337433,-40551.312,-16906.088,37875.773,-2769.328,92037.93,18.229168,21032.879,70773.97
1386926.2934337389,-40553.875,-16907.39,37875.285,-2769.572,92037.11,17.618816,21034.953,70784.79
1386926.2974337344,-40556.113,-16905.396,37869.02,-2775.106,92038.49,14.078776,21035.564,70793.984
1386926.3014337297,-40565.27,-16913.818,37859.17,-2783.5693,92026.734,11.189779,21035.197,70797.61
1386926.3054337252,-40566.895,-16916.342,37858.24,-2783.9355,92027.47,12.939453,21031.576,70786.7
1386926.3094337208,-40566.652,-16912.354,37866.336,-2779.5005,92034.51,18.432617,21033.447,70795.05
1386926.3134337163,-40564.82,-16911.256,37871.664,-2777.1812,92050.21,20.182293,21036.5,70792.195
1386926.3174337118,-40563.52,-16911.906,37870.85,-2781.25,92044.84,16.194662,21037.639,70786.5
1386926.3214337071,-40563.355,-16910.076,37868.777,-2782.5928,92037.88,11.027019,21034.588,70782.31
1386926.3254337027,-40564.78,-16907.309,37867.312,-2779.4597,92032.43,7.77181,21028.117,70781.086
1386926.3294336982,-40564.293,-16908.611,37867.188,-2775.5535,92033.53,9.480795,21025.229,70777.34
1386926.3334336937,-40559.773,-16908.732,37863.85,-2773.397,92036.79,8.626303,21027.385,70780.97
1386926.337433689,-40559.246,-16905.559,37860.883,-2775.106,92039.63,5.411784,21031.291,70788.414
1386926.3414336846,-40558.637,-16906.494,37861.94,-2779.0935,92039.836,1.3834636,21029.012,70782.92
1386926.34543368,-40563.395,-16906.17,37862.754,-2779.2969,92032.31,2.4820964,21024.822,70780.16
1386926.3494336756,-40575.44,-16911.5,37869.1,-2778.0762,92030.766,6.184896,21022.746,70775.555
1386926.3534336712,-40574.832,-16919.11,37874.105,-2777.2625,92036.38,9.155273,21023.438,70773.64
1386926.3574336665,-40567.465,-16916.748,37873.82,-2781.4128,92034.18,7.1614585,21021.688,70762.086
1386926.361433662,-40564.414,-16915.854,37869.426,-2784.668,92031.17,3.6621094,21019.043,70755.78
1386926.3654336575,-40562.094,-16918.457,37864.79,-2783.4067,92023.97,1.3834636,21012.94,70755.13
1386926.369433653,-40567.71,-16917.033,37861.53,-2780.4363,92022.87,6.184896,21014.648,70765.914
1386926.3734336484,-40573.203,-16919.475,37859.66,-2779.7446,92026.05,11.59668,21024.293,70784.18
1386926.377433644,-40571.453,-16919.719,37854.777,-2783.5693,92030.195,9.277344,21023.113,70762.66
1386926.3814336394,-40575.523,-16923.787,37849.773,-2789.5508,92025.516,2.7669272,21015.016,70755.74
1386926.385433635,-40579.875,-16928.549,37850.547,-2788.4521,92024.17,-1.3834636,21004.518,70743.734
1386926.3894336305,-40582.277,-16931.316,37855.31,-2784.1392,92030.27,-0.40690106,21001.424,70747.32
1386926.3934336258,-40579.67,-16931.438,37862.957,-2782.837,92034.43,0.5696615,21008.953,70760.87
1386926.3974336213,-40578.816,-16936.2,37866.66,-2784.8716,92031.58,-1.2613933,21012.492,70763.92
1386926.4014336169,-40584.066,-16940.715,37863.85,-2788.615,92017.17,-4.923503,21011.719,70776.66
1386926.4054336124,-40586.387,-16940.512,37860.555,-2789.4695,92009.32,-6.2662764,21004.842,70754.766
1386926.4094336077,-40588.258,-16938.965,37858.684,-2787.5571,92012.29,-2.319336,21007.203,70753.42
1386926.4134336032,-40587.85,-16935.344,37856.977,-2788.493,92025.07,1.0579427,21016.398,70752.28
1386926.4174335988,-40583.742,-16927.693,37853.434,-2792.033,92036.91,-0.32552084,21023.885,70763.23
1386926.4214335943,-40580.61,-16921.469,37850.26,-2794.6777,92035.445,-2.8889976,21024.902,70769.414
1386926.4254335898,-40578.25,-16921.225,37853.68,-2792.033,92033.05,-3.1331382,21020.428,70772.016
1386926.4294335851,-40578.86,-16926.88,37860.598,-2786.4177,92029.34,-3.4179688,21012.736,70752.52
1386926.4334335807,-40585.98,-16936.158,37862.633,-2785.8481,92030.52,-5.818685,21007.447,70756.47
1386926.4374335762,-40589.64,-16941.773,37864.91,-2789.5508,92026.49,-11.922201,21001.22,70748.82
1386926.4414335717,-40595.703,-16946.412,37859.742,-2793.7012,92016.56,-16.642254,20995.037,70750.77
1386926.4454335673,-40603.23,-16951.58,37854.695,-2794.5151,92020.23,-17.456055,20990.438,70750.57
1386926.4494335626,-40596.19,-16938.72,37852.945,-2791.4226,92025.234,-12.491862,20989.502,70748.86
1386926.453433558,-40592.0,-16928.346,37851.688,-2789.795,92035.93,-8.585612,20996.95,70751.016
1386926.4574335536,-40591.434,-16934.979,37850.18,-2793.0908,92038.74,-8.015951,21007.977,70774.984
1386926.4614335492,-40584.72,-16934.326,37852.664,-2794.0674,92037.234,-10.172526,21006.227,70746.016
1386926.4654335445,-40583.457,-16936.809,37856.773,-2791.0156,92034.02,-10.416667,21002.156,70738.65
1386926.46943354,-40589.438,-16940.877,37860.23,-2786.9468,92036.586,-8.992514,21001.385,70743.77
1386926.4734335355,-40586.63,-16930.014,37863.242,-2784.2612,92039.96,-9.887695,21007.771,70753.945
1386926.477433531,-40589.52,-16934.164,37860.477,-2786.784,92033.37,-11.067709,21015.666,70753.945
1386926.4814335266,-40595.99,-16946.086,37854.332,-2793.0908,92028.32,-14.933269,21017.13,70757.61
1386926.485433522,-40599.938,-16951.457,37851.277,-2794.7998,92026.734,-12.044271,21019.613,70775.64
1386926.4894335174,-40598.39,-16946.209,37854.453,-2791.911,92034.02,-6.551107,21020.834,70772.016
1386926.493433513,-40596.477,-16931.64,37853.844,-2790.2427,92036.3,-4.6793623,21020.467,70751.18
1386926.4974335085,-40592.33,-16925.172,37852.215,-2791.1377,92041.75,-8.341472,21021.566,70757.41
1386926.5014335038,-40588.016,-16930.299,37851.24,-2792.7246,92037.805,-11.75944,21019.816,70773.234
1386926.5054334993,-40585.938,-16937.703,37856.57,-2789.6729,92031.91,-9.724936,21014.852,70770.43
1386926.5094334949,-40584.15,-16936.238,37864.42,-2784.8308,92030.6,-9.318034,21010.418,70759.12
1386926.5134334904,-40578.53,-16936.443,37870.81,-2783.4473,92030.64,-9.236654,21012.29,70759.04
1386926.517433486,-40578.086,-16938.762,37869.754,-2786.6619,92030.97,-10.823568,21017.09,70777.95
1386926.5214334812,-40582.848,-16946.736,37860.066,-2792.3179,92025.84,-13.509115,21015.951,70780.88
1386926.5254334768,-40584.88,-16948.934,37852.254,-2793.4165,92027.34,-14.444987,21003.012,70746.664
1386926.5294334723,-40582.887,-16937.012,37851.156,-2789.5508,92035.08,-11.149089,20998.738,70741.91
1386926.5334334678,-40591.105,-16930.95,37852.215,-2788.208,92044.766,-8.707683,21000.447,70753.7
1386926.5374334631,-40596.64,-16937.338,37850.914,-2791.3818,92042.766,-12.369792,21003.5,70759.85
1386926.5414334587,-40583.7,-16937.582,37850.586,-2794.6372,92034.79,-16.235352,20998.291,70748.66
1386926.5454334542,-40579.266,-16941.041,37850.426,-2793.742,92030.68,-15.014648,20993.896,70759.766
1386926.5494334497,-40592.285,-16949.139,37850.426,-2797.3228,92029.22,-14.282227,20991.496,70745.77
1386926.5534334453,-40621.664,-16951.824,37852.824,-2801.1475,92026.66,-11.962891,20993.693,70717.77
1386926.5574334406,-40601.277,-16947.998,37854.574,-2806.478,92032.23,-13.468425,21000.814,70731.61
1386926.561433436,-40575.035,-16946.9,37851.727,-2811.3608,92032.76,-15.055339,21003.5,70747.4
1386926.5654334316,-40577.965,-16947.266,37851.24,-2813.2324,92030.195,-14.811198,21000.53,70757.81
1386926.5694334272,-40582.766,-16949.627,37852.133,-2812.378,92032.836,-10.823568,21002.523,70769.734
1386926.5734334227,-40588.016,-16951.336,37852.824,-2810.3435,92036.26,-7.8125,21010.865,70789.31
1386926.577433418,-40593.953,-16950.033,37851.156,-2811.483,92036.055,-15.380859,21003.947,70758.79
1386926.5814334136,-40602.38,-16958.09,37845.46,-2813.9648,92025.59,-20.955404,20998.291,70755.66
1386926.585433409,-40604.492,-16963.543,37843.426,-2812.5815,92022.38,-20.589193,20993.734,70754.36
1386926.5894334046,-40599.285,-16955.852,37848.188,-2808.065,92025.64,-15.177409,20997.438,70759.52
1386926.5934334,-40596.395,-16951.172,37851.074,-2806.071,92032.76,-10.660808,21007.244,70762.01
1386926.5974333955,-40595.99,-16952.557,37850.426,-2808.8787,92034.63,-12.166342,21012.248,70768.15
1386926.601433391,-40594.85,-16953.898,37849.977,-2813.5986,92028.32,-15.2994795,21010.092,70778.89
1386926.6054333865,-40597.535,-16949.504,37849.652,-2811.32,92022.79,-17.374676,21005.209,70778.81
1386926.609433382,-40597.7,-16950.318,37853.23,-2803.7925,92024.58,-16.723633,20997.273,70764.125
1386926.6134333774,-40592.69,-16952.475,37856.934,-2800.537,92026.66,-19.77539,20984.62,70718.14
1386926.617433373,-40594.035,-16953.654,37858.766,-2801.5544,92027.75,-24.414062,20979.371,70720.46
1386926.6214333684,-40599.367,-16955.648,37856.12,-2803.4668,92022.625,-29.785156,20976.441,70730.1
1386926.625433364,-40598.39,-16952.76,37852.254,-2804.118,92024.58,-29.012045,20970.867,70726.28
1386926.6294333593,-40594.035,-16952.068,37851.074,-2804.118,92033.29,-24.536133,20971.273,70722.62
1386926.6334333548,-40590.17,-16946.615,37850.79,-2803.3855,92041.06,-17.944336,20983.643,70730.63
1386926.6374333503,-40599.406,-16948.69,37843.02,-2804.8503,92043.58,-16.601562,20996.135,70750.29
1386926.6414333459,-40606.324,-16957.764,37838.91,-2810.3435,92036.91,-17.944336,20997.355,70752.52
1386926.6454333414,-40610.72,-16955.566,37837.242,-2809.611,92025.555,-17.781576,20994.467,70759.73
1386926.6494333367,-40609.09,-16953.41,37841.35,-2804.525,92030.4,-18.554688,20988.322,70731.164
1386926.6534333322,-40600.953,-16955.322,37847.21,-2802.409,92023.16,-18.066406,20994.305,70734.87
1386926.6574333278,-40597.086,-16956.137,37852.094,-2803.1821,92021.41,-17.740887,21007.406,70765.51
1386926.6614333233,-40595.664,-16958.049,37849.855,-2806.8848,92021.33,-20.914715,21008.057,70770.23
1386926.6654333186,-40598.39,-16958.293,37845.094,-2806.3152,92019.984,-20.792645,21000.203,70753.83
1386926.6694333141,-40605.105,-16960.37,37842.33,-2802.8972,92027.51,-17.659506,20995.24,70750.57
1386926.6734333097,-40602.785,-16957.398,37842.203,-2799.7234,92030.4,-15.50293,21000.447,70755.66
1386926.6774333052,-40597.414,-16958.09,37844.566,-2801.2695,92033.695,-14.892578,21009.725,70768.64
1386926.6814333007,-40596.926,-16955.078,37843.875,-2802.9785,92033.49,-16.601562,21012.33,70773.27
1386926.685433296,-40596.926,-16958.293,37847.535,-2799.642,92029.586,-16.560873,21011.678,70778.57
1386926.6894332916,-40591.27,-16961.67,37852.62,-2796.5088,92028.04,-13.671875,21005.371,70768.64
1386926.693433287,-40583.375,-16955.445,37857.26,-2795.9392,92031.13,-12.6953125,21005.047,70762.21
1386926.6974332826,-40581.746,-16949.707,37860.15,-2799.4792,92028.93,-13.875326,21007.936,70762.125
1386926.701433278,-40584.473,-16954.021,37853.883,-2802.2869,92028.65,-16.642254,21006.918,70765.42
1386926.7054332735,-40593.02,-16954.916,37848.51,-2803.1006,92029.87,-16.560873,21001.14,70752.73
1386926.709433269,-40601.24,-16953.777,37848.062,-2801.5952,92034.34,-12.451172,21003.215,70763.305
1386926.7134332645,-40596.477,-16947.674,37849.164,-2797.7295,92040.65,-11.027019,21005.615,70758.22
1386926.71743326,-40591.066,-16946.045,37848.918,-2799.7234,92043.42,-15.950521,21006.836,70761.48
1386926.7214332554,-40596.07,-16952.271,37845.703,-2804.9316,92038.25,-21.647137,21004.68,70776.41
1386926.725433251,-40595.38,-16956.463,37847.086,-2805.0537,92036.664,-21.728516,21001.262,70794.88
1386926.7294332464,-40591.92,-16952.312,37847.332,-2800.7812,92035.766,-21.891277,20989.34,70748.21
1386926.733433242,-40589.438,-16952.557,37850.71,-2797.8923,92038.336,-23.763021,20984.334,70724.734
1386926.7374332375,-40598.918,-16959.676,37847.617,-2804.0366,92039.76,-25.390625,20992.39,70762.29
1386926.7414332328,-40609.863,-16964.396,37838.91,-2812.8662,92032.27,-28.320312,20989.625,70759.85
1386926.7454332283,-40613.85,-16971.803,37835.98,-2816.6504,92026.49,-28.157553,20978.23,70734.78
1386926.7494332239,-40625.0,-16974.365,37834.84,-2814.209,92028.81,-24.332684,20972.209,70731.0
1386926.7534332194,-40626.71,-16979.33,37836.59,-2813.8428,92033.45,-22.542318,20973.877,70729.9
1386926.7574332147,-40623.293,-16980.145,37837.28,-2817.0166,92030.44,-22.827148,20980.266,70735.88
1386926.7614332102,-40621.258,-16975.79,37838.707,-2820.394,92024.74,-24.902344,20981.568,70746.79
1386926.7654332058,-40617.758,-16978.842,37839.113,-2819.2546,92017.664,-25.716146,20977.05,70743.66
1386926.7694332013,-40610.92,-16973.268,37839.76,-2814.7788,92023.805,-24.780273,20973.43,70727.016
1386926.7734331968,-40612.145,-16972.535,37838.094,-2814.209,92028.93,-21.931967,20981.73,70738.445
1386926.7774331921,-40606.445,-16978.191,37836.426,-2817.2202,92034.75,-21.199545,20991.658,70749.02
1386926.7814331877,-40605.43,-16977.986,37834.72,-2821.289,92035.766,-23.55957,20993.775,70760.375
1386926.7854331832,-40604.82,-16967.408,37839.316,-2820.0684,92029.26,-22.74577,20991.455,70753.42
1386926.7894331787,-40607.586,-16962.117,37847.21,-2814.901,92038.91,-20.222982,20986.736,70744.02
1386926.793433174,-40602.094,-16963.217,37854.777,-2809.6519,92050.58,-17.618816,20993.611,70753.3
1386926.7974331696,-40601.074,-16966.797,37859.215,-2813.3545,92039.555,-19.53125,20999.676,70761.11
1386926.801433165,-40606.242,-16971.232,37856.04,-2820.0278,92027.836,-21.321615,21001.629,70764.94
1386926.8054331606,-40605.836,-16969.809,37852.62,-2820.15,92021.89,-17.211914,21004.762,70772.664
1386926.8094331562,-40604.617,-16969.32,37850.668,-2817.0574,92024.984,-10.864258,21003.297,70759.52
1386926.8134331515,-40604.13,-16969.809,37850.344,-2816.854,92033.61,-6.2662764,21009.033,70768.35
1386926.817433147,-40605.31,-16966.432,37851.277,-2820.4346,92039.266,-8.7890625,21012.29,70763.35
1386926.8214331425,-40609.418,-16967.123,37845.664,-2825.1953,92039.266,-13.509115,21008.953,70757.41
1386926.825433138,-40612.062,-16967.488,37843.996,-2824.3408,92037.27,-11.881511,21006.186,70756.8
1386926.8294331334,-40613.484,-16968.75,37848.43,-2820.272,92041.99,-9.724936,21001.709,70757.0
1386926.833433129,-40607.953,-16967.326,37852.215,-2817.4644,92045.58,-12.410482,20998.82,70767.58
1386926.8374331244,-40605.387,-16966.188,37854.777,-2817.1794,92040.0,-14.567058,21001.75,70794.31
1386926.84143312,-40605.105,-16971.03,37853.11,-2820.9229,92031.5,-19.16504,20995.443,70750.04
1386926.8454331155,-40607.383,-16976.482,37846.64,-2822.103,92024.09,-20.792645,20987.264,70729.25
1386926.8494331108,-40613.484,-16975.18,37843.14,-2819.1733,92029.87,-18.83952,20984.334,70730.305
1386926.8534331063,-40620.16,-16975.424,37836.914,-2818.7664,92034.266,-18.880209,20990.275,70739.87
1386926.8574331019,-40624.27,-16975.83,37831.46,-2825.521,92033.57,-20.019531,20996.95,70750.49
1386926.8614330974,-40633.586,-16985.434,37828.613,-2832.8044,92029.38,-22.338867,20995.525,70759.32
1386926.865433093,-40642.254,-16993.938,37832.52,-2832.601,92020.266,-21.280926,20989.787,70752.61
1386926.8694330882,-40639.65,-16994.305,37836.67,-2828.5728,92019.125,-19.49056,20982.504,70740.64
1386926.8734330838,-40633.426,-16994.914,37840.863,-2826.945,92019.086,-18.269857,20982.586,70741.984
1386926.8774330793,-40628.215,-16997.559,37843.71,-2831.0547,92013.19,-19.571941,20988.77,70753.09
1386926.8814330748,-40628.95,-17003.094,37843.387,-2834.9204,92008.22,-21.321615,20990.967,70763.02
1386926.8854330701,-40627.117,-16998.129,37844.566,-2833.1707,92006.92,-21.118164,20983.602,70730.63
1386926.8894330657,-40626.508,-16990.643,37840.332,-2829.3457,92007.164,-17.456055,20980.062,70712.41
1386926.8934330612,-40625.57,-16990.602,37834.39,-2828.0437,92019.695,-13.549805,20986.94,70734.984
1386926.8974330567,-40630.777,-16996.623,37823.285,-2831.3804,92021.734,-15.625,20991.943,70743.53
1386926.9014330523,-40637.047,-16998.535,37821.086,-2834.6355,92018.68,-18.147787,20994.305,70744.43
1386926.9054330476,-40636.637,-17000.611,37826.66,-2833.9438,92014.49,-16.520184,20995.281,70763.15
1386926.909433043,-40629.76,-16993.043,37835.367,-2828.8574,92014.2,-12.084961,20994.914,70764.41
1386926.9134330386,-40628.297,-16990.602,37839.316,-2827.108,92014.695,-12.573242,20994.752,70750.086
1386926.9174330342,-40628.746,-16997.762,37842.246,-2828.125,92016.4,-15.909831,20998.658,70758.06
1386926.9214330295,-40622.273,-16998.373,37845.38,-2827.7996,92014.41,-21.809896,20996.053,70755.86
1386926.925433025,-40620.28,-16989.584,37847.86,-2823.3643,92020.43,-24.169922,20988.607,70753.83
1386926.9294330205,-40618.492,-16980.633,37845.215,-2816.854,92029.14,-20.507812,20985.027,70756.19
1386926.933433016,-40618.164,-16977.336,37843.75,-2814.0056,92030.56,-19.49056,20986.492,70756.31
1386926.9374330116,-40622.76,-16978.11,37839.805,-2815.5518,92038.74,-23.39681,20991.21,70765.14
1386926.941433007,-40623.863,-16976.562,37836.996,-2819.0918,92036.79,-28.035482,20988.729,70765.34
1386926.9454330024,-40618.98,-16978.842,37838.707,-2818.441,92031.58,-26.326498,20983.887,70758.83
1386926.949432998,-40610.92,-16977.783,37842.773,-2815.2263,92034.79,-23.11198,20985.066,70769.53
1386926.9534329935,-40608.97,-16968.303,37844.117,-2812.6628,92036.95,-21.484375,20987.102,70763.39
1386926.9574329888,-40615.887,-16973.797,37842.367,-2815.1855,92034.266,-22.298178,20991.496,70750.29
1386926.9614329843,-40622.234,-16972.168,37837.16,-2817.5864,92035.445,-23.600262,20992.96,70757.49
1386926.9654329799,-40623.047,-16975.545,37835.246,-2816.9353,92032.836,-22.583008,20990.56,70763.92
1386926.9694329754,-40624.758,-16977.418,37836.832,-2813.7615,92032.63,-19.3278,20989.096,70757.9
1386926.973432971,-40628.336,-16979.656,37836.793,-2814.5752,92034.95,-16.764324,20993.287,70759.4
1386926.9774329662,-40623.332,-16984.09,37840.66,-2817.2202,92028.77,-16.316732,20999.92,70773.56
1386926.9814329618,-40625.367,-16989.014,37842.613,-2819.0105,92026.0,-20.426434,20993.572,70762.05
1386926.9854329573,-40628.418,-16993.246,37843.59,-2819.7021,92024.17,-21.769207,20980.389,70728.84
1386926.9894329528,-40621.867,-16985.271,37844.973,-2817.4236,92027.55,-21.402996,20975.262,70725.38
1386926.9934329484,-40619.996,-16974.285,37844.44,-2814.4531,92032.8,-21.891277,20980.184,70743.66
1386926.9974329437,-40622.965,-16979.615,37841.797,-2816.854,92037.27,-24.454754,20983.807,70759.65
1386927.0014329392,-40622.273,-16989.38,37836.55,-2821.2078,92031.01,-29.134115,20981.08,70752.93
1386927.0054329347,-40627.93,-16996.623,37829.754,-2822.754,92027.34,-28.483074,20979.045,70746.38
1386927.0094329303,-40630.37,-16993.328,37829.47,-2819.5396,92030.88,-23.11198,20980.672,70751.47
1386927.0134329256,-40630.37,-16989.217,37833.008,-2819.2546,92028.81,-20.141602,20984.05,70746.99
1386927.017432921,-40634.195,-16996.014,37831.137,-2824.5444,92023.89,-22.786459,20988.81,70754.31
1386927.0214329166,-40635.582,-17003.215,37829.02,-2828.4507,92016.16,-26.52995,20989.95,70758.914
1386927.0254329122,-40634.195,-17011.395,37833.902,-2826.945,92008.1,-26.52995,20984.863,70746.5
1386927.0294329077,-40630.74,-17000.977,37841.84,-2819.865,92017.17,-23.23405,20981.61,70730.43
1386927.033432903,-40629.19,-16996.42,37842.69,-2816.6504,92025.44,-23.19336,20982.3,70732.71
1386927.0374328985,-40630.29,-16996.705,37838.785,-2819.7021,92029.586,-25.472006,20982.951,70731.24
1386927.041432894,-40635.336,-16994.914,37832.4,-2824.1782,92033.2,-27.547201,20982.992,70735.03
1386927.0454328896,-40634.848,-16993.979,37830.16,-2823.4458,92030.4,-28.238934,20975.627,70729.695
1386927.049432885,-40631.88,-16990.967,37832.887,-2818.8477,92030.48,-28.361004,20968.14,70728.88
1386927.0534328804,-40632.895,-16993.855,37837.566,-2815.796,92031.58,-27.547201,20970.541,70730.23
1386927.057432876,-40624.15,-16990.602,37841.88,-2816.854,92035.445,-28.727215,20978.11,70751.55
1386927.0614328715,-40626.465,-16990.357,37842.49,-2822.0623,92032.15,-30.395508,20980.55,70763.59
1386927.065432867,-40628.664,-16991.74,37841.92,-2823.3643,92030.88,-29.907227,20977.254,70769.21
1386927.0694328623,-40621.664,-16987.02,37842.57,-2818.685,92041.95,-26.692709,20972.78,70745.57
1386927.0734328579,-40616.617,-16981.16,37842.53,-2817.3828,92046.02,-26.123047,20973.674,70735.84
1386927.0774328534,-40621.99,-16979.695,37838.785,-2819.336,92049.6,-25.797527,20985.475,70763.305
1386927.081432849,-40622.03,-16982.707,37828.9,-2822.7134,92043.7,-27.547201,20990.56,70750.086
1386927.0854328442,-40623.21,-16992.555,37826.17,-2824.0154,92035.98,-28.035482,20987.916,70740.805
1386927.0894328398,-40623.863,-16995.484,37830.65,-2820.8008,92039.59,-26.000977,20990.113,70755.375
1386927.0934328353,-40629.11,-16997.967,37832.6,-2821.289,92042.69,-23.4375,20994.305,70761.03
1386927.0974328308,-40633.79,-17004.965,37831.668,-2825.399,92044.6,-25.594076,20995.32,70765.42
1386927.1014328264,-40640.26,-17009.521,37827.395,-2832.7231,92036.83,-27.506512,20992.555,70770.59
1386927.1054328217,-40640.42,-17005.371,37827.92,-2831.7058,92034.836,-27.750652,20982.992,70752.93
1386927.1094328172,-40636.312,-17002.645,37830.16,-2825.2769,92034.47,-26.367188,20973.592,70733.805
1386927.1134328127,-40637.29,-17002.156,37829.918,-2823.6492,92034.71,-25.797527,20973.592,70733.85
1386927.1174328083,-40644.086,-17002.645,37824.707,-2826.3347,92034.305,-27.791342,20977.336,70732.875
1386927.1214328036,-40650.31,-17006.268,37818.523,-2831.0547,92027.02,-32.185875,20974.854,70730.67
1386927.125432799,-40653.81,-17007.936,37817.953,-2830.1597,92024.375,-33.569336,20964.967,70728.555
1386927.1294327946,-40655.56,-17017.904,37819.99,-2825.236,92019.82,-33.854168,20956.91,70712.93
1386927.1334327902,-40655.152,-17017.945,37823.855,-2822.3064,92027.51,-32.430016,20960.613,70710.86
1386927.1374327857,-40657.797,-17019.816,37824.344,-2823.7305,92033.66,-34.91211,20963.299,70706.09
1386927.141432781,-40661.664,-17021.12,37821.98,-2826.7417,92025.72,-36.458336,20964.111,70721.195
1386927.1454327765,-40662.395,-17019.695,37824.504,-2824.7478,92022.14,-36.458336,20953.41,70707.16
1386927.149432772,-40664.47,-17024.902,37826.01,-2819.2139,92019.82,-35.88867,20945.354,70703.25
1386927.1534327676,-40661.258,-17022.584,37826.5,-2816.04,92019.66,-35.7666,20948.61,70715.375
1386927.1574327631,-40662.926,-17022.217,37822.715,-2818.1152,92018.68,-37.516277,20954.754,70740.44
1386927.1614327584,-40663.37,-17022.99,37819.785,-2822.3064,92019.25,-39.021812,20954.184,70728.88
1386927.165432754,-40656.13,-17020.71,37825.074,-2821.3298,92022.34,-35.481773,20953.207,70720.79
1386927.1694327495,-40649.617,-17011.23,37834.637,-2816.9353,92026.62,-31.25,20953.572,70707.84
1386927.173432745,-40648.234,-17005.656,37840.13,-2814.7788,92033.41,-29.866537,20957.195,70715.5
1386927.1774327403,-40647.625,-17009.562,37840.375,-2814.6973,92037.234,-32.714844,20959.799,70719.08
1386927.1814327359,-40648.805,-17016.44,37836.754,-2816.4062,92031.984,-35.970055,20959.393,70726.28
