timestamp,Fp1,Fp2,F3,Fz,F4,Cz,Pz,Oz
1386881.8694839114,-44778.523,-19974.447,31626.344,-6676.5547,82881.836,-3117.4724,15336.06,65080.082
1386881.873483907,-44776.246,-19973.877,31631.023,-6674.4795,82886.6,-3114.502,15349.772,65113.773
1386881.8774839025,-44780.03,-19979.451,31629.355,-6678.4263,82888.266,-3114.0952,15363.933,65124.434
1386881.881483898,-44784.914,-19981.975,31626.303,-6684.652,82883.18,-3113.9324,15366.74,65113.285
1386881.8854838936,-44791.383,-19984.09,31623.7,-6687.0933,82886.31,-3114.38,15364.096,65094.035
1386881.8894838889,-44795.535,-19990.967,31623.252,-6684.6113,82890.42,-3110.962,15371.826,65125.816
1386881.8934838844,-44793.66,-19988.281,31624.35,-6678.508,82899.78,-3109.497,15378.012,65134.848
1386881.89748388,-44782.39,-19977.377,31626.426,-6676.88,82905.84,-3112.9558,15377.971,65126.47
1386881.9014838755,-44782.227,-19976.889,31627.646,-6679.1587,82902.02,-3117.147,15373.495,65136.64
1386881.9054838708,-44783.977,-19979.412,31628.662,-6677.694,82898.12,-3117.7573,15366.943,65139.69
1386881.9094838663,-44780.07,-19979.004,31628.459,-6673.218,82902.06,-3114.0544,15366.13,65153.363
1386881.9134838618,-44777.59,-19974.691,31627.605,-6671.5903,82914.76,-3109.7412,15375.0,65168.54
1386881.9174838574,-44772.46,-19961.629,31627.523,-6673.625,82923.22,-3107.0964,15386.23,65187.504
1386881.921483853,-44765.79,-19954.793,31628.785,-6676.1475,82922.37,-3108.2358,15388.021,65189.78
1386881.9254838482,-44770.145,-19966.553,31625.773,-6675.863,82919.76,-3108.8054,15382.854,65186.81
1386881.9294838437,-44767.824,-19969.482,31629.355,-6669.393,82927.414,-3107.9102,15376.343,65168.742
1386881.9334838393,-44756.39,-19952.678,31635.58,-6668.7827,82938.6,-3105.2246,15381.308,65172.367
1386881.9374838348,-44751.668,-19940.105,31636.475,-6673.34,82940.39,-3107.0557,15387.899,65182.17
1386881.94148383,-44752.645,-19942.383,31633.83,-6676.0664,82930.26,-3110.189,15382.8125,65177.37
1386881.9454838256,-44757.324,-19947.795,31630.088,-6676.595,82924.766,-3110.5957,15374.797,65169.926
1386881.9494838212,-44759.2,-19947.348,31632.203,-6673.259,82928.43,-3107.666,15374.105,65165.855
1386881.9534838167,-44756.715,-19942.871,31632.936,-6671.753,82936.24,-3106.1606,15375.8955,65141.277
1386881.9574838122,-44752.605,-19948.568,31635.377,-6676.107,82940.02,-3105.0212,15382.08,65127.934
1386881.9614838075,-44755.293,-19949.3,31633.668,-6681.3965,82935.95,-3107.1777,15380.859,65123.58
1386881.965483803,-44762.13,-19952.148,31634.93,-6682.6987,82928.23,-3106.771,15378.784,65129.52
1386881.9694837986,-44762.574,-19950.318,31640.463,-6677.938,82932.09,-3104.126,15378.54,65132.69
1386881.9734837941,-44754.76,-19953.045,31644.695,-6672.811,82936.24,-3101.5625,15382.854,65140.953
1386881.9774837894,-44748.332,-19951.416,31646.24,-6674.52,82933.31,-3104.655,15391.643,65169.883
1386881.981483785,-44748.902,-19951.05,31643.555,-6679.3213,82923.016,-3107.7476,15396.281,65171.145
1386881.9854837805,-44756.96,-19955.078,31641.887,-6679.403,82916.83,-3105.835,15392.985,65151.613
1386881.989483776,-44767.336,-19961.873,31638.348,-6677.0835,82917.85,-3102.9868,15392.212,65149.17
1386881.9934837716,-44770.387,-19973.389,31637.574,-6674.0723,82926.88,-3100.9521,15396.484,65164.023
1386881.9974837669,-44753.703,-19964.559,31642.295,-6676.229,82937.336,-3103.1902,15398.52,65162.883
1386882.0014837624,-44746.22,-19949.79,31642.375,-6681.844,82932.7,-3104.411,15397.38,65170.13
1386882.005483758,-44746.176,-19942.547,31638.754,-6682.292,82930.055,-3104.126,15393.474,65161.5
1386882.0094837535,-44754.395,-19951.213,31635.986,-6677.9785,82933.39,-3102.1729,15390.585,65180.258
1386882.013483749,-44752.117,-19958.13,31639.527,-6673.625,82939.78,-3101.6033,15389.242,65174.81
1386882.0174837443,-44739.383,-19942.953,31645.428,-6673.218,82942.016,-3104.6958,15384.033,65139.977
1386882.0214837398,-44735.35,-19937.012,31648.602,-6675.1304,82938.6,-3108.8054,15385.661,65167.32
1386882.0254837354,-44734.863,-19942.586,31650.27,-6676.2695,82931.36,-3110.8398,15380.534,65178.227
1386882.029483731,-44734.58,-19945.271,31651.855,-6673.95,82931.07,-3107.3813,15375.732,65180.055
1386882.0334837262,-44737.633,-19944.54,31653.24,-6670.98,82939.414,-3104.777,15374.472,65165.367
1386882.0374837217,-44735.434,-19947.186,31652.71,-6672.4854,82940.48,-3105.7944,15378.093,65163.37
1386882.0414837173,-44754.273,-19948.162,31652.508,-6676.1885,82934.45,-3108.2358,15378.215,65168.582
1386882.0454837128,-44790.855,-19954.225,31651.408,-6676.88,82929.24,-3110.9214,15372.192,65153.527
1386882.0494837083,-44751.832,-19966.064,31646.973,-6674.6826,82927.37,-3108.6833,15372.559,65147.586
1386882.0534837036,-44738.934,-19966.064,31641.521,-6675.2524,82931.52,-3102.7427,15378.988,65130.375
1386882.0574836992,-44742.598,-19963.46,31638.877,-6678.508,82931.07,-3100.1792,15386.475,65126.02
1386882.0614836947,-44749.676,-19961.752,31636.027,-6681.885,82925.984,-3102.0916,15386.841,65130.7
1386882.0654836902,-44757.977,-19965.576,31637.492,-6681.926,82920.78,-3103.1494,15380.819,65124.23
1386882.0694836855,-44762.492,-19969.686,31641.725,-6677.6123,82923.14,-3100.1384,15381.714,65120.402
1386882.073483681,-44755.37,-19960.164,31648.072,-6672.038,82934.0,-3097.0867,15393.718,65141.117
1386882.0774836766,-44742.188,-19953.533,31655.885,-6670.858,82943.81,-3098.3074,15409.302,65178.227
1386882.0814836721,-44734.5,-19960.37,31661.744,-6669.1895,82942.836,-3102.3357,15412.069,65178.875
1386882.0854836677,-44730.47,-19948.365,31662.354,-6668.0503,82936.36,-3102.946,15410.4,65162.273
1386882.089483663,-44720.543,-19923.584,31664.47,-6663.9,82944.46,-3099.2432,15413.859,65164.715
1386882.0934836585,-44717.49,-19911.053,31667.4,-6661.54,82956.1,-3095.988,15423.95,65189.17
1386882.097483654,-44713.543,-19903.443,31669.76,-6661.4585,82964.766,-3095.337,15431.356,65194.094
1386882.1014836496,-44715.496,-19920.736,31668.783,-6665.487,82959.84,-3097.7783,15426.188,65188.76
1386882.1054836449,-44716.676,-19928.508,31667.562,-6664.8765,82956.1,-3099.528,15410.849,65158.082
1386882.1094836404,-44723.39,-19931.193,31666.83,-6660.9297,82955.445,-3098.0225,15401.652,65148.156
1386882.113483636,-44720.582,-19925.578,31666.748,-6657.7964,82959.31,-3098.5107,15403.28,65185.223
1386882.1174836315,-44714.766,-19912.924,31668.662,-6656.25,82967.37,-3102.295,15399.821,65193.117
1386882.121483627,-44715.047,-19913.941,31667.115,-6657.6743,82965.21,-3105.7537,15392.538,65179.77
1386882.1254836223,-44724.246,-19929.89,31665.732,-6660.36,82958.055,-3106.8115,15387.289,65189.25
1386882.1294836178,-44732.016,-19944.947,31665.732,-6657.3486,82956.34,-3105.4688,15379.477,65179.363
1386882.1334836134,-44734.785,-19947.469,31663.127,-6656.3315,82961.14,-3100.3418,15383.505,65162.68
1386882.137483609,-44734.418,-19938.232,31660.482,-6662.7607,82958.78,-3098.3074,15392.294,65163.617
1386882.1414836044,-44741.254,-19938.6,31658.773,-6668.335,82947.39,-3097.697,15394.491,65162.113
1386882.1454835997,-44746.094,-19953.654,31657.105,-6669.027,82934.94,-3096.273,15390.381,65152.305
1386882.1494835953,-44758.06,-19965.7,31658.936,-6666.789,82932.58,-3093.9536,15388.713,65154.95
1386882.1534835908,-44757.855,-19964.559,31665.324,-6662.8013,82938.234,-3092.4072,15387.411,65130.535
1386882.1574835863,-44747.152,-19960.287,31666.3,-6663.9814,82940.35,-3092.163,15398.886,65150.676
1386882.1614835816,-44743.734,-19962.566,31665.203,-6666.504,82938.07,-3094.2383,15402.832,65143.312
1386882.1654835772,-44745.527,-19966.064,31662.273,-6665.8125,82934.45,-3095.744,15400.595,65120.934
1386882.1694835727,-44753.133,-19971.477,31659.303,-6663.127,82933.516,-3091.3901,15407.959,65132.61
1386882.1734835682,-44757.977,-19971.314,31663.494,-6661.0923,82943.36,-3088.8672,15418.173,65144.816
1386882.1774835638,-44759.402,-19967.408,31663.941,-6663.9,82947.96,-3089.6404,15427.165,65169.273
1386882.181483559,-44768.883,-19984.01,31660.93,-6666.301,82946.66,-3091.6748,15427.165,65193.973
1386882.1854835546,-44763.875,-19977.865,31658.164,-6666.097,82943.65,-3093.4653,15420.207,65197.758
1386882.1894835501,-44778.402,-19962.932,31662.559,-6663.371,82940.63,-3090.6577,15418.335,65196.21
1386882.1934835457,-44799.684,-19963.135,31667.033,-6660.2783,82945.195,-3087.8093,15420.248,65191.773
1386882.197483541,-44745.527,-19960.896,31669.068,-6662.2725,82951.22,-3087.1582,15427.775,65193.08
1386882.2014835365,-44747.926,-19964.479,31666.504,-6666.3413,82949.55,-3088.2163,15427.165,65206.79
1386882.205483532,-44767.09,-19977.783,31666.016,-6665.324,82943.04,-3086.9956,15417.074,65174.81
1386882.2094835276,-44807.902,-19994.385,31668.945,-6659.261,82940.836,-3084.6763,15411.296,65161.95
1386882.213483523,-44774.863,-19974.447,31671.916,-6656.8604,82962.37,-3083.8218,15415.243,65193.035
1386882.2174835184,-44735.72,-19954.713,31672.893,-6655.5586,82966.27,-3086.4258,15416.057,65198.61
1386882.221483514,-44756.633,-19955.73,31674.316,-6655.7617,82960.62,-3093.3433,15405.803,65173.832
1386882.2254835095,-44727.62,-19942.262,31671.875,-6656.25,82954.1,-3093.0176,15399.374,65163.21
1386882.229483505,-44729.574,-19945.191,31676.555,-6656.372,82958.336,-3088.2163,15403.769,65176.312
1386882.2334835003,-44725.383,-19943.156,31679.037,-6653.1577,82969.04,-3085.0017,15410.522,65178.305
1386882.2374834958,-44719.566,-19928.63,31676.025,-6655.8433,82973.96,-3087.9314,15413.493,65177.33
1386882.2414834914,-44725.71,-19925.172,31673.096,-6660.238,82970.54,-3089.9658,15411.865,65176.11
1386882.245483487,-44741.008,-19933.229,31676.23,-6659.8716,82970.016,-3088.1348,15408.366,65183.88
1386882.2494834824,-44748.375,-19940.633,31674.44,-6655.9653,82973.59,-3085.8154,15408.163,65200.074
1386882.2534834777,-44808.27,-19958.375,31705.363,-6652.466,82969.28,-3082.8452,15414.999,65206.953
1386882.2574834733,-44862.227,-20010.662,31743.043,-6654.0527,82978.31,-3086.9548,15412.639,65142.133
1386882.2614834688,-44887.98,-20074.707,31712.24,-6654.7446,82964.234,-3090.6982,15414.999,65148.195
1386882.2654834643,-44741.457,-19973.797,31675.049,-6652.1406,82964.195,-3088.2163,15421.428,65161.297
1386882.2694834599,-44741.008,-19914.592,31691.041,-6649.089,82978.56,-3085.775,15418.945,65153.16
1386882.2734834552,-44827.19,-19977.05,31694.012,-6643.636,82987.59,-3083.7402,15424.072,65168.99
1386882.2774834507,-44735.15,-19990.316,31693.93,-6641.683,82987.02,-3085.0017,15434.286,65175.62
1386882.2814834462,-44661.824,-19886.11,31689.047,-6650.8384,82967.9,-3082.479,15449.463,65200.277
1386882.2854834418,-44696.332,-19865.723,31678.71,-6660.8887,82967.05,-3076.6602,15459.636,65215.21
1386882.289483437,-44725.3,-19917.521,31710.043,-6657.064,82966.68,-3076.6196,15457.275,65224.082
1386882.2934834326,-44697.062,-19954.428,31709.025,-6646.932,82993.21,-3076.5789,15456.015,65227.38
1386882.2974834281,-44643.68,-19944.906,31675.172,-6645.345,83002.56,-3075.643,15460.653,65232.18
1386882.3014834237,-44620.242,-19990.072,31677.775,-6646.6064,83006.72,-3079.5898,15455.933,65229.332
1386882.3054834192,-44614.625,-19942.506,31683.676,-6645.874,82993.62,-3079.9155,15449.667,65238.773
1386882.3094834145,-44584.72,-19902.1,31693.197,-6646.8916,82986.45,-3075.8464,15444.092,65222.863
1386882.31348341,-44569.133,-19920.533,31702.068,-6646.566,83007.57,-3072.754,15444.092,65228.19
1386882.3174834056,-44581.87,-19952.76,31706.178,-6643.026,83025.96,-3074.7886,15445.476,65232.79
1386882.321483401,-44528.363,-19973.227,31707.48,-6642.7,83007.65,-3083.0078,15426.718,65187.016
1386882.3254833964,-44560.914,-19994.06,31710.857,-6638.916,82979.66,-3086.9956,15408.773,65163.414
1386882.329483392,-44520.348,-19993.775,31708.416,-6631.6733,83012.05,-3083.1707,15408.977,65190.594
1386882.3334833875,-44490.52,-20000.977,31698.203,-6627.6045,83029.3,-3079.956,15417.318,65186.973
1386882.337483383,-44518.312,-20001.018,31705.771,-6628.4995,83030.27,-3079.5898,15422.7295,65168.336
1386882.3414833786,-44500.164,-19978.11,31722.82,-6630.941,83043.13,-3080.485,15424.235,65149.133
1386882.3454833739,-44538.617,-20046.55,31726.115,-6630.941,83055.26,-3081.1768,15424.357,65171.88
1386882.3494833694,-44516.24,-20028.646,31718.059,-6626.1396,83064.78,-3077.6775,15428.02,65184.043
1386882.353483365,-44470.055,-19945.312,31717.855,-6622.2334,83067.38,-3072.3877,15438.07,65196.94
1386882.3574833605,-44458.375,-19938.64,31718.303,-6624.878,83057.375,-3071.2078,15448.935,65217.816
1386882.3614833558,-44464.07,-19963.95,31717.938,-6627.767,83051.64,-3072.5913,15456.218,65238.773
1386882.3654833513,-44475.06,-19974.447,31719.809,-6626.0176,83051.84,-3070.8008,15463.623,65269.086
1386882.3694833468,-44471.6,-19971.07,31720.42,-6624.797,83072.19,-3065.9587,15472.25,65272.34
1386882.3734833424,-44506.27,-19984.457,31720.703,-6622.925,83082.73,-3063.6394,15476.889,65268.273
1386882.377483338,-44470.176,-19993.938,31725.383,-6625.2036,83080.04,-3064.3718,15485.515,65288.94
1386882.3814833332,-44435.75,-19991.943,31726.318,-6628.9473,83092.05,-3065.5518,15488.119,65289.836
1386882.3854833287,-44441.69,-20007.08,31723.756,-6628.784,83109.09,-3063.7615,15488.688,65294.844
1386882.3894833243,-44447.062,-20022.87,31723.594,-6624.9595,83095.016,-3059.2449,15484.863,65273.6
1386882.3934833198,-44455.934,-20018.475,31725.547,-6622.152,83092.164,-3055.5015,15490.683,65276.125
1386882.397483315,-44470.46,-20015.828,31727.174,-6624.919,83101.65,-3055.0537,15502.36,65298.832
1386882.4014833106,-44489.707,-20023.234,31725.627,-6627.889,83111.9,-3056.6,15501.14,65290.53
1386882.4054833062,-44446.98,-20042.604,31721.559,-6627.8486,83107.34,-3056.1118,15492.147,65259.93
1386882.4094833017,-44441.938,-20050.701,31714.805,-6626.1396,83101.65,-3052.3276,15491.293,65274.254
1386882.4134832972,-44450.848,-20007.162,31715.088,-6626.0986,83099.81,-3047.6482,15501.018,65293.094
1386882.4174832925,-44450.117,-19979.086,31718.71,-6627.2383,83091.516,-3048.1365,15505.29,65284.06
1386882.421483288,-44447.594,-19981.16,31720.094,-6629.3945,83099.94,-3051.8394,15500.529,65265.06
1386882.4254832836,-44453.656,-20002.889,31719.28,-6630.493,83102.945,-3053.06,15495.932,65266.766
1386882.4294832791,-44464.355,-20039.715,31723.715,-6626.994,83097.58,-3050.7,15497.885,65279.016
1386882.4334832747,-44471.805,-20042.684,31730.51,-6622.5586,83102.22,-3048.584,15505.209,65290.043
1386882.43748327,-44488.812,-20029.012,31729.98,-6625.244,83121.016,-3048.462,15510.498,65292.2
1386882.4414832655,-44449.91,-20012.086,31728.557,-6627.4824,83120.24,-3052.8564,15507.854,65285.363
1386882.445483261,-44427.574,-20020.955,31719.89,-6628.215,83108.03,-3053.3447,15505.615,65294.516
1386882.4494832566,-44445.438,-20023.316,31712.363,-6628.703,83105.72,-3050.293,15505.697,65293.664
1386882.4534832519,-44465.17,-20025.31,31708.416,-6628.703,83116.414,-3047.2007,15513.103,65303.508
1386882.4574832474,-44469.81,-20028.605,31710.125,-6628.011,83123.78,-3047.3633,15519.775,65317.305
1386882.461483243,-44450.277,-20014.975,31718.14,-6627.5635,83113.98,-3051.6765,15514.975,65330.934
1386882.4654832385,-44444.297,-20005.047,31721.111,-6625.6104,83109.58,-3054.24,15501.913,65305.098
1386882.469483234,-44460.41,-20025.229,31718.223,-6622.518,83109.945,-3051.9207,15503.825,65323.938
1386882.4734832293,-44468.465,-20043.416,31718.914,-6619.507,83114.75,-3048.1365,15513.428,65334.555
1386882.4774832248,-44460.938,-20030.64,31721.314,-6620.321,83118.29,-3049.4792,15517.05,65333.418
1386882.4814832204,-44469.24,-20039.959,31720.256,-6626.0986,83128.22,-3050.3337,15517.741,65343.793
1386882.485483216,-44489.016,-20053.59,31717.082,-6630.7783,83104.086,-3048.3398,15511.394,65314.78
1386882.4894832112,-44498.375,-20056.072,31716.27,-6628.459,83088.42,-3047.7295,15498.901,65278.363
1386882.4934832067,-44513.633,-20063.924,31722.576,-6626.3022,83106.61,-3045.6138,15499.105,65282.555
1386882.4974832023,-44514.0,-20060.262,31729.697,-6624.878,83123.74,-3047.567,15498.983,65280.07
1386882.5014831978,-44518.84,-20043.66,31729.371,-6623.9424,83121.14,-3052.246,15496.46,65296.145
1386882.5054831933,-44473.066,-20038.006,31725.627,-6625.7734,83108.36,-3052.002,15493.856,65305.91
1386882.5094831886,-44462.363,-20034.262,31721.518,-6623.861,83110.07,-3050.171,15491.008,65304.406
1386882.5134831842,-44467.33,-20029.867,31735.557,-6622.152,83106.28,-3047.8923,15496.948,65305.016
1386882.5174831797,-44485.273,-20047.69,31738.404,-6623.291,83117.19,-3048.3398,15503.744,65324.426
1386882.5214831752,-44483.32,-20053.223,31721.72,-6624.634,83121.5,-3051.6357,15504.802,65326.254
1386882.5254831705,-44479.37,-20074.871,31715.21,-6625.122,83120.52,-3053.0193,15497.478,65308.637
1386882.529483166,-44480.266,-20048.992,31717.652,-6625.3257,83115.28,-3049.1538,15497.803,65317.305
1386882.5334831616,-44485.027,-20015.422,31724.365,-6626.2207,83113.28,-3043.579,15509.604,65337.28
1386882.5374831571,-44486.86,-20015.34,31725.709,-6630.8594,83115.766,-3043.2944,15517.619,65345.297
1386882.5414831527,-44482.465,-20028.85,31723.268,-6635.62,83110.48,-3044.8406,15515.585,65322.023
1386882.545483148,-44488.28,-20044.963,31719.605,-6638.265,83103.805,-3041.7888,15518.107,65329.023
1386882.5494831435,-44494.344,-20038.168,31722.656,-6637.8584,83112.71,-3037.313,15522.177,65336.633
1386882.553483139,-44513.348,-20043.621,31732.627,-6637.126,83125.25,-3033.4473,15528.809,65342.98
1386882.5574831346,-44538.047,-20048.584,31735.637,-6639.7705,83127.24,-3035.5632,15531.576,65352.906
1386882.56148313,-44533.164,-20051.922,31726.197,-6643.1885,83125.61,-3039.8357,15526.164,65325.156
1386882.5654831254,-44491.62,-20057.7,31714.764,-6646.566,83113.0,-3040.9343,15517.944,65313.03
1386882.569483121,-44506.145,-20071.29,31716.432,-6645.996,83101.56,-3040.1611,15515.666,65322.062
1386882.5734831165,-44511.07,-20072.225,31724.936,-6644.9385,83104.86,-3036.621,15527.06,65354.86
1386882.577483112,-44517.5,-20053.914,31730.592,-6644.043,83121.34,-3039.8357,15527.507,65328.82
1386882.5814831073,-44518.066,-20054.852,31734.01,-6644.5312,83124.27,-3043.3757,15520.264,65317.14
1386882.5854831028,-44482.87,-20055.379,31722.373,-6647.1357,83111.49,-3041.3413,15521.688,65321.984
1386882.5894830984,-44479.74,-20045.33,31716.717,-6648.7227,83106.04,-3037.1501,15523.031,65329.023
1386882.593483094,-44496.707,-20047.283,31718.182,-6649.17,83110.234,-3033.2031,15528.524,65348.15
1386882.5974830894,-44502.81,-20055.99,31718.994,-6651.571,83112.02,-3035.1562,15530.518,65360.355
1386882.6014830847,-44506.348,-20058.064,31719.28,-6652.385,83101.24,-3040.975,15524.943,65355.96
1386882.6054830803,-44512.207,-20060.262,31718.182,-6650.92,83095.055,-3043.6199,15511.394,65321.332
1386882.6094830758,-44514.73,-20067.994,31723.553,-6645.752,83101.93,-3039.3882,15513.835,65315.27
1386882.6134830713,-44515.87,-20078.328,31730.225,-6642.2935,83109.375,-3036.2144,15521.444,65320.68
1386882.6174830666,-44511.68,-20057.455,31733.398,-6646.3623,83111.94,-3037.313,15527.182,65336.184
1386882.6214830622,-44514.49,-20048.584,31736.125,-6652.588,83102.7,-3039.022,15530.844,65355.105
1386882.6254830577,-44550.133,-20059.855,31738.607,-6651.4487,83103.07,-3039.266,15527.182,65353.152
1386882.6294830532,-44524.008,-20061.932,31744.549,-6645.0605,83106.734,-3038.615,15520.874,65336.348
1386882.6334830488,-44497.195,-20053.182,31745.566,-6642.4155,83107.586,-3037.4756,15523.4375,65336.793
1386882.637483044,-44498.535,-20057.74,31745.322,-6644.5312,83100.99,-3038.6963,15528.28,65343.06
1386882.6414830396,-44492.11,-20061.688,31746.176,-6645.0605,83102.79,-3042.033,15527.548,65340.09
1386882.6454830351,-44500.367,-20058.146,31744.752,-6645.0605,83098.72,-3041.5447,15526.367,65338.707
1386882.6494830307,-44509.277,-20060.182,31743.816,-6641.805,83101.97,-3036.8652,15528.158,65335.734
1386882.653483026,-44506.39,-20056.682,31746.664,-6638.835,83115.56,-3031.779,15535.808,65342.98
1386882.6574830215,-44521.363,-20051.922,31750.244,-6641.2764,83116.91,-3032.308,15542.074,65354.902
1386882.661483017,-44518.19,-20052.654,31752.238,-6644.8975,83107.14,-3035.4412,15539.917,65355.266
1386882.6654830126,-44490.316,-20052.45,31752.564,-6643.84,83097.86,-3038.1675,15534.384,65345.5
1386882.669483008,-44500.043,-20057.332,31754.111,-6640.259,83096.27,-3035.4004,15535.727,65360.76
1386882.6734830034,-44498.25,-20055.828,31758.627,-6638.5093,83112.39,-3034.7087,15534.546,65331.137
1386882.677482999,-44491.945,-20053.143,31762.045,-6639.2417,83110.4,-3035.3599,15541.342,65338.87
1386882.6814829945,-44495.81,-20063.762,31759.562,-6642.8633,83099.33,-3037.4756,15544.067,65346.273
1386882.68548299,-44504.965,-20076.904,31755.25,-6641.1543,83096.56,-3037.8418,15537.15,65344.73
1386882.6894829855,-44515.707,-20076.986,31752.89,-6637.8174,83096.48,-3033.5288,15535.522,65350.18
1386882.6934829808,-44515.504,-20064.738,31754.6,-6638.55,83094.73,-3029.5818,15536.865,65334.11
1386882.6974829764,-44503.95,-20047.283,31754.883,-6643.1074,83095.99,-3030.8433,15542.603,65347.7
1386882.701482972,-44498.17,-20034.344,31753.338,-6647.624,83083.87,-3034.7087,15539.714,65351.402
1386882.7054829674,-44499.35,-20043.05,31753.215,-6645.1416,83076.375,-3036.2144,15528.605,65322.145
1386882.7094829627,-44501.793,-20053.426,31755.9,-6640.503,83076.7,-3033.6914,15530.64,65338.176
1386882.7134829583,-44506.188,-20057.82,31759.156,-6639.4043,83079.875,-3030.599,15538.046,65363.977
1386882.7174829538,-44507.812,-20054.729,31760.254,-6640.788,83079.266,-3033.488,15533.8955,65343.793
1386882.7214829493,-44508.465,-20055.664,31758.098,-6642.904,83078.58,-3038.9404,15523.967,65321.984
1386882.7254829449,-44513.715,-20058.96,31757.936,-6642.131,83082.97,-3041.626,15512.492,65302.86
1386882.7294829402,-44519.004,-20057.373,31759.4,-6636.9224,83085.77,-3040.4868,15510.824,65313.152
1386882.7334829357,-44516.277,-20058.064,31763.754,-6632.9346,83099.94,-3039.3474,15519.45,65343.266
1386882.7374829312,-44507.49,-20064.576,31767.01,-6635.783,83103.97,-3039.4287,15528.361,65369.957
1386882.7414829268,-44503.62,-20053.793,31764.121,-6640.869,83087.37,-3040.0798,15527.263,65348.797
1386882.745482922,-44506.473,-20051.84,31761.639,-6642.212,83082.234,-3040.1206,15517.538,65298.383
1386882.7494829176,-44509.32,-20050.252,31762.33,-6639.16,83082.6,-3037.2314,15516.968,65306.926
1386882.7534829131,-44511.273,-20045.29,31761.395,-6637.8584,83083.5,-3033.9355,15527.06,65340.7
1386882.7574829087,-44513.023,-20049.969,31759.482,-6641.195,83082.44,-3033.488,15540.283,65363.324
1386882.7614829042,-44522.83,-20068.156,31755.9,-6645.671,83073.98,-3035.3599,15540.487,65365.562
1386882.7654828995,-44533.285,-20082.316,31754.191,-6645.9556,83076.42,-3038.2896,15529.216,65338.504
1386882.769482895,-44520.918,-20045.492,31762.127,-6638.835,83087.2,-3036.2957,15525.839,65318.32
1386882.7734828906,-44514.0,-20029.867,31766.318,-6636.8003,83097.086,-3031.9824,15533.977,65326.254
1386882.777482886,-44517.133,-20038.494,31767.213,-6640.1777,83095.18,-3031.0059,15544.394,65348.676
1386882.7814828814,-44510.742,-20039.592,31770.06,-6640.3,83090.414,-3033.081,15548.666,65375.207
1386882.785482877,-44512.492,-20047.648,31771.363,-6638.6313,83084.76,-3035.604,15540.405,65358.195
1386882.7894828725,-44512.574,-20049.113,31773.275,-6631.6733,83085.21,-3033.1626,15538.086,65345.91
1386882.793482868,-44511.76,-20045.613,31772.99,-6629.11,83095.336,-3029.8667,15542.44,65352.01
1386882.7974828635,-44514.65,-20040.854,31770.184,-6634.847,83099.86,-3029.9072,15548.34,65381.31
1386882.8014828588,-44519.453,-20041.951,31771.363,-6638.835,83096.64,-3033.61,15542.969,65375.773
1386882.8054828544,-44518.395,-20044.312,31773.398,-6638.2246,83096.4,-3035.3599,15531.982,65344.28
1386882.80948285,-44512.37,-20043.701,31775.27,-6633.586,83097.984,-3035.319,15527.466,65323.855
1386882.8134828454,-44505.13,-20039.43,31777.67,-6630.697,83094.52,-3034.3425,15534.424,65330.895
1386882.8174828407,-44496.38,-20035.115,31780.803,-6630.941,83092.49,-3035.075,15545.817,65379.76
1386882.8214828363,-44496.016,-20034.424,31774.537,-6634.359,83085.984,-3038.208,15540.935,65371.137
1386882.8254828318,-44499.637,-20038.533,31774.943,-6633.9927,83084.39,-3040.446,15525.391,65323.812
1386882.8294828273,-44510.742,-20044.475,31774.414,-6630.615,83089.44,-3041.0156,15522.705,65353.152
1386882.8334828229,-44513.797,-20045.33,31776.572,-6626.506,83105.96,-3041.3413,15523.764,65340.984
1386882.8374828182,-44512.9,-20049.805,31780.438,-6628.662,83107.67,-3044.2302,15528.117,65350.508
1386882.8414828137,-44514.69,-20067.83,31776.367,-6630.9814,83095.5,-3048.6248,15525.229,65353.03
1386882.8454828092,-44518.19,-20070.924,31776.896,-6629.1504,83091.96,-3048.1772,15517.09,65335.613
1386882.8494828048,-44525.15,-20048.096,31779.42,-6630.534,83091.555,-3044.3115,15521.688,65357.3
1386882.8534828003,-44518.883,-20039.55,31782.188,-6629.924,83098.516,-3040.324,15533.569,65389.527
1386882.8574827956,-44515.34,-20042.928,31780.844,-6634.074,83096.27,-3041.0156,15540.202,65405.195
1386882.8614827911,-44514.203,-20041.992,31775.96,-6637.7363,83087.41,-3044.271,15533.203,65361.453
1386882.8654827867,-44512.617,-20043.377,31773.316,-6637.2886,83086.266,-3044.6777,15523.56,65333.215
1386882.8694827822,-44518.92,-20045.207,31774.375,-6633.545,83093.914,-3041.5854,15523.642,65334.68
1386882.8734827775,-44520.145,-20045.207,31777.508,-6631.307,83099.086,-3038.2896,15532.1455,65355.918
1386882.877482773,-44518.312,-20041.3,31780.723,-6631.958,83102.664,-3038.2896,15540.609,65378.99
1386882.8814827686,-44520.957,-20049.887,31783.285,-6635.9863,83095.46,-3040.975,15539.0625,65382.406
1386882.885482764,-44526.207,-20056.885,31785.482,-6637.207,83077.96,-3041.748,15530.925,65360.477
1386882.8894827596,-44523.316,-20069.418,31789.715,-6632.65,83080.57,-3042.44,15520.508,65321.047
1386882.893482755,-44521.65,-20074.707,31791.22,-6629.2725,83090.58,-3041.4226,15524.902,65344.688
1386882.8974827505,-44518.395,-20052.734,31791.953,-6631.3477,83099.77,-3040.6494,15533.813,65358.766
1386882.901482746,-44518.19,-20047.934,31788.168,-6634.6846,83103.4,-3041.504,15534.18,65358.81
1386882.9054827415,-44524.742,-20056.111,31786.541,-6634.847,83093.8,-3042.44,15524.211,65340.617
1386882.9094827368,-44525.92,-20061.076,31790.121,-6629.8423,83093.38,-3041.4226,15515.707,65323.406
1386882.9134827324,-44523.48,-20059.855,31791.668,-6626.2617,83097.78,-3041.2598,15517.822,65341.434
1386882.917482728,-44520.1,-20055.176,31794.312,-6627.6855,83098.266,-3044.1895,15520.061,65351.93
1386882.9214827234,-44518.72,-20062.5,31795.86,-6628.174,83091.43,-3047.5261,15522.136,65379.152
1386882.925482719,-44522.91,-20075.521,31792.93,-6630.127,83080.98,-3049.0723,15519.125,65378.01
1386882.9294827143,-44528.934,-20079.916,31790.488,-6631.1445,83077.76,-3047.1191,15514.73,65341.758
1386882.9334827098,-44529.258,-20072.186,31790.244,-6628.093,83090.336,-3043.6606,15520.915,65327.92
1386882.9374827053,-44510.742,-20044.516,31789.959,-6624.919,83109.945,-3042.3179,15527.71,65333.293
1386882.9414827009,-44498.535,-20036.865,31792.115,-6626.5464,83112.8,-3043.6606,15528.769,65341.555
1386882.9454826962,-44509.81,-20048.748,31789.389,-6627.645,83104.45,-3043.0908,15531.128,65372.844
1386882.9494826917,-44522.543,-20059.652,31790.447,-6625.041,83103.6,-3042.1143,15530.233,65374.84
1386882.9534826872,-44520.918,-20045.818,31796.307,-6620.6055,83113.2,-3045.0847,15525.676,65334.395
1386882.9574826828,-44516.93,-20038.615,31799.805,-6620.7686,83118.0,-3047.9736,15529.745,65341.88
1386882.9614826783,-44518.395,-20039.51,31799.846,-6625.4478,83108.234,-3048.5027,15530.192,65356.082
1386882.9654826736,-44521.566,-20048.951,31798.096,-6626.831,83093.8,-3045.695,15528.402,65358.24
1386882.9694826691,-44527.875,-20061.727,31795.004,-6625.5293,83094.65,-3041.4226,15529.419,65361.574
1386882.9734826647,-44530.195,-20063.191,31793.418,-6622.8438,83105.23,-3040.5273,15531.982,65367.758
1386882.9774826602,-44526.33,-20062.5,31794.15,-6624.5933,83106.734,-3043.335,15532.919,65374.797
1386882.9814826557,-44524.863,-20059.082,31793.701,-6626.0986,83107.625,-3047.3228,15532.837,65382.652
1386882.985482651,-44527.547,-20062.338,31790.244,-6625.814,83103.56,-3049.0723,15525.635,65376.1
1386882.9894826466,-44532.555,-20068.727,31793.092,-6622.6807,83101.56,-3046.4275,15523.601,65377.16
1386882.993482642,-44528.363,-20063.436,31796.63,-6620.036,83108.36,-3044.5151,15527.71,65376.914
1386882.9974826376,-44521.566,-20060.791,31798.057,-6622.0703,83112.06,-3047.0786,15536.459,65390.75
1386883.001482633,-44520.062,-20061.932,31797.04,-6623.7793,83114.79,-3050.3337,15534.343,65364.91
1386883.0054826285,-44525.84,-20075.604,31793.01,-6622.1113,83119.75,-3051.6765,15522.705,65340.457
1386883.009482624,-44530.805,-20078.084,31793.01,-6619.426,83117.11,-3049.0723,15519.572,65351.77
1386883.0134826195,-44530.113,-20066.488,31795.574,-6618.083,83111.82,-3045.9392,15525.229,65366.09
1386883.017482615,-44521.2,-20040.486,31796.428,-6619.9546,83118.53,-3046.2646,15531.454,65361.9
1386883.0214826104,-44519.086,-20056.52,31794.678,-6624.105,83109.83,-3048.584,15532.268,65360.395
1386883.025482606,-44529.38,-20060.262,31791.83,-6625.814,83100.34,-3046.7124,15534.058,65385.418
1386883.0294826014,-44528.28,-20051.637,31793.457,-6623.7793,83096.48,-3041.7075,15537.883,65382.367
1386883.033482597,-44528.035,-20054.932,31796.104,-6620.8496,83103.03,-3040.1206,15540.568,65377.363
1386883.0374825923,-44527.344,-20055.908,31796.672,-6623.6167,83109.984,-3042.1143,15546.509,65384.562
1386883.0414825878,-44523.277,-20058.797,31797.16,-6626.18,83110.6,-3044.393,15549.4795,65387.29
1386883.0454825833,-44524.496,-20063.844,31797.324,-6625.0,83108.73,-3045.3289,15542.155,65376.547
1386883.0494825789,-44534.06,-20063.559,31794.963,-6623.1284,83107.51,-3042.8875,15541.626,65380.78
1386883.0534825744,-44535.402,-20063.924,31796.916,-6620.8496,83110.4,-3041.5447,15543.945,65384.81
1386883.0574825697,-44536.297,-20062.785,31798.87,-6621.5415,83113.484,-3044.1895,15542.358,65359.62
1386883.0614825652,-44540.855,-20065.594,31797.607,-6626.2617,83111.01,-3048.2178,15541.423,65369.996
1386883.0654825608,-44546.797,-20081.87,31796.592,-6627.889,83101.85,-3048.8281,15538.249,65381.27
1386883.0694825563,-44545.168,-20084.393,31797.893,-6623.698,83102.54,-3049.6826,15531.535,65370.61
1386883.0734825516,-44541.383,-20091.39,31799.44,-6616.781,83113.164,-3050.0083,15528.402,65344.934
1386883.0774825471,-44536.785,-20090.496,31803.305,-6615.7227,83112.71,-3049.5605,15535.727,65366.62
1386883.0814825427,-44531.13,-20069.662,31806.682,-6620.2393,83108.766,-3051.0254,15535.808,65379.76
1386883.0854825382,-44533.164,-20074.666,31805.137,-6619.629,83105.1,-3051.9207,15527.304,65373.414
1386883.0894825337,-44541.3,-20083.09,31802.287,-6618.205,83108.69,-3051.107,15517.578,65352.746
1386883.093482529,-44542.195,-20066.977,31803.184,-6618.083,83113.41,-3048.462,15516.154,65334.477
1386883.0974825246,-44536.38,-20063.64,31801.88,-6621.338,83114.75,-3047.567,15525.757,65337.242
1386883.10148252,-44530.07,-20073.527,31801.31,-6625.366,83104.78,-3047.933,15532.1455,65351.402
1386883.1054825156,-44535.156,-20076.05,31801.107,-6627.9707,83093.38,-3046.4683,15533.488,65368.613
1386883.1094825112,-44542.074,-20077.922,31801.88,-6626.4243,83097.17,-3041.2192,15537.639,65379.64
1386883.1134825065,-44540.324,-20080.201,31804.24,-6623.2505,83106.28,-3036.9468,15548.34,65408.57
1386883.117482502,-44532.676,-20077.148,31805.87,-6625.366,83111.05,-3041.2192,15544.516,65376.223
1386883.1214824975,-44534.14,-20075.115,31803.143,-6627.6855,83111.29,-3045.451,15542.929,65380.902
1386883.125482493,-44538.453,-20088.746,31800.375,-6627.279,83102.336,-3045.0034,15542.644,65402.63
1386883.1294824884,-44549.44,-20097.127,31797.934,-6625.0,83103.805,-3043.864,15537.028,65377.08
1386883.133482484,-44546.348,-20079.63,31803.549,-6619.5884,83117.555,-3045.5322,15530.437,65341.594
1386883.1374824794,-44536.746,-20072.469,31809.287,-6621.6636,83122.97,-3049.6013,15532.023,65358.195
1386883.141482475,-44546.51,-20089.275,31806.885,-6630.0864,83117.31,-3052.409,15531.901,65366.09
1386883.1454824705,-44551.395,-20093.059,31805.38,-6631.0225,83113.94,-3051.8394,15529.867,65372.113
1386883.1494824658,-44551.516,-20099.488,31806.275,-6627.4824,83121.09,-3044.9626,15538.086,65393.76
1386883.1534824613,-44542.195,-20078.29,31809.855,-6627.4824,83127.0,-3042.033,15545.329,65406.535
1386883.1574824569,-44535.402,-20060.588,31812.867,-6629.0283,83128.016,-3045.695,15546.509,65402.508
1386883.1614824524,-44532.676,-20066.0,31810.67,-6631.836,83123.21,-3053.4668,15534.18,65367.19
1386883.1654824477,-44535.727,-20081.502,31807.822,-6632.8535,83117.64,-3053.9958,15529.989,65365.766
1386883.1694824432,-44540.895,-20073.854,31806.885,-6633.464,83116.7,-3049.398,15531.82,65377.24
1386883.1734824388,-44543.62,-20073.812,31807.537,-6634.5625,83120.08,-3045.8171,15537.842,65379.6
1386883.1774824343,-44539.348,-20074.463,31812.582,-6637.8174,83124.27,-3045.3289,15545.695,65394.41
1386883.1814824298,-44538.496,-20080.525,31811.768,-6640.8286,83117.59,-3045.0034,15550.497,65433.72
1386883.1854824251,-44535.89,-20081.463,31811.076,-6638.8755,83121.5,-3047.0786,15535.686,65380.863
1386883.1894824207,-44536.703,-20078.29,31811.28,-6635.5796,83122.64,-3047.16,15527.466,65349.977
1386883.1934824162,-44537.52,-20078.654,31809.693,-6633.952,83133.67,-3045.451,15533.488,65354.902
1386883.1974824117,-44532.84,-20078.166,31808.758,-6636.2305,83138.19,-3043.7827,15543.539,65373.863
1386883.201482407,-44534.1,-20082.805,31804.24,-6640.3,83127.98,-3043.864,15547.934,65389.652
1386883.2054824026,-44537.312,-20089.559,31804.484,-6640.4624,83118.57,-3045.7358,15544.8,65382.734
1386883.2094823981,-44536.99,-20082.072,31808.27,-6637.207,83121.99,-3045.1255,15544.556,65395.1
1386883.2134823937,-44534.305,-20074.748,31812.705,-6634.8066,83135.22,-3042.3179,15550.944,65398.52
1386883.2174823892,-44521.895,-20071.492,31817.871,-6635.01,83137.29,-3043.457,15555.908,65398.36
1386883.2214823845,-44519.9,-20068.035,31817.262,-6637.451,83133.71,-3047.6482,15554.362,65419.76
1386883.22548238,-44524.496,-20073.934,31814.129,-6634.8877,83129.64,-3050.6187,15541.423,65385.746
1386883.2294823756,-44533.855,-20092.326,31814.088,-6630.9004,83127.41,-3049.0317,15536.215,65372.234
1386883.233482371,-44534.18,-20084.148,31814.82,-6630.29,83149.17,-3045.858,15544.394,65401.574
1386883.2374823666,-44526.855,-20070.68,31818.36,-6633.8706,83163.01,-3045.4917,15551.514,65409.914
1386883.241482362,-44525.23,-20071.697,31817.262,-6639.8926,83159.18,-3048.869,15551.514,65409.875
1386883.2454823575,-44533.613,-20081.87,31814.738,-6641.439,83151.82,-3049.7234,15544.149,65386.598
1386883.249482353,-44542.117,-20088.95,31814.941,-6639.486,83155.03,-3048.0552,15538.168,65375.043
1386883.2534823485,-44539.96,-20093.018,31816.732,-6637.4106,83165.04,-3044.5151,15545.288,65395.266
1386883.2574823438,-44534.02,-20089.111,31820.72,-6640.2183,83170.45,-3044.7998,15553.63,65397.18
1386883.2614823394,-44537.152,-20085.775,31819.418,-6643.7583,83160.61,-3047.7295,15551.799,65409.59
1386883.265482335,-44544.434,-20085.938,31816.326,-6643.3516,83152.71,-3048.584,15539.999,65375.652
1386883.2694823304,-44544.637,-20088.014,31814.291,-6638.794,83164.72,-3049.0317,15525.269,65318.77
1386883.273482326,-44541.992,-20088.46,31817.465,-6637.248,83175.7,-3045.9392,15531.128,65341.84
1386883.2774823213,-44536.055,-20087.646,31817.383,-6641.6426,83175.26,-3043.742,15544.189,65375.367
1386883.2814823168,-44539.188,-20093.385,31814.209,-6648.641,83170.414,-3044.9626,15547.079,65394.207
1386883.2854823123,-44541.465,-20091.797,31810.588,-6649.536,83168.13,-3047.3228,15536.987,65372.723
1386883.2894823079,-44549.195,-20100.098,31809.205,-6646.0776,83171.35,-3047.7295,15531.332,65365.156
1386883.2934823032,-44551.027,-20106.283,31814.25,-6642.741,83178.39,-3047.7703,15533.122,65374.188
1386883.2974822987,-44548.83,-20099.121,31817.059,-6643.718,83178.55,-3050.9849,15532.553,65352.746
1386883.3014822942,-44551.96,-20114.34,31819.012,-6646.1997,83178.59,-3054.1587,15531.82,65357.75
1386883.3054822898,-44543.5,-20098.023,31825.44,-6646.4844,83176.11,-3052.816,15531.494,65377.24
1386883.3094822853,-44542.684,-20088.664,31825.562,-6646.159,83169.805,-3049.7642,15534.384,65391.562
1386883.3134822806,-44547.16,-20091.39,31826.457,-6645.0605,83167.24,-3047.282,15539.185,65396.28
1386883.3174822761,-44539.51,-20083.172,31830.893,-6645.793,83172.04,-3049.235,15536.947,65383.098
1386883.3214822717,-44541.586,-20095.582,31829.307,-6650.9604,83168.54,-3050.7407,15536.743,65378.543
1386883.3254822672,-44544.434,-20107.79,31829.225,-6651.001,83165.24,-3050.944,15531.494,65370.04
1386883.3294822625,-44548.992,-20108.357,31831.096,-6646.6064,83168.17,-3051.9207,15524.78,65363.08
1386883.333482258,-44554.402,-20102.703,31832.684,-6643.636,83174.89,-3048.7468,15529.582,65378.176
1386883.3374822536,-44543.5,-20097.738,31836.67,-6643.27,83177.66,-3051.229,15532.959,65385.99
1386883.341482249,-44530.723,-20093.018,31836.102,-6645.549,83173.055,-3055.664,15529.704,65369.145
1386883.3454822446,-44532.105,-20099.732,31834.434,-6644.6533,83169.195,-3057.495,15523.682,65353.11
1386883.34948224,-44540.69,-20103.598,31835.125,-6641.0728,83168.17,-3053.7517,15523.112,65353.56
1386883.3534822355,-44553.793,-20102.703,31831.992,-6642.009,83171.76,-3051.0662,15531.088,65372.355
1386883.357482231,-44555.543,-20110.19,31828.004,-6646.6475,83168.945,-3052.0427,15535.727,65374.473
1386883.3614822265,-44553.305,-20116.537,31824.79,-6652.303,83164.63,-3052.938,15534.18,65367.027
1386883.3654822218,-44557.13,-20113.607,31821.412,-6654.6226,83160.24,-3053.4263,15531.698,65370.688
1386883.3694822174,-44562.83,-20116.7,31820.842,-6649.7397,83162.56,-3051.9614,15531.901,65388.633
1386883.373482213,-44557.293,-20109.62,31824.424,-6643.026,83171.92,-3054.0771,15528.687,65365.113
1386883.3774822084,-44548.22,-20100.057,31828.98,-6641.683,83173.38,-3058.96,15527.548,65352.824
1386883.381482204,-44554.484,-20103.557,31827.271,-6643.84,83165.33,-3063.1511,15526.978,65363.566
1386883.3854821993,-44563.273,-20119.588,31818.604,-6645.549,83157.19,-3065.8774,15524.374,65383.508
1386883.3894821948,-44565.84,-20115.234,31820.11,-6644.287,83161.945,-3061.5234,15524.455,65377.65
1386883.3934821903,-44569.336,-20103.639,31824.18,-6644.735,83169.6,-3057.6987,15530.314,65364.18
1386883.3974821859,-44559.125,-20102.215,31826.945,-6648.4375,83171.836,-3058.4717,15537.883,65377.484
1386883.4014821814,-44552.98,-20102.418,31825.115,-6650.9604,83176.03,-3062.785,15533.407,65360.11
1386883.4054821767,-44555.137,-20111.94,31822.959,-6648.8037,83177.05,-3063.6802,15523.193,65353.438
1386883.4094821722,-44557.008,-20108.521,31822.021,-6643.4736,83172.57,-3063.4766,15514.812,65344.89
1386883.4134821678,-44557.82,-20099.732,31825.725,-6639.7705,83170.45,-3063.314,15517.416,65353.07
1386883.4174821633,-44553.223,-20093.262,31826.01,-6643.636,83167.97,-3063.0698,15526.083,65375.492
1386883.4214821586,-44551.84,-20095.988,31824.504,-6647.7866,83162.4,-3063.6394,15528.728,65386.64
1386883.4254821541,-44560.793,-20108.113,31824.79,-6648.3154,83156.58,-3062.785,15522.543,65374.72
1386883.4294821497,-44569.785,-20110.027,31826.133,-6646.8506,83158.9,-3058.1055,15523.52,65382.53
1386883.4334821452,-44573.203,-20112.63,31828.451,-6648.5596,83177.086,-3055.8677,15525.879,65358.97
1386883.4374821407,-44570.516,-20115.926,31829.184,-6651.367,83180.42,-3056.5186,15530.233,65364.137
1386883.441482136,-44564.82,-20118.775,31825.848,-6652.5474,83174.44,-3059.0415,15523.804,65348.797
1386883.4454821316,-44566.33,-20119.67,31822.062,-6653.3203,83167.93,-3062.2559,15512.329,65327.56
1386883.449482127,-44567.305,-20118.49,31821.412,-6650.1465,83166.55,-3060.669,15509.807,65325.44
1386883.4534821226,-44574.06,-20122.355,31821.574,-6647.1357,83173.46,-3057.7393,15516.928,65348.555
1386883.457482118,-44577.312,-20130.574,31821.209,-6648.397,83176.76,-3059.0007,15525.92,65363.12
1386883.4614821135,-44582.723,-20139.445,31820.03,-6652.466,83171.35,-3061.8083,15525.554,65342.082
1386883.465482109,-44586.062,-20124.268,31820.68,-6653.7275,83157.8,-3062.622,15517.904,65334.434
1386883.4694821045,-44581.055,-20119.182,31822.47,-6652.2217,83154.586,-3061.32,15514.567,65346.805
1386883.4734821,-44583.09,-20129.15,31824.057,-6651.001,83163.17,-3059.4077,15520.671,65356.69
1386883.4774820954,-44571.37,-20125.164,31827.19,-6650.757,83170.62,-3062.2153,15520.224,65327.312
1386883.481482091,-44562.137,-20121.053,31827.963,-6650.9604,83167.4,-3066.7725,15518.921,65337.85
1386883.4854820864,-44564.09,-20123.982,31833.008,-6649.1294,83160.56,-3070.15,15513.754,65339.316
1386883.489482082,-44567.383,-20123.455,31835.654,-6644.45,83165.0,-3068.7256,15511.963,65337.484
1386883.4934820773,-44566.043,-20121.42,31840.21,-6641.317,83172.77,-3065.5518,15517.7,65348.88
1386883.4974820728,-44567.426,-20124.39,31838.867,-6644.043,83176.31,-3066.162,15526.489,65368.086
1386883.5014820683,-44565.51,-20121.664,31839.111,-6647.7866,83170.734,-3067.749,15526.733,65357.016
1386883.5054820639,-44567.098,-20122.396,31838.746,-6648.7227,83164.72,-3067.5864,15518.148,65339.805
1386883.5094820594,-44577.92,-20128.621,31836.06,-6647.4204,83167.65,-3065.8367,15513.144,65331.953
1386883.5134820547,-44578.613,-20127.809,31839.438,-6646.4033,83174.28,-3062.0117,15525.351,65381.633
1386883.5174820502,-44568.2,-20120.89,31842.814,-6646.118,83178.06,-3064.8193,15526.855,65349.652
1386883.5214820458,-44563.56,-20120.402,31841.92,-6648.397,83175.01,-3070.2312,15524.455,65328.695
1386883.5254820413,-44563.355,-20120.932,31842.896,-6648.3154,83165.57,-3070.4346,15521.159,65329.754
1386883.5294820368,-44573.895,-20138.104,31839.52,-6644.2466,83168.22,-3067.1794,15517.253,65330.85
1386883.5334820321,-44576.66,-20153.484,31838.95,-6642.741,83174.85,-3063.314,15524.862,65356.082
1386883.5374820277,-44566.33,-20119.02,31838.908,-6647.624,83179.484,-3063.7207,15530.966,65352.703
1386883.5414820232,-44567.75,-20100.668,31838.217,-6654.0938,83176.03,-3066.6504,15530.151,65331.26
1386883.5454820187,-44574.953,-20107.79,31834.799,-6656.25,83165.94,-3066.4878,15525.106,65339.887
1386883.549482014,-44576.133,-20122.152,31834.066,-6651.042,83160.81,-3064.8193,15521.973,65346.4
1386883.5534820096,-44577.11,-20123.455,31836.387,-6645.874,83166.79,-3064.6973,15522.705,65338.586
1386883.557482005,-44572.39,-20111.98,31837.932,-6645.63,83172.61,-3069.58,15525.106,65343.793
1386883.5614820006,-44571.21,-20115.967,31838.543,-6649.6177,83172.37,-3071.7368,15528.28,65344.484
1386883.5654819962,-44573.406,-20122.844,31838.584,-6650.472,83163.414,-3071.452,15523.845,65329.023
1386883.5694819915,-44573.203,-20123.25,31842.896,-6645.7114,83167.24,-3069.743,15525.146,65340.336
1386883.573481987,-44570.152,-20127.238,31846.762,-6642.334,83184.82,-3068.441,15532.39,65365.52
1386883.5774819825,-44567.14,-20132.08,31850.547,-6641.3984,83190.836,-3069.1733,15540.935,65378.258
1386883.581481978,-44567.098,-20116.902,31848.064,-6644.5312,83183.59,-3071.696,15542.033,65386.07
1386883.5854819734,-44572.88,-20111.492,31845.215,-6645.1416,83173.664,-3073.0796,15532.064,65354.777
1386883.589481969,-44572.918,-20116.455,31846.355,-6642.456,83172.53,-3070.15,15533.8955,65368.246
1386883.5934819644,-44567.914,-20114.502,31848.389,-6638.672,83180.3,-3067.9932,15538.9,65366.54
1386883.59748196,-44562.746,-20110.637,31846.72,-6642.009,83189.01,-3067.9526,15547.241,65375.285
1386883.6014819555,-44559.816,-20102.986,31844.809,-6644.735,83182.91,-3068.8071,15547.852,65376.75
1386883.6054819508,-44560.914,-20110.107,31843.71,-6643.1074,83178.06,-3070.7603,15536.052,65347.535
1386883.6094819463,-44570.438,-20135.213,31840.049,-6639.852,83185.06,-3067.505,15536.011,65353.312
1386883.6134819419,-44570.355,-20119.06,31841.35,-6638.835,83191.0,-3065.145,15539.307,65350.508
1386883.6174819374,-44567.63,-20109.701,31846.762,-6641.9272,83190.43,-3065.6738,15544.597,65368.574
1386883.6214819327,-44568.848,-20119.508,31846.03,-6644.7754,83181.84,-3072.3472,15535.238,65336.348
1386883.6254819282,-44568.848,-20127.197,31846.477,-6643.1074,83176.84,-3077.0264,15520.956,65309.004
1386883.6294819238,-44570.926,-20134.115,31849.65,-6639.5674,83178.43,-3075.399,15521.403,65321.74
1386883.6334819193,-44565.023,-20132.121,31852.906,-6636.841,83188.52,-3070.5974,15530.925,65346.805
1386883.6374819148,-44557.742,-20118.938,31852.703,-6638.1836,83192.63,-3073.6492,15536.011,65345.42
1386883.6414819101,-44555.098,-20110.719,31850.059,-6641.4795,83182.74,-3077.6775,15533.61,65332.48
1386883.6454819057,-44558.72,-20114.746,31850.22,-6640.0146,83182.414,-3075.236,15529.745,65313.723
1386883.6494819012,-44566.33,-20126.385,31850.953,-6638.55,83181.89,-3070.516,15531.82,65320.965
1386883.6534818967,-44564.453,-20128.826,31854.004,-6637.4106,83191.98,-3068.1968,15542.48,65353.355
1386883.6574818923,-44559.734,-20128.947,31850.709,-6640.9507,83194.055,-3069.9058,15551.147,65367.27
1386883.6614818876,-44555.707,-20124.064,31850.953,-6642.5376,83187.016,-3072.7947,15547.7705,65349.246
1386883.665481883,-44558.27,-20122.64,31852.54,-6640.869,83184.49,-3074.0562,15538.574,65336.062
1386883.6694818786,-44564.008,-20129.395,31849.732,-6638.794,83181.89,-3072.103,15533.081,65341.23
1386883.6734818742,-44567.75,-20131.795,31846.885,-6637.207,83190.11,-3070.1091,15537.802,65339.277
1386883.6774818695,-44565.473,-20126.873,31845.256,-6640.4624,83196.414,-3070.2312,15543.539,65338.504
1386883.681481865,-44568.117,-20126.994,31843.791,-6644.2466,83190.11,-3071.574,15544.189,65342.41
1386883.6854818605,-44572.55,-20143.27,31844.85,-6644.45,83184.57,-3071.4111,15540.08,65350.668
1386883.689481856,-44564.902,-20131.633,31848.186,-6638.2246,83191.29,-3068.441,15537.558,65331.18
1386883.6934818516,-44568.156,-20123.861,31849.814,-6634.5625,83197.43,-3065.8774,15543.742,65340.7
1386883.697481847,-44569.664,-20117.92,31852.58,-6637.7363,83197.63,-3065.9587,15552.287,65361.168
1386883.7014818424,-44560.02,-20101.562,31856.08,-6641.8867,83195.36,-3067.6677,15553.264,65350.344
1386883.705481838,-44560.1,-20107.342,31854.33,-6643.0664,83186.41,-3066.0808,15552.531,65363.285
1386883.7094818335,-44562.543,-20118.49,31853.8,-6638.713,83188.766,-3064.9414,15547.485,65336.836
1386883.7134818288,-44564.82,-20122.152,31853.76,-6638.3057,83196.375,-3064.4126,15552.165,65331.34
1386883.7174818243,-44567.547,-20123.738,31852.012,-6641.5205,83196.695,-3064.5347,15562.663,65354.777
1386883.7214818199,-44568.32,-20128.297,31850.342,-6645.2637,83188.195,-3067.6677,15560.832,65370.04
1386883.7254818154,-44572.633,-20131.674,31850.506,-6645.345,83178.67,-3069.1326,15554.525,65358.89
1386883.729481811,-44571.98,-20129.803,31851.36,-6642.8223,83185.47,-3067.871,15549.968,65347.94
1386883.7334818062,-44563.03,-20127.238,31854.209,-6638.55,83199.34,-3063.6394,15556.763,65364.3
1386883.7374818018,-44557.13,-20126.424,31858.562,-6642.334,83204.23,-3062.9883,15561.523,65362.1
1386883.7414817973,-44563.68,-20126.791,31857.79,-6647.99,83201.01,-3064.86,15558.105,65353.395
1386883.7454817928,-44570.8,-20135.54,31854.574,-6648.5596,83192.266,-3064.9414,15548.015,65321.902
1386883.7494817881,-44576.785,-20130.047,31853.477,-6647.0137,83196.086,-3062.4187,15550.537,65330.0
1386883.7534817837,-44572.88,-20125.896,31854.86,-6644.979,83203.29,-3059.082,15561.117,65356.49
1386883.7574817792,-44565.188,-20124.227,31856.812,-6647.0947,83208.09,-3060.2622,15567.424,65356.527
1386883.7614817747,-44565.27,-20126.303,31856.568,-6651.9775,83202.68,-3064.331,15563.599,65341.066
1386883.7654817703,-44564.94,-20127.523,31851.97,-6654.1343,83195.84,-3064.86,15556.274,65328.207
1386883.7694817656,-44571.86,-20130.982,31849.732,-6653.524,83196.74,-3059.8145,15561.972,65358.117
1386883.773481761,-44576.99,-20129.15,31852.58,-6652.9136,83201.42,-3058.2275,15569.418,65372.64
1386883.7774817566,-44571.7,-20124.959,31857.951,-6654.582,83207.84,-3059.2449,15570.557,65354.496
1386883.7814817522,-44566.69,-20123.82,31859.54,-6658.2847,83203.29,-3062.5,15566.8545,65349.977
1386883.7854817475,-44568.727,-20130.453,31855.266,-6659.2207,83201.664,-3065.0635,15559.123,65344.2
1386883.789481743,-44572.062,-20140.625,31857.3,-6652.059,83204.51,-3065.1042,15549.235,65322.51
1386883.7934817385,-44567.26,-20128.338,31865.113,-6647.9087,83211.305,-3061.1167,15558.228,65346.234
1386883.797481734,-44561.566,-20112.184,31869.955,-6652.466,83215.13,-3061.3608,15569.702,65377.24
1386883.8014817296,-44558.96,-20115.723,31867.107,-6656.657,83207.44,-3065.4705,15562.988,65350.26
1386883.805481725,-44557.617,-20128.338,31861.125,-6655.5176,83199.625,-3068.4814,15554.443,65338.91
1386883.8094817204,-44556.926,-20131.47,31862.63,-6651.123,83200.28,-3066.854,15550.049,65315.797
1386883.813481716,-44562.582,-20126.1,31865.398,-6649.658,83207.08,-3062.622,15561.605,65342.9
1386883.8174817115,-44570.477,-20125.123,31862.305,-6655.8027,83212.2,-3061.1572,15573.975,65365.277
1386883.821481707,-44580.934,-20129.842,31856.854,-6662.2725,83209.92,-3062.2153,15573.283,65336.633
1386883.8254817023,-44598.594,-20143.719,31855.754,-6663.493,83206.14,-3061.9712,15571.249,65330.16
1386883.8294816979,-44587.402,-20145.955,31864.38,-6657.1455,83208.54,-3057.7393,15577.353,65356.406
1386883.8334816934,-44555.176,-20119.71,31875.855,-6649.862,83217.125,-3055.8677,15583.862,65366.984
1386883.837481689,-44550.457,-20116.984,31877.197,-6651.6523,83219.36,-3056.478,15591.594,65386.926
1386883.8414816842,-44545.98,-20123.658,31876.953,-6657.5522,83210.086,-3058.6345,15593.303,65404.91
1386883.8454816798,-44541.586,-20120.89,31877.89,-6657.3896,83202.68,-3057.1697,15595.622,65451.133
1386883.8494816753,-44543.62,-20120.809,31876.547,-6652.954,83209.27,-3054.647,15587.321,65398.48
1386883.8534816708,-44532.555,-20112.225,31879.273,-6649.2515,83220.54,-3055.5015,15574.829,65315.227
1386883.8574816664,-44536.5,-20110.107,31878.826,-6652.832,83223.68,-3054.24,15581.909,65324.63
1386883.8614816617,-44544.92,-20111.248,31879.15,-6657.186,83217.164,-3055.3386,15585.368,65343.957
1386883.8654816572,-44552.043,-20118.164,31876.75,-6658.895,83207.97,-3057.129,15581.584,65359.05
1386883.8694816527,-44555.42,-20130.494,31876.629,-6657.878,83205.125,-3055.9082,15578.003,65354.94
1386883.8734816483,-44549.6,-20133.383,31883.586,-6655.5586,83209.39,-3054.24,15584.27,65375.125
1386883.8774816436,-44545.656,-20124.879,31891.602,-6655.599,83210.414,-3055.2573,15589.071,65376.875
1386883.881481639,-44544.477,-20115.316,31891.318,-6657.3896,83208.26,-3058.7158,15584.636,65347.453
1386883.8854816346,-44556.234,-20123.861,31890.219,-6655.925,83203.9,-3060.1807,15577.23,65331.098
1386883.8894816302,-44565.066,-20145.143,31882.365,-6653.28,83205.61,-3059.9365,15577.963,65348.758
1386883.8934816257,-44557.78,-20141.643,31884.604,-6653.076,83209.39,-3057.6172,15588.135,65368.086
1386883.897481621,-44548.137,-20130.209,31889.854,-6656.7793,83211.02,-3059.8552,15590.942,65347.453
1386883.9014816165,-44543.133,-20120.605,31893.027,-6657.308,83210.086,-3064.4531,15586.67,65340.58
1386883.905481612,-44547.61,-20124.879,31892.66,-6655.3145,83194.3,-3064.2498,15584.351,65347.74
1386883.9094816076,-44557.17,-20141.154,31889.445,-6652.059,83193.97,-3062.5408,15580.322,65342.164
1386883.913481603,-44562.625,-20158.611,31887.168,-6651.8555,83199.914,-3061.1167,15582.968,65348.15
1386883.9174815984,-44557.293,-20142.62,31887.777,-6655.111,83205.24,-3060.9946,15589.966,65367.23
1386883.921481594,-44564.332,-20135.865,31886.23,-6660.1157,83202.84,-3060.3843,15596.843,65372.97
1386883.9254815895,-44566.855,-20139.812,31882.041,-6662.964,83199.71,-3058.1055,15600.342,65406.617
1386883.929481585,-44558.473,-20135.662,31880.006,-6656.169,83205.33,-3057.9429,15587.851,65343.06
1386883.9334815803,-44558.84,-20128.256,31882.447,-6650.9604,83212.65,-3054.8096,15594.401,65334.758
1386883.9374815759,-44559.367,-20129.11,31882.08,-6654.8667,83212.61,-3054.891,15607.422,65360.395
1386883.9414815714,-44563.113,-20134.441,31882.65,-6660.034,83210.29,-3057.8208,15609.823,65360.15
1386883.945481567,-44571.25,-20138.795,31880.982,-6660.848,83202.27,-3057.129,15612.997,65397.258
1386883.9494815625,-44567.75,-20141.357,31881.797,-6657.593,83204.1,-3057.2104,15602.173,65353.52
1386883.9534815578,-44565.27,-20140.91,31884.848,-6653.3203,83215.375,-3054.525,15605.795,65340.742
1386883.9574815533,-44562.867,-20131.877,31887.86,-6652.995,83223.31,-3056.2744,15609.985,65347.332
1386883.9614815488,-44562.746,-20128.621,31890.219,-6655.7617,83215.17,-3060.4656,15606.73,65352.01
1386883.9654815444,-44566.895,-20133.465,31890.3,-6653.9307,83207.32,-3061.4421,15604.614,65350.87
1386883.9694815397,-44567.508,-20135.701,31892.578,-6648.2344,83208.055,-3059.7332,15605.632,65364.504
1386883.9734815352,-44565.35,-20136.395,31895.793,-6645.9556,83210.77,-3057.902,15612.224,65381.758
1386883.9774815307,-44558.516,-20145.06,31895.672,-6646.7695,83216.39,-3060.0586,15617.758,65389.12
1386883.9814815263,-44556.684,-20139.852,31895.428,-6649.9434,83212.81,-3061.4014,15618.693,65389.367
1386883.9854815218,-44562.258,-20130.371,31896.648,-6651.6523,83209.68,-3063.3953,15602.051,65332.887
1386883.989481517,-44564.7,-20136.516,31893.84,-6648.8037,83210.164,-3060.1807,15602.051,65356.652
1386883.9934815126,-44558.35,-20131.268,31893.434,-6646.037,83213.42,-3055.9082,15611.328,65379.805
1386883.9974815082,-44551.473,-20122.111,31899.049,-6647.502,83225.14,-3058.3496,15612.346,65354.13
1386884.0014815037,-44555.625,-20123.535,31896.201,-6651.937,83217.25,-3061.849,15609.294,65356.57
1386884.005481499,-44557.984,-20128.053,31896.607,-6651.571,83213.87,-3062.8662,15600.424,65326.297
1386884.0094814945,-44556.6,-20122.518,31900.31,-6647.5425,83216.02,-3058.187,15601.5625,65336.145
1386884.01348149,-44553.67,-20122.111,31901.49,-6644.45,83218.75,-3056.1118,15603.149,65332.562
1386884.0174814856,-44549.645,-20125.814,31900.146,-6645.3047,83224.66,-3059.0415,15606.73,65336.387
1386884.0214814811,-44545.453,-20121.053,31899.375,-6649.2515,83230.96,-3061.6863,15608.806,65340.742
1386884.0254814764,-44554.484,-20127.482,31898.316,-6649.9434,83227.79,-3062.5815,15605.917,65332.277
1386884.029481472,-44562.38,-20140.38,31899.822,-6646.8916,83229.74,-3059.6519,15605.632,65334.598
1386884.0334814675,-44557.457,-20142.049,31905.438,-6643.921,83225.305,-3056.1118,15614.543,65353.76
1386884.037481463,-44553.55,-20129.965,31908.896,-6646.2812,83233.195,-3057.0476,15626.221,65376.47
1386884.0414814583,-44550.05,-20113.24,31907.715,-6651.6523,83233.56,-3060.3435,15629.558,65387.902
1386884.0454814539,-44548.91,-20105.307,31908.0,-6652.385,83217.49,-3060.5876,15625.692,65384.688
1386884.0494814494,-44550.336,-20111.248,31908.814,-6648.8037,83215.82,-3056.9255,15624.716,65372.97
1386884.053481445,-44552.734,-20112.264,31907.676,-6645.3047,83226.4,-3054.4434,15625.448,65345.5
1386884.0574814405,-44552.574,-20114.746,31905.762,-6649.0073,83230.06,-3054.8503,15635.01,65370.12
1386884.0614814358,-44551.516,-20117.432,31904.014,-6654.0938,83225.42,-3057.0068,15632.568,65360.273
1386884.0654814313,-44555.79,-20126.506,31901.734,-6651.164,83220.95,-3059.9365,15625.041,65351.81
1386884.0694814268,-44560.996,-20141.602,31902.832,-6645.793,83226.24,-3058.0242,15620.769,65357.832
1386884.0734814224,-44558.434,-20132.488,31907.512,-6644.7754,83227.375,-3055.7048,15628.54,65366.375
1386884.077481418,-44550.58,-20114.217,31911.906,-6648.4375,83226.65,-3055.2979,15637.085,65374.105
1386884.0814814132,-44545.9,-20111.654,31913.941,-6651.286,83223.266,-3058.96,15626.384,65328.617
1386884.0854814088,-44547.977,-20118.531,31913.168,-6649.862,83218.836,-3059.1228,15621.135,65330.57
1386884.0894814043,-44553.387,-20124.023,31913.291,-6645.752,83220.5,-3056.8035,15621.582,65353.844
1386884.0934813998,-44558.516,-20139.12,31909.668,-6644.979,83216.59,-3054.6875,15630.209,65375.367
1386884.0974813951,-44562.215,-20131.918,31905.07,-6648.1123,83222.45,-3057.373,15631.43,65365.48
1386884.1014813907,-44550.863,-20106.893,31904.502,-6647.1763,83231.65,-3064.4126,15618.652,65334.15
1386884.1054813862,-44540.285,-20100.22,31909.547,-6645.5894,83229.125,-3066.7725,15610.515,65323.812
1386884.1094813817,-44551.15,-20113.648,31909.791,-6642.904,83229.695,-3063.2732,15617.229,65343.832
1386884.1134813773,-44554.73,-20123.455,31912.354,-6640.91,83232.95,-3059.0007,15626.994,65360.07
1386884.1174813726,-44548.992,-20117.39,31912.68,-6644.043,83227.5,-3060.3843,15635.742,65381.023
1386884.121481368,-44546.184,-20114.502,31911.865,-6648.6006,83222.414,-3062.0933,15639.608,65380.25
1386884.1254813636,-44548.91,-20123.902,31910.686,-6647.4204,83224.9,-3062.0117,15631.186,65361.613
1386884.1294813592,-44550.17,-20123.373,31912.07,-6641.8867,83230.02,-3059.7332,15628.378,65360.355
1386884.1334813545,-44552.98,-20120.037,31912.314,-6640.0557,83234.01,-3057.4138,15634.399,65369.996
1386884.13748135,-44552.492,-20115.316,31913.697,-6640.4624,83228.68,-3056.6,15639.567,65374.72
1386884.1414813455,-44556.6,-20111.166,31914.186,-6643.026,83231.2,-3057.9429,15642.009,65375.125
1386884.145481341,-44566.816,-20113.893,31914.43,-6646.037,83224.695,-3057.902,15638.347,65358.44
1386884.1494813366,-44569.297,-20125.285,31916.424,-6643.718,83224.66,-3054.1587,15643.677,65395.875
1386884.153481332,-44559.9,-20128.621,31923.992,-6642.253,83230.59,-3051.6357,15646.811,65384.36
1386884.1574813274,-44556.277,-20125.326,31927.002,-6645.345,83232.47,-3052.9785,15648.234,65349.285
1386884.161481323,-44555.34,-20129.232,31925.578,-6647.746,83231.98,-3056.5593,15647.014,65360.844
1386884.1654813185,-44557.13,-20135.498,31921.104,-6643.84,83227.99,-3057.902,15643.881,65365.93
1386884.1694813138,-44559.125,-20135.457,31918.662,-6640.91,83228.68,-3055.1353,15645.061,65372.684
1386884.1734813093,-44565.39,-20137.371,31924.195,-6640.788,83231.53,-3050.578,15654.216,65397.055
1386884.1774813049,-44570.07,-20120.2,31926.393,-6646.0776,83234.58,-3051.229,15657.023,65376.426
1386884.1814813004,-44566.285,-20117.066,31920.451,-6651.164,83228.92,-3053.3447,15659.302,65383.996
1386884.185481296,-44565.96,-20121.95,31916.992,-6651.571,83223.76,-3050.7,15659.018,65395.227
1386884.1894812912,-44567.63,-20124.838,31918.54,-6648.926,83236.29,-3047.811,15658.773,65394.004
1386884.1934812868,-44566.53,-20122.64,31924.602,-6645.7114,83296.43,-3045.1255,15664.0625,65394.29
1386884.1974812823,-44560.426,-20121.664,31926.596,-6647.705,83323.49,-3046.5903,15668.051,65394.74
1386884.2014812778,-44552.086,-20122.234,31924.154,-6649.536,83330.0,-3050.2117,15665.8125,65392.906
1386884.2054812731,-44554.28,-20121.297,31919.11,-6650.0244,83322.516,-3052.938,15658.325,65385.176
1386884.2094812687,-44560.223,-20128.215,31919.475,-6645.1416,83329.8,-3050.2524,15659.262,65394.004
1386884.2134812642,-44568.36,-20133.342,31921.021,-6644.7754,83341.43,-3049.52,15664.592,65380.58
1386884.2174812597,-44567.586,-20133.016,31922.242,-6648.8037,83344.484,-3049.642,15671.184,65390.953
1386884.2214812553,-44567.223,-20132.854,31917.93,-6655.2734,83340.01,-3050.415,15672.241,65394.453
1386884.2254812506,-44570.56,-20140.951,31915.447,-6655.3145,83337.73,-3051.6357,15666.748,65392.375
1386884.229481246,-44572.633,-20142.537,31917.766,-6649.7397,83345.54,-3049.4792,15664.104,65399.254
1386884.2334812416,-44570.312,-20143.475,31921.469,-6644.4907,83357.51,-3047.689,15664.714,65371.867
1386884.2374812372,-44561.973,-20143.475,31923.219,-6644.45,83353.44,-3051.0254,15667.155,65373.82
1386884.2414812327,-44556.113,-20117.352,31919.639,-6647.5425,83352.17,-3055.664,15662.639,65382.406
1386884.245481228,-44556.03,-20109.66,31918.742,-6646.24,83357.99,-3058.2683,15647.787,65337.16
1386884.2494812235,-44560.223,-20120.32,31920.248,-6642.497,83367.44,-3055.1758,15642.782,65324.547
1386884.253481219,-44566.938,-20124.512,31919.883,-6643.3105,83377.04,-3050.9033,15651.123,65357.06
1386884.2574812146,-44569.176,-20140.748,31920.207,-6647.99,83372.766,-3051.4731,15659.506,65366.008
1386884.26148121,-44580.65,-20149.293,31919.598,-6653.117,83353.31,-3052.124,15661.174,65352.62
1386884.2654812054,-44597.496,-20150.799,31915.527,-6652.873,83356.0,-3052.7344,15651.652,65323.45
1386884.269481201,-44575.24,-20121.502,31919.883,-6644.287,83376.914,-3052.8972,15648.234,65329.836
1386884.2734811965,-44549.44,-20102.133,31924.072,-6638.4277,83395.96,-3052.7344,15653.728,65357.547
1386884.277481192,-44544.76,-20109.01,31923.666,-6641.6016,83398.32,-3052.3276,15660.319,65366.66
1386884.2814811873,-44540.164,-20102.498,31923.584,-6645.549,83389.08,-3053.6296,15660.522,65362.918
1386884.2854811829,-44549.44,-20102.418,31920.004,-6647.054,83380.66,-3054.1587,15656.982,65363.0
1386884.2894811784,-44557.82,-20116.375,31921.143,-6645.3857,83387.01,-3050.0896,15660.849,65365.93
1386884.293481174,-44545.332,-20100.79,31928.184,-6640.096,83404.016,-3047.16,15669.8,65377.523
1386884.2974811692,-44538.656,-20082.764,31931.031,-6643.026,83415.445,-3046.7937,15679.199,65393.92
1386884.3014811648,-44530.234,-20070.354,31929.973,-6645.671,83416.266,-3050.7812,15673.544,65378.867
1386884.3054811603,-44531.008,-20068.035,31927.898,-6642.212,83406.336,-3054.0771,15660.238,65344.28
1386884.3094811558,-44535.156,-20087.361,31927.734,-6634.3994,83415.24,-3055.0945,15650.146,65320.926
1386884.3134811514,-44539.473,-20090.496,31926.637,-6634.481,83425.62,-3049.7642,15662.761,65364.75
1386884.3174811467,-44537.76,-20068.848,31927.287,-6641.5205,83426.516,-3049.4792,15672.7705,65374.72
1386884.3214811422,-44534.465,-20067.912,31925.375,-6647.1763,83420.58,-3052.816,15669.963,65364.75
1386884.3254811377,-44539.266,-20085.287,31922.324,-6646.322,83416.305,-3050.537,15666.504,65344.445
1386884.3294811333,-44551.35,-20124.635,31926.88,-6644.287,83415.65,-3046.1426,15667.725,65344.688
1386884.3334811286,-44552.043,-20124.064,31926.637,-6643.636,83421.43,-3042.684,15677.979,65361.82
1386884.337481124,-44548.3,-20089.803,31928.71,-6645.0195,83431.93,-3045.044,15685.669,65372.766
1386884.3414811196,-44548.465,-20082.846,31928.102,-6648.4785,83431.07,-3050.2117,15680.176,65360.637
1386884.3454811152,-44547.324,-20096.518,31925.781,-6647.624,83425.54,-3052.938,15671.306,65354.574
1386884.3494811107,-44550.703,-20103.312,31927.002,-6645.549,83423.016,-3051.7986,15668.051,65358.645
1386884.353481106,-44559.98,-20089.764,31924.316,-6646.118,83422.37,-3049.0723,15671.55,65356.773
1386884.3574811015,-44556.03,-20089.559,31923.422,-6649.211,83433.19,-3050.415,15675.09,65351.484
1386884.361481097,-44555.707,-20103.639,31925.498,-6653.6865,83431.89,-3053.955,15672.7705,65356.977
1386884.3654810926,-44558.473,-20110.434,31926.025,-6655.884,83431.234,-3054.769,15666.626,65342.45
1386884.3694810881,-44557.945,-20111.043,31922.812,-6654.5005,83441.37,-3050.415,15670.532,65353.234
1386884.3734810834,-44554.08,-20110.148,31925.213,-6650.4316,83475.38,-3045.288,15681.03,65366.133
1386884.377481079,-44550.008,-20106.04,31928.63,-6654.0938,83473.836,-3045.1255,15689.047,65374.594
1386884.3814810745,-44553.67,-20109.13,31926.31,-6657.959,83404.5,-3048.462,15689.128,65375.004
1386884.38548107,-44571.414,-20143.393,31920.736,-6660.3193,83378.74,-3049.5605,15687.46,65382.0
1386884.3894810653,-44593.223,-20154.623,31916.953,-6662.1094,83378.46,-3043.742,15689.209,65378.95
1386884.3934810609,-44577.35,-20122.844,31921.836,-6659.912,83383.42,-3040.9343,15690.471,65367.15
1386884.3974810564,-44544.11,-20087.322,31930.87,-6657.43,83393.11,-3044.5557,15690.471,65366.906
1386884.401481052,-44529.297,-20069.215,31932.334,-6658.5693,83385.99,-3049.7642,15687.094,65371.867
1386884.4054810475,-44543.094,-20083.21,31928.508,-6660.8076,83370.0,-3049.642,15680.38,65371.22
1386884.4094810428,-44550.254,-20084.188,31929.12,-6657.064,83365.6,-3048.462,15674.398,65358.89
1386884.4134810383,-44563.355,-20074.383,31935.303,-6649.292,83374.88,-3049.8455,15677.246,65364.22
1386884.4174810338,-44555.664,-20077.88,31937.379,-6648.8447,83370.93,-3049.6826,15687.094,65380.047
1386884.4214810294,-44519.9,-20087.158,31933.35,-6651.4893,83367.76,-3052.531,15685.181,65374.637
1386884.4254810247,-44520.305,-20069.703,31931.602,-6651.8965,83362.76,-3052.6123,15679.24,65359.54
1386884.4294810202,-44522.383,-20064.332,31930.787,-6649.984,83363.57,-3046.102,15683.513,65375.207
1386884.4334810157,-44522.176,-20071.818,31931.275,-6651.367,83365.12,-3041.9517,15689.128,65359.99
1386884.4374810113,-44528.934,-20067.303,31931.682,-6656.7383,83361.125,-3039.6323,15699.911,65372.926
1386884.4414810068,-44533.082,-20070.557,31928.06,-6660.8076,83343.266,-3040.853,15705.485,65382.855
1386884.445481002,-44530.113,-20073.08,31928.387,-6657.4707,83335.9,-3042.4805,15694.824,65363.285
1386884.4494809976,-44536.906,-20083.21,31932.09,-6652.873,83336.836,-3039.5916,15693.522,65353.312
1386884.4534809932,-44538.047,-20088.543,31937.135,-6648.641,83340.414,-3036.3364,15706.543,65392.418
1386884.4574809887,-44527.14,-20083.008,31941.855,-6649.17,83329.19,-3037.3535,15715.17,65411.99
1386884.461480984,-44534.223,-20079.672,31944.824,-6649.048,83319.83,-3040.324,15710.531,65385.703
1386884.4654809795,-44569.5,-20095.053,31943.686,-6649.8213,83315.31,-3040.2832,15707.438,65382.652
1386884.469480975,-44523.152,-20093.059,31938.926,-6650.228,83310.23,-3039.022,15701.132,65350.668
1386884.4734809706,-44503.5,-20073.812,31944.5,-6648.519,83310.836,-3034.953,15709.555,65360.844
1386884.4774809661,-44501.465,-20064.209,31947.959,-6650.8384,83301.59,-3035.1157,15720.378,65382.69
1386884.4814809614,-44509.36,-20065.023,31941.447,-6653.198,83293.945,-3039.2253,15718.018,65385.176
1386884.485480957,-44519.816,-20075.033,31939.576,-6652.0996,83282.31,-3041.1785,15707.397,65352.133
1386884.4894809525,-44525.39,-20083.822,31945.518,-6647.502,83275.39,-3036.4585,15710.246,65367.312
1386884.493480948,-44520.754,-20071.98,31948.365,-6644.5723,83276.82,-3032.4707,15719.727,65389.445
1386884.4974809436,-44518.516,-20067.506,31947.754,-6648.4375,83269.78,-3034.0984,15723.674,65393.68
1386884.5014809389,-44524.293,-20076.457,31946.209,-6653.402,83255.86,-3034.7495,15722.534,65385.336
1386884.5054809344,-44526.246,-20082.357,31942.465,-6654.46,83249.02,-3033.4473,15717.8955,65376.547
1386884.50948093,-44535.77,-20082.56,31940.797,-6651.8965,83240.07,-3030.9653,15713.949,65374.39
1386884.5134809255,-44537.926,-20081.219,31944.297,-6649.658,83241.336,-3028.9307,15717.367,65383.06
1386884.5174809208,-44530.477,-20081.87,31949.586,-6652.7915,83236.21,-3030.6804,15723.227,65397.137
1386884.5214809163,-44525.92,-20089.275,31952.475,-6653.076,83223.836,-3033.61,15723.063,65397.258
1386884.5254809118,-44531.332,-20094.646,31953.29,-6650.676,83211.1,-3032.308,15719.849,65384.28
1386884.5294809074,-44533.45,-20079.63,31953.94,-6649.455,83202.96,-3030.9246,15715.698,65367.312
1386884.533480903,-44529.582,-20085.084,31955.404,-6648.4375,83206.016,-3028.8901,15718.872,65370.61
1386884.5374808982,-44528.973,-20085.531,31952.557,-6650.798,83200.65,-3027.1812,15728.638,65398.93
1386884.5414808937,-44528.08,-20076.904,31947.877,-6654.0938,83190.92,-3030.9653,15725.871,65386.355
1386884.5454808893,-44528.035,-20081.219,31945.598,-6652.303,83185.836,-3032.064,15722.209,65388.51
1386884.5494808848,-44531.78,-20081.178,31949.057,-6647.827,83187.016,-3028.3203,15721.477,65376.75
1386884.55348088,-44533.49,-20090.129,31957.398,-6643.026,83189.74,-3024.4548,15728.068,65367.395
1386884.5574808756,-44560.508,-20089.031,31961.182,-6644.1245,83193.93,-3023.8853,15734.619,65379.965
1386884.5614808712,-44537.19,-20070.271,31960.125,-6647.9087,83190.92,-3027.954,15733.603,65392.906
1386884.5654808667,-44501.18,-20070.965,31959.717,-6646.159,83183.555,-3027.3845,15729.208,65380.902
1386884.5694808622,-44502.523,-20074.342,31960.531,-6641.2764,83185.914,-3022.4204,15731.649,65383.14
1386884.5734808575,-44507.57,-20069.824,31958.496,-6640.666,83191.04,-3017.741,15742.676,65416.06
1386884.577480853,-44511.68,-20064.047,31957.195,-6643.718,83196.17,-3019.4092,15746.501,65403.16
1386884.5814808486,-44514.324,-20073.486,31957.154,-6646.4844,83195.31,-3021.3623,15745.402,65395.1
1386884.5854808441,-44521.324,-20090.17,31957.602,-6645.0195,83183.516,-3021.403,15743.612,65396.324
1386884.5894808394,-44525.312,-20083.049,31962.77,-6638.0615,83196.54,-3018.27,15740.764,65392.17
1386884.593480835,-44512.777,-20058.758,31967.123,-6636.312,83205.33,-3015.8691,15743.042,65394.004
1386884.5974808305,-44517.824,-20062.094,31967.082,-6643.4736,83189.01,-3016.8865,15748.251,65402.875
1386884.601480826,-44516.684,-20066.285,31964.152,-6646.159,83178.63,-3019.328,15742.839,65392.01
1386884.6054808216,-44513.754,-20071.98,31961.346,-6644.5723,83178.266,-3022.2983,15737.224,65397.668
1386884.6094808169,-44516.44,-20077.312,31960.816,-6639.2417,83182.7,-3020.0603,15735.352,65402.508
1386884.6134808124,-44517.66,-20079.305,31964.355,-6635.8643,83189.91,-3019.165,15740.561,65429.73
1386884.617480808,-44513.594,-20070.477,31968.182,-6636.6377,83199.1,-3020.101,15745.565,65410.117
1386884.6214808035,-44507.812,-20066.365,31969.646,-6639.4453,83203.29,-3023.6003,15736.003,65353.355
1386884.6254807988,-44511.152,-20072.674,31967.611,-6640.1367,83196.78,-3023.7224,15731.201,65368.574
1386884.6294807943,-44519.98,-20076.54,31970.459,-6635.9053,83192.67,-3020.7927,15730.754,65384.605
1386884.6334807898,-44524.824,-20079.834,31974.285,-6633.2603,83192.38,-3018.026,15735.637,65387.74
1386884.6374807854,-44509.93,-20076.375,31975.098,-6636.19,83196.05,-3019.287,15738.77,65384.44
1386884.641480781,-44504.844,-20077.107,31971.885,-6641.317,83189.29,-3021.9727,15737.549,65395.266
1386884.6454807762,-44508.504,-20074.383,31969.97,-6638.957,83182.05,-3024.0886,15725.871,65370.402
1386884.6494807717,-44512.82,-20075.154,31970.947,-6633.545,83189.13,-3021.3623,15724.162,65361.574
1386884.6534807673,-44511.395,-20083.904,31973.43,-6629.6387,83202.27,-3017.212,15735.2295,65377.85
1386884.6574807628,-44506.918,-20072.104,31975.424,-6634.3994,83204.836,-3015.2996,15747.681,65405.684
1386884.6614807583,-44503.703,-20059.979,31971.152,-6642.619,83202.27,-3014.1602,15750.244,65401.125
1386884.6654807536,-44507.406,-20064.494,31964.967,-6644.613,83193.65,-3010.3354,15751.425,65403.812
1386884.6694807492,-44511.844,-20071.656,31970.053,-6641.3984,83195.11,-3004.8015,15755.209,65417.44
1386884.6734807447,-44513.062,-20071.004,31978.924,-6638.2246,83203.17,-3003.1738,15761.435,65433.473
1386884.6774807402,-44507.977,-20065.838,31980.51,-6639.201,83209.68,-3007.3242,15764.364,65429.61
1386884.6814807355,-44505.94,-20071.168,31978.354,-6641.7236,83209.39,-3012.1665,15760.01,65422.73
1386884.685480731,-44506.633,-20081.543,31975.627,-6640.666,83209.64,-3015.1775,15748.983,65411.906
1386884.6894807266,-44506.145,-20083.496,31974.082,-6634.3994,83211.71,-3014.201,15743.205,65407.434
1386884.6934807221,-44504.805,-20072.104,31976.686,-6631.5107,83216.59,-3011.5967,15746.623,65419.68
1386884.6974807177,-44506.797,-20058.758,31977.662,-6635.8237,83214.48,-3012.7769,15748.251,65424.156
1386884.701480713,-44510.824,-20068.768,31976.727,-6640.869,83205.28,-3013.794,15747.111,65404.95
1386884.7054807085,-44519.207,-20075.562,31976.36,-6641.2354,83196.17,-3014.5671,15744.914,65403.363
1386884.709480704,-44522.79,-20079.713,31976.4,-6639.201,83194.46,-3012.3699,15742.839,65406.047
1386884.7134806996,-44515.137,-20082.887,31979.656,-6638.1025,83203.01,-3010.0913,15744.06,65385.46
1386884.7174806949,-44508.504,-20079.143,31981.854,-6637.7363,83206.34,-3013.143,15745.158,65383.14
1386884.7214806904,-44513.797,-20082.275,31981.324,-6637.6143,83204.51,-3016.8052,15742.839,65386.723
1386884.725480686,-44519.86,-20092.123,31977.295,-6638.387,83196.695,-3017.2935,15738.933,65379.316
1386884.7294806815,-44508.26,-20079.184,31977.865,-6635.8237,83196.125,-3013.9568,15734.66,65367.68
1386884.733480677,-44510.38,-20077.271,31978.516,-6633.9927,83198.65,-3010.1318,15743.327,65387.94
1386884.7374806723,-44516.035,-20089.275,31981.65,-6637.6143,83196.21,-3010.0505,15753.825,65399.17
1386884.7414806678,-44515.3,-20089.031,31982.992,-6641.3574,83193.08,-3011.4746,15749.1455,65379.477
1386884.7454806634,-44514.812,-20073.406,31979.818,-6641.3984,83189.45,-3010.4575,15740.886,65364.953
1386884.749480659,-44521.85,-20081.137,31974.854,-6639.8926,83189.74,-3007.8533,15742.27,65376.223
1386884.7534806542,-44524.902,-20086.834,31974.488,-6637.4106,83200.03,-3004.5574,15751.018,65395.43
1386884.7574806497,-44517.78,-20084.31,31978.395,-6637.573,83202.44,-3004.1912,15760.417,65409.223
1386884.7614806453,-44510.336,-20080.975,31980.918,-6639.5264,83197.06,-3004.9644,15763.184,65413.78
1386884.7654806408,-44511.76,-20071.127,31984.416,-6638.0615,83193.85,-3005.8188,15757.04,65407.72
1386884.7694806363,-44518.395,-20079.998,31987.143,-6635.295,83193.61,-3003.9062,15754.436,65408.043
1386884.7734806316,-44514.203,-20080.242,31992.88,-6631.7954,83199.42,-3001.0173,15761.149,65424.44
1386884.7774806272,-44508.953,-20075.562,31996.787,-6633.8706,83206.75,-3005.005,15763.916,65428.02
1386884.7814806227,-44507.527,-20082.52,31994.67,-6637.0444,83201.664,-3010.3354,15756.063,65421.594
1386884.7854806182,-44506.918,-20094.361,31992.96,-6634.359,83198.77,-3011.027,15748.983,65401.938
1386884.7894806138,-44510.824,-20104.736,31989.299,-6629.3945,83205.08,-3007.9753,15748.088,65395.43
1386884.793480609,-44505.656,-20083.455,31992.107,-6626.4243,83217.2,-3004.4353,15754.028,65383.26
1386884.7974806046,-44502.156,-20065.064,31994.346,-6629.2725,83221.6,-3001.7905,15765.625,65392.297
1386884.8014806001,-44505.902,-20067.059,31989.91,-6633.3823,83220.3,-3004.232,15763.672,65387.492
1386884.8054805957,-44508.504,-20076.457,31988.852,-6633.2603,83204.836,-3003.1738,15757.324,65387.7
1386884.809480591,-44507.812,-20078.166,31987.754,-6630.3306,83205.734,-3000.936,15757.365,65394.94
1386884.8134805865,-44504.883,-20068.604,31989.584,-6627.645,83212.445,-2999.6338,15763.184,65399.336
1386884.817480582,-44498.78,-20056.764,31992.107,-6630.168,83218.95,-2999.8374,15772.339,65429.203
1386884.8214805776,-44496.625,-20058.635,31992.555,-6633.301,83219.16,-3001.8718,15770.183,65415.938
1386884.825480573,-44494.02,-20068.238,31993.531,-6631.958,83213.3,-3001.2615,15764.079,65407.96
1386884.8294805684,-44494.02,-20069.662,31992.025,-6628.784,83220.18,-2998.8608,15761.353,65415.61
1386884.833480564,-44492.96,-20066.854,31993.043,-6627.075,83222.336,-2996.0532,15765.951,65424.156
1386884.8374805595,-44488.203,-20060.303,31997.723,-6629.6797,83222.82,-2996.989,15772.746,65429.04
1386884.841480555,-44488.203,-20060.67,31999.473,-6633.423,83222.414,-3000.7324,15772.665,65432.984
1386884.8454805503,-44492.8,-20075.36,32001.303,-6632.8535,83220.87,-3001.3835,15769.328,65426.066
1386884.8494805458,-44497.273,-20095.174,32004.6,-6629.0283,83215.09,-2997.518,15772.177,65425.945
1386884.8534805414,-44498.863,-20086.955,32006.268,-6626.343,83218.23,-2993.7744,15780.3955,65439.74
1386884.857480537,-44498.78,-20073.324,32008.22,-6628.662,83218.43,-2994.2627,15785.6045,65438.76
1386884.8614805324,-44495.117,-20061.402,32006.674,-6633.6265,83216.11,-2997.0703,15776.9375,65417.32
1386884.8654805277,-44502.24,-20069.256,32000.734,-6634.5625,83211.55,-2998.0469,15767.172,65412.56
1386884.8694805233,-44506.55,-20073.65,31997.111,-6629.883,83208.87,-2997.6807,15763.876,65408.652
1386884.8734805188,-44503.746,-20075.115,31997.926,-6625.8545,83215.82,-2995.0767,15765.951,65403.605
1386884.8774805143,-44498.13,-20072.998,32001.75,-6626.384,83217.695,-2996.989,15771.851,65420.168
1386884.8814805096,-44495.65,-20076.295,32000.164,-6630.534,83215.74,-3000.0408,15770.63,65424.562
1386884.8854805052,-44500.9,-20088.543,31998.535,-6632.772,83208.13,-2998.2505,15769.531,65428.918
1386884.8894805007,-44506.27,-20092.53,32000.0,-6629.883,83208.945,-2992.8386,15768.393,65416.508
1386884.8934804962,-44506.918,-20091.96,32001.303,-6628.296,83218.266,-2990.9668,15772.502,65407.637
1386884.8974804918,-44498.82,-20082.887,32003.908,-6630.493,83224.57,-2993.4897,15776.083,65407.27
1386884.901480487,-44499.473,-20073.406,32000.408,-6632.894,83222.21,-2995.8904,15776.449,65409.59
1386884.9054804826,-44500.69,-20074.545,31998.943,-6632.6904,83220.016,-2995.6055,15776.774,65421.31
1386884.9094804781,-44502.24,-20075.074,31998.21,-6629.72,83220.336,-2992.1875,15775.839,65421.227
1386884.9134804737,-44504.234,-20074.219,31998.21,-6626.465,83229.62,-2989.746,15779.745,65432.984
1386884.9174804692,-44506.27,-20078.533,32001.1,-6629.5576,83239.055,-2991.455,15782.675,65411.34
1386884.9214804645,-44506.023,-20102.498,32004.477,-6631.714,83229.49,-2995.1172,15782.227,65406.617
1386884.92548046,-44501.18,-20096.436,32006.064,-6633.545,83218.43,-2994.7104,15780.966,65416.71
1386884.9294804556,-44499.39,-20076.54,32007.365,-6633.0977,83216.92,-2990.031,15781.291,65422.773
1386884.933480451,-44496.258,-20067.506,32008.547,-6629.924,83227.79,-2989.2578,15781.291,65414.96
1386884.9374804464,-44489.137,-20066.814,32012.045,-6629.3945,83236.01,-2990.6006,15783.773,65420.656
1386884.941480442,-44484.336,-20066.365,32011.027,-6632.772,83234.375,-2992.4316,15783.773,65429.61
1386884.9454804375,-44487.348,-20070.924,32008.83,-6633.789,83228.97,-2992.6353,15776.896,65421.31
1386884.949480433,-44493.492,-20072.145,32011.924,-6629.924,83228.68,-2990.6414,15772.543,65417.156
1386884.9534804286,-44490.48,-20070.76,32012.777,-6627.9707,83237.43,-2990.9668,15775.432,65425.99
1386884.9574804239,-44483.48,-20068.28,32012.574,-6631.0225,83241.58,-2993.0828,15778.483,65424.48
1386884.9614804194,-44477.176,-20067.424,32010.906,-6634.7656,83232.83,-2994.8325,15779.867,65423.586
1386884.965480415,-44477.5,-20071.656,32011.312,-6634.481,83226.65,-2992.1062,15778.442,65414.39
1386884.9694804105,-44482.3,-20070.924,32013.266,-6630.493,83230.35,-2986.0027,15774.577,65407.96
1386884.9734804058,-44481.65,-20068.115,32015.951,-6626.18,83242.92,-2984.66,15773.56,65415.938
1386884.9774804013,-44474.12,-20068.93,32013.795,-6627.523,83252.0,-2987.0605,15774.17,65425.742
1386884.9814803968,-44475.996,-20072.51,32009.645,-6631.633,83247.234,-2991.211,15768.84,65432.457
1386884.9854803924,-44475.63,-20067.791,32012.127,-6630.412,83233.97,-2992.4724,15763.469,65416.832
1386884.989480388,-44486.086,-20074.422,32013.225,-6626.506,83232.14,-2988.607,15765.381,65423.707
1386884.9934803832,-44484.703,-20075.36,32014.324,-6625.2036,83231.81,-2983.7646,15771.851,65425.54
1386884.9974803787,-44472.21,-20052.979,32017.986,-6630.2085,83239.26,-2981.242,15782.227,65441.734
1386885.0014803743,-44468.223,-20055.664,32018.271,-6635.783,83237.51,-2984.4565,15779.785,65433.516
1386885.0054803698,-44470.258,-20077.107,32020.51,-6633.342,83234.17,-2983.358,15776.042,65434.207
1386885.009480365,-44474.285,-20061.361,32019.492,-6629.11,83236.53,-2980.4688,15774.577,65440.023
1386885.0134803606,-44466.92,-20049.113,32021.12,-6625.6104,83246.09,-2978.5972,15780.518,65430.586
1386885.0174803562,-44461.266,-20052.328,32021.81,-6627.3604,83243.21,-2977.9868,15791.26,65443.645
1386885.0214803517,-44458.7,-20054.037,32021.607,-6631.1035,83240.6,-2979.777,15790.976,65438.195
1386885.0254803472,-44462.04,-20056.967,32022.666,-6633.0566,83237.23,-2980.6724,15784.668,65430.95
1386885.0294803425,-44465.293,-20062.947,32026.205,-6628.174,83241.09,-2976.644,15783.813,65447.715
1386885.033480338,-44464.887,-20060.67,32031.496,-6624.3896,83249.11,-2975.0164,15788.696,65452.477
1386885.0374803336,-44456.258,-20051.758,32036.297,-6626.058,83252.32,-2977.0103,15790.8125,65421.594
1386885.0414803291,-44452.72,-20045.207,32037.07,-6625.814,83248.945,-2978.9634,15791.87,65432.254
1386885.0454803244,-44454.023,-20048.992,32034.791,-6623.9014,83244.875,-2980.4688,15781.616,65425.99
1386885.04948032,-44454.836,-20054.158,32032.879,-6618.286,83247.805,-2979.126,15773.031,65414.39
1386885.0534803155,-44456.34,-20057.129,32032.229,-6615.682,83255.05,-2977.6611,15776.652,65423.504
1386885.057480311,-44452.312,-20057.617,32035.97,-6618.4897,83261.64,-2977.946,15782.227,65434.41
1386885.0614803066,-44457.684,-20066.895,32035.768,-6623.169,83255.375,-2979.8992,15781.25,65433.39
1386885.0654803019,-44466.31,-20061.809,32032.39,-6625.3257,83246.5,-2979.5737,15774.252,65423.625
1386885.0694802974,-44472.293,-20053.387,32033.123,-6622.762,83249.35,-2977.2544,15772.949,65420.047
1386885.073480293,-44463.46,-20051.148,32035.605,-6618.5303,83261.68,-2975.0571,15780.355,65427.695
1386885.0774802885,-44449.14,-20048.299,32034.873,-6619.0186,83266.16,-2976.1558,15789.958,65446.293
1386885.081480284,-44449.953,-20046.266,32028.85,-6622.8027,83262.82,-2979.126,15787.436,65434.734
1386885.0854802793,-44459.15,-20056.805,32023.154,-6624.0645,83251.266,-2979.1667,15784.506,65425.66
1386885.0894802748,-44468.465,-20063.436,32019.94,-6623.21,83247.56,-2975.4233,15789.389,65432.05
1386885.0934802704,-44467.816,-20062.623,32021.607,-6620.6465,83257.125,-2972.2087,15795.573,65432.984
1386885.097480266,-44463.38,-20057.088,32025.96,-6622.4775,83264.61,-2973.877,15801.758,65443.156
1386885.1014802612,-44463.79,-20058.514,32026.816,-6624.8374,83257.695,-2975.7488,15801.962,65450.645
1386885.1054802567,-44462.117,-20063.152,32028.729,-6622.274,83254.4,-2975.9116,15795.858,65458.375
1386885.1094802523,-44461.63,-20067.424,32031.535,-6616.2925,83258.47,-2974.6094,15786.581,65458.824
1386885.1134802478,-44458.336,-20061.727,32032.188,-6612.2236,83267.664,-2974.691,15779.704,65428.305
1386885.1174802433,-44446.82,-20051.025,32034.22,-6613.8105,83265.51,-2977.9868,15777.995,65421.31
1386885.1214802386,-44449.992,-20058.146,32031.17,-6615.2754,83259.36,-2978.5972,15774.902,65425.05
1386885.1254802342,-44465.21,-20073.771,32027.223,-6616.618,83251.67,-2978.475,15767.863,65423.75
1386885.1294802297,-44465.58,-20072.957,32028.85,-6612.6304,83257.61,-2974.8535,15769.572,65420.98
1386885.1334802252,-44462.934,-20074.3,32033.652,-6606.893,83269.125,-2970.988,15781.738,65432.984
1386885.1374802205,-44459.027,-20063.885,32036.459,-6611.45,83273.36,-2971.3135,15792.277,65447.227
1386885.141480216,-44455.85,-20043.865,32035.564,-6619.1816,83264.37,-2972.982,15795.004,65456.42
1386885.1454802116,-44453.207,-20039.55,32037.72,-6617.3506,83262.33,-2972.453,15787.313,65430.34
1386885.1494802071,-44454.023,-20046.672,32038.494,-6612.02,83267.055,-2968.7095,15784.262,65422.69
1386885.1534802027,-44452.8,-20045.41,32040.365,-6609.497,83266.44,-2966.7563,15790.649,65437.34
1386885.157480198,-44451.418,-20045.94,32040.773,-6610.6772,83269.45,-2968.099,15799.805,65457.277
1386885.1614801935,-44449.87,-20055.787,32037.518,-6613.607,83260.625,-2972.168,15799.643,65464.074
1386885.165480189,-44453.98,-20060.71,32034.22,-6613.2407,83252.93,-2973.6328,15793.945,65457.195
1386885.1694801846,-44453.168,-20060.182,32035.89,-6609.8633,83258.305,-2969.564,15796.143,65467.45
1386885.1734801799,-44455.28,-20050.496,32038.371,-6607.788,83266.93,-2967.6514,15799.927,65460.53
1386885.1774801754,-44450.645,-20044.11,32039.309,-6609.9043,83274.05,-2969.6045,15802.938,65463.79
1386885.181480171,-44445.64,-20045.41,32039.512,-6611.8574,83272.75,-2974.0806,15802.328,65462.973
1386885.1854801665,-44442.586,-20041.627,32040.65,-6608.6426,83269.164,-2974.3247,15793.905,65454.348
1386885.189480162,-44440.918,-20039.307,32043.295,-6602.3765,83269.62,-2972.412,15789.429,65454.43
1386885.1934801573,-44439.25,-20040.527,32048.463,-6598.0635,83269.734,-2969.808,15791.138,65461.1
1386885.1974801528,-44435.1,-20046.795,32050.13,-6600.627,83269.21,-2970.7031,15795.776,65468.59
1386885.2014801484,-44436.688,-20051.678,32049.725,-6604.7773,83263.72,-2974.8943,15791.789,65467.98
1386885.205480144,-44444.785,-20068.115,32047.365,-6604.289,83265.42,-2973.7144,15786.133,65460.492
1386885.2094801394,-44448.527,-20063.64,32050.213,-6600.627,83268.07,-2968.0176,15786.987,65458.66
1386885.2134801347,-44445.965,-20046.469,32053.996,-6598.999,83276.9,-2964.8032,15797.038,65472.21
1386885.2174801303,-44435.957,-20034.262,32055.828,-6601.1963,83283.04,-2964.8438,15807.536,65488.527
1386885.2214801258,-44431.64,-20030.64,32055.705,-6602.295,83278.65,-2967.3667,15806.723,65483.36
1386885.2254801213,-44433.676,-20040.936,32052.857,-6603.2715,83273.64,-2966.6748,15802.002,65480.88
1386885.2294801166,-44428.59,-20037.68,32051.637,-6598.5923,83276.37,-2962.8093,15801.107,65461.996
1386885.2334801122,-44426.473,-20028.28,32053.184,-6596.843,83283.734,-2960.083,15811.728,65478.76
1386885.2374801077,-44429.484,-20023.275,32053.143,-6600.7896,83284.51,-2960.7341,15817.546,65471.6
1386885.2414801032,-44430.098,-20028.605,32049.887,-6604.696,83280.766,-2962.199,15813.965,65460.53
1386885.2454800988,-44434.57,-20036.988,32047.975,-6605.591,83280.84,-2962.3618,15812.256,65474.285
1386885.249480094,-44437.137,-20039.307,32051.271,-6601.888,83285.61,-2958.9438,15812.704,65484.215
1386885.2534800896,-44429.61,-20033.367,32057.293,-6597.209,83296.02,-2956.7058,15818.197,65484.66
1386885.2574800851,-44423.668,-20027.059,32061.361,-6596.029,83299.69,-2958.8623,15821.411,65472.74
1386885.2614800807,-44417.36,-20019.979,32063.314,-6598.5923,83287.27,-2961.3853,15819.214,65475.75
1386885.265480076,-44415.285,-20020.184,32064.291,-6596.802,83281.58,-2959.0251,15815.512,65485.56
1386885.2694800715,-44425.824,-20028.564,32060.467,-6594.2793,83283.2,-2956.9907,15815.349,65493.613
1386885.273480067,-44433.473,-20038.86,32060.182,-6592.082,83292.69,-2956.3804,15816.977,65485.8
1386885.2774800626,-44428.957,-20043.621,32060.14,-6593.8315,83300.336,-2958.9844,15822.47,65504.477
1386885.281480058,-44422.49,-20021.648,32060.549,-6598.796,83290.41,-2961.4666,15820.842,65499.31
1386885.2854800534,-44422.49,-20017.375,32060.996,-6600.1387,83284.016,-2959.1064,15820.109,65495.484
1386885.289480049,-44420.656,-20018.555,32062.746,-6596.517,83287.195,-2955.485,15823.12,65506.31
1386885.2934800445,-44419.19,-20016.277,32065.797,-6592.8955,83294.97,-2952.8809,15830.2,65513.797
1386885.29748004,-44418.17,-20021.688,32064.17,-6596.029,83294.64,-2953.532,15835.856,65519.086
1386885.3014800353,-44420.86,-20029.541,32060.914,-6601.8477,83282.88,-2954.712,15835.531,65526.043
1386885.3054800308,-44427.207,-20031.658,32058.432,-6601.8477,83278.24,-2953.939,15828.939,65501.305
1386885.3094800264,-44426.15,-20028.402,32059.775,-6594.7266,83285.16,-2950.7244,15827.719,65499.027
1386885.313480022,-44424.316,-20025.92,32062.176,-6592.855,83292.805,-2948.0796,15832.153,65510.703
1386885.3174800174,-44424.6,-20023.764,32064.617,-6597.86,83293.91,-2950.2769,15834.106,65516.035
1386885.3214800127,-44434.53,-20031.453,32063.64,-6602.0103,83287.64,-2954.3457,15832.357,65529.258
1386885.3254800083,-44438.805,-20038.615,32059.693,-6603.2715,83283.98,-2955.2002,15826.742,65510.785
1386885.3294800038,-44434.246,-20038.086,32060.588,-6600.3013,83288.414,-2951.701,15821.777,65491.375
1386885.3334799993,-44430.42,-20041.79,32063.152,-6597.7783,83291.83,-2948.161,15829.306,65522.098
1386885.3374799949,-44420.004,-20033.488,32066.855,-6598.2666,83294.4,-2948.934,15835.124,65517.418
1386885.3414799902,-44412.883,-20029.338,32065.676,-6601.5625,83289.35,-2950.2769,15838.542,65525.883
1386885.3454799857,-44416.586,-20034.75,32065.064,-6601.7256,83282.19,-2948.5679,15837.891,65537.11
1386885.3494799812,-44427.125,-20036.418,32065.432,-6597.7783,83282.92,-2948.6492,15829.509,65519.98
1386885.3534799768,-44427.207,-20039.51,32067.912,-6591.512,83293.58,-2950.3582,15824.667,65500.773
1386885.357479972,-44423.055,-20044.842,32066.977,-6592.5703,83297.28,-2953.4507,15826.132,65506.145
1386885.3614799676,-44425.863,-20029.176,32064.25,-6598.1445,83292.89,-2956.1768,15827.515,65511.926
1386885.3654799631,-44428.47,-20024.822,32062.908,-6599.6094,83287.805,-2954.834,15826.376,65512.74
1386885.3694799587,-44439.168,-20038.29,32064.535,-6594.7676,83287.27,-2949.9512,15829.387,65511.844
1386885.3734799542,-44429.77,-20040.324,32070.191,-6591.0645,83290.29,-2945.8008,15838.583,65525.96
1386885.3774799495,-44414.473,-20031.209,32073.488,-6593.2617,83292.73,-2947.754,15843.547,65537.6
1386885.381479945,-44410.523,-20032.635,32072.47,-6595.215,83287.64,-2950.1953,15842.001,65531.617
1386885.3854799406,-44416.383,-20032.838,32069.865,-6595.5,83288.74,-2952.4333,15833.415,65511.234
1386885.389479936,-44422.363,-20034.953,32068.441,-6592.163,83288.74,-2948.2422,15830.566,65510.785
1386885.3934799314,-44417.684,-20033.732,32068.727,-6588.908,83295.695,-2945.1904,15836.304,65529.34
1386885.397479927,-44411.703,-20023.682,32069.053,-6590.129,83307.21,-2946.9402,15844.931,65547.24
1386885.4014799225,-44416.098,-20020.672,32065.715,-6592.855,83303.71,-2950.2769,15842.733,65535.035
1386885.405479918,-44420.207,-20022.176,32063.234,-6590.8203,83297.9,-2949.8699,15836.02,65520.47
1386885.4094799135,-44421.47,-20024.008,32064.494,-6585.0425,83301.76,-2946.7368,15833.984,65524.457
1386885.4134799088,-44421.918,-20030.03,32067.629,-6582.5195,83308.43,-2946.2485,15836.142,65531.047
1386885.4174799044,-44414.676,-20031.617,32067.18,-6584.4727,83306.805,-2948.5679,15837.769,65539.47
1386885.4214799,-44414.754,-20034.709,32064.658,-6586.955,83302.164,-2954.5898,15829.387,65528.324
1386885.4254798954,-44417.523,-20042.318,32064.006,-6585.0425,83299.32,-2954.3865,15819.824,65517.582
1386885.4294798907,-44423.79,-20045.695,32065.594,-6582.357,83298.55,-2952.6367,15817.302,65512.21
1386885.4334798863,-44424.195,-20043.58,32067.344,-6578.41,83305.016,-2951.4976,15824.829,65523.645
1386885.4374798818,-44416.465,-20040.203,32068.441,-6578.8574,83312.5,-2950.8057,15831.503,65514.895
1386885.4414798773,-44416.465,-20037.965,32068.523,-6583.415,83307.945,-2952.352,15834.473,65521.69
1386885.4454798729,-44421.387,-20027.02,32065.756,-6585.1646,83298.95,-2951.0906,15835.043,65536.79
1386885.4494798682,-44418.418,-20025.188,32067.385,-6582.927,83302.82,-2948.4458,15832.683,65522.504
1386885.4534798637,-44416.26,-20029.867,32072.023,-6580.8516,83311.73,-2945.5974,15839.396,65518.637
1386885.4574798592,-44410.645,-20025.879,32073.771,-6583.496,83313.73,-2946.452,15844.809,65540.61
1386885.4614798548,-44408.33,-20022.828,32074.22,-6587.484,83311.69,-2951.2534,15838.176,65535.08
1386885.4654798503,-44414.145,-20025.799,32070.395,-6586.792,83309.37,-2952.6367,15828.329,65520.918
1386885.4694798456,-44418.01,-20027.182,32066.652,-6583.0894,83308.88,-2948.405,15827.759,65538.414
1386885.4734798411,-44417.97,-20027.223,32070.354,-6581.5024,83312.95,-2944.0918,15836.02,65548.75
1386885.4774798367,-44412.355,-20024.658,32073.936,-6583.6997,83317.14,-2945.394,15840.292,65542.52
1386885.4814798322,-44411.418,-20029.135,32076.58,-6587.6875,83316.81,-2947.6726,15842.285,65559.734
1386885.4854798275,-44412.395,-20027.1,32077.23,-6587.3213,83344.2,-2946.5332,15834.106,65528.934
1386885.489479823,-44415.73,-20033.367,32078.166,-6585.368,83369.836,-2942.3828,15832.642,65529.258
1386885.4934798186,-44417.195,-20035.156,32079.51,-6586.2227,83388.76,-2938.1104,15843.71,65557.375
1386885.497479814,-44409.668,-20030.273,32079.021,-6591.0645,83398.44,-2939.9822,15851.604,65566.445
1386885.5014798096,-44411.5,-20030.273,32076.336,-6595.9067,83395.02,-2944.0918,15845.663,65552.414
1386885.505479805,-44418.906,-20041.342,32073.527,-6594.9707,83390.586,-2944.7837,15838.664,65546.914
1386885.5094798005,-44429.28,-20038.941,32075.115,-6591.675,83392.055,-2940.3892,15840.861,65547.445
1386885.513479796,-44427.086,-20024.537,32079.957,-6591.024,83401.33,-2938.4766,15849.325,65561.77
1386885.5174797915,-44409.832,-20016.805,32083.822,-6594.4014,83411.09,-2938.6802,15856.445,65553.34
1386885.5214797868,-44402.305,-20013.592,32084.475,-6597.087,83419.11,-2939.2905,15857.707,65563.766
1386885.5254797824,-44405.965,-20016.725,32082.766,-6595.134,83429.41,-2938.0698,15853.435,65561.2
1386885.529479778,-44406.66,-20015.625,32083.945,-6589.9253,83433.88,-2935.669,15851.4,65558.07
1386885.5334797734,-44407.918,-20016.56,32088.055,-6589.2744,83441.734,-2933.7158,15853.72,65572.72
1386885.537479769,-44408.613,-20020.387,32087.81,-6592.489,83442.75,-2937.2559,15854.98,65574.95
1386885.5414797643,-44411.297,-20018.596,32085.287,-6597.7783,83442.34,-2940.7554,15850.993,65562.91
1386885.5454797598,-44411.543,-20018.963,32081.91,-6597.0054,83434.66,-2942.0981,15843.832,65558.19
1386885.5494797553,-44415.652,-20027.996,32084.066,-6594.4824,83430.42,-2939.86,15840.698,65566.29
1386885.5534797509,-44411.867,-20024.008,32089.52,-6590.9424,83439.45,-2935.8726,15842.367,65563.68
1386885.5574797462,-44405.965,-20016.928,32090.537,-6592.326,83446.9,-2936.1572,15846.3955,65572.76
1386885.5614797417,-44404.746,-20025.879,32093.71,-6596.3135,83440.72,-2939.7788,15842.245,65562.79
1386885.5654797372,-44414.836,-20044.516,32088.38,-6595.337,83440.06,-2942.0574,15830.526,65536.586
1386885.5694797328,-44420.86,-20043.336,32085.451,-6592.407,83444.99,-2937.8662,15831.747,65539.39
1386885.5734797283,-44418.62,-20022.828,32084.922,-6592.7734,83454.1,-2935.0586,15842.082,65566.2
1386885.5774797236,-44413.086,-20014.486,32086.549,-6595.744,83458.414,-2935.9539,15853.149,65590.66
1386885.5814797191,-44411.906,-20015.096,32086.02,-6599.4062,83450.08,-2939.087,15853.19,65581.18
1386885.5854797147,-44413.535,-20020.916,32085.775,-6598.755,83444.945,-2938.8835,15846.069,65555.75
1386885.5894797102,-44415.12,-20026.49,32088.705,-6592.3667,83444.46,-2935.3027,15850.098,65576.54
1386885.5934797055,-44412.8,-20026.531,32090.861,-6589.5996,83454.43,-2933.1462,15853.516,65567.63
1386885.597479701,-44413.21,-20025.35,32089.805,-6594.3604,83458.3,-2934.0007,15856.364,65569.17
1386885.6014796966,-44417.36,-20025.676,32086.346,-6600.708,83453.49,-2937.0933,15850.424,65553.836
1386885.605479692,-44422.203,-20027.547,32082.033,-6600.9116,83449.42,-2937.5,15839.478,65529.867
1386885.6094796876,-44429.08,-20034.994,32083.254,-6596.1104,83451.055,-2934.4482,15836.508,65537.97
1386885.613479683,-44430.42,-20032.35,32087.932,-6593.099,83456.75,-2934.082,15843.018,65568.195
1386885.6174796785,-44419.11,-20023.072,32094.443,-6592.6924,83458.375,-2937.4187,15844.523,65570.44
1386885.621479674,-44412.234,-20021.404,32095.988,-6595.7847,83455.53,-2940.8367,15839.966,65561.12
1386885.6254796695,-44408.33,-20022.42,32095.297,-6594.6045,83456.625,-2939.4126,15830.933,65547.484
1386885.629479665,-44409.508,-20023.316,32094.484,-6591.797,83463.586,-2936.076,15825.358,65545.375
1386885.6334796604,-44411.418,-20023.885,32094.729,-6589.2334,83470.83,-2932.373,15833.293,65562.91
1386885.637479656,-44408.938,-20030.559,32092.326,-6592.041,83468.836,-2931.3965,15841.513,65565.92
1386885.6414796514,-44409.793,-20031.209,32089.602,-6596.5576,83464.234,-2933.8787,15841.309,65567.38
1386885.645479647,-44417.402,-20018.678,32086.916,-6598.3887,83457.234,-2935.2622,15838.786,65573.734
1386885.6494796423,-44421.266,-20013.184,32091.31,-6596.761,83463.75,-2932.4138,15842.651,65586.39
1386885.6534796378,-44417.402,-20009.074,32098.146,-6592.733,83474.734,-2929.525,15852.011,65601.52
1386885.6574796333,-44408.246,-20004.598,32104.615,-6592.7734,83476.89,-2930.827,15857.829,65604.62
1386885.6614796289,-44400.39,-20006.55,32107.545,-6595.581,83472.05,-2934.8552,15854.858,65589.16
1386885.6654796244,-44405.152,-20011.068,32104.045,-6595.2964,83476.12,-2934.0007,15850.871,65590.984
1386885.6694796197,-44414.023,-20015.219,32099.65,-6592.6924,83475.95,-2931.7627,15841.105,65547.445
1386885.6734796152,-44427.45,-20025.188,32093.791,-6593.872,83468.43,-2928.3447,15845.419,65565.516
1386885.6774796108,-44446.94,-20044.598,32090.781,-6600.464,83463.95,-2930.0945,15850.302,65575.52
1386885.6814796063,-44439.21,-20043.336,32095.053,-6602.7427,83456.79,-2935.7505,15840.576,65550.09
1386885.6854796016,-44411.5,-20019.002,32107.586,-6596.6797,83457.36,-2936.9304,15833.496,65549.12
1386885.6894795971,-44410.24,-20017.578,32111.94,-6591.5527,83456.83,-2931.193,15838.339,65571.05
1386885.6934795927,-44413.414,-20029.053,32110.76,-6591.6343,83460.125,-2927.2869,15849.284,65590.336
1386885.6974795882,-44407.023,-20028.32,32114.137,-6594.32,83461.55,-2929.0366,15852.702,65586.47
1386885.7014795837,-44401.125,-20020.508,32118.45,-6596.843,83460.05,-2930.0132,15847.982,65581.71
1386885.705479579,-44407.27,-20025.066,32119.793,-6597.331,83454.1,-2928.7517,15842.651,65586.59
1386885.7094795746,-44404.785,-20022.42,32122.355,-6592.041,83450.08,-2927.938,15835.979,65565.11
1386885.71347957,-44402.266,-20018.637,32124.188,-6589.2334,83455.484,-2925.9033,15843.466,65577.234
1386885.7174795656,-44391.195,-20013.795,32130.373,-6590.454,83457.195,-2925.578,15855.835,65602.46
1386885.721479561,-44393.066,-20020.223,32131.105,-6594.7266,83452.48,-2925.3337,15865.112,65626.95
1386885.7254795565,-44399.254,-20029.541,32133.871,-6595.9067,83445.31,-2925.0083,15860.759,65600.99
1386885.729479552,-44407.918,-20035.848,32133.098,-6593.1396,83454.914,-2921.0613,15857.097,65582.195
1386885.7334795475,-44417.402,-20046.266,32133.506,-6592.8955,83487.39,-2916.4226,15867.27,65613.12
1386885.737479543,-44415.938,-20047.975,32135.215,-6595.256,83529.87,-2917.277,15877.971,65628.13
1386885.7414795384,-44409.14,-20039.145,32133.668,-6598.755,83540.37,-2923.1365,15871.908,65590.13
1386885.745479534,-44411.055,-20038.371,32131.023,-6597.738,83536.09,-2922.7703,15868.49,65592.45
1386885.7494795294,-44413.13,-20041.545,32132.57,-6593.2617,83536.74,-2919.5557,15868.368,65603.48
1386885.753479525,-44408.043,-20032.635,32135.703,-6590.007,83551.92,-2917.562,15872.03,65615.32
1386885.7574795205,-44401.367,-20028.361,32138.754,-6592.082,83581.664,-2919.1082,15874.919,65612.305
1386885.7614795158,-44401.41,-20035.809,32138.348,-6595.215,83582.6,-2921.7124,15870.524,65611.695
1386885.7654795113,-44413.535,-20056.479,32133.627,-6595.0117,83584.92,-2920.98,15864.828,65625.86
1386885.7694795069,-44422.08,-20057.414,32131.512,-6593.099,83591.23,-2918.742,15862.671,65618.77
1386885.7734795024,-44419.76,-20045.29,32130.738,-6593.1807,83602.055,-2915.8123,15860.2295,65600.625
1386885.7774794977,-44414.836,-20039.959,32128.988,-6595.5405,83602.83,-2918.5386,15854.33,65567.875
1386885.7814794932,-44421.51,-20044.719,32125.408,-6601.3184,83599.734,-2921.3867,15849.365,65571.62
1386885.7854794888,-44430.46,-20057.496,32121.502,-6604.004,83591.59,-2923.6655,15843.994,65591.555
1386885.7894794843,-44435.71,-20060.71,32119.67,-6599.447,83593.67,-2922.0378,15842.001,65574.34
1386885.7934794798,-44433.473,-20054.852,32122.111,-6597.209,83604.25,-2919.3115,15850.993,65572.43
1386885.7974794751,-44427.656,-20055.705,32127.117,-6599.813,83610.84,-2919.3523,15865.316,65600.34
1386885.8014794707,-44434.41,-20063.64,32129.436,-6604.004,83607.18,-2923.4214,15868.652,65610.07
1386885.8054794662,-44440.51,-20067.994,32130.047,-6604.4517,83600.95,-2923.5027,15866.008,65592.81
1386885.8094794618,-44442.426,-20071.168,32130.291,-6601.8477,83605.516,-2919.8813,15866.089,65598.43
1386885.813479457,-44436.32,-20070.11,32133.791,-6596.5576,83620.69,-2919.0269,15867.554,65601.93
1386885.8174794526,-44427.938,-20068.115,32134.4,-6597.6562,83625.61,-2923.0957,15866.455,65606.445
1386885.8214794481,-44428.145,-20067.383,32128.379,-6601.156,83629.97,-2928.7517,15857.422,65599.0
1386885.8254794437,-44436.32,-20067.791,32120.932,-6602.6206,83630.13,-2928.6296,15845.825,65590.45
1386885.8294794392,-44445.56,-20076.13,32119.875,-6600.179,83626.95,-2924.235,15842.855,65581.14
1386885.8334794345,-44447.188,-20080.322,32124.064,-6597.3716,83630.086,-2922.282,15847.331,65578.25
1386885.83747943,-44443.074,-20079.225,32129.844,-6601.0337,83633.99,-2920.0847,15860.107,65605.72
1386885.8414794256,-44445.844,-20082.234,32128.338,-6607.6255,83629.6,-2918.1316,15863.933,65604.62
1386885.845479421,-44451.5,-20090.617,32130.494,-6607.585,83623.91,-2917.8875,15859.294,65603.48
1386885.8494794164,-44451.945,-20091.105,32134.768,-6602.458,83629.6,-2918.2944,15855.835,65601.04
1386885.853479412,-44456.83,-20077.76,32135.133,-6598.2666,83651.9,-2918.6606,15851.807,65566.24
1386885.8574794075,-44451.906,-20074.545,32132.977,-6599.935,83656.82,-2921.224,15856.894,65590.58
1386885.861479403,-44447.023,-20071.98,32129.152,-6602.824,83648.84,-2922.4448,15856.12,65594.445
1386885.8654793985,-44443.727,-20072.389,32125.979,-6601.074,83648.44,-2921.5496,15849.284,65574.71
1386885.8694793938,-44444.258,-20074.219,32125.45,-6596.924,83651.49,-2918.742,15848.918,65570.805
1386885.8734793894,-44441.285,-20079.998,32128.623,-6593.9536,83656.66,-2915.8123,15853.882,65583.414
1386885.877479385,-44441.734,-20095.623,32132.365,-6596.639,83658.81,-2916.9517,15859.131,65589.56
1386885.8814793804,-44439.58,-20078.004,32134.36,-6601.4404,83654.3,-2919.0674,15860.962,65594.93
1386885.885479376,-44436.934,-20063.07,32135.988,-6598.104,83652.59,-2920.451,15853.882,65585.37
1386885.8894793713,-44440.676,-20067.018,32139.61,-6592.6924,83655.97,-2920.6138,15852.133,65585.734
1386885.8934793668,-44439.535,-20068.197,32144.816,-6589.2744,83665.65,-2920.7764,15854.086,65592.05
1386885.8974793623,-44435.793,-20065.35,32144.328,-6592.5293,83663.25,-2922.1191,15854.94,65591.35
1386885.9014793579,-44436.85,-20064.738,32138.633,-6599.569,83655.16,-2924.235,15854.858,65599.57
1386885.9054793532,-44436.89,-20061.28,32136.639,-6599.162,83663.336,-2920.7764,15854.045,65601.36
1386885.9094793487,-44441.977,-20063.924,32136.395,-6594.686,83666.06,-2914.7136,15858.969,65603.84
1386885.9134793442,-44440.594,-20065.105,32141.684,-6591.7563,83675.26,-2911.4177,15866.821,65614.664
1386885.9174793398,-44441.203,-20066.691,32145.834,-6594.8896,83678.76,-2912.191,15875.082,65639.41
1386885.9214793353,-44438.234,-20066.203,32148.887,-6597.209,83677.29,-2914.7544,15872.519,65640.71
1386885.9254793306,-44436.117,-20065.594,32148.887,-6594.2793,83674.28,-2917.3992,15861.247,65613.85
1386885.9294793261,-44443.402,-20065.35,32150.393,-6587.362,83675.055,-2918.742,15854.248,65611.086
1386885.9334793217,-44440.797,-20062.744,32151.652,-6585.6934,83679.12,-2919.393,15861.369,65628.3
1386885.9374793172,-44433.23,-20060.67,32145.225,-6593.3433,83681.4,-2919.8813,15875.61,65663.82
1386885.9414793125,-44437.95,-20065.268,32138.104,-6601.074,83673.75,-2921.997,15876.099,65665.08
1386885.945479308,-44438.76,-20064.168,32137.615,-6599.365,83672.484,-2919.8406,15866.455,65631.67
1386885.9494793036,-44437.95,-20067.871,32140.26,-6594.93,83679.445,-2917.7246,15859.253,65606.125
1386885.953479299,-44436.117,-20067.83,32147.463,-6592.489,83684.77,-2917.3992,15859.66,65611.21
1386885.9574792946,-44429.934,-20062.012,32151.734,-6592.1226,83685.836,-2921.3867,15859.416,65617.35
1386885.96147929,-44430.055,-20062.053,32151.857,-6593.669,83674.89,-2928.7925,15849.447,65607.67
1386885.9654792855,-44432.617,-20062.947,32150.758,-6590.7393,83673.055,-2931.478,15838.989,65592.086
1386885.969479281,-44434.45,-20064.25,32149.7,-6585.9375,83677.82,-2929.4841,15836.142,65601.32
1386885.9734792765,-44437.01,-20057.496,32148.684,-6584.432,83687.586,-2926.3103,15841.716,65605.02
1386885.9774792718,-44434.855,-20054.281,32145.957,-6589.8438,83694.26,-2924.398,15851.318,65608.766
1386885.9814792674,-44437.91,-20057.049,32144.816,-6597.6157,83685.95,-2925.293,15854.208,65619.39
1386885.985479263,-44443.2,-20066.203,32144.816,-6597.9414,83673.26,-2923.7468,15852.377,65627.52
1386885.9894792584,-44448.895,-20074.3,32147.299,-6595.4185,83671.92,-2922.16,15847.046,65617.8
1386885.993479254,-44446.168,-20076.58,32148.479,-6592.2446,83681.84,-2921.6309,15842.245,65592.61
1386885.9974792493,-44439.25,-20083.66,32151.896,-6591.268,83684.2,-2924.8455,15844.89,65588.91
1386886.0014792448,-44438.6,-20076.498,32148.44,-6594.8896,83679.89,-2929.525,15844.89,65595.42
1386886.0054792403,-44437.258,-20066.447,32144.451,-6596.273,83675.3,-2928.1414,15841.228,65594.32
1386886.0094792359,-44440.31,-20066.0,32142.05,-6595.5,83676.516,-2924.0723,15843.303,65594.41
1386886.0134792312,-44439.496,-20064.78,32142.498,-6595.093,83687.95,-2920.451,15851.278,65603.555
1386886.0174792267,-44436.117,-20065.756,32145.754,-6599.8535,83690.72,-2918.9048,15858.684,65612.02
1386886.0214792222,-44440.676,-20057.658,32146.363,-6604.533,83682.7,-2917.8875,15862.671,65623.21
1386886.0254792178,-44444.664,-20064.941,32147.38,-6604.696,83679.37,-2916.8296,15860.759,65637.125
1386886.0294792133,-44455.12,-20077.84,32147.951,-6600.871,83676.68,-2914.1033,15858.154,65636.195
1386886.0334792086,-44457.562,-20075.154,32148.357,-6595.825,83688.11,-2915.731,15856.486,65604.25
1386886.0374792041,-44438.152,-20052.654,32149.904,-6593.994,83700.93,-2922.2412,15851.726,65581.914
1386886.0414791997,-44433.23,-20052.043,32147.38,-6597.9414,83692.875,-2926.351,15848.186,65588.79
1386886.0454791952,-44442.87,-20058.188,32141.236,-6598.104,83683.15,-2927.6123,15842.285,65595.83
1386886.0494791907,-44448.082,-20064.047,32141.848,-6596.3135,83684.41,-2925.8628,15840.902,65605.8
1386886.053479186,-44450.766,-20065.064,32146.73,-6594.8486,83694.87,-2922.567,15851.848,65625.94
1386886.0574791816,-44441.082,-20053.549,32152.996,-6596.3545,83702.15,-2924.113,15850.993,65609.664
1386886.061479177,-44434.004,-20054.12,32153.77,-6599.9756,83696.086,-2927.002,15846.273,65605.43
1386886.0654791726,-44440.27,-20057.21,32151.734,-6600.057,83688.805,-2927.002,15838.054,65602.016
1386886.069479168,-44445.355,-20056.479,32150.31,-6596.2324,83694.79,-2922.6482,15835.856,65601.766
1386886.0734791635,-44446.168,-20062.867,32150.432,-6595.9883,83708.055,-2920.2068,15842.123,65619.06
1386886.077479159,-44442.832,-20058.676,32149.416,-6600.342,83762.17,-2921.997,15845.297,65605.67
1386886.0814791545,-44441.12,-20057.617,32146.322,-6605.7944,83781.91,-2925.0488,15843.71,65600.55
1386886.08547915,-44445.76,-20066.326,32144.94,-6607.3,83781.375,-2923.7468,15842.245,65613.98
1386886.0894791454,-44453.492,-20072.266,32144.533,-6606.4863,83780.64,-2917.8875,15845.337,65621.26
1386886.093479141,-44450.035,-20061.402,32148.479,-6604.248,83793.54,-2916.748,15850.505,65621.18
1386886.0974791364,-44440.88,-20051.717,32153.973,-6605.062,83801.92,-2920.8171,15852.173,65602.3
1386886.101479132,-44441.285,-20047.934,32154.176,-6609.05,83802.57,-2921.4683,15854.411,65621.3
1386886.1054791273,-44444.582,-20052.328,32154.95,-6611.0435,83801.39,-2920.8171,15851.034,65623.945
1386886.1094791228,-44448.61,-20064.047,32154.826,-6606.323,83801.03,-2918.579,15850.546,65624.02
1386886.1134791183,-44448.934,-20072.389,32153.81,-6605.4688,83808.64,-2917.033,15854.167,65624.27
1386886.1174791139,-44441.977,-20051.96,32154.42,-6612.6304,83810.06,-2918.7827,15863.037,65632.49
1386886.1214791094,-44442.02,-20045.045,32153.85,-6620.0767,83805.55,-2920.0034,15864.665,65639.08
1386886.1254791047,-44444.05,-20051.148,32156.984,-6619.1816,83806.07,-2920.8171,15856.201,65633.75
1386886.1294791002,-44441.895,-20048.87,32159.506,-6613.8105,83816.164,-2918.6606,15848.022,65604.125
1386886.1334790958,-44443.973,-20050.822,32162.395,-6613.078,83820.88,-2915.609,15854.004,65621.055
1386886.1374790913,-44436.08,-20047.893,32166.22,-6617.1064,83819.91,-2918.457,15858.48,65626.266
1386886.1414790866,-44427.246,-20046.021,32165.08,-6619.426,83821.05,-2922.1191,15858.317,65623.375
1386886.1454790821,-44430.79,-20047.04,32162.03,-6619.1816,83855.92,-2920.2476,15855.225,65622.52
1386886.1494790777,-44442.996,-20052.816,32158.652,-6618.0015,83880.375,-2916.5854,15858.073,65630.45
1386886.1534790732,-44447.88,-20062.5,32159.67,-6618.6934,83892.664,-2915.324,15864.38,65636.03
1386886.1574790687,-44450.93,-20060.791,32160.482,-6623.3726,83898.44,-2916.2192,15873.129,65649.3
1386886.161479064,-44455.16,-20056.926,32158.367,-6627.4824,83891.69,-2919.4336,15869.223,65639.69
1386886.1654790596,-44457.887,-20062.988,32159.465,-6627.3604,83881.88,-2920.6543,15859.579,65628.586
1386886.169479055,-44452.15,-20062.459,32161.988,-6622.5586,83878.99,-2918.1316,15858.847,65634.93
1386886.1734790506,-44448.812,-20052.205,32164.268,-6617.391,83881.59,-2917.1143,15862.915,65652.18
1386886.1774790462,-44442.465,-20049.48,32165.732,-6619.222,83878.13,-2921.8345,15860.189,65650.92
1386886.1814790415,-44440.145,-20054.281,32164.389,-6624.1865,83865.93,-2924.276,15857.992,65648.16
1386886.185479037,-44440.145,-20056.316,32162.436,-6624.8374,83856.65,-2924.7642,15846.558,65615.195
1386886.1894790325,-44443.973,-20064.088,32162.03,-6622.4365,83854.414,-2920.4102,15844.035,65603.03
1386886.193479028,-44452.35,-20062.053,32163.006,-6623.454,83862.266,-2916.1377,15852.295,65615.73
1386886.1974790234,-44449.547,-20052.49,32163.9,-6627.523,83865.28,-2917.3179,15858.5205,65618.2
1386886.201479019,-44448.934,-20054.158,32162.803,-6632.1616,83852.79,-2920.044,15858.398,65634.28
1386886.2054790144,-44453.816,-20061.158,32162.803,-6631.5513,83837.57,-2920.6138,15853.801,65639.81
1386886.20947901,-44453.656,-20071.492,32164.797,-6625.7324,83829.67,-2919.6372,15847.209,65625.81
1386886.2134790055,-44447.88,-20066.936,32166.871,-6622.0703,83829.8,-2921.6716,15845.093,65623.3
1386886.2174790008,-44440.188,-20051.434,32167.156,-6626.343,83826.46,-2924.9675,15850.749,65618.33
1386886.2214789963,-44440.797,-20053.752,32165.568,-6631.999,83817.1,-2926.3103,15855.754,65635.91
1386886.2254789919,-44446.535,-20055.623,32167.482,-6631.2256,83812.09,-2924.0723,15857.056,65644.695
1386886.2294789874,-44453.535,-20059.164,32169.516,-6629.802,83812.95,-2918.6606,15862.753,65672.445
1386886.2334789827,-44450.97,-20059.367,32172.404,-6628.8657,83820.766,-2916.504,15866.171,65664.59
1386886.2374789782,-44442.14,-20048.096,32173.91,-6629.0693,83820.805,-2920.6543,15860.2295,65608.52
1386886.2414789738,-44438.844,-20049.764,32172.568,-6631.714,83812.016,-2923.2585,15860.148,65627.766
1386886.2454789693,-44446.86,-20056.967,32171.836,-6632.5684,83806.48,-2921.7124,15861.044,65654.55
1386886.2494789648,-44449.504,-20059.855,32171.021,-6629.5576,83804.98,-2916.8296,15864.096,65680.055
1386886.2534789601,-44442.508,-20064.453,32174.357,-6627.4414,83812.55,-2915.0798,15860.107,65638.19
1386886.2574789557,-44439.13,-20065.35,32172.486,-6629.1914,83816.45,-2919.1895,15855.998,65611.05
1386886.2614789512,-44438.152,-20060.71,32170.451,-6633.342,83814.66,-2923.3398,15852.051,65627.61
1386886.2654789467,-44442.914,-20062.744,32173.098,-6633.342,83809.734,-2923.584,15847.209,65620.04
1386886.269478942,-44442.508,-20059.164,32174.44,-6630.5747,83810.266,-2920.166,15844.482,65617.59
1386886.2734789376,-44442.668,-20059.855,32177.94,-6629.4355,83817.06,-2915.853,15854.33,65647.75
1386886.277478933,-44441.0,-20059.979,32177.531,-6633.6265,83822.96,-2916.3413,15865.397,65666.22
1386886.2814789286,-44443.484,-20062.582,32175.172,-6636.434,83816.33,-2918.2944,15865.031,65650.27
1386886.2854789242,-44443.848,-20062.947,32175.457,-6635.376,83809.45,-2919.393,15855.917,65627.81
1386886.2894789195,-44440.188,-20057.373,32176.555,-6630.3306,83815.43,-2918.457,15850.871,65638.266
1386886.293478915,-44432.82,-20051.148,32176.23,-6624.1865,83822.63,-2918.579,15853.027,65630.66
1386886.2974789105,-44429.73,-20051.799,32180.217,-6627.401,83824.625,-2921.6309,15856.242,65625.734
1386886.301478906,-44433.88,-20054.89,32180.746,-6633.8706,83816.24,-2922.8516,15856.242,65646.164
1386886.3054789016,-44444.582,-20063.191,32178.875,-6634.8877,83807.984,-2922.404,15852.702,65646.41
1386886.309478897,-44448.49,-20064.656,32179.893,-6630.7373,83813.6,-2919.393,15851.156,65648.32
1386886.3134788924,-44448.49,-20070.271,32179.281,-6628.459,83815.63,-2919.4744,15848.511,65625.41
1386886.317478888,-44457.03,-20075.318,32176.352,-6633.0566,83809.164,-2923.6248,15846.965,65608.08
1386886.3214788835,-44457.887,-20076.457,32173.748,-6637.7363,83797.77,-2927.6938,15844.076,65623.66
1386886.3254788788,-44451.17,-20076.416,32172.771,-6637.0444,83790.164,-2928.4668,15836.386,65615.07
1386886.3294788743,-44441.773,-20072.389,32173.625,-6630.697,83795.21,-2925.944,15832.846,65609.055
1386886.3334788699,-44436.688,-20066.041,32174.195,-6627.1973,83801.805,-2922.933,15842.8955,65639.28
1386886.3374788654,-44432.21,-20053.955,32177.287,-6628.4995,83805.42,-2926.0662,15842.733,65629.88
1386886.341478861,-44436.523,-20056.234,32179.729,-6629.0693,83798.99,-2930.3794,15833.578,65609.91
1386886.3454788562,-44443.402,-20064.697,32183.758,-6628.988,83788.375,-2931.5593,15828.898,65611.82
1386886.3494788518,-44448.203,-20067.424,32185.71,-6626.4243,83789.92,-2929.647,15826.945,65612.23
1386886.3534788473,-44440.023,-20064.373,32189.576,-6624.7153,83794.27,-2926.7173,15835.9375,65637.58
1386886.3574788428,-44434.57,-20063.436,32191.896,-6627.8486,83790.734,-2925.4966,15845.175,65644.86
1386886.3614788381,-44436.2,-20069.824,32189.25,-6632.365,83782.8,-2928.6296,15840.698,65623.86
1386886.3654788337,-44443.645,-20091.838,32185.223,-6631.429,83776.2,-2930.2166,15834.595,65603.6
1386886.3694788292,-44446.453,-20091.797,32184.164,-6629.3945,83777.305,-2927.531,15834.555,65603.97
1386886.3734788247,-44442.832,-20072.225,32191.164,-6626.18,83789.516,-2923.7876,15839.274,65603.92
1386886.3774788203,-44438.52,-20065.553,32194.215,-6629.5166,83791.625,-2925.8628,15848.349,65641.56
1386886.3814788156,-44441.164,-20068.97,32191.732,-6634.1553,83783.61,-2930.0537,15849.121,65642.21
1386886.385478811,-44442.586,-20068.848,32190.432,-6632.324,83778.85,-2930.9897,15840.942,65605.59
1386886.3894788066,-44446.414,-20070.232,32193.523,-6627.767,83779.26,-2929.8503,15834.27,65592.81
1386886.3934788022,-44444.95,-20077.271,32193.727,-6623.088,83786.54,-2928.4263,15836.833,65598.23
1386886.3974787975,-44447.31,-20074.666,32192.262,-6625.6104,83789.92,-2929.118,15841.594,65611.734
1386886.401478793,-44451.133,-20069.092,32191.611,-6630.2085,83782.39,-2934.204,15839.152,65611.984
1386886.4054787885,-44446.25,-20073.121,32193.809,-6628.662,83779.83,-2936.2388,15833.862,65609.13
1386886.409478784,-44450.035,-20076.66,32194.785,-6626.831,83781.21,-2933.6345,15831.828,65614.22
1386886.4134787796,-44454.43,-20078.857,32192.629,-6626.953,83781.17,-2929.7283,15842.245,65620.445
1386886.417478775,-44453.004,-20075.48,32189.902,-6631.877,83781.21,-2930.9082,15846.3545,65607.55
1386886.4214787704,-44448.324,-20075.48,32191.123,-6637.004,83778.08,-2932.5767,15843.547,65601.36
1386886.425478766,-44449.547,-20078.328,32188.152,-6636.3936,83772.95,-2932.7393,15840.251,65600.42
1386886.4294787615,-44446.98,-20076.66,32190.268,-6631.1035,83776.62,-2929.647,15842.651,65617.59
1386886.4334787568,-44440.918,-20075.36,32192.344,-6628.9473,83786.26,-2928.0193,15848.349,65631.11
1386886.4374787523,-44439.78,-20067.098,32190.35,-6632.4873,83791.06,-2928.3042,15854.94,65634.805
1386886.4414787479,-44437.42,-20064.617,32187.014,-6636.963,83784.43,-2932.0884,15851.929,65616.09
1386886.4454787434,-44438.844,-20075.115,32187.95,-6636.312,83780.48,-2934.5298,15839.111,65581.664
1386886.449478739,-44447.145,-20076.416,32188.479,-6632.121,83784.51,-2931.6814,15839.682,65577.516
1386886.4534787342,-44456.42,-20076.783,32189.494,-6632.0396,83786.91,-2927.2056,15855.021,65622.07
1386886.4574787298,-44452.965,-20076.13,32192.547,-6635.498,83782.35,-2928.711,15863.119,65619.836
1386886.4614787253,-44446.98,-20076.58,32196.656,-6637.126,83775.48,-2931.6,15861.654,65602.945
1386886.4654787208,-44448.895,-20083.496,32199.3,-6635.783,83774.46,-2932.0884,15859.213,65610.88
1386886.4694787164,-44452.516,-20098.309,32202.475,-6629.3135,83776.414,-2929.8503,15855.835,65610.84
1386886.4734787117,-44457.97,-20092.367,32199.424,-6629.3135,83779.18,-2930.6235,15858.195,65617.15
1386886.4774787072,-44455.04,-20077.516,32199.709,-6634.1553,83773.766,-2932.3325,15864.584,65626.305
1386886.4814787027,-44460.164,-20081.787,32199.586,-6638.835,83768.11,-2936.0352,15862.59,65619.47
1386886.4854786983,-44459.473,-20085.246,32203.41,-6636.19,83768.68,-2936.6863,15856.567,65603.555
1386886.4894786936,-44456.016,-20079.06,32205.648,-6629.924,83771.32,-2933.96,15852.295,65586.39
1386886.493478689,-44453.74,-20081.828,32204.062,-6627.6045,83772.3,-2931.234,15856.079,65587.57
1386886.4974786846,-44451.05,-20083.66,32204.998,-6632.08,83778.484,-2932.658,15862.549,65606.125
1386886.5014786802,-44452.883,-20086.752,32203.41,-6637.6143,83775.59,-2937.2559,15856.364,65594.445
1386886.5054786757,-44459.066,-20094.117,32201.418,-6635.498,83764.9,-2939.8193,15844.768,65577.15
1386886.509478671,-44468.223,-20097.494,32199.057,-6630.249,83767.7,-2937.785,15836.914,65567.016
1386886.5134786665,-44469.08,-20095.012,32201.092,-6628.581,83779.625,-2936.2388,15841.391,65572.15
1386886.517478662,-44458.906,-20086.223,32205.242,-6629.1914,83779.7,-2937.2559,15844.931,65554.65
1386886.5214786576,-44450.605,-20085.408,32203.898,-6633.0566,83775.19,-2937.5,15846.313,65555.7
1386886.525478653,-44451.66,-20089.682,32197.836,-6634.3994,83766.73,-2936.4421,15842.082,65542.445
1386886.5294786484,-44460.45,-20093.018,32193.441,-6631.307,83767.664,-2933.5938,15847.534,65569.664
1386886.533478644,-44464.355,-20100.018,32191.285,-6630.697,83772.3,-2932.495,15853.3125,65586.67
1386886.5374786395,-44460.734,-20095.906,32192.344,-6634.3994,83776.86,-2934.489,15856.201,65571.49
1386886.541478635,-44458.293,-20097.168,32194.582,-6638.3467,83771.53,-2938.192,15858.032,65569.016
1386886.5454786303,-44461.508,-20102.621,32191.488,-6635.0913,83764.9,-2937.4187,15859.335,65586.914
1386886.5494786259,-44462.527,-20098.633,32191.123,-6629.1914,83770.39,-2934.5298,15860.922,65587.52
1386886.5534786214,-44462.402,-20088.135,32192.424,-6626.384,83777.39,-2930.9082,15867.676,65589.16
1386886.557478617,-44458.496,-20081.502,32193.035,-6629.0693,83784.55,-2929.769,15877.36,65615.195
1386886.5614786122,-44455.242,-20086.71,32191.936,-6634.074,83780.44,-2931.4373,15874.634,65600.75
1386886.5654786078,-44457.93,-20091.188,32192.873,-6633.342,83770.1,-2931.9663,15869.67,65592.164
1386886.5694786033,-44465.82,-20096.72,32197.227,-6628.3774,83770.8,-2930.3386,15867.147,65598.92
1386886.5734785988,-44471.234,-20109.54,32200.889,-6624.2676,83772.22,-2930.949,15869.711,65602.42
1386886.5774785944,-44464.4,-20099.732,32202.719,-6628.1333,83770.43,-2932.5767,15875.692,65602.3
1386886.5814785897,-44458.375,-20088.094,32201.377,-6631.2666,83772.09,-2934.082,15874.35,65598.555
1386886.5854785852,-44461.836,-20083.7,32196.574,-6630.615,83769.94,-2934.6924,15863.281,65581.34
1386886.5894785807,-44462.04,-20081.746,32196.697,-6626.18,83772.09,-2934.204,15859.253,65583.13
1386886.5934785763,-44461.508,-20086.629,32199.748,-6624.7153,83779.26,-2931.1118,15868.286,65594.2
1386886.5974785718,-44456.34,-20083.781,32203.736,-6626.994,83778.32,-2932.0068,15877.6045,65606.2
1386886.601478567,-44453.613,-20091.023,32205.324,-6632.243,83776.49,-2934.9365,15877.971,65615.36
1386886.6054785626,-44457.723,-20087.158,32205.73,-6629.5576,83774.664,-2935.5876,15875.0,65598.72
1386886.6094785582,-44457.97,-20078.898,32208.863,-6624.0645,83773.93,-2932.6172,15875.57,65595.99
1386886.6134785537,-44455.61,-20084.717,32212.037,-6621.338,83785.73,-2931.1523,15880.697,65611.86
1386886.617478549,-44450.195,-20093.14,32212.12,-6621.6636,83777.71,-2933.4717,15885.905,65633.47
1386886.6214785445,-44451.742,-20073.771,32210.043,-6621.257,83774.25,-2938.2324,15880.859,65609.26
1386886.62547854,-44463.176,-20069.906,32207.113,-6622.3555,83766.195,-2939.2905,15874.228,65580.0
1386886.6294785356,-44468.914,-20081.258,32210.328,-6620.2393,83763.19,-2934.204,15877.727,65594.81
1386886.6334785311,-44462.117,-20082.684,32215.09,-6617.269,83773.93,-2931.8442,15882.162,65602.74
1386886.6374785264,-44452.68,-20060.385,32216.717,-6618.6934,83791.42,-2934.0415,15886.394,65601.08
1386886.641478522,-44444.418,-20051.352,32217.775,-6621.0127,83794.27,-2938.8835,15880.656,65591.59
1386886.6454785175,-44442.71,-20069.05,32222.697,-6616.8623,83783.9,-2941.04,15872.559,65587.73
1386886.649478513,-44449.06,-20070.76,32221.193,-6611.2876,83778.85,-2939.5752,15870.321,65593.71
1386886.6534785083,-44452.516,-20068.807,32219.158,-6610.1074,83796.1,-2937.4595,15877.768,65611.695
1386886.6574785039,-44453.29,-20082.56,32215.252,-6615.2344,83799.52,-2939.8193,15882.162,65607.34
1386886.6614784994,-44461.348,-20083.496,32208.375,-6620.687,83792.36,-2940.023,15883.667,65598.31
1386886.665478495,-44474.082,-20077.963,32205.568,-6623.4946,83786.79,-2936.9712,15882.121,65589.48
1386886.6694784905,-44481.04,-20103.271,32207.316,-6618.6934,83790.37,-2936.5642,15880.331,65589.4
1386886.6734784858,-44478.395,-20104.004,32214.113,-6614.665,83793.945,-2935.9539,15883.749,65600.34
1386886.6774784813,-44463.582,-20066.203,32221.885,-6616.455,83806.805,-2936.8083,15889.648,65605.555
1386886.6814784769,-44457.848,-20065.594,32220.826,-6622.3145,83799.12,-2937.7441,15891.684,65614.42
