timestamp,Fp1,Fp2,F3,Fz,F4,Cz,Pz,Oz
1319102.839960875,-86649.05,-80895.836,22022.828,-22942.18,20597.615,-38262.168,-16592.164,56720.055
1319102.8439608694,-86676.555,-80907.35,22000.652,-22955.566,20572.998,-38263.918,-16598.756,56704.836
1319102.8479608637,-86691.77,-80910.89,21993.613,-22960.043,20564.941,-38264.934,-16603.271,56696.535
1319102.851960858,-86664.516,-80909.06,22004.395,-22952.516,20585.857,-38264.65,-16600.709,56705.363
1319102.8559608525,-86651.49,-80906.13,22023.643,-22941.447,20610.393,-38264.406,-16592.814,56726.44
1319102.8599608468,-86656.17,-80907.88,22021.037,-22942.75,20608.602,-38262.25,-16587.24,56730.188
1319102.8639608412,-86669.35,-80909.586,22003.012,-22956.504,20583.252,-38261.355,-16591.717,56714.805
1319102.8679608356,-86664.11,-80906.86,21996.908,-22962.932,20575.807,-38261.56,-16596.518,56709.23
1319102.87196083,-86669.6,-80908.45,22012.533,-22955.566,20596.68,-38260.742,-16590.414,56724.53
1319102.8759608243,-86663.17,-80901.33,22028.361,-22946.33,20613.445,-38258.707,-16581.137,56741.09
1319102.8799608187,-86649.78,-80904.95,22020.63,-22948.65,20604.127,-38257.164,-16581.178,56733.48
1319102.883960813,-86657.96,-80908.53,21999.797,-22958.049,20580.607,-38260.17,-16589.967,56707.645
1319102.8879608074,-86676.27,-80917.73,21994.305,-22963.055,20569.783,-38264.324,-16596.68,56702.23
1319102.8919608018,-86675.58,-80911.91,22012.004,-22955.404,20587.117,-38263.51,-16592.244,56723.676
1319102.8959607962,-86652.63,-80900.92,22032.715,-22943.564,20611.125,-38259.32,-16584.96,56736.816
1319102.8999607905,-86659.1,-80906.01,22023.438,-22947.633,20597.941,-38260.336,-16585.816,56720.094
1319102.903960785,-86674.234,-80916.22,22000.855,-22958.496,20570.883,-38263.957,-16594.482,56694.703
1319102.9079607793,-86665.0,-80917.6,21995.484,-22961.875,20569.295,-38265.87,-16598.756,56693.28
1319102.9119607736,-86664.59,-80915.0,22011.963,-22952.637,20589.803,-38266.316,-16594.197,56710.53
1319102.915960768,-86659.18,-80914.76,22032.594,-22942.465,20608.725,-38264.445,-16589.234,56722.82
1319102.9199607624,-86657.68,-80910.24,22026.287,-22946.33,20599.65,-38262.25,-16587.281,56717.938
1319102.9239607567,-86672.734,-80918.336,22001.059,-22959.88,20577.596,-38262.168,-16592.57,56698.324
1319102.927960751,-86680.71,-80926.68,21992.393,-22964.56,20574.057,-38265.055,-16601.521,56690.35
1319102.9319607455,-86675.74,-80928.39,22010.906,-22955.852,20589.6,-38266.848,-16601.4,56707.277
1319102.9359607399,-86662.234,-80916.625,22035.361,-22946.209,20601.074,-38266.316,-16595.662,56723.31
1319102.9399607342,-86660.69,-80908.9,22029.746,-22950.156,20584.88,-38267.984,-16596.639,56711.875
1319102.9439607286,-86666.75,-80915.2,22001.14,-22961.182,20564.617,-38270.754,-16605.307,56690.39
1319102.947960723,-86665.29,-80919.195,21989.178,-22963.096,20563.273,-38272.176,-16613.729,56681.64
1319102.9519607173,-86669.35,-80920.53,22008.912,-22954.55,20582.846,-38272.055,-16612.02,56700.44
1319102.9559607117,-86659.67,-80917.24,22026.896,-22945.639,20602.906,-38271.484,-16606.324,56715.008
1319102.959960706,-86657.27,-80918.3,22021.12,-22948.447,20592.367,-38271.89,-16607.463,56705.895
1319102.9639607004,-86673.1,-80921.76,21994.793,-22962.322,20564.168,-38272.258,-16612.63,56689.332
1319102.9679606948,-86683.8,-80927.695,21986.572,-22968.629,20547.607,-38274.984,-16618.938,56683.27
1319102.9719606892,-86680.18,-80924.64,22006.064,-22958.66,20568.889,-38275.758,-16617.596,56695.273
1319102.9759606835,-86673.914,-80915.37,22031.21,-22947.062,20592.855,-38274.58,-16609.945,56716.555
1319102.979960678,-86664.88,-80915.85,22024.21,-22951.336,20583.455,-38274.78,-16606.201,56713.42
1319102.9839606723,-86665.734,-80919.48,21998.455,-22962.078,20556.926,-38275.434,-16610.637,56696.21
1319102.9879606667,-86676.19,-80925.74,21993.328,-22966.717,20549.643,-38277.02,-16617.146,56691.082
1319102.991960661,-86681.32,-80929.85,22011.11,-22958.416,20575.115,-38276.855,-16615.031,56704.47
1319102.9959606554,-86656.414,-80921.555,22030.723,-22948.242,20593.75,-38276.98,-16609.05,56714.64
1319102.9999606498,-86645.35,-80921.35,22025.92,-22953.654,20584.92,-38277.508,-16609.375,56705.406
1319103.0039606441,-86662.84,-80931.36,22001.75,-22969.2,20561.97,-38279.297,-16614.746,56691.895
1319103.0079606385,-86674.97,-80939.5,21996.258,-22970.379,20556.111,-38279.785,-16617.514,56693.035
1319103.0119606329,-86666.75,-80934.66,22015.38,-22958.334,20571.248,-38278.973,-16614.746,56709.473
1319103.0159606272,-86652.43,-80921.71,22031.291,-22949.707,20594.076,-38278.566,-16612.834,56714.03
1319103.0199606214,-86661.336,-80917.195,22022.258,-22954.672,20581.543,-38282.023,-16616.902,56702.844
1319103.0239606157,-86671.63,-80928.39,22000.57,-22967.693,20552.531,-38284.71,-16625.488,56688.56
1319103.02796061,-86673.26,-80936.24,21995.078,-22970.988,20550.74,-38286.418,-16631.674,56679.61
1319103.0319606045,-86664.92,-80931.56,22010.336,-22960.734,20572.186,-38284.75,-16628.826,56696.574
1319103.0359605988,-86659.34,-80924.805,22028.85,-22952.719,20592.53,-38285.117,-16623.982,56712.363
1319103.0399605932,-86661.7,-80924.28,22025.27,-22956.584,20585.328,-38285.77,-16623.82,56707.277
1319103.0439605876,-86666.71,-80929.734,22003.338,-22965.7,20565.023,-38287.027,-16629.11,56691.082
1319103.047960582,-86661.016,-80933.27,21994.793,-22966.758,20559.326,-38285.074,-16630.941,56693.93
1319103.0519605763,-86656.54,-80921.15,22010.986,-22958.904,20572.795,-38281.78,-16626.465,56708.293
1319103.0559605707,-86656.54,-80913.01,22027.629,-22949.871,20588.787,-38280.234,-16621.258,56720.38
1319103.059960565,-86668.26,-80924.85,22022.46,-22954.998,20572.957,-38281.25,-16623.373,56706.016
1319103.0639605594,-86687.13,-80933.88,21998.535,-22967.855,20549.031,-38282.84,-16632.65,56679.527
1319103.0679605538,-86687.586,-80932.58,21995.402,-22972.168,20542.725,-38282.145,-16634.197,56681.113
1319103.0719605482,-86673.1,-80930.14,22011.76,-22961.914,20563.07,-38281.008,-16628.377,56694.703
1319103.0759605425,-86669.07,-80935.71,22029.541,-22953.33,20584.84,-38278.605,-16623.006,56706.137
1319103.079960537,-86669.555,-80934.086,22021.322,-22959.066,20575.033,-38277.67,-16620.646,56704.062
1319103.0839605313,-86684.05,-80934.62,21995.484,-22975.18,20546.795,-38276.816,-16623.943,56684.613
1319103.0879605256,-86717.57,-80944.7,21981.445,-22982.342,20533.773,-38277.06,-16628.865,56676.19
1319103.09196052,-86713.625,-80963.34,21991.7,-22975.791,20552.125,-38277.305,-16628.703,56692.02
1319103.0959605144,-86663.414,-80936.12,22023.275,-22957.52,20576.742,-38277.914,-16626.14,56702.598
1319103.0999605088,-86647.83,-80926.44,22024.578,-22955.975,20576.254,-38279.5,-16627.97,56694.258
1319103.1039605031,-86675.945,-80936.57,21997.152,-22970.338,20550.496,-38279.582,-16632.04,56678.633
1319103.1079604975,-86679.37,-80937.18,21991.74,-22974.895,20538.697,-38278.89,-16635.295,56677.086
1319103.1119604919,-86669.6,-80934.695,22010.662,-22964.682,20558.105,-38277.223,-16632.324,56687.094
1319103.1159604862,-86651.62,-80928.8,22028.729,-22955.283,20577.76,-38276.125,-16627.117,56698.04
1319103.1199604806,-86649.3,-80934.86,22019.492,-22962.484,20566.57,-38276.57,-16626.14,56691.53
1319103.123960475,-86671.51,-80946.54,21998.252,-22974.61,20536.012,-38279.01,-16632.771,56676.27
1319103.1279604693,-86673.83,-80952.4,21989.91,-22980.51,20529.623,-38279.055,-16634.197,56677.492
1319103.1319604637,-86678.23,-80938.68,22007.53,-22969.97,20546.184,-38278.934,-16630.047,56690.066
1319103.135960458,-86671.92,-80930.22,22028.24,-22958.252,20566.895,-38277.305,-16623.576,56700.93
1319103.1399604524,-86658.05,-80937.55,22018.76,-22963.95,20564.453,-38275.637,-16623.006,56694.258
1319103.1439604468,-86673.016,-80944.664,21993.693,-22979.29,20543.172,-38275.434,-16628.662,56680.83
1319103.1479604412,-86683.15,-80951.22,21985.027,-22984.213,20541.139,-38275.72,-16632.771,56683.15
1319103.1519604356,-86684.62,-80946.29,22001.67,-22973.674,20557.658,-38276.082,-16629.68,56695.883
1319103.15596043,-86682.7,-80939.414,22027.06,-22963.135,20573.201,-38275.31,-16622.193,56708.742
1319103.1599604243,-86665.41,-80938.93,22026.693,-22967.082,20564.129,-38275.434,-16618.816,56707.727
1319103.1639604187,-86676.31,-80945.805,22006.145,-22977.824,20531.535,-38277.344,-16625.57,56691.652
1319103.167960413,-86689.336,-80952.44,21998.252,-22982.383,20526.082,-38279.83,-16629.842,56686.484
1319103.1719604074,-86685.75,-80946.49,22018.76,-22970.867,20555.746,-38276.938,-16623.006,56701.418
1319103.1759604018,-86670.375,-80934.9,22038.615,-22960.857,20576.254,-38272.867,-16612.06,56724.816
1319103.1799603961,-86665.9,-80937.5,22025.27,-22966.146,20564.535,-38272.34,-16610.88,56715.375
1319103.1839603905,-86689.3,-80947.67,22000.773,-22978.8,20539.47,-38275.637,-16620.484,56688.273
1319103.1879603849,-86693.32,-80946.58,21997.6,-22980.062,20528.32,-38279.176,-16628.785,56681.277
1319103.1919603792,-86675.984,-80938.16,22019.736,-22967.979,20552.898,-38280.234,-16627.889,56694.01
1319103.1959603736,-86665.695,-80929.89,22035.889,-22960.287,20577.84,-38279.42,-16622.07,56709.555
1319103.199960368,-86660.12,-80937.664,22026.816,-22968.223,20568.848,-38278.973,-16620.2,56706.22
1319103.2039603624,-86677.695,-80952.44,22001.914,-22980.795,20537.477,-38281.13,-16625.936,56690.43
1319103.2079603567,-86690.11,-80952.6,21996.217,-22984.172,20531.78,-38281.496,-16630.33,56690.105
1319103.211960351,-86687.13,-80950.08,22015.748,-22974.977,20557.7,-38281.008,-16627.117,56709.27
1319103.2159603455,-86674.36,-80954.96,22032.39,-22964.967,20579.713,-38280.926,-16624.635,56720.91
1319103.2199603398,-86673.34,-80957.805,22027.752,-22969.688,20565.512,-38279.582,-16624.105,56710.492
1319103.2239603342,-86687.34,-80960.77,22004.6,-22980.998,20540.203,-38279.83,-16628.459,56693.848
1319103.2279603286,-86690.35,-80954.15,21999.553,-22980.389,20541.057,-38278.77,-16628.785,56695.926
1319103.231960323,-86682.09,-80944.46,22017.05,-22970.459,20560.1,-38275.92,-16622.803,56708.215
1319103.2359603173,-86684.86,-80943.73,22034.629,-22961.67,20577.271,-38275.188,-16616.09,56719.727
1319103.2399603117,-86677.695,-80949.83,22031.576,-22965.943,20566.326,-38275.39,-16615.602,56712.28
1319103.243960306,-86680.38,-80947.67,22007.244,-22980.795,20535.645,-38278.363,-16623.943,56688.805
1319103.2479603002,-86678.305,-80947.06,21996.094,-22984.58,20525.39,-38280.965,-16629.477,56685.63
1319103.2519602946,-86678.51,-80945.805,22011.23,-22973.918,20553.508,-38280.844,-16626.465,56698.977
1319103.255960289,-86671.76,-80941.33,22032.47,-22962.078,20575.074,-38278.65,-16620.525,56712.28
1319103.2599602833,-86684.66,-80946.29,22025.066,-22966.35,20561.646,-38277.875,-16621.053,56703.37
1319103.2639602777,-86690.8,-80952.805,21998.129,-22979.574,20538.086,-38277.793,-16627.686,56682.863
1319103.267960272,-86680.95,-80952.03,21990.967,-22982.016,20533.162,-38279.055,-16634.4,56673.465
1319103.2719602664,-86680.46,-80948.65,22010.498,-22974.0,20552.857,-38280.234,-16635.213,56680.543
1319103.2759602608,-86680.79,-80942.43,22027.305,-22961.59,20572.469,-38280.273,-16631.145,56696.496
1319103.2799602551,-86677.78,-80950.97,22017.05,-22966.717,20560.955,-38282.023,-16632.895,56688.56
1319103.2839602495,-86686.37,-80953.62,21992.31,-22981.201,20541.3,-38284.586,-16638.428,56677.29
1319103.2879602439,-86693.61,-80949.875,21991.904,-22981.895,20537.965,-38285.484,-16643.678,56677.695
1319103.2919602382,-86700.08,-80946.74,22013.633,-22971.396,20554.078,-38283.49,-16639.363,56694.582
1319103.2959602326,-86698.9,-80943.85,22028.402,-22965.252,20569.906,-38282.227,-16633.016,56711.47
1319103.299960227,-86684.414,-80947.02,22017.416,-22971.477,20555.99,-38283.53,-16636.922,56694.867
1319103.3039602214,-86699.305,-80960.25,21996.135,-22984.904,20536.053,-38284.586,-16642.537,56678.02
1319103.3079602157,-86707.12,-80963.38,21990.479,-22990.113,20534.139,-38285.523,-16645.996,56675.945
1319103.31196021,-86698.24,-80955.04,22007.365,-22977.58,20554.932,-38286.38,-16644.531,56688.07
1319103.3159602045,-86694.99,-80951.83,22022.055,-22967.57,20567.83,-38285.645,-16637.33,56701.094
1319103.3199601988,-86696.54,-80954.15,22013.633,-22974.082,20558.229,-38284.14,-16631.633,56698.977
1319103.3239601932,-86709.84,-80960.9,21987.469,-22989.99,20529.541,-38284.996,-16637.045,56681.152
1319103.3279601876,-86716.92,-80974.04,21977.783,-22993.734,20525.96,-38286.582,-16643.596,56676.68
1319103.331960182,-86708.54,-80975.79,22001.059,-22982.342,20559.041,-38285.973,-16639.242,56697.633
1319103.3359601763,-86698.086,-80957.805,22022.584,-22973.064,20576.295,-38283.816,-16628.906,56715.457
1319103.3399601707,-86697.63,-80955.164,22014.08,-22978.354,20554.078,-38284.547,-16628.703,56704.55
1319103.343960165,-86712.08,-80962.52,21985.719,-22990.398,20524.049,-38288.74,-16641.846,56678.918
1319103.3479601594,-86709.76,-80962.65,21981.242,-22992.717,20521.566,-38290.367,-16647.99,56673.22
1319103.3519601538,-86699.34,-80956.586,21998.82,-22984.172,20547.12,-38287.027,-16640.748,56689.902
1319103.3559601482,-86684.0,-80951.984,22019.41,-22975.709,20564.453,-38283.406,-16631.55,56708.133
1319103.3599601425,-86678.305,-80955.08,22011.8,-22982.383,20549.154,-38283.938,-16632.324,56695.234
1319103.363960137,-86703.125,-80957.03,21991.13,-22992.229,20529.744,-38285.688,-16639.568,56676.598
1319103.3679601313,-86716.96,-80964.27,21986.125,-22994.955,20531.332,-38286.336,-16645.508,56672.16
1319103.3719601256,-86701.7,-80971.195,22005.453,-22985.475,20550.945,-38286.38,-16645.549,56681.64
1319103.37596012,-86678.71,-80956.87,22026.611,-22976.115,20566.447,-38285.074,-16640.504,56696.008
1319103.3799601144,-86680.34,-80956.305,22017.457,-22980.55,20556.072,-38284.953,-16641.684,56688.6
1319103.3839601087,-86691.33,-80968.18,21992.148,-22992.148,20532.553,-38287.312,-16648.64,56671.594
1319103.387960103,-86701.7,-80969.61,21986.41,-22996.502,20525.635,-38289.062,-16654.217,56666.87
1319103.3919600975,-86699.06,-80968.8,22003.744,-22989.746,20547.283,-38289.188,-16651.652,56676.598
1319103.3959600918,-86695.4,-80966.43,22022.543,-22980.145,20570.271,-38287.926,-16642.904,56694.5
1319103.3999600862,-86687.95,-80961.14,22015.748,-22985.557,20559.734,-38286.62,-16640.666,56691.45
1319103.4039600806,-86696.984,-80967.37,21993.775,-22998.373,20535.32,-38286.906,-16646.078,56679.61
1319103.407960075,-86710.57,-80969.28,21989.787,-23000.977,20528.32,-38287.234,-16648.64,56676.027
1319103.4119600693,-86699.47,-80974.81,22007.121,-22989.746,20551.84,-38285.605,-16642.781,56692.59
1319103.4159600637,-86682.336,-80964.03,22026.734,-22979.168,20569.783,-38284.465,-16637.654,56705.61
1319103.419960058,-86693.32,-80969.36,22015.422,-22985.516,20559.45,-38286.906,-16638.266,56694.582
1319103.4239600524,-86701.625,-80970.3,21992.96,-22997.314,20537.354,-38290.242,-16645.549,56677.37
1319103.4279600468,-86698.445,-80969.61,21988.445,-22997.559,20532.43,-38290.203,-16646.893,56677.37
1319103.4319600412,-86698.57,-80966.48,22007.285,-22988.445,20543.213,-38290.406,-16645.508,56686.85
1319103.4359600355,-86697.47,-80967.25,22023.967,-22979.248,20561.85,-38290.855,-16642.904,56697.55
1319103.43996003,-86691.98,-80968.55,22010.418,-22985.88,20549.52,-38291.14,-16645.102,56688.965
1319103.4439600243,-86703.375,-80967.45,21990.602,-22998.088,20528.28,-38292.156,-16650.35,56670.656
1319103.4479600186,-86703.734,-80973.72,21988.363,-22997.152,20530.111,-38295.047,-16654.379,56669.64
1319103.451960013,-86697.11,-80975.016,22008.098,-22985.88,20559.082,-38295.33,-16653.076,56677.734
1319103.4559600074,-86698.9,-80964.195,22028.361,-22975.547,20576.336,-38294.395,-16647.137,56692.508
1319103.4599600018,-86685.71,-80968.51,22017.904,-22978.598,20559.082,-38294.312,-16645.875,56687.746
1319103.4639599961,-86696.58,-80972.984,21994.426,-22990.764,20532.594,-38295.613,-16653.564,56668.254
1319103.4679599905,-86693.08,-80972.49,21990.44,-22991.578,20532.43,-38294.56,-16658.57,56658.125
1319103.4719599849,-86688.16,-80968.586,22008.994,-22981.65,20546.143,-38293.62,-16656.535,56670.332
1319103.475959979,-86680.586,-80962.89,22022.543,-22973.959,20556.152,-38292.074,-16650.39,56684.855
1319103.4799599734,-86684.05,-80965.984,22013.307,-22980.754,20544.19,-38293.457,-16648.805,56672.934
1319103.4839599677,-86697.875,-80967.77,21993.45,-22989.787,20525.555,-38297.406,-16656.373,56654.95
1319103.487959962,-86692.875,-80967.45,21991.252,-22990.928,20521.566,-38297.895,-16659.912,56659.1
1319103.4919599565,-86683.555,-80969.24,22009.115,-22981.65,20540.812,-38295.695,-16653.32,56677.86
1319103.4959599508,-86671.35,-80960.37,22024.09,-22971.6,20559.938,-38294.11,-16646.81,56693.402
1319103.4999599452,-86679.12,-80960.695,22015.707,-22977.54,20548.504,-38296.47,-16649.21,56679.812
1319103.5039599396,-86676.88,-80967.164,21993.043,-22988.648,20520.428,-38297.28,-16656.17,56662.965
1319103.507959934,-86688.195,-80973.96,21989.787,-22990.56,20520.834,-38296.387,-16659.506,56661.38
1319103.5119599283,-86690.02,-80971.03,22009.36,-22979.209,20548.748,-38296.67,-16655.477,56677.613
1319103.5159599227,-86671.59,-80962.37,22025.107,-22968.547,20564.006,-38295.168,-16651.082,56684.816
1319103.519959917,-86664.19,-80966.92,22013.428,-22976.238,20551.434,-38296.145,-16651.734,56675.457
1319103.5239599114,-86673.625,-80969.73,21991.7,-22988.242,20531.941,-38296.348,-16657.879,56663.25
1319103.5279599058,-86684.0,-80969.73,21991.049,-22988.934,20531.494,-38294.84,-16659.709,56666.504
1319103.5319599002,-86686.77,-80963.42,22011.027,-22977.256,20550.375,-38293.824,-16655.6,56681.684
1319103.5359598945,-86676.07,-80957.97,22027.752,-22969.402,20567.22,-38292.684,-16649.414,56699.75
1319103.539959889,-86679.85,-80964.03,22013.916,-22978.68,20550.904,-38292.727,-16650.35,56689.09
1319103.5439598833,-86698.65,-80974.41,21994.102,-22990.195,20528.076,-38293.54,-16657.879,56667.2
1319103.5479598776,-86702.555,-80967.66,21994.346,-22988.16,20527.914,-38294.84,-16662.436,56660.89
1319103.551959872,-86691.086,-80961.67,22011.639,-22976.482,20542.604,-38294.56,-16660.645,56678.793
1319103.5559598664,-86678.23,-80967.82,22028.158,-22968.67,20560.018,-38295.37,-16657.186,56690.51
1319103.5599598608,-86672.81,-80978.44,22020.143,-22975.668,20543.172,-38296.918,-16657.47,56678.508
1319103.5639598551,-86681.36,-80982.42,21995.89,-22989.463,20520.752,-38298.668,-16663.9,56664.227
1319103.5679598495,-86695.44,-80981.734,21986.045,-22991.781,20513.428,-38299.848,-16671.428,56655.76
1319103.5719598439,-86696.336,-80983.805,22002.32,-22982.3,20529.053,-38298.625,-16672.527,56663.008
1319103.5759598382,-86670.78,-80972.13,22022.584,-22973.145,20551.31,-38295.777,-16664.795,56681.52
1319103.5799598326,-86665.41,-80974.2,22014.121,-22979.209,20544.88,-38295.125,-16661.012,56671.023
1319103.583959827,-86675.414,-80974.77,21996.908,-22989.746,20522.787,-38297.895,-16666.098,56654.016
1319103.5879598213,-86682.82,-80972.984,21997.275,-22988.201,20520.672,-38297.977,-16667.521,56657.27
1319103.5919598157,-86683.19,-80969.32,22013.592,-22977.54,20537.15,-38295.25,-16663.045,56670.777
1319103.59595981,-86682.54,-80966.35,22025.879,-22971.762,20550.578,-38294.92,-16658.611,56684.613
1319103.5999598044,-86682.17,-80973.23,22017.213,-22977.256,20540.936,-38297.28,-16659.465,56674.44
1319103.6039597988,-86690.63,-80976.61,21996.95,-22988.281,20524.252,-38299.52,-16667.44,56655.316
1319103.6079597932,-86691.86,-80980.8,21989.584,-22987.957,20524.17,-38300.418,-16671.916,56652.266
1319103.6119597876,-86673.875,-80982.75,22006.47,-22977.418,20544.19,-38299.684,-16670.777,56663.7
1319103.615959782,-86664.02,-80971.805,22025.107,-22969.89,20557.943,-38298.258,-16665.771,56680.543
1319103.6199597763,-86668.13,-80972.78,22011.475,-22979.209,20540.527,-38297.363,-16665.324,56670.453
1319103.6239597707,-86681.56,-80972.945,21990.072,-22991.375,20518.922,-38299.113,-16670.98,56658.285
1319103.627959765,-86690.516,-80973.15,21989.096,-22991.172,20515.219,-38299.52,-16672.404,56655.76
1319103.6319597594,-86683.92,-80972.49,22007.936,-22980.836,20535.97,-38299.805,-16672.566,56665.977
1319103.6359597538,-86681.97,-80973.47,22022.666,-22972.982,20544.312,-38298.465,-16667.195,56680.258
1319103.6399597481,-86675.336,-80976.195,22017.416,-22980.307,20528.523,-38297.85,-16666.098,56671.062
1319103.6439597425,-86686.32,-80976.65,21996.908,-22993.125,20502.197,-38301.23,-16676.717,56650.72
1319103.6479597369,-86692.99,-80978.35,21994.223,-22993.043,20509.156,-38303.223,-16682.129,56643.23
1319103.6519597312,-86680.51,-80975.586,22016.969,-22981.812,20536.012,-38301.883,-16678.346,56656.945
1319103.6559597256,-86674.12,-80975.586,22033.896,-22974.814,20550.172,-38300.62,-16672.283,56667.89
1319103.65995972,-86682.3,-80982.22,22018.637,-22981.69,20538.533,-38300.133,-16672.73,56660.93
1319103.6639597144,-86673.46,-80979.78,21995.117,-22993.408,20516.277,-38301.434,-16679.078,56643.92
1319103.6679597087,-86676.234,-80978.11,21988.445,-22995.281,20514.363,-38300.457,-16680.46,56644.004
1319103.671959703,-86667.36,-80969.32,22010.01,-22984.295,20538.656,-38297.363,-16674.113,56662.152
1319103.6759596975,-86659.914,-80968.305,22030.234,-22976.768,20554.852,-38295.777,-16665.324,56681.766
1319103.6799596918,-86667.08,-80972.984,22017.863,-22985.068,20536.418,-38297.08,-16664.307,56679.484
1319103.6839596862,-86681.07,-80971.68,21998.129,-22995.646,20515.3,-38296.387,-16667.277,56662.926
1319103.6879596806,-86697.63,-80981.734,21993.857,-22998.047,20520.264,-38294.84,-16671.102,56658.367
1319103.691959675,-86688.52,-80975.586,22017.416,-22985.76,20540.283,-38295.86,-16673.016,56665.406
1319103.6959596693,-86665.49,-80977.79,22038.453,-22975.75,20556.52,-38294.35,-16670.29,56675.78
1319103.6999596637,-86665.61,-80982.95,22029.379,-22984.254,20541.83,-38294.637,-16669.88,56667.074
1319103.7039596578,-86675.09,-80979.984,22004.07,-22996.014,20518.555,-38295.613,-16674.357,56654.016
1319103.7079596522,-86683.07,-80972.984,22001.994,-22997.314,20517.863,-38296.836,-16678.387,56653.77
1319103.7119596465,-86679.85,-80968.63,22026.123,-22987.63,20536.377,-38296.918,-16677.734,56662.316
1319103.715959641,-86669.88,-80966.15,22041.912,-22979.168,20546.916,-38296.793,-16671.428,56679.242
1319103.7199596353,-86658.9,-80970.95,22025.799,-22986.613,20527.059,-38297.16,-16670.574,56675.457
1319103.7239596297,-86665.37,-80978.15,22001.873,-23000.041,20504.803,-38298.746,-16679.12,56658.773
1319103.727959624,-86676.6,-80980.836,21997.64,-22998.82,20504.436,-38299.4,-16684.53,56653.688
1319103.7319596184,-86669.07,-80976.73,22016.357,-22989.299,20527.588,-38297.28,-16682.74,56659.06
1319103.7359596128,-86663.45,-80975.95,22036.621,-22980.104,20549.357,-38297.363,-16678.914,56671.387
1319103.7399596071,-86677.9,-80978.97,22025.31,-22986.084,20534.424,-38301.312,-16685.018,56659.26
1319103.7439596015,-86683.11,-80980.875,22000.693,-22999.92,20509.441,-38304.73,-16694.744,56636.598
1319103.7479595959,-86687.26,-80984.945,22000.041,-23000.326,20510.58,-38305.746,-16699.016,56635.867
1319103.7519595902,-86689.78,-80985.4,22020.305,-22989.178,20530.885,-38302.37,-16692.871,56652.71
1319103.7559595846,-86674.28,-80979.66,22036.621,-22981.854,20545.613,-38299.723,-16685.223,56667.402
1319103.759959579,-86658.77,-80973.19,22021.322,-22989.99,20526.408,-38300.418,-16685.1,56657.637
1319103.7639595733,-86669.44,-80980.516,21999.39,-23002.402,20506.43,-38303.348,-16692.465,56642.703
1319103.7679595677,-86691.86,-80983.85,22000.367,-23001.994,20509.604,-38304.73,-16698.121,56638.105
1319103.771959562,-86695.516,-80986.375,22017.822,-22990.154,20531.453,-38303.71,-16696.736,56642.418
1319103.7759595565,-86676.76,-80981.81,22036.012,-22979.615,20553.996,-38303.348,-16692.22,56655.926
1319103.7799595508,-86665.94,-80972.01,22027.1,-22986.695,20541.83,-38301.027,-16689.738,56648.195
1319103.7839595452,-86683.02,-80981.49,22005.371,-22998.943,20513.754,-38301.27,-16695.395,56629.438
1319103.7879595396,-86692.14,-80985.11,22000.285,-23000.164,20506.836,-38300.58,-16696.9,56629.883
1319103.791959534,-86673.46,-80973.47,22021.404,-22990.357,20530.72,-38299.48,-16688.477,56650.473
1319103.7959595283,-86672.28,-80971.97,22042.156,-22983.48,20548.219,-38297.566,-16680.543,56670.98
1319103.7999595227,-86672.94,-80981.81,22029.785,-22990.967,20534.994,-38299.805,-16683.96,56655.684
1319103.803959517,-86682.414,-80986.49,22005.656,-23005.291,20510.906,-38302.613,-16693.768,56634.973
1319103.8079595114,-86685.02,-80982.51,22002.93,-23004.111,20513.387,-38301.434,-16695.436,56639.04
1319103.8119595058,-86679.77,-80981.9,22020.469,-22994.06,20533.611,-38299.684,-16689.982,56657.84
1319103.8159595001,-86672.85,-80973.555,22038.006,-22987.916,20542.277,-38297.895,-16684.814,56669.883
1319103.8199594945,-86673.83,-80985.68,22024.293,-22994.223,20532.227,-38296.387,-16684.652,56659.1
1319103.823959489,-86689.54,-80991.46,22003.174,-23005.371,20512.451,-38297.363,-16690.512,56640.75
1319103.8279594833,-86705.28,-80981.2,22001.303,-23009.074,20506.756,-38298.22,-16693.768,56643.066
1319103.8319594776,-86703.25,-80977.625,22019.207,-22999.512,20522.99,-38297.203,-16689.697,56656.293
1319103.835959472,-86689.05,-80973.19,22039.43,-22991.293,20536.418,-38296.266,-16683.432,56672.203
1319103.8399594664,-86686.89,-80981.734,22023.031,-23001.67,20518.719,-38297.28,-16684.082,56666.63
1319103.8439594607,-86684.49,-80991.26,21999.229,-23012.736,20494.426,-38298.42,-16690.023,56654.137
1319103.847959455,-86687.664,-80996.3,21994.223,-23012.9,20491.863,-38300.54,-16694.906,56652.59
1319103.8519594495,-86690.06,-80995.77,22010.254,-23005.576,20511.027,-38300.418,-16694.174,56659.996
1319103.8559594438,-86682.21,-80998.01,22023.56,-22997.275,20529.623,-38298.465,-16688.232,56668.176
1319103.8599594382,-86685.63,-80995.73,22012.695,-23003.826,20518.678,-38298.42,-16691.365,56649.09
1319103.8639594326,-86699.83,-80998.25,21991.334,-23016.725,20506.674,-38301.555,-16698.527,56629.926
1319103.867959427,-86704.67,-80993.734,21992.96,-23015.422,20506.062,-38302.492,-16701.213,56630.09
1319103.8719594213,-86698.37,-80986.21,22015.137,-23003.053,20525.39,-38304.484,-16700.195,56641.562
1319103.8759594157,-86690.48,-80980.39,22030.152,-22994.955,20536.133,-38307.375,-16698.568,56645.184
1319103.87995941,-86695.44,-80988.24,22017.822,-23003.582,20516.725,-38306.926,-16699.951,56627.035
1319103.8839594044,-86698.53,-80997.36,21997.355,-23016.521,20494.508,-38306.6,-16704.387,56612.387
1319103.8879593988,-86713.46,-80993.29,21997.355,-23016.318,20504.07,-38307.047,-16706.787,56612.023
1319103.8919593932,-86702.4,-80987.63,22019.084,-23003.744,20526.57,-38306.766,-16703.777,56629.03
1319103.8959593875,-86677.86,-80988.445,22032.309,-22997.723,20541.139,-38305.543,-16697.592,56648.887
1319103.899959382,-86671.63,-80991.5,22018.148,-23005.656,20517.742,-38307.457,-16699.871,56638.67
1319103.9039593763,-86688.16,-80992.92,21996.746,-23016.236,20495.525,-38309.773,-16706.463,56624.72
1319103.9079593706,-86700.805,-80993.695,21996.338,-23014.812,20503.133,-38307.945,-16710.125,56624.27
1319103.911959365,-86699.75,-80991.05,22013.428,-23003.174,20523.438,-38304.89,-16704.875,56639.65
1319103.9159593594,-86692.266,-80986.414,22029.42,-22993.572,20541.219,-38303.793,-16697.55,56650.35
1319103.9199593537,-86693.28,-80989.625,22015.625,-22998.496,20522.625,-38303.996,-16698.04,56634.766
1319103.9239593481,-86698.61,-80996.664,21993.693,-23006.43,20492.39,-38305.137,-16705.607,56621.3
1319103.9279593425,-86704.15,-80991.414,21998.902,-23002.32,20496.176,-38305.625,-16706.87,56625.49
1319103.9319593366,-86705.57,-80988.2,22017.254,-22991.416,20524.09,-38303.305,-16700.969,56642.17
1319103.935959331,-86704.15,-80990.766,22029.46,-22984.783,20537.883,-38302.37,-16696.736,56652.14
1319103.9399593254,-86711.914,-80997.84,22014.121,-22994.67,20517.904,-38301.555,-16697.348,56635.176
1319103.9439593197,-86721.84,-81008.99,21997.926,-23005.738,20496.95,-38299.645,-16700.48,56618.207
1319103.947959314,-86711.96,-81006.72,21998.943,-23004.639,20501.547,-38300.824,-16703.207,56618.004
1319103.9519593085,-86692.586,-80993.94,22012.086,-22996.014,20524.049,-38303.47,-16702.637,56629.883
1319103.9559593028,-86685.305,-80990.766,22024.984,-22987.225,20535.848,-38304.605,-16701.336,56636.395
1319103.9599592972,-86697.43,-80997.6,22018.19,-22994.467,20526.246,-38305.016,-16703.857,56628.137
1319103.9639592916,-86710.66,-81004.805,21993.49,-23008.057,20504.273,-38306.277,-16709.596,56612.715
1319103.967959286,-86714.69,-81014.24,21996.258,-23007.447,20507.568,-38305.504,-16710.49,56612.918
1319103.9719592803,-86701.7,-81008.55,22021.484,-22994.873,20524.21,-38303.67,-16704.225,56624.555
1319103.9759592747,-86694.18,-80998.7,22036.865,-22988.242,20534.791,-38304.402,-16699.057,56633.547
1319103.979959269,-86707.766,-81000.53,22022.34,-22997.926,20514.201,-38305.992,-16702.76,56620.605
1319103.9839592634,-86733.36,-81013.02,21998.252,-23009.074,20491.781,-38308.188,-16710.205,56604.74
1319103.9879592578,-86729.414,-81008.55,21993.328,-23008.057,20493.49,-38307.535,-16712.89,56601.523
1319103.9919592522,-86711.06,-81001.14,22008.262,-22999.473,20515.463,-38305.258,-16710.043,56614.87
1319103.9959592465,-86713.22,-80997.36,22025.758,-22992.188,20527.264,-38303.957,-16702.516,56632.895
1319103.999959241,-86715.945,-81001.836,22015.83,-23000.326,20520.467,-38304.605,-16702.027,56626.305
1319104.0039592353,-86718.51,-81012.125,21994.06,-23011.8,20503.418,-38306.52,-16707.316,56610.23
1319104.0079592296,-86715.05,-81012.62,21994.385,-23009.4,20502.156,-38310.1,-16713.705,56604.574
1319104.011959224,-86705.94,-81001.34,22017.66,-22996.42,20521.932,-38308.555,-16711.873,56608.766
1319104.0159592184,-86695.97,-80992.96,22029.379,-22990.56,20529.297,-38306.97,-16704.143,56624.39
1319104.0199592127,-86705.2,-81008.06,22011.883,-23001.547,20516.643,-38307.457,-16704.59,56619.387
1319104.023959207,-86718.875,-81015.67,21986.613,-23014.121,20498.373,-38310.184,-16715.373,56599.285
1319104.0279592015,-86721.97,-81012.78,21988.648,-23013.55,20501.668,-38312.215,-16719.646,56599.082
1319104.0319591959,-86724.0,-81006.35,22008.871,-23003.215,20525.188,-38313.64,-16716.268,56613.49
1319104.0359591902,-86713.5,-80999.555,22023.193,-22995.158,20540.283,-38314.047,-16709.758,56623.13
1319104.0399591846,-86698.65,-80999.19,22012.127,-23001.344,20525.27,-38314.496,-16709.637,56608.93
1319104.043959179,-86709.59,-81008.1,21992.148,-23015.3,20503.703,-38316.285,-16714.64,56593.875
1319104.0479591733,-86720.38,-81005.91,21991.74,-23014.16,20504.477,-38315.88,-16716.064,56598.758
1319104.0519591677,-86713.79,-81001.63,22012.086,-23003.135,20522.38,-38312.055,-16711.223,56612.43
1319104.055959162,-86689.375,-80993.21,22027.67,-22995.525,20538.494,-38311.035,-16705.69,56624.27
1319104.0599591564,-86696.13,-80996.3,22009.848,-23005.127,20524.21,-38314.74,-16709.229,56614.383
1319104.0639591508,-86714.89,-81011.68,21988.242,-23020.06,20499.227,-38317.668,-16715.252,56597.984
1319104.0679591452,-86714.73,-81009.36,21993.125,-23018.516,20497.07,-38316.406,-16714.396,56599.246
1319104.0719591395,-86699.51,-80996.34,22018.19,-23007.65,20527.059,-38313.883,-16709.758,56618.37
1319104.075959134,-86686.93,-80994.266,22030.438,-23000.53,20539.389,-38309.773,-16699.91,56636.926
1319104.0799591283,-86694.83,-81003.5,22017.213,-23011.191,20519.857,-38309.41,-16700.115,56623.414
1319104.0839591227,-86710.49,-81000.734,21999.229,-23022.502,20501.668,-38309.816,-16701.863,56610.76
1319104.087959117,-86718.71,-81009.36,21996.379,-23023.764,20507.08,-38310.1,-16703.98,56614.3
1319104.0919591114,-86698.695,-81009.04,22010.174,-23013.877,20524.455,-38310.914,-16704.998,56623.254
1319104.0959591058,-86692.586,-81001.34,22024.21,-23006.512,20530.844,-38312.34,-16704.834,56622.03
1319104.0999591001,-86707.73,-81005.82,22011.557,-23013.266,20514.73,-38312.867,-16705.566,56609.703
1319104.1039590945,-86711.8,-81008.71,21991.455,-23024.17,20495.564,-38314.008,-16710.164,56597.453
1319104.1079590889,-86712.04,-81003.336,21995.89,-23024.984,20492.066,-38313.844,-16712.605,56596.844
1319104.1119590832,-86697.555,-80999.11,22016.521,-23012.574,20516.033,-38314.047,-16709.596,56616.254
1319104.1159590776,-86684.9,-80991.54,22034.018,-23004.6,20533.895,-38313.723,-16704.184,56633.383
1319104.119959072,-86689.91,-80992.555,22020.549,-23013.389,20520.143,-38314.496,-16705.037,56622.07
1319104.1239590663,-86697.875,-80996.26,21996.582,-23026.49,20495.729,-38316.367,-16712.322,56602.746
1319104.1279590607,-86712.98,-81006.516,21999.879,-23026.693,20494.955,-38316.652,-16719.402,56596.965
1319104.131959055,-86710.33,-81010.54,22016.766,-23015.91,20520.143,-38314.09,-16714.885,56608.523
1319104.1359590495,-86687.75,-81006.8,22030.273,-23008.953,20531.17,-38312.01,-16708.416,56623.375
1319104.1399590438,-86693.12,-81007.445,22017.986,-23015.342,20512.777,-38310.793,-16707.967,56615.562
1319104.1439590382,-86710.164,-81006.43,21995.443,-23027.426,20493.775,-38313.152,-16713.299,56604.617
1319104.1479590326,-86710.37,-81012.17,21993.287,-23027.1,20498.455,-38315.715,-16716.797,56610.027
1319104.151959027,-86705.98,-81005.695,22014.61,-23015.3,20516.643,-38316.285,-16716.146,56617.473
1319104.1559590213,-86696.375,-80996.46,22035.889,-23005.86,20530.477,-38314.21,-16707.234,56631.39
1319104.1599590154,-86691.086,-80998.91,22023.479,-23013.836,20517.742,-38315.188,-16706.463,56624.92
1319104.1639590098,-86695.36,-81010.09,21998.21,-23026.816,20496.176,-38314.74,-16711.508,56611.086
1319104.1679590042,-86706.586,-81012.53,21997.967,-23025.473,20501.832,-38313.316,-16713.826,56605.676
1319104.1719589985,-86706.71,-81001.875,22021.81,-23012.574,20519.451,-38311.81,-16710.164,56615.52
1319104.175958993,-86686.445,-80996.75,22038.047,-23004.436,20531.17,-38309.977,-16702.637,56630.7
1319104.1799589873,-86683.8,-81002.52,22022.87,-23014.486,20511.76,-38311.08,-16705.486,56616.945
1319104.1839589817,-86702.555,-81014.445,22004.232,-23027.02,20488.525,-38313.965,-16715.78,56595.055
1319104.187958976,-86713.34,-81010.625,22000.53,-23027.752,20494.914,-38312.625,-16718.791,56595.582
1319104.1919589704,-86718.836,-81013.19,22013.266,-23019.857,20509.4,-38310.223,-16713.299,56614.42
1319104.1959589648,-86694.945,-81000.125,22035.361,-23009.848,20524.129,-38309.734,-16708.943,56627.44
1319104.1999589591,-86684.695,-80997.12,22026.938,-23016.033,20508.992,-38310.914,-16710.531,56617.312
1319104.2039589535,-86697.63,-81014.08,22007.406,-23025.27,20493.611,-38312.867,-16715.78,56601.36
1319104.2079589479,-86711.71,-81016.484,22007.365,-23024.414,20496.99,-38313.273,-16715.291,56605.023
1319104.2119589422,-86714.56,-81003.26,22025.92,-23013.307,20518.88,-38310.953,-16710.002,56618.695
1319104.2159589366,-86693.08,-80994.23,22038.535,-23007.61,20526.855,-38309.977,-16704.346,56631.145
1319104.219958931,-86691.49,-80996.26,22020.387,-23017.62,20507.895,-38309.734,-16702.352,56623.457
1319104.2239589253,-86707.4,-81006.59,22002.076,-23028.24,20494.588,-38310.793,-16707.643,56608.81
1319104.2279589197,-86711.266,-81002.04,22004.232,-23026.084,20504.477,-38310.02,-16706.99,56617.312
1319104.231958914,-86699.55,-80992.96,22022.91,-23013.672,20519.246,-38308.39,-16700.887,56635.418
1319104.2359589085,-86674.484,-80985.11,22043.092,-23005.209,20539.104,-38307.457,-16694.256,56649.09
1319104.2399589028,-86686.65,-80993.0,22027.14,-23016.846,20519.734,-38307.457,-16695.516,56639.04
1319104.2439588972,-86708.375,-81010.58,22001.588,-23028.525,20496.785,-38308.39,-16701.783,56625.164
1319104.2479588916,-86703.734,-81007.57,22005.291,-23024.943,20503.662,-38308.797,-16707.234,56615.03
1319104.251958886,-86693.69,-80995.32,22029.99,-23013.428,20523.52,-38308.35,-16705.893,56626.26
1319104.2559588803,-86696.74,-80993.57,22047.648,-23006.227,20537.518,-38308.188,-16703.045,56640.137
1319104.2599588747,-86697.96,-80999.59,22042.197,-23014.568,20517.742,-38308.92,-16702.719,56631.633
1319104.263958869,-86702.234,-81008.75,22025.107,-23024.537,20497.64,-38309.49,-16707.805,56613.69
1319104.2679588634,-86706.18,-81006.19,22023.846,-23023.805,20501.424,-38310.426,-16711.955,56608.645
1319104.2719588578,-86701.54,-81006.35,22044.598,-23013.145,20518.352,-38309.734,-16706.258,56625.164
1319104.2759588521,-86685.95,-81000.2,22061.646,-23006.553,20533.285,-38307.66,-16699.3,56641.645
1319104.2799588465,-86696.17,-81005.414,22046.55,-23018.799,20514.445,-38307.617,-16701.824,56630.74
1319104.2839588409,-86711.02,-81024.25,22024.578,-23031.7,20493.328,-38309.246,-16710.652,56607.586
1319104.2879588353,-86711.43,-81019.94,22024.781,-23029.99,20494.385,-38309.367,-16714.52,56602.99
1319104.2919588296,-86703.66,-81009.73,22045.33,-23018.516,20503.174,-38307.82,-16708.21,56623.863
1319104.295958824,-86703.21,-81007.94,22060.71,-23012.777,20513.225,-38307.457,-16701.54,56636.027
1319104.2999588184,-86711.8,-81010.91,22043.824,-23022.746,20497.803,-38311.24,-16704.06,56616.7
1319104.3039588127,-86722.29,-81014.94,22022.95,-23033.53,20482.463,-38314.496,-16710.164,56605.39
1319104.307958807,-86733.28,-81025.11,22024.21,-23029.258,20492.107,-38314.86,-16713.826,56610.11
1319104.3119588015,-86725.586,-81023.97,22046.998,-23017.457,20508.057,-38314.09,-16711.223,56618.37
1319104.3159587958,-86709.35,-81007.65,22067.303,-23011.924,20515.584,-38312.83,-16704.672,56629.68
1319104.3199587902,-86710.86,-81016.97,22046.428,-23022.258,20500.164,-38310.793,-16703.37,56617.15
1319104.3239587846,-86719.2,-81025.15,22022.46,-23034.668,20482.586,-38309.57,-16707.643,56602.95
1319104.327958779,-86717.45,-81019.33,22027.344,-23033.244,20491.375,-38307.496,-16706.299,56610.68
1319104.3319587733,-86719.04,-81014.85,22051.23,-23022.299,20515.178,-38306.03,-16698.65,56628.543
1319104.3359587677,-86699.266,-81014.9,22064.414,-23016.033,20530.152,-38306.766,-16694.58,56638.31
1319104.339958762,-86693.28,-81014.484,22048.992,-23026.084,20512.695,-38308.35,-16699.383,56626.75
1319104.3439587564,-86705.28,-81014.94,22031.088,-23035.28,20489.666,-38308.676,-16704.021,56613.85
1319104.3479587508,-86710.164,-81013.96,22032.309,-23033.611,20494.914,-38307.945,-16705.893,56618.53
1319104.3519587452,-86701.74,-81011.68,22051.758,-23023.154,20515.463,-38307.375,-16703.207,56633.18
1319104.3559587395,-86698.94,-81016.89,22066.0,-23017.334,20528.076,-38308.188,-16699.26,56642.703
1319104.359958734,-86719.93,-81022.75,22049.766,-23027.832,20502.482,-38312.01,-16704.346,56627.16
1319104.3639587283,-86720.26,-81022.83,22029.176,-23039.389,20483.154,-38314.74,-16715.82,56601.688
1319104.3679587226,-86715.05,-81021.0,22031.494,-23038.127,20486.084,-38315.227,-16722.168,56595.01
1319104.371958717,-86701.22,-81014.57,22051.922,-23026.043,20503.297,-38315.348,-16722.006,56604.86
1319104.3759587114,-86690.23,-81010.58,22063.762,-23020.713,20515.057,-38314.21,-16715.535,56620.324
1319104.3799587057,-86701.945,-81017.09,22049.56,-23032.227,20501.465,-38314.656,-16715.658,56611.004
1319104.3839587,-86715.54,-81020.59,22028.158,-23043.174,20479.045,-38315.39,-16721.477,56595.094
1319104.3879586942,-86723.63,-81024.58,22029.867,-23041.342,20480.428,-38319.664,-16729.94,56592.9
1319104.3919586886,-86712.28,-81023.03,22053.549,-23029.746,20501.953,-38321.29,-16727.783,56605.797
1319104.395958683,-86698.41,-81016.08,22071.697,-23021.078,20516.56,-38318.484,-16719.646,56620.2
1319104.3999586774,-86708.78,-81018.44,22058.188,-23028.729,20501.629,-38318.727,-16721.518,56608.156
1319104.4039586717,-86723.516,-81027.67,22035.035,-23038.371,20483.562,-38321.492,-16729.371,56587.89
1319104.407958666,-86726.85,-81031.66,22037.559,-23035.32,20487.305,-38321.98,-16733.44,56586.02
1319104.4119586605,-86722.336,-81017.91,22059.734,-23025.025,20507.527,-38320.07,-16728.557,56599.082
1319104.4159586548,-86707.766,-81002.65,22072.47,-23019.287,20522.42,-38316.246,-16719.727,56615.316
1319104.4199586492,-86710.94,-81007.0,22057.373,-23030.355,20506.307,-38317.71,-16722.576,56599.082
1319104.4239586436,-86729.086,-81017.74,22041.139,-23039.307,20485.637,-38318.645,-16728.027,56583.906
1319104.427958638,-86719.77,-81020.19,22043.133,-23035.482,20493.123,-38318.848,-16727.986,56588.543
1319104.4319586323,-86709.48,-81012.53,22066.0,-23024.17,20515.38,-38317.508,-16724.0,56605.062
1319104.4359586267,-86706.83,-81013.19,22078.533,-23018.352,20533.895,-38315.594,-16719.809,56614.83
1319104.439958621,-86705.2,-81016.93,22064.414,-23028.24,20509.4,-38315.836,-16720.744,56603.56
1319104.4439586154,-86713.71,-81019.125,22047.73,-23039.307,20482.463,-38318.035,-16725.586,56593.832
1319104.4479586098,-86725.016,-81019.734,22052.775,-23036.785,20493.408,-38316.324,-16724.53,56600.87
1319104.4519586042,-86719.65,-81015.18,22068.727,-23026.246,20509.4,-38314.168,-16718.629,56613.977
1319104.4559585985,-86702.11,-81014.08,22082.357,-23019.816,20524.414,-38313.316,-16710.979,56627.117
1319104.459958593,-86706.79,-81018.48,22071.453,-23028.158,20513.63,-38313.6,-16712.85,56612.184
1319104.4639585873,-86714.805,-81021.04,22049.846,-23039.145,20496.094,-38315.227,-16719.85,56592.33
1319104.4679585816,-86717.45,-81012.945,22049.969,-23035.523,20501.873,-38317.914,-16726.441,56590.617
1319104.471958576,-86709.555,-81005.13,22074.139,-23021.973,20523.193,-38319.01,-16728.312,56603.152
1319104.4759585704,-86697.96,-81001.305,22088.623,-23017.05,20533.123,-38319.094,-16726.277,56612.51
1319104.4799585647,-86702.97,-81013.23,22070.598,-23028.2,20515.87,-38318.36,-16726.318,56605.39
1319104.483958559,-86710.29,-81021.445,22051.23,-23038.818,20490.438,-38318.766,-16729.736,56595.42
1319104.4879585535,-86712.04,-81018.15,22057.822,-23037.762,20490.154,-38317.426,-16731.04,56600.098
1319104.4919585478,-86707.234,-81009.93,22078.98,-23026.896,20513.754,-38315.594,-16726.889,56616.457
1319104.4959585422,-86700.766,-81005.21,22094.646,-23021.037,20523.031,-38313.926,-16720.053,56634.44
1319104.4999585366,-86706.22,-81009.28,22079.834,-23031.78,20498.576,-38314.09,-16721.273,56623.742
1319104.503958531,-86725.67,-81026.0,22060.059,-23043.662,20483.44,-38316.082,-16728.354,56606.812
1319104.5079585253,-86737.59,-81032.68,22064.25,-23042.562,20490.031,-38317.426,-16734.457,56598.676
1319104.5119585197,-86727.17,-81024.336,22085.49,-23032.309,20507.936,-38318.156,-16734.295,56602.215
1319104.515958514,-86716.64,-81017.3,22088.867,-23026.611,20518.719,-38316.895,-16727.092,56609.824
1319104.5199585084,-86722.7,-81027.875,22071.86,-23034.629,20507.04,-38318.44,-16729.695,56600.18
1319104.5239585028,-86734.91,-81035.61,22057.455,-23045.533,20485.393,-38318.727,-16736.736,56586.184
1319104.5279584972,-86723.92,-81030.44,22062.217,-23042.36,20488.81,-38315.676,-16734.783,56591.96
1319104.5319584915,-86707.08,-81022.38,22083.984,-23032.188,20507.977,-38314.94,-16730.307,56604.332
1319104.535958486,-86705.24,-81017.375,22094.482,-23028.729,20518.799,-38316.406,-16726.36,56612.348
1319104.5399584803,-86718.63,-81023.36,22077.963,-23036.744,20499.188,-38318.36,-16730.998,56597.453
1319104.5439584746,-86723.06,-81025.44,22061.117,-23043.701,20480.021,-38320.477,-16738.566,56585.29
1319104.547958469,-86729.414,-81029.18,22066.773,-23041.342,20488.607,-38323.49,-16743.693,56587.85
1319104.5519584634,-86730.63,-81031.13,22085.613,-23029.217,20507.936,-38323.73,-16742.473,56599.043
1319104.5559584578,-86726.52,-81027.55,22096.924,-23023.234,20513.875,-38320.965,-16736.043,56607.91
1319104.5599584521,-86716.68,-81028.445,22083.049,-23034.629,20493.002,-38318.44,-16733.602,56600.344
1319104.5639584465,-86726.85,-81036.664,22058.432,-23048.87,20478.395,-38317.71,-16737.305,56586.71
1319104.5679584409,-86741.664,-81029.34,22059.367,-23046.51,20489.828,-38317.832,-16738.484,56585.816
1319104.5719584352,-86736.49,-81023.44,22081.299,-23035.564,20509.807,-38318.24,-16733.602,56600.793
1319104.5759584296,-86708.46,-81018.03,22093.467,-23029.46,20520.264,-38317.18,-16726.562,56618.41
1319104.579958424,-86713.38,-81015.79,22080.242,-23038.615,20505.291,-38317.14,-16725.098,56614.707
1319104.5839584183,-86735.68,-81020.51,22063.03,-23048.828,20480.957,-38318.645,-16730.225,56594.688
1319104.5879584127,-86735.48,-81022.016,22069.215,-23045.166,20490.846,-38319.254,-16731.648,56593.957
1319104.591958407,-86713.625,-81014.37,22089.438,-23034.709,20511.8,-38316.812,-16726.156,56612.957
1319104.5959584014,-86702.31,-81010.42,22103.598,-23028.77,20522.34,-38314.13,-16720.703,56625.0
1319104.5999583958,-86707.4,-81015.914,22090.496,-23038.574,20503.418,-38315.348,-16724.812,56608.727
1319104.6039583902,-86728.4,-81025.02,22074.219,-23048.463,20484.822,-38317.71,-16730.998,56592.734
1319104.6079583846,-86733.08,-81026.57,22077.76,-23046.143,20490.072,-38317.223,-16729.168,56598.066
1319104.611958379,-86723.15,-81024.62,22097.168,-23035.93,20505.006,-38316.49,-16723.797,56610.434
1319104.615958373,-86717.98,-81007.86,22114.787,-23028.2,20515.504,-38317.426,-16719.238,56624.676
1319104.6199583674,-86727.42,-81009.766,22100.871,-23040.65,20502.727,-38316.367,-16718.914,56616.984
1319104.6239583618,-86736.33,-81023.805,22081.504,-23052.654,20488.607,-38317.098,-16724.936,56600.996
1319104.6279583562,-86728.4,-81025.88,22083.66,-23050.09,20500.53,-38318.24,-16729.168,56602.906
1319104.6319583505,-86722.336,-81019.25,22101.074,-23039.836,20519.531,-38318.766,-16727.865,56608.605
1319104.635958345,-86726.85,-81016.28,22114.584,-23034.262,20529.785,-38319.254,-16728.883,56607.098
1319104.6399583393,-86728.92,-81028.65,22095.867,-23044.19,20506.877,-38321.492,-16733.357,56591.758
1319104.6439583336,-86747.27,-81033.49,22072.51,-23054.404,20488.281,-38323.324,-16739.666,56575.766
1319104.647958328,-86746.79,-81028.445,22077.76,-23049.684,20492.596,-38323.242,-16739.746,56580.65
1319104.6519583224,-86733.32,-81026.164,22101.035,-23037.03,20509.604,-38323.082,-16735.516,56596.52
1319104.6559583168,-86719.93,-81018.555,22107.992,-23032.309,20522.746,-38323.12,-16732.625,56600.914
1319104.6599583111,-86727.7,-81023.234,22090.293,-23041.83,20505.33,-38324.87,-16739.137,56582.36
1319104.6639583055,-86746.22,-81034.95,22072.674,-23051.922,20490.764,-38328.41,-16747.03,56571.37
1319104.6679582999,-86744.19,-81035.445,22081.625,-23047.648,20501.22,-38328.574,-16748.332,56579.348
1319104.6719582942,-86726.41,-81018.27,22098.959,-23034.547,20521.2,-38327.312,-16742.596,56590.78
1319104.6759582886,-86717.0,-81010.5,22113.77,-23028.525,20529.217,-38326.945,-16735.393,56596.316
1319104.679958283,-86722.25,-81011.88,22102.783,-23038.535,20509.562,-38325.97,-16733.807,56583.703
1319104.6839582773,-86738.77,-81017.5,22082.56,-23049.072,20494.344,-38325.848,-16735.963,56573.12
1319104.6879582717,-86733.24,-81020.76,22082.846,-23046.957,20501.953,-38325.727,-16736.37,56577.11
1319104.691958266,-86726.89,-81019.49,22099.977,-23036.947,20525.35,-38326.418,-16735.19,56591.27
1319104.6959582604,-86720.42,-81012.78,22114.746,-23031.291,20536.824,-38325.035,-16727.947,56603.516
1319104.6999582548,-86735.64,-81016.52,22099.041,-23038.86,20510.133,-38326.17,-16726.441,56595.137
1319104.7039582492,-86744.34,-81026.98,22079.51,-23048.79,20489.87,-38328.53,-16730.348,56585.246
1319104.7079582436,-86724.81,-81020.51,22083.213,-23045.898,20502.035,-38327.477,-16730.428,56581.543
1319104.711958238,-86706.83,-81006.92,22108.643,-23032.188,20522.87,-38323.203,-16721.191,56599.246
1319104.7159582323,-86702.516,-81008.75,22119.914,-23028.037,20525.717,-38320.76,-16710.938,56616.05
1319104.7199582267,-86715.984,-81019.86,22098.553,-23041.83,20501.059,-38321.13,-16714.07,56599.69
1319104.723958221,-86734.87,-81015.055,22081.26,-23051.799,20480.672,-38320.844,-16719.523,56578.047
1319104.7279582154,-86732.14,-81018.555,22084.473,-23049.277,20497.396,-38319.254,-16718.588,56584.637
1319104.7319582098,-86714.84,-81015.95,22103.436,-23039.592,20521.2,-38317.996,-16715.455,56602.703
1319104.7359582041,-86709.44,-81010.79,22109.62,-23035.238,20526.408,-38317.63,-16710.45,56614.79
1319104.7399581985,-86716.48,-81021.484,22090.537,-23045.898,20501.385,-38319.867,-16711.873,56603.234
1319104.7439581929,-86727.54,-81032.27,22073.936,-23055.46,20482.91,-38320.926,-16716.879,56588.22
1319104.7479581872,-86725.836,-81030.36,22084.922,-23051.84,20490.926,-38319.664,-16715.373,56593.426
1319104.7519581816,-86716.07,-81012.82,22105.021,-23040.244,20514.893,-38317.63,-16711.385,56606.855
1319104.755958176,-86720.87,-81004.72,22114.219,-23036.785,20526.205,-38317.508,-16707.52,56614.098
1319104.7599581704,-86731.61,-81017.58,22094.2,-23045.86,20507.365,-38316.61,-16707.113,56601.81
1319104.7639581647,-86728.07,-81022.38,22077.19,-23054.607,20490.031,-38319.254,-16713.543,56585.492
1319104.767958159,-86720.13,-81021.61,22086.752,-23050.457,20496.379,-38320.395,-16715.984,56591.31
1319104.7719581535,-86719.73,-81017.21,22108.604,-23040.406,20514.648,-38317.18,-16710.37,56610.84
1319104.7759581478,-86713.79,-81013.19,22118.613,-23036.785,20521.404,-38316.406,-16705.566,56620.445
1319104.7799581422,-86718.8,-81015.055,22101.28,-23046.348,20500.652,-38318.277,-16710.37,56601.484
1319104.7839581366,-86740.08,-81025.76,22085.531,-23055.258,20478.883,-38318.562,-16715.129,56578.74
1319104.787958131,-86740.03,-81024.414,22089.56,-23052.734,20485.23,-38317.996,-16717.408,56582.24
1319104.7919581253,-86734.54,-81021.164,22110.148,-23041.016,20508.3,-38318.645,-16715.088,56598.473
1319104.7959581197,-86724.0,-81024.87,22116.049,-23037.72,20516.316,-38317.953,-16709.352,56611.37
1319104.799958114,-86723.516,-81026.29,22096.152,-23049.969,20495.605,-38320.64,-16714.6,56594.688
1319104.8039581084,-86743.086,-81033.086,22074.057,-23058.96,20478.436,-38322.633,-16723.553,56571.74
1319104.8079581028,-86745.98,-81029.34,22078.33,-23056.396,20490.234,-38320.72,-16724.732,56571.047
1319104.8119580972,-86748.09,-81025.516,22099.244,-23045.41,20510.295,-38317.344,-16720.662,56586.875
1319104.8159580915,-86740.36,-81029.625,22112.469,-23041.504,20517.09,-38317.06,-16720.256,56591.105
1319104.819958086,-86731.164,-81039.39,22093.588,-23052.002,20496.094,-38320.598,-16724.812,56574.426
1319104.8239580803,-86737.35,-81035.97,22076.172,-23059.57,20474.285,-38322.023,-16730.55,56561.688
1319104.8279580746,-86744.23,-81029.87,22082.44,-23055.705,20482.26,-38321.902,-16730.713,56567.793
1319104.831958069,-86738.57,-81030.16,22103.027,-23044.068,20508.465,-38321.168,-16725.709,56587.08
1319104.8359580634,-86722.91,-81023.36,22116.904,-23040.527,20517.62,-38318.156,-16717.57,56602.95
1319104.8399580577,-86738.08,-81031.78,22100.586,-23051.719,20499.92,-38318.973,-16722.615,56582.24
1319104.8439580519,-86745.08,-81041.22,22079.307,-23062.176,20484.13,-38323.406,-16734.09,56562.83
1319104.8479580462,-86743.57,-81029.91,22082.316,-23057.822,20489.014,-38324.42,-16737.305,56571.82
1319104.8519580406,-86738.33,-81024.74,22102.012,-23042.807,20508.057,-38323.73,-16734.05,56589.277
1319104.855958035,-86732.55,-81023.52,22111.777,-23037.15,20516.277,-38323.406,-16729.818,56600.996
1319104.8599580294,-86737.51,-81027.18,22093.547,-23047.04,20495.32,-38323.73,-16733.725,56587.08
1319104.8639580237,-86748.74,-81032.43,22079.387,-23056.805,20485.393,-38324.547,-16741.375,56574.75
1319104.867958018,-86745.445,-81031.66,22088.584,-23053.875,20491.943,-38324.707,-16746.746,56579.227
1319104.8719580125,-86742.39,-81026.414,22108.684,-23041.465,20510.295,-38324.504,-16747.6,56594.363
1319104.8759580068,-86729.984,-81018.72,22123.658,-23034.629,20523.602,-38322.754,-16741.09,56604.777
1319104.8799580012,-86731.33,-81019.66,22109.01,-23042.441,20505.818,-38323.73,-16742.025,56598.473
1319104.8839579956,-86735.96,-81022.09,22089.682,-23054.16,20482.26,-38325.887,-16748.414,56587.688
1319104.88795799,-86727.38,-81016.484,22093.344,-23051.596,20487.875,-38323.895,-16750.367,56591.027
1319104.8919579843,-86716.8,-81010.79,22114.91,-23041.465,20508.18,-38323.242,-16747.273,56604.047
1319104.8959579787,-86719.484,-81010.58,22125.57,-23036.459,20522.87,-38322.51,-16743.531,56609.05
1319104.899957973,-86734.87,-81019.33,22103.312,-23049.154,20499.92,-38324.42,-16749.512,56586.67
1319104.9039579674,-86739.18,-81023.36,22086.752,-23057.822,20478.271,-38326.336,-16757.771,56575.36
1319104.9079579618,-86739.95,-81019.62,22096.07,-23049.684,20493.816,-38327.434,-16761.312,56576.99
1319104.9119579562,-86728.48,-81016.234,22118.45,-23037.842,20511.516,-38327.72,-16756.512,56588.3
1319104.9159579505,-86722.984,-81021.57,22131.268,-23036.256,20523.967,-38327.312,-16755.127,56592.082
1319104.919957945,-86736.53,-81018.64,22114.014,-23048.016,20504.477,-38329.754,-16763.592,56573.04
1319104.9239579393,-86741.3,-81019.695,22096.273,-23055.584,20484.701,-38331.87,-16767.66,56567.547
1319104.9279579336,-86738.85,-81017.625,22100.75,-23051.84,20494.508,-38329.875,-16766.602,56570.76
1319104.931957928,-86735.76,-81014.41,22122.803,-23043.457,20508.79,-38327.395,-16761.719,56584.11
1319104.9359579224,-86720.18,-81014.24,22133.75,-23039.389,20516.236,-38327.273,-16759.725,56593.02
1319104.9399579167,-86729.58,-81022.51,22114.707,-23049.033,20490.072,-38329.55,-16766.725,56572.715
1319104.943957911,-86745.69,-81029.75,22098.064,-23057.17,20475.18,-38332.684,-16774.373,56551.72
1319104.9479579055,-86746.42,-81026.98,22108.725,-23049.521,20485.271,-38333.133,-16776.896,56557.13
1319104.9519578998,-86732.875,-81018.555,22129.191,-23040.365,20506.836,-38331.707,-16771.363,56576.945
1319104.9559578942,-86724.33,-81020.39,22136.475,-23038.047,20515.707,-38332.074,-16767.742,56585.574
1319104.9599578886,-86733.32,-81025.84,22115.398,-23048.3,20495.24,-38333.133,-16771.037,56569.094
1319104.963957883,-86737.76,-81024.945,22094.688,-23057.781,20476.482,-38335.086,-16777.264,56557.54
1319104.9679578773,-86737.39,-81025.19,22100.18,-23052.654,20482.016,-38335.855,-16777.264,56564.293
1319104.9719578717,-86735.516,-81017.336,22127.035,-23038.738,20503.174,-38334.598,-16772.217,56579.51
1319104.975957866,-86719.73,-81008.99,22139.934,-23035.238,20510.092,-38334.92,-16767.01,56589.6
1319104.9799578604,-86717.37,-81022.586,22115.928,-23048.178,20481.61,-38337.242,-16773.438,56574.914
1319104.9839578548,-86734.78,-81026.77,22098.43,-23057.414,20464.885,-38336.996,-16780.559,56563.844
1319104.9879578492,-86735.234,-81020.555,22107.016,-23053.672,20483.357,-38335.246,-16777.426,56567.547
1319104.9919578435,-86724.2,-81016.69,22125.408,-23043.783,20505.818,-38332.234,-16771.322,56576.094
1319104.995957838,-86719.65,-81014.484,22138.225,-23040.527,20510.377,-38330.16,-16764.283,56585.41
1319104.9999578323,-86725.34,-81018.27,22116.62,-23053.996,20489.258,-38332.562,-16764.69,56569.906
1319105.0039578266,-86738.04,-81033.49,22097.576,-23062.582,20473.389,-38334.11,-16767.66,56556.766
1319105.007957821,-86727.09,-81024.5,22102.906,-23057.129,20485.148,-38333.824,-16767.822,56562.258
1319105.0119578154,-86736.21,-81019.21,22123.617,-23047.16,20501.22,-38333.902,-16763.957,56571.13
1319105.0159578098,-86740.16,-81016.73,22136.271,-23041.3,20509.197,-38332.6,-16756.959,56576.824
1319105.0199578041,-86723.88,-81026.2,22113.648,-23052.287,20491.455,-38331.055,-16754.11,56571.94
1319105.0239577985,-86728.84,-81035.484,22091.188,-23062.826,20473.309,-38331.137,-16758.709,56561.08
1319105.0279577929,-86732.22,-81026.37,22102.092,-23057.455,20479.94,-38332.277,-16762.248,56561.242
1319105.0319577872,-86729.21,-81028.28,22125.693,-23045.127,20503.256,-38330.934,-16756.55,56579.797
1319105.0359577816,-86707.16,-81021.77,22135.783,-23039.512,20513.021,-38328.25,-16747.03,56592.53
1319105.039957776,-86705.33,-81019.94,22116.008,-23049.846,20490.682,-38330.406,-16750.814,56571.25
1319105.0439577703,-86727.79,-81027.14,22099.977,-23060.547,20472.738,-38333.902,-16758.383,56556.97
1319105.0479577647,-86738.57,-81023.44,22107.707,-23056.396,20479.045,-38333.62,-16758.098,56564.293
1319105.051957759,-86725.914,-81021.08,22129.639,-23044.475,20502.727,-38332.156,-16754.11,56576.133
1319105.0559577534,-86718.914,-81014.734,22143.963,-23040.527,20506.186,-38333.414,-16752.197,56581.75
1319105.0599577478,-86716.59,-81013.35,22127.646,-23052.531,20484.54,-38334.84,-16755.738,56568.24
1319105.0639577422,-86728.27,-81012.74,22105.754,-23061.117,20466.717,-38335.695,-16762.777,56550.58
1319105.0679577366,-86722.86,-81011.805,22107.666,-23055.705,20484.254,-38335.367,-16767.01,56550.945
1319105.0719577307,-86719.445,-81016.195,22127.809,-23045.492,20504.314,-38336.754,-16766.072,56559.41
1319105.075957725,-86715.414,-81017.54,22139.812,-23040.936,20503.785,-38337.81,-16760.54,56571.535
1319105.0799577194,-86724.94,-81017.13,22120.402,-23049.602,20485.799,-38338.258,-16760.824,56561.77
1319105.0839577138,-86734.09,-81017.21,22105.55,-23057.74,20470.541,-38336.957,-16767.213,56546.633
1319105.0879577082,-86731.08,-81012.74,22112.834,-23054.2,20478.557,-38335.29,-16769.002,56550.375
1319105.0919577025,-86731.41,-81010.016,22131.674,-23043.701,20503.012,-38334.516,-16762.207,56565.105
1319105.095957697,-86731.65,-81010.3,22137.656,-23041.139,20505.371,-38332.887,-16757.568,56571.332
1319105.0999576913,-86734.3,-81018.555,22119.264,-23056.52,20480.916,-38333.05,-16763.836,56553.59
1319105.1039576856,-86739.055,-81024.17,22103.436,-23067.1,20464.314,-38333.58,-16772.137,56537.56
1319105.10795768,-86740.766,-81020.76,22114.87,-23058.758,20476.033,-38333.496,-16773.031,56542.562
1319105.1119576744,-86734.984,-81017.17,22135.295,-23048.34,20497.152,-38330.566,-16765.219,56563.965
1319105.1159576687,-86722.62,-81021.0,22141.969,-23046.021,20501.262,-38329.1,-16760.133,56573.0
1319105.1199576631,-86730.92,-81030.52,22122.682,-23056.682,20478.271,-38330.324,-16763.062,56556.03
1319105.1239576575,-86737.43,-81042.484,22106.324,-23066.203,20465.047,-38332.156,-16769.572,56542.523
1319105.1279576519,-86737.914,-81039.35,22113.77,-23061.729,20476.807,-38331.83,-16771.729,56546.387
1319105.1319576462,-86736.414,-81022.18,22135.986,-23048.422,20500.611,-38330.973,-16768.148,56562.34
1319105.1359576406,-86733.32,-81019.45,22146.12,-23044.922,20505.412,-38331.504,-16766.44,56564.94
1319105.139957635,-86733.28,-81027.8,22125.205,-23056.682,20478.271,-38333.945,-16774.74,56547.57
1319105.1439576293,-86732.586,-81034.34,22104.248,-23065.309,20463.95,-38335.938,-16788.533,56523.684
1319105.1479576237,-86739.586,-81030.44,22112.06,-23060.467,20473.47,-38333.742,-16790.324,56526.938
1319105.151957618,-86729.984,-81023.805,22133.668,-23051.025,20500.814,-38332.926,-16785.4,56538.414
1319105.1559576124,-86725.875,-81031.05,22144.775,-23047.363,20507.324,-38332.723,-16779.176,56546.31
1319105.1599576068,-86735.6,-81044.15,22130.168,-23057.334,20484.822,-38333.824,-16781.291,56540.49
1319105.1639576012,-86746.914,-81041.34,22110.719,-23066.691,20462.361,-38333.414,-16786.377,56533.977
1319105.1679575955,-86760.016,-81040.61,22112.754,-23063.193,20470.012,-38331.34,-16782.674,56546.67
1319105.17195759,-86742.84,-81032.8,22135.703,-23050.904,20487.996,-38329.227,-16777.182,56563.355
1319105.1759575843,-86737.39,-81028.61,22141.887,-23046.63,20499.105,-38327.883,-16769.979,56574.016
1319105.1799575787,-86740.64,-81029.91,22121.826,-23060.264,20470.582,-38329.43,-16771.363,56560.344
1319105.183957573,-86748.09,-81031.5,22104.656,-23069.215,20451.336,-38331.137,-16778.32,56547.285
1319105.1879575674,-86744.02,-81029.055,22111.328,-23065.309,20463.217,-38332.03,-16783.203,56541.71
1319105.1919575618,-86730.43,-81025.44,22131.309,-23055.258,20487.184,-38331.586,-16781.453,56548.79
1319105.1959575561,-86726.12,-81020.43,22144.004,-23050.416,20500.773,-38330.77,-16774.943,56560.832
1319105.1999575505,-86730.06,-81021.2,22127.727,-23060.182,20484.13,-38332.4,-16780.6,56544.516
1319105.2039575449,-86743.37,-81029.55,22113.525,-23069.336,20471.232,-38333.742,-16789.674,56526.29
1319105.2079575392,-86741.09,-81033.57,22124.39,-23065.674,20480.104,-38332.645,-16789.307,56533.69
1319105.2119575336,-86730.72,-81024.13,22139.812,-23055.87,20498.129,-38329.754,-16780.682,56549.805
1319105.215957528,-86726.69,-81021.37,22144.328,-23053.143,20501.059,-38331.055,-16775.758,56559.367
1319105.2199575223,-86744.305,-81025.27,22130.047,-23063.477,20475.709,-38334.23,-16782.186,56543.906
1319105.2239575167,-86746.99,-81031.336,22115.316,-23072.633,20464.52,-38335.367,-16786.662,56528.363
1319105.227957511,-86737.23,-81022.46,22126.426,-23065.674,20477.947,-38334.516,-16784.059,56544.312
1319105.2319575055,-86733.52,-81015.95,22149.902,-23054.404,20498.332,-38332.438,-16776.693,56563.477
1319105.2359574998,-86715.05,-81019.414,22156.535,-23051.107,20508.79,-38328.94,-16769.695,56567.832
1319105.2399574942,-86719.85,-81023.234,22135.662,-23061.973,20489.014,-38328.168,-16769.857,56552.656
1319105.2439574886,-86732.18,-81027.39,22120.037,-23071.006,20468.67,-38331.87,-16779.42,56537.316
1319105.247957483,-86725.14,-81017.664,22128.988,-23065.838,20483.725,-38332.887,-16779.256,56548.87
1319105.2519574773,-86718.8,-81010.83,22152.793,-23055.096,20505.941,-38331.42,-16772.502,56570.926
1319105.2559574717,-86726.36,-81017.83,22156.617,-23053.672,20507.61,-38331.22,-16768.637,56581.26
1319105.259957466,-86719.85,-81020.875,22133.018,-23065.512,20483.725,-38334.434,-16773.723,56560.1
1319105.2639574604,-86726.04,-81015.51,22113.69,-23074.586,20472.332,-38335.492,-16778.076,56545.37
1319105.2679574548,-86739.75,-81023.36,22120.89,-23069.215,20479.29,-38333.78,-16775.594,56551.477
1319105.2719574491,-86729.82,-81021.445,22142.295,-23057.617,20496.582,-38334.516,-16772.299,56565.188
1319105.2759574435,-86721.97,-81018.92,22149.496,-23055.258,20503.906,-38336.062,-16768.963,56573.242
1319105.279957438,-86718.266,-81025.27,22131.104,-23066.732,20485.066,-38337.242,-16771.484,56557.496
1319105.2839574323,-86720.7,-81037.64,22116.904,-23073.406,20469.076,-38337.242,-16776.367,56544.92
1319105.2879574266,-86731.2,-81034.18,22128.703,-23067.1,20479.127,-38336.832,-16776.734,56552.043
1319105.291957421,-86728.31,-81022.71,22143.799,-23057.658,20500.408,-38336.754,-16773.846,56559.57
1319105.2959574154,-86715.21,-81017.625,22145.225,-23058.188,20499.105,-38334.637,-16769.166,56565.473
1319105.2999574095,-86730.43,-81026.98,22124.756,-23072.389,20470.135,-38334.758,-16773.846,56546.266
1319105.3039574039,-86749.07,-81038.25,22107.504,-23082.44,20449.178,-38336.47,-16777.791,56535.08
1319105.3079573982,-86732.51,-81028.52,22120.322,-23075.4,20465.17,-38337.65,-16778.32,56537.64
1319105.3119573926,-86718.43,-81020.96,22146.607,-23063.844,20489.014,-38337.08,-16776.367,56547.363
1319105.315957387,-86720.016,-81021.57,22151.123,-23063.64,20494.305,-38337.77,-16774.822,56549.766
1319105.3199573813,-86725.71,-81026.9,22127.93,-23076.621,20480.916,-38337.2,-16774.943,56540.49
1319105.3239573757,-86728.15,-81031.414,22113.81,-23086.426,20466.676,-38337.605,-16778.117,56526.9
1319105.32795737,-86745.04,-81036.74,22121.217,-23082.602,20476.93,-38337.89,-16779.785,56524.902
1319105.3319573645,-86739.75,-81033.49,22138.266,-23073.486,20494.305,-38336.67,-16774.334,56536.38
1319105.3359573588,-86710.984,-81027.836,22142.334,-23073.406,20499.064,-38335.53,-16763.916,56555.586
1319105.3399573532,-86715.984,-81038.29,22127.076,-23086.182,20475.506,-38335.777,-16760.295,56545.656
1319105.3439573476,-86726.24,-81032.555,22114.99,-23094.646,20463.258,-38337.28,-16759.604,56542.688
1319105.347957342,-86720.75,-81021.2,22122.967,-23087.484,20477.742,-38335.367,-16754.314,56554.28
1319105.3519573363,-86708.664,-81022.016,22135.58,-23076.824,20499.47,-38335.086,-16749.797,56568.484
1319105.3559573307,-86704.43,-81024.336,22133.627,-23074.707,20500.408,-38334.637,-16745.809,56576.17
1319105.359957325,-86732.14,-81031.7,22112.102,-23087.852,20481.08,-38336.344,-16749.432,56560.426
1319105.3639573194,-86747.89,-81040.445,22094.768,-23096.68,20462.117,-38339.805,-16757.365,56534.71
1319105.3679573138,-86731.94,-81044.88,22103.027,-23092.693,20478.76,-38340.66,-16757.244,56541.914
1319105.3719573081,-86722.13,-81034.586,22123.455,-23079.55,20497.234,-38340.25,-16753.338,56548.79
1319105.3759573025,-86711.55,-81023.766,22128.947,-23077.475,20500.244,-38340.902,-16747.926,56550.62
1319105.379957297,-86725.95,-81032.88,22105.266,-23089.56,20473.959,-38343.26,-16751.262,56538.25
1319105.3839572913,-86733.08,-81047.41,22092.45,-23096.844,20458.09,-38343.75,-16754.477,56525.39
1319105.3879572856,-86719.0,-81045.414,22101.156,-23090.088,20467.896,-38342.977,-16751.262,56536.38
1319105.39195728,-86714.12,-81038.45,22116.863,-23080.73,20485.19,-38343.14,-16746.014,56548.016
1319105.3959572744,-86719.24,-81033.77,22120.525,-23079.428,20492.799,-38343.793,-16740.154,56556.113
1319105.3999572687,-86720.336,-81041.71,22104.209,-23090.7,20472.209,-38346.64,-16742.31,56540.69
1319105.403957263,-86723.92,-81044.31,22092.002,-23096.273,20458.537,-38349.246,-16752.361,56516.156
1319105.4079572575,-86735.72,-81039.63,22097.168,-23092.326,20463.582,-38351.402,-16755.78,56516.887
1319105.4119572518,-86734.46,-81039.59,22108.521,-23083.66,20482.057,-38351.688,-16750.244,56537.598
1319105.4159572462,-86732.47,-81044.92,22109.945,-23082.602,20485.963,-38351.44,-16745.85,56552.37
1319105.4199572406,-86722.984,-81050.62,22092.164,-23094.117,20460.125,-38353.68,-16747.518,56542.035
1319105.423957235,-86728.03,-81053.55,22078.004,-23101.848,20446.736,-38354.41,-16752.768,56525.11
1319105.4279572293,-86734.984,-81055.914,22085.734,-23098.959,20460.37,-38355.184,-16755.738,56526.777
1319105.4319572237,-86740.44,-81053.914,22101.36,-23090.17,20479.168,-38355.145,-16749.432,56541.63
1319105.435957218,-86714.766,-81041.34,22110.352,-23086.793,20475.424,-38353.027,-16741.17,56552.9
1319105.4399572124,-86711.1,-81046.71,22089.723,-23097.861,20454.549,-38355.387,-16744.588,56536.5
1319105.4439572068,-86722.58,-81060.95,22072.715,-23107.383,20435.223,-38358.523,-16752.238,56523.074
1319105.4479572012,-86735.84,-81056.93,22081.504,-23104.086,20443.848,-38358.195,-16751.14,56527.875
1319105.4519571955,-86725.836,-81042.32,22102.418,-23096.436,20460.572,-38356.773,-16743.611,56544.395
1319105.45595719,-86719.52,-81050.664,22112.793,-23096.965,20467.164,-38358.035,-16738.729,56551.066
1319105.4599571843,-86734.78,-81063.36,22094.605,-23109.783,20443.848,-38360.883,-16742.717,56535.28
1319105.4639571786,-86747.234,-81064.13,22079.51,-23118.043,20429.158,-38361.613,-16746.664,56522.992
1319105.467957173,-86743.01,-81054.77,22083.781,-23114.502,20442.018,-38361.33,-16747.438,56528.85
1319105.4719571674,-86728.03,-81052.05,22094.688,-23106.201,20459.432,-38360.27,-16743.734,56540.527
1319105.4759571617,-86728.64,-81049.484,22100.342,-23102.662,20461.346,-38359.863,-16742.025,56540.45
1319105.479957156,-86738.69,-81056.195,22083.293,-23114.178,20437.053,-38361.492,-16746.908,56520.918
1319105.4839571505,-86746.18,-81074.83,22070.518,-23124.879,20425.049,-38364.42,-16757.406,56498.375
1319105.4879571449,-86754.03,-81078.375,22079.428,-23119.59,20432.74,-38364.176,-16757.203,56502.688
1319105.4919571392,-86744.47,-81066.94,22095.947,-23109.863,20450.684,-38362.387,-16749.023,56521.12
1319105.4959571336,-86736.33,-81064.29,22096.273,-23111.37,20450.725,-38363.61,-16743.855,56534.26
1319105.499957128,-86744.47,-81076.13,22075.604,-23121.99,20429.484,-38365.723,-16746.705,56524.21
1319105.5039571223,-86753.46,-81080.484,22065.553,-23129.477,20419.475,-38364.95,-16749.432,56514.445
1319105.5079571167,-86754.766,-81071.336,22074.016,-23124.268,20432.293,-38364.137,-16746.297,56524.414
1319105.511957111,-86748.74,-81067.38,22092.734,-23115.52,20449.707,-38364.137,-16742.555,56537.64
1319105.5159571054,-86749.555,-81070.84,22098.43,-23115.684,20448.486,-38364.83,-16738.934,56543.176
1319105.5199570998,-86752.98,-81076.336,22082.928,-23125.367,20434.734,-38365.848,-16741.496,56531.332
1319105.5239570942,-86762.125,-81082.234,22065.674,-23134.238,20424.764,-38368.29,-16748.006,56517.906
1319105.5279570883,-86778.12,-81084.35,22072.592,-23130.86,20428.59,-38368.816,-16748.982,56521.28
1319105.5319570827,-86765.305,-81086.71,22088.584,-23122.926,20448.486,-38368.855,-16744.955,56531.457
1319105.535957077,-86752.08,-81084.31,22088.176,-23123.414,20444.54,-38368.9,-16741.455,56534.26
1319105.5399570714,-86759.56,-81085.164,22066.203,-23134.93,20422.201,-38369.996,-16747.396,56521.85
1319105.5439570658,-86759.97,-81087.81,22049.113,-23143.352,20407.023,-38373.21,-16755.818,56506.676
1319105.5479570602,-86768.27,-81081.83,22059.611,-23138.754,20414.145,-38375.164,-16759.36,56506.918
1319105.5519570545,-86769.66,-81080.125,22079.307,-23128.785,20427.938,-38374.637,-16753.297,56515.42
1319105.555957049,-86758.875,-81091.76,22083.537,-23128.135,20439.617,-38373.902,-16747.07,56524.375
1319105.5599570433,-86765.51,-81097.375,22064.17,-23139.283,20418.66,-38375.652,-16751.385,56509.523
1319105.5639570376,-86768.92,-81093.1,22054.16,-23147.178,20402.914,-38378.215,-16759.236,56496.42
1319105.567957032,-86766.805,-81092.086,22062.135,-23143.678,20410.32,-38378.867,-16764.486,56495.2
1319105.5719570264,-86767.46,-81094.08,22077.963,-23136.963,20421.998,-38377.117,-16760.986,56505.496
1319105.5759570207,-86779.95,-81110.96,22079.102,-23139.975,20419.434,-38376.305,-16757.244,56501.875
1319105.579957015,-86788.86,-81121.38,22060.467,-23151.531,20403.564,-38377.77,-16763.754,56485.56
1319105.5839570095,-86769.25,-81094.04,22052.166,-23155.762,20401.408,-38379.355,-16770.143,56481.164
1319105.5879570039,-86769.01,-81084.96,22066.285,-23150.146,20418.742,-38377.32,-16769.857,56481.367
1319105.5919569982,-86775.07,-81084.555,22081.137,-23141.521,20437.053,-38377.24,-16767.62,56496.83
1319105.5959569926,-86785.56,-81092.61,22079.998,-23142.863,20434.246,-38377.035,-16761.883,56511.19
1319105.599956987,-86788.695,-81102.22,22055.014,-23157.715,20407.47,-38378.785,-16765.016,56500.33
1319105.6039569813,-86794.11,-81106.2,22039.633,-23165.324,20392.578,-38381.715,-16771.566,56495.324
1319105.6079569757,-86791.47,-81106.85,22050.537,-23159.018,20405.193,-38380.777,-16771.404,56500.367
1319105.61195697,-86781.91,-81104.29,22068.93,-23151.816,20424.52,-38379.598,-16767.945,56504.152
1319105.6159569644,-86775.44,-81112.59,22074.83,-23152.344,20425.578,-38378.297,-16763.836,56505.86
1319105.6199569588,-86786.336,-81117.555,22058.27,-23162.273,20402.71,-38379.56,-16768.23,56497.52
1319105.6239569532,-86806.93,-81126.266,22044.598,-23170.818,20390.096,-38381.188,-16773.764,56488.977
1319105.6279569475,-86809.695,-81122.4,22054.443,-23165.447,20404.053,-38380.617,-16773.52,56496.867
1319105.631956942,-86792.89,-81107.625,22070.354,-23155.479,20420.045,-38378.5,-16767.62,56515.22
1319105.6359569363,-86795.9,-81120.2,22070.68,-23159.424,20422.975,-38377.44,-16763.592,56518.92
1319105.6399569307,-86805.664,-81125.33,22049.928,-23171.143,20401.611,-38378.5,-16768.84,56505.37
1319105.643956925,-86810.39,-81127.61,22033.936,-23177.531,20388.63,-38379.8,-16774.984,56496.3
1319105.6479569194,-86803.43,-81122.88,22043.377,-23173.057,20400.758,-38377.848,-16775.799,56504.52
1319105.6519569138,-86797.08,-81118.33,22063.03,-23165.771,20418.05,-38375.57,-16769.328,56520.184
1319105.6559569081,-86792.56,-81124.15,22062.988,-23166.748,20424.52,-38374.51,-16762.736,56528.85
1319105.6599569025,-86802.125,-81120.52,22047.975,-23175.904,20396.281,-38375.125,-16765.422,56513.348
1319105.6639568969,-86813.44,-81137.66,22032.92,-23183.717,20391.48,-38375.977,-16770.305,56500.043
1319105.6679568912,-86812.42,-81137.05,22042.807,-23180.096,20407.553,-38372.113,-16766.766,56512.37
1319105.6719568856,-86808.02,-81121.09,22061.932,-23171.836,20422.527,-38370.035,-16761.598,56532.15
1319105.67595688,-86799.195,-81116.09,22066.367,-23171.062,20418.66,-38370.117,-16757.162,56541.914
1319105.6799568743,-86812.99,-81129.72,22045.451,-23183.432,20394.898,-38371.5,-16762.98,56525.23
1319105.6839568687,-86811.2,-81132.41,22036.053,-23190.186,20383.748,-38371.707,-16770.71,56506.105
1319105.687956863,-86804.85,-81127.32,22047.568,-23184.693,20394.857,-38371.22,-16769.816,56514.367
1319105.6919568575,-86807.984,-81126.95,22069.297,-23175.822,20416.627,-38372.64,-16768.434,56530.48
1319105.6959568518,-86813.234,-81130.336,22076.621,-23173.504,20421.51,-38374.473,-16768.84,56534.26
1319105.6999568462,-86817.75,-81130.74,22058.105,-23184.693,20392.822,-38376.75,-16775.514,56526.29
1319105.7039568406,-86819.83,-81137.74,22045.94,-23191.123,20385.498,-38377.44,-16782.43,56519.25
1319105.707956835,-86816.734,-81138.96,22055.87,-23185.873,20401.043,-38378.746,-16788.086,56514.324
1319105.7119568293,-86806.27,-81134.97,22077.19,-23177.49,20418.945,-38378.99,-16786.947,56522.83
1319105.7159568237,-86807.46,-81126.55,22076.701,-23179.078,20423.178,-38377.973,-16780.885,56530.273
1319105.719956818,-86820.36,-81126.875,22054.2,-23190.39,20400.146,-38379.56,-16783.488,56513.754
1319105.7239568124,-86824.51,-81134.6,22047.363,-23197.674,20386.516,-38378.746,-16788.9,56499.72
1319105.7279568068,-86816.29,-81129.234,22059.246,-23191.977,20402.791,-38376.426,-16785.564,56511.64
1319105.7319568011,-86805.586,-81129.03,22072.998,-23186.2,20420.41,-38373.332,-16778.361,56527.63
1319105.7359567955,-86798.18,-81128.42,22079.428,-23190.797,20411.336,-38370.523,-16775.635,56537.11
1319105.7399567899,-86806.03,-81138.23,22062.541,-23203.045,20389.486,-38370.402,-16781.658,56520.55
1319105.7439567843,-86817.95,-81148.44,22054.852,-23210.531,20388.225,-38372.684,-16790.568,56502.973
1319105.7479567786,-86815.48,-81145.06,22068.523,-23208.293,20396.363,-38371.543,-16790.854,56505.25
1319105.751956773,-86808.15,-81128.83,22084.107,-23200.36,20417.807,-38369.47,-16787.312,56522.95
1319105.7559567671,-86813.44,-81119.06,22086.67,-23200.277,20418.824,-38368.938,-16786.012,56531.457
1319105.7599567615,-86805.055,-81125.29,22069.215,-23214.152,20395.06,-38369.508,-16791.219,56519.9
1319105.7639567559,-86796.76,-81137.82,22059.693,-23224.121,20381.512,-38369.184,-16797.486,56508.223
1319105.7679567502,-86795.78,-81132.24,22069.256,-23219.076,20396.648,-38366.742,-16797.566,56518.066
1319105.7719567446,-86789.836,-81126.43,22087.729,-23212.078,20415.283,-38364.664,-16794.271,56538.656
1319105.775956739,-86782.8,-81130.414,22090.17,-23217.652,20415.895,-38363.934,-16794.678,56540.977
1319105.7799567333,-86793.79,-81135.83,22074.26,-23231.486,20393.514,-38366.945,-16800.984,56519.94
1319105.7839567277,-86802.45,-81137.78,22062.217,-23239.502,20383.79,-38368.57,-16807.861,56505.7
1319105.787956722,-86804.37,-81138.59,22069.988,-23237.549,20398.113,-38367.8,-16811.688,56509.2
1319105.7919567164,-86794.68,-81126.586,22093.75,-23228.842,20420.41,-38366.54,-16811.28,56518.35
1319105.7959567108,-86784.266,-81120.57,22097.861,-23230.918,20424.928,-38364.3,-16806.072,56528.16
1319105.7999567052,-86792.12,-81130.05,22077.88,-23244.873,20403.361,-38364.664,-16810.955,56514.445
1319105.8039566996,-86802.05,-81136.195,22063.314,-23255.453,20381.145,-38365.684,-16816.65,56505.656
1319105.807956694,-86806.36,-81133.266,22078.736,-23249.92,20393.719,-38363.445,-16817.383,56521.934
1319105.8119566883,-86794.88,-81130.45,22096.803,-23241.416,20415.365,-38363.242,-16812.908,56549.074
1319105.8159566827,-86788.82,-81132.49,22093.75,-23244.955,20410.238,-38364.34,-16813.477,56554.527
1319105.819956677,-86798.14,-81137.45,22074.098,-23258.627,20389.12,-38363.527,-16821.777,56531.457
1319105.8239566714,-86814.984,-81128.016,22066.611,-23265.137,20384.969,-38362.145,-16826.62,56520.508
1319105.8279566658,-86808.555,-81127.16,22075.969,-23258.83,20404.623,-38363.363,-16828.695,56526.125
1319105.8319566601,-86784.02,-81127.36,22092.49,-23251.465,20419.475,-38361.207,-16825.236,56538.008
1319105.8359566545,-86780.03,-81121.46,22098.105,-23256.47,20412.436,-38358.4,-16820.516,56542.93
1319105.8399566489,-86793.54,-81127.484,22080.527,-23272.95,20391.277,-38359.906,-16828.451,56522.3
1319105.8439566432,-86810.1,-81131.67,22073.203,-23280.479,20386.312,-38361.94,-16840.088,56511.76
1319105.8479566376,-86811.37,-81127.36,22084.393,-23275.107,20402.264,-38361.37,-16842.0,56523.887
1319105.851956632,-86794.92,-81119.47,22101.807,-23267.09,20423.422,-38358.645,-16835.816,56541.223
1319105.8559566264,-86794.4,-81118.125,22102.621,-23270.346,20424.113,-38358.316,-16834.432,56546.105
1319105.8599566207,-86796.92,-81121.18,22088.055,-23283.082,20402.71,-38359.863,-16839.234,56528.402
1319105.863956615,-86799.12,-81125.86,22077.598,-23289.836,20388.957,-38359.703,-16842.0,56518.84
1319105.8679566095,-86803.63,-81122.6,22084.96,-23284.75,20406.78,-38357.992,-16845.5,56526.98
1319105.8719566038,-86794.35,-81120.28,22099.936,-23278.076,20428.996,-38357.87,-16845.906,56553.754
1319105.8759565982,-86787.48,-81120.57,22103.271,-23281.455,20425.172,-38358.766,-16847.209,56542.605
1319105.8799565926,-86795.86,-81121.586,22083.252,-23294.8,20401.938,-38360.84,-16857.545,56522.137
1319105.883956587,-86807.984,-81124.92,22074.424,-23301.555,20388.957,-38362.59,-16866.7,56510.01
1319105.8879565813,-86815.68,-81124.555,22085.41,-23295.818,20412.965,-38363.04,-16868.816,56522.95
1319105.8919565757,-86815.555,-81124.76,22099.041,-23288.86,20423.625,-38363.16,-16866.21,56537.598
1319105.89595657,-86804.69,-81127.56,22097.82,-23293.336,20411.947,-38363.73,-16863.934,56538.94
1319105.8999565644,-86819.42,-81134.28,22085.328,-23303.955,20392.578,-38364.664,-16869.1,56529.664
1319105.9039565588,-86822.15,-81134.65,22074.18,-23308.758,20384.686,-38366.78,-16876.262,56519.41
1319105.9079565532,-86819.3,-81133.18,22081.38,-23303.875,20395.428,-38369.508,-16884.766,56516.277
1319105.9119565475,-86808.31,-81136.15,22090.496,-23296.672,20403.89,-38370.73,-16884.604,56519.613
1319105.915956542,-86814.86,-81153.04,22091.635,-23300.213,20405.559,-38368.367,-16879.03,56524.945
1319105.9199565363,-86825.6,-81151.414,22069.297,-23311.076,20386.434,-38370.2,-16885.783,56512.207
1319105.9239565306,-86835.9,-81142.13,22050.416,-23316.53,20380.209,-38376.02,-16898.846,56507.0
1319105.927956525,-86844.57,-81142.414,22058.758,-23312.744,20391.195,-38376.344,-16902.1,56504.68
1319105.9319565194,-86845.55,-81148.93,22073.812,-23305.176,20408.367,-38375.406,-16900.39,56529.707
1319105.9359565137,-86835.37,-81144.53,22078.29,-23300.945,20412.557,-38376.305,-16899.658,56539.27
1319105.939956508,-86843.71,-81152.14,22062.705,-23311.729,20389.527,-38377.117,-16908.0,56518.8
1319105.9439565025,-86856.53,-81164.836,22044.19,-23320.068,20371.826,-38381.51,-16922.648,56499.39
1319105.9479564968,-86853.4,-81163.82,22050.701,-23313.438,20387.371,-38385.38,-16929.81,56499.188
1319105.9519564912,-86846.88,-81155.64,22065.43,-23301.066,20408.895,-38386.355,-16930.014,56511.76
1319105.9559564856,-86848.02,-81160.52,22067.383,-23301.23,20399.373,-38386.312,-16933.27,56506.836
1319105.95995648,-86863.41,-81176.11,22046.836,-23314.941,20371.746,-38390.91,-16947.713,56486.574
1319105.9639564743,-86883.1,-81188.03,22032.023,-23319.541,20364.543,-38391.766,-16954.346,56482.504
1319105.9679564687,-86882.086,-81189.74,22049.113,-23311.32,20379.477,-38389.285,-16955.322,56482.14
1319105.971956463,-86875.9,-81184.66,22062.744,-23302.287,20391.195,-38390.18,-16957.805,56495.08
1319105.9759564574,-86875.125,-81185.43,22057.09,-23302.043,20394.287,-38392.62,-16963.95,56493.492
1319105.9799564518,-86866.62,-81190.06,22031.494,-23311.24,20377.197,-38395.426,-16972.9,56474.45
1319105.983956446,-86866.82,-81197.15,22016.643,-23315.47,20362.59,-38398.562,-16983.521,56460.9
1319105.9879564403,-86871.914,-81200.36,22025.84,-23306.846,20365.113,-38398.64,-16989.422,56471.316
1319105.9919564347,-86875.0,-81202.84,22037.518,-23298.38,20380.25,-38399.54,-16988.566,56489.707
1319105.995956429,-86871.914,-81207.08,22037.639,-23299.033,20383.627,-38401.98,-16993.205,56477.094
1319105.9999564234,-86879.44,-81206.38,22020.225,-23309.49,20364.543,-38404.867,-17006.47,56451.582
1319106.0039564178,-86891.93,-81207.4,22005.332,-23313.844,20345.582,-38407.227,-17018.84,56448.367
1319106.0079564122,-86891.93,-81212.73,22010.05,-23303.875,20360.799,-38408.285,-17022.908,56457.44
1319106.0119564065,-86886.11,-81207.08,22025.676,-23293.295,20380.127,-38407.633,-17025.146,56463.38
1319106.015956401,-86891.52,-81211.02,22027.752,-23294.11,20371.826,-38411.418,-17033.65,56460.168
1319106.0199563953,-86904.18,-81223.59,21997.64,-23307.09,20348.389,-38416.465,-17049.154,56444.336
1319106.0239563896,-86918.055,-81233.69,21981.162,-23312.582,20340.455,-38419.395,-17062.623,56429.445
1319106.027956384,-86918.7,-81234.13,21992.676,-23302.94,20352.742,-38422.203,-17075.562,56424.805
1319106.0319563784,-86906.05,-81231.57,22011.963,-23290.08,20368.084,-38427.086,-17086.102,56423.26
1319106.0359563727,-86905.805,-81234.21,22006.918,-23291.098,20359.05,-38430.746,-17092.938,56420.94
1319106.039956367,-86922.85,-81246.14,21984.701,-23302.002,20330.363,-38434.695,-17104.207,56404.055
1319106.0439563615,-86944.22,-81248.66,21973.023,-23304.729,20321.371,-38436.85,-17118.164,56385.254
1319106.0479563558,-86940.15,-81254.27,21983.48,-23298.016,20328.695,-38438.355,-17127.361,56380.168
1319106.0519563502,-86916.38,-81250.9,21998.21,-23285.889,20343.262,-38440.836,-17134.93,56396.973
1319106.0559563446,-86908.57,-81247.44,21998.943,-23283.123,20342.244,-38442.63,-17137.451,56400.88
1319106.059956339,-86910.69,-81251.06,21982.545,-23289.795,20326.824,-38443.973,-17148.193,56377.727
1319106.0639563333,-86919.97,-81252.73,21966.594,-23295.574,20312.744,-38447.836,-17166.424,56355.715
1319106.0679563277,-86922.37,-81246.79,21973.268,-23288.9,20336.914,-38450.156,-17177.37,56361.37
1319106.071956322,-86920.984,-81244.19,21989.951,-23276.002,20358.44,-38449.87,-17177.857,56376.305
1319106.0759563164,-86921.875,-81246.99,21983.807,-23276.979,20353.027,-38450.36,-17177.693,56373.945
1319106.0799563108,-86934.45,-81254.31,21958.74,-23286.582,20329.469,-38453.492,-17189.738,56353.273
1319106.0839563052,-86947.92,-81261.97,21948.324,-23289.062,20322.307,-38457.4,-17204.834,56347.82
1319106.0879562995,-86947.06,-81262.05,21950.562,-23279.502,20334.84,-38458.824,-17211.629,56351.645
1319106.091956294,-86930.3,-81263.19,21966.594,-23265.707,20351.4,-38459.637,-17216.635,56352.867
1319106.0959562883,-86926.84,-81271.61,21969.32,-23263.307,20344.482,-38461.55,-17223.715,56355.676
1319106.0999562826,-86930.38,-81281.086,21951.336,-23272.34,20319.865,-38461.67,-17229.492,56340.496
1319106.103956277,-86936.93,-81293.54,21940.879,-23275.596,20308.717,-38461.67,-17237.184,56316.164
1319106.1079562714,-86934.66,-81288.62,21951.457,-23263.51,20328.613,-38465.58,-17252.645,56321.13
1319106.1119562658,-86933.48,-81275.68,21967.734,-23253.988,20343.262,-38470.01,-17258.26,56338.543
1319106.1159562601,-86932.91,-81268.96,21968.344,-23254.518,20338.46,-38468.71,-17257.732,56344.445
1319106.1199562545,-86921.76,-81273.52,21949.463,-23263.021,20312.785,-38468.793,-17267.293,56326.62
1319106.1239562489,-86921.555,-81294.72,21937.176,-23263.225,20308.797,-38473.145,-17285.564,56315.188
1319106.1279562432,-86922.2,-81295.29,21947.348,-23253.135,20323.61,-38473.55,-17296.754,56316.69
1319106.1319562376,-86916.79,-81283.61,21965.293,-23241.496,20346.518,-38473.348,-17298.016,56331.625
1319106.135956232,-86923.34,-81279.75,21964.396,-23238.81,20346.844,-38473.227,-17303.223,56327.883
1319106.1399562263,-86941.49,-81284.016,21941.244,-23248.74,20318.848,-38476.117,-17315.797,56306.887
1319106.1439562207,-86947.15,-81288.49,21931.682,-23249.268,20309.611,-38478.598,-17326.01,56306.074
1319106.147956215,-86945.766,-81278.32,21949.707,-23236.125,20327.068,-38479.41,-17331.707,56313.355
1319106.1519562094,-86942.305,-81273.27,21967.938,-23222.129,20344.523,-38479.695,-17332.602,56323.61
1319106.1559562038,-86935.59,-81282.23,21965.252,-23221.314,20342.938,-38479.695,-17333.172,56323.242
1319106.1599561982,-86938.44,-81291.51,21945.518,-23229.127,20325.033,-38479.047,-17338.502,56311.08
1319106.1639561926,-86946.086,-81291.55,21939.861,-23230.957,20308.758,-38478.152,-17346.883,56293.254
1319106.167956187,-86943.12,-81285.93,21949.18,-23220.664,20319.459,-38479.453,-17357.3,56293.5
1319106.1719561813,-86934.86,-81280.4,21960.693,-23208.293,20341.635,-38478.844,-17357.625,56303.875
1319106.1759561757,-86927.984,-81272.87,21960.613,-23204.957,20346.559,-38480.227,-17357.625,56310.06
1319106.17995617,-86941.98,-81272.83,21944.012,-23211.71,20325.154,-38483.848,-17370.809,56288.008
1319106.1839561644,-86951.7,-81281.62,21931.193,-23212.2,20321.98,-38485.27,-17384.93,56267.133
1319106.1879561588,-86934.98,-81282.19,21946.29,-23201.416,20330.893,-38484.293,-17389.568,56275.434
1319106.1919561531,-86918.17,-81274.7,21971.436,-23189.738,20348.145,-38482.06,-17389.16,56289.836
1319106.1959561475,-86915.125,-81275.8,21972.9,-23190.43,20343.75,-38480.594,-17390.748,56292.848
1319106.1999561419,-86934.82,-81279.87,21956.707,-23199.627,20321.168,-38480.387,-17399.455,56281.535
1319106.2039561362,-86948.04,-81275.23,21951.416,-23201.498,20315.105,-38481.934,-17412.68,56266.4
1319106.2079561306,-86921.15,-81266.97,21966.309,-23188.885,20329.428,-38481.812,-17418.945,56268.273
1319106.2119561248,-86914.06,-81261.84,21981.445,-23175.986,20344.523,-38480.062,-17417.969,56279.992
1319106.2159561191,-86912.48,-81261.6,21982.951,-23172.324,20344.28,-38478.395,-17418.377,56281.09
1319106.2199561135,-86914.02,-81256.555,21966.105,-23178.264,20320.76,-38480.227,-17428.387,56266.277
1319106.2239561079,-86922.164,-81264.94,21953.654,-23183.473,20315.064,-38480.062,-17436.28,56258.465
1319106.2279561022,-86923.71,-81263.96,21963.014,-23177.125,20330.852,-38478.11,-17439.494,56266.848
1319106.2319560966,-86922.77,-81264.41,21982.951,-23163.78,20348.227,-38476.035,-17438.64,56275.473
1319106.235956091,-86921.19,-81255.49,21987.346,-23160.156,20351.115,-38473.188,-17435.385,56291.426
1319106.2399560853,-86919.11,-81256.266,21972.291,-23168.783,20332.031,-38472.168,-17439.617,56282.51
1319106.2439560797,-86923.99,-81264.57,21960.166,-23174.521,20320.395,-38472.82,-17446.045,56273.113
1319106.247956074,-86920.82,-81258.42,21978.477,-23162.273,20339.193,-38471.723,-17445.639,56276.41
1319106.2519560684,-86918.055,-81250.81,22001.506,-23149.008,20358.033,-38470.297,-17442.791,56281.902
1319106.2559560628,-86914.96,-81241.91,22004.355,-23150.514,20349.895,-38470.133,-17442.303,56285.2
1319106.2599560572,-86905.234,-81244.55,21982.666,-23165.732,20325.074,-38471.56,-17447.348,56275.23
1319106.2639560516,-86910.08,-81255.13,21969.768,-23171.998,20321.656,-38470.83,-17450.236,56269.453
1319106.267956046,-86906.01,-81253.13,21989.137,-23163.33,20338.787,-38468.996,-17449.992,56270.305
1319106.2719560403,-86897.55,-81247.03,22010.703,-23153.24,20356.934,-38467.45,-17444.5,56283.203
1319106.2759560347,-86900.11,-81251.305,22010.459,-23154.176,20352.54,-38467.816,-17440.064,56286.95
1319106.279956029,-86908.695,-81262.01,21996.543,-23163.738,20330.934,-38468.387,-17437.826,56278.973
1319106.2839560234,-86907.43,-81259.93,21990.928,-23166.79,20321.412,-38469.035,-17437.215,56275.39
1319106.2879560178,-86899.91,-81253.586,22003.582,-23158.203,20335.45,-38468.59,-17432.252,56279.91
1319106.2919560121,-86896.41,-81245.164,22024.049,-23149.375,20355.062,-38465.332,-17421.225,56293.62
1319106.2959560065,-86900.44,-81241.62,22028.443,-23149.414,20354.33,-38464.52,-17412.232,56301.066
1319106.2999560009,-86904.99,-81250.37,22015.016,-23156.576,20335.693,-38465.457,-17415.527,56291.06
1319106.3039559952,-86902.59,-81252.69,22006.064,-23161.785,20324.463,-38465.21,-17417.074,56287.76
1319106.3079559896,-86887.9,-81242.92,22017.66,-23152.426,20336.629,-38463.504,-17412.15,56289.836
1319106.311955984,-86875.05,-81229.086,22038.33,-23141.236,20350.83,-38462.484,-17406.17,56299.4
1319106.3159559784,-86875.77,-81232.38,22041.18,-23143.434,20355.266,-38461.71,-17399.658,56303.875
1319106.3199559727,-86883.71,-81236.414,22020.996,-23154.705,20337.402,-38462.16,-17399.496,56293.254
1319106.323955967,-86884.766,-81235.84,22017.945,-23154.826,20330.934,-38460.33,-17396.81,56291.344
1319106.3279559615,-86888.1,-81231.33,22035.97,-23145.184,20346.232,-38457.766,-17390.016,56298.383
1319106.3319559558,-86876.1,-81225.47,22052.328,-23136.598,20365.967,-38455.895,-17382.324,56307.617
1319106.3359559502,-86871.09,-81225.06,22047.893,-23136.76,20368.205,-38455.484,-17376.18,56310.1
1319106.3399559446,-86872.52,-81223.555,22034.547,-23144.004,20347.82,-38454.875,-17373.414,56303.305
1319106.343955939,-86877.93,-81222.29,22027.223,-23145.713,20337.729,-38455.973,-17372.518,56299.805
1319106.3479559333,-86878.91,-81227.79,22040.732,-23136.23,20361.492,-38453.816,-17368.408,56305.91
1319106.3519559277,-86873.82,-81221.4,22058.31,-23124.756,20378.215,-38450.48,-17356.648,56325.277
1319106.355955922,-86879.766,-81222.336,22053.916,-23127.97,20376.588,-38446.414,-17342.45,56335.41
1319106.3599559164,-86876.38,-81225.42,22039.104,-23137.33,20357.625,-38445.312,-17342.082,56324.914
1319106.3639559108,-86838.83,-81197.19,22045.207,-23135.418,20352.418,-38448.73,-17350.545,56318.035
1319106.3679559052,-86827.516,-81186.08,22064.25,-23123.088,20370.484,-38448.895,-17348.715,56329.47
1319106.3719558995,-86822.8,-81191.24,22084.148,-23114.746,20390.137,-38447.266,-17341.268,56340.863
1319106.375955894,-86815.68,-81192.47,22090.984,-23115.031,20389.975,-38447.633,-17338.664,56336.996
1319106.3799558883,-86823.24,-81192.47,22073.283,-23123.78,20373.455,-38447.88,-17338.826,56325.81
1319106.3839558826,-86828.984,-81187.016,22066.977,-23126.344,20368.205,-38450.074,-17344.605,56315.023
1319106.387955877,-86818.69,-81179.08,22082.48,-23115.805,20384.033,-38450.4,-17344.809,56320.76
1319106.3919558714,-86799.08,-81173.38,22097.25,-23104.492,20398.885,-38446.94,-17334.229,56335.816
1319106.3959558657,-86791.836,-81172.28,22092.611,-23107.26,20389.527,-38443.074,-17325.807,56344.035
1319106.39995586,-86801.84,-81176.92,22076.377,-23118.979,20367.27,-38442.344,-17326.824,56333.418
1319106.4039558545,-86812.55,-81180.914,22068.727,-23122.682,20357.586,-38442.508,-17330.201,56321.94
1319106.4079558488,-86813.73,-81186.16,22083.701,-23113.975,20372.438,-38444.176,-17332.195,56328.125
1319106.4119558432,-86808.68,-81180.14,22107.098,-23103.068,20392.904,-38444.01,-17329.957,56337.324
1319106.4159558376,-86811.24,-81177.695,22111.37,-23102.744,20388.713,-38442.06,-17326.824,56332.074
1319106.419955832,-86820.11,-81185.06,22091.797,-23114.137,20374.512,-38442.87,-17330.893,56313.926
1319106.4239558263,-86828.17,-81186.98,22082.48,-23119.385,20366.7,-38444.38,-17336.14,56297.324
1319106.4279558207,-86821.58,-81185.59,22093.75,-23112.021,20383.992,-38441.977,-17333.13,56300.824
1319106.431955815,-86813.64,-81177.695,22113.852,-23102.295,20405.6,-38437.176,-17320.354,56319.62
1319106.4359558094,-86803.23,-81181.12,22113.242,-23104.492,20398.072,-38437.094,-17312.379,56332.684
1319106.4399558036,-86817.47,-81198.2,22093.67,-23114.422,20368.896,-38436.24,-17311.564,56325.523
1319106.443955798,-86832.03,-81199.79,22086.264,-23117.96,20365.316,-38436.363,-17312.703,56318.89
1319106.4479557923,-86815.59,-81191.49,22101.36,-23110.068,20388.795,-38435.305,-17309.123,56324.63
1319106.4519557867,-86812.46,-81181.16,22121.176,-23099.814,20406.494,-38431.07,-17300.172,56332.52
1319106.455955781,-86813.64,-81182.74,22119.508,-23100.994,20409.465,-38429.402,-17295.613,56335.246
1319106.4599557754,-86817.1,-81189.05,22100.627,-23113.404,20388.713,-38429.812,-17298.016,56314.984
1319106.4639557698,-86814.945,-81179.98,22098.838,-23115.52,20388.143,-38430.22,-17296.957,56314.375
1319106.4679557642,-86804.37,-81167.56,22111.98,-23104.412,20407.064,-38427.98,-17288.33,56332.156
1319106.4719557585,-86795.29,-81161.336,22131.715,-23095.176,20419.678,-38426.15,-17278.158,56348.31
1319106.475955753,-86793.09,-81163.29,22136.924,-23096.885,20407.715,-38425.58,-17272.625,56354.086
1319106.4799557473,-86808.64,-81164.63,22120.2,-23106.527,20384.604,-38424.44,-17271.893,56347.008
1319106.4839557416,-86831.914,-81171.836,22108.684,-23111.248,20383.871,-38423.016,-17273.031,56340.82
1319106.487955736,-86807.945,-81165.9,22122.396,-23103.72,20404.012,-38423.22,-17272.014,56349.938
1319106.4919557304,-86780.07,-81157.63,22139.365,-23095.135,20423.666,-38421.184,-17262.451,56368.207
1319106.4959557247,-86778.12,-81150.92,22134.807,-23098.918,20423.543,-38420.086,-17253.662,56377.16
1319106.499955719,-86785.52,-81151.414,22117.637,-23109.375,20402.955,-38421.918,-17256.389,56357.992
1319106.5039557135,-86789.88,-81156.25,22116.537,-23110.107,20398.072,-38422.77,-17262.41,56342.652
1319106.5079557078,-86784.51,-81157.43,22133.545,-23100.627,20413.127,-38421.43,-17256.348,56352.785
1319106.5119557022,-86787.195,-81160.52,22149.658,-23093.182,20430.096,-38419.92,-17244.67,56372.07
1319106.5159556966,-86787.68,-81153.61,22143.596,-23096.885,20420.654,-38419.8,-17239.99,56373.742
1319106.519955691,-86781.05,-81147.75,22126.709,-23106.934,20398.072,-38422.406,-17246.867,56362.754
1319106.5239556853,-86788.21,-81154.22,22119.996,-23112.549,20391.684,-38424.03,-17250.0,56357.344
1319106.5279556797,-86788.58,-81156.54,22133.75,-23103.068,20400.105,-38423.055,-17244.508,56366.742
1319106.531955674,-86781.82,-81155.07,22152.996,-23090.252,20421.062,-38421.348,-17238.729,56378.746
1319106.5359556684,-86775.72,-81155.234,22149.943,-23093.506,20418.824,-38420.453,-17236.328,56379.113
1319106.5399556628,-86795.29,-81159.266,22133.018,-23105.021,20399.373,-38420.656,-17237.996,56363.0
1319106.5439556572,-86806.84,-81158.125,22126.914,-23107.992,20391.113,-38419.883,-17239.422,56359.742
1319106.5479556515,-86790.164,-81150.8,22140.137,-23100.424,20406.658,-38418.863,-17236.41,56367.027
1319106.551955646,-86779.664,-81147.22,22158.691,-23092.938,20421.102,-38418.336,-17230.021,56377.035
1319106.5559556403,-86777.914,-81145.19,22159.303,-23092.938,20421.387,-38419.15,-17226.686,56376.426
1319106.5599556346,-86788.29,-81155.07,22143.88,-23101.727,20407.756,-38418.133,-17226.807,56368.246
1319106.563955629,-86796.875,-81164.266,22136.395,-23105.51,20396.2,-38416.22,-17226.521,56365.316
1319106.5679556234,-86796.555,-81170.45,22146.037,-23100.465,20401.814,-38415.57,-17223.836,56367.395
1319106.5719556178,-86787.805,-81163.29,22165.568,-23091.188,20421.713,-38416.586,-17220.623,56371.055
1319106.5759556121,-86774.664,-81139.484,22169.639,-23089.031,20425.252,-38418.62,-17220.459,56369.55
1319106.5799556065,-86784.1,-81140.75,22148.682,-23100.506,20404.012,-38420.29,-17223.309,56354.7
1319106.5839556009,-86800.09,-81148.73,22139.527,-23104.127,20400.27,-38419.23,-17227.54,56343.75
1319106.5879555952,-86791.914,-81146.445,22154.094,-23094.158,20421.875,-38418.01,-17225.79,56355.227
1319106.5919555896,-86791.67,-81138.555,22170.127,-23083.578,20444.05,-38418.133,-17217.205,56377.77
1319106.595955584,-86790.9,-81141.44,22164.674,-23087.443,20436.97,-38416.547,-17212.078,56374.434
1319106.5999555783,-86782.48,-81143.35,22145.834,-23098.389,20413.209,-38415.73,-17213.338,56357.832
1319106.6039555727,-86790.29,-81150.07,22143.066,-23101.686,20406.535,-38414.594,-17213.42,56353.477
1319106.607955567,-86789.15,-81145.59,22160.238,-23093.018,20427.084,-38413.25,-17210.205,56362.875
1319106.6119555614,-86779.14,-81139.695,22176.637,-23083.822,20442.668,-38411.46,-17202.352,56380.82
1319106.6159555558,-86768.88,-81136.64,22176.27,-23085.002,20434.611,-38412.844,-17200.398,56382.53
1319106.6199555502,-86775.39,-81152.43,22161.5,-23095.744,20418.824,-38415.0,-17205.363,56365.848
1319106.6239555445,-86781.17,-81156.25,22152.955,-23100.098,20414.389,-38414.51,-17210.37,56359.133
1319106.627955539,-86776.77,-81144.29,22163.453,-23091.797,20433.105,-38414.188,-17209.637,56367.312
1319106.6319555333,-86767.336,-81132.41,22181.56,-23083.457,20449.91,-38413.574,-17203.898,56378.137
1319106.6359555277,-86769.82,-81130.984,22180.217,-23085.693,20445.312,-38414.062,-17199.26,56376.1
1319106.639955522,-86788.414,-81138.266,22161.377,-23097.494,20425.984,-38412.926,-17199.383,56364.953
1319106.6439555164,-86796.15,-81141.32,22154.502,-23100.424,20418.824,-38411.99,-17202.637,56355.957
1319106.6479555108,-86787.97,-81133.14,22166.586,-23091.717,20440.268,-38412.56,-17203.045,56364.746
1319106.6519555051,-86770.67,-81132.695,22182.129,-23083.863,20464.275,-38410.44,-17192.342,56390.91
1319106.6559554995,-86764.81,-81128.87,22182.008,-23087.646,20456.584,-38408.406,-17182.781,56399.133
1319106.6599554939,-86786.46,-81136.88,22165.406,-23097.82,20431.682,-38408.652,-17185.547,56379.316
1319106.6639554882,-86790.86,-81144.49,22157.756,-23099.53,20423.543,-38411.62,-17192.383,56364.258
1319106.6679554824,-86771.53,-81137.17,22169.027,-23093.1,20441.854,-38410.156,-17188.152,56368.086
1319106.6719554767,-86762.05,-81129.07,22186.117,-23085.816,20461.346,-38405.4,-17178.955,56385.01
1319106.6759554711,-86769.695,-81129.805,22183.35,-23088.705,20451.54,-38405.76,-17175.863,56392.863
1319106.6799554655,-86780.36,-81131.96,22165.977,-23100.262,20435.385,-38408.082,-17179.363,56380.984
1319106.6839554599,-86786.18,-81131.76,22163.33,-23102.215,20431.764,-38406.863,-17180.055,56376.02
1319106.6879554542,-86783.734,-81128.38,22179.443,-23093.832,20452.516,-38404.42,-17176.96,56381.43
1319106.6919554486,-86772.914,-81120.85,22193.604,-23084.27,20464.031,-38403.89,-17174.887,56389.855
1319106.695955443,-86770.51,-81119.06,22182.455,-23087.646,20455.242,-38404.625,-17175.904,56392.66
1319106.6999554373,-86771.53,-81124.96,22161.621,-23099.041,20437.785,-38403.566,-17177.41,56375.57
1319106.7039554317,-86780.44,-81131.96,22154.502,-23103.436,20438.232,-38402.547,-17178.426,56368.574
1319106.707955426,-86779.55,-81132.98,22171.143,-23095.297,20452.76,-38404.176,-17182.373,56366.7
1319106.7119554204,-86773.16,-81128.91,22193.645,-23084.19,20466.229,-38403.117,-17178.02,56381.758
1319106.7159554148,-86778.85,-81127.56,22190.553,-23087.932,20456.787,-38402.59,-17172.975,56383.02
1319106.7199554092,-86789.02,-81146.164,22170.166,-23098.756,20432.049,-38403.727,-17173.016,56373.984
1319106.7239554035,-86784.63,-81142.375,22158.977,-23101.074,20436.443,-38405.52,-17178.71,56369.71
1319106.727955398,-86760.664,-81111.9,22177.816,-23088.664,20460.37,-38402.75,-17179.24,56376.1
1319106.7319553923,-86751.836,-81106.94,22194.459,-23080.607,20477.865,-38401.125,-17170.818,56390.504
1319106.7359553867,-86751.266,-81104.49,22193.686,-23083.496,20469.605,-38402.26,-17169.963,56390.383
1319106.739955381,-86763.02,-81111.05,22178.184,-23093.955,20445.271,-38405.07,-17176.922,56370.688
1319106.7439553754,-86784.63,-81109.87,22170.898,-23096.273,20440.756,-38405.64,-17180.135,56363.65
1319106.7479553698,-86774.58,-81108.69,22180.217,-23087.12,20457.316,-38403.566,-17177.693,56373.58
1319106.7519553641,-86760.336,-81107.875,22196.738,-23079.469,20472.168,-38401.41,-17170.33,56394.125
1319106.7559553585,-86760.09,-81110.88,22196.738,-23083.781,20466.064,-38399.09,-17165.365,56402.1
1319106.7599553529,-86771.08,-81120.04,22176.963,-23095.459,20443.848,-38398.6,-17167.115,56386.8
1319106.7639553472,-86776.37,-81117.44,22175.457,-23094.809,20436.89,-38400.15,-17171.998,56377.402
1319106.7679553416,-86773.64,-81110.31,22190.715,-23084.596,20451.742,-38400.594,-17172.445,56387.168
1319106.771955336,-86782.88,-81113.85,22206.34,-23075.928,20467.53,-38399.17,-17168.824,56399.457
1319106.7759553303,-86791.55,-81119.19,22200.645,-23080.852,20461.14,-38398.48,-17166.627,56394.695
1319106.7799553247,-86781.91,-81126.586,22182.17,-23090.576,20440.756,-38400.92,-17168.295,56385.664
1319106.783955319,-86781.09,-81130.25,22178.387,-23091.96,20437.176,-38401.53,-17172.283,56382.53
1319106.7879553135,-86778.164,-81122.03,22191.367,-23084.434,20458.496,-38401.855,-17175.172,56385.176
1319106.7919553078,-86769.25,-81110.805,22210.613,-23075.521,20470.623,-38400.676,-17166.951,56405.887
1319106.7959553022,-86771.28,-81109.664,22210.979,-23073.65,20470.418,-38399.008,-17162.518,56408.613
1319106.7999552966,-86772.79,-81122.68,22195.762,-23081.87,20453.533,-38401.734,-17169.678,56384.848
1319106.803955291,-86775.8,-81123.336,22190.186,-23084.352,20446.086,-38400.27,-17172.363,56375.49
1319106.8079552853,-86777.875,-81118.86,22200.521,-23076.865,20458.537,-38399.496,-17168.701,56391.035
1319106.8119552797,-86765.305,-81113.69,22216.635,-23068.076,20480.469,-38397.91,-17160.93,56410.2
1319106.815955274,-86767.984,-81110.92,22220.176,-23070.312,20471.314,-38396.484,-17156.658,56413.74
1319106.8199552684,-86783.77,-81113.41,22204.225,-23081.625,20452.393,-38395.305,-17158.162,56399.54
1319106.8239552628,-86780.48,-81111.53,22197.021,-23083.252,20447.348,-38396.28,-17161.336,56395.875
1319106.8279552571,-86759.69,-81106.04,22212.037,-23073.365,20469.158,-38396.324,-17162.68,56402.754
1319106.8319552515,-86748.414,-81098.15,22227.988,-23066.285,20490.154,-38394.33,-17156.453,56413.82
1319106.835955246,-86749.02,-81094.36,22223.145,-23069.012,20476.97,-38393.8,-17155.926,56411.543
1319106.8399552403,-86775.15,-81102.46,22207.275,-23081.504,20452.516,-38395.305,-17163.33,56393.434
1319106.8439552346,-86780.766,-81107.26,22202.393,-23085.898,20453.125,-38397.055,-17168.133,56382.938
1319106.847955229,-86767.01,-81098.47,22220.176,-23074.057,20472.982,-38395.793,-17164.47,56393.434
1319106.8519552234,-86755.25,-81100.55,22237.06,-23065.918,20500.408,-38395.754,-17162.354,56404.543
1319106.8559552177,-86749.59,-81100.63,22236.777,-23069.947,20486.531,-38395.266,-17161.5,56391.523
1319106.859955212,-86758.51,-81105.59,22220.256,-23082.236,20454.346,-38395.02,-17164.715,56380.414
1319106.8639552065,-86771.12,-81107.625,22213.014,-23085.898,20452.107,-38393.92,-17167.4,56376.914
1319106.8679552008,-86781.62,-81099.41,22223.309,-23079.387,20473.715,-38392.008,-17166.057,56381.96
1319106.8719551952,-86776.86,-81096.16,22239.502,-23070.395,20492.473,-38393.395,-17163.86,56397.055
1319106.8759551896,-86770.51,-81101.56,22237.875,-23072.145,20482.098,-38395.633,-17163.697,56396.73
1319106.879955184,-86767.46,-81109.78,22216.92,-23081.299,20464.926,-38393.84,-17164.754,56381.836
1319106.8839551783,-86763.516,-81106.125,22215.008,-23082.969,20460.125,-38391.727,-17163.045,56377.484
1319106.8879551727,-86766.97,-81091.68,22232.586,-23076.213,20473.47,-38390.87,-17162.883,56383.383
1319106.891955167,-86765.67,-81081.99,22246.664,-23068.93,20490.154,-38392.375,-17158.367,56401.207
1319106.8959551612,-86773.36,-81097.49,22230.957,-23077.393,20474.936,-38394.125,-17155.518,56405.152
1319106.8999551556,-86793.99,-81118.21,22209.922,-23089.152,20453.004,-38394.207,-17159.344,56391.848
1319106.90395515,-86767.01,-81102.46,22219.035,-23085.328,20458.904,-38397.746,-17169.842,56377.2
1319106.9079551443,-86736.66,-81073.164,22237.998,-23072.959,20479.004,-38399.09,-17169.963,56377.402
1319106.9119551387,-86733.24,-81073.08,22255.006,-23064.17,20498.21,-38396.12,-17162.72,56396.406
1319106.915955133,-86728.56,-81077.11,22256.43,-23065.756,20491.17,-38397.098,-17160.32,56401.33
1319106.9199551274,-86730.31,-81071.82,22242.352,-23072.062,20474.53,-38398.074,-17164.348,56385.824
1319106.9239551218,-86732.016,-81071.17,22233.44,-23075.277,20466.35,-38396.445,-17167.848,56373.82
1319106.9279551161,-86723.59,-81064.086,22245.117,-23068.93,20479.127,-38396.484,-17170.045,56371.91
1319106.9319551105,-86724.77,-81074.266,22268.799,-23058.025,20497.355,-38394.938,-17164.062,56387.453
1319106.935955105,-86700.805,-81059.45,22270.102,-23059.326,20488.201,-38395.633,-17157.594,56394.41
1319106.9399550993,-86691.04,-81056.89,22252.197,-23071.533,20468.182,-38396.04,-17153.85,56390.016
1319106.9439550936,-86698.98,-81056.27,22247.152,-23071.941,20469.117,-38395.1,-17156.373,56390.22
1319106.947955088,-86704.51,-81053.51,22260.254,-23062.664,20475.057,-38395.184,-17157.715,56394.574
1319106.9519550824,-86695.68,-81055.14,22278.809,-23053.63,20496.176,-38394.45,-17151.57,56405.152
1319106.9559550767,-86689.54,-81057.54,22276.246,-23055.664,20494.914,-38394.207,-17149.902,56404.95
1319106.959955071,-86702.516,-81066.04,22254.883,-23068.115,20473.064,-38397.95,-17158.814,56387.37
1319106.9639550655,-86710.734,-81062.18,22250.732,-23070.15,20469.361,-38399.254,-17165.203,56377.81
1319106.9679550598,-86707.484,-81053.305,22264.527,-23061.158,20483.928,-38397.586,-17161.865,56378.5
1319106.9719550542,-86706.42,-81052.086,22279.42,-23053.71,20498.129,-38396.484,-17156.332,56393.19
1319106.9759550486,-86708.414,-81066.125,22276.367,-23058.555,20479.371,-38396.85,-17152.914,56394.25
1319106.979955043,-86717.45,-81076.54,22262.777,-23066.773,20460.043,-38398.52,-17158.244,56379.273
1319106.9839550373,-86736.086,-81069.99,22257.041,-23068.523,20468.059,-38399.902,-17161.297,56375.652
1319106.9879550317,-86715.74,-81057.62,22269.125,-23060.752,20485.963,-38398.52,-17157.146,56379.273
1319106.991955026,-86700.6,-81050.58,22287.395,-23051.514,20503.744,-38396.242,-17150.105,56394.816
1319106.9959550204,-86705.85,-81056.234,22281.088,-23057.658,20487.469,-38397.83,-17149.334,56396.73
1319106.9999550148,-86706.51,-81060.47,22257.854,-23070.03,20464.764,-38399.457,-17152.791,56383.914
1319107.0039550092,-86704.19,-81059.0,22251.914,-23070.842,20464.438,-38397.22,-17154.338,56382.324
1319107.0079550035,-86695.766,-81057.375,22264.445,-23059.367,20484.578,-38395.914,-17156.576,56383.71
1319107.011954998,-86690.63,-81058.516,22279.379,-23048.137,20499.715,-38396.16,-17154.705,56391.4
1319107.0159549923,-86698.086,-81063.68,22272.014,-23050.701,20488.648,-38399.008,-17156.25,56390.383
1319107.0199549866,-86706.22,-81068.89,22256.064,-23060.791,20471.72,-38401.855,-17161.297,56378.01
1319107.023954981,-86713.26,-81059.94,22253.867,-23063.111,20471.6,-38402.996,-17164.389,56370.812
1319107.0279549754,-86713.14,-81055.34,22270.752,-23053.223,20486.857,-38403.81,-17167.156,56373.58
1319107.0319549697,-86716.48,-81062.664,22284.953,-23044.719,20506.307,-38402.875,-17166.463,56379.805
1319107.035954964,-86712.89,-81062.336,22277.71,-23047.934,20499.92,-38400.188,-17161.824,56383.383
1319107.0399549585,-86706.42,-81061.89,22265.342,-23060.303,20476.727,-38398.48,-17163.25,56369.55
1319107.0439549529,-86708.336,-81065.39,22257.244,-23065.064,20474.61,-38398.316,-17168.213,56363.242
1319107.0479549472,-86700.73,-81062.3,22269.654,-23055.95,20492.676,-38397.22,-17165.691,56371.22
1319107.0519549416,-86695.48,-81059.2,22294.354,-23045.533,20510.092,-38395.062,-17156.78,56381.39
1319107.055954936,-86704.47,-81056.69,22290.936,-23049.277,20507.0,-38395.754,-17152.14,56389.203
1319107.0599549303,-86713.83,-81058.43,22269.248,-23059.123,20484.295,-38400.758,-17158.367,56379.07
1319107.0639549247,-86718.836,-81055.87,22260.05,-23062.379,20484.13,-38403.445,-17166.83,56365.234
1319107.067954919,-86721.36,-81056.52,22270.225,-23054.648,20502.889,-38401.41,-17165.812,56370.65
1319107.0719549134,-86719.65,-81051.84,22285.32,-23047.568,20509.074,-38399.293,-17157.674,56393.19
1319107.0759549078,-86719.32,-81053.43,22281.129,-23052.125,20495.89,-38397.504,-17153.605,56397.79
1319107.0799549022,-86722.45,-81063.93,22262.94,-23062.217,20479.127,-38396.934,-17155.559,56384.848
1319107.0839548965,-86715.91,-81066.734,22263.184,-23063.152,20476.727,-38398.805,-17159.709,56380.453
1319107.087954891,-86714.48,-81062.016,22280.967,-23054.852,20493.002,-38400.473,-17161.824,56383.02
1319107.0919548853,-86713.055,-81053.305,22297.404,-23045.492,20511.027,-38399.82,-17156.576,56394.207
1319107.0959548797,-86705.41,-81056.4,22294.678,-23049.521,20498.17,-38399.617,-17154.135,56389.934
1319107.099954874,-86711.47,-81064.21,22275.879,-23059.45,20473.023,-38399.984,-17157.879,56373.254
1319107.1039548684,-86723.43,-81071.336,22270.02,-23063.03,20468.1,-38402.184,-17165.771,56363.12
1319107.1079548628,-86719.0,-81064.086,22289.348,-23052.979,20490.887,-38403.445,-17169.678,56362.43
1319107.1119548571,-86699.18,-81049.16,22305.055,-23044.027,20513.307,-38402.387,-17162.965,56381.145
1319107.1159548515,-86708.58,-81052.45,22297.486,-23048.137,20508.627,-38402.47,-17157.512,56386.76
1319107.1199548459,-86720.75,-81058.43,22279.297,-23059.855,20489.055,-38401.367,-17159.303,56370.89
1319107.12395484,-86716.59,-81052.734,22278.402,-23059.367,20487.59,-38400.555,-17163.533,56367.96
1319107.1279548344,-86719.445,-81048.55,22292.766,-23050.416,20505.9,-38398.64,-17160.727,56378.258
1319107.1319548287,-86717.29,-81050.87,22304.648,-23046.428,20520.02,-38396.445,-17154.297,56391.44
1319107.135954823,-86707.64,-81054.37,22299.805,-23052.043,20505.25,-38396.445,-17152.264,56388.227
1319107.1399548175,-86723.23,-81061.98,22280.682,-23062.379,20482.545,-38398.438,-17156.617,56370.77
1319107.1439548119,-86733.52,-81064.945,22275.025,-23062.826,20479.045,-38399.21,-17160.727,56368.37
1319107.1479548062,-86727.99,-81064.66,22290.527,-23053.467,20497.844,-38398.723,-17162.477,56375.0
1319107.1519548006,-86710.86,-81050.17,22308.27,-23045.004,20514.527,-38395.508,-17151.531,56395.43
1319107.155954795,-86712.81,-81043.945,22303.102,-23049.725,20507.324,-38394.246,-17143.799,56402.957
1319107.1599547893,-86714.805,-81043.17,22281.291,-23059.287,20486.94,-38397.34,-17147.176,56388.55
1319107.1639547837,-86710.25,-81044.92,22278.402,-23061.2,20483.074,-38397.46,-17151.57,56378.01
1319107.167954778,-86704.305,-81040.9,22301.352,-23053.916,20496.746,-38395.957,-17151.652,56379.6
1319107.1719547724,-86696.01,-81035.41,22316.855,-23046.672,20515.707,-38393.598,-17145.549,56398.438
1319107.1759547668,-86704.47,-81038.74,22308.146,-23051.799,20500.326,-38395.426,-17146.24,56398.562
1319107.1799547612,-86719.04,-81047.08,22286.215,-23061.32,20479.695,-38397.34,-17150.96,56378.625
1319107.1839547555,-86711.1,-81042.56,22285.645,-23060.752,20487.834,-38395.67,-17152.14,56374.96
1319107.18795475,-86700.28,-81035.69,22302.857,-23051.84,20505.615,-38393.84,-17150.146,56387.492
1319107.1919547443,-86695.31,-81030.32,22316.855,-23043.783,20516.113,-38392.703,-17145.02,56404.34
1319107.1959547387,-86694.7,-81031.45,22311.932,-23047.771,20507.203,-38393.598,-17143.434,56403.73
1319107.199954733,-86706.99,-81039.15,22294.475,-23057.334,20491.863,-38393.434,-17148.113,56388.754
1319107.2039547274,-86713.5,-81044.48,22289.227,-23059.326,20489.87,-38393.395,-17152.629,56385.906
1319107.2079547218,-86714.64,-81040.29,22301.719,-23051.596,20509.48,-38396.16,-17155.559,56387.695
1319107.2119547161,-86706.75,-81032.72,22319.906,-23042.277,20527.182,-38395.184,-17149.293,56400.473
1319107.2159547105,-86705.125,-81032.8,22317.344,-23048.463,20511.557,-38392.906,-17145.672,56400.434
1319107.2199547049,-86728.31,-81046.67,22294.678,-23061.809,20482.951,-38395.836,-17152.955,56385.46
1319107.2239546992,-86721.93,-81056.52,22291.016,-23062.42,20486.41,-38398.234,-17160.848,56374.92
1319107.2279546936,-86708.01,-81046.51,22305.34,-23050.13,20518.758,-38396.85,-17161.297,56379.965
1319107.231954688,-86703.66,-81029.83,22322.021,-23043.418,20532.39,-38396.242,-17154.012,56387.74
1319107.2359546823,-86706.914,-81034.38,22313.803,-23049.277,20522.38,-38398.03,-17152.629,56391.36
1319107.2399546767,-86710.45,-81034.305,22292.93,-23060.467,20503.459,-38398.805,-17154.297,56382.53
1319107.243954671,-86708.13,-81034.305,22295.248,-23059.611,20498.861,-38395.996,-17152.547,56377.117
1319107.2479546655,-86702.6,-81036.83,22309.287,-23050.01,20514.16,-38394.125,-17150.229,56382.69
1319107.2519546598,-86688.73,-81031.58,22321.086,-23045.086,20525.473,-38394.33,-17147.38,56392.824
1319107.2559546542,-86687.83,-81032.31,22315.674,-23047.771,20513.469,-38394.33,-17145.346,56394.656
1319107.2599546486,-86700.69,-81040.53,22296.957,-23056.193,20494.832,-38396.12,-17151.45,56380.82
1319107.263954643,-86704.8,-81042.65,22290.447,-23057.902,20495.809,-38396.65,-17156.658,56371.582
1319107.2679546373,-86687.26,-81033.086,22306.234,-23048.057,20512.533,-38396.08,-17153.85,56378.625
1319107.2719546317,-86678.51,-81022.46,22324.463,-23039.592,20536.336,-38392.984,-17144.246,56397.83
1319107.275954626,-86678.43,-81015.586,22318.4,-23044.312,20522.014,-38391.113,-17140.87,56398.97
1319107.2799546204,-86688.48,-81022.51,22298.748,-23054.77,20500.732,-38390.668,-17145.549,56384.93
1319107.2839546148,-86690.836,-81033.695,22296.713,-23056.805,20498.78,-38390.055,-17147.787,56381.473
1319107.2879546091,-86680.26,-81032.23,22313.6,-23049.56,20513.143,-38390.87,-17149.414,56380.535
1319107.2919546035,-86669.195,-81024.17,22331.016,-23041.383,20525.066,-38388.633,-17144.572,56393.395
1319107.2959545979,-86671.51,-81025.72,22317.383,-23049.56,20516.113,-38388.43,-17144.94,56386.516
1319107.2999545923,-86686.16,-81029.55,22298.707,-23059.57,20507.203,-38387.74,-17146.2,56377.89
1319107.3039545866,-86682.82,-81030.88,22300.375,-23056.926,20511.395,-38386.72,-17147.258,56374.31
1319107.307954581,-86670.414,-81023.484,22319.824,-23045.98,20526.287,-38383.87,-17144.898,56380.74
1319107.3119545754,-86662.31,-81015.18,22338.299,-23038.615,20537.15,-38381.188,-17137.898,56393.76
1319107.3159545697,-86653.81,-81009.24,22329.062,-23043.418,20527.059,-38379.965,-17132.162,56404.38
1319107.319954564,-86660.52,-81009.12,22310.264,-23053.428,20503.5,-38381.43,-17136.271,56391.81
1319107.3239545585,-86668.5,-81008.99,22309.408,-23053.875,20506.023,-38382.855,-17142.09,56383.75
1319107.3279545528,-86659.914,-81011.195,22328.29,-23046.63,20525.432,-38381.51,-17140.26,56392.62
1319107.3319545472,-86654.7,-81014.57,22341.838,-23039.47,20532.47,-38382.855,-17135.58,56405.316
1319107.3359545416,-86662.516,-81021.0,22334.678,-23044.271,20518.025,-38384.402,-17136.639,56396.65
1319107.339954536,-86663.05,-81026.25,22316.0,-23055.664,20497.559,-38385.05,-17140.992,56381.473
1319107.3439545303,-86662.27,-81027.63,22311.85,-23056.723,20502.93,-38384.195,-17141.357,56384.81
1319107.3479545247,-86663.66,-81022.625,22324.26,-23048.178,20514.852,-38383.586,-17139.771,56393.637
1319107.3519545188,-86674.36,-81021.164,22336.182,-23041.016,20524.578,-38383.504,-17134.441,56403.527
1319107.3559545132,-86674.93,-81014.81,22328.004,-23044.76,20520.184,-38382.57,-17132.324,56397.383
1319107.3599545076,-86672.125,-81010.945,22314.861,-23053.264,20499.635,-38383.344,-17137.248,56382.164
1319107.363954502,-86663.695,-81020.34,22310.344,-23053.834,20495.32,-38384.195,-17142.01,56377.727
1319107.3679544963,-86661.91,-81021.28,22322.795,-23046.754,20516.521,-38383.344,-17143.596,56380.453
1319107.3719544907,-86657.96,-81019.05,22338.95,-23038.656,20532.268,-38382.61,-17138.957,56386.07
1319107.375954485,-86660.24,-81022.055,22332.236,-23044.842,20517.457,-38385.254,-17135.58,56390.832
1319107.3799544794,-86677.25,-81034.1,22313.355,-23057.496,20499.227,-38386.516,-17139.934,56375.164
1319107.3839544738,-86679.69,-81036.54,22308.146,-23057.902,20499.676,-38386.027,-17141.766,56368.45
1319107.3879544681,-86667.32,-81026.2,22321.412,-23047.16,20513.957,-38385.336,-17139.324,56379.926
1319107.3919544625,-86658.57,-81021.65,22341.594,-23038.494,20525.838,-38383.426,-17134.604,56391.727
1319107.3959544569,-86661.7,-81033.125,22336.02,-23044.719,20519.328,-38382.855,-17133.424,56391.32
1319107.3999544512,-86682.82,-81028.93,22318.482,-23054.484,20497.762,-38385.867,-17140.26,56373.414
1319107.4039544456,-86677.53,-81025.84,22318.156,-23054.404,20495.89,-38387.574,-17145.875,56357.42
1319107.40795444,-86666.71,-81025.96,22331.055,-23046.225,20517.537,-38385.99,-17143.84,56365.074
1319107.4119544344,-86652.06,-81021.28,22344.89,-23037.395,20529.826,-38382.855,-17136.19,56384.24
1319107.4159544287,-86652.51,-81030.11,22338.908,-23042.318,20515.38,-38384.562,-17135.174,56387.695
1319107.419954423,-86657.96,-81031.45,22326.172,-23053.143,20495.85,-38386.68,-17139.852,56370.527
1319107.4239544175,-86662.31,-81025.72,22324.912,-23054.363,20501.018,-38385.01,-17141.357,56366.54
1319107.4279544118,-86662.27,-81022.22,22338.828,-23043.58,20520.955,-38382.49,-17138.021,56379.03
1319107.4319544062,-86655.93,-81022.75,22351.523,-23037.965,20536.336,-38381.594,-17130.33,56388.836
1319107.4359544006,-86652.875,-81014.65,22343.262,-23044.11,20520.06,-38381.062,-17126.1,56389.04
1319107.439954395,-86661.13,-81021.08,22323.73,-23052.451,20505.818,-38380.902,-17126.629,56384.44
1319107.4439543893,-86667.69,-81016.93,22325.195,-23052.246,20506.756,-38378.785,-17124.838,56389.977
1319107.4479543837,-86672.65,-81007.24,22343.914,-23043.092,20523.479,-38377.89,-17125.57,56388.715
1319107.451954378,-86644.78,-81005.945,22362.834,-23035.564,20532.105,-38377.484,-17121.746,56391.848
1319107.4559543724,-86644.734,-81012.45,22353.557,-23041.22,20518.514,-38376.426,-17118.328,56397.055
1319107.4599543668,-86646.164,-81015.79,22334.148,-23052.246,20504.72,-38377.645,-17123.047,56386.19
1319107.4639543612,-86643.35,-81015.14,22334.19,-23052.775,20508.26,-38376.953,-17123.129,56386.76
1319107.4679543555,-86639.734,-81009.69,22345.135,-23043.01,20520.143,-38374.715,-17121.014,56393.066
1319107.47195435,-86638.555,-81008.22,22351.93,-23037.273,20538.86,-38373.902,-17117.596,56405.152
1319107.4759543443,-86639.77,-81010.46,22346.518,-23041.83,20527.873,-38373.902,-17113.525,56408.613
1319107.4799543386,-86645.67,-81012.45,22330.771,-23052.246,20505.941,-38375.285,-17115.682,56393.11
1319107.483954333,-86654.95,-81011.4,22328.695,-23055.258,20503.377,-38375.49,-17117.92,56392.5
1319107.4879543274,-86660.93,-81007.57,22345.541,-23047.812,20517.62,-38372.56,-17115.275,56395.508
1319107.4919543217,-86648.234,-81004.6,22363.852,-23041.22,20528.564,-38368.004,-17104.371,56413.74
1319107.495954316,-86637.25,-81007.98,22362.59,-23047.852,20516.684,-38365.97,-17098.512,56421.145
1319107.4999543105,-86641.445,-81015.18,22345.379,-23057.902,20503.582,-38366.336,-17102.133,56410.93
1319107.5039543048,-86650.59,-81023.69,22340.902,-23057.373,20500.936,-38366.254,-17105.957,56398.6
1319107.5079542992,-86657.96,-81022.586,22355.795,-23048.504,20520.549,-38366.05,-17104.94,56404.992
1319107.5119542936,-86637.05,-80998.01,22370.85,-23039.062,20546.834,-38368.004,-17104.371,56414.188
1319107.515954288,-86633.42,-80994.63,22357.545,-23045.736,20537.312,-38368.98,-17107.666,56407.84
1319107.5199542823,-86645.875,-81002.98,22336.875,-23057.617,20511.883,-38368.9,-17111.328,56396.61
1319107.5239542767,-86648.805,-81014.98,22334.107,-23056.805,20519.37,-38371.258,-17115.398,56388.88
1319107.527954271,-86642.01,-81015.914,22348.35,-23047.242,20531.617,-38370.2,-17116.578,56388.754
1319107.5319542654,-86632.29,-81002.28,22365.684,-23041.953,20535.238,-38370.28,-17111.248,56398.645
1319107.5359542598,-86626.43,-81000.9,22360.557,-23045.818,20528.605,-38370.363,-17110.84,56395.957
1319107.5399542542,-86638.96,-81002.0,22348.797,-23055.096,20511.842,-38370.73,-17114.096,56381.594
1319107.5439542485,-86651.86,-81004.11,22347.047,-23055.42,20508.992,-38370.688,-17114.543,56376.387
1319107.547954243,-86643.92,-81002.16,22362.469,-23044.516,20530.518,-38370.445,-17115.154,56384.074
1319107.5519542373,-86636.56,-81003.26,22372.314,-23041.424,20536.744,-38368.816,-17108.236,56394.86
1319107.5559542316,-86634.16,-81010.26,22364.38,-23045.818,20527.426,-38368.082,-17102.703,56397.87
1319107.559954226,-86635.625,-81008.38,22350.424,-23052.734,20510.945,-38368.492,-17103.436,56397.258
1319107.5639542204,-86639.37,-81011.516,22347.453,-23053.752,20513.55,-38368.652,-17105.795,56394.86
1319107.5679542148,-86630.945,-81005.05,22361.004,-23045.98,20531.129,-38368.082,-17104.736,56401.9
1319107.5719542091,-86620.69,-80999.63,22371.746,-23039.186,20544.393,-38366.496,-17098.512,56416.383
1319107.5759542035,-86623.984,-81000.25,22365.154,-23044.23,20533.57,-38365.438,-17093.506,56419.273
1319107.5799541976,-86631.15,-81008.586,22345.947,-23054.16,20513.836,-38366.945,-17095.012,56411.906
1319107.583954192,-86634.24,-81005.01,22346.844,-23053.428,20509.645,-38368.777,-17096.924,56408.246
1319107.5879541864,-86629.16,-80999.31,22367.799,-23044.8,20532.146,-38366.54,-17093.75,56416.992
1319107.5919541807,-86625.37,-80989.34,22380.535,-23037.559,20549.44,-38364.504,-17087.24,56431.316
1319107.595954175,-86622.56,-80986.9,22373.088,-23044.922,20536.336,-38362.633,-17081.87,56433.434
1319107.5999541695,-86636.234,-80994.51,22358.725,-23053.387,20518.678,-38363.77,-17085.328,56422.082
1319107.6039541638,-86633.99,-81002.85,22357.016,-23053.02,20517.945,-38366.66,-17092.652,56410.645
1319107.6079541582,-86620.73,-80988.85,22371.502,-23040.203,20537.842,-38364.707,-17091.717,56413.78
1319107.6119541526,-86621.55,-80984.87,22384.766,-23033.408,20553.67,-38362.918,-17087.24,56423.79
1319107.615954147,-86618.45,-80989.305,22377.85,-23039.715,20540.08,-38363.895,-17086.223,56421.67
