timestamp,Fp1,Fp2,F3,Fz,F4,Cz,Pz,Oz
1318412.6089332153,-102020.1,-99776.125,-20167.645,-17714.152,-18828.166,-32927.004,-17256.836,10799.113
1318412.6129332096,-102020.63,-99776.49,-20165.895,-17715.535,-18829.225,-32929.16,-17258.545,10797.282
1318412.616933204,-102009.89,-99766.6,-20160.564,-17711.305,-18822.836,-32927.41,-17258.545,10799.887
1318412.6209331984,-102000.82,-99757.125,-20157.309,-17707.967,-18816.082,-32926.473,-17256.307,10803.345
1318412.6249331927,-102003.055,-99763.35,-20159.547,-17709.025,-18819.662,-32926.96,-17254.395,10801.758
1318412.628933187,-102019.01,-99775.64,-20165.162,-17713.094,-18827.352,-32928.793,-17254.598,10793.986
1318412.6329331815,-102032.59,-99781.375,-20166.424,-17716.35,-18828.045,-32930.094,-17255.168,10794.597
1318412.6369331758,-102021.33,-99771.98,-20158.488,-17711.996,-18818.562,-32928.71,-17256.145,10795.939
1318412.6409331702,-102006.48,-99764.9,-20153.28,-17708.21,-18814.576,-32928.55,-17256.836,10796.306
1318412.6449331646,-102006.92,-99770.06,-20155.396,-17709.84,-18819.865,-32928.914,-17256.43,10794.312
1318412.648933159,-102016.56,-99775.64,-20163.086,-17714.275,-18825.521,-32931.277,-17256.186,10790.894
1318412.6529331533,-102022.664,-99775.92,-20166.912,-17715.617,-18829.184,-32932.7,-17259.115,10789.836
1318412.6569331477,-102019.53,-99769.695,-20166.871,-17713.543,-18825.115,-32933.473,-17260.133,10796.143
1318412.660933142,-102006.02,-99765.14,-20161.906,-17707.764,-18812.664,-32932.047,-17260.092,10800.415
1318412.6649331364,-102001.43,-99766.89,-20161.174,-17707.764,-18812.703,-32934.0,-17256.633,10800.293
1318412.6689331308,-102016.28,-99774.87,-20166.057,-17714.314,-18823.69,-32935.223,-17254.883,10796.753
1318412.6729331252,-102023.6,-99780.32,-20167.562,-17715.496,-18829.834,-32936.77,-17258.545,10791.667
1318412.6769331195,-102017.54,-99776.05,-20165.242,-17712.158,-18829.834,-32938.316,-17260.945,10792.318
1318412.680933114,-102005.66,-99769.375,-20160.645,-17706.666,-18826.863,-32939.13,-17259.889,10796.875
1318412.6849331083,-102006.59,-99773.12,-20163.25,-17708.822,-18827.393,-32940.348,-17259.074,10794.841
1318412.6889331026,-102023.805,-99784.914,-20170.451,-17715.902,-18832.887,-32942.547,-17259.318,10792.074
1318412.692933097,-102029.26,-99786.13,-20169.678,-17718.1,-18832.764,-32942.71,-17255.006,10795.98
1318412.6969330914,-102017.055,-99776.21,-20165.447,-17715.496,-18828.248,-32941.977,-17256.348,10801.433
1318412.7009330858,-102003.75,-99769.53,-20163.453,-17711.06,-18827.19,-32942.586,-17259.48,10802.165
1318412.7049330801,-102007.0,-99774.055,-20166.992,-17713.95,-18830.934,-32943.81,-17260.377,10796.143
1318412.7089330745,-102023.766,-99783.9,-20170.125,-17717.244,-18835.246,-32944.418,-17259.115,10792.5625
1318412.7129330689,-102033.734,-99789.96,-20172.893,-17718.506,-18837.158,-32946.74,-17262.248,10788.9
1318412.7169330632,-102028.61,-99785.61,-20173.584,-17717.082,-18831.543,-32947.957,-17266.805,10789.185
1318412.7209330576,-102018.11,-99776.77,-20172.04,-17713.502,-18824.951,-32946.25,-17263.754,10796.997
1318412.724933052,-102015.55,-99776.164,-20172.04,-17713.867,-18824.951,-32946.004,-17258.545,10800.009
1318412.7289330463,-102029.664,-99784.71,-20177.654,-17718.344,-18833.008,-32947.715,-17257.568,10799.561
1318412.7329330407,-102040.53,-99790.086,-20182.455,-17719.809,-18835.816,-32948.203,-17259.766,10797.363
1318412.736933035,-102029.99,-99781.45,-20179.525,-17716.229,-18826.498,-32945.76,-17257.568,10799.683
1318412.7409330294,-102012.945,-99769.82,-20175.537,-17710.408,-18820.191,-32943.156,-17252.686,10806.234
1318412.7449330238,-102014.85,-99774.945,-20176.555,-17710.979,-18822.592,-32942.996,-17250.855,10805.38
1318412.7489330182,-102028.484,-99784.305,-20179.932,-17715.902,-18830.69,-32944.38,-17251.75,10797.648
1318412.7529330126,-102033.164,-99783.0,-20179.973,-17715.82,-18829.225,-32945.23,-17252.889,10795.166
1318412.756933007,-102021.164,-99768.64,-20172.852,-17710.328,-18819.012,-32943.688,-17251.385,10798.828
1318412.7609330013,-102006.19,-99754.44,-20166.83,-17705.852,-18813.924,-32941.773,-17250.936,10799.072
1318412.7649329957,-102010.79,-99758.1,-20169.719,-17706.463,-18820.842,-32942.14,-17248.617,10794.027
1318412.76893299,-102025.516,-99775.27,-20176.31,-17710.246,-18825.928,-32941.812,-17247.314,10791.545
1318412.7729329844,-102033.53,-99777.96,-20179.443,-17710.979,-18826.945,-32940.918,-17247.844,10789.429
1318412.7769329788,-102027.67,-99770.43,-20176.96,-17709.229,-18819.906,-32938.844,-17249.512,10789.145
1318412.7809329731,-102015.67,-99762.78,-20172.486,-17705.975,-18813.396,-32936.973,-17249.512,10789.795
1318412.7849329675,-102013.67,-99767.54,-20173.625,-17706.258,-18818.035,-32939.25,-17252.197,10783.569
1318412.7889329619,-102019.21,-99773.805,-20179.322,-17710.693,-18824.91,-32942.383,-17254.477,10778.931
1318412.7929329562,-102025.27,-99773.484,-20181.682,-17710.979,-18824.098,-32943.156,-17255.047,10779.338
1318412.7969329506,-102015.14,-99767.01,-20178.264,-17707.234,-18816.121,-32940.96,-17251.22,10788.778
1318412.800932945,-102005.086,-99763.43,-20171.875,-17702.963,-18812.5,-32939.21,-17247.559,10794.719
1318412.8049329394,-102010.13,-99771.81,-20173.625,-17705.81,-18816.488,-32938.355,-17248.088,10793.783
1318412.8089329337,-102026.53,-99783.57,-20181.234,-17712.89,-18824.422,-32940.43,-17248.494,10792.48
1318412.812932928,-102035.73,-99784.67,-20183.39,-17712.973,-18829.305,-32941.734,-17248.088,10792.807
1318412.8169329222,-102021.445,-99771.445,-20178.67,-17706.137,-18818.074,-32940.96,-17249.715,10796.469
1318412.8209329166,-102007.37,-99761.72,-20174.602,-17703.29,-18809.45,-32940.88,-17252.482,10797.812
1318412.824932911,-102006.68,-99766.32,-20176.84,-17706.666,-18814.453,-32939.984,-17248.088,10796.672
1318412.8289329053,-102022.75,-99776.21,-20182.576,-17711.955,-18822.225,-32939.414,-17243.734,10799.316
1318412.8329328997,-102037.56,-99780.4,-20189.656,-17713.908,-18822.754,-32941.406,-17246.582,10798.259
1318412.836932894,-102028.65,-99770.35,-20188.07,-17708.904,-18810.955,-32939.37,-17245.564,10802.979
1318412.8409328884,-102009.65,-99755.91,-20183.514,-17705.322,-18804.078,-32937.46,-17239.746,10811.076
1318412.8449328828,-102010.87,-99760.46,-20187.012,-17709.84,-18812.176,-32938.6,-17238.525,10810.181
1318412.8489328772,-102027.75,-99770.15,-20191.53,-17714.479,-18820.72,-32941.367,-17240.234,10805.014
1318412.8529328716,-102031.945,-99769.86,-20191.203,-17715.008,-18820.477,-32941.0,-17239.258,10804.159
1318412.856932866,-102020.39,-99761.44,-20185.547,-17710.164,-18811.32,-32939.008,-17235.516,10811.89
1318412.8609328603,-102004.73,-99752.85,-20179.688,-17706.258,-18803.914,-32936.65,-17231.73,10819.255
1318412.8649328547,-102007.45,-99760.22,-20184.652,-17709.432,-18810.385,-32935.75,-17229.777,10819.458
1318412.868932849,-102040.81,-99784.06,-20200.562,-17718.344,-18821.86,-32937.582,-17231.648,10811.972
1318412.8729328434,-102040.734,-99780.84,-20198.201,-17717.041,-18821.9,-32938.844,-17232.504,10808.838
1318412.8769328378,-101991.945,-99740.97,-20177.816,-17704.549,-18810.588,-32943.484,-17238.607,10804.77
1318412.8809328321,-101975.43,-99725.305,-20171.266,-17699.422,-18806.234,-32944.38,-17242.676,10805.136
1318412.8849328265,-101979.86,-99726.766,-20172.975,-17701.66,-18809.082,-32944.62,-17243.123,10801.2295
1318412.8889328209,-101983.766,-99723.35,-20176.229,-17705.648,-18814.209,-32946.86,-17246.176,10794.394
1318412.8929328152,-101990.36,-99723.516,-20179.852,-17706.258,-18818.28,-32948.773,-17247.6,10792.807
1318412.8969328096,-101971.07,-99716.27,-20173.219,-17701.54,-18811.117,-32948.0,-17244.588,10796.469
1318412.900932804,-101958.984,-99702.68,-20165.691,-17697.021,-18807.82,-32946.332,-17241.09,10799.194
1318412.9049327984,-101954.43,-99708.21,-20164.43,-17698.934,-18810.588,-32949.06,-17242.635,10793.62
1318412.9089327927,-101959.03,-99721.36,-20170.818,-17703.857,-18820.68,-32952.23,-17243.205,10793.986
1318412.912932787,-101970.55,-99725.34,-20170.98,-17703.328,-18823.486,-32951.99,-17240.805,10797.241
1318412.9169327815,-101965.62,-99720.625,-20167.277,-17700.684,-18820.232,-32949.098,-17238.322,10799.805
1318412.9209327758,-101960.53,-99716.88,-20163.209,-17700.766,-18819.133,-32947.062,-17235.434,10808.554
1318412.9249327702,-101967.66,-99724.695,-20165.771,-17704.305,-18826.986,-32948.69,-17234.09,10808.105
1318412.9289327646,-101980.63,-99734.87,-20169.719,-17708.21,-18833.984,-32949.06,-17233.44,10804.81
1318412.932932759,-101990.12,-99742.48,-20170.086,-17711.264,-18836.629,-32949.383,-17234.13,10804.403
1318412.9369327533,-101982.55,-99735.35,-20165.812,-17708.416,-18830.486,-32947.227,-17231.527,10809.855
1318412.9409327477,-101966.64,-99725.71,-20162.068,-17704.957,-18824.707,-32944.05,-17226.604,10817.668
1318412.944932742,-101968.18,-99732.95,-20165.527,-17706.625,-18832.56,-32943.402,-17224.162,10817.465
1318412.9489327364,-101985.07,-99745.734,-20172.404,-17710.896,-18842.938,-32944.094,-17223.959,10813.232
1318412.9529327308,-101998.17,-99749.19,-20173.992,-17712.158,-18845.215,-32942.996,-17222.088,10815.1455
1318412.9569327252,-101984.58,-99738.2,-20169.8,-17708.984,-18838.258,-32942.465,-17222.78,10815.471
1318412.9609327195,-101968.55,-99732.1,-20166.79,-17704.428,-18829.834,-32942.14,-17222.088,10813.925
1318412.964932714,-101969.16,-99739.875,-20167.725,-17708.049,-18838.135,-32942.465,-17219.32,10811.564
1318412.9689327083,-101984.664,-99751.836,-20171.55,-17712.078,-18845.947,-32943.2,-17218.791,10805.502
1318412.9729327026,-102000.62,-99759.195,-20178.508,-17714.314,-18844.158,-32944.664,-17223.104,10801.514
1318412.976932697,-101995.94,-99755.13,-20178.346,-17710.816,-18838.867,-32946.453,-17225.506,10802.328
1318412.9809326914,-101981.41,-99743.21,-20171.713,-17704.916,-18837.729,-32945.965,-17223.186,10808.96
1318412.9849326857,-101986.29,-99749.35,-20175.008,-17707.967,-18840.576,-32944.703,-17218.262,10812.622
1318412.98893268,-102009.73,-99761.15,-20181.234,-17713.217,-18847.332,-32944.785,-17217.611,10809.937
1318412.9929326745,-102010.83,-99762.125,-20182.781,-17713.705,-18848.918,-32945.152,-17220.947,10801.025
1318412.9969326688,-101998.87,-99753.26,-20179.402,-17709.148,-18841.473,-32944.824,-17224.568,10800.293
1318413.0009326632,-101984.055,-99743.94,-20173.299,-17704.51,-18833.578,-32944.38,-17224.895,10806.4375
1318413.0049326576,-101982.47,-99744.8,-20175.049,-17706.258,-18837.361,-32946.414,-17225.912,10806.234
1318413.008932652,-101996.95,-99757.734,-20184.326,-17710.125,-18839.152,-32949.832,-17227.336,10803.996
1318413.0129326463,-102007.04,-99759.766,-20186.158,-17710.45,-18839.396,-32951.09,-17227.498,10805.38
1318413.0169326407,-101995.08,-99748.09,-20179.078,-17705.934,-18832.967,-32949.87,-17223.389,10813.64
1318413.020932635,-101981.98,-99740.56,-20172.934,-17701.254,-18827.148,-32946.004,-17215.535,10822.307
1318413.0249326294,-101982.875,-99743.086,-20173.787,-17702.23,-18831.258,-32945.598,-17210.043,10821.655
1318413.0289326238,-101997.69,-99750.734,-20177.45,-17704.305,-18838.46,-32949.3,-17209.96,10814.779
1318413.0329326182,-102003.75,-99752.65,-20178.752,-17702.922,-18836.508,-32950.727,-17210.408,10816.447
1318413.0369326125,-101993.37,-99744.76,-20172.771,-17699.79,-18832.602,-32950.195,-17211.467,10816.447
1318413.040932607,-101980.02,-99739.46,-20165.486,-17696.492,-18830.852,-32948.285,-17209.514,10818.481
1318413.044932601,-101979.86,-99742.88,-20166.912,-17698.201,-18835.979,-32946.535,-17205.852,10822.185
1318413.0489325954,-101994.02,-99754.27,-20172.648,-17701.457,-18842.0,-32947.715,-17206.014,10818.645
1318413.0529325898,-102002.52,-99758.79,-20177.166,-17700.36,-18839.844,-32947.51,-17206.99,10813.437
1318413.0569325841,-101993.9,-99752.28,-20173.625,-17695.842,-18833.375,-32946.617,-17207.887,10814.738
1318413.0609325785,-101979.375,-99745.37,-20170.33,-17692.506,-18827.8,-32947.47,-17206.666,10820.964
1318413.064932573,-101980.63,-99750.33,-20173.26,-17693.97,-18832.52,-32947.39,-17204.957,10820.557
1318413.0689325673,-102003.625,-99761.195,-20180.014,-17699.91,-18842.938,-32947.633,-17205.486,10815.063
1318413.0729325616,-102012.17,-99763.875,-20181.967,-17701.375,-18847.088,-32946.777,-17205.201,10815.39
1318413.076932556,-101998.375,-99753.87,-20175.66,-17697.633,-18841.594,-32945.76,-17202.027,10820.761
1318413.0809325504,-101984.016,-99741.055,-20168.621,-17691.406,-18832.154,-32943.645,-17198.975,10828.085
1318413.0849325447,-101986.17,-99743.49,-20172.242,-17691.53,-18833.984,-32944.785,-17198.445,10825.969
1318413.088932539,-102002.61,-99752.69,-20181.234,-17694.865,-18840.17,-32945.844,-17200.848,10817.221
1318413.0929325335,-102010.42,-99758.266,-20185.791,-17697.145,-18841.676,-32946.004,-17202.76,10814.697
1318413.0969325278,-101997.64,-99747.56,-20183.146,-17692.424,-18831.096,-32944.664,-17201.092,10819.458
1318413.1009325222,-101983.89,-99741.984,-20179.729,-17688.355,-18823.568,-32942.914,-17199.627,10821.086
1318413.1049325166,-101984.83,-99749.64,-20181.438,-17692.547,-18831.746,-32943.727,-17197.021,10818.97
1318413.108932511,-101995.0,-99758.67,-20184.002,-17696.656,-18839.111,-32945.395,-17198.04,10815.715
1318413.1129325053,-102005.25,-99759.89,-20183.35,-17696.168,-18839.682,-32947.184,-17199.057,10816.8545
1318413.1169324997,-101998.25,-99749.23,-20178.305,-17690.918,-18830.975,-32949.42,-17202.312,10815.878
1318413.120932494,-101980.96,-99742.68,-20176.88,-17687.053,-18822.754,-32948.49,-17203.736,10817.627
1318413.1249324884,-101980.266,-99746.55,-20178.346,-17688.64,-18825.521,-32948.406,-17202.84,10812.826
1318413.1289324828,-101992.27,-99754.88,-20182.537,-17691.041,-18834.229,-32948.0,-17203.613,10809.123
1318413.1329324772,-101995.484,-99755.82,-20184.408,-17691.406,-18834.676,-32948.773,-17206.666,10806.763
1318413.1369324715,-101983.6,-99745.98,-20178.467,-17688.191,-18828.613,-32948.773,-17207.684,10808.92
1318413.140932466,-101972.78,-99737.836,-20174.56,-17685.588,-18825.725,-32948.49,-17206.299,10812.622
1318413.1449324603,-101977.664,-99742.76,-20176.922,-17685.629,-18824.748,-32950.93,-17210.287,10802.612
1318413.1489324546,-101992.44,-99753.18,-20178.508,-17689.861,-18829.834,-32952.066,-17210.328,10800.009
1318413.152932449,-101998.05,-99752.28,-20176.84,-17689.9,-18830.242,-32951.297,-17208.21,10803.427
1318413.1569324434,-101989.664,-99747.03,-20175.863,-17685.547,-18827.557,-32951.906,-17209.88,10802.694
1318413.1609324377,-101974.9,-99744.836,-20172.934,-17680.95,-18821.777,-32950.523,-17210.652,10806.193
1318413.1649324321,-101978.84,-99748.336,-20174.316,-17682.576,-18825.236,-32949.79,-17207.398,10808.228
1318413.1689324265,-101996.3,-99760.46,-20179.973,-17687.135,-18834.596,-32952.637,-17208.252,10803.427
1318413.1729324209,-102000.77,-99759.41,-20181.072,-17688.152,-18836.346,-32953.86,-17209.025,10804.729
1318413.1769324152,-101985.44,-99745.24,-20174.072,-17683.146,-18829.387,-32951.785,-17207.764,10809.855
1318413.1809324096,-101968.305,-99736.21,-20168.945,-17678.508,-18823.812,-32950.523,-17208.74,10811.361
1318413.184932404,-101971.27,-99742.27,-20173.463,-17680.787,-18826.254,-32949.06,-17208.252,10809.001
1318413.1889323983,-101985.234,-99753.26,-20179.2,-17686.646,-18833.172,-32950.277,-17206.178,10808.798
1318413.1929323927,-101986.945,-99749.35,-20178.264,-17686.238,-18831.422,-32948.895,-17200.848,10814.331
1318413.196932387,-101976.32,-99741.336,-20176.88,-17684.408,-18826.62,-32947.633,-17199.79,10818.034
1318413.2009323814,-101963.14,-99733.12,-20173.91,-17681.479,-18824.586,-32947.062,-17200.969,10819.214
1318413.2049323758,-101968.836,-99737.92,-20177.775,-17683.594,-18825.154,-32948.082,-17200.277,10817.505
1318413.2089323702,-101982.875,-99749.23,-20182.537,-17687.459,-18831.219,-32947.633,-17199.707,10814.453
1318413.2129323645,-101986.66,-99751.75,-20183.96,-17686.564,-18830.975,-32949.707,-17200.643,10813.518
1318413.216932359,-101979.82,-99746.71,-20180.623,-17683.594,-18826.05,-32950.523,-17202.312,10812.866
1318413.2209323533,-101974.734,-99744.67,-20178.549,-17682.861,-18822.877,-32950.93,-17203.004,10809.489
1318413.2249323477,-101982.99,-99755.5,-20182.414,-17685.303,-18828.777,-32949.668,-17202.107,10807.943
1318413.228932342,-101994.8,-99765.1,-20187.012,-17689.861,-18834.717,-32949.79,-17199.178,10808.716
1318413.2329323364,-102001.59,-99767.3,-20189.982,-17690.309,-18834.88,-32949.707,-17198.201,10809.286
1318413.2369323308,-101991.336,-99757.45,-20185.467,-17684.896,-18827.271,-32949.42,-17200.195,10810.669
1318413.2409323251,-101973.92,-99745.04,-20179.688,-17680.787,-18819.662,-32950.32,-17201.01,10813.151
1318413.2449323195,-101974.734,-99746.14,-20181.764,-17681.805,-18821.248,-32954.227,-17204.469,10802.368
1318413.2489323139,-101989.38,-99750.94,-20187.094,-17684.693,-18832.56,-32958.254,-17209.229,10796.875
1318413.2529323082,-101994.67,-99755.74,-20189.494,-17686.158,-18831.828,-32957.645,-17208.7,10804.159
1318413.2569323026,-101982.586,-99751.266,-20184.002,-17682.373,-18822.633,-32956.3,-17204.428,10810.344
1318413.260932297,-101968.836,-99740.766,-20177.898,-17677.898,-18820.191,-32956.137,-17203.654,10814.575
1318413.2649322913,-101972.086,-99743.125,-20176.434,-17676.27,-18823.365,-32955.85,-17202.271,10811.401
1318413.2689322857,-101991.945,-99752.77,-20185.223,-17680.95,-18831.543,-32956.625,-17199.383,10812.5
1318413.2729322799,-102002.04,-99761.15,-20190.186,-17684.773,-18838.338,-32958.66,-17202.475,10810.995
1318413.2769322742,-101990.89,-99757.37,-20187.867,-17681.64,-18833.863,-32961.223,-17208.049,10806.112
1318413.2809322686,-101980.67,-99749.92,-20187.338,-17677.654,-18829.102,-32961.266,-17207.275,10809.367
1318413.284932263,-101987.8,-99753.46,-20191.854,-17680.705,-18831.014,-32961.266,-17205.566,10808.472
1318413.2889322573,-102002.445,-99764.24,-20200.318,-17684.45,-18838.99,-32963.34,-17210.816,10798.584
1318413.2929322517,-102010.664,-99764.695,-20202.107,-17684.367,-18839.559,-32963.625,-17210.531,10799.805
1318413.296932246,-102003.26,-99756.43,-20195.76,-17679.646,-18828.533,-32960.777,-17208.62,10804.851
1318413.3009322404,-101994.47,-99750.98,-20192.22,-17675.334,-18822.389,-32960.652,-17209.473,10802.775
1318413.3049322348,-101992.96,-99755.29,-20194.459,-17675.984,-18826.863,-32960.367,-17207.52,10799.927
1318413.3089322292,-102004.48,-99762.9,-20197.713,-17679.443,-18836.14,-32960.816,-17204.793,10799.276
1318413.3129322235,-102009.445,-99764.08,-20197.754,-17679.729,-18836.102,-32961.184,-17204.06,10800.741
1318413.316932218,-101995.81,-99752.69,-20193.727,-17675.09,-18826.945,-32962.2,-17206.746,10800.903
1318413.3209322123,-101982.75,-99743.414,-20191.041,-17671.469,-18824.139,-32963.094,-17206.463,10803.752
1318413.3249322067,-101986.25,-99747.27,-20194.54,-17675.863,-18830.281,-32962.81,-17204.63,10804.729
1318413.328932201,-102001.06,-99756.88,-20194.783,-17679.525,-18837.158,-32964.113,-17204.549,10800.944
1318413.3329321954,-102008.836,-99761.72,-20193.97,-17678.996,-18837.2,-32964.07,-17203.857,10800.009
1318413.3369321898,-102004.73,-99759.484,-20194.377,-17676.758,-18834.84,-32961.875,-17203.125,10809.123
1318413.3409321841,-101996.18,-99756.11,-20189.982,-17673.748,-18833.09,-32959.434,-17197.795,10820.15
1318413.3449321785,-102000.49,-99761.97,-20193.93,-17676.678,-18840.414,-32959.11,-17193.97,10822.836
1318413.3489321729,-102017.625,-99772.625,-20201.54,-17682.332,-18847.25,-32960.695,-17194.174,10821.493
1318413.3529321672,-102025.8,-99771.89,-20206.34,-17683.064,-18849.244,-32960.45,-17194.5,10819.458
1318413.3569321616,-102014.445,-99761.44,-20200.236,-17677.979,-18837.525,-32958.824,-17195.516,10819.296
1318413.360932156,-101999.27,-99755.29,-20197.55,-17675.213,-18830.852,-32960.004,-17200.277,10814.128
1318413.3649321503,-102006.92,-99761.03,-20204.834,-17677.898,-18834.473,-32964.152,-17204.834,10801.84
1318413.3689321447,-102017.91,-99764.98,-20207.764,-17678.875,-18842.732,-32963.42,-17201.945,10802.612
1318413.372932139,-102021.85,-99763.8,-20205.566,-17679.078,-18844.361,-32963.137,-17199.463,10805.095
1318413.3769321335,-102013.23,-99756.96,-20202.068,-17674.195,-18835.693,-32963.258,-17200.969,10804.892
1318413.3809321278,-101997.97,-99753.79,-20198.73,-17671.062,-18829.916,-32963.176,-17201.58,10802.246
1318413.3849321222,-102001.23,-99755.74,-20200.643,-17673.299,-18835.775,-32964.234,-17199.79,10799.398
1318413.3889321166,-102016.97,-99762.336,-20204.998,-17678.06,-18844.076,-32965.09,-17197.104,10803.386
1318413.392932111,-102027.836,-99767.7,-20208.008,-17678.264,-18841.512,-32964.438,-17195.965,10808.146
1318413.3969321053,-102020.51,-99763.35,-20208.375,-17674.887,-18835.205,-32964.195,-17197.51,10806.885
1318413.4009320997,-102004.68,-99752.69,-20201.986,-17672.078,-18829.021,-32962.81,-17194.256,10811.401
1318413.404932094,-102004.97,-99755.78,-20203.125,-17673.219,-18835.613,-32963.34,-17191.936,10810.832
1318413.4089320884,-102016.56,-99763.555,-20203.94,-17674.357,-18839.193,-32963.543,-17192.139,10809.042
1318413.4129320828,-102023.89,-99764.41,-20202.271,-17673.504,-18840.455,-32965.74,-17191.365,10809.692
1318413.4169320771,-102010.13,-99756.43,-20199.342,-17668.092,-18834.27,-32965.58,-17190.43,10813.843
1318413.4209320715,-101995.2,-99748.7,-20197.713,-17666.18,-18828.207,-32963.95,-17188.885,10816.284
1318413.424932066,-101999.516,-99753.26,-20202.8,-17669.312,-18832.357,-32961.996,-17186.117,10812.338
1318413.4289320603,-102011.516,-99763.43,-20204.713,-17671.184,-18835.49,-32961.387,-17185.67,10814.087
1318413.4329320546,-102012.984,-99762.66,-20202.678,-17670.37,-18833.984,-32964.316,-17191.082,10809.896
1318413.436932049,-102000.41,-99755.05,-20198.324,-17666.748,-18829.916,-32965.984,-17194.256,10809.855
1318413.4409320434,-101984.945,-99749.23,-20194.174,-17664.062,-18826.742,-32963.34,-17190.633,10816.0
1318413.4449320377,-101983.56,-99750.45,-20197.469,-17664.55,-18827.027,-32963.867,-17187.541,10817.79
1318413.448932032,-101997.766,-99760.5,-20205.322,-17669.027,-18836.793,-32967.164,-17190.959,10816.0
1318413.4529320265,-102004.56,-99761.6,-20206.787,-17670.045,-18838.746,-32968.63,-17192.465,10817.139
1318413.4569320208,-101996.5,-99753.664,-20200.848,-17666.383,-18826.863,-32967.33,-17190.186,10823.608
1318413.4609320152,-101987.92,-99749.27,-20197.021,-17662.11,-18825.033,-32967.043,-17190.268,10825.439
1318413.4649320096,-101994.305,-99754.97,-20199.871,-17664.959,-18834.188,-32968.1,-17191.65,10822.348
1318413.468932004,-102013.02,-99762.86,-20204.998,-17668.824,-18840.658,-32968.547,-17189.576,10817.058
1318413.4729319983,-102017.664,-99763.516,-20206.34,-17667.562,-18840.088,-32969.32,-17187.256,10813.559
1318413.4769319927,-102008.51,-99757.695,-20208.172,-17665.486,-18834.27,-32967.773,-17181.111,10818.197
1318413.480931987,-102001.47,-99756.06,-20209.96,-17665.486,-18832.764,-32965.984,-17177.816,10820.639
1318413.4849319814,-102004.234,-99761.64,-20214.723,-17670.94,-18839.64,-32964.97,-17175.13,10817.058
1318413.4889319758,-102016.97,-99769.66,-20220.623,-17675.945,-18850.668,-32966.023,-17173.951,10814.779
1318413.4929319702,-102019.78,-99771.125,-20221.72,-17676.025,-18853.312,-32966.066,-17175.049,10813.3955
1318413.4969319645,-102012.74,-99765.75,-20216.023,-17671.957,-18850.262,-32964.355,-17174.316,10814.372
1318413.5009319587,-102005.29,-99756.48,-20213.176,-17669.393,-18845.215,-32964.4,-17175.213,10817.831
1318413.504931953,-102011.11,-99760.91,-20215.78,-17671.998,-18850.83,-32965.902,-17177.002,10814.372
1318413.5089319474,-102027.836,-99775.84,-20219.809,-17676.31,-18854.615,-32967.043,-17178.387,10810.669
1318413.5129319418,-102034.75,-99777.19,-20220.5,-17676.596,-18854.248,-32966.758,-17178.102,10812.256
1318413.5169319361,-102027.96,-99770.59,-20217.732,-17673.26,-18849.65,-32967.816,-17181.844,10808.146
1318413.5209319305,-102015.42,-99765.83,-20212.566,-17669.76,-18847.291,-32967.855,-17181.234,10806.926
1318413.5249319249,-102016.12,-99768.72,-20212.117,-17671.957,-18851.238,-32968.832,-17176.96,10811.198
1318413.5289319193,-102025.11,-99775.35,-20215.902,-17675.457,-18856.568,-32971.883,-17177.49,10809.123
1318413.5329319136,-102030.52,-99774.13,-20216.635,-17673.543,-18856.445,-32972.656,-17178.346,10810.019
1318413.536931908,-102019.086,-99759.766,-20209.88,-17667.36,-18849.61,-32970.664,-17174.56,10819.418
1318413.5409319024,-102003.664,-99751.914,-20201.66,-17664.227,-18844.28,-32968.387,-17169.557,10825.928
1318413.5449318967,-102007.98,-99759.04,-20202.596,-17666.016,-18852.174,-32969.523,-17167.318,10825.195
1318413.548931891,-102023.52,-99762.984,-20205.525,-17670.045,-18860.107,-32973.39,-17169.11,10820.557
1318413.5529318855,-102030.6,-99762.54,-20205.975,-17669.637,-18855.348,-32974.895,-17170.086,10820.72
1318413.5569318798,-102020.1,-99758.55,-20201.904,-17664.795,-18845.988,-32972.617,-17170.492,10824.504
1318413.5609318742,-102002.61,-99748.3,-20198.895,-17661.541,-18840.455,-32971.68,-17169.434,10827.719
1318413.5649318686,-102000.29,-99749.84,-20201.904,-17663.777,-18847.78,-32972.168,-17165.691,10828.125
1318413.568931863,-102014.85,-99757.77,-20206.422,-17665.895,-18858.154,-32971.52,-17161.012,10830.282
1318413.5729318573,-102027.67,-99764.29,-20209.393,-17667.156,-18858.277,-32970.703,-17159.506,10833.74
1318413.5769318517,-102013.266,-99753.22,-20203.533,-17661.215,-18847.006,-32970.785,-17162.03,10833.049
1318413.580931846,-101991.01,-99739.586,-20198.568,-17656.617,-18841.023,-32971.355,-17166.83,10826.05
1318413.5849318404,-101994.59,-99749.43,-20201.66,-17660.4,-18848.959,-32973.062,-17168.904,10819.174
1318413.5889318348,-102003.664,-99754.93,-20203.492,-17660.809,-18851.97,-32973.227,-17167.156,10818.197
1318413.5929318292,-102009.73,-99747.52,-20205.404,-17660.035,-18848.715,-32973.88,-17166.383,10817.993
1318413.5969318235,-101999.92,-99742.59,-20202.678,-17657.43,-18843.791,-32972.7,-17167.848,10822.0625
1318413.600931818,-101983.484,-99735.195,-20196.697,-17651.979,-18842.041,-32971.76,-17169.148,10823.08
1318413.6049318123,-101986.86,-99739.22,-20200.887,-17653.443,-18841.92,-32971.07,-17166.219,10821.899
1318413.6089318066,-102004.84,-99750.25,-20208.13,-17659.18,-18846.72,-32972.37,-17165.73,10819.011
1318413.612931801,-102021.57,-99756.15,-20216.512,-17663.045,-18852.498,-32973.473,-17172.078,10812.419
1318413.6169317954,-102022.42,-99756.63,-20216.064,-17660.93,-18847.86,-32974.61,-17175.172,10810.141
1318413.6209317897,-102005.86,-99748.414,-20208.416,-17657.635,-18842.164,-32974.203,-17173.299,10816.569
1318413.624931784,-102004.07,-99751.02,-20208.09,-17656.902,-18848.756,-32974.938,-17170.451,10816.203
1318413.6289317785,-102016.52,-99761.234,-20211.264,-17661.5,-18854.777,-32976.24,-17167.318,10818.563
1318413.6329317729,-102021.0,-99758.99,-20211.223,-17661.785,-18850.342,-32975.344,-17164.55,10824.626
1318413.6369317672,-102011.27,-99752.89,-20206.137,-17657.756,-18841.473,-32975.18,-17165.975,10825.603
1318413.6409317616,-102003.09,-99749.19,-20203.898,-17655.518,-18840.008,-32976.81,-17170.29,10823.08
1318413.644931756,-102006.72,-99752.0,-20206.014,-17658.326,-18851.521,-32977.457,-17170.818,10817.424
1318413.6489317503,-102024.3,-99766.03,-20211.467,-17661.947,-18856.08,-32978.477,-17171.672,10812.988
1318413.6529317447,-102033.94,-99769.78,-20212.646,-17663.453,-18856.242,-32978.598,-17171.998,10813.518
1318413.656931739,-102024.5,-99762.62,-20207.967,-17659.994,-18848.959,-32977.418,-17170.777,10816.977
1318413.6609317334,-102011.195,-99757.734,-20205.037,-17655.885,-18844.482,-32976.727,-17168.865,10819.499
1318413.6649317278,-102015.79,-99762.01,-20206.055,-17658.65,-18849.08,-32976.035,-17165.242,10821.289
1318413.6689317222,-102032.31,-99769.125,-20210.246,-17663.209,-18856.486,-32976.36,-17166.016,10817.424
1318413.6729317165,-102036.22,-99769.86,-20211.346,-17663.371,-18858.074,-32978.965,-17171.469,10812.256
1318413.676931711,-102024.13,-99765.99,-20207.479,-17659.832,-18851.4,-32980.023,-17173.504,10811.035
1318413.6809317053,-102009.61,-99757.37,-20205.037,-17657.146,-18844.28,-32980.715,-17173.178,10812.785
1318413.6849316997,-102013.72,-99758.99,-20210.002,-17660.523,-18847.332,-32980.51,-17170.492,10816.813
1318413.688931694,-102024.87,-99764.695,-20213.787,-17663.574,-18851.97,-32980.43,-17167.521,10819.336
1318413.6929316884,-102026.82,-99758.79,-20211.467,-17661.053,-18847.82,-32980.387,-17163.697,10822.388
1318413.6969316828,-102016.89,-99744.8,-20207.723,-17656.738,-18839.275,-32978.965,-17158.611,10830.7705
1318413.7009316771,-102005.78,-99740.234,-20205.81,-17655.314,-18832.967,-32977.54,-17158.691,10832.968
1318413.7049316715,-102008.75,-99750.66,-20210.002,-17659.18,-18837.566,-32978.19,-17160.889,10830.607
1318413.7089316659,-102017.01,-99756.836,-20215.7,-17661.662,-18846.477,-32979.207,-17162.312,10825.236
1318413.7129316602,-102020.76,-99756.48,-20215.943,-17661.092,-18844.361,-32980.184,-17165.324,10821.411
1318413.7169316546,-102016.24,-99750.41,-20212.973,-17657.635,-18834.88,-32981.445,-17165.486,10823.73
1318413.720931649,-101993.734,-99744.51,-20210.246,-17654.664,-18832.316,-32982.016,-17164.43,10829.55
1318413.7249316433,-101997.03,-99748.78,-20212.078,-17657.756,-18841.473,-32983.277,-17163.86,10830.2
1318413.7289316375,-102014.41,-99754.97,-20216.35,-17660.482,-18851.766,-32984.99,-17161.744,10826.05
1318413.7329316319,-102024.91,-99760.99,-20220.215,-17661.988,-18851.277,-32986.125,-17163.045,10819.784
1318413.7369316262,-102018.72,-99756.43,-20219.97,-17660.035,-18845.947,-32985.19,-17163.574,10821.615
1318413.7409316206,-102003.13,-99748.78,-20216.432,-17657.918,-18840.82,-32982.87,-17158.406,10828.857
1318413.744931615,-102002.61,-99750.9,-20217.45,-17659.75,-18847.656,-32983.24,-17157.227,10825.155
1318413.7489316093,-102017.22,-99759.24,-20222.82,-17663.574,-18857.463,-32985.516,-17158.977,10818.034
1318413.7529316037,-102026.66,-99765.55,-20224.854,-17665.08,-18854.94,-32989.46,-17162.8,10817.302
1318413.756931598,-102016.766,-99757.734,-20220.988,-17660.564,-18849.977,-32991.414,-17167.195,10816.284
1318413.7609315924,-102004.84,-99748.82,-20219.402,-17658.203,-18843.588,-32991.54,-17169.027,10814.738
1318413.7649315868,-102011.88,-99752.98,-20223.145,-17659.953,-18846.803,-32990.48,-17168.66,10812.134
1318413.7689315812,-102029.26,-99764.695,-20227.295,-17664.918,-18855.998,-32993.207,-17170.207,10807.943
1318413.7729315755,-102034.266,-99767.91,-20229.574,-17663.494,-18855.877,-32994.996,-17173.666,10807.211
1318413.77693157,-102023.97,-99761.195,-20225.994,-17659.18,-18850.3,-32994.957,-17174.275,10810.669
1318413.7809315643,-102009.32,-99752.57,-20220.541,-17656.17,-18844.158,-32993.043,-17170.695,10815.308
1318413.7849315586,-102010.336,-99758.95,-20220.012,-17656.291,-18845.988,-32990.723,-17166.627,10814.535
1318413.788931553,-102026.164,-99770.06,-20225.75,-17659.871,-18852.377,-32992.516,-17167.645,10809.937
1318413.7929315474,-102035.24,-99776.33,-20228.436,-17659.994,-18852.05,-32995.65,-17170.654,10805.908
1318413.7969315418,-102026.9,-99769.9,-20224.162,-17657.635,-18846.72,-32994.344,-17172.078,10806.519
1318413.8009315361,-102015.47,-99763.836,-20218.629,-17655.396,-18838.299,-32993.613,-17169.678,10812.094
1318413.8049315305,-102019.49,-99771.484,-20223.186,-17657.918,-18844.686,-32995.65,-17170.695,10807.943
1318413.8089315249,-102031.82,-99781.414,-20226.521,-17661.418,-18852.418,-32996.258,-17170.857,10806.763
1318413.8129315192,-102036.54,-99780.56,-20227.621,-17661.418,-18850.83,-32995.973,-17170.94,10805.38
1318413.8169315136,-102026.9,-99773.6,-20226.441,-17659.262,-18845.867,-32994.59,-17173.463,10802.775
1318413.820931508,-102012.086,-99766.08,-20221.518,-17654.785,-18843.75,-32994.547,-17173.504,10805.502
1318413.8249315023,-102010.87,-99767.3,-20222.127,-17655.07,-18847.412,-32995.523,-17169.963,10806.682
1318413.8289314967,-102023.4,-99773.32,-20230.348,-17660.035,-18851.482,-32998.008,-17168.58,10806.519
1318413.832931491,-102027.63,-99775.234,-20232.748,-17660.889,-18849.162,-32997.805,-17169.434,10807.536
1318413.8369314854,-102009.61,-99762.21,-20223.674,-17655.518,-18839.803,-32993.41,-17166.342,10813.151
1318413.8409314798,-101991.58,-99746.99,-20216.96,-17651.652,-18834.92,-32990.234,-17162.639,10816.61
1318413.8449314742,-101998.54,-99752.41,-20221.436,-17655.885,-18842.244,-32991.457,-17159.424,10815.837
1318413.8489314686,-102018.76,-99768.31,-20227.133,-17660.076,-18846.803,-32994.02,-17159.506,10812.541
1318413.852931463,-102018.35,-99770.06,-20226.318,-17659.383,-18846.803,-32993.734,-17159.303,10815.593
1318413.8569314573,-102002.93,-99762.82,-20223.023,-17655.965,-18838.299,-32994.508,-17161.865,10819.418
1318413.8609314517,-101995.04,-99759.195,-20222.615,-17654.785,-18835.287,-32993.855,-17162.15,10819.946
1318413.864931446,-102003.75,-99765.71,-20226.807,-17659.139,-18842.326,-32992.8,-17158.285,10820.883
1318413.8689314404,-102020.555,-99774.414,-20233.928,-17663.738,-18845.379,-32992.27,-17156.697,10820.435
1318413.8729314348,-102026.414,-99773.28,-20236.98,-17663.168,-18843.832,-32995.28,-17161.824,10818.686
1318413.8769314291,-102016.24,-99762.9,-20231.812,-17658.773,-18840.047,-32995.85,-17165.568,10817.343
1318413.8809314235,-102006.19,-99757.086,-20228.924,-17656.697,-18836.346,-32994.996,-17163.9,10816.406
1318413.8849314179,-102010.586,-99760.7,-20233.807,-17658.367,-18840.455,-32993.652,-17159.627,10819.418
1318413.8889314122,-102024.58,-99765.99,-20239.502,-17662.191,-18845.338,-32992.72,-17157.146,10820.435
1318413.8929314066,-102029.055,-99767.7,-20240.926,-17664.062,-18844.238,-32993.53,-17157.35,10821.005
1318413.896931401,-102017.3,-99761.92,-20237.225,-17659.912,-18835.287,-32992.516,-17155.396,10826.376
1318413.9009313954,-102007.94,-99755.414,-20233.033,-17656.82,-18832.479,-32993.45,-17155.64,10827.922
1318413.9049313897,-102014.41,-99762.125,-20237.184,-17658.773,-18838.338,-32994.344,-17155.396,10825.236
1318413.908931384,-102029.87,-99771.734,-20242.432,-17662.557,-18846.924,-32995.77,-17156.453,10819.54
1318413.9129313785,-102033.53,-99773.234,-20242.879,-17659.912,-18848.512,-32998.414,-17158.244,10819.255
1318413.9169313728,-102020.06,-99764.94,-20237.875,-17654.379,-18842.773,-32998.21,-17157.39,10822.104
1318413.9209313672,-102005.17,-99754.84,-20232.748,-17652.426,-18836.467,-32996.664,-17158.041,10825.114
1318413.9249313616,-102009.04,-99759.41,-20236.451,-17655.72,-18839.682,-32997.52,-17158.488,10823.08
1318413.928931356,-102022.87,-99768.35,-20241.863,-17657.918,-18847.25,-33000.125,-17160.28,10818.604
1318413.9329313503,-102028.65,-99769.125,-20240.031,-17655.477,-18845.5,-33000.816,-17160.441,10816.895
1318413.9369313447,-102025.19,-99763.47,-20238.445,-17653.402,-18841.879,-33001.832,-17163.25,10818.197
1318413.940931339,-102013.19,-99756.63,-20236.98,-17650.514,-18838.338,-33003.62,-17165.08,10815.1045
1318413.9449313334,-102010.055,-99759.61,-20235.963,-17651.734,-18840.984,-33004.723,-17162.965,10811.361
1318413.9489313278,-102022.586,-99767.83,-20238.445,-17655.885,-18847.412,-33005.168,-17164.227,10805.908
1318413.9529313222,-102026.94,-99766.97,-20236.451,-17656.006,-18846.803,-33006.797,-17168.58,10800.293
1318413.9569313163,-102020.875,-99758.55,-20233.928,-17651.611,-18840.047,-33005.94,-17171.387,10799.724
1318413.9609313107,-102012.58,-99752.89,-20230.592,-17648.967,-18836.346,-33006.633,-17171.875,10804.6875
1318413.964931305,-102015.875,-99755.62,-20231.283,-17650.758,-18841.35,-33006.266,-17168.05,10809.448
1318413.9689312994,-102034.38,-99768.15,-20238.078,-17655.885,-18849.324,-33009.523,-17168.172,10809.57
1318413.9729312938,-102040.164,-99769.86,-20242.473,-17655.72,-18847.535,-33011.355,-17168.213,10811.239
1318413.9769312881,-102030.93,-99762.375,-20240.438,-17652.547,-18840.008,-33009.766,-17166.545,10814.982
1318413.9809312825,-102022.79,-99757.125,-20237.102,-17650.676,-18832.846,-33007.45,-17161.906,10820.679
1318413.9849312769,-102024.21,-99760.17,-20239.38,-17652.264,-18837.443,-33009.44,-17158.367,10819.743
1318413.9889312712,-102048.22,-99770.555,-20246.664,-17659.953,-18849.041,-33011.273,-17159.139,10815.674
1318413.9929312656,-102044.516,-99775.96,-20248.291,-17659.588,-18848.348,-33012.74,-17162.11,10808.024
1318413.99693126,-102027.47,-99764.37,-20241.414,-17654.664,-18843.75,-33012.086,-17160.727,10810.181
1318414.0009312544,-102015.586,-99756.76,-20238.893,-17653.28,-18839.723,-33010.38,-17156.941,10814.86
1318414.0049312487,-102020.305,-99764.37,-20241.414,-17656.617,-18844.117,-33011.11,-17157.35,10813.559
1318414.008931243,-102036.42,-99774.46,-20246.42,-17661.5,-18851.562,-33011.883,-17158.855,10809.286
1318414.0129312375,-102042.81,-99777.305,-20245.729,-17662.232,-18853.15,-33012.98,-17160.686,10807.577
1318414.0169312318,-102031.21,-99767.22,-20241.252,-17658.123,-18844.97,-33011.76,-17158.244,10812.216
1318414.0209312262,-102014.57,-99763.15,-20238.078,-17653.932,-18836.305,-33010.62,-17153.973,10820.109
1318414.0249312206,-102019.086,-99774.336,-20243.367,-17658.162,-18841.92,-33010.457,-17149.822,10824.585
1318414.028931215,-102033.45,-99779.42,-20248.25,-17662.232,-18849.977,-33011.883,-17149.902,10821.086
1318414.0329312093,-102036.99,-99775.35,-20248.738,-17659.953,-18846.15,-33011.965,-17150.146,10818.808
1318414.0369312037,-102030.89,-99767.17,-20244.426,-17655.72,-18840.82,-33010.336,-17148.682,10822.551
1318414.040931198,-102022.42,-99762.74,-20239.34,-17654.297,-18841.717,-33009.117,-17145.143,10828.9795
1318414.0449311924,-102029.46,-99773.93,-20242.352,-17658.162,-18845.988,-33012.82,-17147.014,10827.8
1318414.0489311868,-102042.16,-99784.67,-20247.396,-17661.988,-18853.23,-33015.83,-17149.822,10822.958
1318414.0529311812,-102043.22,-99784.63,-20244.793,-17660.035,-18849.041,-33016.48,-17151.979,10820.923
1318414.0569311755,-102029.055,-99771.53,-20238.281,-17657.43,-18840.861,-33013.875,-17149.129,10825.236
1318414.06093117,-102014.29,-99762.01,-20236.328,-17656.291,-18834.473,-33012.492,-17146.852,10828.817
1318414.0649311643,-102022.055,-99768.11,-20241.943,-17659.018,-18843.791,-33013.754,-17146.16,10827.597
1318414.0689311586,-102040.164,-99778.65,-20249.064,-17662.312,-18853.883,-33015.992,-17148.682,10820.842
1318414.072931153,-102045.21,-99780.44,-20249.797,-17661.785,-18852.824,-33019.086,-17152.955,10816.406
1318414.0769311474,-102034.02,-99772.305,-20247.152,-17658.814,-18850.83,-33020.1,-17157.635,10817.587
1318414.0809311417,-102024.7,-99772.95,-20246.135,-17656.332,-18843.426,-33018.883,-17155.518,10820.272
1318414.084931136,-102029.46,-99781.05,-20249.635,-17660.809,-18849.732,-33020.59,-17155.518,10816.122
1318414.0889311305,-102049.445,-99792.36,-20255.818,-17665.895,-18858.033,-33023.277,-17157.797,10813.559
1318414.0929311248,-102053.35,-99794.4,-20259.156,-17664.754,-18858.318,-33024.375,-17160.604,10812.338
1318414.0969311192,-102042.4,-99787.766,-20255.535,-17661.5,-18852.662,-33023.03,-17159.262,10817.79
1318414.1009311136,-102031.87,-99781.74,-20252.197,-17661.053,-18849.244,-33018.637,-17156.414,10821.086
1318414.104931108,-102036.625,-99784.18,-20256.836,-17665.771,-18854.29,-33018.637,-17157.023,10817.587
1318414.1089311023,-102057.17,-99795.62,-20266.602,-17671.754,-18860.027,-33021.445,-17158.611,10812.419
1318414.1129310967,-102064.21,-99794.805,-20268.84,-17670.898,-18856.975,-33020.875,-17159.018,10813.029
1318414.116931091,-102050.54,-99786.42,-20264.607,-17667.521,-18848.512,-33019.9,-17155.477,10821.493
1318414.1209310854,-102036.016,-99781.45,-20261.11,-17665.447,-18842.45,-33019.53,-17154.176,10823.69
1318414.1249310798,-102039.266,-99781.78,-20263.55,-17668.295,-18848.959,-33020.71,-17154.744,10817.465
1318414.1289310742,-102056.73,-99789.92,-20268.719,-17671.754,-18858.074,-33021.934,-17156.617,10813.192
1318414.1329310685,-102060.06,-99788.66,-20266.805,-17670.654,-18858.602,-33021.61,-17157.879,10815.634
1318414.136931063,-102053.875,-99784.38,-20263.428,-17668.092,-18856.121,-33018.35,-17156.617,10821.615
1318414.1409310573,-102049.73,-99780.56,-20261.516,-17667.318,-18856.934,-33018.68,-17158.57,10821.696
1318414.1449310516,-102041.06,-99785.2,-20261.15,-17669.637,-18862.549,-33019.574,-17157.635,10818.4
1318414.148931046,-102048.914,-99789.63,-20265.137,-17671.387,-18865.193,-33021.688,-17158.082,10818.359
1318414.1529310404,-102049.4,-99782.76,-20263.387,-17669.678,-18859.13,-33022.3,-17158.447,10821.371
1318414.1569310348,-102031.74,-99766.52,-20253.459,-17664.51,-18851.033,-33020.875,-17156.576,10826.172
1318414.1609310291,-102021.125,-99759.195,-20245.525,-17661.092,-18847.494,-33021.812,-17155.803,10832.438
1318414.1649310235,-102027.02,-99770.35,-20247.926,-17663.777,-18853.191,-33022.91,-17154.582,10837.118
1318414.1689310179,-102036.99,-99776.37,-20249.064,-17666.748,-18859.01,-33020.914,-17150.555,10842.204
1318414.1729310122,-102041.75,-99776.734,-20246.826,-17665.242,-18860.678,-33021.566,-17152.182,10842.978
1318414.1769310066,-102033.49,-99766.445,-20242.717,-17662.191,-18854.29,-33021.89,-17156.047,10843.059
1318414.180931001,-102020.39,-99758.305,-20242.352,-17659.912,-18848.186,-33020.508,-17158.936,10843.71
1318414.184930995,-102028.69,-99765.51,-20245.402,-17664.348,-18852.662,-33019.9,-17159.668,10839.4375
1318414.1889309895,-102041.875,-99772.664,-20248.494,-17668.824,-18860.719,-33019.45,-17160.4,10840.129
1318414.1929309838,-102042.484,-99773.234,-20249.309,-17670.574,-18860.637,-33017.863,-17160.441,10841.024
1318414.1969309782,-102029.79,-99764.98,-20245.484,-17668.092,-18855.266,-33013.59,-17157.227,10847.29
1318414.2009309726,-102019.33,-99762.01,-20243.896,-17666.463,-18856.893,-33010.336,-17155.926,10852.214
1318414.204930967,-102022.586,-99769.58,-20244.793,-17669.557,-18862.59,-33010.742,-17158.162,10844.768
1318414.2089309613,-102036.09,-99778.32,-20249.227,-17674.316,-18866.21,-33014.566,-17162.273,10835.124
1318414.2129309557,-102045.21,-99781.54,-20251.1,-17673.666,-18870.2,-33014.566,-17164.754,10830.811
1318414.21693095,-102039.23,-99778.52,-20251.385,-17670.98,-18871.014,-33012.94,-17166.79,10829.712
1318414.2209309444,-102026.05,-99776.62,-20247.234,-17669.312,-18865.113,-33011.844,-17166.383,10834.147
1318414.2249309388,-102029.055,-99783.53,-20250.488,-17673.828,-18873.982,-33012.656,-17163.697,10831.259
1318414.2289309332,-102044.68,-99796.63,-20258.22,-17678.508,-18882.691,-33016.277,-17167.684,10821.981
1318414.2329309275,-102048.42,-99797.94,-20258.545,-17678.182,-18880.494,-33019.53,-17174.113,10814.047
1318414.236930922,-102038.7,-99786.75,-20254.191,-17672.607,-18873.902,-33021.28,-17178.06,10809.448
1318414.2409309163,-102028.98,-99780.234,-20252.97,-17669.76,-18867.596,-33023.64,-17178.508,10808.35
1318414.2449309106,-102030.4,-99787.97,-20258.545,-17672.771,-18871.297,-33026.652,-17176.148,10806.4375
1318414.248930905,-102047.94,-99800.055,-20263.225,-17674.316,-18878.174,-33030.355,-17177.328,10807.007
1318414.2529308994,-102050.87,-99799.65,-20263.307,-17672.16,-18877.4,-33032.676,-17179.322,10802.531
1318414.2569308938,-102036.22,-99791.51,-20260.213,-17667.115,-18867.635,-33031.047,-17179.037,10803.671
1318414.2609308881,-102027.43,-99776.984,-20257.283,-17664.145,-18866.049,-33030.355,-17176.393,10807.007
1318414.2649308825,-102038.54,-99782.88,-20258.342,-17666.057,-18874.594,-33032.145,-17175.66,10803.63
1318414.2689308769,-102042.32,-99792.89,-20267.01,-17668.783,-18877.727,-33033.816,-17175.457,10798.706
1318414.2729308712,-102034.95,-99784.305,-20268.88,-17667.4,-18873.78,-33033.12,-17171.957,10804.729
1318414.2769308656,-102019.58,-99774.7,-20262.615,-17663.33,-18864.217,-33033.203,-17171.266,10810.71
1318414.28093086,-102010.99,-99772.83,-20259.807,-17661.459,-18860.107,-33033.285,-17170.533,10815.227
1318414.2849308543,-102015.95,-99777.06,-20259.766,-17664.877,-18867.879,-33032.31,-17164.959,10817.709
1318414.2889308487,-102027.914,-99783.98,-20262.29,-17668.01,-18869.793,-33030.273,-17165.365,10818.726
1318414.292930843,-102031.414,-99787.56,-20261.842,-17667.604,-18867.676,-33031.008,-17168.621,10820.435
1318414.2969308374,-102021.734,-99780.36,-20256.307,-17663.656,-18863.648,-33031.453,-17171.713,10822.185
1318414.3009308318,-102008.06,-99768.555,-20249.432,-17660.523,-18855.428,-33029.543,-17166.668,10827.637
1318414.3049308262,-102010.664,-99768.15,-20252.117,-17664.266,-18861.125,-33027.1,-17159.059,10829.753
1318414.3089308206,-102021.24,-99779.016,-20261.271,-17669.19,-18865.926,-33028.24,-17161.541,10824.545
1318414.312930815,-102021.04,-99780.84,-20260.58,-17668.01,-18861.451,-33029.83,-17163.33,10825.847
1318414.3169308093,-102010.055,-99769.86,-20253.174,-17661.703,-18856.16,-33028.523,-17164.674,10830.566
1318414.3209308037,-102006.555,-99764.734,-20251.994,-17661.256,-18854.818,-33028.08,-17166.057,10828.776
1318414.324930798,-102025.76,-99776.05,-20257.65,-17667.4,-18858.113,-33030.477,-17168.416,10824.423
1318414.3289307924,-102037.03,-99785.73,-20260.58,-17670.207,-18863.566,-33030.273,-17169.148,10822.958
1318414.3329307868,-102036.22,-99782.76,-20260.783,-17670.33,-18863.404,-33031.7,-17173.137,10818.563
1318414.3369307811,-102027.55,-99776.25,-20255.656,-17667.074,-18859.172,-33031.008,-17176.758,10817.709
1318414.3409307755,-102021.08,-99774.664,-20257.854,-17666.586,-18858.807,-33032.105,-17180.176,10814.169
1318414.3449307699,-102027.836,-99786.54,-20266.154,-17670.41,-18864.014,-33033.69,-17182.496,10807.129
1318414.3489307642,-102037.6,-99793.74,-20270.955,-17674.195,-18872.314,-33034.14,-17182.861,10804.932
1318414.3529307586,-102042.73,-99792.28,-20268.025,-17672.771,-18872.152,-33032.27,-17184.123,10804.973
1318414.356930753,-102036.016,-99782.96,-20265.748,-17668.498,-18864.422,-33032.758,-17186.32,10804.647
1318414.3609307474,-102016.08,-99778.24,-20263.713,-17665.568,-18858.48,-33032.145,-17183.473,10804.892
1318414.3649307417,-102017.83,-99787.16,-20266.805,-17668.295,-18865.602,-33032.473,-17180.014,10806.112
1318414.368930736,-102035.85,-99798.14,-20273.316,-17673.666,-18867.025,-33033.406,-17179.607,10806.519
1318414.3729307305,-102039.35,-99793.586,-20275.105,-17673.096,-18866.414,-33034.18,-17182.658,10804.932
1318414.3769307248,-102036.79,-99788.01,-20271.2,-17668.498,-18860.719,-33031.453,-17181.885,10805.786
1318414.3809307192,-102023.484,-99780.03,-20263.754,-17662.8,-18853.191,-33029.543,-17178.875,10811.361
1318414.3849307136,-102029.46,-99784.75,-20268.025,-17666.545,-18859.742,-33031.047,-17176.96,10812.948
1318414.388930708,-102046.266,-99801.19,-20271.81,-17670.533,-18872.438,-33030.56,-17177.043,10809.978
1318414.3929307023,-102053.875,-99800.21,-20266.277,-17668.945,-18870.158,-33030.316,-17178.63,10807.983
1318414.3969306967,-102037.93,-99780.44,-20260.58,-17663.941,-18865.52,-33029.5,-17178.955,10809.611
1318414.400930691,-102018.72,-99773.805,-20258.627,-17660.97,-18860.596,-33027.75,-17178.02,10812.826
1318414.4049306854,-102019.695,-99776.45,-20263.348,-17663.412,-18862.225,-33026.164,-17176.352,10809.774
1318414.4089306798,-102033.53,-99782.48,-20267.62,-17667.033,-18866.537,-33025.88,-17175.66,10807.251
1318414.412930674,-102036.79,-99779.46,-20268.719,-17663.982,-18864.217,-33027.59,-17175.863,10808.432
1318414.4169306683,-102026.86,-99771.81,-20262.777,-17659.22,-18855.795,-33028.727,-17175.049,10813.925
1318414.4209306627,-102013.1,-99765.71,-20257.324,-17656.576,-18850.383,-33029.746,-17173.91,10817.099
1318414.424930657,-102014.53,-99770.15,-20261.516,-17658.041,-18853.924,-33029.99,-17173.625,10813.884
1318414.4289306514,-102029.7,-99779.625,-20268.475,-17662.8,-18861.695,-33031.047,-17171.754,10814.169
1318414.4329306458,-102035.69,-99779.586,-20267.457,-17660.686,-18857.91,-33028.24,-17168.172,10820.557
1318414.4369306401,-102024.62,-99772.42,-20262.98,-17656.697,-18852.174,-33025.758,-17165.975,10824.016
1318414.4409306345,-102010.945,-99772.42,-20261.475,-17654.95,-18843.953,-33026.734,-17170.125,10815.756
1318414.4449306289,-102020.51,-99776.086,-20268.19,-17659.953,-18849.65,-33027.67,-17169.434,10812.094
1318414.4489306232,-102034.95,-99784.586,-20271.484,-17664.062,-18858.887,-33027.996,-17167.48,10814.738
1318414.4529306176,-102050.664,-99793.74,-20272.502,-17663.9,-18859.783,-33030.07,-17171.143,10811.076
1318414.456930612,-102038.91,-99785.81,-20270.549,-17660.604,-18851.074,-33031.902,-17172.242,10814.169
1318414.4609306064,-102014.41,-99776.05,-20269.857,-17658.326,-18846.232,-33029.664,-17167.236,10823.975
1318414.4649306007,-102018.555,-99779.42,-20272.258,-17661.297,-18854.004,-33027.02,-17164.795,10822.917
1318414.468930595,-102034.02,-99784.34,-20278.117,-17665.324,-18860.271,-33028.934,-17165.486,10815.1045
1318414.4729305895,-102032.15,-99778.73,-20272.625,-17661.824,-18855.836,-33028.117,-17164.348,10816.61
1318414.4769305838,-102022.71,-99770.305,-20265.34,-17656.373,-18843.059,-33026.773,-17164.47,10821.127
1318414.4809305782,-102015.305,-99768.516,-20262.207,-17654.5,-18843.547,-33027.996,-17163.29,10823.853
1318414.4849305726,-102022.305,-99773.16,-20266.969,-17658.041,-18852.295,-33029.83,-17161.297,10822.47
1318414.488930567,-102033.77,-99780.56,-20270.955,-17660.604,-18855.145,-33033.0,-17161.336,10819.133
1318414.4929305613,-102038.13,-99782.68,-20270.752,-17659.344,-18849.732,-33032.31,-17162.518,10817.831
1318414.4969305557,-102030.73,-99774.58,-20267.09,-17657.553,-18845.623,-33029.95,-17163.006,10818.115
1318414.50093055,-102020.02,-99762.25,-20261.19,-17653.158,-18843.465,-33026.41,-17158.447,10826.05
1318414.5049305444,-102015.75,-99762.54,-20260.906,-17654.053,-18850.545,-33026.207,-17156.332,10824.748
1318414.5089305388,-102021.98,-99773.93,-20265.545,-17658.447,-18857.422,-33029.664,-17160.686,10816.977
1318414.5129305332,-102024.46,-99772.99,-20268.025,-17660.28,-18862.02,-33031.25,-17166.627,10810.181
1318414.5169305275,-102018.11,-99763.15,-20262.086,-17653.89,-18851.93,-33030.07,-17165.771,10814.494
1318414.520930522,-102004.766,-99753.95,-20258.26,-17649.496,-18844.97,-33027.914,-17161.133,10821.981
1318414.5249305163,-102007.61,-99759.85,-20263.713,-17653.076,-18853.598,-33030.56,-17162.312,10820.354
1318414.5289305106,-102020.836,-99764.164,-20270.59,-17657.227,-18860.84,-33033.734,-17165.65,10813.721
1318414.532930505,-102023.84,-99762.125,-20270.428,-17655.438,-18857.38,-33034.426,-17164.633,10814.453
1318414.5369304994,-102011.195,-99756.15,-20263.55,-17650.92,-18848.836,-33032.797,-17161.297,10818.278
1318414.5409304937,-102002.65,-99750.05,-20263.307,-17649.578,-18844.97,-33031.375,-17158.326,10823.69
1318414.544930488,-102011.27,-99755.21,-20267.498,-17654.5,-18851.889,-33032.188,-17156.576,10823.202
1318414.5489304825,-102024.54,-99761.31,-20270.02,-17656.902,-18857.38,-33034.426,-17158.691,10817.993
1318414.5529304768,-102032.555,-99768.03,-20271.363,-17656.25,-18853.191,-33036.867,-17163.086,10813.599
1318414.5569304712,-102020.875,-99757.37,-20266.195,-17654.053,-18850.994,-33036.133,-17163.33,10817.587
1318414.5609304656,-102006.06,-99750.66,-20263.63,-17652.791,-18850.057,-33033.895,-17159.832,10824.097
1318414.56493046,-102009.41,-99760.09,-20267.172,-17656.209,-18859.295,-33035.93,-17160.28,10819.011
1318414.5689304543,-102023.195,-99770.67,-20270.59,-17659.709,-18866.252,-33039.43,-17160.889,10815.349
1318414.5729304487,-102031.74,-99767.78,-20269.043,-17658.082,-18861.287,-33038.777,-17159.588,10819.011
1318414.576930443,-102022.34,-99758.586,-20265.87,-17652.629,-18851.807,-33038.492,-17158.977,10823.324
1318414.5809304374,-102004.234,-99750.53,-20263.795,-17650.838,-18850.709,-33039.023,-17157.635,10826.701
1318414.5849304318,-102010.91,-99752.89,-20268.799,-17654.744,-18856.04,-33037.395,-17153.361,10827.026
1318414.5889304262,-102024.58,-99761.84,-20275.105,-17657.105,-18860.76,-33035.562,-17148.885,10832.275
1318414.5929304205,-102030.234,-99767.945,-20275.229,-17655.193,-18860.19,-33034.14,-17146.443,10838.298
1318414.596930415,-102024.46,-99763.92,-20272.055,-17653.443,-18854.818,-33033.49,-17143.922,10845.703
1318414.6009304093,-102012.414,-99758.95,-20268.434,-17652.873,-18849.691,-33032.188,-17137.004,10854.574
1318414.6049304036,-102017.664,-99765.586,-20270.223,-17655.6,-18850.953,-33030.64,-17133.26,10857.666
1318414.608930398,-102028.32,-99775.234,-20276.531,-17659.75,-18860.516,-33033.734,-17136.354,10852.661
1318414.6129303924,-102028.37,-99774.3,-20274.658,-17658.57,-18860.107,-33034.832,-17141.033,10849.976
1318414.6169303868,-102018.805,-99760.99,-20269.043,-17653.688,-18850.057,-33033.69,-17143.719,10842.733
1318414.6209303811,-102005.66,-99754.03,-20263.143,-17650.146,-18844.158,-33033.246,-17141.887,10838.867
1318414.6249303755,-102010.336,-99759.766,-20264.12,-17653.443,-18852.54,-33033.734,-17141.072,10835.815
1318414.6289303699,-102021.28,-99765.875,-20267.498,-17657.47,-18857.666,-33034.75,-17141.277,10833.618
1318414.6329303642,-102022.38,-99762.25,-20266.236,-17654.664,-18853.475,-33033.734,-17140.057,10832.683
1318414.6369303586,-102015.875,-99754.93,-20263.836,-17650.146,-18847.209,-33032.797,-17139.04,10836.345
1318414.6409303527,-102004.11,-99753.7,-20263.348,-17650.432,-18844.686,-33031.94,-17136.922,10839.804
1318414.644930347,-102008.34,-99761.31,-20266.602,-17654.5,-18853.719,-33033.203,-17135.213,10841.064
1318414.6489303415,-102022.79,-99765.67,-20269.207,-17656.617,-18852.498,-33033.082,-17131.186,10842.733
1318414.6529303358,-102022.664,-99760.336,-20267.822,-17654.5,-18848.389,-33031.78,-17128.988,10847.006
1318414.6569303302,-102015.55,-99755.086,-20265.504,-17653.158,-18846.191,-33031.293,-17130.494,10850.342
1318414.6609303246,-102001.63,-99749.02,-20262.86,-17651.326,-18840.902,-33029.297,-17128.377,10856.934
1318414.664930319,-102002.93,-99753.99,-20267.01,-17651.693,-18845.379,-33029.258,-17125.285,10860.962
1318414.6689303133,-102020.67,-99768.11,-20275.96,-17656.494,-18852.986,-33032.88,-17126.344,10857.341
1318414.6729303077,-102030.32,-99769.375,-20278.809,-17657.268,-18851.97,-33035.973,-17129.924,10853.923
1318414.676930302,-102018.27,-99757.37,-20271.078,-17652.059,-18843.182,-33034.914,-17129.72,10856.649
1318414.6809302964,-102002.81,-99745.98,-20262.654,-17647.137,-18840.129,-33034.18,-17127.809,10860.352
1318414.6849302908,-102004.07,-99750.125,-20265.91,-17649.861,-18846.232,-33036.418,-17126.588,10855.876
1318414.6889302852,-102021.85,-99761.84,-20275.432,-17655.396,-18850.383,-33038.086,-17128.541,10850.546
1318414.6929302795,-102027.67,-99764.65,-20275.96,-17655.477,-18849.488,-33039.797,-17133.26,10849.243
1318414.696930274,-102018.195,-99757.45,-20271.281,-17652.1,-18844.482,-33040.12,-17134.93,10850.464
1318414.7009302683,-102012.78,-99752.85,-20268.84,-17651.123,-18842.244,-33040.527,-17133.627,10849.895
1318414.7049302626,-102013.23,-99758.95,-20271.443,-17653.89,-18847.127,-33040.61,-17130.78,10850.749
1318414.708930257,-102021.89,-99768.07,-20278.973,-17658.53,-18854.168,-33041.87,-17131.348,10848.755
1318414.7129302514,-102023.08,-99766.32,-20281.494,-17657.023,-18851.482,-33043.863,-17137.166,10841.064
1318414.7169302457,-102008.95,-99756.63,-20281.414,-17652.547,-18845.541,-33044.72,-17138.795,10843.872
1318414.7209302401,-101999.59,-99752.445,-20275.27,-17651.082,-18841.39,-33043.742,-17134.645,10849.284
1318414.7249302345,-102010.26,-99755.375,-20279.826,-17655.885,-18850.057,-33043.17,-17132.203,10844.89
1318414.7289302289,-102028.81,-99764.98,-20285.482,-17659.22,-18849.324,-33043.62,-17132.65,10838.176
1318414.7329302232,-102032.84,-99762.05,-20282.47,-17656.617,-18846.924,-33044.477,-17133.057,10841.391
1318414.7369302176,-102030.195,-99752.28,-20275.39,-17652.791,-18841.717,-33043.336,-17133.748,10842.407
1318414.740930212,-102018.555,-99748.984,-20270.467,-17651.45,-18838.217,-33043.582,-17133.627,10842.651
1318414.7449302063,-102021.125,-99760.22,-20275.555,-17655.314,-18845.5,-33045.94,-17133.627,10840.78
1318414.7489302007,-102040.81,-99773.44,-20284.424,-17659.465,-18850.79,-33047.406,-17135.174,10838.664
1318414.752930195,-102045.25,-99774.375,-20284.709,-17660.197,-18852.662,-33049.36,-17139.568,10834.88
1318414.7569301894,-102032.35,-99763.96,-20277.14,-17655.07,-18846.844,-33048.137,-17138.672,10840.983
1318414.7609301838,-102018.64,-99754.07,-20269.166,-17650.594,-18843.22,-33045.086,-17131.715,10848.186
1318414.7649301782,-102022.87,-99759.484,-20272.908,-17654.379,-18851.441,-33044.23,-17128.947,10846.477
1318414.7689301725,-102037.11,-99765.79,-20276.164,-17658.367,-18860.352,-33041.953,-17128.744,10846.965
1318414.772930167,-102037.97,-99764.77,-20273.396,-17655.193,-18857.992,-33041.344,-17130.086,10845.907
1318414.7769301613,-102029.055,-99759.766,-20269.328,-17650.27,-18849.365,-33039.188,-17130.574,10847.819
1318414.7809301557,-102019.125,-99756.8,-20265.219,-17650.432,-18850.953,-33037.723,-17130.412,10847.778
1318414.78493015,-102021.164,-99762.78,-20266.643,-17654.582,-18856.61,-33037.07,-17126.832,10847.412
1318414.7889301444,-102033.61,-99766.08,-20270.672,-17659.791,-18861.695,-33036.05,-17124.268,10847.128
1318414.7929301388,-102039.59,-99762.62,-20268.23,-17659.953,-18861.98,-33034.098,-17124.105,10847.128
1318414.7969301331,-102027.14,-99759.52,-20265.625,-17656.78,-18857.057,-33032.797,-17125.57,10847.372
1318414.8009301275,-102011.27,-99753.99,-20264.283,-17655.64,-18854.127,-33031.58,-17122.07,10852.865
1318414.8049301219,-102012.49,-99753.42,-20262.94,-17655.396,-18858.277,-33030.152,-17115.357,10858.317
1318414.8089301162,-102025.76,-99763.43,-20263.713,-17657.105,-18864.422,-33031.496,-17115.113,10862.0205
1318414.8129301106,-102035.24,-99760.625,-20263.307,-17656.576,-18865.602,-33032.105,-17117.066,10862.753
1318414.816930105,-102012.414,-99749.72,-20256.795,-17651.938,-18855.592,-33031.902,-17120.32,10862.061
1318414.8209300993,-101990.73,-99741.664,-20254.03,-17648.967,-18847.615,-33031.7,-17121.135,10860.84
1318414.8249300937,-101999.555,-99750.05,-20258.342,-17651.408,-18853.11,-33032.27,-17120.729,10858.114
1318414.828930088,-102012.78,-99757.734,-20263.957,-17654.094,-18859.334,-33034.71,-17125.244,10853.19
1318414.8329300825,-102009.73,-99753.91,-20263.428,-17652.1,-18855.957,-33034.75,-17127.93,10853.027
1318414.8369300768,-102001.71,-99745.734,-20257.732,-17647.87,-18849.08,-33035.44,-17130.127,10856.161
1318414.8409300712,-101997.52,-99744.51,-20256.756,-17646.078,-18845.5,-33037.273,-17131.715,10854.736
1318414.8449300656,-102006.31,-99753.46,-20261.883,-17650.758,-18854.004,-33039.715,-17131.674,10847.494
1318414.84893006,-102022.664,-99761.31,-20265.992,-17655.193,-18860.84,-33040.406,-17128.662,10851.604
1318414.8529300543,-102028.12,-99760.83,-20263.998,-17653.564,-18854.98,-33041.547,-17128.703,10853.923
1318414.8569300487,-102007.734,-99745.2,-20258.016,-17647.664,-18847.332,-33040.812,-17126.709,10858.114
1318414.860930043,-101993.086,-99736.49,-20255.25,-17644.207,-18837.729,-33038.21,-17122.355,10867.025
1318414.8649300374,-101997.03,-99743.695,-20261.434,-17648.396,-18840.861,-33038.82,-17117.92,10868.164
1318414.8689300315,-102011.07,-99754.03,-20263.307,-17650.594,-18849.936,-33040.203,-17118.49,10862.224
1318414.872930026,-102015.18,-99754.03,-20260.742,-17649.008,-18849.162,-33040.934,-17119.508,10863.403
1318414.8769300203,-102003.95,-99748.09,-20261.678,-17646.2,-18841.512,-33040.0,-17119.508,10862.712
1318414.8809300147,-101995.32,-99740.36,-20262.898,-17644.043,-18836.793,-33038.777,-17119.344,10862.753
1318414.884930009,-102002.24,-99744.51,-20265.34,-17646.322,-18841.105,-33040.61,-17120.24,10858.928
1318414.8889300034,-102017.42,-99753.09,-20270.955,-17650.066,-18848.918,-33042.195,-17124.064,10853.76
1318414.8929299978,-102019.53,-99752.73,-20271.81,-17651.246,-18847.535,-33041.26,-17126.547,10848.633
1318414.8969299921,-102003.83,-99740.85,-20264.648,-17646.443,-18838.99,-33042.195,-17124.553,10850.993
1318414.9009299865,-101992.31,-99740.56,-20260.05,-17643.922,-18835.49,-33042.93,-17121.664,10857.87
1318414.9049299809,-101997.36,-99748.62,-20264.445,-17648.52,-18843.465,-33043.457,-17120.729,10853.638
1318414.9089299752,-102012.25,-99757.61,-20271.24,-17653.688,-18850.383,-33044.72,-17123.78,10847.209
1318414.9129299696,-102011.68,-99755.05,-20272.705,-17651.734,-18849.732,-33044.312,-17125.285,10850.18
1318414.916929964,-102001.47,-99746.14,-20268.799,-17647.625,-18842.326,-33042.93,-17123.047,10853.109
1318414.9209299583,-101990.44,-99740.16,-20263.672,-17645.143,-18839.764,-33042.074,-17120.443,10856.242
1318414.9249299527,-102001.14,-99751.47,-20267.822,-17649.334,-18845.582,-33042.81,-17120.484,10850.586
1318414.928929947,-102013.8,-99761.84,-20271.281,-17652.588,-18848.268,-33045.453,-17121.541,10847.616
1318414.9329299415,-102018.72,-99758.14,-20269.37,-17652.344,-18846.273,-33045.94,-17120.729,10858.684
1318414.9369299358,-102010.336,-99752.36,-20266.887,-17649.129,-18838.908,-33047.12,-17124.188,10848.227
1318414.9409299302,-101995.28,-99745.734,-20263.307,-17646.2,-18834.596,-33047.08,-17123.25,10845.785
1318414.9449299246,-101998.5,-99749.84,-20265.178,-17650.229,-18840.129,-33046.47,-17118.246,10852.499
1318414.948929919,-102009.12,-99757.33,-20269.246,-17653.076,-18843.873,-33047.73,-17118.287,10854.492
1318414.9529299133,-102013.516,-99760.26,-20271.852,-17652.873,-18841.309,-33048.543,-17121.053,10849.447
1318414.9569299077,-102007.49,-99752.24,-20272.787,-17649.658,-18836.834,-33048.953,-17121.99,10851.889
1318414.960929902,-101993.25,-99737.875,-20266.602,-17646.2,-18830.037,-33049.97,-17120.2,10859.416
1318414.9649298964,-101998.17,-99741.26,-20264.893,-17647.502,-18834.596,-33049.48,-17116.252,10862.346
1318414.9689298908,-102026.05,-99754.11,-20269.654,-17652.547,-18840.943,-33051.72,-17115.846,10861.735
1318414.9729298851,-102020.35,-99753.586,-20270.02,-17650.473,-18839.438,-33052.734,-17118.367,10863.7295
1318414.9769298795,-102005.29,-99743.49,-20262.615,-17644.166,-18832.195,-33051.676,-17115.723,10874.756
1318414.980929874,-101991.01,-99734.13,-20256.43,-17640.463,-18828.004,-33053.02,-17117.473,10871.013
1318414.9849298683,-101998.375,-99742.15,-20261.922,-17644.613,-18835.205,-33056.766,-17121.746,10859.05
1318414.9889298626,-102013.19,-99749.64,-20266.805,-17645.916,-18840.373,-33058.555,-17122.152,10862.143
1318414.992929857,-102019.21,-99749.02,-20266.113,-17644.613,-18835.816,-33058.555,-17123.17,10867.88
1318414.9969298514,-102018.195,-99746.79,-20264.648,-17643.19,-18832.357,-33058.88,-17127.727,10854.289
1318415.0009298457,-102006.63,-99740.52,-20264.648,-17641.398,-18832.275,-33058.637,-17128.582,10852.499
1318415.00492984,-102003.95,-99744.34,-20266.928,-17642.945,-18832.684,-33059.977,-17126.953,10858.073
1318415.0089298345,-102014.734,-99750.41,-20272.299,-17644.94,-18830.445,-33060.465,-17125.936,10856.73
1318415.0129298288,-102021.77,-99749.88,-20272.746,-17644.654,-18828.248,-33059.652,-17125.244,10849.813
1318415.0169298232,-102015.67,-99746.016,-20271.16,-17641.316,-18822.918,-33060.26,-17126.506,10853.598
1318415.0209298176,-102002.81,-99738.33,-20268.19,-17638.713,-18821.248,-33059.45,-17123.943,10863.688
1318415.024929812,-102009.04,-99746.14,-20270.549,-17644.898,-18830.363,-33058.023,-17123.21,10859.701
1318415.0289298063,-102020.35,-99752.445,-20277.67,-17648.193,-18832.643,-33058.92,-17122.07,10862.793
1318415.0329298007,-102023.36,-99753.5,-20276.45,-17646.16,-18828.451,-33058.15,-17119.873,10863.974
1318415.036929795,-102011.56,-99742.72,-20272.014,-17641.44,-18817.547,-33058.72,-17122.479,10867.88
1318415.0409297894,-102003.55,-99740.766,-20269.613,-17640.463,-18815.309,-33060.14,-17123.861,10860.312
1318415.0449297838,-102017.336,-99746.95,-20276.205,-17644.125,-18818.604,-33061.81,-17120.24,10857.585
1318415.0489297782,-102036.055,-99758.18,-20279.541,-17648.072,-18817.75,-33065.023,-17119.996,10860.026
1318415.0529297725,-102040.37,-99767.01,-20275.514,-17648.234,-18815.594,-33066.406,-17123.7,10853.801
1318415.056929767,-102025.516,-99757.66,-20267.09,-17642.537,-18807.537,-33065.473,-17126.344,10856.689
1318415.0609297613,-102011.766,-99751.95,-20260.662,-17640.87,-18796.998,-33065.066,-17122.844,10857.544
1318415.0649297556,-102019.01,-99761.84,-20262.086,-17644.734,-18796.143,-33066.652,-17125.732,10841.064
1318415.06892975,-102036.016,-99776.695,-20264.975,-17647.99,-18801.922,-33069.336,-17131.023,10839.315
1318415.0729297444,-102039.39,-99778.32,-20264.527,-17646.24,-18792.48,-33071.25,-17133.342,10849.162
1318415.0769297387,-102029.99,-99771.69,-20258.79,-17639.812,-18778.443,-33072.39,-17135.01,10845.785
1318415.080929733,-102020.67,-99766.08,-20257.527,-17635.133,-18769.734,-33073.69,-17138.225,10836.142
1318415.0849297275,-102029.75,-99777.43,-20260.58,-17638.592,-18768.678,-33075.97,-17141.725,10833.456
1318415.0889297219,-102046.39,-99793.09,-20261.475,-17641.236,-18767.13,-33077.477,-17144.084,10821.045
1318415.0929297162,-102052.25,-99793.375,-20256.55,-17637.29,-18759.969,-33078.777,-17143.434,10812.5
1318415.0969297104,-102033.66,-99780.32,-20244.467,-17630.697,-18743.611,-33079.957,-17143.719,10825.521
1318415.1009297047,-102020.15,-99771.98,-20243.367,-17630.086,-18731.73,-33080.406,-17145.264,10832.724
1318415.104929699,-102023.93,-99783.53,-20246.502,-17632.691,-18731.365,-33083.375,-17150.025,10819.214
1318415.1089296935,-102032.02,-99791.34,-20244.996,-17634.93,-18732.951,-33084.96,-17149.414,10819.255
1318415.1129296878,-102037.03,-99791.75,-20241.7,-17632.365,-18724.488,-33084.8,-17149.129,10813.437
1318415.1169296822,-102031.414,-99789.06,-20238.934,-17628.988,-18712.932,-33086.344,-17151.326,10811.483
1318415.1209296766,-102016.89,-99782.63,-20233.195,-17625.123,-18705.12,-33086.14,-17150.92,10813.3545
1318415.124929671,-102025.19,-99788.58,-20233.277,-17627.32,-18705.893,-33087.08,-17148.357,10815.878
1318415.1289296653,-102040.734,-99793.54,-20237.102,-17632.691,-18710.164,-33090.496,-17149.21,10813.029
1318415.1329296597,-102040.86,-99790.164,-20231.283,-17631.062,-18707.357,-33092.33,-17156.738,10812.826
1318415.136929654,-102030.52,-99781.414,-20225.668,-17626.344,-18695.842,-33092.613,-17158.895,10808.676
1318415.1409296484,-102024.055,-99775.234,-20221.844,-17623.576,-18680.787,-33092.285,-17161.541,10811.605
1318415.1449296428,-102031.78,-99785.24,-20223.836,-17626.75,-18682.414,-33093.14,-17166.504,10817.871
1318415.1489296372,-102037.805,-99801.27,-20226.4,-17630.006,-18686.361,-33097.535,-17172.486,10815.634
1318415.1529296315,-102045.21,-99802.414,-20227.01,-17629.191,-18677.613,-33098.836,-17176.88,10801.188
1318415.156929626,-102029.55,-99786.26,-20218.344,-17622.152,-18663.006,-33101.2,-17185.14,10785.889
1318415.1609296203,-102021.57,-99785.2,-20214.52,-17618.246,-18656.414,-33104.004,-17191.326,10783.041
1318415.1649296146,-102029.055,-99795.9,-20224.447,-17622.723,-18659.547,-33106.85,-17192.139,10794.353
1318415.168929609,-102039.59,-99801.64,-20225.139,-17624.47,-18663.533,-33107.26,-17190.268,10795.858
1318415.1729296034,-102043.3,-99797.695,-20227.377,-17623.82,-18656.494,-33111.29,-17195.271,10785.482
1318415.1769295977,-102032.35,-99793.586,-20219.89,-17618.572,-18642.416,-33110.637,-17195.516,10781.21
1318415.180929592,-102025.64,-99790.2,-20213.055,-17614.584,-18631.959,-33109.906,-17196.697,10780.192
1318415.1849295865,-102036.75,-99798.016,-20216.473,-17618.367,-18632.447,-33115.277,-17201.172,10770.712
1318415.1889295809,-102055.14,-99807.664,-20220.012,-17621.135,-18632.04,-33120.402,-17204.834,10760.173
1318415.1929295752,-102050.13,-99809.414,-20215.291,-17618.855,-18625.57,-33123.21,-17210.164,10753.5
1318415.1969295696,-102032.72,-99795.05,-20209.27,-17613.078,-18613.648,-33124.39,-17211.834,10753.337
1318415.200929564,-102020.914,-99787.07,-20203.248,-17609.822,-18605.225,-33126.383,-17209.514,10761.027
1318415.2049295583,-102032.84,-99795.05,-20208.904,-17611.94,-18601.238,-33127.2,-17207.643,10758.342
1318415.2089295527,-102041.18,-99803.555,-20212.688,-17614.46,-18599.812,-33131.348,-17215.455,10741.537
1318415.212929547,-102036.016,-99808.11,-20207.479,-17610.066,-18589.559,-33134.32,-17221.965,10731.73
1318415.2169295414,-102022.18,-99794.11,-20202.596,-17605.957,-18578.98,-33135.457,-17225.3,10730.876
1318415.2209295358,-102012.945,-99783.41,-20200.887,-17606.04,-18580.69,-33138.67,-17231.61,10722.29
1318415.2249295302,-102025.44,-99796.1,-20205.525,-17610.107,-18588.176,-33141.03,-17234.945,10714.641
1318415.2289295245,-102044.64,-99807.01,-20211.264,-17612.875,-18589.64,-33142.824,-17234.578,10717.651
1318415.232929519,-102048.586,-99806.89,-20214.152,-17611.248,-18583.455,-33145.426,-17241.414,10711.02
1318415.2369295133,-102037.93,-99799.97,-20210.816,-17607.219,-18578.37,-33145.67,-17247.152,10701.945
1318415.2409295077,-102024.414,-99790.41,-20206.951,-17604.004,-18573.69,-33145.59,-17247.6,10696.249
1318415.244929502,-102027.63,-99791.71,-20206.014,-17605.021,-18573.201,-33145.914,-17247.723,10682.495
1318415.2489294964,-102040.24,-99797.53,-20208.7,-17606.08,-18577.88,-33148.562,-17254.273,10662.802
1318415.2529294908,-102037.44,-99792.73,-20206.746,-17604.492,-18572.836,-33150.105,-17262.127,10649.577
1318415.2569294851,-102020.914,-99781.414,-20199.219,-17600.018,-18567.465,-33148.074,-17261.434,10651.978
1318415.2609294795,-102015.67,-99773.03,-20197.062,-17598.836,-18567.871,-33145.71,-17257.365,10654.826
1318415.2649294739,-102024.375,-99779.42,-20205.852,-17603.11,-18575.36,-33147.543,-17258.912,10645.874
1318415.2689294682,-102037.03,-99786.3,-20211.834,-17608.48,-18584.352,-33147.707,-17259.197,10638.55
1318415.2729294626,-102035.69,-99784.8,-20208.252,-17607.951,-18581.178,-33145.02,-17257.732,10642.741
1318415.276929457,-102025.64,-99775.44,-20205.607,-17605.998,-18574.178,-33144.004,-17255.494,10647.217
1318415.2809294513,-102018.195,-99769.414,-20206.014,-17605.836,-18573.445,-33142.58,-17252.32,10648.723
1318415.2849294457,-102032.8,-99776.49,-20209.637,-17609.945,-18580.607,-33138.918,-17248.617,10647.583
1318415.28892944,-102039.8,-99782.39,-20210.205,-17612.02,-18588.46,-33140.87,-17250.652,10644.572
1318415.2929294345,-102027.63,-99778.85,-20208.049,-17609.945,-18590.902,-33144.043,-17256.023,10636.353
1318415.2969294288,-102016.24,-99768.195,-20205.078,-17606.771,-18587.2,-33142.906,-17255.574,10634.318
1318415.3009294232,-102010.664,-99765.51,-20202.963,-17607.26,-18586.467,-33139.812,-17252.85,10638.388
1318415.3049294176,-102015.67,-99767.7,-20208.008,-17610.434,-18594.605,-33137.98,-17250.164,10631.47
1318415.308929412,-102025.39,-99771.0,-20211.873,-17613.607,-18602.947,-33139.85,-17251.22,10626.059
1318415.3129294063,-102024.984,-99767.055,-20209.717,-17612.996,-18604.818,-33138.67,-17249.268,10625.122
1318415.3169294007,-102018.07,-99762.086,-20207.928,-17612.875,-18601.115,-33135.133,-17244.752,10625.732
1318415.320929395,-102006.92,-99756.39,-20206.584,-17612.346,-18601.645,-33131.918,-17241.863,10624.553
1318415.3249293892,-102012.49,-99759.61,-20208.943,-17616.334,-18614.34,-33132.652,-17239.87,10619.507
1318415.3289293835,-102021.484,-99765.55,-20210.164,-17620.932,-18623.738,-33133.016,-17237.793,10615.356
1318415.332929378,-102020.63,-99761.64,-20208.822,-17619.955,-18629.11,-33132.57,-17237.346,10613.852
1318415.3369293723,-102011.97,-99757.125,-20206.87,-17615.764,-18628.215,-33132.895,-17238.201,10608.5205
1318415.3409293666,-102007.81,-99756.06,-20205.078,-17617.229,-18632.162,-33131.676,-17236.328,10600.302
1318415.344929361,-102026.734,-99770.39,-20212.525,-17625.0,-18648.723,-33130.453,-17233.033,10602.011
1318415.3489293554,-102032.43,-99778.85,-20220.662,-17628.133,-18658.732,-33130.25,-17230.957,10597.412
1318415.3529293498,-102033.9,-99775.39,-20224.162,-17626.018,-18657.756,-33128.95,-17227.254,10598.471
1318415.3569293441,-102027.875,-99760.625,-20221.68,-17624.432,-18654.217,-33127.28,-17221.965,10600.22
1318415.3609293385,-102019.29,-99753.625,-20222.332,-17625.244,-18653.32,-33128.01,-17218.506,10596.64
1318415.3649293329,-102025.88,-99761.766,-20226.686,-17628.256,-18666.912,-33125.734,-17211.305,10601.115
1318415.3689293272,-102034.75,-99769.86,-20228.23,-17631.918,-18680.908,-33126.1,-17209.066,10597.941
1318415.3729293216,-102036.42,-99772.016,-20228.516,-17633.424,-18684.45,-33125.773,-17209.758,10594.89
1318415.376929316,-102024.54,-99763.67,-20222.941,-17632.406,-18684.164,-33124.105,-17208.172,10599.609
1318415.3809293103,-102014.0,-99759.52,-20219.482,-17632.08,-18687.176,-33123.21,-17206.422,10602.865
1318415.3849293047,-102019.49,-99759.81,-20226.686,-17636.475,-18695.516,-33124.188,-17205.404,10597.656
1318415.388929299,-102031.375,-99759.08,-20235.963,-17640.79,-18703.451,-33124.84,-17204.305,10589.763
1318415.3929292934,-102031.62,-99756.15,-20235.352,-17638.998,-18705.404,-33123.535,-17204.63,10589.966
1318415.3969292878,-102021.734,-99744.39,-20230.633,-17635.05,-18706.951,-33122.723,-17202.88,10593.344
1318415.4009292822,-102008.914,-99736.9,-20228.11,-17633.748,-18710.164,-33118.45,-17195.8,10596.029
1318415.4049292766,-102011.234,-99753.055,-20235.148,-17640.26,-18713.014,-33118.777,-17193.035,10588.745
1318415.408929271,-102022.75,-99757.37,-20240.682,-17643.88,-18721.15,-33120.73,-17193.727,10584.839
1318415.4129292653,-102022.664,-99752.36,-20239.258,-17642.254,-18725.22,-33119.754,-17191.244,10595.744
1318415.4169292597,-102011.92,-99744.96,-20235.922,-17638.957,-18720.662,-33118.082,-17185.832,10600.912
1318415.420929254,-102005.66,-99742.68,-20234.498,-17639.324,-18723.512,-33116.863,-17182.129,10595.337
1318415.4249292484,-102011.766,-99751.43,-20237.752,-17644.125,-18734.822,-33116.336,-17180.828,10590.17
1318415.4289292428,-102022.664,-99755.945,-20240.967,-17648.396,-18741.455,-33115.766,-17179.729,10587.932
1318415.4329292371,-102020.43,-99752.41,-20240.967,-17647.055,-18740.072,-33116.336,-17180.379,10586.874
1318415.4369292315,-102006.63,-99742.59,-20235.352,-17643.31,-18734.701,-33116.336,-17180.95,10591.594
1318415.4409292259,-101997.03,-99739.34,-20231.648,-17641.969,-18735.799,-33115.684,-17179.525,10594.442
1318415.4449292202,-102003.55,-99747.03,-20238.893,-17645.875,-18743.408,-33117.23,-17179.973,10591.838
1318415.4489292146,-102014.2,-99748.984,-20242.758,-17649.008,-18747.64,-33115.805,-17177.613,10589.926
1318415.452929209,-102016.16,-99745.65,-20241.658,-17648.357,-18750.896,-33116.008,-17180.46,10589.763
1318415.4569292034,-102005.62,-99745.32,-20238.81,-17645.508,-18746.176,-33114.22,-17181.234,10589.641
1318415.4609291977,-101996.95,-99736.125,-20238.81,-17644.043,-18745.037,-33112.02,-17177.979,10595.907
1318415.464929192,-101999.68,-99739.305,-20241.7,-17647.584,-18749.756,-33112.836,-17175.578,10596.558
1318415.4689291865,-102007.9,-99744.96,-20248.25,-17650.96,-18754.68,-33116.17,-17178.02,10591.269
1318415.4729291808,-102005.66,-99742.59,-20249.715,-17648.805,-18753.215,-33115.113,-17176.799,10593.872
1318415.4769291752,-101989.625,-99731.81,-20244.873,-17645.143,-18745.809,-33112.43,-17174.113,10597.697
1318415.4809291696,-101978.11,-99726.81,-20240.52,-17643.88,-18745.32,-33112.184,-17172.852,10597.372
1318415.484929164,-101988.08,-99735.72,-20245.729,-17649.658,-18754.639,-33112.223,-17169.148,10597.046
1318415.4889291583,-102003.79,-99746.18,-20254.598,-17656.82,-18757.0,-33110.68,-17168.092,10591.96
1318415.4929291527,-102001.71,-99739.875,-20251.059,-17655.559,-18756.227,-33108.36,-17165.283,10593.425
1318415.496929147,-101987.35,-99730.47,-20247.152,-17650.717,-18752.117,-33107.098,-17164.47,10598.471
1318415.5009291414,-101979.74,-99728.36,-20246.541,-17651.205,-18750.691,-33106.57,-17163.371,10598.796
1318415.5049291358,-101984.5,-99734.26,-20247.723,-17654.012,-18761.842,-33108.887,-17163.412,10595.866
1318415.5089291302,-101994.1,-99738.94,-20250.855,-17657.268,-18771.037,-33108.727,-17160.482,10600.017
1318415.5129291245,-101995.37,-99737.305,-20249.268,-17654.95,-18766.316,-33107.26,-17164.55,10595.622
1318415.516929119,-101992.19,-99734.46,-20249.797,-17653.2,-18762.086,-33107.26,-17166.83,10593.832
1318415.5209291133,-101991.62,-99734.945,-20250.285,-17655.477,-18763.875,-33106.324,-17161.906,10607.707
1318415.5249291076,-101999.07,-99737.15,-20254.477,-17660.197,-18765.951,-33105.43,-17157.594,10603.882
1318415.528929102,-102017.87,-99745.98,-20257.203,-17663.25,-18770.305,-33106.934,-17158.691,10600.017
1318415.5329290964,-102003.87,-99738.61,-20253.377,-17661.297,-18767.254,-33106.773,-17160.36,10601.359
1318415.5369290907,-101981.85,-99720.13,-20245.973,-17655.885,-18758.504,-33103.68,-17158.447,10604.696
1318415.540929085,-101973.11,-99716.8,-20242.514,-17654.094,-18758.057,-33102.336,-17155.762,10608.032
1318415.5449290795,-101982.586,-99725.75,-20247.03,-17658.977,-18769.531,-33103.598,-17153.28,10602.539
1318415.5489290738,-101993.37,-99731.695,-20252.564,-17661.418,-18771.12,-33103.312,-17150.025,10601.767
1318415.552929068,-101998.87,-99731.695,-20252.238,-17661.744,-18771.2,-33102.457,-17151.043,10603.271
1318415.5569290624,-101982.914,-99718.75,-20246.338,-17658.162,-18770.467,-33099.69,-17151.734,10598.999
1318415.5609290567,-101968.67,-99714.03,-20246.297,-17658.65,-18763.754,-33097.574,-17145.06,10606.527
1318415.564929051,-101977.83,-99721.44,-20252.564,-17664.266,-18774.373,-33096.64,-17135.865,10612.0205
1318415.5689290455,-101988.81,-99725.06,-20256.836,-17664.998,-18783.041,-33100.63,-17140.707,10597.209
1318415.5729290398,-101990.08,-99721.16,-20254.598,-17662.72,-18777.508,-33100.344,-17143.352,10592.814
1318415.5769290342,-101994.59,-99720.55,-20252.93,-17660.809,-18775.92,-33097.13,-17139.648,10599.895
1318415.5809290286,-101987.02,-99724.164,-20253.377,-17659.791,-18777.588,-33097.94,-17141.44,10597.372
1318415.584929023,-101988.125,-99731.94,-20261.719,-17662.883,-18783.814,-33102.215,-17144.246,10595.215
1318415.5889290173,-101998.7,-99735.15,-20267.01,-17665.812,-18787.72,-33102.906,-17143.555,10594.076
1318415.5929290117,-101992.15,-99727.91,-20263.998,-17661.5,-18781.738,-33101.402,-17142.416,10595.459
1318415.596929006,-101982.71,-99719.37,-20263.143,-17656.941,-18775.27,-33101.156,-17138.836,10605.021
1318415.6009290004,-101977.22,-99719.2,-20267.13,-17658.977,-18774.09,-33100.668,-17134.889,10607.626
1318415.6049289948,-101985.11,-99723.59,-20270.996,-17663.818,-18777.629,-33100.3,-17133.26,10608.765
1318415.6089289892,-101997.64,-99729.05,-20269.207,-17665.04,-18782.715,-33099.406,-17131.877,10603.598
1318415.6129289835,-101998.414,-99728.48,-20266.277,-17661.58,-18784.262,-33100.344,-17133.342,10599.528
1318415.616928978,-101986.984,-99722.945,-20263.469,-17656.414,-18773.56,-33100.14,-17134.48,10607.87
1318415.6209289723,-101980.15,-99718.43,-20263.63,-17655.07,-18772.137,-33099.61,-17133.26,10609.172
1318415.6249289666,-101985.805,-99722.91,-20264.975,-17658.162,-18778.646,-33101.074,-17131.633,10604.696
1318415.628928961,-102002.12,-99727.42,-20274.496,-17661.377,-18781.129,-33103.19,-17130.047,10597.453
1318415.6329289554,-102007.37,-99729.74,-20277.344,-17661.174,-18776.123,-33102.703,-17126.059,10597.534
1318415.6369289497,-101997.52,-99721.68,-20272.908,-17658.244,-18769.654,-33099.734,-17122.355,10604.736
1318415.640928944,-101989.18,-99716.88,-20270.672,-17656.006,-18768.555,-33098.715,-17118.693,10610.474
1318415.6449289385,-101989.34,-99729.25,-20277.71,-17661.418,-18780.396,-33100.992,-17119.508,10602.336
1318415.6489289328,-101998.945,-99735.48,-20280.885,-17666.586,-18786.785,-33102.254,-17118.693,10598.593
1318415.6529289272,-101999.19,-99731.33,-20279.297,-17665.854,-18783.203,-33102.703,-17119.14,10598.715
1318415.6569289216,-101986.05,-99720.13,-20276.979,-17662.11,-18774.984,-33103.477,-17121.541,10599.325
1318415.660928916,-101976.766,-99713.71,-20275.838,-17662.477,-18768.963,-33104.004,-17120.484,10601.481
1318415.6649289103,-101979.13,-99715.82,-20279.826,-17665.975,-18776.205,-33103.72,-17117.066,10602.051
1318415.6689289047,-101989.914,-99723.72,-20284.912,-17670.33,-18785.28,-33105.633,-17118.611,10598.755
1318415.672928899,-101989.26,-99719.65,-20284.18,-17669.312,-18782.105,-33107.42,-17118.084,10604.899
1318415.6769288934,-101974.94,-99703.74,-20278.973,-17665.08,-18773.56,-33108.156,-17117.229,10611.938
1318415.6809288878,-101970.95,-99702.72,-20279.135,-17666.3,-18769.207,-33108.562,-17116.822,10613.933
1318415.6849288822,-101986.25,-99714.12,-20286.662,-17672.363,-18784.018,-33110.637,-17117.27,10610.148
1318415.6889288765,-102003.26,-99722.86,-20289.998,-17677.572,-18794.19,-33112.348,-17117.676,10607.056
1318415.692928871,-102001.8,-99723.59,-20289.795,-17678.387,-18796.266,-33112.59,-17118.693,10606.242
1318415.6969288653,-101992.31,-99719.484,-20287.639,-17676.352,-18789.959,-33111.168,-17120.85,10607.748
1318415.7009288596,-101984.945,-99718.39,-20284.465,-17674.236,-18785.97,-33108.684,-17119.629,10608.847
1318415.704928854,-101985.6,-99721.36,-20287.72,-17677.693,-18790.812,-33108.36,-17113.973,10612.671
1318415.7089288484,-102000.29,-99731.125,-20294.393,-17682.537,-18801.025,-33109.293,-17114.178,10612.224
1318415.7129288428,-102009.04,-99733.73,-20297.12,-17683.96,-18803.875,-33111.86,-17122.355,10604.289
1318415.7169288371,-102000.62,-99724.0,-20293.701,-17681.316,-18800.416,-33110.027,-17124.676,10604.289
1318415.7209288315,-101992.03,-99721.56,-20291.912,-17682.943,-18803.996,-33106.363,-17122.355,10606.445
1318415.7249288259,-102002.36,-99737.67,-20294.516,-17689.697,-18811.688,-33103.92,-17119.385,10603.19
1318415.7289288202,-102019.125,-99748.01,-20299.113,-17693.318,-18819.5,-33102.99,-17118.775,10597.046
1318415.7329288146,-102020.63,-99746.14,-20300.822,-17692.424,-18817.506,-33097.984,-17115.764,10600.993
1318415.736928809,-102011.88,-99738.77,-20298.38,-17689.697,-18817.912,-33093.59,-17112.264,10607.26
1318415.7409288033,-102007.61,-99732.914,-20297.81,-17689.617,-18820.191,-33091.35,-17110.76,10606.73
1318415.7449287977,-102029.625,-99741.01,-20303.996,-17694.336,-18831.055,-33089.887,-17108.113,10603.842
1318415.748928792,-102037.195,-99751.02,-20310.223,-17699.057,-18837.688,-33092.203,-17112.387,10597.087
1318415.7529287864,-102026.62,-99750.734,-20316.53,-17699.666,-18837.729,-33094.363,-17119.71,10590.983
1318415.7569287808,-102008.63,-99730.875,-20310.629,-17693.645,-18831.707,-33092.9,-17121.053,10594.809
1318415.7609287752,-101993.82,-99724.57,-20303.223,-17690.309,-18824.139,-33092.043,-17118.164,10600.505
1318415.7649287696,-102003.79,-99732.99,-20307.252,-17694.377,-18832.846,-33092.652,-17118.693,10596.518
1318415.768928764,-102022.305,-99743.49,-20314.82,-17699.422,-18841.105,-33093.953,-17123.658,10589.355
1318415.7729287583,-102023.195,-99741.09,-20316.326,-17697.43,-18838.582,-33092.734,-17122.885,10590.78
1318415.7769287527,-102014.41,-99731.2,-20312.379,-17693.4,-18834.27,-33088.625,-17121.338,10590.576
1318415.7809287468,-102006.59,-99731.9,-20311.035,-17694.662,-18837.037,-33086.508,-17120.525,10585.083
1318415.7849287412,-102009.69,-99738.445,-20317.465,-17699.83,-18847.535,-33088.016,-17119.71,10584.351
1318415.7889287355,-102017.78,-99738.81,-20320.354,-17701.54,-18848.023,-33087.527,-17114.787,10590.373
1318415.79292873,-102017.78,-99727.74,-20317.18,-17699.057,-18849.324,-33085.246,-17110.516,10600.098
1318415.7969287243,-102008.914,-99724.086,-20310.994,-17696.615,-18839.111,-33083.336,-17109.783,10604.086
1318415.8009287186,-101996.87,-99717.9,-20307.21,-17695.068,-18834.31,-33079.875,-17104.045,10609.782
1318415.804928713,-101996.95,-99716.88,-20307.008,-17697.592,-18836.834,-33077.76,-17099.488,10611.084
1318415.8089287074,-102009.195,-99726.36,-20311.768,-17702.8,-18846.232,-33077.883,-17101.482,10604.899
1318415.8129287018,-102016.73,-99730.31,-20310.14,-17701.457,-18848.959,-33078.613,-17102.621,10607.138
1318415.8169286961,-102004.07,-99716.88,-20303.467,-17697.836,-18840.455,-33077.68,-17099.244,10621.338
1318415.8209286905,-101996.71,-99709.48,-20299.48,-17696.9,-18839.152,-33075.523,-17092.773,10631.267
1318415.8249286849,-102005.91,-99720.664,-20305.502,-17702.068,-18846.07,-33075.035,-17087.443,10632.446
1318415.8289286792,-102019.25,-99735.555,-20311.564,-17706.219,-18849.53,-33076.58,-17087.484,10626.303
1318415.8329286736,-102027.23,-99724.94,-20309.693,-17703.328,-18843.059,-33075.93,-17086.467,10628.54
1318415.836928668,-102009.36,-99706.83,-20305.584,-17697.145,-18836.752,-33074.992,-17088.217,10627.482
1318415.8409286623,-101988.9,-99705.28,-20305.258,-17697.266,-18840.008,-33077.027,-17089.559,10627.36
1318415.8449286567,-101999.555,-99715.46,-20310.914,-17701.701,-18848.227,-33079.996,-17089.111,10627.279
1318415.848928651,-102016.69,-99718.266,-20317.953,-17703.572,-18849.203,-33080.527,-17090.17,10622.396
1318415.8529286454,-102019.78,-99715.87,-20322.713,-17704.102,-18849.041,-33080.934,-17092.45,10623.291
1318415.8569286398,-102008.34,-99709.27,-20318.686,-17699.992,-18842.041,-33079.793,-17090.252,10631.674
1318415.8609286342,-101990.12,-99705.94,-20315.715,-17697.633,-18842.732,-33079.715,-17084.637,10643.026
1318415.8649286286,-101998.25,-99712.445,-20321.9,-17701.58,-18853.516,-33080.203,-17080.242,10645.793
1318415.868928623,-102013.31,-99718.18,-20324.91,-17704.469,-18862.184,-33080.484,-17079.469,10644.247
1318415.8729286173,-102009.24,-99716.88,-20324.83,-17702.76,-18856.04,-33081.992,-17081.87,10643.677
1318415.8769286117,-101995.08,-99705.445,-20322.145,-17697.836,-18846.559,-33082.848,-17080.566,10650.839
1318415.880928606,-101983.484,-99698.164,-20318.074,-17695.68,-18843.465,-33079.836,-17076.05,10657.675
1318415.8849286004,-101992.03,-99707.484,-20321.615,-17700.033,-18848.715,-33080.85,-17077.76,10645.793
1318415.8889285948,-102002.04,-99714.52,-20327.88,-17703.613,-18855.428,-33083.863,-17082.52,10633.993
1318415.8929285891,-101998.45,-99711.96,-20325.643,-17700.562,-18854.656,-33084.15,-17083.172,10633.261
1318415.8969285835,-101989.55,-99701.91,-20322.674,-17696.209,-18849.406,-33082.234,-17083.049,10636.353
1318415.9009285779,-101982.55,-99703.86,-20320.598,-17696.615,-18850.139,-33081.137,-17080.566,10637.451
1318415.9049285722,-101986.01,-99709.72,-20323.527,-17701.742,-18857.79,-33081.22,-17074.504,10640.666
1318415.9089285666,-101996.75,-99713.3,-20326.336,-17704.754,-18861.37,-33082.36,-17071.209,10645.671
1318415.912928561,-101996.95,-99712.77,-20326.701,-17703.94,-18858.521,-33081.016,-17069.58,10646.688
1318415.9169285554,-101987.19,-99706.18,-20325.074,-17701.457,-18853.312,-33082.438,-17072.021,10648.356
1318415.9209285497,-101982.305,-99702.84,-20325.643,-17702.719,-18851.727,-33084.35,-17072.55,10644.491
1318415.924928544,-101997.12,-99716.84,-20331.707,-17707.316,-18861.37,-33088.707,-17072.754,10639.079
1318415.9289285385,-102008.34,-99724.41,-20339.07,-17708.578,-18864.055,-33089.684,-17073.121,10641.806
1318415.9329285328,-102004.68,-99720.95,-20341.105,-17707.723,-18860.76,-33089.113,-17072.225,10642.212
1318415.9369285272,-102003.664,-99718.8,-20336.793,-17705.566,-18856.771,-33089.76,-17072.918,10642.782
1318415.9409285216,-101985.44,-99711.875,-20334.188,-17703.29,-18856.242,-33089.844,-17071.209,10643.433
1318415.944928516,-101991.01,-99715.7,-20336.873,-17706.707,-18858.928,-33090.78,-17061.117,10646.606
1318415.9489285103,-102004.6,-99722.05,-20342.244,-17710.45,-18863.648,-33090.25,-17051.434,10649.658
1318415.9529285047,-102004.195,-99713.914,-20341.473,-17707.684,-18863.607,-33089.926,-17046.51,10651.693
1318415.956928499,-101993.25,-99704.67,-20338.42,-17704.63,-18857.586,-33090.78,-17043.133,10655.07
1318415.9609284934,-101985.35,-99705.77,-20335.328,-17705.404,-18855.836,-33088.46,-17036.256,10661.255
1318415.9649284878,-101989.95,-99712.81,-20339.967,-17707.072,-18861.248,-33087.242,-17031.494,10660.522
1318415.9689284822,-101996.14,-99711.96,-20342.082,-17707.195,-18864.705,-33090.78,-17030.193,10654.745
1318415.9729284765,-101993.9,-99705.04,-20342.164,-17705.73,-18859.62,-33091.31,-17026.652,10658.8955
1318415.976928471,-101979.05,-99695.4,-20339.234,-17702.148,-18852.01,-33089.48,-17024.861,10663.086
1318415.9809284653,-101973.516,-99697.11,-20339.314,-17702.557,-18855.957,-33089.316,-17026.652,10661.418
1318415.9849284596,-101986.984,-99706.51,-20345.541,-17707.357,-18865.643,-33091.31,-17027.344,10654.623
1318415.988928454,-102009.97,-99719.61,-20349.406,-17711.346,-18867.799,-33093.344,-17027.344,10652.548
1318415.9929284484,-102007.77,-99715.17,-20346.355,-17709.758,-18867.39,-33095.133,-17030.355,10653.931
1318415.9969284427,-101992.555,-99700.97,-20343.67,-17705.445,-18859.62,-33095.582,-17030.6,10653.891
1318416.000928437,-101982.75,-99699.42,-20342.488,-17704.998,-18854.29,-33094.44,-17028.523,10659.75
1318416.0049284315,-101990.52,-99705.9,-20346.436,-17708.578,-18860.799,-33094.24,-17025.025,10664.673
1318416.0089284256,-102006.19,-99718.39,-20353.963,-17714.193,-18866.863,-33096.438,-17024.984,10663.452
1318416.01292842,-102006.555,-99716.516,-20355.877,-17713.787,-18863.934,-33097.293,-17025.514,10660.034
1318416.0169284143,-102000.37,-99703.25,-20348.674,-17710.246,-18859.213,-33097.94,-17023.152,10664.267
1318416.0209284087,-101997.4,-99696.695,-20348.47,-17709.514,-18858.074,-33096.76,-17020.264,10667.847
1318416.024928403,-102010.22,-99702.03,-20357.504,-17713.867,-18865.967,-33095.62,-17018.23,10666.992
1318416.0289283975,-102012.375,-99708.21,-20362.916,-17717.164,-18872.355,-33097.7,-17017.822,10666.016
1318416.0329283918,-102001.8,-99701.17,-20354.492,-17712.932,-18868.734,-33097.902,-17018.514,10666.342
1318416.0369283862,-101987.8,-99688.56,-20350.3,-17708.496,-18862.793,-33098.188,-17018.148,10671.509
1318416.0409283806,-101980.23,-99688.64,-20351.36,-17708.7,-18867.146,-33099.367,-17017.945,10675.415
1318416.044928375,-101992.07,-99704.06,-20357.625,-17713.826,-18878.744,-33102.176,-17021.037,10667.888
1318416.0489283693,-102007.29,-99712.41,-20358.846,-17715.74,-18885.174,-33104.332,-17021.932,10661.133
1318416.0529283637,-102005.25,-99708.664,-20355.713,-17712.605,-18879.191,-33104.82,-17022.828,10661.093
1318416.056928358,-101992.35,-99695.84,-20349.732,-17707.602,-18873.129,-33102.742,-17020.264,10664.47
1318416.0609283524,-101978.84,-99693.445,-20342.896,-17707.195,-18872.723,-33102.215,-17015.828,10666.952
1318416.0649283468,-101980.31,-99702.516,-20342.244,-17708.74,-18877.686,-33103.395,-17014.445,10668.823
1318416.0689283411,-101989.664,-99703.78,-20346.07,-17710.896,-18883.668,-33105.47,-17014.445,10670.858
1318416.0729283355,-101994.14,-99704.06,-20347.982,-17713.502,-18883.627,-33106.324,-17019.94,10666.586
1318416.07692833,-101989.83,-99701.09,-20345.459,-17710.205,-18879.354,-33106.773,-17025.92,10663.168
1318416.0809283243,-101985.92,-99700.28,-20346.436,-17707.764,-18876.588,-33108.684,-17029.135,10662.272
1318416.0849283186,-101997.97,-99707.234,-20350.912,-17711.346,-18883.504,-33109.457,-17028.117,10659.628
1318416.088928313,-102010.13,-99715.7,-20353.639,-17713.99,-18889.73,-33109.906,-17028.973,10659.912
1318416.0929283074,-102005.29,-99710.66,-20348.877,-17711.834,-18888.387,-33109.215,-17029.256,10664.185
1318416.0969283017,-101991.336,-99701.016,-20345.988,-17709.473,-18884.115,-33108.074,-17031.494,10666.057
1318416.100928296,-101986.33,-99698.81,-20348.348,-17709.229,-18884.318,-33107.75,-17034.912,10659.668
1318416.1049282905,-101995.41,-99709.72,-20353.475,-17712.605,-18888.387,-33107.137,-17033.406,10656.047
1318416.1089282848,-102003.42,-99713.3,-20355.225,-17715.17,-18891.725,-33107.586,-17029.012,10655.64
1318416.1129282792,-102006.19,-99707.56,-20351.482,-17711.71,-18883.627,-33108.074,-17027.426,10657.756
1318416.1169282736,-101992.96,-99701.74,-20345.418,-17708.375,-18877.97,-33108.156,-17025.39,10666.952
1318416.120928268,-101983.36,-99698.086,-20339.967,-17707.52,-18879.68,-33106.85,-17022.543,10671.835
1318416.1249282623,-101987.15,-99700.04,-20342.041,-17711.305,-18886.271,-33104.13,-17019.572,10668.661
1318416.1289282567,-102003.5,-99705.98,-20350.465,-17715.82,-18891.236,-33104.492,-17017.293,10666.586
1318416.132928251,-102005.13,-99702.516,-20355.428,-17715.332,-18887.654,-33104.25,-17017.904,10670.085
1318416.1369282454,-101983.08,-99695.27,-20353.963,-17711.629,-18882.61,-33100.992,-17015.057,10674.846
1318416.1409282398,-101977.7,-99690.39,-20352.824,-17712.525,-18884.725,-33098.31,-17011.19,10682.251
1318416.1449282342,-101991.055,-99704.305,-20355.916,-17716.023,-18888.713,-33099.324,-17008.3,10681.112
1318416.1489282285,-102000.77,-99713.14,-20358.766,-17717.45,-18893.799,-33100.426,-17006.795,10679.565
1318416.152928223,-102000.94,-99711.96,-20359.498,-17716.268,-18891.684,-33101.81,-17012.371,10672.119
1318416.1569282173,-101996.75,-99710.05,-20356.527,-17713.014,-18888.143,-33100.63,-17015.178,10672.7295
1318416.1609282116,-101982.016,-99707.52,-20353.23,-17712.037,-18888.957,-33099.04,-17012.086,10679.321
1318416.164928206,-101979.86,-99710.25,-20357.463,-17716.35,-18893.922,-33100.06,-17010.05,10675.903
1318416.1689282004,-101995.61,-99715.87,-20360.596,-17720.785,-18898.396,-33099.57,-17008.545,10674.113
1318416.1729281947,-101995.81,-99710.21,-20358.154,-17718.262,-18894.207,-33097.984,-17006.348,10676.799
1318416.1769281891,-101986.66,-99701.3,-20353.475,-17715.008,-18886.475,-33097.21,-17007.365,10679.037
1318416.1809281835,-101984.13,-99700.6,-20354.127,-17713.299,-18885.133,-33100.14,-17007.936,10681.926
1318416.1849281779,-101994.06,-99707.28,-20355.998,-17714.314,-18894.328,-33103.965,-17007.406,10678.061
1318416.1889281722,-102002.65,-99712.41,-20357.057,-17716.268,-18895.143,-33105.023,-17007.732,10678.183
1318416.1929281666,-102000.164,-99707.28,-20352.865,-17713.664,-18886.922,-33102.99,-17009.033,10676.84
1318416.196928161,-101986.45,-99696.695,-20345.947,-17708.66,-18879.924,-33102.457,-17009.766,10678.02
1318416.2009281553,-101979.74,-99689.66,-20346.965,-17707.195,-18875.082,-33101.24,-17006.918,10678.142
1318416.2049281497,-101979.01,-99692.43,-20348.348,-17707.846,-18884.521,-33098.594,-16999.39,10682.414
1318416.208928144,-101989.586,-99703.58,-20354.656,-17712.566,-18891.195,-33099.367,-16996.705,10682.333
1318416.2129281384,-101991.87,-99701.91,-20357.422,-17711.346,-18885.336,-33099.367,-16997.926,10679.525
1318416.2169281328,-101981.98,-99691.25,-20352.621,-17707.887,-18875.611,-33096.883,-16996.95,10678.264
1318416.2209281272,-101974.33,-99682.58,-20349.488,-17707.479,-18871.258,-33095.664,-16993.979,10683.31
1318416.2249281215,-101986.33,-99688.48,-20355.51,-17709.514,-18876.994,-33096.883,-16993.205,10684.204
1318416.228928116,-102006.06,-99697.11,-20361.207,-17710.734,-18883.18,-33100.547,-16997.559,10678.833
1318416.2329281103,-101992.84,-99696.74,-20358.521,-17707.967,-18876.953,-33103.11,-17003.215,10677.002
1318416.2369281044,-101977.22,-99684.414,-20352.01,-17701.498,-18866.334,-33103.598,-17004.762,10681.03
1318416.2409280988,-101968.71,-99680.664,-20350.3,-17700.48,-18865.52,-33103.477,-17003.094,10685.059
1318416.2449280932,-101974.2,-99690.59,-20354.412,-17704.225,-18876.873,-33105.023,-17002.727,10680.99
1318416.2489280875,-101984.375,-99696.05,-20353.475,-17706.828,-18882.365,-33104.94,-17003.133,10678.345
1318416.252928082,-101984.016,-99688.73,-20350.18,-17704.916,-18877.32,-33105.836,-17006.877,10673.462
1318416.2569280763,-101970.7,-99679.28,-20347.86,-17699.748,-18868.816,-33106.69,-17010.213,10674.927
1318416.2609280706,-101958.7,-99674.03,-20347.371,-17698.975,-18865.316,-33103.68,-17005.086,10685.873
1318416.264928065,-101968.43,-99681.484,-20348.756,-17703.166,-18871.46,-33104.086,-16999.879,10687.46
1318416.2689280594,-101981.125,-99681.28,-20347.047,-17704.225,-18878.418,-33105.023,-16997.6,10686.728
1318416.2729280537,-101978.516,-99678.23,-20344.32,-17701.375,-18875.367,-33103.07,-16996.053,10686.687
1318416.276928048,-101966.31,-99675.58,-20340.658,-17698.61,-18869.588,-33100.63,-16992.514,10690.43
1318416.2809280425,-101962.734,-99675.7,-20339.682,-17700.36,-18870.89,-33098.51,-16985.719,10698.405
1318416.2849280369,-101973.516,-99680.95,-20345.012,-17706.34,-18877.727,-33099.69,-16984.334,10695.842
1318416.2889280312,-101986.734,-99685.95,-20348.023,-17708.62,-18880.697,-33099.938,-16983.846,10696.33
1318416.2929280256,-101983.56,-99683.72,-20347.088,-17706.746,-18877.605,-33097.656,-16981.771,10697.876
1318416.29692802,-101974.164,-99678.43,-20346.111,-17704.346,-18869.793,-33094.85,-16979.736,10699.179
1318416.3009280143,-101975.55,-99675.21,-20345.297,-17704.184,-18870.646,-33095.99,-16981.486,10702.556
1318416.3049280087,-101979.17,-99680.055,-20349.162,-17707.072,-18875.773,-33098.105,-16982.625,10699.504
1318416.308928003,-101987.59,-99684.37,-20350.18,-17707.764,-18879.72,-33100.832,-16985.352,10695.761
1318416.3129279974,-101989.38,-99684.53,-20350.383,-17704.06,-18873.7,-33103.434,-16988.566,10695.72
1318416.3169279918,-101980.06,-99677.25,-20348.592,-17701.13,-18866.62,-33104.25,-16991.008,10696.289
1318416.3209279862,-101974.33,-99676.19,-20348.959,-17702.678,-18863.363,-33101.766,-16984.54,10703.857
1318416.3249279805,-101982.51,-99683.19,-20352.133,-17706.502,-18870.605,-33101.562,-16980.428,10702.067
1318416.328927975,-101988.77,-99688.27,-20356.771,-17709.31,-18876.018,-33102.094,-16980.633,10697.998
1318416.3329279693,-101985.6,-99686.89,-20358.236,-17707.967,-18876.18,-33102.824,-16981.08,10701.742
1318416.3369279637,-101974.37,-99682.26,-20355.104,-17704.549,-18869.793,-33101.156,-16979.615,10705.526
1318416.340927958,-101968.914,-99682.13,-20352.215,-17704.793,-18869.02,-33100.06,-16977.05,10710.246
1318416.3449279524,-101980.59,-99690.96,-20357.342,-17710.328,-18874.838,-33099.977,-16977.254,10705.404
1318416.3489279468,-101996.99,-99697.88,-20364.38,-17713.217,-18879.436,-33101.44,-16980.795,10696.127
1318416.3529279411,-102000.57,-99696.49,-20364.543,-17711.346,-18878.338,-33102.094,-16983.195,10696.249
1318416.3569279355,-101984.945,-99683.92,-20354.33,-17706.34,-18869.549,-33099.246,-16977.58,10703.817
1318416.3609279299,-101976.24,-99679.04,-20351.238,-17706.951,-18867.229,-33097.902,-16971.477,10710.815
1318416.3649279242,-101991.13,-99689.7,-20358.154,-17711.629,-18878.541,-33098.51,-16968.059,10711.264
1318416.3689279186,-102006.59,-99696.086,-20362.225,-17714.682,-18881.227,-33100.953,-16969.28,10709.758
1318416.372927913,-101994.59,-99693.81,-20358.236,-17713.176,-18876.506,-33099.69,-16971.924,10703.817
1318416.3769279073,-101984.91,-99692.06,-20354.492,-17710.002,-18872.682,-33099.246,-16974.285,10705.2
1318416.3809279017,-101977.3,-99688.36,-20353.436,-17708.7,-18874.146,-33100.63,-16974.895,10706.625
1318416.384927896,-101982.875,-99691.086,-20356.242,-17712.402,-18879.232,-33102.336,-16974.691,10705.811
1318416.3889278905,-101995.41,-99699.42,-20362.793,-17716.229,-18883.465,-33104.82,-16978.436,10700.195
1318416.3929278848,-101994.19,-99696.01,-20362.06,-17713.299,-18878.744,-33107.953,-16983.928,10702.067
1318416.3969278792,-101983.805,-99685.14,-20359.416,-17709.717,-18871.338,-33107.26,-16985.516,10703.654
1318416.4009278736,-101981.98,-99680.016,-20357.951,-17710.002,-18872.07,-33104.695,-16981.648,10709.188
1318416.404927868,-101991.414,-99696.336,-20362.793,-17714.479,-18874.553,-33105.145,-16978.395,10709.27
1318416.4089278623,-101997.64,-99701.46,-20363.852,-17717.408,-18879.965,-33106.49,-16977.783,10708.944
1318416.4129278567,-101994.59,-99693.766,-20362.143,-17718.059,-18879.07,-33108.316,-16980.836,10709.392
1318416.416927851,-101985.516,-99685.63,-20358.643,-17713.379,-18872.193,-33107.547,-16982.016,10712.321
1318416.4209278454,-101978.31,-99682.54,-20355.469,-17711.426,-18872.07,-33106.445,-16979.127,10715.088
1318416.4249278398,-101982.99,-99686.164,-20358.033,-17714.967,-18882.283,-33106.69,-16974.324,10718.344
1318416.4289278341,-101996.586,-99694.46,-20361.857,-17716.92,-18885.945,-33108.684,-16974.365,10713.135
1318416.4329278285,-101998.984,-99693.2,-20364.99,-17715.008,-18880.656,-33109.293,-16978.027,10709.27
1318416.436927823,-101987.47,-99684.77,-20361.775,-17709.96,-18874.797,-33107.504,-16978.924,10709.636
1318416.4409278173,-101981.98,-99685.34,-20361.94,-17709.432,-18873.902,-33105.715,-16977.336,10711.63
1318416.4449278116,-101988.164,-99695.68,-20368.367,-17714.52,-18882.324,-33107.504,-16978.312,10708.171
1318416.448927806,-101998.945,-99701.26,-20371.053,-17719.361,-18885.662,-33110.312,-16978.15,10706.991
1318416.4529278004,-101996.46,-99694.99,-20365.764,-17718.1,-18879.354,-33108.848,-16976.197,10705.404
1318416.4569277947,-101979.25,-99685.55,-20360.76,-17711.834,-18871.582,-33106.242,-16975.545,10707.194
1318416.460927789,-101975.016,-99689.13,-20362.02,-17712.281,-18872.03,-33107.504,-16976.807,10705.607
1318416.4649277832,-101993.37,-99696.13,-20366.863,-17715.82,-18880.412,-33108.6,-16976.889,10704.916
1318416.4689277776,-101997.36,-99700.85,-20368.734,-17719.158,-18883.627,-33112.59,-16980.51,10701.213
1318416.472927772,-101983.12,-99698.77,-20368.49,-17718.344,-18883.871,-33114.098,-16984.375,10701.05
1318416.4769277663,-101975.99,-99687.055,-20365.682,-17713.299,-18875.773,-33113.895,-16983.398,10706.218
1318416.4809277607,-101972.7,-99683.07,-20365.031,-17713.094,-18872.438,-33111.98,-16977.58,10715.536
1318416.484927755,-101980.19,-99691.98,-20370.646,-17715.82,-18874.146,-33111.492,-16973.104,10724.528
1318416.4889277495,-101991.664,-99697.92,-20375.447,-17717.53,-18874.635,-33111.33,-16972.494,10725.302
1318416.4929277438,-101993.66,-99695.44,-20373.78,-17716.023,-18870.402,-33110.92,-16973.104,10725.058
1318416.4969277382,-101981.49,-99685.875,-20368.205,-17712.361,-18869.996,-33109.215,-16970.988,10729.614
1318416.5009277326,-101976.73,-99689.7,-20366.578,-17712.932,-18870.117,-33108.156,-16969.523,10729.126
1318416.504927727,-101989.83,-99698.53,-20375.041,-17717.367,-18877.93,-33109.17,-16969.076,10724.365
1318416.5089277213,-102002.93,-99703.62,-20379.03,-17720.623,-18881.47,-33111.086,-16969.158,10719.809
1318416.5129277157,-101988.69,-99693.28,-20374.064,-17716.146,-18877.727,-33112.02,-16967.205,10723.308
1318416.51692771,-101971.27,-99683.59,-20370.2,-17711.264,-18872.193,-33110.883,-16968.791,10720.988
1318416.5209277044,-101974.57,-99687.79,-20371.623,-17712.2,-18869.182,-33110.92,-16969.402,10718.059
1318416.5249276988,-101980.76,-99691.734,-20372.967,-17715.21,-18874.39,-33111.086,-16965.576,10719.727
1318416.5289276931,-101992.68,-99696.74,-20375.326,-17716.756,-18880.047,-33110.11,-16963.543,10719.727
1318416.5329276875,-101988.81,-99691.45,-20375.326,-17713.787,-18869.344,-33110.516,-16964.355,10721.029
1318416.5369276819,-101974.45,-99678.914,-20370.809,-17710.45,-18864.34,-33108.805,-16961.914,10727.295
1318416.5409276763,-101968.75,-99680.016,-20372.6,-17711.467,-18863.566,-33107.75,-16958.21,10734.416
1318416.5449276706,-101975.914,-99690.72,-20377.035,-17714.926,-18868.043,-33107.547,-16956.258,10730.795
1318416.548927665,-101986.78,-99692.875,-20376.994,-17716.717,-18868.816,-33107.42,-16957.113,10729.492
1318416.5529276594,-101988.0,-99686.85,-20375.447,-17714.031,-18864.096,-33108.805,-16959.188,10731.73
1318416.5569276537,-101979.984,-99682.17,-20371.99,-17710.328,-18857.016,-33109.01,-16958.578,10733.562
1318416.560927648,-101968.34,-99673.51,-20369.305,-17708.496,-18851.807,-33107.953,-16958.049,10737.753
1318416.5649276425,-101974.29,-99672.49,-20372.07,-17713.502,-18855.672,-33107.625,-16956.34,10736.654
1318416.5689276368,-101989.016,-99680.42,-20375.936,-17715.576,-18855.713,-33108.684,-16956.787,10736.247
1318416.5729276312,-101984.945,-99672.94,-20373.535,-17710.938,-18851.889,-33109.703,-16959.92,10735.922
1318416.5769276256,-101970.664,-99664.23,-20366.455,-17705.486,-18848.715,-33108.887,-16960.49,10738.811
1318416.58092762,-101973.35,-99668.336,-20364.217,-17706.707,-18848.756,-33108.805,-16957.275,10741.293
1318416.5849276143,-101995.28,-99681.73,-20370.158,-17713.623,-18856.73,-33111.246,-16958.334,10735.678
1318416.5889276087,-102001.06,-99692.51,-20373.129,-17714.682,-18861.166,-33113.28,-16962.24,10727.499
1318416.592927603,-101994.96,-99689.336,-20374.105,-17712.566,-18856.893,-33114.746,-16964.885,10727.377
1318416.5969275974,-101982.51,-99678.63,-20370.605,-17708.943,-18850.342,-33114.95,-16966.188,10729.736
1318416.6009275918,-101973.76,-99674.93,-20369.67,-17706.299,-18847.697,-33114.137,-16964.479,10732.382
1318416.6049275862,-101984.664,-99680.95,-20377.482,-17712.281,-18856.08,-33114.055,-16961.873,10731.12
1318416.6089275805,-101996.5,-99683.19,-20379.314,-17714.396,-18860.637,-33112.305,-16956.219,10735.393
1318416.612927575,-101999.11,-99687.18,-20379.639,-17714.07,-18854.207,-33111.453,-16955.078,10736.816
1318416.6169275693,-101988.85,-99683.59,-20379.232,-17710.043,-18853.883,-33111.33,-16955.201,10739.055
1318416.6209275636,-101978.92,-99679.12,-20376.344,-17708.822,-18855.633,-33109.78,-16949.91,10745.077
1318416.624927558,-101987.35,-99681.28,-20379.03,-17712.2,-18859.822,-33109.215,-16946.371,10745.239
1318416.6289275524,-101997.64,-99687.26,-20382.447,-17715.496,-18862.63,-33110.066,-16947.51,10742.106
1318416.6329275467,-101990.93,-99680.42,-20378.5,-17711.426,-18854.94,-33111.246,-16952.148,10739.665
1318416.636927541,-101976.16,-99671.67,-20371.541,-17706.137,-18847.615,-33112.1,-16954.346,10746.704
1318416.6409275355,-101971.64,-99669.27,-20370.037,-17704.305,-18850.262,-33111.33,-16951.54,10750.977
1318416.6449275299,-101985.68,-99677.01,-20371.502,-17708.172,-18861.328,-33110.68,-16948.934,10749.634
1318416.6489275242,-101995.445,-99690.63,-20375.652,-17711.06,-18863.281,-33112.918,-16949.342,10747.192
1318416.6529275186,-101988.98,-99690.96,-20375.732,-17708.375,-18856.975,-33113.73,-16950.236,10751.709
1318416.656927513,-101973.31,-99674.85,-20371.053,-17704.916,-18851.36,-33111.246,-16950.766,10753.825
1318416.6609275073,-101966.15,-99667.195,-20370.729,-17704.225,-18854.045,-33111.613,-16950.766,10752.727
1318416.6649275017,-101974.57,-99673.51,-20374.188,-17707.602,-18861.492,-33112.793,-16951.783,10748.779
1318416.668927496,-101985.516,-99681.69,-20375.447,-17709.229,-18863.729,-33110.516,-16949.504,10748.739
1318416.6729274904,-101981.695,-99675.984,-20373.902,-17708.008,-18861.775,-33108.727,-16949.545,10748.495
1318416.6769274848,-101968.836,-99669.766,-20368.693,-17705.525,-18856.242,-33108.562,-16948.812,10749.512
1318416.6809274792,-101965.91,-99670.86,-20367.92,-17707.805,-18856.283,-33107.34,-16945.15,10748.332
1318416.6849274735,-101976.97,-99677.29,-20369.629,-17712.037,-18866.62,-33106.04,-16939.9,10747.437
1318416.688927468,-101988.77,-99681.36,-20373.414,-17713.176,-18876.709,-33106.61,-16939.453,10747.803
1318416.692927462,-101993.05,-99679.69,-20372.03,-17709.596,-18868.938,-33106.69,-16943.115,10742.798
1318416.6969274564,-101974.45,-99674.56,-20370.77,-17708.172,-18862.996,-33108.848,-16946.045,10742.229
1318416.7009274508,-101965.58,-99671.06,-20373.332,-17709.758,-18864.014,-33107.26,-16942.912,10750.529
1318416.7049274452,-101976.32,-99677.164,-20377.238,-17714.111,-18870.729,-33106.16,-16939.088,10753.134
1318416.7089274395,-101991.055,-99688.56,-20381.227,-17717.53,-18878.297,-33107.87,-16940.877,10746.826
1318416.712927434,-101990.195,-99685.55,-20380.127,-17714.6,-18877.645,-33109.01,-16945.8,10746.46
1318416.7169274283,-101979.336,-99676.48,-20374.553,-17710.531,-18869.344,-33109.58,-16947.592,10749.634
1318416.7209274226,-101971.11,-99674.234,-20371.176,-17710.084,-18867.27,-33109.824,-16945.354,10752.971
1318416.724927417,-101978.03,-99681.64,-20373.78,-17711.59,-18871.908,-33111.29,-16946.697,10751.994
1318416.7289274114,-101991.74,-99691.05,-20379.924,-17715.291,-18879.07,-33114.258,-16949.098,10750.204
1318416.7329274057,-101991.62,-99689.09,-20378.703,-17712.037,-18874.023,-33114.87,-16949.707,10751.181
1318416.7369274,-101980.02,-99677.375,-20372.111,-17707.113,-18862.59,-33112.996,-16946.98,10756.633
1318416.7409273945,-101977.625,-99673.95,-20372.193,-17706.746,-18862.184,-33112.266,-16946.818,10757.08
1318416.7449273888,-101987.96,-99678.71,-20378.094,-17710.652,-18870.85,-33112.062,-16947.225,10751.303
1318416.7489273832,-101992.68,-99680.625,-20381.43,-17714.723,-18873.332,-33113.566,-16950.277,10746.542
1318416.7529273776,-101986.695,-99676.805,-20377.361,-17712.402,-18864.625,-33112.836,-16949.91,10750.163
1318416.756927372,-101976.766,-99678.06,-20374.512,-17706.38,-18858.887,-33112.266,-16948.812,10753.012
1318416.7609273663,-101971.93,-99673.83,-20373.455,-17705.975,-18860.23,-33112.67,-16947.754,10753.866
1318416.7649273607,-101983.195,-99679.04,-20375.53,-17711.426,-18871.502,-33114.055,-16947.266,10752.89
1318416.768927355,-101993.05,-99682.62,-20377.97,-17714.07,-18876.832,-33114.664,-16949.26,10749.268
1318416.7729273494,-101987.76,-99676.4,-20375.977,-17711.834,-18874.146,-33113.73,-16948.365,10747.6
1318416.7769273438,-101976.04,-99669.03,-20371.746,-17707.764,-18868.084,-33110.23,-16942.791,10755.249
1318416.7809273382,-101972.414,-99670.984,-20369.832,-17707.357,-18862.264,-33109.418,-16937.908,10759.196
1318416.7849273325,-101978.84,-99674.4,-20373.902,-17708.822,-18864.178,-33110.883,-16937.012,10757.406
1318416.788927327,-101987.19,-99679.89,-20377.889,-17710.816,-18868.855,-33113.688,-16940.145,10754.599
1318416.7929273213,-101982.625,-99674.445,-20373.576,-17707.846,-18865.193,-33113.85,-16941.895,10753.784
1318416.7969273156,-101972.01,-99665.29,-20369.914,-17704.021,-18859.742,-33111.656,-16939.78,10759.848
1318416.80092731,-101965.3,-99665.695,-20372.396,-17705.893,-18860.84,-33111.41,-16936.646,10765.585
1318416.8049273044,-101973.76,-99670.984,-20377.441,-17711.264,-18863.201,-33112.508,-16936.605,10765.503
1318416.8089272988,-101985.6,-99672.94,-20379.11,-17711.955,-18864.91,-33114.46,-16939.168,10763.266
1318416.8129272931,-101982.875,-99667.81,-20378.377,-17708.496,-18862.346,-33115.926,-16942.994,10758.993
1318416.8169272875,-101973.72,-99664.88,-20374.105,-17703.533,-18851.482,-33115.766,-16945.557,10756.999
1318416.8209272819,-101966.88,-99661.055,-20371.094,-17701.863,-18853.15,-33115.316,-16945.639,10756.836
1318416.8249272762,-101980.76,-99669.516,-20374.594,-17705.648,-18861.043,-33115.723,-16941.53,10756.348
1318416.8289272706,-101981.53,-99676.03,-20377.238,-17708.7,-18862.59,-33115.152,-16939.332,10756.389
1318416.832927265,-101979.45,-99672.94,-20376.344,-17708.13,-18857.504,-33113.85,-16940.186,10756.918
1318416.8369272593,-101971.11,-99667.93,-20377.035,-17704.59,-18856.486,-33112.836,-16940.389,10756.592
1318416.8409272537,-101967.49,-99668.42,-20376.385,-17704.184,-18861.37,-33111.816,-16937.947,10758.789
1318416.844927248,-101982.18,-99679.57,-20379.762,-17708.863,-18869.793,-33112.223,-16934.814,10762.045
1318416.8489272424,-101996.87,-99687.55,-20383.342,-17711.264,-18869.426,-33112.918,-16931.52,10765.097
1318416.8529272368,-101987.555,-99678.836,-20379.924,-17707.275,-18862.143,-33114.95,-16933.92,10764.282
1318416.8569272312,-101970.46,-99664.76,-20374.064,-17701.986,-18854.533,-33116.05,-16936.809,10768.148
1318416.8609272256,-101964.93,-99661.26,-20372.273,-17701.824,-18854.248,-33115.438,-16936.402,10770.142
1318416.86492722,-101975.79,-99670.58,-20381.104,-17706.746,-18860.31,-33116.21,-16938.72,10762.045
1318416.8689272143,-101988.57,-99678.8,-20384.48,-17709.637,-18864.787,-33116.05,-16939.129,10758.545
1318416.8729272087,-101987.67,-99674.6,-20382.365,-17707.357,-18858.398,-33115.562,-16939.78,10756.145
1318416.876927203,-101979.13,-99667.89,-20378.744,-17703.29,-18854.412,-33116.008,-16942.098,10753.947
1318416.8809271974,-101980.35,-99670.05,-20377.28,-17702.148,-18851.889,-33116.54,-16943.848,10754.639
1318416.8849271918,-101983.12,-99676.96,-20382.324,-17705.281,-18854.818,-33117.758,-16945.395,10749.838
1318416.8889271861,-101990.69,-99683.96,-20385.701,-17705.975,-18856.893,-33120.85,-16948.242,10745.199
1318416.8929271805,-101986.62,-99675.375,-20384.236,-17702.88,-18850.912,-33121.01,-16948.527,10747.966
1318416.8969271749,-101972.66,-99661.016,-20376.873,-17699.422,-18843.873,-33117.15,-16944.824,10756.633
1318416.9009271692,-101967.0,-99658.45,-20373.455,-17699.219,-18846.111,-33115.195,-16945.15,10753.947
1318416.9049271636,-101979.17,-99670.9,-20379.314,-17703.898,-18856.568,-33118.98,-16948.445,10748.861
1318416.908927158,-101981.29,-99675.375,-20382.65,-17706.34,-18857.137,-33118.855,-16946.98,10748.739
1318416.9129271524,-101974.086,-99668.336,-20380.535,-17704.63,-18851.97,-33116.984,-16944.418,10753.215
1318416.9169271467,-101963.75,-99659.914,-20376.873,-17702.107,-18846.639,-33117.027,-16943.115,10759.685
1318416.9209271409,-101960.125,-99655.4,-20375.773,-17702.19,-18848.877,-33116.09,-16937.135,10764.934
1318416.9249271352,-101968.47,-99661.95,-20377.28,-17707.113,-18858.521,-33114.707,-16929.932,10769.45
1318416.9289271296,-101978.92,-99672.695,-20379.598,-17709.758,-18859.13,-33113.16,-16926.514,10772.543
1318416.932927124,-101978.72,-99670.82,-20379.477,-17707.357,-18856.324,-33113.973,-16930.664,10765.178
1318416.9369271183,-101969.08,-99663.78,-20376.832,-17703.328,-18849.488,-33113.65,-16932.537,10766.4795
1318416.9409271127,-101975.14,-99662.73,-20377.156,-17703.613,-18850.139,-33113.16,-16930.42,10767.456
1318416.944927107,-101977.13,-99671.39,-20383.26,-17708.822,-18855.916,-33113.28,-16930.623,10764.526
1318416.9489271014,-101981.49,-99676.19,-20387.86,-17711.955,-18863.893,-33115.6,-16935.1,10758.139
1318416.9529270958,-101981.94,-99672.33,-20385.701,-17708.943,-18860.678,-33115.887,-16936.809,10757.121
1318416.9569270902,-101967.125,-99664.8,-20378.785,-17704.549,-18849.041,-33114.055,-16933.676,10765.015
1318416.9609270846,-101964.766,-99665.57,-20379.924,-17706.219,-18846.355,-33114.3,-16932.943,10769.043
1318416.964927079,-101981.04,-99676.234,-20389.04,-17710.613,-18856.486,-33116.54,-16936.238,10762.655
1318416.9689270733,-101994.875,-99680.46,-20393.514,-17711.873,-18861.94,-33118.98,-16938.72,10761.149
1318416.9729270677,-101991.74,-99670.78,-20390.422,-17708.62,-18858.807,-33118.98,-16939.168,10762.207
1318416.976927062,-101979.54,-99661.016,-20387.045,-17703.736,-18848.553,-33118.695,-16936.482,10767.741
1318416.9809270564,-101969.69,-99657.8,-20384.156,-17702.516,-18848.023,-33118.164,-16934.285,10769.9795
1318416.9849270508,-101977.42,-99665.86,-20389.08,-17704.63,-18853.436,-33120.77,-16935.629,10763.591
1318416.9889270451,-101988.61,-99673.22,-20391.398,-17706.178,-18854.736,-33123.414,-16939.453,10756.592
1318416.9929270395,-101988.61,-99670.54,-20391.887,-17704.469,-18850.18,-33122.52,-16939.332,10760.702
1318416.9969270339,-101978.805,-99663.91,-20388.143,-17699.707,-18846.6,-33122.684,-16938.152,10766.968
1318417.0009270282,-101977.18,-99663.58,-20388.143,-17700.521,-18846.762,-33124.758,-16939.006,10765.259
1318417.0049270226,-101985.516,-99673.22,-20389.852,-17704.305,-18852.703,-33125.652,-16936.117,10763.591
1318417.008927017,-101989.055,-99675.74,-20387.818,-17705.648,-18859.01,-33126.465,-16935.506,10762.777
1318417.0129270114,-101986.21,-99669.35,-20385.58,-17702.596,-18854.94,-33127.93,-16938.844,10760.58
1318417.0169270057,-101984.54,-99665.125,-20381.348,-17697.713,-18845.582,-33126.75,-16939.129,10763.062
1318417.020927,-101981.98,-99666.305,-20381.227,-17698.527,-18846.844,-33127.24,-16939.738,10760.132
1318417.0249269945,-101988.81,-99677.21,-20387.98,-17705.201,-18857.219,-33128.094,-16943.238,10752.197
1318417.0289269888,-101998.87,-99678.59,-20392.498,-17706.34,-18859.742,-33128.297,-16947.062,10744.589
1318417.0329269832,-101990.32,-99671.8,-20390.096,-17702.19,-18854.33,-33127.89,-16948.934,10743.734
1318417.0369269776,-101976.41,-99665.94,-20382.283,-17697.51,-18848.023,-33126.668,-16947.266,10750.448
1318417.040926972,-101971.805,-99663.91,-20379.883,-17696.574,-18847.86,-33125.652,-16944.988,10754.436
1318417.0449269663,-101987.39,-99670.29,-20388.672,-17700.562,-18852.824,-33127.81,-16944.988,10751.221
1318417.0489269607,-102005.58,-99681.766,-20396.363,-17704.754,-18857.748,-33132.12,-16949.098,10751.303
1318417.052926955,-101997.195,-99673.34,-20392.416,-17702.23,-18849.324,-33128.703,-16943.848,10758.871
1318417.0569269494,-101983.08,-99660.24,-20384.441,-17698.486,-18845.459,-33126.668,-16938.844,10766.113
1318417.0609269438,-101984.945,-99668.22,-20385.377,-17700.928,-18846.111,-33128.703,-16942.098,10763.51
1318417.0649269382,-101997.766,-99676.92,-20388.55,-17706.137,-18854.004,-33130.13,-16943.318,10759.277
1318417.0689269325,-102006.8,-99676.27,-20391.684,-17707.479,-18857.057,-33131.023,-16942.098,10756.226
1318417.072926927,-102005.82,-99670.984,-20390.91,-17704.021,-18852.092,-33132.203,-16941.447,10756.958
1318417.0769269213,-101994.305,-99662.4,-20388.55,-17699.748,-18846.314,-33131.55,-16941.447,10762.004
1318417.0809269156,-101987.92,-99659.586,-20387.207,-17699.545,-18847.291,-33128.418,-16935.385,10771.322
1318417.08492691,-102006.35,-99667.12,-20391.887,-17704.305,-18854.615,-33128.746,-16930.746,10772.461
1318417.0889269044,-102006.48,-99672.33,-20393.555,-17705.16,-18855.877,-33129.234,-16930.176,10769.572
1318417.0929268987,-101997.56,-99670.33,-20393.799,-17703.613,-18850.79,-33128.543,-16932.496,10767.741
1318417.096926893,-101989.71,-99664.02,-20395.305,-17703.207,-18847.535,-33126.832,-16932.414,10768.555
1318417.1009268875,-101983.12,-99659.836,-20396.2,-17701.945,-18846.436,-33126.02,-16927.45,10773.52
1318417.1049268818,-101989.875,-99662.93,-20397.908,-17704.225,-18854.248,-33124.758,-16923.584,10779.135
1318417.1089268762,-102001.8,-99671.67,-20399.373,-17706.38,-18856.69,-33126.668,-16925.09,10779.663
1318417.1129268706,-102000.0,-99665.445,-20397.787,-17703.29,-18851.686,-33126.87,-16926.84,10781.901
1318417.116926865,-101987.19,-99654.79,-20389.527,-17696.777,-18842.164,-33125.57,-16924.316,10792.48
1318417.1209268593,-101983.32,-99652.55,-20388.348,-17696.574,-18840.943,-33126.465,-16920.98,10800.009
1318417.1249268537,-101992.48,-99659.95,-20392.701,-17699.871,-18847.9,-33128.418,-16922.566,10798.462
1318417.128926848,-101999.76,-99664.555,-20394.531,-17700.848,-18848.715,-33130.21,-16923.178,10796.062
1318417.1329268424,-101993.984,-99653.2,-20393.31,-17697.795,-18837.037,-33130.777,-16922.607,10795.207
1318417.1369268368,-101981.85,-99642.01,-20392.537,-17694.662,-18829.59,-33131.145,-16924.275,10797.363
1318417.1409268312,-101977.42,-99644.05,-20395.06,-17697.389,-18834.92,-33133.914,-16931.805,10788.086
1318417.1449268255,-101984.46,-99652.23,-20398.031,-17701.172,-18843.67,-33137.25,-16933.92,10780.803
1318417.1489268197,-101988.98,-99651.82,-20393.475,-17700.36,-18841.35,-33135.418,-16930.096,10780.111
1318417.152926814,-101982.55,-99644.62,-20389.242,-17695.11,-18833.7,-33133.586,-16931.926,10778.402
1318417.1569268084,-101968.47,-99640.99,-20385.986,-17692.586,-18831.014,-33135.66,-16935.506,10777.914
1318417.1609268028,-101961.34,-99640.67,-20384.969,-17693.36,-18826.945,-33134.645,-16932.537,10781.576
1318417.1649267972,-101971.16,-99642.26,-20385.621,-17695.965,-18833.334,-33133.426,-16926.473,10787.191
1318417.1689267915,-101987.06,-99649.664,-20387.818,-17698.201,-18838.217,-33134.605,-16926.025,10785.767
1318417.172926786,-101988.53,-99650.15,-20388.143,-17698.04,-18840.291,-33134.97,-16927.37,10786.987
1318417.1769267803,-101970.91,-99640.79,-20383.709,-17693.727,-18831.014,-33132.57,-16924.275,10792.5625
1318417.1809267746,-101965.58,-99636.48,-20383.953,-17692.018,-18829.387,-33130.7,-16919.637,10796.631
1318417.184926769,-101980.02,-99645.8,-20388.63,-17696.697,-18835.775,-33130.7,-16919.719,10793.335
1318417.1889267634,-101984.22,-99649.5,-20390.707,-17697.186,-18836.305,-33130.984,-16919.516,10791.952
1318417.1929267577,-101983.6,-99643.805,-20389.771,-17695.271,-18833.455,-33131.633,-16919.88,10793.701
1318417.196926752,-101976.2,-99639.81,-20386.19,-17691.53,-18825.521,-33131.55,-16921.387,10797.648
1318417.2009267465,-101975.18,-99642.984,-20386.639,-17692.627,-18829.184,-33130.656,-16919.434,10799.032
1318417.2049267408,-101986.66,-99653.57,-20389.893,-17697.633,-18836.71,-33129.152,-16913.168,10801.311
1318417.2089267352,-101993.414,-99662.56,-20395.06,-17699.463,-18839.355,-33129.68,-16910.889,10806.4375
1318417.2129267296,-101987.92,-99655.89,-20392.416,-17696.697,-18837.037,-33128.055,-16911.092,10806.193
1318417.216926724,-101980.875,-99647.055,-20389.527,-17695.436,-18831.543,-33125.895,-16908.691,10809.367
1318417.2209267183,-101972.91,-99642.46,-20389.242,-17695.883,-18831.746,-33126.1,-16906.576,10815.227
1318417.2249267127,-101977.91,-99647.51,-20394.002,-17696.9,-18837.037,-33128.906,-16907.105,10812.46
1318417.228926707,-101990.32,-99653.61,-20399.129,-17699.422,-18839.275,-33131.88,-16912.477,10807.739
