timestamp,Fp1,Fp2,F3,Fz,F4,Cz,Pz,Oz
1222669.261952051,-44533.652,-22512.492,-34466.188,-4207.4385,-985.51434,-32299.846,-3716.5527,-6804.3213
1222669.2659520484,-44533.082,-22511.475,-34468.426,-4207.927,-986.5316,-32299.887,-3705.363,-6796.1836
1222669.2699520458,-44538.332,-22518.475,-34471.926,-4208.7812,-984.4971,-32301.678,-3700.0327,-6791.545
1222669.273952043,-44539.43,-22518.393,-34470.99,-4208.171,-984.7412,-32303.143,-3705.892,-6793.457
1222669.2779520403,-44539.023,-22519.41,-34469.605,-4208.537,-985.3109,-32303.508,-3715.617,-6806.1523
1222669.2819520377,-44535.402,-22518.066,-34469.77,-4209.6357,-984.0495,-32303.996,-3717.8142,-6810.913
1222669.2859520349,-44533.53,-22518.066,-34470.906,-4211.1006,-987.79297,-32303.996,-3708.5369,-6804.891
1222669.2899520323,-44532.35,-22517.863,-34470.094,-4210.653,-989.70544,-32304.729,-3702.7588,-6799.5605
1222669.2939520297,-44530.438,-22515.342,-34467.977,-4210.5713,-988.64746,-32305.666,-3705.485,-6799.6826
1222669.2979520268,-44529.91,-22514.121,-34467.816,-4211.1006,-987.79297,-32306.682,-3713.8267,-6804.077
1222669.3019520242,-44532.35,-22514.61,-34469.402,-4214.0303,-986.04333,-32307.09,-3718.4653,-6806.6816
1222669.3059520214,-44533.367,-22518.23,-34470.46,-4215.78,-987.8744,-32306.438,-3710.8154,-6803.6704
1222669.3099520188,-44534.63,-22520.387,-34470.906,-4215.78,-989.624,-32303.225,-3703.2878,-6800.171
1222669.3139520162,-44552.125,-22540.732,-34476.766,-4221.843,-997.68066,-32302.736,-3707.6416,-6810.466
1222669.3179520133,-44562.137,-22548.707,-34479.98,-4224.7314,-999.95935,-32303.508,-3718.75,-6820.1094
1222669.3219520107,-44538.453,-22517.822,-34474.855,-4219.157,-990.1123,-32306.072,-3724.121,-6823.7715
1222669.3259520081,-44526.53,-22507.977,-34473.715,-4217.6514,-986.3281,-32305.666,-3714.315,-6816.488
1222669.3299520053,-44533.895,-22515.38,-34475.14,-4218.1807,-988.2406,-32304.445,-3707.9265,-6812.134
1222669.3339520027,-44533.977,-22512.86,-34474.04,-4218.0176,-987.7116,-32303.916,-3713.8267,-6811.361
1222669.337952,-44542.81,-22515.91,-34477.906,-4221.029,-987.7116,-32301.719,-3717.326,-6800.212
1222669.3419519973,-44544.273,-22517.457,-34479.98,-4222.8193,-988.9323,-32300.295,-3716.7969,-6805.7456
1222669.3459519946,-44542.89,-22515.178,-34480.51,-4223.1855,-986.9792,-32299.643,-3711.019,-6816.61
1222669.349951992,-44542.523,-22512.98,-34481.73,-4222.209,-987.8337,-32298.342,-3705.0781,-6806.4375
1222669.3539519892,-44550.742,-22520.793,-34483.48,-4224.691,-991.6992,-32297.568,-3710.2866,-6802.124
1222669.3579519866,-44555.22,-22526.49,-34481.895,-4226.074,-994.22205,-32297.527,-3717.6108,-6805.1353
1222669.361951984,-44548.3,-22521.69,-34478.516,-4225.2197,-993.32684,-32296.998,-3715.9832,-6805.664
1222669.3659519812,-44541.06,-22519.41,-34478.72,-4223.4297,-990.1123,-32297.445,-3709.066,-6808.9194
1222669.3699519786,-44535.566,-22520.184,-34480.47,-4222.9004,-990.682,-32297.61,-3704.061,-6802.8564
1222669.373951976,-44534.59,-22523.643,-34479.207,-4221.5576,-993.32684,-32294.639,-3704.8748,-6802.409
1222669.3779519731,-44537.883,-22525.758,-34480.47,-4222.6973,-993.8965,-32293.662,-3715.5762,-6805.42
1222669.3819519705,-44536.176,-22524.863,-34481.57,-4223.5107,-992.3503,-32294.924,-3722.697,-6810.7505
1222669.385951968,-44536.62,-22525.84,-34481.69,-4222.1274,-992.63513,-32296.389,-3717.448,-6812.0933
1222669.389951965,-44534.914,-22525.717,-34478.883,-4221.151,-991.862,-32297.61,-3713.3384,-6812.378
1222669.3939519625,-44535.28,-22524.537,-34477.54,-4221.029,-991.9841,-32298.625,-3716.8376,-6813.0293
1222669.3979519599,-44537.8,-22528.729,-34476.277,-4221.1104,-990.88544,-32297.648,-3722.0054,-6811.6455
1222669.401951957,-44535.402,-22526.367,-34475.383,-4221.8833,-991.29236,-32297.404,-3723.4702,-6812.5
1222669.4059519544,-44531.25,-22523.154,-34475.344,-4221.029,-989.5834,-32297.04,-3715.7798,-6807.414
1222669.4099519518,-44529.46,-22519.736,-34475.098,-4218.791,-989.0137,-32296.633,-3710.368,-6807.007
1222669.413951949,-44534.06,-22522.014,-34476.48,-4219.116,-991.4958,-32296.225,-3712.1582,-6796.4277
1222669.4179519464,-44532.758,-22521.81,-34476.074,-4219.157,-987.26404,-32297.527,-3722.7783,-6800.7
1222669.4219519435,-44529.582,-22520.957,-34474.977,-4218.628,-988.7289,-32298.545,-3726.2778,-6815.7554
1222669.425951941,-44525.516,-22516.969,-34471.273,-4217.285,-989.54266,-32298.016,-3717.4888,-6810.954
1222669.4299519383,-44522.055,-22516.969,-34469.484,-4215.78,-991.65857,-32298.545,-3710.6934,-6798.95
1222669.4339519355,-44518.15,-22515.748,-34467.41,-4214.966,-991.21094,-32299.236,-3717.3667,-6806.0713
1222669.437951933,-44516.684,-22515.098,-34466.797,-4215.617,-986.36884,-32296.713,-3720.2148,-6801.4326
1222669.4419519303,-44514.242,-22512.574,-34466.92,-4213.623,-986.0026,-32296.021,-3721.395,-6801.799
1222669.4459519275,-44510.99,-22513.877,-34467.246,-4211.0596,-986.24677,-32296.754,-3715.2507,-6804.647
1222669.4499519248,-44511.355,-22515.545,-34466.31,-4210.002,-979.0853,-32295.695,-3709.066,-6804.6064
1222669.4539519222,-44515.016,-22517.986,-34466.188,-4210.124,-983.11365,-32295.574,-3712.321,-6798.991
1222669.4579519194,-44514.445,-22520.305,-34465.332,-4210.205,-987.42676,-32297.365,-3721.7205,-6801.5137
1222669.4619519168,-44514.324,-22519.166,-34466.27,-4208.3335,-984.375,-32297.975,-3724.2432,-6804.647
1222669.4659519142,-44511.434,-22515.26,-34466.023,-4206.299,-980.3874,-32298.26,-3718.9941,-6805.664
1222669.4699519114,-44505.984,-22512.045,-34463.258,-4204.1426,-979.3701,-32294.842,-3713.623,-6806.4375
1222669.4739519088,-44500.816,-22512.574,-34461.266,-4203.003,-979.28876,-32292.727,-3716.268,-6814.453
1222669.4779519062,-44503.906,-22513.957,-34461.832,-4203.5728,-980.18396,-32292.686,-3722.7783,-6811.3203
1222669.4819519033,-44504.152,-22513.062,-34464.07,-4204.997,-981.6488,-32291.627,-3722.982,-6810.14
1222669.4859519007,-44505.414,-22518.148,-34464.97,-4206.7466,-985.2295,-32291.545,-3716.7969,-6814.453
1222669.489951898,-44508.71,-22523.805,-34464.48,-4206.828,-991.29236,-32291.262,-3710.8154,-6816.6914
1222669.4939518953,-44506.758,-22524.822,-34461.344,-4205.0376,-991.6992,-32290.365,-3712.443,-6817.302
1222669.4979518927,-44506.918,-22522.95,-34462.65,-4206.177,-986.36884,-32292.033,-3721.8833,-6819.9463
1222669.50195189,-44508.832,-22524.17,-34465.21,-4207.1943,-983.39844,-32291.83,-3721.5984,-6814.6567
1222669.5059518872,-44508.63,-22524.74,-34466.637,-4206.8687,-985.55505,-32291.465,-3713.0535,-6810.3843
1222669.5099518846,-44507.406,-22520.508,-34465.496,-4204.712,-985.55505,-32291.83,-3707.1533,-6810.5063
1222669.513951882,-44508.75,-22518.393,-34465.496,-4204.59,-985.6771,-32291.75,-3709.7983,-6808.3496
1222669.5179518792,-44510.01,-22518.555,-34465.25,-4206.665,-986.8978,-32289.877,-3716.7156,-6812.0933
1222669.5219518766,-44509.156,-22519.613,-34463.582,-4207.845,-983.6426,-32288.047,-3715.739,-6812.7036
1222669.5259518737,-44509.562,-22522.217,-34463.992,-4207.845,-984.61914,-32287.273,-3707.6824,-6814.4126
1222669.5299518711,-44509.074,-22522.34,-34463.016,-4207.235,-984.33435,-32286.623,-3698.8933,-6803.06
1222669.5339518685,-44514.12,-22525.229,-34464.48,-4207.0312,-985.9619,-32286.906,-3705.8513,-6809.652
1222669.5379518657,-44512.74,-22523.234,-34463.42,-4206.543,-986.9385,-32288.576,-3719.0757,-6821.574
1222669.541951863,-44507.45,-22519.816,-34458.62,-4205.892,-988.1999,-32289.959,-3719.6045,-6820.272
1222669.5459518605,-44502.727,-22517.578,-34457.156,-4202.759,-987.58954,-32289.592,-3709.0251,-6803.5483
1222669.5499518577,-44498.047,-22512.492,-34456.707,-4199.056,-982.25916,-32291.018,-3709.3914,-6818.4814
1222669.553951855,-44507.082,-22515.748,-34456.3,-4199.829,-984.9447,-32288.82,-3711.6294,-6821.1265
1222669.5579518524,-44511.152,-22521.322,-34456.22,-4201.579,-983.43915,-32286.338,-3717.6921,-6824.0156
1222669.5619518496,-44484.54,-22503.338,-34446.74,-4196.411,-976.6032,-32288.9,-3718.1804,-6818.319
1222669.565951847,-44470.99,-22494.996,-34444.62,-4192.912,-974.5687,-32289.592,-3710.083,-6811.7676
1222669.5699518444,-44483.93,-22504.477,-34449.22,-4193.5225,-975.99286,-32287.273,-3700.236,-6802.9785
1222669.5739518416,-44485.312,-22506.877,-34449.18,-4193.0747,-974.81287,-32286.867,-3704.5898,-6806.3154
1222669.577951839,-44470.176,-22497.723,-34444.418,-4191.04,-972.85974,-32289.104,-3716.6343,-6816.8945
1222669.5819518364,-44465.375,-22495.117,-34442.586,-4190.715,-974.528,-32290.691,-3717.326,-6815.511
1222669.5859518335,-44457.156,-22493.652,-34437.83,-4187.7036,-976.6032,-32292.156,-3710.2866,-6813.5986
1222669.589951831,-44456.465,-22497.193,-34435.387,-4186.1167,-982.05566,-32289.348,-3705.0781,-6808.4717
1222669.5939518283,-44460.086,-22502.482,-34437.99,-4186.1167,-980.83496,-32288.494,-3709.2693,-6811.157
1222669.5979518255,-44457.562,-22503.541,-34437.625,-4186.4014,-979.24805,-32288.494,-3714.8845,-6809.774
1222669.6019518229,-44461.348,-22502.686,-34439.047,-4187.0933,-976.03357,-32287.436,-3713.1348,-6812.4595
1222669.6059518203,-44461.914,-22499.432,-34440.758,-4186.4014,-973.1039,-32288.656,-3708.659,-6815.0635
1222669.6099518174,-44462.688,-22499.473,-34441.203,-4184.6113,-973.4701,-32291.83,-3706.5837,-6816.9355
1222669.6139518148,-44463.91,-22500.367,-34439.535,-4183.635,-974.2839,-32292.482,-3710.897,-6816.6504
1222669.6179518122,-44466.51,-22500.977,-34437.418,-4183.2275,-976.31836,-32291.3,-3715.8203,-6815.389
1222669.6219518094,-44466.27,-22501.588,-34437.297,-4184.123,-975.58594,-32290.895,-3715.9832,-6810.3438
1222669.6259518068,-44469.65,-22503.906,-34437.543,-4184.4893,-973.59216,-32290.447,-3707.3162,-6808.5938
1222669.629951804,-44470.297,-22504.232,-34436.32,-4182.4546,-972.9818,-32288.332,-3700.3174,-6810.913
1222669.6339518013,-44468.832,-22503.5,-34435.465,-4182.0884,-973.59216,-32285.646,-3702.0264,-6812.4595
1222669.6379517987,-44467.938,-22501.588,-34435.305,-4180.8677,-972.0459,-32285.402,-3710.612,-6817.7085
1222669.641951796,-44468.305,-22499.838,-34435.465,-4181.7627,-972.9411,-32285.97,-3711.1003,-6811.2793
1222669.6459517933,-44462.117,-22497.438,-34433.92,-4181.112,-972.9818,-32287.355,-3704.0203,-6803.304
1222669.6499517907,-44460.33,-22497.396,-34432.008,-4180.0537,-971.2321,-32286.256,-3696.981,-6801.677
1222669.6539517879,-44461.59,-22499.146,-34432.414,-4179.9316,-974.4873,-32286.135,-3701.4976,-6807.6987
1222669.6579517853,-44463.42,-22496.787,-34432.535,-4180.1353,-975.8301,-32286.5,-3709.1472,-6808.5127
1222669.6619517826,-44465.13,-22493.246,-34435.1,-4181.6,-970.4997,-32287.395,-3706.3804,-6804.1587
1222669.6659517798,-44463.582,-22493.125,-34435.59,-4180.9897,-968.50586,-32286.418,-3692.5457,-6792.9688
1222669.6699517772,-44462.117,-22492.717,-34434.082,-4179.7285,-965.9831,-32286.418,-3684.8145,-6788.2896
1222669.6739517746,-44463.016,-22495.484,-34432.457,-4179.9727,-967.7328,-32285.768,-3687.1746,-6788.086
1222669.6779517718,-44465.254,-22494.67,-34433.51,-4181.1523,-968.8721,-32286.379,-3692.2607,-6779.785
1222669.6819517692,-44461.426,-22486.451,-34433.31,-4180.1353,-964.84375,-32287.15,-3694.1326,-6782.837
1222669.6859517666,-44462.04,-22491.984,-34434.367,-4180.786,-965.9831,-32285.85,-3686.605,-6782.4707
1222669.6899517637,-44457.277,-22490.723,-34431.805,-4178.4263,-966.6748,-32285.97,-3685.5469,-6789.1035
1222669.6939517611,-44456.22,-22491.496,-34430.22,-4176.473,-969.52313,-32287.15,-3694.1326,-6805.705
1222669.6979517585,-44457.684,-22495.361,-34427.246,-4176.7173,-970.58105,-32287.355,-3702.8809,-6813.843
1222669.7019517557,-44459.598,-22497.031,-34428.1,-4179.3213,-973.3887,-32285.32,-3699.9106,-6806.1934
1222669.705951753,-44456.3,-22496.664,-34428.55,-4179.5654,-972.4528,-32283.123,-3687.1338,-6794.8
1222669.7099517505,-44453.656,-22498.373,-34428.02,-4178.4263,-972.37146,-32280.314,-3675.0083,-6788.9814
1222669.7139517476,-44455.934,-22498.129,-34430.055,-4179.118,-974.1618,-32278.24,-3675.9033,-6785.97
1222669.717951745,-44454.51,-22500.488,-34429.402,-4179.525,-974.6501,-32276.816,-3681.193,-6777.5474
1222669.7219517424,-44453.29,-22496.582,-34429.566,-4176.3105,-974.08044,-32279.664,-3685.1401,-6784.6274
1222669.7259517396,-44447.39,-22489.502,-34432.863,-4173.869,-971.3949,-32284.547,-3683.838,-6786.9062
1222669.729951737,-44444.95,-22487.834,-34429.566,-4171.509,-969.6859,-32285.28,-3680.9082,-6788.615
1222669.7339517341,-44447.348,-22491.416,-34424.97,-4170.573,-971.51697,-32285.768,-3687.0933,-6789.4287
1222669.7379517315,-44454.957,-22495.646,-34428.305,-4171.753,-972.2494,-32288.25,-3699.707,-6797.6484
1222669.741951729,-44454.633,-22493.45,-34431.234,-4172.3228,-971.3135,-32291.139,-3706.95,-6809.5703
1222669.745951726,-44455.566,-22491.863,-34433.758,-4173.34,-968.99414,-32289.959,-3697.5098,-6802.816
1222669.7499517235,-44454.1,-22494.305,-34430.258,-4172.3633,-972.37146,-32288.209,-3689.4531,-6798.991
1222669.753951721,-44458.133,-22500.488,-34430.79,-4172.6484,-977.0508,-32287.273,-3693.7664,-6805.2573
1222669.757951718,-44462.65,-22507.041,-34432.047,-4174.4795,-980.3467,-32286.744,-3699.1375,-6800.293
1222669.7619517155,-44465.375,-22510.295,-34432.535,-4176.5137,-978.02734,-32284.182,-3695.5974,-6795.288
1222669.7659517128,-44467.0,-22514.893,-34431.805,-4176.3105,-978.6784,-32282.229,-3687.1746,-6802.4497
1222669.76995171,-44468.832,-22516.236,-34431.766,-4177.043,-980.5502,-32281.047,-3681.2744,-6802.938
1222669.7739517074,-44469.85,-22518.475,-34433.105,-4177.7344,-983.0322,-32280.64,-3684.082,-6801.107
1222669.7779517048,-44466.84,-22516.113,-34430.91,-4177.7344,-980.306,-32281.535,-3690.7554,-6802.6533
1222669.781951702,-44469.85,-22519.125,-34432.13,-4179.769,-982.54395,-32282.188,-3689.616,-6797.8516
1222669.7859516994,-44470.46,-22521.607,-34434.9,-4179.118,-981.0791,-32280.803,-3679.647,-6784.6274
1222669.7899516968,-44465.902,-22517.334,-34432.82,-4177.938,-977.5798,-32280.111,-3676.8394,-6801.107
1222669.793951694,-44462.934,-22515.016,-34429.484,-4177.816,-978.475,-32280.844,-3680.949,-6799.5605
1222669.7979516913,-44469.688,-22519.857,-34429.2,-4179.769,-981.32324,-32283.693,-3689.494,-6795.329
1222669.8019516887,-44472.293,-22522.87,-34430.38,-4180.2573,-980.0619,-32285.523,-3693.7256,-6796.997
1222669.8059516859,-44471.6,-22525.39,-34429.973,-4178.508,-980.7943,-32286.947,-3689.86,-6801.921
1222669.8099516833,-44468.996,-22525.39,-34428.793,-4175.578,-978.02734,-32288.982,-3683.4312,-6800.7
1222669.8139516807,-44468.426,-22523.479,-34428.14,-4174.52,-977.8239,-32288.453,-3685.3843,-6797.3228
1222669.8179516778,-44469.28,-22522.055,-34428.957,-4174.8457,-976.5625,-32289.47,-3691.0808,-6795.614
1222669.8219516752,-44467.49,-22521.24,-34429.812,-4174.886,-976.0742,-32288.576,-3689.7788,-6790.8125
1222669.8259516726,-44462.73,-22518.271,-34429.402,-4174.3164,-975.3825,-32287.232,-3681.5186,-6788.778
1222669.8299516698,-44459.027,-22517.01,-34427.45,-4175.171,-976.5625,-32284.22,-3672.567,-6783.244
1222669.8339516672,-44457.6,-22516.318,-34426.15,-4177.124,-974.8942,-32281.047,-3672.8516,-6779.663
1222669.8379516643,-44460.777,-22517.945,-34427.246,-4181.356,-977.0508,-32278.281,-3677.938,-6786.255
1222669.8419516617,-44462.85,-22523.643,-34427.45,-4185.791,-978.2715,-32276.775,-3673.2585,-6781.25
1222669.8459516591,-44460.33,-22520.996,-34424.113,-4184.8555,-980.50946,-32275.473,-3662.9639,-6777.6694
1222669.8499516563,-44461.02,-22519.775,-34422.77,-4183.187,-981.2012,-32276.246,-3660.4004,-6787.1094
1222669.8539516537,-44464.438,-22524.334,-34424.316,-4182.007,-977.417,-32278.932,-3667.3992,-6784.79
1222669.857951651,-44468.875,-22530.152,-34425.945,-4181.8037,-978.8412,-32280.764,-3674.8455,-6774.9434
1222669.8619516483,-44473.836,-22535.117,-34427.98,-4182.292,-982.7067,-32281.047,-3676.6357,-6776.571
1222669.8659516457,-44473.43,-22533.977,-34432.496,-4182.617,-985.7992,-32280.64,-3671.5088,-6786.2144
1222669.869951643,-44474.324,-22537.395,-34430.38,-4183.309,-988.9323,-32280.967,-3666.8296,-6784.139
1222669.8739516402,-44475.87,-22541.748,-34429.77,-4183.96,-993.042,-32281.658,-3672.6482,-6789.592
1222669.8779516376,-44476.24,-22540.61,-34428.47,-4186.076,-994.91376,-32281.17,-3679.1992,-6783.8135
1222669.881951635,-44474.0,-22537.11,-34426.11,-4186.2793,-994.4255,-32281.535,-3678.1821,-6773.967
1222669.8859516322,-44473.555,-22540.244,-34425.824,-4187.744,-994.1406,-32280.152,-3669.7593,-6770.7114
1222669.8899516296,-44473.676,-22538.371,-34426.15,-4189.209,-994.38477,-32277.508,-3662.6792,-6766.6016
1222669.893951627,-44473.105,-22534.018,-34426.92,-4191.04,-993.32684,-32274.496,-3664.3066,-6762.451
1222669.8979516241,-44477.906,-22537.639,-34428.836,-4194.214,-997.5993,-32273.316,-3672.3228,-6767.4155
1222669.9019516215,-44485.965,-22541.586,-34432.047,-4196.7773,-998.20966,-32274.21,-3672.404,-6761.4746
1222669.905951619,-44487.387,-22541.18,-34432.332,-4197.1436,-996.66345,-32275.107,-3662.2722,-6758.464
1222669.909951616,-44483.32,-22538.615,-34430.3,-4194.58,-996.5414,-32273.928,-3657.8777,-6758.2603
1222669.9139516135,-44485.273,-22542.36,-34428.184,-4195.638,-1000.32556,-32273.031,-3663.8184,-6757.6904
1222669.9179516109,-44488.566,-22546.225,-34427.043,-4197.469,-1002.1566,-32273.602,-3673.3806,-6760.498
1222669.921951608,-44489.42,-22547.852,-34425.05,-4198.6494,-1003.9877,-32274.455,-3674.1538,-6767.741
1222669.9259516054,-44488.445,-22552.695,-34424.723,-4197.1846,-1004.7608,-32274.008,-3665.1206,-6761.9224
1222669.9299516028,-44491.58,-22558.96,-34426.066,-4198.4863,-1006.1036,-32277.182,-3664.4695,-6760.417
1222669.9339516,-44493.855,-22556.846,-34424.766,-4198.446,-1006.7546,-32278.932,-3670.7358,-6764.486
1222669.9379515974,-44496.055,-22559.611,-34425.62,-4199.9106,-1009.7657,-32279.217,-3681.3152,-6774.455
1222669.9419515945,-44495.605,-22561.24,-34426.312,-4200.643,-1012.3698,-32279.746,-3685.669,-6781.25
1222669.945951592,-44492.23,-22558.473,-34428.47,-4200.3174,-1013.9567,-32279.908,-3678.6296,-6774.658
1222669.9499515893,-44487.875,-22553.752,-34426.15,-4197.469,-1012.98016,-32279.664,-3673.1772,-6768.718
1222669.9539515865,-44486.74,-22553.793,-34424.195,-4196.452,-1013.9567,-32280.803,-3678.6704,-6771.81
1222669.957951584,-44488.65,-22552.451,-34425.05,-4197.9575,-1012.0036,-32282.756,-3688.029,-6776.0825
1222669.9619515813,-44489.22,-22552.49,-34427.574,-4199.7886,-1012.736,-32283.488,-3689.0464,-6782.837
1222669.9659515785,-44488.61,-22550.213,-34428.59,-4199.585,-1012.2071,-32282.756,-3682.9834,-6781.006
1222669.9699515759,-44487.59,-22547.73,-34427.125,-4198.812,-1010.1319,-32282.188,-3678.3447,-6776.6113
1222669.9739515733,-44491.05,-22549.684,-34426.27,-4199.3003,-1013.794,-32281.74,-3681.7222,-6779.1343
1222669.9779515704,-44490.4,-22546.836,-34424.03,-4200.765,-1012.32916,-32283.773,-3693.034,-6788.9
1222669.9819515678,-44490.113,-22544.922,-34424.234,-4200.887,-1008.46356,-32284.506,-3693.9292,-6787.2314
1222669.9859515652,-44490.438,-22545.248,-34424.887,-4199.7886,-1006.38837,-32284.385,-3685.4656,-6781.5757
1222669.9899515624,-44491.008,-22545.86,-34424.36,-4198.161,-1006.55115,-32286.012,-3681.6,-6779.826
1222669.9939515598,-44493.492,-22549.846,-34424.074,-4198.3237,-1010.8643,-32285.197,-3683.3904,-6779.826
1222669.9979515572,-44495.89,-22551.555,-34425.62,-4199.585,-1010.7829,-32283.367,-3689.738,-6779.7446
1222670.0019515543,-44495.81,-22549.725,-34424.277,-4201.9043,-1013.0209,-32283.285,-3689.4531,-6775.879
1222670.0059515517,-44501.1,-22553.996,-34426.395,-4203.817,-1015.25885,-32283.896,-3681.193,-6774.17
1222670.0099515491,-44495.81,-22546.307,-34422.77,-4200.6836,-1010.4981,-32283.164,-3676.1882,-6774.3735
1222670.0139515463,-44493.492,-22542.604,-34419.56,-4199.341,-1004.06903,-32283.408,-3679.8096,-6776.815
1222670.0179515437,-44497.844,-22547.363,-34419.273,-4201.6196,-1005.33044,-32282.879,-3684.8552,-6777.507
1222670.021951541,-44493.492,-22546.143,-34416.14,-4201.6196,-1009.196,-32280.885,-3679.647,-6771.118
1222670.0259515382,-44492.637,-22542.156,-34417.195,-4201.213,-1006.7139,-32279.705,-3669.7593,-6764.282
1222670.0299515356,-44500.125,-22546.795,-34417.97,-4202.23,-1010.90497,-32280.926,-3664.7544,-6761.9224
1222670.033951533,-44505.168,-22550.537,-34420.207,-4202.23,-1015.54364,-32281.129,-3669.8406,-6762.9395
1222670.0379515302,-44509.035,-22550.781,-34419.72,-4201.579,-1017.3747,-32282.309,-3678.4263,-6764.486
1222670.0419515276,-44513.184,-22553.63,-34420.535,-4203.491,-1015.0147,-32282.756,-3676.8394,-6763.1836
1222670.045951525,-44515.586,-22551.84,-34420.453,-4204.1016,-1015.95056,-32281.658,-3667.44,-6753.3774
1222670.0499515221,-44512.492,-22542.93,-34419.19,-4201.1313,-1011.1898,-32282.432,-3663.4116,-6753.9062
1222670.0539515195,-44513.875,-22543.377,-34418.297,-4199.5444,-1008.7484,-32282.309,-3667.9282,-6761.841
1222670.0579515167,-44513.43,-22538.209,-34417.277,-4199.3003,-1008.58563,-32282.635,-3675.415,-6769.409
1222670.061951514,-44517.336,-22534.994,-34416.586,-4200.1953,-1007.28357,-32283.041,-3675.4966,-6770.7114
1222670.0659515115,-44520.02,-22536.5,-34418.785,-4200.073,-1009.725,-32282.229,-3667.562,-6767.8223
1222670.0699515087,-44522.91,-22542.074,-34418.375,-4200.0327,-1008.8705,-32280.355,-3659.79,-6757.0396
1222670.073951506,-44526.53,-22547.893,-34419.11,-4199.9106,-1010.6202,-32281.576,-3663.1675,-6752.9707
1222670.0779515035,-44527.59,-22548.463,-34418.54,-4200.521,-1013.14294,-32284.303,-3674.6826,-6764.364
1222670.0819515006,-44525.96,-22542.4,-34416.63,-4200.277,-1011.92224,-32285.646,-3681.8848,-6777.1406
1222670.085951498,-44522.992,-22539.918,-34418.5,-4200.1953,-1014.40436,-32287.639,-3675.1304,-6776.815
1222670.0899514954,-44519.168,-22539.023,-34417.117,-4197.5913,-1013.87537,-32286.623,-3668.4978,-6774.333
1222670.0939514926,-44514.406,-22534.629,-34411.785,-4195.638,-1015.7878,-32284.14,-3668.0908,-6770.874
1222670.09795149,-44518.066,-22537.314,-34411.5,-4196.4927,-1016.1947,-32284.14,-3673.6655,-6768.4326
1222670.1019514874,-44519.37,-22540.162,-34411.664,-4198.3643,-1019.20575,-32285.686,-3674.8862,-6766.8867
1222670.1059514845,-44515.625,-22535.564,-34410.484,-4195.923,-1017.2526,-32286.662,-3669.1082,-6769.5312
1222670.109951482,-44512.453,-22529.785,-34408.12,-4194.0107,-1015.54364,-32286.947,-3665.609,-6769.0024
1222670.1139514793,-44515.22,-22530.803,-34407.023,-4194.824,-1012.0443,-32287.273,-3672.1191,-6773.6816
1222670.1179514765,-44521.406,-22536.053,-34408.53,-4196.7773,-1016.9271,-32286.744,-3681.2744,-6770.3857
1222670.1219514739,-44526.855,-22539.836,-34411.54,-4197.754,-1016.7237,-32288.088,-3681.478,-6766.9272
1222670.1259514713,-44518.637,-22534.832,-34410.24,-4194.906,-1017.0085,-32290.041,-3674.398,-6772.217
1222670.1299514684,-44514.527,-22530.07,-34408.855,-4192.1797,-1015.8692,-32290.121,-3668.986,-6772.746
1222670.1339514658,-44520.55,-22534.547,-34411.297,-4192.424,-1014.77057,-32288.9,-3670.695,-6765.0557
1222670.1379514632,-44523.4,-22536.256,-34414.715,-4195.2314,-1015.3809,-32289.756,-3677.8564,-6765.788
1222670.1419514604,-44519.29,-22534.059,-34414.715,-4195.638,-1014.974,-32292.115,-3680.4607,-6777.7915
1222670.1459514578,-44517.254,-22532.064,-34412.477,-4193.319,-1013.2243,-32291.506,-3671.9565,-6776.0825
1222670.1499514552,-44518.312,-22529.582,-34411.62,-4191.7725,-1013.14294,-32289.145,-3665.1611,-6770.3047
1222670.1539514523,-44521.445,-22533.203,-34411.582,-4192.9526,-1012.9395,-32289.47,-3670.0034,-6771.2812
1222670.1579514497,-44522.586,-22538.453,-34410.89,-4194.0107,-1015.21814,-32290.895,-3678.5076,-6771.0776
1222670.161951447,-44526.41,-22543.457,-34411.133,-4195.1904,-1018.7582,-32291.871,-3678.9958,-6771.1997
1222670.1659514443,-44531.902,-22553.793,-34411.62,-4197.347,-1021.2403,-32291.586,-3670.8984,-6778.524
1222670.1699514417,-44534.547,-22555.828,-34411.703,-4195.923,-1022.70514,-32290.285,-3665.202,-6773.3564
1222670.1739514389,-44522.586,-22538.33,-34410.32,-4194.621,-1019.1244,-32291.262,-3670.9392,-6775.3096
1222670.1779514363,-44522.543,-22538.697,-34410.688,-4196.2485,-1022.17615,-32291.18,-3678.6296,-6771.81
1222670.1819514337,-44534.26,-22549.928,-34416.06,-4197.876,-1022.6237,-32293.174,-3680.4607,-6774.8213
1222670.1859514308,-44526.816,-22539.715,-34418.254,-4194.702,-1017.49677,-32296.225,-3676.229,-6773.4375
1222670.1899514282,-44531.535,-22542.969,-34421.023,-4194.702,-1019.2872,-32295.248,-3674.8047,-6783.0405
1222670.1939514256,-44533.69,-22544.922,-34420.94,-4195.1904,-1022.17615,-32294.395,-3679.5654,-6789.8765
1222670.1979514228,-44527.832,-22537.883,-34419.027,-4195.394,-1020.42645,-32294.312,-3683.5938,-6784.546
1222670.2019514202,-44524.902,-22535.076,-34418.297,-4194.4175,-1014.8519,-32293.254,-3679.8096,-6778.4424
1222670.2059514176,-44526.57,-22536.094,-34419.68,-4193.197,-1013.14294,-32292.727,-3670.8171,-6774.984
1222670.2099514147,-44527.266,-22538.086,-34419.883,-4191.04,-1011.1898,-32291.627,-3665.6494,-6761.4746
1222670.2139514121,-44525.72,-22537.639,-34417.887,-4189.6973,-1006.87665,-32294.963,-3674.642,-6784.017
1222670.2179514095,-44529.297,-22538.209,-34421.227,-4190.2266,-1008.545,-32297.242,-3685.018,-6792.7656
1222670.2219514067,-44530.113,-22534.791,-34425.54,-4192.627,-1009.88776,-32296.428,-3683.065,-6785.8076
1222670.225951404,-44533.49,-22538.574,-34428.67,-4191.732,-1012.1257,-32294.719,-3674.0723,-6782.756
1222670.2299514015,-44540.285,-22547.242,-34429.605,-4191.3657,-1015.3402,-32293.865,-3669.5964,-6780.5586
1222670.2339513986,-44540.938,-22549.56,-34427.574,-4192.749,-1016.76434,-32293.174,-3670.695,-6778.524
1222670.237951396,-44541.87,-22551.434,-34427.98,-4194.4175,-1015.25885,-32291.912,-3677.4497,-6782.43
1222670.2419513934,-44540.57,-22550.822,-34426.96,-4195.2314,-1012.28845,-32291.586,-3674.276,-6772.502
1222670.2459513906,-44536.5,-22544.312,-34425.21,-4193.9697,-1011.96295,-32291.018,-3662.6792,-6760.295
1222670.249951388,-44540.082,-22548.34,-34425.863,-4192.4644,-1011.7188,-32289.797,-3655.0293,-6758.8706
1222670.2539513854,-44543.582,-22553.793,-34426.23,-4192.79,-1013.0616,-32289.309,-3658.8135,-6763.957
1222670.2579513825,-44547.242,-22558.96,-34427.695,-4193.6445,-1015.1774,-32290.488,-3669.5964,-6768.8804
1222670.26195138,-44549.24,-22561.89,-34428.875,-4193.563,-1014.8112,-32291.098,-3670.3289,-6768.799
1222670.265951377,-44545.25,-22558.555,-34429.04,-4192.383,-1012.8988,-32291.342,-3661.9873,-6770.671
1222670.2699513745,-44544.19,-22557.334,-34428.305,-4192.546,-1011.59674,-32290.936,-3656.4536,-6766.968
1222670.273951372,-44541.953,-22553.184,-34426.637,-4192.505,-1009.2774,-32290.65,-3659.546,-6768.962
1222670.277951369,-44544.273,-22555.217,-34425.66,-4192.9526,-1010.8236,-32289.47,-3665.1611,-6771.6475
1222670.2819513665,-44544.965,-22558.066,-34425.457,-4192.1797,-1012.24774,-32288.576,-3659.953,-6754.354
1222670.2859513639,-44541.18,-22555.746,-34425.008,-4190.511,-1010.37604,-32288.982,-3650.0652,-6752.401
1222670.289951361,-44538.29,-22552.94,-34424.805,-4190.3076,-1010.90497,-32287.314,-3645.6707,-6764.2417
1222670.2939513584,-44540.895,-22558.758,-34425.62,-4190.918,-1009.7657,-32285.93,-3649.1294,-6758.2197
1222670.2979513558,-44543.945,-22562.5,-34427.004,-4192.79,-1013.7533,-32286.662,-3657.837,-6755.534
1222670.301951353,-44544.355,-22562.744,-34426.676,-4194.092,-1012.28845,-32286.867,-3655.4363,-6759.1147
1222670.3059513504,-44543.17,-22559.57,-34426.72,-4193.319,-1011.1491,-32286.906,-3644.287,-6752.1567
1222670.3099513478,-44539.754,-22558.473,-34424.113,-4190.3486,-1012.3698,-32286.541,-3639.7705,-6754.802
1222670.313951345,-44538.414,-22558.066,-34421.918,-4189.494,-1012.45123,-32285.686,-3644.3687,-6760.9053
1222670.3179513423,-44541.3,-22561.523,-34420.98,-4190.1855,-1016.47955,-32284.629,-3648.7224,-6755.005
1222670.3219513397,-44542.277,-22562.908,-34424.113,-4191.284,-1012.6954,-32284.791,-3647.2168,-6751.384
1222670.3259513369,-44541.63,-22564.576,-34426.758,-4191.8135,-1016.3168,-32285.035,-3641.317,-6748.047
1222670.3299513343,-44540.49,-22562.988,-34426.555,-4189.7383,-1015.4216,-32284.465,-3638.5093,-6751.9126
1222670.3339513317,-44542.605,-22563.803,-34426.312,-4189.6973,-1012.65466,-32286.215,-3645.101,-6764.323
1222670.3379513288,-44541.016,-22567.75,-34425.09,-4189.8193,-1014.5264,-32287.15,-3654.0122,-6769.2466
1222670.3419513262,-44539.96,-22565.43,-34423.992,-4191.04,-1015.7878,-32288.291,-3654.3376,-6763.916
1222670.3459513236,-44537.844,-22562.623,-34421.633,-4189.331,-1012.61395,-32287.883,-3642.4968,-6759.8066
1222670.3499513208,-44534.344,-22560.467,-34420.29,-4186.6865,-1010.0098,-32287.03,-3636.8003,-6758.301
1222670.3539513182,-44535.81,-22561.85,-34421.67,-4185.8726,-1009.15533,-32288.453,-3645.63,-6763.7534
1222670.3579513156,-44539.754,-22565.715,-34423.22,-4186.8896,-1010.0912,-32288.25,-3653.646,-6765.422
1222670.3619513127,-44541.18,-22570.15,-34422.527,-4189.006,-1015.0147,-32289.064,-3654.0527,-6766.5205
1222670.3659513101,-44537.477,-22565.35,-34421.875,-4186.4424,-1016.39813,-32288.615,-3645.6707,-6757.8535
1222670.3699513073,-44537.477,-22566.162,-34422.04,-4186.605,-1012.9395,-32288.088,-3638.3464,-6757.202
1222670.3739513047,-44535.89,-22564.738,-34418.62,-4185.547,-1007.5684,-32288.127,-3643.2292,-6769.45
1222670.377951302,-44535.89,-22562.908,-34416.18,-4187.0527,-1010.57947,-32289.389,-3653.4424,-6769.287
1222670.3819512993,-44532.473,-22560.02,-34413.74,-4186.4424,-1011.2305,-32288.738,-3652.71,-6772.949
1222670.3859512967,-44531.008,-22559.775,-34417.848,-4186.727,-1008.7484,-32285.89,-3642.9443,-6767.1714
1222670.389951294,-44535.035,-22562.988,-34418.418,-4187.256,-1009.88776,-32285.85,-3637.2886,-6764.852
1222670.3939512912,-44535.645,-22562.094,-34414.797,-4185.954,-1011.88153,-32285.768,-3641.8457,-6759.8066
1222670.3979512886,-44539.105,-22560.955,-34415.73,-4187.0117,-1010.7829,-32286.418,-3648.6816,-6757.1616
1222670.401951286,-44539.39,-22559.326,-34416.79,-4187.4595,-1010.90497,-32287.436,-3648.7632,-6756.755
1222670.4059512832,-44536.785,-22560.303,-34416.75,-4186.5645,-1011.8002,-32287.559,-3643.026,-6761.882
1222670.4099512806,-44535.81,-22560.588,-34414.227,-4185.2217,-1011.92224,-32286.135,-3640.503,-6762.5327
1222670.413951278,-44536.664,-22558.594,-34413.94,-4186.035,-1012.1257,-32283.855,-3642.1306,-6759.074
1222670.4179512751,-44539.43,-22557.129,-34413.94,-4187.866,-1013.50916,-32282.756,-3648.8445,-6755.8594
1222670.4219512725,-44541.18,-22555.34,-34413.617,-4187.866,-1015.6657,-32283.693,-3652.1404,-6754.354
1222670.42595127,-44534.18,-22548.137,-34411.703,-4185.0586,-1012.81744,-32285.035,-3647.7866,-6761.76
1222670.429951267,-44537.19,-22550.13,-34412.355,-4183.716,-1011.59674,-32284.303,-3641.2354,-6755.8594
1222670.4339512645,-44554.688,-22562.908,-34417.887,-4187.378,-1016.11334,-32282.594,-3643.27,-6755.9814
1222670.4379512619,-44552.246,-22565.594,-34415.406,-4186.6865,-1021.28094,-32283.367,-3651.0825,-6757.4873
1222670.441951259,-44528.035,-22549.602,-34406.82,-4182.617,-1015.90985,-32285.727,-3656.8604,-6761.5156
1222670.4459512564,-44526.9,-22548.79,-34407.797,-4180.664,-1014.2416,-32284.67,-3647.2168,-6756.3477
1222670.4499512538,-44534.465,-22555.828,-34409.098,-4181.3965,-1018.35126,-32282.39,-3639.323,-6748.169
1222670.453951251,-44532.555,-22549.195,-34408.043,-4180.8677,-1020.58923,-32283.205,-3644.5312,-6759.8877
1222670.4579512484,-44535.605,-22552.451,-34409.426,-4183.5938,-1024.821,-32283.164,-3648.7224,-6753.418
1222670.4619512458,-44535.81,-22554.078,-34410.402,-4184.5703,-1023.4782,-32284.22,-3654.4597,-6760.01
1222670.465951243,-44535.28,-22557.617,-34409.465,-4185.1807,-1024.2513,-32284.629,-3650.6755,-6767.253
1222670.4699512403,-44531.25,-22556.723,-34407.105,-4183.431,-1023.6003,-32283.814,-3643.2292,-6756.592
1222670.4739512375,-44536.01,-22562.826,-34406.293,-4183.431,-1027.2625,-32282.797,-3644.8975,-6756.7954
1222670.477951235,-44536.824,-22562.785,-34406.82,-4183.6753,-1028.0762,-32282.635,-3654.3784,-6770.915
1222670.4819512323,-44535.645,-22561.605,-34405.723,-4184.0415,-1028.8086,-32283.082,-3654.0527,-6768.677
1222670.4859512295,-44532.758,-22556.031,-34405.68,-4181.2744,-1025.9197,-32284.018,-3646.5251,-6761.5156
1222670.4899512269,-44533.734,-22554.893,-34407.31,-4179.5654,-1026.7742,-32284.75,-3640.747,-6757.0396
1222670.4939512243,-44531.21,-22556.64,-34404.215,-4176.9614,-1023.07135,-32283.488,-3644.4907,-6760.2134
1222670.4979512214,-44532.637,-22560.508,-34402.67,-4177.6533,-1025.0244,-32283.45,-3652.4658,-6767.5376
1222670.5019512188,-44534.344,-22562.705,-34402.71,-4178.833,-1026.7742,-32283.0,-3648.9666,-6757.9346
1222670.5059512162,-44531.82,-22563.111,-34401.53,-4179.3213,-1026.5707,-32282.023,-3642.863,-6756.2256
1222670.5099512134,-44529.746,-22563.844,-34401.33,-4177.287,-1023.641,-32281.902,-3640.2588,-6764.486
1222670.5139512108,-44529.5,-22564.047,-34403.523,-4175.9443,-1022.50165,-32282.39,-3643.6362,-6762.126
1222670.5179512082,-44529.297,-22563.518,-34401.367,-4174.886,-1021.932,-32283.693,-3650.3906,-6762.1665
1222670.5219512053,-44529.707,-22562.705,-34399.78,-4176.1475,-1023.39685,-32283.652,-3648.5596,-6760.01
1222670.5259512027,-44528.484,-22560.385,-34402.02,-4175.293,-1024.0479,-32285.035,-3642.8223,-6752.9707
1222670.5299512001,-44530.316,-22557.129,-34404.99,-4173.95,-1023.641,-32287.844,-3641.3574,-6759.725
1222670.5339511973,-44534.06,-22556.193,-34404.582,-4174.398,-1025.3906,-32288.047,-3646.5251,-6764.4043
1222670.5379511947,-44537.273,-22556.846,-34405.56,-4174.8457,-1026.53,-32286.867,-3654.826,-6768.514
1222670.541951192,-44537.312,-22556.52,-34407.473,-4176.3105,-1028.6865,-32286.256,-3654.8667,-6767.8223
1222670.5459511892,-44536.01,-22561.32,-34409.02,-4176.595,-1031.2094,-32286.297,-3648.112,-6762.1665
1222670.5499511866,-44534.75,-22563.193,-34407.88,-4173.9097,-1030.3549,-32288.047,-3647.461,-6770.9556
1222670.553951184,-44535.32,-22565.635,-34406.293,-4173.055,-1031.6162,-32287.07,-3649.1294,-6769.165
1222670.5579511812,-44538.777,-22570.762,-34404.99,-4174.642,-1032.2266,-32284.182,-3653.9307,-6769.8975
1222670.5619511786,-44539.473,-22569.662,-34405.965,-4174.6826,-1029.541,-32282.635,-3653.7273,-6772.0947
1222670.565951176,-44537.8,-22571.33,-34406.82,-4173.747,-1032.1045,-32284.791,-3649.4548,-6770.4673
1222670.5699511732,-44538.25,-22572.836,-34406.82,-4172.7705,-1036.8246,-32287.15,-3646.8914,-6772.1357
1222670.5739511705,-44537.8,-22572.021,-34403.77,-4170.6543,-1032.3486,-32285.441,-3646.1997,-6770.1416
1222670.5779511677,-44539.43,-22574.383,-34400.637,-4171.2646,-1032.4707,-32283.205,-3651.53,-6775.594
1222670.581951165,-44553.875,-22589.152,-34405.355,-4174.1943,-1034.5052,-32280.967,-3647.583,-6773.6006
1222670.5859511625,-44566.367,-22595.744,-34412.355,-4175.8223,-1035.0342,-32281.332,-3638.9568,-6767.497
1222670.5899511597,-44549.805,-22580.648,-34405.805,-4170.1255,-1031.8604,-32281.17,-3636.2712,-6766.9272
1222670.593951157,-44526.734,-22562.135,-34394.938,-4165.6494,-1026.8555,-32280.111,-3638.9976,-6765.625
1222670.5979511545,-44539.227,-22571.982,-34396.2,-4170.614,-1030.2328,-32279.705,-3643.026,-6759.6846
1222670.6019511516,-44546.633,-22578.654,-34398.03,-4172.3228,-1032.9998,-32280.723,-3643.921,-6760.051
1222670.605951149,-44543.582,-22579.225,-34397.016,-4170.41,-1035.1562,-32282.432,-3638.916,-6761.2715
1222670.6099511464,-44536.785,-22574.748,-34395.426,-4167.6436,-1033.5693,-32281.332,-3636.027,-6769.45
1222670.6139511436,-44537.64,-22575.889,-34394.125,-4167.562,-1034.017,-32279.299,-3638.4277,-6775.5537
1222670.617951141,-44537.19,-22576.783,-34392.824,-4169.149,-1035.8074,-32278.484,-3645.6707,-6771.81
1222670.6219511384,-44541.504,-22575.115,-34392.984,-4168.701,-1034.2205,-32280.844,-3651.7742,-6781.372
1222670.6259511355,-44544.312,-22576.783,-34390.953,-4168.5386,-1035.5225,-32283.205,-3646.3218,-6782.2676
1222670.629951133,-44546.47,-22581.055,-34391.805,-4167.9688,-1036.0515,-32282.96,-3642.0085,-6784.0576
1222670.6339511303,-44545.37,-22584.88,-34393.473,-4167.684,-1036.377,-32282.797,-3646.8914,-6787.1504
1222670.6379511275,-44543.824,-22583.293,-34392.742,-4169.1084,-1039.9578,-32284.709,-3656.128,-6791.0156
1222670.6419511249,-44545.9,-22583.537,-34394.734,-4168.8643,-1037.7197,-32284.506,-3654.541,-6792.8877
1222670.6459511223,-44543.5,-22582.764,-34393.35,-4166.626,-1034.6273,-32283.0,-3642.2527,-6783.773
1222670.6499511194,-44544.23,-22583.049,-34393.473,-4164.836,-1033.2845,-32282.146,-3635.2947,-6777.0996
1222670.6539511168,-44544.8,-22581.463,-34392.984,-4165.161,-1033.5693,-32282.35,-3640.0146,-6784.0576
1222670.6579511142,-44544.273,-22579.63,-34396.12,-4165.8936,-1035.6445,-32283.896,-3647.4204,-6788.249
1222670.6619511114,-44543.742,-22574.098,-34394.086,-4165.202,-1038.2894,-32283.855,-3644.3687,-6777.2217
1222670.6659511088,-44548.3,-22575.928,-34394.246,-4165.283,-1036.3363,-32282.473,-3634.196,-6777.9136
1222670.6699511062,-44548.137,-22577.76,-34393.758,-4165.283,-1035.197,-32281.943,-3629.5981,-6774.9434
1222670.6739511034,-44549.727,-22578.695,-34394.207,-4166.097,-1034.3832,-32279.908,-3631.5105,-6772.1357
1222670.6779511007,-44556.52,-22581.422,-34394.777,-4167.196,-1034.7494,-32278.566,-3637.7769,-6778.4424
1222670.6819510981,-44558.676,-22584.637,-34395.1,-4168.132,-1035.6039,-32279.543,-3638.8755,-6779.826
1222670.6859510953,-44556.887,-22584.717,-34393.35,-4166.545,-1037.6791,-32280.275,-3631.7139,-6773.7227
1222670.6899510927,-44552.777,-22583.049,-34391.645,-4164.4697,-1038.0046,-32279.338,-3626.4648,-6772.705
1222670.6939510899,-44556.805,-22585.084,-34394.574,-4165.324,-1037.5164,-32279.826,-3630.9001,-6778.3203
1222670.6979510873,-44563.64,-22586.71,-34397.95,-4167.033,-1037.0687,-32282.064,-3639.3638,-6777.2217
1222670.7019510847,-44563.68,-22586.143,-34397.258,-4167.1553,-1038.8591,-32283.367,-3638.3464,-6772.502
1222670.7059510818,-44554.2,-22580.404,-34394.168,-4164.551,-1035.1156,-32283.164,-3628.2146,-6767.009
1222670.7099510792,-44553.1,-22580.04,-34392.457,-4162.435,-1035.5632,-32284.385,-3627.4822,-6776.8555
1222670.7139510766,-44554.242,-22580.852,-34391.316,-4161.8247,-1035.1156,-32285.32,-3632.1208,-6779.663
1222670.7179510738,-44559.53,-22584.799,-34390.586,-4163.9,-1037.4756,-32285.85,-3643.026,-6779.6226
1222670.7219510712,-44565.918,-22589.479,-34394.492,-4165.08,-1041.9515,-32286.988,-3647.0947,-6791.301
1222670.7259510686,-44567.63,-22595.703,-34395.996,-4164.917,-1044.2302,-32288.291,-3642.456,-6796.1836
1222670.7299510657,-44566.938,-22595.703,-34395.387,-4164.1846,-1044.6777,-32288.738,-3637.329,-6796.3057
1222670.7339510631,-44567.223,-22594.85,-34394.168,-4164.0625,-1045.4509,-32288.291,-3638.4277,-6793.6606
1222670.7379510605,-44566.652,-22594.28,-34393.96,-4162.6387,-1043.7826,-32286.135,-3645.9556,-6796.1426
1222670.7419510577,-44566.977,-22593.873,-34396.242,-4162.7197,-1039.6729,-32286.541,-3646.4844,-6800.212
1222670.745951055,-44565.473,-22593.303,-34396.85,-4163.371,-1039.5508,-32287.68,-3638.9976,-6795.614
1222670.7499510525,-44566.285,-22595.012,-34393.27,-4162.7197,-1040.1205,-32285.32,-3631.185,-6790.8125
1222670.7539510496,-44566.652,-22593.75,-34389.934,-4161.865,-1036.4177,-32282.96,-3631.5918,-6793.8643
1222670.757951047,-44568.28,-22597.941,-34389.65,-4163.574,-1040.1205,-32284.385,-3638.2651,-6795.207
1222670.7619510444,-44572.47,-22604.615,-34389.445,-4164.144,-1044.393,-32285.035,-3637.3699,-6786.255
1222670.7659510416,-44569.418,-22600.791,-34387.98,-4161.8247,-1046.224,-32284.873,-3624.1455,-6770.508
1222670.769951039,-44565.88,-22602.092,-34386.15,-4161.0107,-1041.9109,-32284.22,-3616.4146,-6764.079
1222670.7739510364,-44570.68,-22604.697,-34388.227,-4162.4756,-1038.3301,-32283.408,-3620.28,-6772.624
1222670.7779510336,-44576.254,-22604.86,-34390.016,-4164.1035,-1038.6556,-32283.814,-3631.3884,-6780.9653
1222670.781951031,-44575.156,-22604.127,-34389.324,-4163.6963,-1040.6088,-32285.523,-3636.8816,-6787.7197
1222670.7859510283,-44576.215,-22603.232,-34391.562,-4164.1035,-1041.7888,-32286.135,-3630.8594,-6786.743
1222670.7899510255,-44577.883,-22604.941,-34393.555,-4163.6963,-1042.155,-32284.914,-3625.8545,-6787.069
1222670.793951023,-44575.32,-22603.8,-34392.133,-4161.54,-1041.0564,-32285.238,-3629.8015,-6793.701
1222670.79795102,-44577.68,-22603.191,-34391.727,-4161.4585,-1040.9343,-32288.291,-3637.4512,-6792.6436
1222670.8019510175,-44579.023,-22602.906,-34390.625,-4161.865,-1038.9812,-32291.22,-3638.9976,-6792.9688
1222670.8059510149,-44578.29,-22601.889,-34390.668,-4161.947,-1037.9639,-32291.83,-3627.5635,-6782.3896
1222670.809951012,-44577.598,-22602.5,-34391.6,-4160.604,-1037.0281,-32288.453,-3618.5303,-6777.71
1222670.8139510094,-44578.777,-22603.924,-34390.42,-4161.743,-1038.208,-32285.93,-3625.2441,-6788.9814
1222670.8179510068,-44580.445,-22606.812,-34392.945,-4163.371,-1037.1094,-32284.506,-3634.6843,-6794.5967
1222670.821951004,-44581.016,-22606.771,-34394.695,-4164.551,-1038.8998,-32284.709,-3636.19,-6795.532
1222670.8259510014,-44581.83,-22609.701,-34396.28,-4165.609,-1040.975,-32284.873,-3627.5635,-6791.8296
1222670.8299509988,-44578.613,-22611.451,-34396.28,-4163.493,-1041.8295,-32284.385,-3619.1406,-6782.186
1222670.833950996,-44577.15,-22608.521,-34393.72,-4161.255,-1043.0502,-32285.28,-3619.8325,-6786.174
1222670.8379509933,-44577.11,-22609.336,-34389.16,-4160.848,-1041.626,-32287.232,-3626.4648,-6787.883
1222670.8419509907,-44581.383,-22611.166,-34388.062,-4161.418,-1041.097,-32289.592,-3627.8892,-6784.302
1222670.845950988,-44580.566,-22610.068,-34388.633,-4160.3193,-1039.5101,-32291.383,-3620.158,-6778.8086
1222670.8499509853,-44578.41,-22610.76,-34389.73,-4159.9937,-1039.9984,-32290.285,-3615.7634,-6776.7744
1222670.8539509827,-44580.242,-22614.055,-34389.85,-4161.499,-1041.5039,-32287.436,-3621.0938,-6780.7617
1222670.8579509798,-44583.008,-22611.94,-34392.58,-4162.557,-1041.1377,-32284.709,-3628.418,-6784.7495
1222670.8619509772,-44580.527,-22606.895,-34393.92,-4163.615,-1042.7246,-32283.977,-3628.296,-6787.7607
1222670.8659509746,-44582.887,-22611.045,-34397.016,-4163.0454,-1042.1957,-32283.773,-3621.2974,-6788.4116
1222670.8699509718,-44587.77,-22612.793,-34396.04,-4161.418,-1039.4695,-32283.164,-3614.2578,-6781.8604
1222670.8739509692,-44586.836,-22610.637,-34393.027,-4159.5054,-1039.0625,-32285.89,-3619.2222,-6783.122
1222670.8779509666,-44586.266,-22614.502,-34389.895,-4160.075,-1039.6729,-32288.9,-3626.058,-6785.3193
1222670.8819509638,-44595.95,-22628.703,-34391.36,-4164.1035,-1042.7246,-32289.797,-3623.0876,-6783.325
1222670.8859509612,-44606.895,-22646.973,-34392.05,-4168.1724,-1047.8516,-32288.291,-3611.898,-6778.4424
1222670.8899509585,-44602.297,-22638.021,-34388.836,-4166.0156,-1045.3695,-32286.867,-3610.2295,-6778.117
1222670.8939509557,-44585.938,-22615.928,-34385.05,-4160.5225,-1041.5039,-32287.883,-3616.5366,-6781.291
1222670.897950953,-44594.2,-22621.338,-34389.445,-4163.086,-1043.2129,-32286.256,-3622.396,-6782.7964
1222670.9019509503,-44604.86,-22629.762,-34394.492,-4166.87,-1048.055,-32283.45,-3619.0593,-6775.3096
1222670.9059509477,-44605.594,-22628.135,-34395.184,-4166.626,-1041.9109,-32283.285,-3612.3455,-6778.2393
1222670.909950945,-44601.973,-22624.797,-34395.184,-4165.1206,-1036.7839,-32283.0,-3608.358,-6771.6475
1222670.9139509422,-44600.3,-22621.46,-34394.777,-4164.2256,-1035.726,-32284.873,-3613.851,-6777.873
1222670.9179509396,-44596.926,-22617.596,-34392.336,-4163.778,-1034.4238,-32284.506,-3618.2861,-6775.3906
1222670.921950937,-44596.723,-22616.537,-34395.47,-4165.6904,-1033.1625,-32284.67,-3617.391,-6766.6426
1222670.9259509342,-44598.188,-22617.555,-34396.812,-4166.911,-1032.1453,-32284.629,-3610.1074,-6767.131
1222670.9299509316,-44598.633,-22620.281,-34395.59,-4166.545,-1036.8246,-32284.709,-3604.8992,-6766.317
1222670.933950929,-44601.605,-22624.96,-34394.45,-4166.911,-1038.0453,-32284.1,-3607.8289,-6763.265
1222670.9379509261,-44603.965,-22627.727,-34393.598,-4168.7827,-1035.1156,-32283.488,-3616.4146,-6769.979
1222670.9419509235,-44599.61,-22624.105,-34395.02,-4170.451,-1036.4177,-32282.146,-3618.1235,-6774.8213
1222670.945950921,-44596.07,-22620.322,-34396.445,-4170.8984,-1039.6729,-32282.146,-3611.8572,-6776.2046
1222670.949950918,-44597.453,-22622.844,-34396.61,-4169.5557,-1036.8652,-32280.355,-3607.0557,-6773.4785
1222670.9539509155,-44593.547,-22619.305,-34395.754,-4167.9688,-1033.1625,-32280.559,-3612.3047,-6769.4907
1222670.9579509129,-44591.51,-22613.404,-34395.793,-4167.6436,-1035.6039,-32283.123,-3623.4946,-6775.9604
1222670.96195091,-44591.84,-22613.525,-34395.836,-4167.4805,-1036.8246,-32284.629,-3621.2566,-6771.2812
1222670.9659509074,-44587.605,-22611.451,-34393.11,-4164.592,-1036.5398,-32282.146,-3609.497,-6761.76
1222670.9699509048,-44587.77,-22612.793,-34389.69,-4162.842,-1034.3832,-32279.502,-3603.6785,-6760.3354
1222670.973950902,-44585.207,-22612.021,-34386.273,-4162.842,-1036.7432,-32278.81,-3607.0557,-6764.1196
1222670.9779508994,-44590.496,-22619.467,-34389.73,-4166.301,-1044.1488,-32278.605,-3617.5132,-6765.544
1222670.9819508968,-44595.418,-22622.52,-34392.54,-4168.742,-1041.2191,-32279.623,-3618.2456,-6762.492
1222670.985950894,-44595.297,-22623.984,-34394.41,-4166.5854,-1039.1439,-32281.902,-3611.735,-6757.6904
1222670.9899508914,-44596.844,-22621.746,-34392.66,-4163.452,-1038.4115,-32283.408,-3610.6365,-6764.079
1222670.9939508887,-44599.652,-22620.688,-34394.004,-4163.371,-1039.7949,-32282.676,-3611.491,-6760.01
1222670.997950886,-44604.617,-22621.664,-34395.71,-4165.5273,-1041.3412,-32281.617,-3616.7808,-6767.334
1222671.0019508833,-44604.37,-22623.984,-34399.17,-4167.562,-1043.0095,-32281.78,-3618.8152,-6770.63
1222671.0059508805,-44604.13,-22628.906,-34401.734,-4167.3584,-1045.4916,-32279.95,-3611.084,-6762.6143
1222671.0099508779,-44606.285,-22632.162,-34401.492,-4165.9346,-1045.8171,-32278.525,-3602.539,-6751.18
1222671.0139508753,-44607.504,-22633.22,-34400.434,-4166.748,-1044.0674,-32277.71,-3605.7537,-6756.633
1222671.0179508724,-44609.336,-22634.156,-34397.34,-4168.0503,-1048.8689,-32277.264,-3614.8682,-6760.946
1222671.0219508698,-44608.645,-22628.256,-34397.137,-4167.3994,-1048.2585,-32276.896,-3614.7869,-6763.4688
1222671.0259508672,-44606.73,-22625.814,-34396.28,-4167.1143,-1047.282,-32277.467,-3606.6082,-6756.7954
1222671.0299508644,-44603.64,-22623.252,-34392.824,-4163.8594,-1043.6605,-32279.705,-3603.1494,-6756.2666
1222671.0339508618,-44603.883,-22622.234,-34395.02,-4163.574,-1046.5496,-32280.967,-3610.6365,-6763.591
1222671.0379508592,-44611.168,-22631.268,-34399.496,-4166.545,-1050.4965,-32282.635,-3624.7153,-6775.0654
1222671.0419508563,-44610.68,-22632.691,-34401.246,-4165.9346,-1050.5779,-32283.367,-3628.418,-6777.629
1222671.0459508537,-44608.195,-22634.115,-34401.492,-4164.2256,-1049.3572,-32283.244,-3619.9546,-6774.048
1222671.0499508511,-44606.527,-22634.318,-34399.008,-4162.964,-1052.002,-32282.717,-3611.206,-6767.9443
1222671.0539508483,-44604.332,-22631.715,-34395.145,-4162.1094,-1053.2227,-32282.146,-3613.444,-6764.5264
1222671.0579508457,-44604.98,-22631.918,-34393.473,-4162.679,-1053.182,-32281.129,-3621.867,-6777.751
1222671.061950843,-44603.598,-22630.86,-34391.316,-4161.621,-1050.293,-32280.723,-3621.5415,-6774.455
1222671.0659508402,-44602.703,-22629.395,-34391.316,-4161.0923,-1047.8109,-32280.152,-3614.2578,-6767.8223
1222671.0699508376,-44602.38,-22628.662,-34392.457,-4159.79,-1046.2646,-32280.764,-3611.4502,-6769.043
1222671.073950835,-44604.535,-22629.477,-34391.887,-4159.546,-1049.4385,-32281.902,-3614.8682,-6768.921
1222671.0779508322,-44603.438,-22631.104,-34390.79,-4160.034,-1052.8158,-32282.676,-3620.6462,-6771.688
1222671.0819508296,-44601.727,-22629.314,-34389.61,-4158.6914,-1050.3744,-32282.553,-3617.2283,-6770.7114
1222671.085950827,-44601.523,-22628.826,-34389.812,-4157.715,-1052.9379,-32282.023,-3607.9917,-6762.9395
1222671.0899508242,-44602.742,-22630.697,-34389.527,-4156.372,-1057.2917,-32282.797,-3610.189,-6771.688
1222671.0939508216,-44604.777,-22633.139,-34390.016,-4156.9824,-1053.4668,-32284.385,-3621.46,-6784.7495
1222671.097950819,-44607.707,-22634.521,-34390.953,-4157.4707,-1050.5779,-32285.197,-3629.5574,-6787.191
1222671.101950816,-44606.69,-22633.871,-34391.156,-4155.7617,-1049.4385,-32285.28,-3625.122,-6780.0293
1222671.1059508135,-44606.04,-22634.562,-34389.977,-4154.826,-1046.224,-32283.244,-3613.3628,-6772.2983
1222671.1099508107,-44604.777,-22632.691,-34389.0,-4154.907,-1048.4619,-32281.129,-3605.2246,-6767.0493
1222671.113950808,-44605.957,-22632.936,-34388.387,-4154.7446,-1048.0144,-32280.396,-3604.3296,-6758.667
1222671.1179508055,-44609.418,-22637.086,-34388.59,-4156.006,-1047.4447,-32281.861,-3611.2468,-6760.01
1222671.1219508026,-44610.68,-22637.045,-34389.85,-4155.925,-1050.4965,-32285.117,-3618.3677,-6771.322
1222671.1259508,-44608.848,-22632.365,-34388.47,-4153.646,-1051.5951,-32285.646,-3615.0718,-6776.4893
1222671.1299507974,-44610.23,-22636.354,-34390.42,-4152.385,-1051.1882,-32283.53,-3609.782,-6775.879
1222671.1339507946,-44609.09,-22637.574,-34390.22,-4150.9604,-1052.9379,-32281.74,-3607.951,-6768.2295
1222671.137950792,-44609.457,-22634.033,-34387.332,-4151.6523,-1053.9551,-32280.764,-3613.851,-6772.5425
1222671.1419507894,-44613.812,-22638.389,-34389.812,-4153.4424,-1055.0537,-32279.95,-3609.8228,-6767.334
1222671.1459507865,-44609.703,-22633.83,-34390.75,-4152.303,-1052.8158,-32279.623,-3600.4233,-6762.9805
1222671.149950784,-44602.906,-22629.111,-34388.31,-4149.1294,-1051.6357,-32278.688,-3593.5874,-6762.6953
1222671.1539507813,-44606.0,-22632.895,-34387.86,-4149.333,-1052.2869,-32276.896,-3591.1865,-6751.2617
1222671.1579507785,-44616.05,-22635.174,-34392.984,-4151.693,-1055.9082,-32274.13,-3596.6797,-6755.941
1222671.161950776,-44622.926,-22641.766,-34396.324,-4154.3784,-1061.2386,-32275.188,-3598.0225,-6764.364
1222671.1659507733,-44610.066,-22634.318,-34393.066,-4150.472,-1056.3558,-32279.623,-3601.1558,-6768.962
1222671.1699507704,-44608.32,-22634.277,-34392.133,-4148.153,-1054.5248,-32281.861,-3603.068,-6776.408
1222671.1739507678,-44613.85,-22636.963,-34393.312,-4149.7397,-1057.6986,-32279.908,-3601.644,-6766.6016
1222671.1779507652,-44612.227,-22637.207,-34393.637,-4150.635,-1059.6924,-32278.973,-3605.4688,-6763.5093
1222671.1819507624,-44602.01,-22633.912,-34390.3,-4149.333,-1059.1635,-32280.885,-3606.2012,-6770.793
1222671.1859507598,-44599.938,-22631.877,-34387.86,-4148.6006,-1056.8035,-32282.188,-3598.2666,-6769.4907
1222671.1899507572,-44600.953,-22634.318,-34386.477,-4146.7695,-1056.1523,-32283.164,-3595.0522,-6769.328
1222671.1939507544,-44594.973,-22631.309,-34386.027,-4146.2812,-1057.9021,-32284.182,-3604.0854,-6774.658
1222671.1979507518,-44597.656,-22636.76,-34388.754,-4150.106,-1062.3779,-32283.205,-3609.7007,-6777.5474
1222671.2019507491,-44599.246,-22639.486,-34390.18,-4151.2046,-1065.8367,-32282.676,-3609.7412,-6776.164
1222671.2059507463,-44598.715,-22637.615,-34392.418,-4150.0244,-1062.5,-32282.188,-3603.353,-6775.35
1222671.2099507437,-44599.57,-22640.3,-34393.19,-4150.35,-1062.5408,-32282.96,-3601.115,-6775.228
1222671.2139507409,-44604.086,-22644.816,-34395.062,-4152.3438,-1067.1794,-32284.1,-3606.6895,-6775.1465
1222671.2179507383,-44606.04,-22644.94,-34394.816,-4153.1577,-1068.156,-32285.809,-3615.7227,-6783.895
1222671.2219507357,-44601.81,-22638.795,-34390.707,-4151.571,-1067.2201,-32285.361,-3612.3455,-6780.233
1222671.2259507328,-44600.098,-22634.686,-34390.625,-4150.635,-1065.8367,-32283.977,-3601.5625,-6774.455
1222671.2299507302,-44601.645,-22637.168,-34390.34,-4150.8384,-1065.4297,-32281.943,-3595.744,-6771.81
1222671.2339507276,-44602.906,-22636.598,-34389.61,-4151.8555,-1066.9353,-32280.438,-3596.151,-6772.258
1222671.2379507248,-44602.703,-22639.324,-34389.12,-4153.402,-1066.8132,-32280.967,-3602.5798,-6776.3267
1222671.2419507222,-44602.906,-22640.098,-34388.67,-4152.7915,-1067.8304,-32281.943,-3604.8992,-6780.1514
1222671.2459507196,-44603.11,-22642.66,-34388.875,-4151.8555,-1071.8588,-32282.838,-3598.4702,-6772.461
1222671.2499507167,-44603.23,-22640.83,-34390.016,-4151.0825,-1067.2607,-32284.344,-3596.151,-6774.9023
1222671.2539507141,-44602.62,-22639.04,-34387.777,-4149.536,-1062.7441,-32285.035,-3598.999,-6778.768
1222671.2579507115,-44603.23,-22642.66,-34385.457,-4149.9434,-1062.8662,-32283.45,-3600.0571,-6765.1367
1222671.2619507087,-44600.383,-22639.73,-34385.254,-4149.333,-1063.1918,-32282.635,-3596.5984,-6762.126
1222671.265950706,-44597.21,-22637.818,-34385.05,-4148.3154,-1062.2966,-32280.479,-3588.1348,-6762.9805
1222671.2699507035,-44595.46,-22635.742,-34384.117,-4147.0137,-1059.9773,-32280.682,-3583.13,-6762.5327
1222671.2739507006,-44595.664,-22640.219,-34384.074,-4147.9087,-1059.0007,-32282.064,-3585.2866,-6760.254
1222671.277950698,-44597.496,-22643.434,-34382.938,-4149.333,-1059.2449,-32282.188,-3590.332,-6756.6733
1222671.2819506954,-44600.914,-22643.88,-34384.402,-4150.1875,-1060.7504,-32280.967,-3587.8093,-6751.831
1222671.2859506926,-44599.773,-22644.004,-34384.32,-4150.0244,-1062.0525,-32281.373,-3583.9438,-6760.254
1222671.28995069,-44597.414,-22641.033,-34384.32,-4147.6646,-1064.9822,-32282.146,-3581.0142,-6770.508
1222671.2939506874,-44594.2,-22638.184,-34383.383,-4146.566,-1061.4014,-32281.17,-3584.8796,-6767.456
1222671.2979506846,-44596.68,-22640.178,-34385.38,-4147.502,-1064.6973,-32281.658,-3592.977,-6769.043
1222671.301950682,-44598.227,-22637.371,-34385.785,-4146.159,-1062.4594,-32282.473,-3592.2039,-6772.0137
1222671.3059506794,-44597.293,-22636.23,-34386.844,-4144.6533,-1056.6,-32281.82,-3583.7402,-6763.5093
1222671.3099506765,-44599.12,-22639.486,-34388.43,-4144.979,-1057.9427,-32281.617,-3577.1484,-6754.3945
1222671.313950674,-44604.13,-22643.76,-34395.062,-4147.827,-1061.9711,-32281.373,-3581.787,-6751.994
1222671.317950671,-44617.027,-22652.467,-34399.82,-4151.408,-1062.4594,-32280.723,-3586.7107,-6753.296
1222671.3219506685,-44616.945,-22653.973,-34394.168,-4151.164,-1063.2732,-32279.705,-3584.961,-6750.4478
1222671.3259506659,-44590.09,-22632.0,-34383.707,-4145.7114,-1058.1055,-32282.268,-3581.7466,-6754.476
1222671.329950663,-44586.793,-22631.877,-34381.55,-4144.735,-1059.4482,-32282.797,-3579.183,-6762.37
1222671.3339506604,-44598.96,-22644.492,-34384.24,-4145.345,-1062.1338,-32279.623,-3579.5898,-6766.561
1222671.3379506578,-44591.105,-22638.307,-34380.86,-4145.874,-1061.849,-32279.094,-3588.4197,-6767.6597
1222671.341950655,-44585.29,-22631.145,-34380.984,-4144.7754,-1063.8428,-32281.088,-3592.1226,-6768.677
1222671.3459506524,-44586.426,-22631.104,-34383.87,-4143.3516,-1061.1572,-32281.455,-3583.3335,-6769.5723
1222671.3499506498,-44586.14,-22632.895,-34383.547,-4143.148,-1060.14,-32282.188,-3579.3865,-6771.0776
1222671.353950647,-44584.066,-22631.918,-34382.203,-4143.0664,-1061.0352,-32283.164,-3584.5542,-6769.3687
1222671.3579506443,-44588.46,-22633.709,-34383.26,-4144.9385,-1060.9539,-32283.855,-3594.3198,-6777.629
1222671.3619506417,-44588.22,-22631.47,-34382.773,-4144.6533,-1058.8787,-32285.605,-3596.9238,-6779.7446
1222671.365950639,-44586.47,-22630.9,-34383.22,-4142.9443,-1059.3262,-32285.809,-3589.437,-6772.99
1222671.3699506363,-44589.113,-22632.488,-34382.812,-4142.334,-1059.2855,-32285.32,-3585.1238,-6775.676
1222671.3739506337,-44591.23,-22635.58,-34382.57,-4143.2295,-1061.5642,-32284.385,-3587.0361,-6779.7446
1222671.3779506308,-44593.547,-22641.154,-34382.69,-4146.118,-1064.9414,-32281.78,-3590.454,-6770.3047
1222671.3819506282,-44594.973,-22641.398,-34383.465,-4145.752,-1064.0869,-32281.78,-3590.7798,-6773.6006
1222671.3859506256,-44593.26,-22640.3,-34382.895,-4143.3105,-1062.6221,-32282.309,-3586.1816,-6778.524
1222671.3899506228,-44590.617,-22639.61,-34380.7,-4141.439,-1060.6283,-32280.926,-3578.247,-6768.7583
1222671.3939506202,-44592.855,-22642.986,-34379.926,-4140.666,-1063.7207,-32281.78,-3581.421,-6770.63
1222671.3979506176,-44596.883,-22644.084,-34380.94,-4142.9854,-1064.2904,-32283.205,-3588.745,-6774.211
1222671.4019506148,-44598.555,-22644.98,-34383.547,-4145.0605,-1067.0574,-32284.629,-3589.6404,-6773.0713
1222671.4059506122,-44599.367,-22650.188,-34385.418,-4145.427,-1069.5801,-32284.344,-3582.5195,-6771.81
1222671.4099506096,-44598.555,-22648.031,-34385.457,-4143.2295,-1067.9932,-32284.629,-3578.6948,-6773.926
1222671.4139506067,-44598.43,-22647.584,-34385.01,-4142.9854,-1067.4642,-32285.32,-3580.363,-6773.8037
1222671.417950604,-44601.074,-22652.426,-34385.457,-4143.84,-1068.2373,-32285.605,-3587.8093,-6777.588
1222671.4219506015,-44603.23,-22655.273,-34386.883,-4144.5723,-1065.9994,-32284.018,-3587.6465,-6771.7285
1222671.4259505987,-44602.133,-22655.723,-34388.062,-4145.63,-1066.2435,-32283.244,-3582.1128,-6771.2812
1222671.429950596,-44599.977,-22653.484,-34386.355,-4144.6533,-1064.6973,-32282.797,-3577.5146,-6776.164
1222671.4339505932,-44594.81,-22652.182,-34382.895,-4142.619,-1065.5111,-32283.082,-3577.8403,-6773.397
1222671.4379505906,-44593.75,-22651.734,-34381.31,-4143.3105,-1069.2139,-32283.773,-3578.41,-6770.549
1222671.441950588,-44593.547,-22650.96,-34380.574,-4143.4326,-1066.3656,-32283.693,-3575.8872,-6763.591
1222671.4459505852,-44593.387,-22648.275,-34381.266,-4142.09,-1063.9242,-32284.303,-3570.3533,-6768.026
1222671.4499505826,-44591.96,-22645.469,-34380.902,-4140.991,-1063.2732,-32284.791,-3569.1326,-6771.2812
1222671.45395058,-44591.434,-22643.88,-34381.676,-4141.2354,-1065.1449,-32283.53,-3571.045,-6767.7817
1222671.4579505771,-44591.555,-22642.375,-34381.145,-4141.561,-1067.2607,-32283.693,-3579.183,-6770.7114
1222671.4619505745,-44592.49,-22640.586,-34380.74,-4142.741,-1062.2152,-32283.814,-3582.2349,-6772.7866
1222671.465950572,-44588.258,-22637.695,-34378.258,-4140.788,-1061.0352,-32282.676,-3577.6367,-6773.5596
1222671.469950569,-44586.426,-22636.924,-34379.152,-4139.974,-1061.5234,-32282.92,-3573.6492,-6772.827
1222671.4739505665,-44586.508,-22636.639,-34378.01,-4140.625,-1062.7849,-32285.117,-3576.823,-6763.8755
1222671.477950564,-44587.527,-22637.451,-34373.74,-4143.4326,-1063.9242,-32286.135,-3585.9375,-6767.741
1222671.481950561,-44583.418,-22635.295,-34373.863,-4141.7236,-1061.4421,-32286.215,-3588.2976,-6778.0356
1222671.4859505584,-44577.8,-22629.273,-34375.773,-4142.375,-1061.198,-32286.094,-3580.5664,-6773.3564
1222671.4899505558,-44574.91,-22626.67,-34377.08,-4141.9272,-1064.616,-32283.326,-3575.643,-6772.4204
1222671.493950553,-44579.51,-22629.314,-34378.46,-4142.456,-1064.1683,-32280.844,-3580.9326,-6772.38
1222671.4979505504,-44581.543,-22631.43,-34380.617,-4143.962,-1066.0808,-32281.535,-3591.3901,-6774.9434
1222671.5019505478,-44580.812,-22630.047,-34380.656,-4143.3105,-1066.2842,-32281.047,-3591.9597,-6769.1245
1222671.505950545,-44580.566,-22628.012,-34379.234,-4143.718,-1067.3828,-32281.984,-3584.6763,-6767.456
1222671.5099505424,-44577.19,-22624.756,-34374.96,-4141.317,-1064.9822,-32284.182,-3582.5195,-6770.1416
1222671.5139505398,-44577.395,-22622.438,-34374.066,-4140.544,-1065.1042,-32287.07,-3589.7625,-6775.8384
1222671.517950537,-44581.34,-22623.535,-34375.367,-4142.9854,-1068.3594,-32288.453,-3599.528,-6780.233
1222671.5219505343,-44581.34,-22626.914,-34376.465,-4143.718,-1070.1904,-32288.412,-3600.708,-6782.715
1222671.5259505317,-44579.47,-22626.832,-34375.69,-4141.8867,-1069.9056,-32286.541,-3592.163,-6773.926
1222671.5299505289,-44580.0,-22628.256,-34377.2,-4140.096,-1067.2607,-32284.914,-3587.2803,-6773.6816
1222671.5339505263,-44582.316,-22630.535,-34378.01,-4141.4795,-1068.8477,-32284.018,-3590.1287,-6771.8916
1222671.5379505234,-44581.137,-22632.447,-34376.465,-4142.09,-1070.3939,-32283.611,-3600.0571,-6781.6978
1222671.5419505208,-44579.715,-22631.186,-34376.02,-4142.619,-1072.4691,-32285.646,-3600.83,-6787.7607
1222671.5459505182,-44579.55,-22626.344,-34376.06,-4141.2354,-1072.998,-32286.053,-3591.024,-6779.216
1222671.5499505154,-44580.324,-22627.441,-34375.082,-4139.079,-1075.9277,-32285.238,-3587.484,-6779.989
1222671.5539505128,-44586.67,-22636.271,-34377.117,-4139.7705,-1072.4285,-32286.703,-3591.5122,-6773.397
1222671.5579505102,-44587.28,-22635.58,-34378.336,-4139.2417,-1071.7367,-32288.371,-3602.1729,-6781.942
1222671.5619505073,-44584.434,-22630.494,-34377.117,-4138.3057,-1072.4285,-32288.738,-3603.353,-6789.836
1222671.5659505047,-44581.953,-22628.662,-34376.02,-4138.6313,-1071.4519,-32286.094,-3591.9597,-6783.8545
1222671.5699505021,-44577.516,-22625.244,-34374.066,-4136.4746,-1073.2015,-32283.773,-3583.9438,-6778.89
1222671.5739504993,-44577.883,-22625.693,-34373.21,-4137.085,-1074.5443,-32283.0,-3585.0017,-6777.9136
1222671.5779504967,-44587.08,-22630.047,-34374.715,-4139.038,-1076.3754,-32283.53,-3591.7563,-6772.705
1222671.581950494,-44590.13,-22628.623,-34375.69,-4138.2246,-1075.3988,-32283.57,-3593.7908,-6781.616
1222671.5859504913,-44587.117,-22626.547,-34376.508,-4135.9053,-1073.7305,-32284.547,-3588.786,-6787.557
1222671.5899504886,-44590.332,-22633.424,-34379.52,-4136.9224,-1078.0029,-32286.135,-3586.3037,-6783.895
1222671.593950486,-44595.38,-22638.713,-34380.656,-4138.8755,-1081.543,-32289.104,-3594.5232,-6788.778
1222671.5979504832,-44597.21,-22638.389,-34379.844,-4140.3,-1081.9092,-32288.088,-3601.8882,-6794.7188
1222671.6019504806,-44598.43,-22638.348,-34380.535,-4140.1367,-1083.9844,-32287.68,-3598.3887,-6789.1035
1222671.605950478,-44595.46,-22635.54,-34380.047,-4139.282,-1086.5479,-32285.564,-3586.1816,-6782.1045
1222671.6099504752,-44591.96,-22634.115,-34378.336,-4138.4277,-1083.8623,-32282.676,-3577.7588,-6773.519
1222671.6139504726,-44596.316,-22641.033,-34380.574,-4140.7065,-1083.5369,-32281.496,-3579.7527,-6769.084
1222671.61795047,-44600.75,-22645.63,-34381.96,-4141.4795,-1086.4258,-32282.717,-3590.739,-6778.076
1222671.6219504671,-44603.152,-22649.414,-34383.26,-4140.5845,-1092.1224,-32284.303,-3593.9941,-6784.5054
1222671.6259504645,-44601.93,-22648.234,-34385.133,-4139.16,-1089.9658,-32285.076,-3587.484,-6781.0874
1222671.629950462,-44604.004,-22651.164,-34386.637,-4139.2417,-1091.268,-32285.117,-3583.1707,-6776.6113
1222671.633950459,-44605.47,-22653.24,-34386.68,-4139.16,-1091.919,-32284.344,-3588.2568,-6786.052
1222671.6379504565,-44607.22,-22651.123,-34387.574,-4140.096,-1091.4307,-32284.018,-3598.1853,-6796.55
1222671.6419504536,-44605.594,-22647.217,-34385.66,-4139.486,-1089.9252,-32285.158,-3596.7612,-6790.4053
1222671.645950451,-44601.156,-22645.387,-34382.57,-4136.434,-1088.3383,-32286.215,-3586.9956,-6782.593
1222671.6499504484,-44594.89,-22640.098,-34379.07,-4132.772,-1087.0769,-32286.459,-3582.2349,-6785.1973
1222671.6539504456,-44595.258,-22640.137,-34376.87,-4131.755,-1086.3037,-32285.85,-3586.6294,-6787.313
1222671.657950443,-44597.496,-22643.066,-34377.035,-4132.65,-1085.8969,-32286.744,-3593.5059,-6784.2207
1222671.6619504404,-44602.297,-22644.94,-34379.723,-4133.2603,-1087.5652,-32287.68,-3594.2383,-6779.6226
1222671.6659504375,-44607.137,-22648.926,-34383.344,-4133.586,-1088.623,-32288.576,-3585.6528,-6766.6016
1222671.669950435,-44604.777,-22644.98,-34383.016,-4131.3477,-1084.7982,-32289.227,-3582.8857,-6772.705
1222671.6739504323,-44599.773,-22638.916,-34379.965,-4129.72,-1081.6244,-32290.895,-3589.7217,-6786.3364
1222671.6779504295,-44598.594,-22640.26,-34377.484,-4129.6797,-1080.4443,-32289.715,-3593.8315,-6785.4414
1222671.681950427,-44594.402,-22641.48,-34375.855,-4128.215,-1078.0437,-32288.9,-3590.9832,-6781.413
1222671.6859504243,-44598.836,-22646.404,-34379.19,-4128.2554,-1084.9609,-32288.9,-3585.083,-6778.6055
1222671.6899504215,-44601.605,-22650.229,-34377.2,-4128.418,-1087.6058,-32289.959,-3582.1533,-6778.7275
1222671.6939504188,-44593.63,-22643.271,-34370.402,-4125.57,-1086.9955,-32289.268,-3586.67,-6782.6743
1222671.6979504162,-44587.484,-22634.848,-34372.234,-4125.041,-1086.2631,-32287.639,-3593.1396,-6785.034
1222671.7019504134,-44595.297,-22640.625,-34376.914,-4127.8486,-1087.2803,-32287.68,-3589.7217,-6783.203
1222671.7059504108,-44597.74,-22646.934,-34378.01,-4126.1396,-1085.3679,-32287.639,-3580.485,-6776.408
1222671.7099504082,-44600.996,-22652.467,-34377.32,-4126.058,-1086.9955,-32287.518,-3577.5146,-6777.629
1222671.7139504054,-44603.027,-22655.844,-34376.02,-4126.2207,-1093.8314,-32287.68,-3583.252,-6786.052
1222671.7179504028,-44604.37,-22655.273,-34376.14,-4127.6855,-1099.7314,-32287.15,-3590.6577,-6785.36
1222671.7219504002,-44606.367,-22655.314,-34377.89,-4127.4414,-1096.0693,-32287.6,-3590.7798,-6786.947
1222671.7259503973,-44607.79,-22656.617,-34382.285,-4127.8486,-1094.8486,-32287.924,-3581.9907,-6785.1157
1222671.7299503947,-44607.79,-22658.285,-34384.074,-4128.011,-1096.3542,-32285.32,-3574.3003,-6777.7915
1222671.733950392,-44610.637,-22664.307,-34385.945,-4130.4526,-1097.0052,-32284.426,-3579.7935,-6779.3784
1222671.7379503893,-44616.133,-22669.19,-34388.836,-4133.708,-1097.7377,-32284.547,-3588.5417,-6784.7495
1222671.7419503867,-44617.598,-22668.254,-34388.957,-4134.603,-1098.0632,-32283.082,-3585.5713,-6778.9307
1222671.7459503838,-44615.195,-22666.992,-34386.355,-4132.1616,-1097.4935,-32282.879,-3576.701,-6777.3438
1222671.7499503812,-44614.016,-22665.691,-34385.133,-4129.924,-1095.2148,-32282.879,-3570.516,-6774.7397
1222671.7539503786,-44614.746,-22667.318,-34384.117,-4129.802,-1095.4998,-32283.0,-3573.5679,-6774.577
1222671.7579503758,-44614.543,-22665.895,-34384.727,-4129.72,-1094.8894,-32283.938,-3584.0251,-6782.6743
1222671.7619503732,-44611.613,-22663.168,-34384.81,-4128.784,-1095.4183,-32284.629,-3582.072,-6773.641
1222671.7659503706,-44609.17,-22665.488,-34386.15,-4127.6855,-1096.1508,-32285.523,-3575.1548,-6774.7803
1222671.7699503677,-44613.406,-22669.678,-34385.99,-4127.767,-1093.0176,-32283.896,-3568.9292,-6772.2983
1222671.7739503651,-44610.84,-22667.807,-34384.36,-4126.628,-1089.5996,-32282.676,-3571.2485,-6772.868
1222671.7779503625,-44609.215,-22669.312,-34380.777,-4127.6855,-1088.7451,-32281.74,-3577.5146,-6776.164
1222671.7819503597,-44611.29,-22675.416,-34379.965,-4128.7437,-1090.0472,-32283.164,-3575.9277,-6773.275
1222671.785950357,-44611.37,-22676.27,-34380.74,-4127.4824,-1096.0693,-32283.896,-3567.5457,-6771.932
1222671.7899503545,-44609.62,-22673.79,-34379.19,-4124.5933,-1095.4183,-32282.553,-3559.3262,-6767.4155
1222671.7939503517,-44608.48,-22671.51,-34378.906,-4122.8438,-1095.3777,-32283.611,-3563.6394,-6773.8037
1222671.797950349,-44609.824,-22672.527,-34381.676,-4124.1865,-1096.8425,-32287.965,-3578.125,-6782.878
1222671.8019503464,-44608.523,-22669.883,-34382.773,-4122.966,-1094.6453,-32291.912,-3582.7231,-6784.302
1222671.8059503436,-44606.57,-22666.871,-34380.777,-4120.809,-1091.268,-32291.871,-3576.3347,-6783.529
1222671.809950341,-44608.887,-22666.709,-34380.496,-4120.0767,-1090.4949,-32291.912,-3572.225,-6783.4883
1222671.8139503384,-44610.883,-22670.166,-34382.69,-4121.135,-1092.3666,-32290.977,-3578.7761,-6791.0156
1222671.8179503356,-44615.113,-22672.486,-34386.434,-4123.698,-1096.5576,-32289.512,-3587.6873,-6793.9863
1222671.821950333,-44615.805,-22674.44,-34388.145,-4125.814,-1098.999,-32289.268,-3583.8623,-6785.5635
1222671.8259503304,-44613.16,-22673.666,-34387.086,-4124.5933,-1100.9115,-32289.918,-3576.0498,-6782.308
1222671.8299503275,-44613.69,-22676.678,-34385.336,-4122.8438,-1101.6439,-32290.324,-3571.7773,-6779.7446
1222671.833950325,-44614.016,-22680.014,-34383.22,-4121.6636,-1100.1791,-32290.691,-3573.2017,-6786.0923
1222671.8379503223,-44613.484,-22679.893,-34380.777,-4122.5586,-1100.3418,-32291.424,-3578.8982,-6789.6323
1222671.8419503195,-44616.008,-22683.066,-34381.676,-4123.0063,-1104.2888,-32292.766,-3582.1128,-6790.731
1222671.8459503169,-44617.188,-22683.676,-34383.06,-4123.3726,-1105.184,-32293.254,-3580.0781,-6795.085
1222671.849950314,-44618.086,-22680.096,-34382.938,-4123.0063,-1104.2074,-32291.79,-3574.992,-6795.2476
1222671.8539503114,-44617.555,-22682.7,-34383.18,-4123.6167,-1101.1963,-32287.111,-3571.167,-6784.6274
1222671.8579503088,-44620.117,-22686.768,-34383.586,-4125.0815,-1099.8129,-32286.744,-3576.3347,-6785.7666
1222671.861950306,-44622.152,-22686.523,-34385.297,-4126.2617,-1098.877,-32288.371,-3579.3865,-6797.16
1222671.8659503034,-44622.723,-22687.826,-34386.434,-4126.2207,-1102.9867,-32291.098,-3575.3582,-6796.9565
1222671.8699503008,-44621.543,-22688.232,-34384.035,-4123.7793,-1101.6846,-32292.238,-3570.3125,-6786.0923
1222671.873950298,-44622.113,-22688.762,-34380.86,-4123.088,-1100.4232,-32292.441,-3572.0215,-6791.1377
1222671.8779502953,-44621.46,-22686.035,-34378.99,-4123.454,-1101.5625,-32294.271,-3581.5837,-6804.9727
1222671.8819502927,-44620.32,-22684.693,-34378.824,-4122.518,-1099.6908,-32295.004,-3579.2644,-6797.8516
1222671.88595029,-44617.23,-22684.205,-34377.156,-4121.216,-1096.639,-32292.889,-3566.6912,-6781.4536
1222671.8899502873,-44617.758,-22684.57,-34377.484,-4120.158,-1095.1742,-32291.22,-3559.8552,-6775.9604
1222671.8939502847,-44620.08,-22684.775,-34380.047,-4120.809,-1095.4183,-32291.139,-3564.2905,-6778.5645
1222671.8979502819,-44622.195,-22689.047,-34381.797,-4122.5586,-1099.7314,-32290.244,-3568.8884,-6774.3735
1222671.9019502793,-44622.805,-22690.146,-34382.285,-4123.535,-1101.237,-32289.553,-3567.505,-6770.752
1222671.9059502766,-44618.9,-22686.2,-34381.96,-4121.4194,-1100.7488,-32290.041,-3561.5234,-6774.333
1222671.9099502738,-44613.324,-22682.17,-34379.355,-4119.0186,-1100.1384,-32291.465,-3559.0007,-6786.662
1222671.9139502712,-44613.812,-22684.49,-34379.312,-4119.0186,-1103.6785,-32293.498,-3564.5347,-6788.0454
1222671.9179502686,-44615.438,-22685.02,-34379.152,-4119.1406,-1102.1729,-32295.004,-3574.707,-6789.958
1222671.9219502658,-44615.234,-22682.049,-34378.824,-4119.222,-1099.406,-32295.168,-3574.6665,-6788.8184
1222671.9259502632,-44616.457,-22684.082,-34379.844,-4118.9375,-1097.4935,-32292.36,-3564.616,-6783.6104
1222671.9299502606,-44618.777,-22687.053,-34379.965,-4119.7104,-1101.766,-32291.506,-3561.1572,-6789.2256
1222671.9339502577,-44618.086,-22687.541,-34379.07,-4120.036,-1105.3467,-32291.22,-3563.7207,-6787.4756
1222671.9379502551,-44618.164,-22688.559,-34379.152,-4120.3613,-1102.5391,-32290.244,-3570.3125,-6789.1035
1222671.9419502525,-44618.367,-22685.223,-34379.355,-4120.117,-1101.2777,-32292.074,-3569.865,-6790.8125
1222671.9459502497,-44617.72,-22683.066,-34380.86,-4118.4897,-1098.9177,-32294.191,-3564.1685,-6788.6963
1222671.949950247,-44616.984,-22684.205,-34381.227,-4116.1704,-1095.866,-32296.795,-3562.8662,-6783.325
1222671.9539502442,-44618.613,-22685.588,-34379.56,-4117.1064,-1097.8191,-32298.057,-3568.278,-6782.837
1222671.9579502416,-44620.32,-22686.768,-34377.28,-4119.1406,-1099.6094,-32299.766,-3580.4443,-6798.869
1222671.961950239,-44616.742,-22686.932,-34374.715,-4119.3037,-1099.2839,-32300.05,-3582.7637,-6806.9663
1222671.9659502362,-44615.03,-22686.564,-34375.246,-4118.978,-1099.7314,-32298.586,-3574.0967,-6800.537
1222671.9699502336,-44615.645,-22687.42,-34374.88,-4118.2456,-1100.1791,-32296.51,-3567.1387,-6797.3633
1222671.973950231,-44613.69,-22687.867,-34372.926,-4118.408,-1099.3246,-32294.436,-3567.627,-6796.1426
1222671.9779502281,-44613.61,-22688.152,-34371.91,-4118.612,-1099.6094,-32294.312,-3573.4458,-6794.4336
1222671.9819502255,-44613.65,-22688.07,-34371.137,-4118.286,-1098.5107,-32295.248,-3572.1436,-6794.1895
1222671.985950223,-44613.812,-22689.453,-34373.535,-4117.8794,-1098.7957,-32297.283,-3563.2324,-6787.964
1222671.98995022,-44612.875,-22685.629,-34373.293,-4116.8623,-1096.9646,-32297.121,-3556.071,-6782.3896
1222671.9939502175,-44615.03,-22686.809,-34373.535,-4117.3506,-1098.9177,-32295.656,-3558.6345,-6786.052
1222671.997950215,-44616.375,-22688.396,-34375.082,-4118.9375,-1099.8943,-32295.695,-3566.325,-6786.5806
1222672.001950212,-44616.21,-22687.867,-34375.652,-4120.1987,-1101.1556,-32296.428,-3564.6567,-6788.574
1222672.0059502095,-44614.42,-22687.867,-34375.895,-4120.2803,-1095.7845,-32295.168,-3556.3965,-6787.8013
1222672.0099502068,-44615.562,-22691.285,-34377.81,-4121.0938,-1096.3949,-32295.045,-3553.5889,-6784.912
1222672.013950204,-44617.39,-22693.809,-34378.5,-4121.582,-1098.999,-32294.475,-3558.3904,-6785.1157
1222672.0179502014,-44619.754,-22693.36,-34379.438,-4122.6807,-1097.168,-32293.865,-3565.1042,-6792.6436
1222672.0219501988,-44617.15,-22689.861,-34377.035,-4121.7856,-1098.0632,-32293.133,-3564.5752,-6796.875
1222672.025950196,-44614.098,-22687.664,-34375.203,-4121.582,-1098.5922,-32292.766,-3557.5767,-6790.324
1222672.0299501934,-44612.305,-22688.396,-34373.617,-4120.6465,-1099.8129,-32293.377,-3554.9724,-6788.086
1222672.0339501908,-44612.266,-22689.494,-34372.52,-4119.3037,-1102.1729,-32292.848,-3557.9429,-6787.191
1222672.037950188,-44610.965,-22691.773,-34370.32,-4120.443,-1103.5156,-32293.783,-3564.9822,-6786.947
1222672.0419501853,-44611.29,-22690.918,-34371.297,-4121.6636,-1103.7598,-32295.9,-3567.2607,-6787.5977
1222672.0459501827,-44612.227,-22688.355,-34373.13,-4121.338,-1102.0508,-32295.492,-3564.6973,-6799.398
1222672.0499501799,-44614.34,-22691.123,-34375.246,-4121.9893,-1100.1384,-32295.086,-3558.838,-6791.1377
1222672.0539501773,-44604.29,-22687.46,-34373.414,-4121.379,-1098.1445,-32295.412,-3562.5815,-6790.324
1222672.0579501747,-44593.832,-22679.648,-34372.64,-4121.745,-1101.5625,-32293.621,-3569.987,-6790.4053
1222672.0619501718,-44590.82,-22673.504,-34370.934,-4122.3145,-1102.5391,-32292.4,-3570.4346,-6786.418
1222672.0659501692,-44584.598,-22670.654,-34366.336,-4119.426,-1101.766,-32293.54,-3567.9526,-6791.8296
1222672.0699501664,-44573.57,-22667.562,-34362.633,-4116.8623,-1102.5798,-32296.51,-3571.859,-6808.553
1222672.0739501638,-44565.88,-22655.723,-34359.703,-4114.787,-1100.5046,-32298.219,-3579.7935,-6812.0527
1222672.0779501612,-44558.15,-22645.916,-34357.098,-4114.4614,-1103.1902,-32297.73,-3584.7576,-6811.2793
1222672.0819501583,-44536.99,-22637.94,-34351.605,-4112.834,-1103.3529,-32296.916,-3583.5776,-6808.757
1222672.0859501557,-44525.637,-22627.89,-34350.914,-4111.6943,-1101.115,-32295.656,-3572.7134,-6799.968
1222672.0899501531,-44518.35,-22621.502,-34350.832,-4110.9214,-1100.0977,-32295.33,-3570.3125,-6805.8677
1222672.0939501503,-44498.74,-22609.54,-34345.99,-4106.4863,-1098.3887,-32297.121,-3579.4678,-6814.209
1222672.0979501477,-44480.023,-22592.041,-34341.555,-4102.417,-1091.9597,-32299.643,-3592.041,-6821.045
1222672.101950145,-44465.13,-22577.637,-34337.73,-4100.708,-1089.1521,-32301.066,-3595.5405,-6825.521
1222672.1059501423,-44455.324,-22570.965,-34336.387,-4098.552,-1088.0535,-32303.875,-3591.7156,-6827.108
1222672.1099501397,-44448.527,-22563.518,-34336.266,-4095.4185,-1087.2396,-32304.852,-3587.3618,-6823.812
1222672.113950137,-44448.203,-22557.658,-34333.62,-4092.977,-1083.5369,-32303.63,-3589.0708,-6824.4224
1222672.1179501342,-44442.586,-22545.33,-34331.504,-4091.8376,-1081.6244,-32304.16,-3599.3247,-6829.59
1222672.1219501316,-44434.246,-22539.104,-34331.055,-4092.6516,-1082.1941,-32305.584,-3599.7314,-6829.1426
1222672.125950129,-44428.875,-22537.273,-34330.445,-4091.553,-1082.0312,-32304.363,-3588.4604,-6820.8823
1222672.1299501262,-44422.61,-22532.146,-34327.19,-4088.4197,-1081.4617,-32304.24,-3582.8452,-6823.12
1222672.1339501236,-44421.023,-22528.2,-34325.645,-4087.199,-1082.6416,-32303.957,-3585.2458,-6823.446
1222672.137950121,-44420.37,-22525.676,-34326.945,-4087.3618,-1083.6182,-32305.137,-3593.5466,-6824.4224
1222672.1419501181,-44420.332,-22525.514,-34327.477,-4086.9956,-1084.8389,-32306.193,-3593.2212,-6821.2485
1222672.1459501155,-44419.516,-22524.252,-34327.23,-4086.9956,-1086.4258,-32306.154,-3585.2458,-6822.5913
1222672.149950113,-44422.08,-22527.955,-34327.76,-4086.4666,-1090.0879,-32306.193,-3582.3975,-6828.166
1222672.15395011,-44426.35,-22527.06,-34329.633,-4086.4666,-1085.7748,-32308.432,-3593.099,-6833.822
1222672.1579501075,-44426.8,-22525.514,-34329.387,-4086.1003,-1085.1644,-32308.635,-3603.8818,-6835.9375
1222672.1619501049,-44425.293,-22523.967,-34328.086,-4084.4321,-1084.2285,-32308.514,-3601.9287,-6831.421
1222672.165950102,-44427.938,-22527.752,-34328.25,-4083.781,-1082.1127,-32306.193,-3588.2976,-6815.4297
1222672.1699500994,-44431.52,-22529.95,-34328.29,-4083.2114,-1081.4617,-32304.973,-3582.8452,-6818.929
1222672.1739500966,-44436.32,-22533.652,-34328.777,-4084.595,-1082.3162,-32303.875,-3587.6465,-6827.352
1222672.177950094,-44447.633,-22546.55,-34331.625,-4087.484,-1086.8734,-32303.672,-3590.1287,-6822.876
1222672.1819500914,-44455.73,-22555.828,-34333.902,-4089.8032,-1090.4541,-32302.125,-3586.4258,-6813.8022
1222672.1859500885,-44457.766,-22557.74,-34332.97,-4088.9895,-1088.2568,-32302.287,-3580.363,-6818.807
1222672.189950086,-44465.293,-22564.861,-34333.66,-4088.786,-1088.1755,-32300.578,-3576.7417,-6815.2266
1222672.1939500833,-44474.53,-22569.418,-34336.508,-4089.437,-1088.5417,-32301.066,-3585.2458,-6821.411
1222672.1979500805,-44482.87,-22577.11,-34339.48,-4090.9426,-1092.5701,-32302.37,-3595.2148,-6830.119
1222672.201950078,-44491.254,-22584.229,-34343.426,-4092.8958,-1096.3135,-32303.02,-3596.2322,-6826.05
1222672.2059500753,-44496.297,-22588.46,-34343.914,-4093.7908,-1095.1335,-32302.492,-3585.49,-6817.1387
1222672.2099500725,-44494.305,-22589.723,-34341.594,-4092.2854,-1095.9473,-32301.19,-3580.4038,-6823.242
1222672.2139500699,-44496.137,-22593.67,-34340.58,-4094.157,-1098.7142,-32300.213,-3580.0781,-6822.3066
1222672.2179500673,-44503.906,-22599.244,-34342.0,-4095.9067,-1102.0508,-32301.88,-3586.5073,-6822.917
1222672.2219500644,-44512.492,-22607.098,-34345.215,-4097.9414,-1104.6143,-32303.752,-3587.6465,-6821.0044
1222672.2259500618,-44517.09,-22613.16,-34349.527,-4097.575,-1102.2543,-32303.508,-3581.0547,-6818.319
1222672.2299500592,-44518.965,-22614.137,-34352.582,-4096.4766,-1103.0273,-32301.148,-3575.9277,-6818.6035
1222672.2339500564,-44523.113,-22614.87,-34353.516,-4096.843,-1106.1199,-32301.027,-3580.892,-6825.7246
1222672.2379500538,-44530.316,-22622.52,-34354.82,-4099.6504,-1106.8523,-32302.613,-3588.2976,-6826.9043
1222672.2419500512,-44533.45,-22627.32,-34355.836,-4099.8535,-1107.4626,-32303.225,-3588.2976,-6820.5977
1222672.2459500483,-44533.977,-22629.883,-34353.844,-4098.5107,-1108.6833,-32303.184,-3580.4443,-6817.383
1222672.2499500457,-44537.395,-22634.36,-34352.176,-4098.552,-1113.1185,-32303.387,-3575.643,-6811.8086
1222672.253950043,-44538.25,-22636.15,-34349.246,-4098.552,-1113.0779,-32303.957,-3576.5789,-6809.7334
1222672.2579500403,-44540.69,-22640.137,-34348.96,-4099.4062,-1111.6943,-32302.816,-3580.4038,-6809.774
1222672.2619500377,-44543.133,-22638.633,-34349.203,-4099.284,-1110.2703,-32300.334,-3573.5679,-6808.6753
1222672.265950035,-44540.12,-22638.51,-34350.465,-4099.2026,-1110.0668,-32300.904,-3568.4814,-6812.297
1222672.2699500322,-44543.703,-22644.857,-34352.906,-4099.162,-1111.6537,-32299.643,-3565.1042,-6806.926
1222672.2739500296,-44551.555,-22650.84,-34355.105,-4100.0977,-1112.1826,-32297.69,-3566.0808,-6807.495
1222672.2779500268,-44555.625,-22653.117,-34355.348,-4099.4062,-1114.2986,-32297.568,-3574.3003,-6814.128
1222672.2819500242,-44558.676,-22654.094,-34357.668,-4100.505,-1115.3564,-32300.457,-3578.003,-6814.209
1222672.2859500216,-44560.547,-22652.426,-34358.887,-4099.7314,-1113.2406,-32302.287,-3570.394,-6806.478
1222672.2899500187,-44565.188,-22656.617,-34358.805,-4099.162,-1114.2578,-32302.328,-3565.1855,-6802.4497
1222672.2939500161,-44566.285,-22659.953,-34357.87,-4099.121,-1113.0779,-32300.783,-3568.8477,-6809.204
1222672.2979500135,-44567.87,-22661.621,-34359.09,-4101.115,-1112.9558,-32300.05,-3574.3408,-6808.1465
1222672.3019500107,-44570.56,-22661.418,-34360.516,-4101.1963,-1113.1592,-32299.357,-3572.1436,-6807.048
1222672.305950008,-44571.004,-22661.621,-34361.29,-4100.9116,-1112.9558,-32297.69,-3565.6333,-6808.5127
1222672.3099500055,-44570.11,-22662.15,-34359.99,-4100.4233,-1115.2751,-32295.615,-3559.611,-6811.7676
1222672.3139500027,-44572.797,-22664.959,-34360.15,-4100.3013,-1118.0828,-32295.451,-3561.5642,-6808.635
1222672.31795,-44576.62,-22667.645,-34360.312,-4100.9116,-1118.0013,-32295.777,-3567.505,-6806.1934
1222672.3219499975,-44577.477,-22669.11,-34361.734,-4102.336,-1117.3096,-32297.648,-3566.7725,-6805.786
1222672.3259499946,-44574.953,-22670.94,-34362.43,-4102.0103,-1118.571,-32298.342,-3557.9834,-6797.811
1222672.329949992,-44572.023,-22667.766,-34360.68,-4100.2197,-1117.5131,-32296.795,-3550.7812,-6796.55
1222672.3339499894,-44573.406,-22666.953,-34360.066,-4099.162,-1116.4551,-32293.133,-3550.6187,-6795.8174
1222672.3379499866,-44572.797,-22666.586,-34359.99,-4099.691,-1115.682,-32291.994,-3558.1055,-6796.9565
1222672.341949984,-44575.48,-22665.324,-34361.125,-4099.4062,-1114.0544,-32294.15,-3560.018,-6795.3696
1222672.3459499814,-44573.812,-22663.738,-34360.637,-4098.2666,-1112.3455,-32293.703,-3553.9146,-6795.4917
1222672.3499499785,-44569.094,-22662.883,-34359.293,-4096.761,-1112.7117,-32293.377,-3548.7468,-6792.1143
1222672.353949976,-44569.094,-22662.762,-34358.36,-4096.395,-1111.6537,-32292.033,-3548.6655,-6792.5215
1222672.3579499733,-44571.74,-22665.447,-34359.17,-4097.86,-1118.4896,-32291.18,-3555.1353,-6796.346
1222672.3619499705,-44574.504,-22669.027,-34359.215,-4098.4297,-1118.449,-32292.277,-3554.1587,-6793.7827
1222672.3659499679,-44576.254,-22675.13,-34357.953,-4097.982,-1115.9668,-32292.074,-3543.579,-6786.9873
1222672.3699499653,-44574.63,-22679.648,-34354.13,-4095.4998,-1117.9199,-32291.22,-3538.208,-6779.704
1222672.3739499624,-44575.727,-22678.467,-34352.906,-4094.6453,-1118.7338,-32292.441,-3547.2007,-6794.1895
1222672.3779499598,-44578.613,-22678.184,-34355.105,-4096.639,-1118.2861,-32292.766,-3556.193,-6802.002
1222672.381949957,-44575.48,-22677.125,-34354.574,-4095.0115,-1114.3392,-32290.895,-3553.1006,-6794.4746
1222672.3859499544,-44571.86,-22675.254,-34355.023,-4094.157,-1111.0027,-32290.61,-3541.0156,-6789.5103
1222672.3899499518,-44571.656,-22675.293,-34354.29,-4095.215,-1111.6943,-32291.586,-3535.604,-6791.87
1222672.393949949,-44575.97,-22678.102,-34353.8,-4096.761,-1113.7289,-32292.4,-3540.9343,-6792.684
1222672.3979499463,-44580.934,-22681.967,-34353.027,-4098.348,-1117.0654,-32291.871,-3547.8923,-6789.917
1222672.4019499437,-44582.03,-22686.24,-34354.74,-4097.982,-1121.0531,-32293.254,-3550.537,-6796.102
1222672.405949941,-44579.387,-22686.2,-34354.86,-4094.686,-1121.9076,-32295.29,-3544.6777,-6794.515
1222672.4099499383,-44576.863,-22683.594,-34352.582,-4092.1633,-1119.1,-32295.168,-3543.864,-6804.1587
1222672.4139499357,-44578.695,-22686.361,-34353.312,-4093.506,-1120.5648,-32294.963,-3549.4792,-6805.705
1222672.4179499329,-44578.25,-22686.402,-34356.12,-4095.1335,-1120.5648,-32296.592,-3555.7861,-6804.8506
1222672.4219499303,-44576.863,-22685.223,-34357.91,-4094.5232,-1117.9199,-32297.893,-3555.3794,-6808.1465
1222672.4259499277,-44574.26,-22684.57,-34358.44,-4092.6516,-1117.2283,-32297.04,-3545.166,-6802.0835
1222672.4299499248,-44576.5,-22689.209,-34358.195,-4092.0818,-1120.4427,-32296.633,-3537.8418,-6795.41
1222672.4339499222,-44583.254,-22694.662,-34357.504,-4093.9944,-1118.4082,-32295.492,-3542.033,-6798.6655
1222672.4379499196,-44584.027,-22695.557,-34356.69,-4097.168,-1118.7338,-32294.395,-3547.2412,-6806.6
1222672.4419499168,-44583.008,-22698.73,-34355.957,-4096.3135,-1117.5945,-32293.377,-3545.858,-6807.617
1222672.4459499142,-44581.465,-22695.8,-34356.324,-4094.279,-1117.8386,-32294.475,-3543.1316,-6809.9365
1222672.4499499116,-44583.984,-22695.965,-34358.6,-4094.157,-1115.4785,-32296.389,-3538.5337,-6804.5654
1222672.4539499087,-44586.14,-22696.412,-34359.824,-4093.9128,-1117.5945,-32298.463,-3542.155,-6801.7173
1222672.4579499061,-44585.043,-22692.303,-34359.99,-4093.9128,-1119.2627,-32298.83,-3544.7185,-6797.445
1222672.4619499035,-44580.73,-22688.355,-34357.953,-4093.7908,-1113.0371,-32297.404,-3540.2832,-6797.3228
1222672.4659499007,-44579.348,-22688.6,-34356.57,-4092.733,-1113.1592,-32298.219,-3537.0688,-6804.891
1222672.469949898,-44581.953,-22692.424,-34354.617,-4091.2273,-1114.8682,-32297.486,-3533.488,-6806.5186
1222672.4739498955,-44583.375,-22696.412,-34353.395,-4091.675,-1116.3738,-32296.184,-3535.319,-6802.287
1222672.4779498926,-44584.637,-22697.836,-34353.477,-4093.1804,-1116.4551,-32295.777,-3540.039,-6805.664
1222672.48194989,-44586.14,-22697.836,-34353.8,-4094.2385,-1116.2924,-32295.045,-3536.3364,-6803.3857
1222672.4859498872,-44585.29,-22697.918,-34354.695,-4092.7737,-1116.4144,-32293.742,-3525.7568,-6793.7827
1222672.4899498846,-44585.33,-22697.389,-34355.184,-4091.5122,-1116.4958,-32294.598,-3521.6064,-6786.743
1222672.493949882,-44586.223,-22692.953,-34355.633,-4091.146,-1114.7461,-32296.104,-3525.8384,-6785.97
1222672.4979498792,-44580.77,-22687.664,-34351.523,-4088.908,-1111.9385,-32294.76,-3527.5066,-6778.8496
1222672.5019498765,-44575.117,-22684.205,-34348.836,-4087.484,-1109.7006,-32293.662,-3524.3328,-6774.9434
1222672.505949874,-44574.91,-22685.182,-34349.527,-4087.3618,-1110.1074,-32293.742,-3517.1306,-6772.949
1222672.509949871,-44576.906,-22685.914,-34350.71,-4086.9956,-1110.7992,-32294.271,-3517.5781,-6785.36
1222672.5139498685,-44581.34,-22687.785,-34350.63,-4087.8909,-1112.7117,-32294.516,-3526.8555,-6794.0674
1222672.517949866,-44584.92,-22690.674,-34349.812,-4088.135,-1115.5599,-32296.021,-3534.5054,-6803.3857
1222672.521949863,-44584.598,-22691.814,-34350.547,-4087.2805,-1113.7695,-32297.568,-3536.5398,-6806.885
1222672.5259498605,-44585.207,-22690.064,-34349.734,-4087.1177,-1112.9558,-32297.975,-3527.3845,-6798.34
1222672.5299498579,-44584.883,-22691.041,-34350.75,-4086.6294,-1111.5316,-32298.26,-3522.0134,-6795.6953
1222672.533949855,-44586.223,-22694.092,-34351.645,-4088.3792,-1111.1248,-32296.836,-3524.6582,-6795.4917
1222672.5379498524,-44587.89,-22694.865,-34353.152,-4089.3962,-1113.322,-32296.795,-3530.7212,-6794.271
1222672.5419498498,-44584.676,-22692.139,-34352.664,-4088.908,-1113.1592,-32292.727,-3526.0825,-6791.9517
1222672.545949847,-44586.55,-22695.15,-34351.89,-4088.4604,-1116.4551,-32289.715,-3517.7002,-6795.329
1222672.5499498444,-44592.53,-22700.36,-34350.832,-4088.8267,-1118.2455,-32288.9,-3513.7534,-6796.102
1222672.5539498418,-44592.367,-22701.66,-34350.79,-4088.4604,-1117.2283,-32291.018,-3516.8865,-6794.4746
1222672.557949839,-44590.17,-22696.168,-34349.324,-4087.8093,-1116.0889,-32294.312,-3523.7224,-6791.0566
1222672.5619498363,-44588.504,-22693.848,-34347.86,-4088.7046,-1115.3972,-32296.145,-3523.0308,-6787.0283
1222672.5659498337,-44585.652,-22691.57,-34346.355,-4088.2163,-1116.8213,-32296.104,-3516.439,-6790.5684
1222672.5699498309,-44583.133,-22689.738,-34343.547,-4085.4087,-1116.4144,-32294.842,-3511.8003,-6788.086
1222672.5739498283,-44582.97,-22690.838,-34342.69,-4083.9438,-1115.9261,-32295.29,-3514.038,-6787.964
1222672.5779498257,-44582.887,-22690.838,-34343.875,-4084.473,-1117.9199,-32296.916,-3521.5251,-6784.5054
1222672.5819498228,-44582.156,-22689.291,-34344.035,-4085.0425,-1116.3738,-32295.207,-3520.1416,-6779.541
1222672.5859498202,-44580.363,-22685.629,-34343.75,-4083.008,-1111.0433,-32293.254,-3514.4858,-6787.7197
1222672.5899498174,-44582.848,-22686.361,-34345.99,-4083.5369,-1110.3109,-32291.3,-3509.0332,-6776.0825
1222672.5939498148,-44582.6,-22684.002,-34345.133,-4084.2693,-1110.5144,-32291.953,-3511.6782,-6780.0293
1222672.5979498122,-44580.445,-22682.373,-34343.59,-4084.4321,-1107.7474,-32294.475,-3519.8975,-6790.324
1222672.6019498094,-44580.812,-22681.031,-34343.344,-4084.2693,-1103.475,-32296.957,-3518.026,-6786.4585
1222672.6059498067,-44584.27,-22686.117,-34343.305,-4084.1067,-1108.6426,-32295.818,-3507.4058,-6780.0293
1222672.6099498041,-44587.324,-22694.58,-34343.914,-4083.6184,-1110.6771,-32295.9,-3502.767,-6777.832
1222672.6139498013,-44589.723,-22695.842,-34343.387,-4083.4148,-1110.5957,-32295.736,-3506.2256,-6778.4834
1222672.6179497987,-44582.195,-22685.02,-34341.27,-4082.5603,-1107.5033,-32294.719,-3514.974,-6784.709
1222672.621949796,-44574.63,-22680.176,-34342.69,-4082.9673,-1107.5847,-32295.492,-3517.0085,-6784.7495
1222672.6259497933,-44579.55,-22688.193,-34344.85,-4082.479,-1110.1888,-32295.98,-3509.7656,-6780.884
1222672.6299497907,-44581.746,-22689.17,-34345.746,-4081.0142,-1108.2764,-32295.818,-3504.5981,-6772.339
1222672.633949788,-44578.168,-22684.164,-34343.914,-4081.7874,-1106.8523,-32297.324,-3509.3994,-6777.873
1222672.6379497852,-44578.94,-22681.846,-34345.055,-4085.0017,-1111.3689,-32297.73,-3521.159,-6791.1377
1222672.6419497826,-44579.348,-22682.049,-34345.664,-4085.1646,-1112.5488,-32296.672,-3523.7632,-6791.3413
1222672.64594978,-44583.496,-22684.326,-34343.996,-4085.4495,-1111.5316,-32295.168,-3517.4968,-6789.9985
1222672.6499497772,-44585.125,-22687.95,-34341.92,-4085.2458,-1111.2875,-32295.492,-3515.0554,-6786.499
1222672.6539497746,-44585.9,-22686.484,-34340.7,-4085.3274,-1113.0779,-32295.371,-3518.8396,-6786.743
1222672.657949772,-44586.426,-22687.379,-34341.84,-4087.606,-1115.7634,-32297.568,-3528.239,-6797.038
1222672.6619497691,-44583.742,-22688.477,-34341.023,-4087.85,-1116.4144,-32299.154,-3530.355,-6797.2007
1222672.6659497665,-44582.4,-22687.217,-34339.52,-4085.8562,-1118.3269,-32296.266,-3522.7866,-6792.7246
1222672.669949764,-44586.836,-22691.123,-34342.082,-4087.2805,-1121.4193,-32294.8,-3518.5142,-6790.853
1222672.673949761,-44593.06,-22695.8,-34343.914,-4090.1694,-1121.6635,-32295.695,-3523.6816,-6795.736
1222672.6779497585,-44596.19,-22697.266,-34344.156,-4091.553,-1124.4304,-32295.33,-3529.948,-6800.9033
1222672.6819497559,-44595.785,-22697.43,-34341.51,-4092.2854,-1123.698,-32292.727,-3527.3032,-6791.748
1222672.685949753,-44591.758,-22694.174,-34339.195,-4091.4714,-1122.8842,-32292.36,-3521.3623,-6793.091
1222672.6899497504,-44589.4,-22691.406,-34339.195,-4090.5356,-1122.6807,-32292.93,-3519.7349,-6793.335
1222672.6939497478,-44590.13,-22690.715,-34338.543,-4088.9895,-1124.9187,-32294.027,-3523.0308,-6790.039
1222672.697949745,-44591.555,-22692.303,-34339.03,-4089.4778,-1126.058,-32295.004,-3528.768,-6787.2725
1222672.7019497424,-44590.82,-22686.443,-34340.7,-4089.152,-1122.5586,-32294.883,-3530.1108,-6788.778
1222672.7059497396,-44592.977,-22685.832,-34341.96,-4089.03,-1122.3145,-32295.656,-3526.245,-6794.149
1222672.709949737,-44592.816,-22688.72,-34339.844,-4088.5417,-1123.8607,-32297.812,-3522.6646,-6789.592
1222672.7139497343,-44592.773,-22690.227,-34336.754,-4088.2976,-1122.518,-32296.713,-3522.6238,-6790.3647
1222672.7179497315,-44592.246,-22690.838,-34333.414,-4089.03,-1122.7214,-32294.475,-3525.7568,-6786.174
1222672.721949729,-44592.613,-22692.547,-34332.848,-4090.0881,-1123.4539,-32293.742,-3527.1812,-6793.8643
1222672.7259497263,-44596.68,-22693.93,-34335.29,-4089.3557,-1129.1097,-32291.953,-3521.0369,-6797.0786
1222672.7299497235,-44596.03,-22696.045,-34334.8,-4087.199,-1132.2836,-32290.488,-3517.7002,-6795.8984
1222672.7339497209,-44599.367,-22697.389,-34336.1,-4088.5012,-1129.2318,-32291.098,-3521.1182,-6792.4805
1222672.7379497183,-44603.965,-22702.637,-34337.605,-4090.617,-1131.9174,-32293.459,-3526.815,-6788.005
1222672.7419497154,-44604.86,-22704.672,-34337.81,-4090.0474,-1132.2021,-32294.68,-3526.1638,-6787.5977
1222672.7459497128,-44606.082,-22702.271,-34339.113,-4089.559,-1131.3477,-32294.557,-3520.874,-6789.388
1222672.7499497102,-44605.39,-22700.562,-34339.52,-4087.6873,-1132.6498,-32295.615,-3519.2466,-6793.1724
1222672.7539497074,-44603.844,-22700.44,-34337.16,-4087.1584,-1133.667,-32296.998,-3524.5361,-6796.5903
1222672.7579497048,-44601.81,-22697.47,-34334.676,-4087.606,-1132.2429,-32294.68,-3526.937,-6791.87
1222672.7619497022,-44597.008,-22691.895,-34333.54,-4085.9377,-1131.307,-32294.354,-3525.2686,-6788.6963
1222672.7659496993,-44596.234,-22689.414,-34334.92,-4083.4148,-1128.8656,-32293.295,-3517.7817,-6787.679
1222672.7699496967,-44599.285,-22691.285,-34336.426,-4082.357,-1127.8076,-32292.97,-3514.0789,-6779.582
1222672.7739496941,-44601.24,-22694.012,-34335.53,-4082.357,-1128.7029,-32291.912,-3517.9038,-6785.1157
1222672.7779496913,-44603.438,-22698.936,-34334.8,-4084.3508,-1130.4525,-32291.383,-3522.0134,-6787.8013
1222672.7819496887,-44610.23,-22703.492,-34336.387,-4083.7405,-1130.3711,-32291.383,-3519.043,-6782.4707
1222672.785949686,-44619.062,-22706.951,-34339.234,-4084.9612,-1131.6732,-32291.383,-3513.2651,-6777.5474
1222672.7899496832,-44597.453,-22691.082,-34332.848,-4081.0955,-1128.9877,-32292.97,-3513.6313,-6785.3193
1222672.7939496806,-44579.227,-22679.607,-34325.848,-4078.2065,-1130.1677,-32292.562,-3516.2761,-6778.8496
1222672.797949678,-44587.28,-22688.232,-34327.312,-4079.9563,-1131.307,-32291.465,-3522.6238,-6779.663
1222672.8019496752,-44602.54,-22697.389,-34333.414,-4081.1362,-1132.365,-32291.75,-3522.99,-6779.663
1222672.8059496726,-44608.32,-22702.148,-34333.496,-4080.8108,-1135.8236,-32294.11,-3520.2637,-6787.3945
1222672.8099496698,-44606.367,-22703.533,-34330.73,-4080.526,-1138.0209,-32294.271,-3518.9617,-6792.0737
1222672.8139496672,-44609.863,-22706.137,-34330.85,-4081.5837,-1140.0961,-32293.783,-3524.8618,-6796.0615
1222672.8179496645,-44610.23,-22708.049,-34329.67,-4083.0894,-1142.0085,-32295.695,-3532.064,-6801.107
1222672.8219496617,-44604.902,-22706.38,-34330.406,-4081.9094,-1140.1775,-32298.178,-3534.2205,-6802.816
1222672.825949659,-44606.49,-22707.764,-34333.05,-4079.4272,-1138.1836,-32299.236,-3526.3672,-6795.573
1222672.8299496565,-44606.69,-22709.514,-34333.902,-4078.8982,-1136.9629,-32298.707,-3520.9556,-6792.3584
1222672.8339496537,-44608.195,-22711.875,-34334.473,-4079.5493,-1138.6719,-32297.934,-3526.7742,-6795.288
1222672.837949651,-44616.496,-22716.229,-34337.402,-4082.1128,-1141.7236,-32296.021,-3531.8604,-6798.625
1222672.8419496485,-44618.164,-22716.432,-34336.305,-4081.5024,-1143.6361,-32295.736,-3526.937,-6795.329
1222672.8459496456,-44613.812,-22712.402,-34333.66,-4079.5085,-1139.7705,-32295.492,-3517.9038,-6793.1724
1222672.849949643,-44615.562,-22716.432,-34335.164,-4080.119,-1140.5029,-32294.639,-3512.8582,-6789.4697
1222672.8539496404,-44620.08,-22720.908,-34337.527,-4082.6824,-1142.0085,-32292.889,-3514.323,-6782.7964
1222672.8579496376,-44621.625,-22721.191,-34337.28,-4084.5542,-1142.863,-32292.766,-3520.752,-6794.5557
1222672.861949635,-44621.582,-22722.617,-34336.305,-4082.9673,-1143.3513,-32293.865,-3518.5547,-6791.0156
1222672.8659496324,-44620.04,-22722.209,-34334.39,-4080.77,-1146.5251,-32294.271,-3510.376,-6783.529
1222672.8699496295,-44617.96,-22721.232,-34333.375,-4079.1423,-1146.281,-32294.271,-3507.365,-6786.8247
1222672.873949627,-44621.664,-22722.941,-34335.777,-4080.363,-1142.6189,-32292.238,-3507.8533,-6787.883
1222672.8779496243,-44623.58,-22722.617,-34336.832,-4081.7058,-1145.2637,-32290.977,-3512.1257,-6787.8013
1222672.8819496215,-44619.223,-22720.215,-34335.98,-4080.241,-1143.1478,-32289.309,-3507.9346,-6777.873
1222672.8859496189,-44617.473,-22718.223,-34332.926,-4078.939,-1142.2527,-32287.03,-3494.9546,-6761.1084
1222672.8899496163,-44613.566,-22716.797,-34330.895,-4077.108,-1141.154,-32286.744,-3488.729,-6763.1836
1222672.8939496134,-44612.918,-22717.246,-34331.543,-4076.5383,-1140.9506,-32288.494,-3497.8843,-6778.2393
1222672.8979496108,-44615.52,-22721.191,-34332.113,-4077.1892,-1142.6595,-32289.877,-3508.545,-6785.4414
1222672.9019496082,-44614.22,-22722.209,-34332.97,-4076.5789,-1142.0898,-32292.441,-3509.7656,-6785.034
1222672.9059496054,-44612.59,-22721.762,-34332.848,-4075.1956,-1141.805,-32293.498,-3502.8076,-6779.6226
1222672.9099496028,-44612.184,-22720.012,-34332.234,-4073.934,-1141.9678,-32293.58,-3496.7856,-6774.7397
1222672.9139496,-44612.918,-22721.762,-34330.484,-4073.527,-1143.0258,-32292.441,-3502.6855,-6776.164
1222672.9179495974,-44618.492,-22727.824,-34331.543,-4075.7244,-1146.281,-32292.93,-3511.2305,-6783.6104
1222672.9219495947,-44618.695,-22726.28,-34334.8,-4076.2534,-1145.101,-32293.783,-3513.9976,-6786.296
1222672.925949592,-44618.086,-22724.285,-34336.1,-4075.8872,-1143.7988,-32292.238,-3506.1443,-6785.5225
1222672.9299495893,-44616.78,-22726.28,-34335.41,-4074.5852,-1144.8568,-32292.074,-3499.349,-6781.6978
1222672.9339495867,-44617.15,-22726.604,-34333.17,-4073.934,-1143.7988,-32291.586,-3503.296,-6776.9775
1222672.9379495839,-44621.016,-22729.453,-34334.84,-4076.9045,-1145.7927,-32293.254,-3511.3933,-6780.8027
1222672.9419495813,-44619.957,-22731.854,-34336.914,-4076.4163,-1149.1293,-32295.777,-3515.1775,-6791.0156
1222672.9459495787,-44614.42,-22726.848,-34337.445,-4073.5679,-1148.8851,-32297.61,-3510.254,-6792.4805
1222672.9499495758,-44612.43,-22724.447,-34335.574,-4071.9402,-1143.0258,-32295.94,-3502.5635,-6787.2314
1222672.9539495732,-44613.08,-22727.5,-34333.66,-4071.818,-1142.7002,-32293.865,-3504.232,-6789.5103
1222672.9579495706,-44615.113,-22728.76,-34333.457,-4074.5444,-1143.8396,-32291.709,-3507.08,-6787.3535
1222672.9619495678,-44614.543,-22727.744,-34333.58,-4074.2595,-1144.6941,-32291.709,-3505.656,-6785.3193
1222672.9659495652,-44614.746,-22727.174,-34330.324,-4074.0562,-1147.0134,-32289.674,-3495.7275,-6778.7275
1222672.9699495626,-44614.22,-22726.523,-34328.9,-4072.9575,-1147.5017,-32287.762,-3490.2344,-6777.059
1222672.9739495597,-44614.543,-22725.871,-34327.92,-4072.3064,-1147.1761,-32290.121,-3500.0,-6788.208
1222672.9779495571,-44615.926,-22727.133,-34327.883,-4073.0388,-1147.7051,-32292.686,-3505.8188,-6788.9814
1222672.9819495545,-44614.625,-22728.76,-34327.395,-4074.2595,-1145.9961,-32293.865,-3505.005,-6781.7793
1222672.9859495517,-44614.34,-22731.283,-34327.637,-4072.9167,-1142.741,-32293.824,-3500.8545,-6785.4414
1222672.989949549,-44616.78,-22731.73,-34328.29,-4071.8997,-1146.3623,-32291.75,-3497.396,-6783.5693
1222672.9939495465,-44619.223,-22734.863,-34328.9,-4074.0562,-1152.8728,-32290.041,-3498.6167,-6780.477
1222672.9979495436,-44620.605,-22737.184,-34330.61,-4075.6838,-1152.6287,-32288.047,-3502.238,-6783.2847
1222673.001949541,-44619.47,-22733.44,-34330.73,-4074.5444,-1148.4375,-32287.762,-3499.7153,-6782.6743
1222673.0059495384,-44617.27,-22730.795,-34326.824,-4072.2659,-1147.0134,-32287.518,-3491.862,-6781.006
1222673.0099495356,-44616.09,-22730.795,-34324.504,-4070.394,-1147.0947,-32287.72,-3484.9448,-6773.153
1222673.013949533,-44614.746,-22728.598,-34322.47,-4069.0513,-1146.6879,-32289.877,-3489.38,-6774.9434
1222673.0179495302,-44617.11,-22734.172,-34324.18,-4069.865,-1145.9961,-32292.441,-3499.9187,-6783.366
1222673.0219495276,-44621.46,-22736.125,-34328.453,-4069.9058,-1143.7582,-32293.947,-3501.9126,-6789.6323
1222673.025949525,-44620.73,-22733.115,-34328.86,-4069.0513,-1143.3513,-32292.033,-3493.2861,-6786.2144
1222673.029949522,-44620.117,-22735.88,-34328.74,-4068.6443,-1146.4844,-32289.389,-3487.1013,-6779.8667
1222673.0339495195,-44621.016,-22734.457,-34328.207,-4067.9526,-1147.6238,-32289.877,-3491.211,-6790.731
1222673.037949517,-44623.902,-22738.201,-34326.66,-4069.7837,-1149.6582,-32289.633,-3494.5476,-6784.465
1222673.041949514,-44622.56,-22738.201,-34325.113,-4069.0105,-1147.1355,-32290.203,-3494.3035,-6781.6978
1222673.0459495115,-44616.457,-22733.074,-34323.773,-4066.6506,-1142.8223,-32291.912,-3492.025,-6793.498
1222673.0499495089,-44614.79,-22730.592,-34323.16,-4063.965,-1140.0146,-32291.139,-3484.2937,-6785.7666
1222673.053949506,-44618.004,-22732.951,-34323.445,-4064.0872,-1139.4043,-32291.709,-3485.962,-6781.494
1222673.0579495034,-44622.926,-22741.455,-34324.992,-4067.8306,-1143.4734,-32291.342,-3493.693,-6789.795
1222673.0619495008,-44622.03,-22744.223,-34325.195,-4068.8071,-1146.7693,-32290.121,-3490.153,-6782.3896
1222673.065949498,-44618.777,-22744.426,-34324.016,-4069.2546,-1148.9258,-32287.15,-3476.115,-6765.096
1222673.0699494954,-44620.73,-22747.314,-34324.832,-4068.5222,-1149.2513,-32286.459,-3469.9302,-6753.581
1222673.0739494928,-44619.63,-22744.873,-34324.383,-4066.569,-1147.8271,-32290.244,-3480.6724,-6765.666
1222673.07794949,-44621.42,-22740.316,-34323.895,-4066.447,-1147.2982,-32293.865,-3493.856,-6777.7915
1222673.0819494873,-44620.32,-22738.81,-34322.47,-4065.8774,-1146.8099,-32295.86,-3495.7683,-6777.873
1222673.0859494847,-44619.223,-22739.625,-34321.617,-4064.2905,-1146.0775,-32294.719,-3486.8164,-6765.666
1222673.089949482,-44617.39,-22741.172,-34323.812,-4063.2327,-1144.2871,-32294.11,-3485.1482,-6777.6694
1222673.0939494793,-44616.742,-22739.219,-34325.48,-4064.2092,-1143.1885,-32294.719,-3491.9028,-6792.8467
1222673.0979494767,-44617.758,-22741.21,-34325.36,-4065.0637,-1145.5078,-32293.05,-3496.6228,-6790.4053
1222673.1019494738,-44617.758,-22741.822,-34326.54,-4065.145,-1143.2699,-32293.621,-3496.7449,-6790.161
1222673.1059494712,-44615.03,-22739.096,-34327.11,-4063.4768,-1142.456,-32293.336,-3490.56,-6787.557
1222673.1099494686,-44612.836,-22738.525,-34325.766,-4061.0354,-1138.1836,-32294.271,-3487.4268,-6789.714
1222673.1139494658,-44613.934,-22741.252,-34325.44,-4061.2795,-1140.3809,-32295.492,-3490.153,-6790.609
1222673.1179494632,-44615.03,-22742.393,-34325.523,-4063.965,-1142.9037,-32296.428,-3496.1753,-6793.579
1222673.1219494604,-44613.406,-22743.572,-34323.812,-4062.8257,-1143.1885,-32295.412,-3496.1345,-6792.4805
1222673.1259494578,-44613.08,-22741.904,-34323.242,-4061.1575,-1141.2354,-32293.377,-3486.4097,-6790.8936
1222673.1299494551,-44611.41,-22741.334,-34324.383,-4060.8318,-1141.154,-32292.115,-3479.655,-6782.6743
1222673.1339494523,-44614.625,-22742.88,-34324.586,-4061.4016,-1141.805,-32291.83,-3482.0151,-6780.2734
1222673.1379494497,-44614.83,-22743.45,-34324.383,-4061.5237,-1144.043,-32292.562,-3489.1357,-6784.261
1222673.141949447,-44614.668,-22743.693,-34322.957,-4061.4421,-1142.4154,-32293.58,-3490.56,-6785.1157
1222673.1459494443,-44614.625,-22741.334,-34321.656,-4060.9946,-1137.9802,-32292.318,-3478.9634,-6771.6064
1222673.1499494417,-44610.066,-22741.008,-34318.156,-4060.303,-1138.9974,-32292.848,-3477.4578,-6782.2676
1222673.153949439,-44608.97,-22742.352,-34316.285,-4059.6926,-1140.1367,-32291.75,-3482.1777,-6785.726
1222673.1579494362,-44610.637,-22741.375,-34318.2,-4060.7097,-1141.1133,-32293.174,-3488.2407,-6783.8135
1222673.1619494336,-44611.043,-22739.951,-34318.688,-4058.8787,-1138.143,-32294.963,-3490.8042,-6790.7715
1222673.165949431,-44611.492,-22742.148,-34318.727,-4056.071,-1137.1664,-32296.307,-3484.7007,-6788.778
1222673.1699494282,-44613.12,-22746.95,-34318.36,-4056.2747,-1138.7533,-32295.127,-3475.9521,-6776.001
1222673.1739494256,-44616.742,-22747.682,-34319.133,-4058.3499,-1139.8926,-32293.824,-3478.8818,-6780.6807
1222673.177949423,-44618.855,-22748.861,-34319.094,-4060.9539,-1141.9271,-32293.133,-3486.491,-6788.7373
1222673.1819494201,-44617.27,-22746.664,-34318.156,-4059.8552,-1142.2933,-32292.441,-3486.2876,-6786.174
1222673.1859494175,-44617.11,-22746.42,-34316.773,-4059.774,-1141.4388,-32292.482,-3479.9805,-6788.8184
1222673.189949415,-44625.285,-22757.732,-34319.703,-4060.8318,-1143.5955,-32292.36,-3476.7253,-6790.4053
1222673.193949412,-44630.82,-22763.469,-34322.754,-4061.605,-1145.223,-32291.83,-3482.544,-6789.836
1222673.1979494095,-44626.793,-22755.168,-34323.203,-4062.134,-1143.4734,-32295.248,-3491.6587,-6795.329
1222673.2019494069,-44614.83,-22745.605,-34319.215,-4059.5298,-1136.6781,-32297.283,-3491.862,-6795.614
1222673.205949404,-44612.02,-22749.797,-34317.75,-4058.065,-1134.5215,-32298.057,-3484.3345,-6792.8467
1222673.2099494014,-44614.543,-22750.693,-34317.87,-4056.6409,-1132.8533,-32297.73,-3477.539,-6786.621
1222673.2139493988,-44611.37,-22746.42,-34317.71,-4057.5767,-1134.6843,-32295.777,-3480.3875,-6788.574
1222673.217949396,-44616.457,-22750.164,-34320.355,-4062.134,-1138.5906,-32294.719,-3488.1187,-6794.7188
1222673.2219493934,-44616.09,-22747.844,-34321.695,-4063.5989,-1141.2354,-32295.371,-3492.8794,-6802.8564
1222673.2259493906,-44615.848,-22745.605,-34321.74,-4064.3718,-1141.154,-32294.598,-3488.8103,-6800.578
1222673.229949388,-44615.36,-22742.88,-34321.617,-4064.0872,-1141.9271,-32293.459,-3484.4565,-6794.1895
1222673.2339493854,-44614.098,-22742.717,-34321.695,-4064.2498,-1142.6595,-32293.58,-3486.3281,-6791.5854
1222673.2379493825,-44610.273,-22741.822,-34319.99,-4064.7788,-1142.6189,-32295.533,-3493.1235,-6792.6436
1222673.24194938,-44610.15,-22741.74,-34318.973,-4065.0637,-1141.6016,-32298.625,-3497.0298,-6797.811
1222673.2459493773,-44605.797,-22739.299,-34317.508,-4064.9822,-1140.9099,-32299.969,-3491.5366,-6799.4385
1222673.2499493745,-44606.367,-22740.56,-34316.57,-4064.616,-1145.5892,-32298.342,-3487.5083,-6793.01
1222673.2539493719,-44609.62,-22741.62,-34316.367,-4065.43,-1148.641,-32296.428,-3490.6414,-6789.4287
1222673.2579493693,-44607.79,-22737.998,-34313.64,-4065.7961,-1146.4437,-32295.168,-3495.7275,-6794.393
1222673.2619493664,-44606.324,-22733.44,-34312.34,-4066.2844,-1142.6595,-32295.615,-3495.036,-6794.3115
1222673.2659493638,-44602.38,-22727.824,-34312.38,-4064.9822,-1139.0789,-32295.615,-3490.153,-6792.8877
1222673.2699493612,-44601.89,-22724.65,-34312.83,-4061.4421,-1140.4216,-32295.371,-3487.3047,-6793.579
1222673.2739493584,-44604.13,-22724.041,-34313.19,-4061.2795,-1143.1478,-32296.104,-3494.0186,-6802.2056
1222673.2779493558,-44607.42,-22725.912,-34313.883,-4064.901,-1144.6533,-32295.86,-3503.0925,-6802.409
1222673.2819493532,-44609.01,-22730.51,-34314.008,-4066.8132,-1150.7568,-32294.312,-3499.2676,-6791.87
1222673.2859493503,-44607.87,-22730.469,-34314.414,-4066.9353,-1148.7224,-32292.727,-3489.5427,-6791.748
1222673.2899493477,-44606.934,-22729.248,-34315.145,-4066.2437,-1146.4437,-32292.521,-3484.375,-6790.9346
1222673.2939493451,-44607.3,-22729.004,-34313.6,-4066.0403,-1145.9961,-32293.01,-3486.898,-6790.4053
1222673.2979493423,-44606.773,-22724.57,-34312.297,-4066.203,-1143.5955,-32293.459,-3491.618,-6790.8125
1222673.3019493397,-44605.227,-22722.088,-34309.938,-4065.674,-1143.2292,-32294.475,-3492.5945,-6788.9404
1222673.305949337,-44605.55,-22721.396,-34308.473,-4063.436,-1142.5375,-32292.848,-3481.9744,-6771.4844
1222673.3099493342,-44603.312,-22722.332,-34308.758,-4063.192,-1146.8914,-32292.156,-3478.6377,-6779.012
1222673.3139493316,-44604.574,-22724.977,-34310.06,-4065.43,-1151.408,-32291.79,-3485.7178,-6794.393
1222673.317949329,-44610.477,-22728.76,-34312.582,-4066.732,-1155.1514,-32290.732,-3491.2517,-6795.532
1222673.3219493262,-44611.25,-22729.492,-34314.008,-4067.9526,-1155.1921,-32292.115,-3491.0483,-6792.1143
1222673.3259493236,-44606.0,-22731.121,-34311.44,-4066.203,-1156.9824,-32291.22,-3481.0386,-6781.291
1222673.3299493208,-44601.523,-22728.965,-34308.594,-4063.7615,-1153.117,-32291.424,-3475.9521,-6781.0874
1222673.3339493182,-44603.395,-22727.621,-34307.09,-4062.1746,-1151.8962,-32291.506,-3479.8179,-6786.4585
1222673.3379493156,-44606.0,-22728.354,-34304.324,-4061.6458,-1151.6927,-32292.441,-3489.909,-6797.241
1222673.3419493127,-44607.504,-22730.389,-34304.16,-4062.3374,-1147.3389,-32293.418,-3495.158,-6803.955
1222673.34594931,-44608.195,-22733.033,-34305.094,-4061.4421,-1147.7458,-32295.736,-3491.862,-6803.304
1222673.3499493075,-44611.125,-22735.88,-34308.676,-4061.727,-1147.7458,-32296.795,-3487.3862,-6796.102
1222673.3539493047,-44610.965,-22734.54,-34308.23,-4061.2388,-1149.8617,-32296.021,-3490.5193,-6797.7705
1222673.357949302,-44610.72,-22730.918,-34308.88,-4061.4421,-1153.3203,-32295.086,-3496.4194,-6804.891
1222673.3619492995,-44612.875,-22734.336,-34309.125,-4061.5642,-1155.8431,-32294.76,-3494.5068,-6800.8223
1222673.3659492966,-44616.17,-22737.387,-34310.793,-4061.6458,-1155.3142,-32296.184,-3490.031,-6802.49
1222673.369949294,-44614.83,-22736.451,-34309.652,-4060.1401,-1156.657,-32296.428,-3486.8164,-6801.758
1222673.3739492914,-44614.586,-22736.166,-34306.316,-4059.611,-1155.8431,-32295.98,-3489.4207,-6798.259
1222673.3779492886,-44614.746,-22738.322,-34303.793,-4058.5125,-1155.9246,-32295.9,-3496.3787,-6804.6064
1222673.381949286,-44612.184,-22736.248,-34304.08,-4056.356,-1156.8197,-32296.145,-3496.6228,-6805.298
1222673.3859492834,-44610.477,-22734.58,-34306.723,-4056.763,-1155.7617,-32296.184,-3491.2517,-6803.955
1222673.3899492805,-44611.086,-22734.336,-34308.105,-4056.3967,-1157.7148,-32296.307,-3488.4033,-6804.077
1222673.393949278,-44612.305,-22734.336,-34310.71,-4056.2747,-1157.2266,-32296.592,-3492.4724,-6807.495
1222673.3979492753,-44609.215,-22734.01,-34308.84,-4056.071,-1157.6742,-32296.998,-3496.3787,-6804.891
1222673.4019492725,-44607.625,-22733.643,-34305.543,-4054.8098,-1157.0638,-32295.86,-3494.5476,-6796.916
1222673.40594927,-44610.8,-22732.219,-34305.22,-4054.362,-1152.9541,-32294.639,-3487.1013,-6790.4463
1222673.4099492673,-44608.727,-22729.492,-34304.117,-4053.2634,-1148.5596,-32294.354,-3482.544,-6789.8765
1222673.4139492644,-44608.81,-22734.416,-34304.363,-4053.3855,-1148.641,-32297.365,-3489.3394,-6800.212
1222673.4179492618,-44612.793,-22736.084,-34307.21,-4055.4202,-1151.7742,-32299.969,-3497.9656,-6805.3794
1222673.4219492592,-44612.184,-22735.027,-34308.39,-4055.2166,-1149.9431,-32298.91,-3494.1814,-6798.381
1222673.4259492564,-44609.62,-22731.445,-34308.23,-4053.6296,-1149.8617,-32298.016,-3485.4736,-6790.609
1222673.4299492538,-44609.133,-22728.72,-34307.7,-4052.3684,-1149.7803,-32296.795,-3482.0557,-6799.4795
1222673.4339492512,-44608.523,-22729.86,-34306.844,-4052.0835,-1151.0824,-32295.9,-3485.4736,-6806.6406
1222673.4379492484,-44607.465,-22733.562,-34303.875,-4052.2869,-1154.419,-32295.818,-3487.5083,-6798.259
1222673.4419492458,-44609.418,-22736.29,-34303.67,-4052.9788,-1153.4832,-32294.557,-3483.9275,-6790.202
1222673.445949243,-44609.66,-22738.404,-34304.2,-4053.589,-1154.7445,-32293.254,-3476.4,-6784.465
1222673.4499492403,-44610.8,-22743.531,-34303.875,-4052.938,-1155.3549,-32293.986,-3473.2666,-6788.208
1222673.4539492377,-44612.387,-22747.234,-34303.71,-4054.362,-1156.4941,-32296.104,-3479.6958,-6797.445
1222673.4579492349,-44613.28,-22747.193,-34304.566,-4055.949,-1156.8604,-32296.145,-3485.3516,-6798.462
1222673.4619492323,-44613.484,-22748.088,-34306.723,-4055.2573,-1159.1797,-32296.104,-3484.0496,-6795.7764
1222673.4659492297,-44616.17,-22750.408,-34311.2,-4054.6062,-1156.6976,-32294.8,-3478.2715,-6792.7656
1222673.4699492268,-44616.66,-22748.455,-34311.16,-4053.3855,-1157.5115,-32293.01,-3473.5107,-6794.637
1222673.4739492242,-44616.496,-22743.857,-34307.902,-4052.409,-1155.8838,-32290.936,-3472.7783,-6790.202
1222673.4779492216,-44617.516,-22741.496,-34304.445,-4053.345,-1155.7617,-32290.0,-3473.9585,-6780.111
1222673.4819492188,-44613.04,-22737.51,-34301.637,-4051.1882,-1156.2094,-32291.018,-3475.4639,-6788.1675
1222673.4859492162,-44611.613,-22739.707,-34301.555,-4049.7234,-1155.3549,-32292.562,-3470.4998,-6785.604
1222673.4899492136,-44611.777,-22744.59,-34300.945,-4050.4966,-1154.8259,-32293.459,-3468.4246,-6787.3535
1222673.4939492107,-44617.27,-22748.902,-34303.14,-4052.8972,-1157.6742,-32293.742,-3473.3074,-6785.9297
1222673.4979492081,-44624.066,-22753.418,-34308.188,-4055.7456,-1161.7839,-32295.451,-3482.5034,-6788.9404
1222673.5019492055,-44627.08,-22756.918,-34313.273,-4057.0476,-1163.7777,-32298.83,-3491.4958,-6808.553
1222673.5059492027,-44631.105,-22760.58,-34315.676,-4057.0884,-1161.9467,-32299.725,-3488.607,-6809.326
1222673.5099492,-44630.78,-22758.627,-34314.09,-4055.9897,-1154.7852,-32299.887,-3486.0027,-6813.4766
1222673.5139491975,-44625.938,-22753.5,-34308.92,-4054.3215,-1152.6287,-32297.73,-3485.5957,-6809.7334
1222673.5179491946,-44623.008,-22750.123,-34305.46,-4052.409,-1152.71,-32296.592,-3487.4268,-6808.0244
1222673.521949192,-44622.152,-22749.838,-34303.67,-4051.5952,-1154.6224,-32295.004,-3482.951,-6799.2354
1222673.5259491894,-44617.39,-22745.81,-34301.027,-4050.0083,-1154.3376,-32294.639,-3474.8943,-6796.8345
1222673.5299491866,-44616.945,-22744.06,-34300.21,-4050.0896,-1154.0935,-32296.021,-3472.29,-6792.562
1222673.533949184,-44618.613,-22746.664,-34300.58,-4051.5544,-1157.7963,-32297.486,-3478.0273,-6793.579
1222673.5379491814,-44622.4,-22751.914,-34302.53,-4053.6296,-1155.9246,-32298.748,-3485.8806,-6799.2354
1222673.5419491786,-44623.66,-22755.453,-34304.04,-4053.3042,-1157.2266,-32297.934,-3484.9854,-6798.9097
1222673.545949176,-44622.97,-22756.633,-34303.754,-4052.0022,-1157.4707,-32297.04,-3477.3765,-6797.119
1222673.5499491731,-44622.03,-22758.912,-34302.734,-4051.1882,-1157.7148,-32296.389,-3472.6562,-6796.4277
1222673.5539491705,-44619.914,-22754.965,-34300.863,-4050.8628,-1156.5349,-32295.818,-3474.3652,-6791.626
1222673.557949168,-44619.02,-22751.75,-34299.97,-4051.2698,-1156.2908,-32295.412,-3477.4578,-6795.4917
1222673.561949165,-44618.164,-22748.7,-34297.812,-4052.1648,-1155.0701,-32294.191,-3474.1619,-6793.457
1222673.5659491625,-44615.887,-22746.582,-34295.125,-4050.3745,-1152.2217,-32292.482,-3463.9893,-6789.0625
1222673.5699491599,-44612.266,-22741.578,-34293.094,-4049.6829,-1151.9775,-32290.406,-3454.9968,-6775.5127
1222673.573949157,-44608.195,-22742.025,-34291.22,-4049.113,-1150.7976,-32291.139,-3460.0425,-6781.535
1222673.5779491544,-44607.87,-22746.176,-34293.17,-4051.0662,-1151.8148,-32293.54,-3470.459,-6793.823
1222673.5819491518,-44611.29,-22750.326,-34295.9,-4052.7346,-1153.4424,-32294.312,-3471.1914,-6789.592
1222673.585949149,-44616.66,-22756.836,-34298.707,-4055.0945,-1157.5115,-32294.11,-3463.786,-6781.006
1222673.5899491464,-44622.355,-22758.83,-34301.188,-4054.8503,-1158.6101,-32292.93,-3457.8044,-6788.9814
1222673.5939491438,-44627.93,-22761.8,-34303.1,-4055.2166,-1160.3597,-32292.848,-3460.5713,-6794.4336
1222673.597949141,-44631.062,-22765.87,-34303.02,-4055.5828,-1162.4756,-32293.986,-3469.1162,-6796.3057
1222673.6019491383,-44617.758,-22756.877,-34296.633,-4051.7986,-1162.0281,-32294.516,-3471.6392,-6799.3574
1222673.6059491357,-44611.656,-22748.576,-34292.727,-4048.34,-1154.6631,-32294.475,-3464.3555,-6795.532
1222673.609949133,-44616.863,-22748.984,-34293.094,-4048.7876,-1153.5645,-32293.377,-3459.0251,-6795.6543
1222673.6139491303,-44618.816,-22746.379,-34295.41,-4050.6187,-1153.8086,-32293.783,-3463.2976,-6799.968
1222673.6179491277,-44623.984,-22754.07,-34297.934,-4053.6704,-1155.6804,-32293.336,-3469.4824,-6797.8516
1222673.6219491248,-44618.492,-22755.9,-34296.227,-4052.8972,-1153.239,-32293.459,-3474.2026,-6803.874
1222673.6259491222,-44617.473,-22755.982,-34295.695,-4054.0366,-1155.3549,-32295.045,-3471.395,-6803.874
1222673.6299491196,-44621.746,-22762.94,-34297.406,-4054.6062,-1159.2205,-32296.145,-3467.326,-6802.7754
1222673.6339491168,-44621.176,-22759.848,-34296.875,-4053.4263,-1158.6101,-32297.854,-3473.755,-6806.885
1222673.6379491142,-44622.273,-22758.342,-34296.793,-4053.3855,-1157.6742,-32299.357,-3479.4517,-6808.553
1222673.6419491116,-44625.57,-22758.465,-34298.055,-4054.6877,-1156.9824,-32300.172,-3476.6033,-6804.4434
1222673.6459491088,-44624.27,-22754.191,-34297.0,-4053.3042,-1150.9603,-32297.893,-3466.0645,-6798.625
1222673.6499491062,-44620.77,-22754.355,-34293.5,-4051.7173,-1148.4783,-32295.168,-3459.5947,-6792.928
1222673.6539491033,-44618.164,-22752.727,-34291.75,-4052.3684,-1148.5189,-32296.307,-3463.9893,-6799.3164
1222673.6579491007,-44620.688,-22754.273,-34295.004,-4055.6235,-1150.7568,-32296.51,-3469.7673,-6800.7407
1222673.661949098,-44621.992,-22757.041,-34296.348,-4057.0476,-1152.5879,-32294.68,-3466.7969,-6791.382
1222673.6659490953,-44626.26,-22762.736,-34295.9,-4057.4954,-1153.5645,-32293.947,-3459.7576,-6780.5176
1222673.6699490927,-44626.71,-22764.16,-34294.84,-4056.9255,-1156.0059,-32294.436,-3455.9326,-6773.4785
1222673.67394909,-44629.926,-22767.01,-34295.613,-4056.0305,-1156.6162,-32295.492,-3460.4492,-6779.6226
1222673.6779490872,-44632.246,-22767.295,-34295.41,-4056.5593,-1157.1453,-32295.777,-3464.2742,-6780.8433
1222673.6819490846,-44626.914,-22760.092,-34292.97,-4054.8098,-1155.2328,-32295.695,-3463.1755,-6785.36
1222673.685949082,-44620.934,-22753.785,-34291.547,-4053.223,-1153.4424,-32296.836,-3456.0955,-6785.1157
1222673.6899490792,-44617.188,-22749.064,-34291.26,-4051.3103,-1148.2341,-32296.145,-3451.416,-6786.947
1222673.6939490766,-44615.48,-22747.355,-34291.18,-4050.9849,-1145.9961,-32295.615,-3455.9326,-6790.5684
1222673.697949074,-44617.23,-22749.676,-34290.934,-4051.1477,-1147.4609,-32295.004,-3458.9438,-6783.4473
1222673.7019490711,-44616.375,-22747.559,-34290.527,-4049.1538,-1146.281,-32295.492,-3460.368,-6782.5117
1222673.7059490685,-44614.79,-22747.844,-34290.406,-4047.6482,-1144.572,-32296.754,-3455.77,-6781.047
1222673.709949066,-44614.258,-22753.988,-34290.69,-4048.0144,-1146.8099,-32298.137,-3453.0437,-6779.5005
1222673.713949063,-44616.58,-22758.098,-34289.43,-4048.2993,-1146.4031,-32297.934,-3462.6465,-6796.102
1222673.7179490605,-44622.76,-22762.207,-34292.848,-4049.3572,-1151.3265,-32301.23,-3472.9412,-6803.833
1222673.721949058,-44624.105,-22762.248,-34295.98,-4049.3167,-1154.4597,-32303.469,-3477.5798,-6812.0117
1222673.725949055,-44621.83,-22760.986,-34296.145,-4047.933,-1150.2686,-32302.451,-3470.2148,-6807.7393
1222673.7299490524,-44622.355,-22760.459,-34295.207,-4047.6077,-1152.181,-32302.572,-3463.9893,-6800.9033
1222673.7339490498,-44625.734,-22763.633,-34295.207,-4048.4622,-1155.6804,-32302.451,-3466.5527,-6802.368
1222673.737949047,-44629.76,-22768.922,-34293.99,-4050.1304,-1153.9714,-32302.451,-3470.4185,-6801.3105
1222673.7419490444,-44626.63,-22770.143,-34290.367,-4047.689,-1152.6693,-32301.637,-3467.448,-6795.451
1222673.7459490418,-44627.523,-22768.88,-34289.145,-4046.265,-1153.6052,-32300.213,-3458.3335,-6793.8643
1222673.749949039,-44630.293,-22768.475,-34289.51,-4046.631,-1153.9307,-32298.545,-3452.6775,-6795.41
1222673.7539490364,-44629.64,-22766.357,-34290.242,-4047.8923,-1154.948,-32297.04,-3453.654,-6792.0737
1222673.7579490335,-44631.188,-22765.707,-34292.848,-4048.4214,-1155.2734,-32297.445,-3455.648,-6787.2725
1222673.761949031,-44630.574,-22766.398,-34290.855,-4048.0144,-1150.1873,-32296.836,-3453.939,-6793.498
1222673.7659490283,-44633.63,-22768.922,-34289.715,-4046.6716,-1149.8617,-32297.812,-3448.812,-6798.991
1222673.7699490255,-44632.164,-22771.973,-34287.355,-4045.7766,-1150.8383,-32299.725,-3446.6147,-6796.997
1222673.7739490229,-44630.086,-22772.502,-34285.727,-4045.98,-1151.0824,-32299.48,-3450.521,-6793.823
1222673.7779490203,-44630.82,-22773.56,-34284.098,-4046.4275,-1151.9775,-32301.637,-3459.31,-6796.631
1222673.7819490174,-44629.395,-22769.857,-34281.25,-4044.2302,-1149.4141,-32301.107,-3460.5308,-6797.282
1222673.7859490148,-44625.41,-22765.707,-34278.16,-4042.3179,-1150.2279,-32299.562,-3452.0264,-6792.4805
1222673.7899490122,-44621.055,-22763.225,-34276.082,-4040.975,-1149.7803,-32298.748,-3443.034,-6788.1675
1222673.7939490094,-44617.8,-22760.742,-34274.254,-4040.975,-1152.6287,-32297.568,-3446.2485,-6793.701
1222673.7979490068,-44618.004,-22763.225,-34274.457,-4042.1958,-1149.5361,-32298.586,-3455.2817,-6798.381
1222673.8019490042,-44619.426,-22765.992,-34276.695,-4044.393,-1150.35,-32301.799,-3459.0251,-6797.5264
1222673.8059490013,-44616.78,-22760.824,-34275.72,-4042.3992,-1144.45,-32302.287,-3452.7183,-6797.241
1222673.8099489987,-44612.996,-22761.027,-34272.95,-4040.1614,-1141.6423,-32300.986,-3445.272,-6791.1787
1222673.8139489961,-44614.42,-22764.324,-34273.277,-4040.8938,-1141.9678,-32300.863,-3449.463,-6791.0566
1222673.8179489933,-44622.07,-22768.637,-34277.06,-4044.1897,-1146.5251,-32300.254,-3456.0547,-6792.6436
1222673.8219489907,-44621.664,-22767.62,-34277.875,-4045.0442,-1147.8679,-32300.13,-3459.4727,-6800.985
1222673.825948988,-44617.188,-22763.145,-34275.594,-4044.0269,-1150.9197,-32300.498,-3459.4321,-6812.4595
1222673.8299489853,-44620.65,-22767.01,-34276.695,-4044.271,-1157.7556,-32299.236,-3459.3506,-6815.796
1222673.8339489826,-44621.746,-22772.666,-34277.914,-4045.695,-1162.6384,-32300.13,-3464.8845,-6815.959
1222673.83794898,-44624.434,-22772.096,-34279.42,-4047.933,-1164.3066,-32300.863,-3472.168,-6816.081
1222673.8419489772,-44625.285,-22771.77,-34281.168,-4048.8284,-1162.8011,-32302.207,-3471.9646,-6813.1104
1222673.8459489746,-44620.117,-22768.799,-34278.24,-4046.8752,-1159.5052,-32302.492,-3462.2803,-6806.5186
1222673.849948972,-44619.47,-22766.602,-34275.31,-4047.0786,-1156.8197,-32299.643,-3453.9795,-6800.863
1222673.8539489692,-44622.07,-22768.88,-34275.555,-4049.7642,-1159.5459,-32296.184,-3453.0845,-6794.6777
1222673.8579489666,-44622.234,-22769.531,-34275.594,-4051.351,-1165.6494,-32295.207,-3458.0894,-6796.4277
1222673.8619489637,-44621.46,-22765.748,-34274.945,-4051.351,-1162.6384,-32296.469,-3456.665,-6796.631
1222673.865948961,-44612.59,-22752.076,-34269.29,-4048.2993,-1159.668,-32297.365,-3449.585,-6792.44
