timestamp,Fp1,Fp2,F3,Fz,F4,Cz,Pz,Oz
1222035.4463774238,-46502.402,-34578.98,-52875.33,-39557.863,-16962.117,-38958.742,-39431.4,-28844.158
1222035.4503774212,-46504.805,-34581.18,-52874.105,-39558.758,-16965.414,-38957.234,-39427.734,-28841.27
1222035.4543774184,-46503.664,-34582.848,-52869.59,-39558.758,-16966.96,-38954.348,-39422.49,-28838.99
1222035.4583774158,-46503.46,-34582.805,-52866.863,-39557.984,-16965.82,-38953.25,-39422.203,-28838.176
1222035.4623774132,-46502.566,-34582.723,-52866.457,-39556.887,-16965.332,-38953.656,-39421.55,-28834.596
1222035.4663774103,-46504.56,-34582.97,-52867.27,-39557.66,-16965.658,-38952.8,-39418.906,-28829.469
1222035.4703774077,-46506.836,-34582.277,-52869.63,-39557.457,-16967.123,-38951.66,-39415.855,-28830.445
1222035.4743774051,-46508.992,-34584.8,-52871.746,-39557.457,-16965.861,-38951.09,-39415.977,-28827.23
1222035.4783774023,-46509.156,-34583.375,-52874.84,-39558.39,-16966.39,-38952.68,-39417.81,-28823.895
1222035.4823773997,-46508.992,-34583.21,-52875.53,-39558.758,-16965.291,-38953.453,-39420.047,-28825.766
1222035.486377397,-46508.63,-34585.207,-52875.125,-39558.96,-16965.902,-38953.207,-39422.527,-28839.234
1222035.4903773942,-46506.062,-34582.52,-52875.043,-39557.617,-16965.861,-38953.004,-39418.99,-28839.805
1222035.4943773916,-46507.04,-34580.12,-52874.797,-39556.723,-16962.973,-38953.125,-39415.73,-28831.748
1222035.498377389,-46510.38,-34578.98,-52876.06,-39556.03,-16962.729,-38953.656,-39418.582,-28831.096
1222035.5023773862,-46514.73,-34579.633,-52876.06,-39555.992,-16962.484,-38956.3,-39426.312,-28840.984
1222035.5063773836,-46513.836,-34580.65,-52873.66,-39555.38,-16965.496,-38957.48,-39428.55,-28844.117
1222035.510377381,-46513.957,-34583.17,-52873.78,-39555.83,-16968.14,-38956.3,-39425.945,-28839.275
1222035.5143773782,-46514.363,-34583.21,-52872.64,-39555.34,-16966.39,-38955.73,-39422.203,-28840.74
1222035.5183773756,-46515.547,-34584.23,-52872.56,-39554.117,-16965.617,-38955.406,-39420.816,-28834.352
1222035.522377373,-46514.203,-34582.316,-52872.03,-39553.754,-16964.6,-38956.098,-39424.4,-28840.049
1222035.52637737,-46512.086,-34580.65,-52874.15,-39552.86,-16962.605,-38956.383,-39423.992,-28840.17
1222035.5303773675,-46515.34,-34582.234,-52873.535,-39551.434,-16962.117,-38957.562,-39422.977,-28841.35
1222035.5343773647,-46516.766,-34581.668,-52873.535,-39550.742,-16965.535,-38958.78,-39424.156,-28841.96
1222035.538377362,-46519.125,-34581.707,-52874.39,-39551.066,-16965.373,-38958.824,-39426.883,-28844.89
1222035.5423773595,-46517.78,-34575.97,-52872.355,-39550.62,-16963.787,-38958.902,-39427.125,-28837.973
1222035.5463773566,-46519.37,-34575.156,-52870.04,-39549.195,-16963.664,-38959.598,-39425.945,-28836.426
1222035.550377354,-46516.805,-34575.766,-52870.117,-39547.49,-16962.037,-38960.41,-39424.887,-28843.344
1222035.5543773514,-46515.79,-34573.12,-52871.91,-39547.895,-16960.613,-38961.14,-39423.91,-28841.146
1222035.5583773486,-46517.863,-34572.754,-52873.984,-39547.934,-16961.02,-38959.88,-39423.83,-28836.06
1222035.562377346,-46519.816,-34574.465,-52874.066,-39547.934,-16960.734,-38960.33,-39427.125,-28839.885
1222035.5663773434,-46522.3,-34575.848,-52874.676,-39547.566,-16960.816,-38961.344,-39428.875,-28843.832
1222035.5703773405,-46524.617,-34578.37,-52876.914,-39549.195,-16959.799,-38959.066,-39425.54,-28844.28
1222035.574377338,-46524.984,-34580.934,-52875.246,-39548.79,-16958.822,-38958.05,-39418.62,-28833.293
1222035.5783773353,-46526.816,-34577.35,-52873.375,-39547.363,-16957.275,-38958.254,-39416.91,-28832.275
1222035.5823773325,-46529.137,-34578.74,-52873.78,-39548.34,-16958.781,-38959.88,-39422.324,-28844.076
1222035.58637733,-46530.684,-34581.992,-52874.84,-39550.418,-16961.834,-38960.695,-39425.418,-28843.344
1222035.5903773273,-46531.535,-34581.992,-52876.223,-39551.84,-16963.217,-38961.59,-39425.09,-28842.855
1222035.5943773245,-46532.51,-34583.17,-52875.816,-39551.027,-16962.729,-38959.676,-39422.566,-28840.984
1222035.5983773218,-46532.555,-34582.195,-52874.594,-39549.766,-16962.646,-38958.457,-39421.793,-28842.041
1222035.6023773192,-46537.723,-34583.984,-52876.465,-39551.312,-16962.402,-38959.11,-39422.08,-28843.018
1222035.6063773164,-46537.52,-34585.33,-52875.45,-39550.54,-16961.752,-38960.125,-39424.195,-28845.908
1222035.6103773138,-46533.69,-34581.34,-52874.434,-39549.234,-16958.172,-38959.434,-39420.574,-28833.293
1222035.6143773112,-46534.26,-34581.91,-52873.58,-39548.22,-16959.96,-38959.188,-39417.523,-28828.777
1222035.6183773084,-46537.11,-34583.375,-52873.58,-39549.848,-16962.525,-38961.914,-39423.465,-28843.223
1222035.6223773058,-46541.344,-34585.734,-52875.0,-39549.805,-16960.49,-38964.926,-39429.688,-28850.871
1222035.6263773032,-46541.383,-34585.9,-52876.223,-39549.766,-16960.328,-38966.227,-39431.4,-28850.342
1222035.6303773003,-46544.965,-34588.34,-52878.785,-39550.133,-16959.596,-38966.39,-39431.03,-28850.424
1222035.6343772977,-46548.22,-34589.195,-52881.758,-39551.27,-16958.943,-38965.902,-39429.566,-28852.05
1222035.6383772949,-46549.195,-34587.2,-52879.598,-39551.8,-16957.275,-38963.582,-39425.133,-28846.477
1222035.6423772923,-46546.51,-34585.33,-52877.523,-39551.72,-16955.73,-38960.574,-39423.055,-28844.564
1222035.6463772897,-46543.05,-34582.36,-52875.203,-39550.133,-16955.77,-38959.637,-39419.312,-28839.885
1222035.6503772868,-46542.727,-34581.586,-52872.97,-39548.3,-16956.258,-38959.637,-39412.312,-28830.648
1222035.6543772842,-46545.25,-34582.848,-52873.25,-39548.465,-16957.234,-38959.434,-39407.633,-28829.143
1222035.6583772816,-46547.61,-34585.492,-52871.83,-39547.934,-16957.56,-38960.043,-39407.51,-28827.88
1222035.6623772788,-46550.863,-34588.258,-52873.863,-39548.625,-16959.27,-38960.734,-39409.996,-28830.852
1222035.6663772762,-46553.754,-34588.625,-52877.24,-39549.36,-16960.408,-38962.89,-39415.812,-28841.594
1222035.6703772736,-46553.55,-34587.484,-52876.59,-39547.65,-16958.904,-38963.297,-39416.87,-28848.715
1222035.6743772707,-46553.348,-34586.47,-52875.855,-39547.16,-16956.666,-38964.113,-39416.547,-28853.76
1222035.6783772681,-46553.996,-34582.805,-52876.18,-39546.266,-16956.137,-38963.34,-39415.977,-28853.924
1222035.6823772655,-46551.92,-34578.94,-52874.758,-39545.535,-16958.13,-38962.566,-39415.57,-28852.58
1222035.6863772627,-46550.133,-34578.86,-52874.227,-39546.51,-16959.31,-38962.28,-39415.367,-28849.365
1222035.69037726,-46545.37,-34575.277,-52870.242,-39543.62,-16957.44,-38961.67,-39410.973,-28840.617
1222035.6943772575,-46544.355,-34575.887,-52867.312,-39542.24,-16959.188,-38961.14,-39405.438,-28831.828
1222035.6983772547,-46543.336,-34574.953,-52866.17,-39540.977,-16958.496,-38961.062,-39405.07,-28831.828
1222035.702377252,-46542.44,-34572.715,-52866.09,-39540.895,-16956.178,-38962.527,-39407.758,-28835.084
1222035.7063772494,-46548.22,-34578.613,-52870.527,-39543.418,-16960.531,-38963.258,-39410.688,-28838.135
1222035.7103772466,-46552.29,-34583.902,-52871.867,-39544.23,-16962.85,-38962.28,-39411.176,-28840.373
1222035.714377244,-46554.12,-34583.09,-52871.543,-39542.645,-16961.59,-38962.04,-39414.348,-28849.244
1222035.7183772414,-46557.742,-34585.734,-52871.746,-39542.727,-16960.857,-38963.22,-39419.07,-28852.05
1222035.7223772386,-46562.137,-34587.688,-52872.6,-39543.5,-16958.904,-38965.17,-39421.266,-28849.488
1222035.726377236,-46563.152,-34588.582,-52871.664,-39544.027,-16958.904,-38966.15,-39421.67,-28851.727
1222035.7303772334,-46560.71,-34584.39,-52869.754,-39542.117,-16957.357,-38964.07,-39415.652,-28850.586
1222035.7343772305,-46559.33,-34580.527,-52870.445,-39540.855,-16955.81,-38963.38,-39411.785,-28847.373
1222035.738377228,-46561.85,-34580.363,-52870.566,-39541.098,-16954.713,-38963.785,-39411.05,-28843.547
1222035.742377225,-46563.477,-34580.203,-52873.617,-39542.4,-16956.014,-38962.484,-39408.938,-28835.205
1222035.7463772225,-46565.145,-34581.87,-52875.53,-39544.312,-16958.293,-38962.242,-39412.273,-28841.105
1222035.7503772199,-46565.797,-34580.973,-52875.9,-39544.11,-16956.34,-38961.957,-39412.312,-28846.762
1222035.754377217,-46567.832,-34582.195,-52875.043,-39543.215,-16953.572,-38963.297,-39409.547,-28844.564
1222035.7583772144,-46568.24,-34582.6,-52873.58,-39542.074,-16952.148,-38963.094,-39407.51,-28838.746
1222035.7623772118,-46567.426,-34583.496,-52872.6,-39542.32,-16952.963,-38963.746,-39409.223,-28837.973
1222035.766377209,-46569.785,-34585.652,-52874.27,-39544.15,-16952.719,-38965.17,-39409.344,-28834.19
1222035.7703772064,-46568.645,-34582.805,-52873.82,-39543.094,-16951.01,-38964.6,-39405.477,-28829.957
1222035.7743772038,-46569.418,-34583.133,-52871.34,-39540.0,-16949.219,-38963.625,-39400.797,-28822.918
1222035.778377201,-46572.145,-34582.645,-52868.695,-39539.957,-16947.918,-38965.74,-39405.6,-28838.543
1222035.7823771983,-46572.348,-34580.65,-52868.004,-39541.383,-16948.895,-38966.715,-39411.176,-28848.47
1222035.7863771957,-46579.266,-34591.434,-52870.04,-39543.66,-16952.393,-38964.07,-39408.53,-28846.559
1222035.790377193,-46589.64,-34604.492,-52873.902,-39546.184,-16956.38,-38961.63,-39402.914,-28841.514
1222035.7943771903,-46591.39,-34607.06,-52872.438,-39546.062,-16958.863,-38960.613,-39401.773,-28839.885
1222035.7983771877,-46580.69,-34595.297,-52867.88,-39543.215,-16954.713,-38961.344,-39405.438,-28839.56
1222035.8023771849,-46570.027,-34585.043,-52866.496,-39541.016,-16951.092,-38961.832,-39406.94,-28833.375
1222035.8063771822,-46575.074,-34592.203,-52871.297,-39542.97,-16954.63,-38962.566,-39408.285,-28838.014
1222035.8103771796,-46581.91,-34598.633,-52873.414,-39543.336,-16954.266,-38963.625,-39407.633,-28840.496
1222035.8143771768,-46585.125,-34601.074,-52873.617,-39542.81,-16953.41,-38963.055,-39406.984,-28833.578
1222035.8183771742,-46582.6,-34595.38,-52870.527,-39541.18,-16953.29,-38961.1,-39405.76,-28831.137
1222035.8223771716,-46586.59,-34596.03,-52869.71,-39541.79,-16955.404,-38960.492,-39405.76,-28825.033
1222035.8263771688,-46589.195,-34597.37,-52870.117,-39540.855,-16957.154,-38963.625,-39410.973,-28829.184
1222035.8303771662,-46589.438,-34596.965,-52868.777,-39539.594,-16958.578,-38961.754,-39409.63,-28830.04
1222035.8343771636,-46593.184,-34599.938,-52867.27,-39539.062,-16957.846,-38958.984,-39405.113,-28828.41
1222035.8383771607,-46598.676,-34605.31,-52868.41,-39539.754,-16959.799,-38959.15,-39405.76,-28827.678
1222035.842377158,-46604.086,-34607.668,-52869.59,-39539.88,-16962.646,-38960.33,-39409.668,-28832.236
1222035.8463771553,-46606.324,-34608.684,-52871.297,-39540.73,-16965.78,-38961.875,-39410.605,-28833.537
1222035.8503771527,-46602.742,-34605.754,-52870.117,-39539.754,-16964.355,-38961.55,-39407.633,-28831.016
1222035.85437715,-46602.5,-34604.94,-52866.945,-39539.31,-16965.088,-38960.086,-39403.973,-28825.156
1222035.8583771472,-46604.453,-34607.3,-52867.96,-39541.42,-16966.594,-38959.027,-39401.082,-28817.627
1222035.8623771446,-46605.51,-34607.625,-52868.086,-39542.48,-16967.938,-38956.3,-39400.188,-28816.814
1222035.866377142,-46605.957,-34607.707,-52866.58,-39542.156,-16969.238,-38955.04,-39401.613,-28816.244
1222035.8703771392,-46604.25,-34604.13,-52866.17,-39540.445,-16968.182,-38956.668,-39402.75,-28823.771
1222035.8743771366,-46601.035,-34602.742,-52864.42,-39537.926,-16967.855,-38956.668,-39402.02,-28825.44
1222035.878377134,-46604.086,-34606.57,-52864.625,-39537.516,-16967.855,-38958.293,-39405.07,-28827.88
1222035.8823771311,-46608.24,-34607.75,-52867.15,-39538.086,-16968.14,-38959.598,-39410.035,-28831.543
1222035.8863771285,-46610.477,-34612.508,-52869.47,-39539.348,-16969.158,-38960.043,-39409.953,-28828.736
1222035.890377126,-46611.086,-34612.305,-52868.246,-39537.477,-16968.262,-38959.598,-39403.28,-28821.33
1222035.894377123,-46610.72,-34611.53,-52866.902,-39537.027,-16966.594,-38958.09,-39396.688,-28811.646
1222035.8983771205,-46613.406,-34610.758,-52866.58,-39538.004,-16966.594,-38957.156,-39396.812,-28813.72
1222035.902377118,-46611.37,-34607.91,-52866.66,-39537.844,-16967.977,-38956.055,-39394.86,-28803.752
1222035.906377115,-46611.37,-34609.133,-52869.062,-39540.49,-16970.906,-38956.707,-39390.953,-28795.86
1222035.9103771125,-46608.195,-34608.6,-52868.33,-39539.062,-16969.564,-38956.055,-39388.43,-28793.498
1222035.9143771098,-46606.324,-34605.594,-52865.03,-39536.99,-16965.496,-38955.242,-39386.68,-28799.316
1222035.918377107,-46608.684,-34603.76,-52863.85,-39537.312,-16964.07,-38956.992,-39390.543,-28802.695
1222035.9223771044,-46609.62,-34602.418,-52864.668,-39538.617,-16963.867,-38959.758,-39396.402,-28803.467
1222035.9263771018,-46607.707,-34601.523,-52864.42,-39537.76,-16965.984,-38960.246,-39398.277,-28808.635
1222035.930377099,-46608.97,-34602.742,-52867.39,-39537.926,-16967.408,-38960.695,-39399.09,-28811.605
1222035.9343770964,-46610.68,-34605.31,-52867.15,-39537.598,-16970.297,-38960.004,-39398.97,-28813.07
1222035.9383770938,-46612.1,-34605.957,-52866.58,-39536.703,-16970.174,-38957.316,-39398.03,-28813.273
1222035.942377091,-46614.87,-34605.875,-52867.066,-39536.418,-16969.97,-38957.195,-39401.043,-28815.797
1222035.9463770883,-46618.246,-34607.992,-52869.1,-39537.395,-16970.135,-38957.97,-39401.125,-28814.25
1222035.9503770857,-46617.35,-34607.016,-52870.65,-39535.973,-16970.379,-38958.62,-39399.945,-28814.617
1222035.9543770829,-46616.293,-34605.633,-52870.973,-39534.87,-16968.303,-38959.8,-39397.137,-28812.908
1222035.9583770803,-46619.55,-34608.44,-52871.582,-39534.547,-16968.1,-38962.2,-39400.188,-28811.729
1222035.9623770774,-46624.84,-34612.1,-52873.293,-39535.28,-16970.744,-38962.89,-39403.16,-28810.996
1222035.9663770748,-46625.652,-34611.37,-52874.105,-39537.438,-16972.291,-38962.605,-39407.797,-28821.533
1222035.9703770722,-46626.06,-34613.28,-52875.53,-39538.332,-16977.215,-38963.258,-39408.938,-28826.945
1222035.9743770694,-46629.438,-34619.223,-52877.156,-39537.68,-16980.307,-38963.016,-39407.145,-28827.8
1222035.9783770668,-46632.324,-34619.832,-52877.81,-39538.37,-16976.766,-38961.957,-39406.58,-28820.883
1222035.9823770642,-46633.016,-34617.35,-52877.44,-39539.88,-16978.027,-38962.2,-39405.152,-28813.314
1222035.9863770613,-46630.74,-34616.336,-52876.14,-39538.94,-16978.436,-38962.117,-39407.023,-28817.588
1222035.9903770587,-46629.03,-34614.22,-52877.24,-39536.785,-16978.11,-38965.496,-39410.688,-28836.305
1222035.9943770561,-46628.867,-34615.074,-52877.035,-39536.176,-16975.627,-38965.496,-39408.12,-28831.992
1222035.9983770533,-46629.926,-34615.152,-52875.855,-39535.36,-16974.936,-38961.793,-39403.77,-28821.656
1222036.0023770507,-46634.605,-34619.184,-52877.645,-39536.99,-16976.93,-38958.336,-39402.75,-28824.342
1222036.006377048,-46634.766,-34619.223,-52878.5,-39537.516,-16976.645,-38956.83,-39400.797,-28821.086
1222036.0103770453,-46633.14,-34616.496,-52876.14,-39536.336,-16975.912,-38958.78,-39401.246,-28822.104
1222036.0143770427,-46631.227,-34615.316,-52872.887,-39534.71,-16973.227,-38959.516,-39397.91,-28818.523
1222036.01837704,-46630.496,-34612.184,-52871.785,-39534.26,-16971.924,-38960.45,-39399.293,-28820.72
1222036.0223770372,-46630.94,-34610.516,-52871.746,-39534.18,-16972.209,-38961.426,-39401.207,-28823.121
1222036.0263770346,-46626.832,-34611.043,-52871.746,-39534.02,-16970.053,-38960.33,-39399.82,-28821.045
1222036.030377032,-46623.008,-34609.5,-52869.67,-39532.555,-16970.053,-38958.58,-39395.305,-28815.594
1222036.0343770292,-46626.508,-34608.97,-52869.957,-39532.35,-16968.547,-38957.887,-39395.426,-28820.354
1222036.0383770266,-46628.418,-34609.457,-52869.062,-39532.633,-16965.617,-38959.23,-39400.88,-28824.463
1222036.042377024,-46630.008,-34608.48,-52868.777,-39532.797,-16963.258,-38959.84,-39402.26,-28823.568
1222036.0463770211,-46629.52,-34607.383,-52868.086,-39532.066,-16963.176,-38960.652,-39399.254,-28825.684
1222036.0503770185,-46624.758,-34604.94,-52865.36,-39529.582,-16963.787,-38960.207,-39395.836,-28820.436
1222036.054377016,-46629.19,-34604.168,-52866.66,-39529.867,-16965.129,-38959.758,-39394.168,-28819.012
1222036.058377013,-46630.168,-34604.047,-52866.254,-39529.703,-16964.152,-38958.62,-39394.777,-28817.832
1222036.0623770105,-46631.797,-34605.227,-52867.23,-39530.844,-16963.867,-38960.207,-39397.95,-28819.824
1222036.0663770076,-46633.26,-34607.79,-52869.266,-39532.27,-16965.902,-38960.086,-39399.09,-28819.5
1222036.070377005,-46639.73,-34614.098,-52872.234,-39534.06,-16971.395,-38956.543,-39393.555,-28811.89
1222036.0743770024,-46654.34,-34622.887,-52875.652,-39536.01,-16970.297,-38954.266,-39387.98,-28811.973
1222036.0783769996,-46649.457,-34619.223,-52874.15,-39533.816,-16967.123,-38956.098,-39390.465,-28824.016
1222036.082376997,-46625.938,-34600.18,-52868.367,-39529.582,-16963.623,-38960.938,-39399.05,-28830.12
1222036.0863769944,-46633.668,-34605.348,-52869.875,-39530.68,-16966.512,-38963.297,-39400.84,-28829.184
1222036.0903769915,-46634.402,-34607.098,-52870.934,-39530.52,-16966.188,-38963.22,-39398.355,-28825.236
1222036.094376989,-46630.13,-34602.01,-52868.53,-39528.65,-16963.543,-38961.14,-39394.37,-28821.494
1222036.0983769863,-46620.527,-34595.746,-52864.543,-39526.45,-16963.055,-38960.652,-39394.695,-28824.016
1222036.1023769835,-46623.863,-34598.797,-52868.9,-39528.484,-16964.723,-38962.117,-39399.17,-28831.016
1222036.106376981,-46627.44,-34603.355,-52871.176,-39528.973,-16965.414,-38962.89,-39401.613,-28830.771
1222036.1103769783,-46615.766,-34592.938,-52867.35,-39524.414,-16961.305,-38963.992,-39400.516,-28836.02
1222036.1143769755,-46626.75,-34599.938,-52870.527,-39526.613,-16962.037,-38964.152,-39400.84,-28842.408
1222036.1183769729,-46637.74,-34608.113,-52873.984,-39528.65,-16965.984,-38966.51,-39404.99,-28842.979
1222036.1223769702,-46643.72,-34610.477,-52876.875,-39528.484,-16965.82,-38967.9,-39404.95,-28836.71
1222036.1263769674,-46648.887,-34613.406,-52876.26,-39528.363,-16963.543,-38966.35,-39402.59,-28838.34
1222036.1303769648,-46647.91,-34613.242,-52874.023,-39527.75,-16964.967,-38965.984,-39399.457,-28839.682
1222036.1343769622,-46650.027,-34614.746,-52875.203,-39528.85,-16967.205,-38967.53,-39398.277,-28834.473
1222036.1383769594,-46653.035,-34617.188,-52875.203,-39528.89,-16968.994,-38967.49,-39401.367,-28831.463
1222036.1423769568,-46652.266,-34617.555,-52874.227,-39528.24,-16971.03,-38968.223,-39407.39,-28840.82
1222036.1463769542,-46651.652,-34616.254,-52874.758,-39527.59,-16971.111,-38969.035,-39407.51,-28838.787
1222036.1503769513,-46648.234,-34612.508,-52871.83,-39525.188,-16967.732,-38966.555,-39399.457,-28830.81
1222036.1543769487,-46648.723,-34612.996,-52870.77,-39524.863,-16966.594,-38965.58,-39394.004,-28826.945
1222036.158376946,-46651.855,-34613.406,-52871.38,-39524.984,-16965.984,-38967.652,-39397.38,-28829.51
1222036.1623769433,-46652.266,-34611.94,-52871.34,-39525.594,-16966.39,-38968.06,-39399.496,-28826.498
1222036.1663769407,-46654.91,-34613.65,-52874.39,-39526.695,-16965.902,-38965.82,-39395.47,-28819.297
1222036.1703769378,-46650.758,-34612.59,-52872.195,-39524.984,-16964.152,-38963.137,-39390.3,-28816.244
1222036.1743769352,-46649.984,-34612.875,-52869.957,-39525.555,-16963.176,-38963.785,-39388.754,-28819.988
1222036.1783769326,-46649.336,-34612.02,-52866.945,-39525.31,-16966.268,-38963.746,-39387.086,-28816.285
1222036.1823769298,-46645.793,-34610.066,-52863.85,-39523.234,-16965.78,-38962.688,-39387.168,-28814.78
1222036.1863769272,-46645.793,-34612.145,-52864.95,-39523.234,-16963.176,-38964.113,-39388.875,-28817.588
1222036.1903769246,-46645.266,-34611.043,-52865.48,-39522.543,-16964.193,-38965.21,-39386.477,-28817.627
1222036.1943769217,-46645.67,-34612.223,-52865.156,-39521.688,-16961.71,-38964.273,-39385.254,-28821.86
1222036.1983769191,-46647.91,-34610.35,-52864.46,-39521.566,-16959.473,-38961.223,-39386.07,-28824.342
1222036.2023769165,-46652.875,-34613.2,-52867.96,-39524.742,-16960.896,-38960.9,-39387.94,-28827.88
1222036.2063769137,-46652.266,-34614.137,-52870.402,-39524.617,-16964.111,-38963.055,-39392.133,-28829.875
1222036.210376911,-46654.297,-34616.457,-52870.16,-39525.31,-16967.732,-38964.684,-39391.805,-28827.23
1222036.2143769085,-46651.492,-34614.22,-52868.98,-39523.97,-16965.7,-38964.723,-39388.1,-28822.266
1222036.2183769057,-46654.055,-34614.383,-52869.63,-39523.926,-16962.85,-38966.105,-39389.61,-28821.371
1222036.222376903,-46656.332,-34617.39,-52869.875,-39524.863,-16964.396,-38967.938,-39394.695,-28826.05
1222036.2263769004,-46653.28,-34615.52,-52871.46,-39525.23,-16965.008,-38969.363,-39397.055,-28833.863
1222036.2303768976,-46650.96,-34610.883,-52870.527,-39522.95,-16961.629,-38967.652,-39392.742,-28834.352
1222036.234376895,-46650.23,-34610.637,-52870.363,-39522.258,-16961.629,-38965.496,-39388.023,-28829.916
1222036.2383768924,-46653.035,-34611.004,-52871.664,-39522.46,-16961.752,-38964.355,-39388.715,-28828.207
1222036.2423768896,-46655.234,-34611.53,-52872.6,-39522.46,-16961.346,-38966.31,-39393.23,-28832.072
1222036.246376887,-46658.57,-34615.926,-52872.64,-39522.79,-16962.117,-38968.914,-39394.695,-28830.69
1222036.2503768844,-46658.53,-34614.87,-52872.6,-39522.46,-16962.85,-38968.914,-39391.113,-28828.777
1222036.2543768815,-46657.637,-34613.895,-52871.34,-39522.176,-16963.543,-38967.45,-39385.336,-28823.61
1222036.258376879,-46662.273,-34616.66,-52871.016,-39522.586,-16964.885,-38968.14,-39386.23,-28822.877
1222036.2623768763,-46663.25,-34616.336,-52870.73,-39522.664,-16964.559,-38969.08,-39389.203,-28824.463
1222036.2663768735,-46662.273,-34614.504,-52870.77,-39520.914,-16963.746,-38969.363,-39388.715,-28826.58
1222036.2703768709,-46659.1,-34613.363,-52870.934,-39519.734,-16963.502,-38967.125,-39385.01,-28824.3
1222036.274376868,-46658.652,-34613.895,-52871.95,-39520.1,-16961.223,-38966.676,-39384.195,-28828.777
1222036.2783768654,-46660.605,-34610.15,-52871.992,-39518.883,-16956.746,-38969.566,-39389.49,-28835.205
1222036.2823768628,-46661.582,-34609.418,-52871.785,-39518.23,-16956.91,-38972.008,-39395.02,-28837.688
1222036.28637686,-46667.117,-34615.684,-52873.332,-39519.53,-16960.734,-38973.145,-39397.42,-28838.623
1222036.2903768574,-46674.562,-34626.953,-52872.684,-39521.484,-16965.17,-38972.86,-39395.305,-28839.6
1222036.2943768548,-46669.76,-34621.38,-52870.73,-39520.1,-16963.867,-38974.246,-39395.836,-28844.361
1222036.298376852,-46661.336,-34607.79,-52869.832,-39517.945,-16959.148,-38975.547,-39397.83,-28841.676
1222036.3023768493,-46666.22,-34609.906,-52872.273,-39520.47,-16961.752,-38976.93,-39399.05,-28827.8
1222036.3063768467,-46667.156,-34610.8,-52871.707,-39520.47,-16962.973,-38975.87,-39396.973,-28827.719
1222036.310376844,-46671.348,-34614.016,-52872.6,-39519.33,-16963.258,-38974.246,-39394.37,-28842.408
1222036.3143768413,-46670.695,-34614.34,-52872.195,-39518.27,-16961.793,-38975.18,-39397.016,-28855.469
1222036.3183768387,-46667.766,-34612.754,-52869.344,-39515.79,-16959.188,-38976.074,-39400.676,-28855.754
1222036.3223768359,-46669.23,-34609.945,-52869.508,-39515.668,-16957.967,-38978.72,-39402.63,-28848.186
1222036.3263768333,-46673.668,-34611.207,-52872.355,-39516.645,-16960.531,-38982.383,-39404.297,-28845.703
1222036.3303768307,-46676.19,-34611.29,-52873.78,-39516.36,-16958.904,-38982.504,-39402.223,-28847.332
1222036.3343768278,-46678.184,-34613.484,-52873.984,-39516.97,-16960.287,-38980.062,-39399.09,-28847.617
1222036.3383768252,-46683.39,-34617.105,-52875.734,-39517.496,-16959.393,-38980.184,-39398.438,-28848.35
1222036.3423768226,-46684.004,-34617.27,-52875.652,-39517.05,-16960.084,-38978.64,-39398.684,-28849.121
1222036.3463768198,-46682.293,-34616.375,-52874.31,-39515.383,-16958.172,-38976.89,-39398.277,-28846.355
1222036.3503768172,-46675.703,-34610.27,-52870.73,-39512.332,-16953.613,-38976.277,-39396.242,-28845.988
1222036.3543768146,-46674.36,-34610.27,-52870.85,-39511.273,-16951.375,-38976.81,-39395.184,-28843.018
1222036.3583768117,-46675.215,-34606.73,-52870.484,-39509.766,-16947.957,-38976.117,-39395.02,-28839.193
1222036.3623768091,-46676.555,-34605.797,-52870.688,-39511.19,-16948.121,-38978.027,-39397.746,-28840.088
1222036.3663768065,-46679.973,-34608.6,-52871.785,-39512.492,-16949.139,-38979.656,-39400.92,-28840.373
1222036.3703768037,-46680.504,-34609.62,-52871.137,-39512.777,-16948.812,-38977.99,-39395.55,-28835.654
1222036.374376801,-46680.098,-34611.98,-52870.363,-39512.492,-16950.236,-38977.582,-39391.24,-28829.59
1222036.3783767982,-46679.12,-34611.41,-52867.92,-39511.273,-16949.79,-38976.605,-39391.645,-28830.81
1222036.3823767956,-46675.984,-34606.0,-52865.562,-39510.66,-16950.44,-38977.742,-39396.08,-28842.326
1222036.386376793,-46679.934,-34608.48,-52867.72,-39511.598,-16951.457,-38978.56,-39396.527,-28844.035
1222036.3903767902,-46680.95,-34610.434,-52868.816,-39511.434,-16951.457,-38978.516,-39393.027,-28838.746
1222036.3943767876,-46680.016,-34610.477,-52868.086,-39510.945,-16950.562,-38977.99,-39390.383,-28834.066
1222036.398376785,-46686.973,-34615.766,-52870.16,-39513.633,-16953.207,-38978.273,-39392.984,-28832.031
1222036.4023767821,-46691.938,-34620.242,-52873.457,-39515.992,-16955.525,-38977.742,-39395.996,-28828.736
1222036.4063767795,-46692.996,-34624.27,-52875.734,-39516.24,-16957.887,-38977.824,-39397.664,-28837.89
1222036.410376777,-46687.625,-34622.234,-52871.137,-39514.16,-16956.258,-38976.117,-39395.836,-28847.82
1222036.414376774,-46683.31,-34618.613,-52866.78,-39511.312,-16957.479,-38974.773,-39391.113,-28838.135
1222036.4183767715,-46684.45,-34618.246,-52864.34,-39511.15,-16958.66,-38975.992,-39392.945,-28834.799
1222036.422376769,-46684.043,-34616.13,-52863.69,-39510.54,-16957.967,-38975.63,-39395.184,-28835.328
1222036.426376766,-46686.89,-34620.32,-52865.03,-39510.867,-16960.164,-38977.457,-39398.64,-28837.24
1222036.4303767635,-46689.047,-34624.676,-52867.11,-39511.395,-16961.14,-38978.355,-39400.88,-28841.594
1222036.4343767609,-46691.45,-34628.785,-52867.598,-39512.086,-16963.502,-38976.32,-39401.855,-28843.629
1222036.438376758,-46695.027,-34629.152,-52867.39,-39512.41,-16961.752,-38974.69,-39402.426,-28844.809
1222036.4423767554,-46698.934,-34629.965,-52869.875,-39513.715,-16965.21,-38975.3,-39404.746,-28846.6
1222036.4463767528,-46696.535,-34627.77,-52868.938,-39513.227,-16966.064,-38974.45,-39403.2,-28845.867
1222036.45037675,-46694.176,-34626.344,-52867.555,-39511.844,-16966.188,-38973.715,-39398.887,-28840.861
1222036.4543767474,-46694.418,-34624.594,-52867.312,-39510.742,-16963.787,-38975.3,-39398.97,-28835.49
1222036.4583767448,-46695.8,-34621.99,-52869.1,-39510.945,-16959.88,-38980.105,-39404.297,-28837.77
1222036.462376742,-46697.348,-34622.07,-52869.47,-39511.516,-16957.967,-38981.527,-39406.375,-28835.41
1222036.4663767393,-46696.82,-34618.492,-52865.4,-39508.22,-16955.445,-38979.656,-39406.375,-28841.309
1222036.4703767367,-46698.49,-34621.746,-52864.83,-39508.098,-16957.234,-38978.516,-39403.973,-28839.479
1222036.4743767339,-46698.285,-34624.105,-52863.28,-39507.61,-16960.613,-38975.586,-39401.53,-28833.74
1222036.4783767313,-46700.32,-34625.203,-52862.836,-39507.73,-16963.217,-38973.676,-39403.85,-28838.258
1222036.4823767284,-46702.15,-34625.125,-52863.12,-39508.79,-16962.525,-38976.32,-39404.703,-28842.041
1222036.4863767258,-46701.05,-34622.438,-52862.387,-39508.098,-16960.857,-38978.395,-39402.14,-28831.748
1222036.4903767232,-46699.586,-34619.59,-52861.41,-39507.12,-16960.652,-38979.9,-39400.027,-28831.34
1222036.4943767204,-46696.168,-34616.66,-52857.547,-39503.62,-16958.863,-38980.023,-39400.676,-28838.055
1222036.4983767178,-46695.07,-34614.543,-52854.004,-39502.402,-16959.758,-38981.527,-39402.914,-28839.275
1222036.5023767152,-46697.43,-34616.375,-52855.31,-39501.87,-16957.846,-38981.895,-39405.316,-28835.693
1222036.5063767124,-46700.887,-34617.88,-52858.727,-39503.38,-16958.904,-38981.57,-39408.406,-28842.45
1222036.5103767097,-46700.93,-34617.555,-52859.863,-39502.32,-16958.781,-38978.23,-39404.99,-28841.473
1222036.5143767071,-46699.098,-34615.316,-52860.23,-39501.426,-16958.537,-38975.992,-39401.816,-28843.059
1222036.5183767043,-46699.465,-34614.176,-52858.562,-39501.63,-16957.887,-38974.734,-39399.902,-28839.56
1222036.5223767017,-46703.535,-34616.58,-52859.05,-39501.59,-16958.537,-38974.49,-39398.64,-28835.898
1222036.526376699,-46702.72,-34615.234,-52857.992,-39500.895,-16960.896,-38976.89,-39399.21,-28837.322
1222036.5303766963,-46704.062,-34614.625,-52859.297,-39501.75,-16962.729,-38977.824,-39399.09,-28834.922
1222036.5343766937,-46704.145,-34615.562,-52858.195,-39501.18,-16961.182,-38977.336,-39397.867,-28836.02
1222036.538376691,-46706.668,-34614.664,-52854.695,-39499.594,-16958.455,-38977.664,-39400.27,-28838.176
1222036.5423766882,-46709.473,-34614.34,-52854.004,-39499.51,-16959.799,-38978.312,-39402.71,-28838.95
1222036.5463766856,-46712.77,-34620.484,-52857.383,-39501.71,-16961.996,-38978.027,-39402.547,-28837.932
1222036.550376683,-46711.305,-34617.27,-52858.523,-39499.715,-16958.863,-38973.797,-39394.9,-28833.578
1222036.5543766802,-46710.86,-34613.324,-52858.156,-39498.13,-16956.666,-38971.52,-39387.98,-28827.557
1222036.5583766776,-46713.137,-34614.42,-52859.05,-39498.863,-16959.107,-38971.11,-39387.695,-28823.121
1222036.562376675,-46718.223,-34616.66,-52860.8,-39500.613,-16961.223,-38973.88,-39395.184,-28834.717
1222036.5663766721,-46718.1,-34618.53,-52859.742,-39499.35,-16962.117,-38976.48,-39397.016,-28834.799
1222036.5703766695,-46716.066,-34615.277,-52856.527,-39497.4,-16959.88,-38978.355,-39394.043,-28824.463
1222036.574376667,-46715.984,-34613.973,-52856.12,-39496.46,-16957.316,-38980.062,-39397.664,-28831.055
1222036.578376664,-46722.453,-34616.863,-52857.06,-39496.297,-16955.934,-38981.242,-39401.492,-28836.387
1222036.5823766615,-46723.715,-34617.15,-52856.0,-39496.055,-16955.69,-38981.445,-39403.973,-28834.717
1222036.5863766586,-46724.12,-34615.926,-52856.61,-39497.03,-16956.666,-38979.94,-39401.695,-28833.049
1222036.590376656,-46723.594,-34617.758,-52857.625,-39498.17,-16957.234,-38976.605,-39395.875,-28834.393
1222036.5943766534,-46724.49,-34618.125,-52858.277,-39499.188,-16958.496,-38975.465,-39393.883,-28834.066
1222036.5983766506,-46727.54,-34616.254,-52858.36,-39497.355,-16957.846,-38974.773,-39392.78,-28827.557
1222036.602376648,-46732.91,-34617.473,-52859.945,-39496.22,-16957.846,-38977.094,-39396.688,-28831.666
1222036.6063766454,-46729.82,-34615.64,-52860.598,-39496.176,-16956.787,-38979.777,-39402.832,-28843.303
1222036.6103766426,-46729.656,-34617.72,-52860.598,-39495.117,-16959.96,-38983.035,-39405.52,-28848.918
1222036.61437664,-46733.32,-34619.14,-52860.35,-39494.344,-16961.102,-38985.72,-39407.43,-28851.482
1222036.6183766373,-46731.61,-34619.305,-52859.05,-39493.695,-16957.967,-38985.598,-39409.14,-28854.453
1222036.6223766345,-46733.48,-34618.695,-52859.99,-39494.754,-16960.49,-38986.94,-39410.074,-28856.283
1222036.626376632,-46736.695,-34619.508,-52861.74,-39495.73,-16958.09,-38986.168,-39406.58,-28851.686
1222036.6303766293,-46736.41,-34619.1,-52862.184,-39495.32,-16957.031,-38984.99,-39400.84,-28843.547
1222036.6343766265,-46735.434,-34617.27,-52861.613,-39494.223,-16955.648,-38983.97,-39398.4,-28846.6
1222036.6383766239,-46737.918,-34615.805,-52861.004,-39494.387,-16955.078,-38984.01,-39399.05,-28847.494
1222036.6423766213,-46736.777,-34617.312,-52859.05,-39493.57,-16956.422,-38984.54,-39400.31,-28849.244
1222036.6463766184,-46737.348,-34617.473,-52860.23,-39492.594,-16956.746,-38985.11,-39400.555,-28850.791
1222036.6503766158,-46735.598,-34617.27,-52859.418,-39490.926,-16956.422,-38985.23,-39399.332,-28846.803
1222036.6543766132,-46734.5,-34617.555,-52856.367,-39490.48,-16955.852,-38984.78,-39397.42,-28837.89
1222036.6583766104,-46735.598,-34614.992,-52855.918,-39489.137,-16952.557,-38984.863,-39396.77,-28838.828
1222036.6623766078,-46735.477,-34612.71,-52858.113,-39489.664,-16952.19,-38984.293,-39398.277,-28841.758
1222036.6663766052,-46737.348,-34613.28,-52859.54,-39490.6,-16953.777,-38984.54,-39397.664,-28841.594
1222036.6703766023,-46734.906,-34609.457,-52858.156,-39489.176,-16949.871,-38982.953,-39392.008,-28836.752
1222036.6743765997,-46732.547,-34606.363,-52856.61,-39488.934,-16946.533,-38982.91,-39387.86,-28832.357
1222036.6783765971,-46734.863,-34605.957,-52855.062,-39489.504,-16947.43,-38985.066,-39388.47,-28825.848
1222036.6823765943,-46736.492,-34606.324,-52854.777,-39489.504,-16949.178,-38989.016,-39395.793,-28835.043
1222036.6863765917,-46739.3,-34609.99,-52856.49,-39490.723,-16949.342,-38989.543,-39399.008,-28840.7
1222036.690376589,-46742.637,-34612.59,-52859.58,-39491.742,-16952.148,-38987.508,-39395.957,-28835.287
1222036.6943765862,-46744.02,-34612.062,-52860.68,-39491.824,-16951.742,-38985.68,-39394.816,-28843.506
1222036.6983765836,-46746.582,-34613.242,-52861.574,-39492.637,-16952.963,-38985.637,-39397.46,-28852.58
1222036.7023765808,-46744.754,-34610.555,-52861.98,-39492.434,-16950.928,-38987.305,-39399.58,-28853.191
1222036.7063765782,-46742.637,-34608.93,-52860.76,-39490.562,-16947.592,-38986.734,-39397.867,-28843.344
1222036.7103765756,-46740.277,-34608.727,-52859.99,-39489.504,-16948.04,-38983.848,-39387.656,-28828.654
1222036.7143765728,-46737.348,-34608.727,-52858.766,-39489.34,-16949.057,-38981.527,-39382.61,-28825.562
1222036.7183765701,-46739.95,-34611.246,-52857.098,-39490.195,-16952.719,-38982.26,-39386.23,-28835.246
1222036.7223765675,-46746.22,-34615.97,-52860.598,-39491.05,-16955.566,-38986.86,-39393.19,-28840.902
1222036.7263765647,-46752.2,-34617.35,-52865.195,-39492.188,-16956.463,-38990.562,-39399.21,-28846.07
1222036.730376562,-46755.78,-34619.547,-52866.984,-39492.312,-16957.031,-38988.484,-39395.387,-28842.938
1222036.7343765595,-46756.633,-34620.402,-52866.742,-39492.8,-16956.707,-38987.184,-39391.03,-28839.682
1222036.7383765567,-46758.3,-34618.695,-52866.457,-39492.637,-16956.625,-38986.33,-39392.008,-28838.379
1222036.742376554,-46757.734,-34617.72,-52864.91,-39490.562,-16953.29,-38986.98,-39392.58,-28835.613
1222036.7463765515,-46756.188,-34615.97,-52863.934,-39489.707,-16953.777,-38989.016,-39394.53,-28837.2
1222036.7503765486,-46753.34,-34613.934,-52862.348,-39489.3,-16954.387,-38990.684,-39394.004,-28836.875
1222036.754376546,-46755.74,-34618.164,-52862.918,-39490.195,-16956.258,-38992.23,-39391.766,-28835.49
1222036.7583765434,-46760.254,-34620.85,-52864.42,-39490.438,-16956.543,-38990.97,-39391.44,-28835.816
1222036.7623765406,-46763.023,-34619.387,-52865.562,-39489.992,-16956.87,-38989.87,-39392.133,-28838.46
1222036.766376538,-46765.83,-34619.223,-52867.312,-39490.848,-16956.666,-38990.438,-39395.1,-28837.932
1222036.7703765354,-46769.94,-34620.934,-52870.117,-39490.52,-16955.893,-38993.33,-39397.625,-28841.473
1222036.7743765325,-46768.434,-34621.176,-52869.508,-39489.3,-16954.59,-38995.402,-39400.39,-28844.85
1222036.77837653,-46768.92,-34620.445,-52867.473,-39487.184,-16950.928,-38994.914,-39401.004,-28844.85
1222036.7823765273,-46769.004,-34621.01,-52867.15,-39486.656,-16949.79,-38996.258,-39402.26,-28850.668
1222036.7863765245,-46766.316,-34617.15,-52864.625,-39485.11,-16947.998,-38996.22,-39402.26,-28853.271
1222036.7903765219,-46765.668,-34616.54,-52862.145,-39484.99,-16950.115,-38998.902,-39403.65,-28865.072
1222036.7943765193,-46764.16,-34619.996,-52860.027,-39484.336,-16953.37,-38997.273,-39400.31,-28856.121
1222036.7983765164,-46766.277,-34619.71,-52858.848,-39484.945,-16952.19,-38996.055,-39398.113,-28852.215
1222036.8023765138,-46768.15,-34619.426,-52859.863,-39486.043,-16950.521,-38993.777,-39395.223,-28852.012
1222036.806376511,-46766.523,-34615.438,-52860.72,-39486.53,-16950.643,-38993.98,-39392.336,-28849.773
1222036.8103765084,-46766.684,-34613.61,-52859.17,-39484.906,-16949.26,-38993.45,-39391.316,-28851.156
1222036.8143765058,-46764.49,-34614.87,-52857.707,-39484.703,-16951.498,-38994.305,-39391.727,-28853.15
1222036.818376503,-46764.65,-34614.176,-52857.22,-39484.742,-16947.998,-38995.08,-39393.15,-28853.232
1222036.8223765003,-46766.848,-34614.42,-52857.953,-39485.027,-16947.877,-38995.445,-39392.375,-28847.941
1222036.8263764977,-46764.0,-34612.145,-52856.895,-39483.93,-16944.295,-38996.42,-39390.543,-28844.443
1222036.830376495,-46762.98,-34609.824,-52854.168,-39481.65,-16940.797,-38995.523,-39387.492,-28845.5
1222036.8343764923,-46761.23,-34607.87,-52851.523,-39480.023,-16941.406,-38995.363,-39384.97,-28843.426
1222036.8383764897,-46761.844,-34608.805,-52849.895,-39479.777,-16942.424,-38994.547,-39384.684,-28842.855
1222036.8423764869,-46763.105,-34605.836,-52850.223,-39479.94,-16940.553,-38994.59,-39385.906,-28844.32
1222036.8463764843,-46762.74,-34601.97,-52853.68,-39480.023,-16939.535,-38995.85,-39388.1,-28850.059
1222036.8503764817,-46763.43,-34604.25,-52856.773,-39480.67,-16940.756,-38996.137,-39386.23,-28851.889
1222036.8543764788,-46763.062,-34605.754,-52857.3,-39481.527,-16939.576,-38994.47,-39382.203,-28841.797
1222036.8583764762,-46763.957,-34607.992,-52856.57,-39481.242,-16939.941,-38993.125,-39380.82,-28837.443
1222036.8623764736,-46767.336,-34608.645,-52855.47,-39482.707,-16941.488,-38993.613,-39380.777,-28830.201
1222036.8663764708,-46770.754,-34610.72,-52855.715,-39483.316,-16944.256,-38993.57,-39377.727,-28817.994
1222036.8703764682,-46767.254,-34609.824,-52854.695,-39481.69,-16943.848,-38994.1,-39375.53,-28822.592
1222036.8743764656,-46760.99,-34603.68,-52851.44,-39478.72,-16940.145,-38995.32,-39377.117,-28836.793
1222036.8783764627,-46759.562,-34600.914,-52848.96,-39477.336,-16937.215,-38994.832,-39381.145,-28847.617
1222036.8823764601,-46764.445,-34604.656,-52850.953,-39479.332,-16938.314,-38995.2,-39382.812,-28843.71
1222036.8863764575,-46768.066,-34609.418,-52856.285,-39481.324,-16941.406,-38995.934,-39383.504,-28837.2
1222036.8903764547,-46766.44,-34607.87,-52856.895,-39479.574,-16940.186,-38996.664,-39382.895,-28828.94
1222036.894376452,-46767.945,-34608.195,-52854.004,-39479.617,-16938.232,-38997.844,-39379.844,-28829.102
1222036.8983764495,-46770.996,-34611.98,-52852.01,-39479.82,-16941.406,-38997.195,-39379.19,-28829.713
1222036.9023764466,-46775.8,-34614.3,-52852.05,-39481.49,-16944.662,-38996.543,-39378.543,-28822.918
1222036.906376444,-46775.35,-34608.97,-52852.215,-39481.0,-16944.215,-38997.56,-39379.152,-28824.871
1222036.9103764412,-46773.4,-34607.22,-52852.867,-39478.598,-16940.186,-38998.293,-39376.02,-28827.271
1222036.9143764386,-46777.59,-34610.434,-52854.94,-39478.598,-16939.982,-38997.03,-39373.25,-28824.871
1222036.918376436,-46779.746,-34610.68,-52857.547,-39478.883,-16940.553,-38998.21,-39378.906,-28836.955
1222036.9223764332,-46779.785,-34608.113,-52858.93,-39478.8,-16936.97,-38999.555,-39384.195,-28841.594
1222036.9263764306,-46777.184,-34607.016,-52858.48,-39477.824,-16935.67,-38999.96,-39381.96,-28836.467
1222036.930376428,-46772.3,-34604.695,-52855.67,-39477.094,-16937.094,-38999.88,-39377.688,-28836.305
1222036.934376425,-46776.082,-34610.637,-52855.715,-39476.81,-16939.209,-38998.09,-39372.03,-28829.225
1222036.9383764225,-46774.902,-34609.215,-52854.453,-39476.074,-16938.762,-38996.746,-39371.42,-28835.613
1222036.94237642,-46774.457,-34608.035,-52854.29,-39476.688,-16940.389,-38996.094,-39372.76,-28835.613
1222036.946376417,-46778.484,-34610.965,-52855.51,-39476.605,-16941.203,-38996.258,-39371.83,-28834.922
1222036.9503764145,-46778.08,-34609.254,-52853.965,-39476.605,-16939.412,-38996.543,-39369.957,-28833.62
1222036.9543764119,-46779.83,-34610.23,-52853.844,-39477.01,-16939.25,-38997.03,-39368.777,-28835.734
1222036.958376409,-46782.39,-34610.066,-52853.64,-39476.48,-16938.844,-38997.152,-39368.45,-28828.818
1222036.9623764064,-46781.09,-34607.016,-52852.703,-39475.668,-16935.914,-38997.965,-39369.63,-28829.51
1222036.9663764038,-46779.42,-34609.54,-52851.36,-39475.504,-16937.338,-38998.984,-39371.258,-28834.27
1222036.970376401,-46782.715,-34613.484,-52852.62,-39476.36,-16940.674,-38997.887,-39370.445,-28834.88
1222036.9743763984,-46786.176,-34613.895,-52853.56,-39476.727,-16941.365,-38997.76,-39366.742,-28829.428
1222036.9783763958,-46786.703,-34611.41,-52852.05,-39476.24,-16938.477,-38996.34,-39365.195,-28826.945
1222036.982376393,-46786.746,-34611.246,-52851.973,-39477.785,-16937.135,-38995.2,-39367.15,-28830.607
1222036.9863763903,-46788.984,-34612.59,-52852.62,-39479.695,-16938.68,-38996.055,-39366.7,-28827.354
1222036.9903763877,-46782.15,-34609.215,-52850.996,-39477.418,-16936.809,-38997.56,-39363.934,-28821.818
1222036.994376385,-46780.477,-34607.098,-52847.82,-39475.465,-16931.64,-38997.52,-39359.703,-28818.076
1222036.9983763823,-46782.88,-34607.383,-52847.13,-39475.14,-16929.158,-38999.188,-39364.22,-28827.678
1222037.0023763797,-46785.36,-34608.645,-52848.88,-39475.63,-16932.861,-39000.406,-39368.98,-28832.357
1222037.0063763768,-46783.938,-34605.797,-52849.69,-39474.12,-16935.223,-38999.473,-39365.6,-28823.162
1222037.0103763742,-46776.777,-34600.383,-52846.152,-39472.332,-16930.096,-38998.25,-39360.434,-28819.133
1222037.0143763714,-46776.164,-34600.586,-52844.89,-39472.496,-16929.729,-38996.01,-39357.22,-28818.36
1222037.0183763688,-46779.42,-34601.32,-52848.188,-39472.94,-16930.99,-38996.582,-39356.895,-28816.814
1222037.0223763662,-46780.965,-34600.71,-52849.773,-39473.39,-16928.264,-38997.844,-39358.523,-28816.895
1222037.0263763634,-46780.52,-34600.79,-52849.773,-39473.062,-16927.043,-38999.188,-39359.62,-28815.47
1222037.0303763608,-46780.965,-34600.914,-52848.88,-39472.168,-16929.12,-38999.594,-39359.78,-28810.182
1222037.0343763581,-46785.44,-34605.633,-52848.145,-39472.21,-16931.111,-39001.305,-39358.316,-28808.879
1222037.0383763553,-46787.883,-34607.992,-52847.74,-39470.664,-16931.844,-39001.832,-39362.02,-28815.47
1222037.0423763527,-46786.418,-34607.016,-52846.805,-39470.34,-16931.193,-39000.164,-39361.53,-28811.484
1222037.04637635,-46784.59,-34607.992,-52846.355,-39470.01,-16929.646,-38998.453,-39361.734,-28809.611
1222037.0503763473,-46786.746,-34609.418,-52846.926,-39470.094,-16931.723,-38998.74,-39362.508,-28811.484
1222037.0543763447,-46790.0,-34613.16,-52848.594,-39469.973,-16935.182,-38999.715,-39364.95,-28815.553
1222037.058376342,-46790.04,-34614.055,-52848.96,-39468.223,-16934.611,-38999.39,-39370.117,-28825.928
1222037.0623763392,-46791.06,-34614.504,-52849.53,-39468.18,-16933.676,-38999.676,-39374.88,-28827.271
1222037.0663763366,-46792.97,-34613.12,-52847.37,-39467.9,-16934.773,-39001.832,-39376.465,-28824.016
1222037.070376334,-46790.242,-34611.29,-52843.914,-39466.39,-16937.053,-39002.32,-39374.39,-28820.232
1222037.0743763312,-46790.73,-34613.688,-52842.246,-39467.53,-16940.756,-38999.96,-39370.85,-28819.092
1222037.0783763286,-46792.684,-34616.05,-52842.043,-39467.246,-16939.373,-38999.15,-39374.15,-28823.936
1222037.082376326,-46796.875,-34620.035,-52844.93,-39468.14,-16941.203,-39001.383,-39383.586,-28832.398
1222037.0863763231,-46799.48,-34621.258,-52846.64,-39468.668,-16946.209,-39001.953,-39387.695,-28837.852
1222037.0903763205,-46800.09,-34622.723,-52846.56,-39469.44,-16946.29,-39001.1,-39383.75,-28833.701
1222037.094376318,-46798.75,-34622.273,-52843.996,-39469.08,-16946.736,-38999.473,-39380.047,-28826.416
1222037.098376315,-46797.445,-34617.105,-52839.152,-39467.53,-16943.115,-38999.227,-39382.0,-28827.678
1222037.1023763125,-46799.316,-34616.375,-52838.3,-39467.652,-16941.285,-38999.88,-39384.605,-28830.322
1222037.1063763099,-46799.316,-34617.39,-52839.316,-39468.547,-16943.441,-39000.53,-39383.3,-28827.88
1222037.110376307,-46799.156,-34618.004,-52840.496,-39468.63,-16945.312,-39001.305,-39381.676,-28825.848
1222037.1143763044,-46799.44,-34618.004,-52839.684,-39467.734,-16942.994,-38999.637,-39380.656,-28827.271
1222037.1183763016,-46801.555,-34618.367,-52839.113,-39466.676,-16939.129,-39000.082,-39381.39,-28826.498
1222037.122376299,-46801.19,-34617.758,-52839.64,-39465.13,-16940.797,-39002.24,-39385.133,-28835.084
1222037.1263762964,-46800.863,-34619.223,-52839.56,-39465.008,-16944.621,-39001.223,-39385.824,-28839.396
1222037.1303762936,-46798.992,-34619.957,-52837.65,-39464.76,-16945.232,-38999.066,-39380.984,-28833.293
1222037.134376291,-46797.324,-34617.15,-52833.496,-39463.867,-16943.197,-38997.316,-39375.53,-28828.818
1222037.1383762883,-46797.203,-34617.188,-52831.953,-39462.445,-16941.936,-38997.07,-39372.477,-28819.336
1222037.1423762855,-46798.18,-34617.88,-52832.277,-39462.527,-16943.523,-38999.51,-39375.613,-28822.389
1222037.146376283,-46800.215,-34619.508,-52832.723,-39462.527,-16945.395,-39000.855,-39378.62,-28827.76
1222037.1503762803,-46801.066,-34617.88,-52833.78,-39460.816,-16944.865,-38999.066,-39375.53,-28824.79
1222037.1543762775,-46802.734,-34616.7,-52834.758,-39459.88,-16942.83,-38998.82,-39374.96,-28832.44
1222037.1583762749,-46807.457,-34617.027,-52836.55,-39459.88,-16941.285,-38999.797,-39377.28,-28833.945
1222037.1623762723,-46810.547,-34617.473,-52838.22,-39462.32,-16941.53,-39000.406,-39379.56,-28830.81
1222037.1663762694,-46810.957,-34617.066,-52839.926,-39462.242,-16943.441,-39001.26,-39378.95,-28827.148
1222037.1703762668,-46808.39,-34614.137,-52839.438,-39461.062,-16939.209,-39001.832,-39375.895,-28822.266
1222037.1743762642,-46808.15,-34608.645,-52836.875,-39459.473,-16938.273,-39001.223,-39373.047,-28819.133
1222037.1783762614,-46808.516,-34610.066,-52834.35,-39460.207,-16938.314,-39000.203,-39374.39,-28819.906
1222037.1823762588,-46806.723,-34608.113,-52831.543,-39458.863,-16939.129,-38997.723,-39375.652,-28816.447
1222037.1863762562,-46806.52,-34606.12,-52832.684,-39459.15,-16938.518,-38997.844,-39375.285,-28822.145
1222037.1903762533,-46808.92,-34610.883,-52833.945,-39460.816,-16940.553,-38997.684,-39372.844,-28821.25
1222037.1943762507,-46810.26,-34609.01,-52834.92,-39459.72,-16939.332,-39000.0,-39372.234,-28820.436
1222037.1983762481,-46812.176,-34608.6,-52835.613,-39458.457,-16939.047,-39000.69,-39373.047,-28817.465
1222037.2023762453,-46815.39,-34611.492,-52838.664,-39460.207,-16939.9,-39001.305,-39373.414,-28809.611
1222037.2063762427,-46821.37,-34613.527,-52842.977,-39461.55,-16942.18,-39001.71,-39375.367,-28813.273
1222037.21037624,-46821.047,-34611.98,-52844.44,-39461.387,-16941.854,-39001.87,-39375.57,-28817.383
1222037.2143762372,-46820.723,-34609.418,-52843.465,-39459.72,-16939.861,-38999.715,-39373.535,-28819.174
1222037.2183762346,-46825.44,-34611.574,-52845.34,-39459.637,-16936.809,-38998.7,-39371.99,-28820.842
1222037.2223762318,-46825.523,-34611.98,-52846.152,-39460.33,-16936.361,-39000.45,-39372.64,-28820.477
1222037.2263762292,-46820.68,-34609.945,-52843.344,-39459.8,-16940.064,-39003.824,-39376.914,-28829.795
1222037.2303762266,-46816.043,-34606.61,-52839.52,-39456.87,-16939.982,-39005.414,-39377.24,-28829.225
1222037.2343762238,-46813.64,-34603.434,-52836.59,-39454.184,-16936.646,-39002.645,-39370.73,-28816.367
1222037.2383762212,-46814.863,-34599.69,-52835.41,-39453.492,-16933.553,-39000.33,-39369.14,-28813.518
1222037.2423762185,-46817.586,-34599.12,-52836.062,-39454.633,-16933.188,-39001.14,-39372.6,-28820.436
1222037.2463762157,-46821.574,-34599.773,-52837.16,-39455.324,-16935.75,-39000.773,-39370.89,-28817.506
1222037.250376213,-46819.094,-34601.48,-52837.73,-39455.04,-16937.42,-39001.223,-39369.508,-28822.592
1222037.2543762105,-46821.535,-34602.215,-52837.08,-39454.348,-16936.28,-38999.88,-39368.855,-28823.203
1222037.2583762077,-46821.94,-34600.87,-52836.67,-39453.816,-16934.611,-39000.33,-39370.484,-28820.395
1222037.262376205,-46822.062,-34599.367,-52838.094,-39452.273,-16931.885,-39001.465,-39373.047,-28818.809
1222037.2663762025,-46821.86,-34597.008,-52836.184,-39450.48,-16930.584,-39001.426,-39372.07,-28815.879
1222037.2703761996,-46823.242,-34596.316,-52837.363,-39450.156,-16931.56,-39002.24,-39369.184,-28812.46
1222037.274376197,-46828.453,-34600.586,-52838.625,-39451.457,-16933.146,-39002.645,-39367.434,-28815.512
1222037.2783761944,-46829.918,-34603.23,-52837.363,-39451.215,-16934.693,-39001.996,-39369.02,-28822.51
1222037.2823761916,-46834.473,-34608.277,-52838.016,-39451.906,-16936.932,-39003.258,-39372.52,-28822.592
1222037.286376189,-46836.184,-34610.35,-52839.03,-39452.066,-16937.338,-39004.56,-39376.793,-28826.66
1222037.2903761864,-46838.46,-34612.875,-52841.88,-39452.8,-16941.0,-39006.227,-39379.11,-28833.701
1222037.2943761835,-46840.13,-34618.57,-52839.926,-39452.637,-16941.854,-39005.902,-39379.883,-28837.566
1222037.298376181,-46841.72,-34619.305,-52836.67,-39452.555,-16940.105,-39006.797,-39382.367,-28834.799
1222037.3023761783,-46843.426,-34619.184,-52837.28,-39453.613,-16941.61,-39008.75,-39384.93,-28843.791
1222037.3063761755,-46846.355,-34621.01,-52836.957,-39455.445,-16945.436,-39008.016,-39379.52,-28838.176
1222037.310376173,-46843.63,-34619.223,-52836.387,-39454.836,-16944.459,-39006.633,-39373.863,-28834.27
1222037.3143761703,-46840.17,-34617.758,-52834.598,-39452.68,-16942.586,-39004.64,-39370.16,-28839.6
1222037.3183761674,-46840.617,-34616.863,-52833.496,-39452.965,-16940.553,-39002.93,-39369.06,-28835.084
1222037.3223761648,-46844.32,-34617.15,-52834.312,-39453.37,-16941.162,-39004.273,-39370.605,-28824.139
1222037.3263761622,-46845.746,-34616.254,-52835.574,-39453.168,-16940.838,-39007.12,-39373.94,-28823.203
1222037.3303761594,-46844.08,-34613.28,-52834.23,-39449.832,-16938.191,-39008.504,-39373.453,-28832.44
1222037.3343761568,-46845.746,-34616.05,-52834.8,-39449.504,-16936.932,-39010.094,-39372.152,-28832.602
1222037.338376154,-46846.76,-34613.812,-52835.41,-39449.26,-16935.994,-39010.457,-39372.195,-28829.225
1222037.3423761514,-46850.26,-34611.777,-52836.387,-39449.016,-16935.506,-39011.68,-39374.758,-28829.59
1222037.3463761488,-46852.664,-34613.812,-52836.957,-39448.49,-16938.436,-39011.395,-39376.508,-28832.684
1222037.350376146,-46853.8,-34613.28,-52836.47,-39448.0,-16940.145,-39008.75,-39373.375,-28834.27
1222037.3543761433,-46859.17,-34614.543,-52836.062,-39449.22,-16939.738,-39007.203,-39370.035,-28830.12
1222037.3583761407,-46862.227,-34616.336,-52837.363,-39449.547,-16938.191,-39008.26,-39370.973,-28826.945
1222037.3623761379,-46862.02,-34616.824,-52837.65,-39450.156,-16937.5,-39010.66,-39375.043,-28823.975
1222037.3663761353,-46861.613,-34611.98,-52835.246,-39447.43,-16934.611,-39012.82,-39379.56,-28837.158
1222037.3703761327,-46857.344,-34608.316,-52833.418,-39444.99,-16933.432,-39014.406,-39376.996,-28840.82
1222037.3743761298,-46862.305,-34609.99,-52835.37,-39444.254,-16933.188,-39012.453,-39369.426,-28828.492
1222037.3783761272,-46868.043,-34609.336,-52836.426,-39444.336,-16934.002,-39012.207,-39367.516,-28825.725
1222037.3823761246,-46867.92,-34606.57,-52836.348,-39444.418,-16932.82,-39010.867,-39367.188,-28824.992
1222037.3863761218,-46869.55,-34606.57,-52837.73,-39444.62,-16934.814,-39009.277,-39366.824,-28830.73
1222037.3903761192,-46872.195,-34607.79,-52839.277,-39445.477,-16936.32,-39008.016,-39362.223,-28828.613
1222037.3943761166,-46874.84,-34610.19,-52840.09,-39446.574,-16938.03,-39007.12,-39358.24,-28822.47
1222037.3983761137,-46875.9,-34611.37,-52839.64,-39446.25,-16936.28,-39008.465,-39359.54,-28820.639
1222037.4023761111,-46877.32,-34609.05,-52840.293,-39446.086,-16935.467,-39013.062,-39366.13,-28829.143
1222037.4063761085,-46881.55,-34612.59,-52842.125,-39446.656,-16933.758,-39015.383,-39367.637,-28830.81
1222037.4103761057,-46881.594,-34612.508,-52842.57,-39445.598,-16935.182,-39013.754,-39363.12,-28826.01
1222037.414376103,-46882.203,-34611.41,-52839.805,-39443.688,-16933.797,-39012.613,-39361.86,-28830.283
1222037.4183761005,-46886.395,-34615.152,-52838.625,-39446.492,-16935.14,-39012.82,-39365.277,-28833.293
1222037.4223760976,-46885.867,-34614.46,-52841.434,-39448.04,-16935.385,-39011.395,-39365.684,-28830.283
1222037.426376095,-46888.51,-34615.36,-52845.258,-39448.934,-16936.238,-39008.63,-39360.23,-28821.086
1222037.4303760924,-46888.184,-34614.137,-52845.258,-39448.61,-16937.5,-39008.465,-39356.773,-28819.012
1222037.4343760896,-46885.418,-34614.504,-52843.184,-39448.0,-16937.947,-39009.848,-39359.01,-28827.8
1222037.438376087,-46887.492,-34616.7,-52841.066,-39446.086,-16937.5,-39010.867,-39359.58,-28824.342
1222037.4423760842,-46890.668,-34619.305,-52841.797,-39446.98,-16937.623,-39014.324,-39366.293,-28827.963
1222037.4463760816,-46895.305,-34622.56,-52843.14,-39447.51,-16938.518,-39017.78,-39370.402,-28828.533
1222037.450376079,-46896.2,-34622.03,-52843.14,-39446.25,-16935.547,-39018.19,-39369.793,-28831.666
1222037.454376076,-46893.883,-34618.41,-52841.35,-39446.574,-16936.035,-39017.254,-39365.074,-28830.527
1222037.4583760735,-46894.695,-34618.777,-52840.535,-39445.883,-16933.838,-39015.625,-39361.98,-28827.475
1222037.462376071,-46894.86,-34617.92,-52840.414,-39445.438,-16932.414,-39015.586,-39360.92,-28825.36
1222037.466376068,-46894.41,-34616.78,-52840.742,-39445.598,-16932.049,-39017.05,-39360.598,-28821.9
1222037.4703760655,-46893.027,-34614.42,-52840.7,-39444.95,-16931.723,-39016.93,-39358.766,-28818.809
1222037.4743760629,-46896.12,-34615.438,-52839.926,-39444.05,-16932.293,-39016.684,-39359.62,-28816.326
1222037.47837606,-46901.734,-34616.945,-52841.023,-39443.645,-16931.316,-39018.027,-39363.688,-28820.191
1222037.4823760574,-46903.117,-34616.7,-52842.652,-39444.254,-16930.908,-39020.305,-39371.297,-28839.764
1222037.4863760548,-46905.887,-34618.29,-52845.34,-39444.582,-16930.99,-39018.637,-39371.176,-28840.617
1222037.490376052,-46906.902,-34619.1,-52843.914,-39442.832,-16928.182,-39016.52,-39365.234,-28833.049
1222037.4943760494,-46904.46,-34615.152,-52839.723,-39441.164,-16924.275,-39015.79,-39360.395,-28828.654
1222037.4983760468,-46903.73,-34613.28,-52838.016,-39439.86,-16924.275,-39016.93,-39360.516,-28827.271
1222037.502376044,-46905.152,-34615.52,-52837.973,-39440.473,-16924.684,-39018.96,-39363.484,-28826.336
1222037.5063760413,-46902.184,-34609.742,-52837.2,-39439.58,-16922.486,-39022.055,-39366.824,-28832.44
1222037.5103760387,-46899.21,-34605.55,-52837.566,-39437.664,-16921.672,-39023.887,-39363.65,-28827.719
1222037.514376036,-46899.984,-34608.44,-52836.14,-39437.625,-16922.69,-39021.65,-39358.113,-28822.186
1222037.5183760333,-46901.53,-34610.15,-52836.14,-39439.453,-16926.352,-39019.043,-39356.16,-28822.389
1222037.5223760307,-46900.676,-34611.656,-52835.695,-39440.348,-16927.857,-39017.58,-39356.773,-28818.36
1222037.5263760278,-46904.34,-34613.484,-52835.652,-39441.69,-16928.06,-39017.17,-39354.41,-28809.164
1222037.5303760252,-46906.82,-34613.484,-52837.04,-39441.45,-16927.572,-39015.79,-39351.97,-28809.896
1222037.5343760226,-46906.008,-34610.68,-52835.125,-39439.94,-16926.758,-39015.18,-39351.562,-28819.174
1222037.5383760198,-46907.43,-34609.418,-52831.87,-39437.137,-16923.951,-39016.52,-39352.582,-28819.459
1222037.5423760172,-46911.418,-34612.1,-52832.684,-39437.867,-16922.16,-39018.434,-39351.688,-28812.176
1222037.5463760144,-46910.28,-34610.23,-52831.055,-39437.055,-16920.125,-39018.92,-39354.535,-28820.639
1222037.5503760118,-46909.465,-34610.027,-52830.77,-39435.832,-16919.963,-39017.906,-39352.336,-28821.86
1222037.5543760092,-46907.797,-34610.758,-52831.87,-39436.727,-16922.566,-39017.906,-39350.14,-28817.75
1222037.5583760063,-46907.43,-34611.492,-52832.074,-39436.89,-16925.781,-39016.36,-39348.43,-28816.244
1222037.5623760037,-46909.305,-34611.53,-52831.746,-39436.32,-16923.504,-39013.51,-39342.043,-28807.09
1222037.566376001,-46908.53,-34607.3,-52829.1,-39435.426,-16922.73,-39012.086,-39337.81,-28796.55
1222037.5703759983,-46910.688,-34609.418,-52827.11,-39434.734,-16922.81,-39013.1,-39334.555,-28785.605
1222037.5743759957,-46913.25,-34612.71,-52825.848,-39433.72,-16923.666,-39014.812,-39334.758,-28793.377
1222037.578375993,-46918.38,-34614.383,-52827.395,-39435.02,-16923.178,-39016.562,-39332.97,-28793.906
1222037.5823759902,-46918.867,-34613.2,-52828.613,-39436.484,-16920.166,-39017.742,-39334.473,-28795.574
1222037.5863759876,-46918.01,-34611.207,-52827.312,-39436.727,-16922.566,-39017.54,-39336.914,-28794.883
1222037.590375985,-46919.07,-34611.41,-52828.535,-39436.77,-16922.078,-39016.727,-39334.676,-28794.15
1222037.5943759822,-46918.215,-34609.457,-52828.94,-39435.508,-16918.986,-39015.992,-39334.39,-28798.463
1222037.5983759796,-46920.37,-34608.113,-52830.363,-39435.1,-16916.79,-39016.562,-39337.445,-28801.025
1222037.602375977,-46924.113,-34610.598,-52831.79,-39436.727,-16916.951,-39019.53,-39342.41,-28803.305
1222037.6063759741,-46923.707,-34610.72,-52829.875,-39436.28,-16916.871,-39021.28,-39344.523,-28802.531
1222037.6103759715,-46922.285,-34609.824,-52827.027,-39434.043,-16916.463,-39022.91,-39341.555,-28797.445
1222037.614375969,-46919.68,-34603.965,-52823.367,-39430.79,-16911.865,-39022.707,-39339.48,-28801.637
1222037.618375966,-46919.312,-34601.117,-52821.535,-39429.28,-16910.156,-39022.79,-39340.457,-28800.701
1222037.6223759635,-46921.023,-34603.312,-52822.754,-39430.91,-16911.58,-39024.54,-39343.387,-28800.01
1222037.626375961,-46926.27,-34605.266,-52827.637,-39432.21,-16913.818,-39024.78,-39344.566,-28802.166
1222037.630375958,-46929.566,-34610.555,-52830.49,-39432.945,-16914.51,-39023.074,-39344.117,-28807.414
1222037.6343759554,-46928.47,-34610.35,-52829.1,-39431.113,-16913.9,-39022.992,-39343.63,-28810.059
1222037.6383759528,-46929.484,-34606.57,-52827.15,-39430.504,-16913.412,-39023.074,-39343.875,-28807.537
1222037.64237595,-46931.234,-34607.22,-52826.863,-39430.504,-16911.58,-39022.42,-39344.605,-28804.16
1222037.6463759474,-46928.996,-34606.61,-52826.824,-39429.527,-16911.541,-39023.277,-39346.76,-28804.852
1222037.6503759446,-46928.59,-34605.348,-52826.582,-39429.605,-16911.053,-39026.367,-39349.082,-28810.71
1222037.654375942,-46929.445,-34604.168,-52826.703,-39429.605,-16912.518,-39028.566,-39349.812,-28815.268
1222037.6583759394,-46933.31,-34606.527,-52827.434,-39430.3,-16915.121,-39028.566,-39350.87,-28816.65
1222037.6623759365,-46938.355,-34612.1,-52828.207,-39431.234,-16913.982,-39028.08,-39349.61,-28814.291
1222037.666375934,-46939.25,-34611.613,-52828.047,-39431.723,-16916.139,-39027.184,-39349.406,-28808.514
1222037.6703759313,-46940.84,-34610.598,-52827.027,-39431.113,-16916.668,-39026.98,-39348.51,-28806.357
1222037.6743759285,-46942.098,-34607.953,-52826.5,-39430.016,-16914.674,-39027.75,-39351.605,-28820.762
1222037.6783759259,-46942.305,-34604.98,-52825.44,-39428.387,-16913.086,-39026.652,-39351.766,-28824.139
1222037.6823759233,-46942.02,-34603.23,-52824.465,-39428.47,-16913.168,-39026.938,-39354.332,-28824.383
1222037.6863759204,-46942.098,-34602.05,-52824.344,-39427.613,-16912.436,-39028.16,-39354.535,-28821.818
1222037.6903759178,-46941.816,-34600.63,-52824.832,-39426.637,-16912.842,-39027.793,-39352.62,-28819.336
1222037.6943759152,-46942.06,-34600.016,-52823.0,-39427.164,-16913.533,-39027.14,-39348.918,-28819.215
1222037.6983759124,-46941.367,-34600.465,-52820.68,-39427.125,-16912.436,-39026.33,-39346.844,-28818.197
1222037.7023759098,-46942.586,-34602.254,-52821.332,-39427.652,-16911.785,-39026.367,-39349.203,-28815.43
1222037.7063759072,-46944.258,-34608.24,-52821.13,-39430.22,-16915.568,-39027.305,-39351.848,-28816.488
1222037.7103759043,-46942.26,-34610.965,-52820.07,-39429.16,-16916.504,-39025.84,-39350.18,-28821.982
1222037.7143759017,-46942.996,-34613.28,-52819.99,-39429.242,-16916.139,-39024.414,-39347.78,-28824.951
1222037.7183758991,-46940.633,-34613.812,-52817.06,-39428.914,-16914.715,-39023.4,-39347.332,-28821.25
1222037.7223758963,-46941.61,-34613.484,-52819.582,-39429.16,-16917.4,-39026.773,-39349.652,-28820.557
1222037.7263758937,-46945.355,-34617.105,-52820.355,-39429.16,-16917.562,-39029.46,-39352.05,-28815.186
1222037.730375891,-46943.93,-34623.008,-52820.11,-39428.836,-16915.812,-39029.055,-39352.094,-28816.406
1222037.7343758882,-46941.164,-34620.242,-52818.484,-39427.125,-16915.65,-39027.832,-39349.773,-28817.791
1222037.7383758856,-46944.215,-34621.258,-52819.867,-39427.492,-16919.8,-39026.652,-39352.215,-28821.371
1222037.742375883,-46949.383,-34626.383,-52822.266,-39429.363,-16920.94,-39025.676,-39353.72,-28819.053
1222037.7463758802,-46953.777,-34629.76,-52826.133,-39430.746,-16922.771,-39026.41,-39355.387,-28814.982
1222037.7503758776,-46951.703,-34627.484,-52824.504,-39429.527,-16922.852,-39024.984,-39351.848,-28807.578
1222037.7543758748,-46952.273,-34629.19,-52822.43,-39429.566,-16924.154,-39023.438,-39351.277,-28807.617
1222037.7583758722,-46955.49,-34631.473,-52821.98,-39428.957,-16926.434,-39024.496,-39357.26,-28820.883
1222037.7623758696,-46951.582,-34625.816,-52819.54,-39427.246,-16923.748,-39026.53,-39361.086,-28826.58
1222037.7663758667,-46942.223,-34621.83,-52816.367,-39425.742,-16920.898,-39025.516,-39358.48,-28819.662
1222037.770375864,-46938.113,-34621.867,-52816.57,-39425.133,-16920.613,-39024.008,-39353.56,-28814.697
1222037.7743758615,-46936.28,-34623.09,-52816.285,-39425.418,-16921.102,-39020.836,-39349.855,-28813.885
1222037.7783758587,-46936.81,-34623.78,-52813.68,-39425.17,-16918.377,-39016.684,-39346.68,-28809.408
1222037.782375856,-46936.24,-34623.453,-52815.473,-39425.09,-16919.475,-39015.75,-39348.062,-28809.979
1222037.7863758535,-46935.793,-34627.035,-52816.816,-39426.027,-16922.04,-39016.48,-39349.61,-28814.006
1222037.7903758506,-46931.113,-34625.49,-52814.82,-39424.97,-16923.707,-39016.36,-39343.832,-28807.252
1222037.794375848,-46926.516,-34622.64,-52810.59,-39422.812,-16919.8,-39015.42,-39335.9,-28796.672
1222037.7983758454,-46926.92,-34623.047,-52808.188,-39423.016,-16918.213,-39013.918,-39332.926,-28791.098
1222037.8023758426,-46926.19,-34621.38,-52809.734,-39423.258,-16919.19,-39014.566,-39334.555,-28793.824
1222037.80637584,-46927.734,-34622.4,-52810.426,-39422.65,-16920.613,-39014.977,-39333.254,-28792.277
1222037.8103758374,-46925.17,-34619.875,-52807.7,-39421.793,-16919.393,-39012.125,-39326.215,-28785.238
1222037.8143758345,-46925.336,-34621.625,-52807.293,-39422.934,-16922.04,-39010.785,-39323.895,-28783.57
1222037.818375832,-46933.676,-34627.2,-52810.387,-39425.293,-16925.62,-39011.883,-39328.98,-28788.494
1222037.8223758293,-46934.938,-34629.965,-52814.25,-39427.37,-16927.654,-39014.773,-39336.02,-28798.137
1222037.8263758265,-46937.297,-34631.39,-52815.188,-39428.266,-16929.2,-39016.97,-39339.316,-28795.533
1222037.830375824,-46937.95,-34633.63,-52814.375,-39426.84,-16930.096,-39016.93,-39337.04,-28798.584
1222037.8343758213,-46938.4,-34636.395,-52814.7,-39425.496,-16930.379,-39014.363,-39331.22,-28793.498
1222037.8383758185,-46940.633,-34637.492,-52812.99,-39426.516,-16931.031,-39011.68,-39326.457,-28781.7
1222037.8423758158,-46943.402,-34639.566,-52813.56,-39426.883,-16929.81,-39010.99,-39324.18,-28778.361
1222037.8463758132,-46945.11,-34640.26,-52815.31,-39427.777,-16929.973,-39010.5,-39323.65,-28778.809
1222037.8503758104,-46945.56,-34641.684,-52814.375,-39428.426,-16932.455,-39008.75,-39321.74,-28779.176
1222037.8543758078,-46948.652,-34648.52,-52816.043,-39430.094,-16936.402,-39009.117,-39321.047,-28783.408
1222037.858375805,-46950.035,-34647.586,-52816.61,-39429.77,-16934.734,-39008.953,-39324.832,-28788.086
1222037.8623758024,-46953.695,-34649.742,-52816.816,-39430.34,-16934.246,-39010.457,-39330.527,-28791.18
1222037.8663757998,-46954.51,-34648.113,-52816.203,-39428.266,-16934.734,-39013.023,-39335.41,-28796.348
1222037.870375797,-46955.445,-34648.4,-52818.074,-39427.777,-16937.42,-39016.52,-39336.793,-28799.44
1222037.8743757943,-46956.668,-34653.973,-52818.688,-39427.37,-16939.535,-39017.58,-39336.184,-28795.33
1222037.8783757917,-46958.58,-34650.84,-52818.117,-39427.45,-16938.64,-39018.027,-39337.605,-28802.166
1222037.8823757889,-46957.074,-34647.3,-52815.633,-39425.66,-16934.979,-39018.758,-39339.805,-28803.264
1222037.8863757863,-46956.055,-34648.113,-52817.508,-39425.742,-16933.553,-39020.71,-39341.96,-28808.025
1222037.8903757837,-46956.34,-34649.21,-52819.336,-39425.133,-16930.908,-39020.47,-39342.203,-28812.988
1222037.8943757808,-46956.22,-34648.277,-52820.312,-39423.953,-16928.549,-39020.957,-39345.543,-28814.941
1222037.8983757782,-46959.96,-34650.797,-52819.746,-39424.03,-16930.746,-39021.08,-39346.805,-28815.47
1222037.9023757756,-46964.438,-34651.57,-52820.883,-39424.48,-16929.852,-39020.836,-39348.594,-28817.832
1222037.9063757728,-46961.426,-34648.887,-52820.926,-39423.746,-16930.176,-39021.28,-39350.465,-28818.848
1222037.9103757702,-46957.074,-34646.28,-52819.46,-39422.04,-16931.52,-39021.77,-39347.7,-28815.35
1222037.9143757676,-46956.707,-34644.938,-52819.582,-39421.47,-16930.379,-39022.79,-39347.37,-28820.68
1222037.9183757647,-46955.12,-34643.312,-52818.77,-39420.74,-16931.64,-39023.195,-39348.676,-28820.068
1222037.9223757621,-46955.65,-34643.312,-52818.973,-39420.125,-16931.52,-39022.707,-39349.406,-28817.18
1222037.9263757595,-46958.7,-34646.16,-52820.8,-39420.94,-16934.652,-39022.867,-39349.61,-28815.105
1222037.9303757567,-46961.02,-34647.258,-52821.168,-39420.656,-16935.67,-39024.375,-39348.715,-28810.467
1222037.934375754,-46962.242,-34647.664,-52819.05,-39419.312,-16933.676,-39025.555,-39350.098,-28814.982
1222037.9383757515,-46960.043,-34646.65,-52818.81,-39418.17,-16930.014,-39025.516,-39351.523,-28825.318
1222037.9423757487,-46959.066,-34643.19,-52820.723,-39418.094,-16927.938,-39023.074,-39347.984,-28820.395
1222037.946375746,-46958.863,-34640.26,-52821.414,-39417.277,-16926.637,-39020.67,-39343.426,-28812.744
1222037.9503757434,-46955.934,-34638.51,-52820.234,-39416.79,-16925.578,-39020.348,-39336.875,-28803.06
1222037.9543757406,-46948.285,-34635.297,-52815.31,-39414.023,-16923.463,-39020.184,-39333.78,-28800.781
1222037.958375738,-46947.797,-34633.953,-52813.68,-39413.332,-16921.021,-39019.98,-39335.33,-28808.879
1222037.9623757354,-46950.44,-34637.125,-52814.375,-39414.55,-16924.684,-39019.574,-39335.695,-28806.967
1222037.9663757326,-46951.54,-34636.027,-52815.758,-39415.855,-16926.637,-39020.305,-39335.207,-28806.64
1222037.97037573,-46949.707,-34634.074,-52815.43,-39415.652,-16926.922,-39019.86,-39333.09,-28805.787
1222037.9743757271,-46949.016,-34633.14,-52815.105,-39415.773,-16925.74,-39018.72,-39332.6,-28802.246
1222037.9783757245,-46950.93,-34634.848,-52815.35,-39415.812,-16923.87,-39018.598,-39333.133,-28802.41
1222037.982375722,-46955.363,-34634.89,-52816.61,-39416.63,-16922.566,-39020.145,-39335.004,-28803.467
1222037.986375719,-46953.047,-34631.062,-52815.88,-39415.203,-16918.498,-39020.793,-39334.312,-28801.352
1222037.9903757165,-46950.562,-34632.527,-52815.797,-39415.04,-16919.637,-39022.3,-39332.684,-28798.016
1222037.9943757139,-46951.99,-34635.297,-52814.09,-39415.812,-16922.283,-39023.562,-39329.508,-28794.434
1222037.998375711,-46950.848,-34632.812,-52811.445,-39414.676,-16920.818,-39020.836,-39328.25,-28791.79
1222038.0023757084,-46949.79,-34633.426,-52810.06,-39413.74,-16919.393,-39020.914,-39329.1,-28791.26
1222038.0063757058,-46949.504,-34633.426,-52811.973,-39414.062,-16918.783,-39021.363,-39329.184,-28789.877
1222038.010375703,-46950.32,-34631.39,-52812.664,-39413.7,-16917.236,-39020.266,-39327.434,-28792.969
1222038.0143757004,-46951.254,-34628.867,-52813.07,-39413.29,-16916.26,-39020.47,-39325.645,-28793.174
1222038.0183756978,-46952.15,-34624.188,-52812.094,-39412.477,-16913.127,-39020.793,-39326.215,-28787.191
1222038.022375695,-46954.715,-34627.035,-52813.6,-39413.902,-16914.55,-39021.363,-39327.11,-28784.424
1222038.0263756923,-46952.68,-34625.246,-52813.355,-39412.477,-16915.568,-39022.867,-39327.84,-28786.174
1222038.0303756897,-46950.32,-34621.664,-52812.42,-39410.36,-16915.447,-39024.7,-39328.98,-28789.43
1222038.034375687,-46952.07,-34623.535,-52811.605,-39408.61,-16914.998,-39025.39,-39329.67,-28793.742
1222038.0383756843,-46955.566,-34626.59,-52811.85,-39409.832,-16918.54,-39024.82,-39331.668,-28793.742
1222038.0423756817,-46957.93,-34630.047,-52813.07,-39411.46,-16919.557,-39023.723,-39334.39,-28795.33
1222038.0463756789,-46960.29,-34633.06,-52816.203,-39412.844,-16920.492,-39025.23,-39337.16,-28802.328
1222038.0503756762,-46958.66,-34631.633,-52817.75,-39410.28,-16919.434,-39026.367,-39336.875,-28805.705
1222038.0543756736,-46958.375,-34629.723,-52816.043,-39409.71,-16919.027,-39027.508,-39334.066,-28800.62
1222038.0583756708,-46957.113,-34629.8,-52812.258,-39408.45,-16914.145,-39027.59,-39334.39,-28796.143
1222038.0623756682,-46954.387,-34631.797,-52808.84,-39407.918,-16912.395,-39028.08,-39335.574,-28799.316
1222038.0663756656,-46955.73,-34632.0,-52809.938,-39408.12,-16912.72,-39028.77,-39334.555,-28795.736
1222038.0703756628,-46956.504,-34630.332,-52811.934,-39407.758,-16914.43,-39029.38,-39332.113,-28793.05
1222038.0743756602,-46957.887,-34635.99,-52810.75,-39407.227,-16916.668,-39028.117,-39332.52,-28795.33
1222038.0783756573,-46958.17,-34634.684,-52810.75,-39406.78,-16914.55,-39026.773,-39334.15,-28796.428
1222038.0823756547,-46959.11,-34632.406,-52812.91,-39406.13,-16914.55,-39026.53,-39333.945,-28799.56
1222038.086375652,-46959.598,-34635.05,-52813.477,-39407.227,-16916.383,-39026.855,-39333.133,-28800.13
1222038.0903756493,-46958.05,-34634.36,-52814.496,-39408.406,-16916.586,-39028.402,-39332.723,-28804.037
1222038.0943756467,-46962.73,-34638.918,-52815.715,-39409.14,-16916.871,-39028.445,-39333.78,-28804.16
1222038.098375644,-46971.965,-34643.637,-52815.715,-39411.906,-16918.05,-39028.934,-39338.297,-28806.193
1222038.1023756412,-46974.0,-34640.465,-52815.023,-39412.723,-16918.213,-39030.316,-39341.88,-28813.03
1222038.1063756386,-46971.07,-34638.836,-52816.45,-39411.46,-16917.604,-39030.64,-39342.652,-28816.57
1222038.110375636,-46969.035,-34640.75,-52817.914,-39410.973,-16918.377,-39029.297,-39338.42,-28810.385
1222038.1143756332,-46965.17,-34639.16,-52816.043,-39409.71,-16916.951,-39028.08,-39334.8,-28807.008
1222038.1183756306,-46967.938,-34642.254,-52816.043,-39409.914,-16916.139,-39027.547,-39333.902,-28799.846
1222038.122375628,-46970.176,-34643.8,-52817.465,-39409.06,-16915.73,-39028.81,-39336.832,-28803.102
1222038.1263756251,-46971.07,-34641.562,-52816.734,-39407.84,-16916.383,-39028.484,-39338.094,-28811.361
1222038.1303756225,-46968.26,-34639.69,-52816.203,-39407.39,-16916.992,-39029.34,-39335.164,-28807.902
1222038.13437562,-46965.375,-34636.273,-52814.25,-39407.43,-16912.436,-39027.75,-39331.625,-28801.963
1222038.138375617,-46968.832,-34636.637,-52814.293,-39407.84,-16913.29,-39027.875,-39332.805,-28801.066
1222038.1423756145,-46970.055,-34636.92,-52815.066,-39407.758,-16914.43,-39027.875,-39331.625,-28794.11
1222038.146375612,-46967.816,-34637.695,-52814.496,-39407.43,-16914.55,-39027.344,-39327.84,-28788.9
1222038.150375609,-46964.277,-34637.332,-52811.484,-39407.023,-16914.145,-39027.06,-39323.69,-28785.85
1222038.1543756064,-46958.7,-34631.88,-52808.027,-39403.363,-16910.97,-39028.08,-39321.37,-28787.191
1222038.1583756038,-46958.78,-34629.883,-52807.293,-39402.1,-16910.076,-39028.402,-39325.24,-28794.23
1222038.162375601,-46963.707,-34634.89,-52810.344,-39404.95,-16912.191,-39029.625,-39329.715,-28796.957
1222038.1663755984,-46962.16,-34637.656,-52809.695,-39404.01,-16914.633,-39029.258,-39331.137,-28798.096
1222038.1703755958,-46957.074,-34633.914,-52806.766,-39402.59,-16912.883,-39029.5,-39330.73,-28800.904
1222038.174375593,-46954.184,-34632.0,-52805.46,-39400.31,-16910.36,-39029.99,-39327.555,-28795.533
1222038.1783755904,-46952.84,-34631.023,-52805.95,-39399.332,-16908.53,-39029.664,-39327.516,-28790.283
1222038.1823755875,-46953.453,-34629.355,-52807.332,-39399.54,-16907.553,-39031.656,-39330.28,-28798.096
1222038.186375585,-46951.945,-34630.13,-52807.375,-39398.4,-16906.373,-39031.656,-39329.184,-28796.836
1222038.1903755823,-46951.66,-34629.11,-52805.83,-39397.664,-16905.6,-39030.4,-39325.48,-28793.377
1222038.1943755795,-46951.05,-34630.82,-52802.816,-39398.684,-16905.885,-39030.477,-39324.137,-28795.86
1222038.1983755769,-46951.375,-34631.633,-52800.863,-39399.984,-16904.785,-39030.4,-39324.625,-28796.957
1222038.2023755743,-46954.55,-34634.766,-52802.37,-39400.758,-16907.879,-39031.656,-39327.434,-28799.195
1222038.2063755714,-46953.168,-34634.727,-52803.184,-39399.496,-16909.627,-39032.715,-39330.895,-28804.281
1222038.2103755688,-46951.336,-34631.473,-52803.387,-39398.684,-16906.82,-39033.57,-39328.695,-28798.422
1222038.2143755662,-46949.992,-34626.75,-52802.53,-39396.89,-16904.379,-39034.71,-39327.8,-28798.79
1222038.2183755634,-46950.97,-34624.88,-52802.777,-39396.28,-16901.164,-39033.938,-39327.15,-28797.527
1222038.2223755608,-46952.35,-34625.53,-52802.9,-39396.363,-16901.693,-39032.84,-39328.25,-28799.195
1222038.2263755582,-46950.44,-34626.14,-52803.633,-39396.973,-16905.762,-39034.87,-39333.54,-28806.885
1222038.2303755553,-46945.926,-34625.246,-52803.184,-39396.402,-16904.135,-39035.24,-39332.4,-28807.414
1222038.2343755527,-46945.64,-34623.863,-52802.004,-39395.996,-16901.734,-39032.676,-39326.457,-28798.3
1222038.2383755501,-46946.535,-34624.715,-52800.008,-39395.305,-16902.426,-39030.844,-39322.39,-28788.371
1222038.2423755473,-46949.79,-34629.723,-52801.92,-39395.996,-16902.914,-39030.926,-39320.8,-28783.53
1222038.2463755447,-46950.44,-34630.168,-52803.55,-39396.28,-16903.768,-39033.246,-39321.74,-28785.076
1222038.250375542,-46946.453,-34626.223,-52803.305,-39395.184,-16901.611,-39034.06,-39321.414,-28784.791
1222038.2543755393,-46947.51,-34625.57,-52804.242,-39394.938,-16900.146,-39033.246,-39318.2,-28782.797
1222038.2583755367,-46948.812,-34625.734,-52805.625,-39395.55,-16899.334,-39031.82,-39317.914,-28786.338
1222038.262375534,-46945.844,-34624.43,-52805.3,-39395.59,-16898.193,-39031.656,-39321.98,-28793.621
1222038.2663755312,-46948.12,-34628.38,-52805.83,-39396.04,-16900.514,-39032.918,-39321.414,-28787.477
1222038.2703755286,-46942.18,-34623.047,-52801.598,-39393.68,-16898.031,-39031.293,-39317.18,-28787.11
1222038.274375526,-46934.98,-34620.242,-52797.812,-39392.05,-16895.02,-39029.258,-39313.19,-28788.453
1222038.2783755232,-46934.285,-34618.695,-52796.1,-39392.742,-16896.363,-39030.113,-39313.723,-28785.28
1222038.2823755206,-46935.06,-34618.164,-52796.47,-39394.207,-16895.184,-39032.676,-39317.71,-28782.635
1222038.2863755177,-46935.996,-34621.297,-52798.543,-39394.574,-16895.71,-39034.098,-39320.8,-28789.715
1222038.2903755151,-46934.246,-34619.223,-52797.934,-39392.863,-16896.648,-39034.426,-39318.402,-28793.986
1222038.2943755125,-46932.09,-34616.293,-52797.0,-39391.52,-16895.143,-39034.02,-39314.94,-28791.22
1222038.2983755097,-46934.082,-34619.71,-52798.504,-39392.703,-16894.734,-39032.715,-39313.19,-28783.855
1222038.302375507,-46934.98,-34620.523,-52798.83,-39393.35,-16893.758,-39032.473,-39315.145,-28784.588
1222038.3063755045,-46933.92,-34618.45,-52798.625,-39393.066,-16894.207,-39034.383,-39319.336,-28789.512
1222038.3103755016,-46930.586,-34617.27,-52796.797,-39391.195,-16895.996,-39032.84,-39316.977,-28788.535
1222038.314375499,-46926.883,-34618.613,-52793.99,-39389.977,-16897.746,-39033.043,-39316.773,-28788.818
1222038.3183754964,-46932.617,-34622.113,-52794.19,-39390.3,-16897.95,-39033.285,-39318.727,-28792.115
1222038.3223754936,-46935.14,-34622.805,-52794.56,-39391.562,-16899.902,-39034.71,-39321.13,-28796.143
1222038.326375491,-46932.09,-34620.89,-52790.73,-39390.098,-16900.066,-39035.523,-39321.74,-28793.295
1222038.3303754884,-46933.84,-34624.88,-52792.44,-39390.504,-16900.676,-39035.81,-39318.117,-28790.732
1222038.3343754855,-46938.926,-34627.44,-52795.047,-39392.945,-16901.938,-39034.914,-39315.758,-28790.812
1222038.338375483,-46943.645,-34627.156,-52795.535,-39392.66,-16900.473,-39032.918,-39315.43,-28791.912
1222038.3423754803,-46945.56,-34626.465,-52796.797,-39392.742,-16896.973,-39034.18,-39318.402,-28789.836
1222038.3463754775,-46943.605,-34625.773,-52798.586,-39393.434,-16896.404,-39035.605,-39320.64,-28791.953
1222038.350375475,-46938.52,-34626.75,-52797.566,-39392.863,-16898.723,-39035.36,-39317.426,-28788.047
1222038.3543754723,-46936.566,-34626.305,-52794.07,-39391.48,-16900.838,-39035.688,-39315.023,-28791.953
1222038.3583754695,-46936.65,-34625.773,-52790.49,-39390.668,-16901.611,-39035.117,-39316.082,-28796.469
1222038.3623754669,-46935.59,-34625.773,-52787.11,-39390.34,-16900.35,-39033.53,-39313.316,-28787.191
1222038.3663754642,-46936.89,-34625.816,-52785.89,-39389.61,-16897.625,-39034.344,-39312.906,-28784.629
1222038.3703754614,-46937.297,-34625.938,-52785.08,-39389.406,-16896.852,-39033.53,-39310.59,-28781.982
1222038.3743754588,-46937.91,-34626.63,-52785.848,-39390.22,-16898.275,-39031.7,-39310.26,-28786.053
1222038.3783754562,-46937.99,-34627.81,-52785.81,-39388.797,-16896.2,-39031.168,-39312.297,-28785.156
1222038.3823754534,-46937.91,-34629.64,-52785.93,-39388.715,-16895.996,-39030.234,-39312.01,-28783.652
1222038.3863754508,-46938.56,-34630.7,-52787.965,-39389.527,-16896.16,-39031.496,-39313.03,-28784.344
1222038.390375448,-46933.88,-34628.785,-52788.984,-39388.836,-16896.12,-39032.188,-39311.523,-28784.506
1222038.3943754453,-46933.92,-34634.684,-52789.473,-39390.504,-16897.828,-39030.723,-39309.41,-28783.326
1222038.3983754427,-46934.652,-34638.797,-52789.145,-39392.863,-16899.09,-39031.74,-39311.81,-28782.635
1222038.4023754399,-46932.945,-34639.61,-52787.234,-39393.35,-16900.799,-39030.926,-39313.152,-28779.95
1222038.4063754373,-46930.22,-34641.848,-52787.56,-39393.637,-16905.438,-39033.49,-39319.176,-28789.43
1222038.4103754347,-46925.496,-34641.03,-52785.117,-39391.113,-16907.309,-39034.63,-39320.355,-28790.854
1222038.4143754318,-46921.227,-34640.87,-52783.652,-39389.04,-16907.918,-39034.508,-39319.824,-28785.482
1222038.4183754292,-46921.67,-34641.766,-52781.58,-39387.453,-16907.594,-39033.69,-39321.25,-28787.354
1222038.4223754266,-46922.69,-34644.695,-52783.816,-39389.49,-16908.244,-39034.71,-39324.75,-28782.39
1222038.4263754238,-46923.137,-34645.305,-52786.95,-39390.504,-16908.855,-39035.117,-39325.32,-28782.309
1222038.4303754212,-46918.945,-34641.277,-52786.906,-39388.266,-16906.088,-39034.098,-39323.69,-28786.785
1222038.4343754186,-46916.344,-34641.24,-52787.883,-39386.72,-16905.396,-39032.473,-39318.32,-28775.596
1222038.4383754157,-46918.99,-34644.086,-52788.574,-39388.43,-16906.373,-39029.42,-39317.63,-28774.17
1222038.4423754131,-46919.477,-34642.008,-52789.023,-39389.85,-16907.797,-39027.47,-39321.86,-28780.682
1222038.4463754105,-46919.395,-34643.23,-52787.64,-39390.504,-16909.668,-39027.344,-39322.67,-28779.176
1222038.4503754077,-46918.62,-34645.02,-52786.38,-39390.34,-16911.418,-39030.07,-39324.42,-28786.5
1222038.454375405,-46917.93,-34645.793,-52784.75,-39389.12,-16910.604,-39030.805,-39325.523,-28794.639
1222038.4583754025,-46918.62,-34645.47,-52783.246,-39388.31,-16909.465,-39029.38,-39324.18,-28786.297
1222038.4623753997,-46917.402,-34644.246,-52781.453,-39387.25,-16907.43,-39030.68,-39325.44,-28783.652
1222038.466375397,-46914.836,-34642.54,-52780.64,-39386.76,-16906.78,-39031.58,-39324.79,-28783.447
1222038.4703753944,-46910.566,-34640.137,-52781.047,-39385.457,-16908.732,-39032.758,-39321.168,-28779.217
1222038.4743753916,-46910.156,-34639.773,-52781.902,-39385.254,-16912.883,-39032.39,-39320.72,-28776.123
1222038.478375389,-46910.81,-34641.766,-52782.758,-39385.867,-16910.523,-39031.94,-39324.06,-28778.525
1222038.4823753864,-46908.855,-34639.65,-52782.15,-39384.645,-16907.553,-39030.965,-39326.418,-28781.17
1222038.4863753836,-46909.465,-34638.55,-52784.547,-39385.133,-16904.338,-39032.51,-39328.33,-28780.518
1222038.490375381,-46906.7,-34636.23,-52785.32,-39384.89,-16903.932,-39032.473,-39325.32,-28777.629
1222038.4943753781,-46904.094,-34636.72,-52783.613,-39384.195,-16905.273,-39032.023,-39320.355,-28774.822
1222038.4983753755,-46900.676,-34632.652,-52780.234,-39384.035,-16902.303,-39031.047,-39318.81,-28772.625
1222038.502375373,-46900.188,-34629.68,-52776.938,-39383.87,-16901.082,-39030.4,-39319.906,-28772.705
1222038.50637537,-46901.816,-34630.902,-52776.53,-39382.977,-16902.182,-39031.82,-39324.344,-28780.803
1222038.5103753675,-46902.59,-34634.97,-52776.45,-39382.406,-16905.193,-39032.43,-39324.707,-28776.408
1222038.5143753649,-46903.117,-34636.883,-52776.246,-39380.535,-16906.82,-39033.12,-39325.035,-28776.043
1222038.518375362,-46903.08,-34639.324,-52777.67,-39380.7,-16907.553,-39033.043,-39326.863,-28776.693
1222038.5223753594,-46909.14,-34643.27,-52779.42,-39381.96,-16909.75,-39034.305,-39330.566,-28781.78
1222038.5263753568,-46913.13,-34646.363,-52781.66,-39381.348,-16910.97,-39034.668,-39332.234,-28784.385
1222038.530375354,-46909.668,-34643.027,-52782.31,-39379.844,-16909.953,-39033.57,-39328.492,-28778.77
1222038.5343753514,-46911.094,-34644.41,-52782.39,-39378.418,-16912.639,-39031.7,-39323.49,-28771.852
1222038.5383753488,-46907.555,-34643.84,-52780.4,-39378.01,-16912.762,-39032.39,-39325.848,-28781.006
1222038.542375346,-46905.03,-34645.633,-52779.176,-39379.56,-16911.5,-39034.098,-39329.305,-28785.361
1222038.5463753433,-46905.477,-34645.836,-52780.805,-39381.473,-16912.557,-39034.914,-39330.484,-28787.639
1222038.5503753407,-46902.957,-34643.72,-52780.887,-39382.367,-16911.785,-39032.633,-39325.6,-28786.053
1222038.554375338,-46902.547,-34643.92,-52782.43,-39382.652,-16914.145,-39031.453,-39324.18,-28782.879
1222038.5583753353,-46905.965,-34646.363,-52781.82,-39383.344,-16913.86,-39031.7,-39326.418,-28782.676
1222038.5623753327,-46905.4,-34646.242,-52780.844,-39382.652,-16911.865,-39031.535,-39326.62,-28782.023
1222038.5663753299,-46904.91,-34643.11,-52782.023,-39381.676,-16908.855,-39033.57,-39328.33,-28786.133
1222038.5703753273,-46906.984,-34642.418,-52782.918,-39380.656,-16913.738,-39034.098,-39327.066,-28782.227
1222038.5743753246,-46904.543,-34642.742,-52783.082,-39379.273,-16913.086,-39034.87,-39327.23,-28784.506
1222038.5783753218,-46904.746,-34644.613,-52783.895,-39378.824,-16912.842,-39034.63,-39328.168,-28789.47
1222038.5823753192,-46903.16,-34642.703,-52784.02,-39376.465,-16909.22,-39033.043,-39328.492,-28789.43
1222038.5863753166,-46902.547,-34640.953,-52783.895,-39376.06,-16908.611,-39032.145,-39327.92,-28784.465
1222038.5903753138,-46904.746,-34640.953,-52783.125,-39375.855,-16907.512,-39029.867,-39323.57,-28780.396
1222038.5943753112,-46906.82,-34639.85,-52782.473,-39375.285,-16905.72,-39029.42,-39322.062,-28780.762
1222038.5983753086,-46907.84,-34640.18,-52780.844,-39376.06,-16907.064,-39031.008,-39324.625,-28780.518
1222038.6023753057,-46909.465,-34644.004,-52783.977,-39377.727,-16910.076,-39032.918,-39326.66,-28781.861
1222038.6063753031,-46908.816,-34643.516,-52785.28,-39378.258,-16911.988,-39034.098,-39327.68,-28785.482
1222038.6103753003,-46907.918,-34644.125,-52783.082,-39376.668,-16910.035,-39033.69,-39324.137,-28781.006
1222038.6143752977,-46907.637,-34644.656,-52782.637,-39376.793,-16911.377,-39033.652,-39321.535,-28780.967
1222038.618375295,-46909.18,-34646.89,-52782.594,-39376.26,-16909.627,-39032.96,-39320.844,-28782.756
1222038.6223752922,-46911.01,-34648.03,-52783.53,-39376.14,-16909.18,-39033.082,-39321.37,-28778.605
1222038.6263752896,-46908.773,-34646.566,-52781.94,-39374.023,-16908.855,-39033.45,-39320.8,-28772.096
1222038.630375287,-46907.31,-34644.9,-52782.797,-39373.94,-16907.594,-39033.45,-39318.156,-28775.676
1222038.6343752842,-46908.855,-34641.727,-52782.43,-39373.535,-16905.682,-39034.098,-39315.918,-28778.32
1222038.6383752816,-46904.785,-34640.055,-52780.113,-39372.6,-16903.85,-39033.69,-39315.473,-28773.643
1222038.642375279,-46901.125,-34637.25,-52779.746,-39373.17,-16903.32,-39033.406,-39316.082,-28772.055
1222038.6463752761,-46899.742,-34635.38,-52778.973,-39373.21,-16903.076,-39033.855,-39316.367,-28767.986
1222038.6503752735,-46897.3,-34634.766,-52778.688,-39372.76,-16902.344,-39034.668,-39313.926,-28765.951
1222038.654375271,-46897.34,-34637.695,-52778.65,-39372.195,-16904.664,-39032.96,-39311.28,-28772.137
1222038.658375268,-46901.004,-34642.17,-52781.332,-39372.844,-16910.482,-39032.555,-39315.96,-28779.623
1222038.6623752655,-46903.2,-34643.637,-52783.33,-39373.94,-16910.645,-39034.71,-39319.824,-28783.408
1222038.666375263,-46902.547,-34642.62,-52784.668,-39375.043,-16909.832,-39034.508,-39318.117,-28780.559
1222038.67037526,-46902.914,-34645.875,-52785.688,-39375.043,-16910.889,-39033.043,-39313.316,-28774.008
1222038.6743752575,-46905.355,-34650.15,-52787.723,-39375.45,-16910.889,-39034.18,-39313.07,-28778.77
1222038.6783752549,-46905.684,-34646.73,-52786.543,-39374.676,-16908.732,-39033.45,-39315.227,-28779.541
1222038.682375252,-46906.58,-34643.72,-52786.055,-39375.406,-16908.691,-39035.44,-39318.93,-28779.867
1222038.6863752494,-46902.957,-34640.79,-52783.734,-39372.6,-16911.092,-39036.01,-39318.523,-28771.363
1222038.6903752468,-46901.125,-34644.656,-52782.88,-39371.707,-16908.57,-39036.46,-39317.18,-28774.09
1222038.694375244,-46904.258,-34648.234,-52784.18,-39372.195,-16908.367,-39037.355,-39314.984,-28779.99
1222038.6983752414,-46905.316,-34649.902,-52786.01,-39372.76,-16910.238,-39038.29,-39317.996,-28780.844
1222038.7023752388,-46907.51,-34650.027,-52789.836,-39374.594,-16911.256,-39039.676,-39323.0,-28783.53
1222038.706375236,-46904.867,-34648.48,-52790.45,-39373.58,-16910.97,-39039.55,-39322.43,-28781.21
1222038.7103752333,-46899.863,-34647.055,-52787.76,-39370.65,-16907.838,-39036.62,-39316.61,-28776.205
1222038.7143752305,-46899.05,-34644.246,-52787.598,-39369.305,-16903.688,-39035.035,-39312.625,-28774.17
1222038.7183752279,-46899.66,-34643.72,-52787.965,-39367.84,-16898.885,-39036.01,-39316.61,-28781.21
1222038.7223752253,-46900.066,-34643.598,-52786.95,-39367.676,-16899.252,-39038.74,-39320.68,-28783.244
1222038.7263752224,-46899.457,-34640.586,-52785.035,-39366.13,-16897.217,-39038.453,-39318.645,-28778.973
1222038.7303752198,-46897.504,-34639.445,-52782.227,-39364.055,-16899.049,-39038.13,-39315.227,-28779.176
1222038.7343752172,-46898.152,-34644.043,-52781.008,-39364.504,-16899.984,-39037.844,-39314.535,-28782.676
1222038.7383752144,-46900.39,-34646.85,-52780.844,-39365.195,-16900.105,-39038.94,-39316.324,-28780.559
1222038.7423752118,-46903.973,-34646.363,-52781.293,-39365.195,-16900.92,-39040.203,-39319.824,-28785.361
1222038.7463752092,-46901.53,-34645.266,-52781.66,-39365.03,-16899.943,-39041.383,-39324.26,-28794.354
1222038.7503752063,-46900.676,-34647.137,-52781.66,-39365.6,-16899.455,-39042.156,-39322.51,-28790.854
1222038.7543752037,-46903.363,-34647.664,-52781.863,-39365.887,-16901.938,-39040.977,-39316.69,-28783.041
1222038.7583752011,-46905.113,-34648.438,-52782.43,-39365.887,-16905.682,-39039.594,-39315.96,-28781.373
1222038.7623751983,-46905.76,-34647.95,-52782.105,-39365.926,-16905.682,-39039.957,-39317.586,-28785.686
1222038.7663751957,-46903.77,-34647.867,-52780.316,-39366.09,-16907.39,-39041.992,-39318.688,-28786.988
1222038.770375193,-46896.04,-34645.145,-52777.184,-39363.445,-16905.07,-39043.742,-39318.074,-28783.326
1222038.7743751903,-46891.848,-34640.465,-52775.35,-39361.125,-16901.693,-39044.15,-39316.57,-28778.24
1222038.7783751877,-46891.6,-34639.08,-52773.4,-39359.133,-16899.373,-39043.094,-39314.78,-28774.496
1222038.782375185,-46889.57,-34637.94,-52773.277,-39359.418,-16897.828,-39043.01,-39313.64,-28778.973
1222038.7863751822,-46889.082,-34637.82,-52773.926,-39359.62,-16896.973,-39042.117,-39311.89,-28777.914
1222038.7903751796,-46889.812,-34639.445,-52773.723,-39359.09,-16897.299,-39043.133,-39308.555,-28770.713
1222038.794375177,-46888.875,-34640.79,-52773.52,-39359.457,-16896.525,-39041.953,-39308.15,-28771.525
1222038.7983751742,-46890.42,-34643.066,-52773.438,-39360.434,-16899.293,-39040.773,-39307.617,-28770.793
1222038.8023751716,-46893.92,-34643.84,-52775.758,-39362.633,-16902.467,-39040.49,-39308.88,-28771.525
1222038.806375169,-46894.246,-34643.555,-52777.1,-39363.895,-16899.658,-39039.633,-39310.508,-28769.898
1222038.8103751661,-46892.54,-34642.05,-52778.89,-39363.04,-16896.363,-39038.98,-39305.504,-28764.242
1222038.8143751635,-46890.42,-34640.75,-52780.438,-39362.918,-16894.166,-39038.37,-39301.027,-28763.145
1222038.8183751607,-46889.61,-34640.465,-52780.56,-39361.37,-16891.521,-39037.8,-39299.97,-28764.404
1222038.822375158,-46890.137,-34638.918,-52781.617,-39361.656,-16891.846,-39038.656,-39302.043,-28769.572
1222038.8263751555,-46891.113,-34638.59,-52783.855,-39362.47,-16892.498,-39039.715,-39301.395,-28764.73
1222038.8303751526,-46889.85,-34637.332,-52784.18,-39361.656,-16892.457,-39040.812,-39301.27,-28767.213
1222038.83437515,-46891.156,-34638.67,-52783.773,-39360.477,-16891.766,-39040.812,-39301.883,-28768.76
1222038.8383751474,-46893.8,-34638.957,-52783.082,-39361.246,-16889.445,-39041.098,-39306.805,-28774.21
1222038.8423751446,-46897.055,-34638.957,-52782.637,-39361.453,-16889.73,-39040.203,-39311.44,-28776.084
1222038.846375142,-46897.87,-34641.44,-52782.43,-39360.19,-16892.01,-39041.832,-39314.74,-28778.443
1222038.8503751394,-46892.01,-34637.41,-52777.184,-39359.133,-16889.69,-39043.785,-39314.332,-28778.484
1222038.8543751366,-46889.203,-34637.777,-52774.293,-39359.375,-16890.625,-39044.35,-39310.996,-28776.49
1222038.858375134,-46887.695,-34638.957,-52771.85,-39359.17,-16891.766,-39043.01,-39308.555,-28773.154
1222038.8623751313,-46886.23,-34635.418,-52772.79,-39359.418,-16891.846,-39042.684,-39308.555,-28763.184
1222038.8663751285,-46882.246,-34632.855,-52772.992,-39357.83,-16891.725,-39044.434,-39308.637,-28758.75
1222038.870375126,-46880.13,-34631.023,-52775.555,-39356.977,-16890.625,-39045.047,-39310.508,-28772.746
1222038.8743751233,-46884.562,-34634.195,-52780.234,-39357.707,-16889.12,-39045.695,-39312.38,-28776.205
1222038.8783751205,-46894.33,-34639.242,-52782.594,-39358.277,-16889.324,-39046.387,-39315.227,-28781.576
1222038.8823751179,-46898.64,-34640.625,-52781.617,-39359.133,-16888.713,-39047.445,-39313.52,-28776.246
1222038.8863751153,-46896.16,-34636.355,-52779.99,-39357.42,-16887.898,-39048.625,-39313.64,-28783.855
1222038.8903751124,-46896.2,-34639.12,-52779.91,-39356.527,-16891.398,-39047.812,-39309.938,-28782.635
1222038.8943751098,-46895.305,-34641.156,-52778.363,-39356.57,-16892.781,-39045.453,-39306.926,-28777.385
1222038.8983751072,-46895.145,-34642.54,-52777.14,-39356.773,-16889.934,-39042.93,-39305.22,-28773.764
1222038.9023751044,-46898.316,-34644.125,-52778.523,-39358.156,-16892.66,-39043.094,-39307.21,-28775.27
1222038.9063751018,-46896.65,-34643.23,-52779.176,-39357.992,-16892.334,-39044.56,-39309.773,-28778.646
1222038.9103750992,-46892.133,-34641.97,-52777.875,-39357.547,-16891.277,-39045.574,-39308.72,-28774.13
1222038.9143750963,-46893.883,-34645.426,-52779.91,-39357.79,-16889.893,-39046.348,-39307.008,-28771.852
1222038.9183750937,-46889.812,-34644.168,-52779.38,-39354.98,-16888.51,-39045.453,-39304.85,-28765.748
1222038.922375091,-46888.957,-34641.766,-52779.95,-39356.082,-16888.998,-39045.86,-39304.28,-28760.459
1222038.9263750883,-46892.375,-34644.125,-52781.047,-39357.953,-16890.096,-39044.027,-39299.195,-28745.973
1222038.9303750857,-46894.207,-34643.027,-52780.887,-39357.79,-16892.742,-39041.18,-39293.254,-28740.723
1222038.9343750828,-46897.258,-34643.434,-52779.5,-39357.504,-16891.643,-39038.86,-39290.0,-28744.629
1222038.9383750802,-46895.754,-34639.566,-52776.41,-39355.31,-16888.021,-39039.957,-39290.285,-28746.176
1222038.9423750776,-46893.35,-34637.492,-52773.316,-39354.41,-16885.824,-39041.63,-39293.906,-28748.535
1222038.9463750748,-46890.625,-34635.906,-52771.73,-39354.9,-16885.742,-39042.766,-39295.125,-28748.332
1222038.9503750722,-46885.62,-34632.527,-52769.9,-39354.086,-16885.783,-39044.07,-39295.125,-28750.57
1222038.9543750696,-46882.57,-34630.535,-52768.637,-39353.07,-16884.277,-39043.62,-39295.168,-28753.623
1222038.9583750668,-46883.426,-34630.37,-52768.312,-39351.97,-16885.174,-39043.336,-39297.16,-28753.094
1222038.9623750641,-46885.867,-34630.414,-52771.688,-39353.8,-16887.166,-39042.97,-39298.3,-28752.238
1222038.9663750615,-46890.91,-34634.727,-52775.027,-39355.227,-16885.54,-39043.54,-39298.137,-28757.691
1222038.9703750587,-46892.418,-34639.49,-52775.027,-39354.94,-16885.336,-39045.37,-39298.953,-28761.639
1222038.974375056,-46894.816,-34640.79,-52774.336,-39354.492,-16890.057,-39047.08,-39302.777,-28770.264
1222038.9783750535,-46900.27,-34645.914,-52775.35,-39355.957,-16893.148,-39048.504,-39307.902,-28775.352
1222038.9823750507,-46904.38,-34647.176,-52775.758,-39357.18,-16893.758,-39047.934,-39308.72,-28777.1
1222038.986375048,-46903.32,-34643.883,-52776.246,-39357.383,-16895.223,-39047.85,-39309.695,-28778.729
1222038.9903750455,-46901.004,-34643.637,-52777.957,-39356.773,-16892.742,-39047.527,-39306.277,-28775.39
1222038.9943750426,-46900.92,-34646.527,-52777.266,-39355.957,-16893.88,-39045.453,-39303.14,-28771.484
1222038.99837504,-46900.594,-34647.504,-52776.57,-39355.51,-16893.799,-39045.492,-39305.664,-28775.473
1222039.0023750374,-46902.223,-34650.105,-52779.38,-39356.16,-16895.508,-39048.3,-39309.938,-28778.973
1222039.0063750346,-46908.938,-34655.6,-52783.57,-39360.19,-16899.455,-39048.098,-39309.57,-28776.084
1222039.010375032,-46907.594,-34655.52,-52783.246,-39359.17,-16898.682,-39047.49,-39311.2,-28793.418
1222039.0143750294,-46904.746,-34651.938,-52781.58,-39356.203,-16896.973,-39046.59,-39311.16,-28794.963
1222039.0183750265,-46905.684,-34650.105,-52781.09,-39356.0,-16893.799,-39046.51,-39307.7,-28787.07
1222039.022375024,-46905.355,-34648.64,-52781.21,-39355.062,-16894.166,-39045.98,-39305.91,-28779.867
1222039.026375021,-46904.46,-34648.195,-52781.453,-39353.598,-16892.13,-39046.715,-39305.746,-28782.35
1222039.0303750185,-46903.117,-34646.77,-52779.297,-39352.5,-16889.04,-39046.184,-39302.613,-28782.635
1222039.0343750159,-46899.496,-34647.586,-52777.344,-39351.277,-16887.127,-39045.86,-39298.992,-28777.06
1222039.038375013,-46895.508,-34644.938,-52772.79,-39349.0,-16884.562,-39044.883,-39297.65,-28772.666
1222039.0423750104,-46897.625,-34644.86,-52773.684,-39351.277,-16886.11,-39047.324,-39301.27,-28774.252
1222039.0463750078,-46896.895,-34647.055,-52775.27,-39353.477,-16887.371,-39049.234,-39304.08,-28776.084
1222039.050375005,-46891.195,-34640.625,-52773.316,-39350.586,-16884.645,-39048.79,-39300.62,-28775.39
1222039.0543750024,-46886.8,-34636.395,-52769.004,-39349.0,-16880.453,-39049.03,-39296.43,-28769.98
1222039.0583749998,-46884.605,-34635.62,-52766.848,-39347.047,-16877.93,-39049.97,-39296.227,-28767.66
1222039.062374997,-46879.723,-34630.535,-52766.4,-39345.746,-16875.896,-39052.29,-39295.94,-28756.389
1222039.0663749943,-46876.18,-34626.71,-52764.65,-39343.914,-16872.479,-39051.637,-39292.97,-28753.215
1222039.0703749917,-46868.41,-34624.637,-52762.41,-39341.473,-16870.605,-39049.113,-39287.723,-28756.959
1222039.074374989,-46863.28,-34622.887,-52758.87,-39340.457,-16867.676,-39047.363,-39284.586,-28750.855
1222039.0783749863,-46865.234,-34626.547,-52756.633,-39340.25,-16867.717,-39047.977,-39286.746,-28748.455
1222039.0823749837,-46864.992,-34630.086,-52756.836,-39341.35,-16871.705,-39049.156,-39290.895,-28752.32
1222039.0863749809,-46865.645,-34633.426,-52758.465,-39343.63,-16876.994,-39050.906,-39297.77,-28756.186
1222039.0903749783,-46865.48,-34639.65,-52757.773,-39344.035,-16880.738,-39050.824,-39299.36,-28755.453
1222039.0943749757,-46861.94,-34639.16,-52757.49,-39343.63,-16878.215,-39050.984,-39302.816,-28761.475
1222039.0983749728,-46866.62,-34642.54,-52761.56,-39345.055,-16880.656,-39052.164,-39308.758,-28765.422
1222039.1023749702,-46871.664,-34649.984,-52764.242,-39347.82,-16884.93,-39050.293,-39309.613,-28759.033
1222039.1063749676,-46871.707,-34650.35,-52764.73,-39347.047,-16886.068,-39047.895,-39308.92,-28760.824
1222039.1103749648,-46869.47,-34649.09,-52764.285,-39346.273,-16884.318,-39048.137,-39311.28,-28770.59
1222039.1143749622,-46868.574,-34649.7,-52762.13,-39345.46,-16885.377,-39046.918,-39308.27,-28769.572
1222039.1183749596,-46868.695,-34653.402,-52760.336,-39345.34,-16887.166,-39047.324,-39308.92,-28765.016
1222039.1223749567,-46869.71,-34654.543,-52760.254,-39345.99,-16890.26,-39048.137,-39315.43,-28771.484
1222039.1263749541,-46870.73,-34655.965,-52761.477,-39346.926,-16892.578,-39048.22,-39319.094,-28777.832
1222039.1303749513,-46870.484,-34657.758,-52760.664,-39346.273,-16892.049,-39047.73,-39314.414,-28771.525
1222039.1343749487,-46870.32,-34661.215,-52760.945,-39345.99,-16891.44,-39048.543,-39314.37,-28771.16
1222039.138374946,-46874.96,-34662.883,-52761.395,-39345.746,-16891.56,-39049.156,-39318.81,-28776.164
1222039.1423749432,-46876.305,-34661.746,-52760.62,-39345.99,-16890.016,-39048.586,-39319.824,-28777.223
1222039.1463749406,-46873.09,-34661.867,-52758.223,-39344.688,-16890.707,-39048.016,-39319.99,-28769.166
1222039.150374938,-46873.66,-34661.95,-52756.633,-39343.426,-16894.654,-39050.66,-39322.594,-28772.34
1222039.1543749352,-46875.69,-34663.86,-52755.414,-39341.473,-16894.857,-39052.086,-39323.0,-28772.95
1222039.1583749326,-46875.33,-34667.074,-52757.367,-39341.066,-16891.643,-39051.11,-39323.773,-28775.188
1222039.16237493,-46877.85,-34668.336,-52759.97,-39342.0,-16889.486,-39052.086,-39326.254,-28778.85
1222039.1663749272,-46877.523,-34668.17,-52760.703,-39340.74,-16888.062,-39053.836,-39327.516,-28778.646
1222039.1703749245,-46876.668,-34667.97,-52761.965,-39340.293,-16889.283,-39054.242,-39325.766,-28776.896
1222039.174374922,-46874.758,-34666.91,-52760.785,-39339.887,-16891.846,-39053.387,-39323.203,-28776.938
1222039.178374919,-46875.246,-34669.15,-52760.906,-39340.617,-16894.979,-39052.41,-39322.957,-28778.729
1222039.1823749165,-46879.52,-34671.305,-52762.047,-39342.33,-16896.729,-39051.395,-39323.69,-28777.467
1222039.186374914,-46879.56,-34668.945,-52763.43,-39342.203,-16894.125,-39051.598,-39325.684,-28781.17
1222039.190374911,-46879.965,-34670.168,-52763.633,-39339.97,-16891.521,-39051.473,-39326.5,-28787.72
1222039.1943749085,-46879.273,-34670.535,-52762.74,-39338.46,-16891.684,-39050.133,-39324.832,-28783.123
1222039.1983749059,-46882.0,-34671.793,-52764.0,-39339.97,-16894.125,-39049.97,-39325.156,-28779.746
1222039.202374903,-46884.035,-34673.707,-52765.75,-39340.293,-16893.19,-39048.953,-39322.55,-28780.07
1222039.2063749004,-46879.234,-34671.062,-52765.06,-39339.887,-16892.049,-39048.137,-39319.46,-28782.023
1222039.2103748978,-46873.82,-34668.582,-52763.836,-39339.805,-16894.695,-39049.234,-39318.2,-28783.203
1222039.214374895,-46874.715,-34670.168,-52760.99,-39339.113,-16895.387,-39049.645,-39314.414,-28778.117
1222039.2183748924,-46872.316,-34666.63,-52757.406,-39337.04,-16893.19,-39048.016,-39313.395,-28769.98
1222039.2223748898,-46869.957,-34663.13,-52756.473,-39336.914,-16893.19,-39047.812,-39312.906,-28769.41
1222039.226374887,-46870.934,-34663.535,-52757.895,-39337.16,-16893.148,-39048.383,-39310.996,-28763.307
1222039.2303748843,-46868.004,-34659.71,-52757.203,-39336.14,-16889.934,-39047.324,-39307.414,-28757.977
1222039.2343748815,-46864.87,-34658.082,-52755.656,-39334.92,-16889.404,-39047.04,-39305.95,-28763.348
1222039.238374879,-46864.87,-34657.96,-52754.965,-39336.02,-16889.73,-39048.137,-39307.457,-28759.36
1222039.2423748763,-46863.973,-34657.797,-52755.332,-39335.777,-16889.242,-39048.098,-39308.066,-28758.098
1222039.2463748734,-46865.074,-34660.28,-52756.062,-39336.754,-16892.213,-39048.22,-39308.434,-28758.018
1222039.2503748708,-46863.812,-34661.336,-52756.473,-39334.84,-16893.678,-39050.66,-39310.387,-28762.86
1222039.2543748682,-46867.35,-34665.69,-52758.26,-39335.004,-16896.852,-39052.86,-39311.85,-28763.104
1222039.2583748654,-46872.234,-34668.01,-52758.223,-39335.53,-16898.072,-39052.164,-39314.94,-28766.684
1222039.2623748628,-46874.15,-34668.457,-52758.586,-39336.02,-16897.34,-39050.293,-39316.043,-28762.004
1222039.2663748602,-46875.45,-34667.32,-52760.824,-39336.71,-16898.438,-39050.824,-39316.57,-28761.639
1222039.2703748574,-46876.14,-34669.273,-52762.13,-39336.223,-16898.846,-39050.78,-39316.043,-28766.154
1222039.2743748548,-46877.727,-34670.86,-52761.72,-39334.88,-16900.96,-39050.863,-39317.71,-28766.195
1222039.2783748521,-46881.594,-34670.98,-52761.312,-39333.742,-16898.113,-39052.613,-39319.95,-28769.41
1222039.2823748493,-46886.64,-34671.836,-52763.266,-39335.043,-16896.729,-39055.42,-39324.625,-28778.973
1222039.2863748467,-46885.703,-34669.19,-52763.51,-39334.758,-16896.525,-39057.496,-39327.23,-28781.738
1222039.290374844,-46884.688,-34669.68,-52763.348,-39334.84,-16895.63,-39057.78,-39324.3,-28773.846
1222039.2943748413,-46886.64,-34675.17,-52762.695,-39334.555,-16896.973,-39055.867,-39319.582,-28773.643
1222039.2983748387,-46881.39,-34672.61,-52760.094,-39331.95,-16893.393,-39055.42,-39322.145,-28784.668
1222039.302374836,-46880.453,-34669.15,-52759.035,-39330.73,-16893.148,-39057.047,-39323.773,-28784.262
1222039.3063748332,-46877.605,-34666.383,-52758.344,-39330.895,-16890.992,-39056.723,-39320.355,-28780.193
1222039.3103748306,-46874.27,-34665.49,-52757.69,-39330.08,-16888.875,-39054.324,-39313.68,-28772.055
1222039.314374828,-46874.637,-34665.57,-52756.39,-39329.266,-16892.334,-39052.246,-39307.742,-28766.887
1222039.3183748252,-46875.043,-34664.633,-52755.086,-39329.1,-16892.049,-39051.72,-39306.766,-28766.643
1222039.3223748226,-46875.816,-34662.477,-52756.836,-39329.305,-16888.51,-39052.652,-39308.15,-28763.916
1222039.32637482,-46877.32,-34663.086,-52759.848,-39329.062,-16889.242,-39053.062,-39310.14,-28767.822
1222039.3303748171,-46874.637,-34662.926,-52760.38,-39328.086,-16888.021,-39052.652,-39311.28,-28770.387
1222039.3343748145,-46873.58,-34660.81,-52759.156,-39325.195,-16886.963,-39053.836,-39311.566,-28768.516
1222039.338374812,-46873.13,-34659.996,-52756.836,-39324.016,-16886.883,-39054.77,-39311.605,-28768.596
1222039.342374809,-46875.367,-34662.516,-52755.902,-39325.44,-16888.428,-39055.95,-39311.402,-28770.06
1222039.3463748065,-46876.875,-34664.266,-52758.06,-39326.785,-16889.12,-39055.42,-39309.207,-28768.23
1222039.3503748036,-46879.355,-34666.06,-52759.89,-39327.555,-16893.758,-39053.914,-39307.21,-28767.945
1222039.354374801,-46877.2,-34666.668,-52760.582,-39328.004,-16893.514,-39053.02,-39304.688,-28767.701
1222039.3583747984,-46878.297,-34668.582,-52761.273,-39328.574,-16892.701,-39052.29,-39304.08,-28763.672
1222039.3623747956,-46879.844,-34669.76,-52762.25,-39328.33,-16891.113,-39053.71,-39305.094,-28761.354
1222039.366374793,-46877.08,-34665.527,-52763.062,-39327.23,-16890.137,-39054.934,-39307.008,-28767.66
1222039.3703747904,-46878.38,-34667.523,-52762.13,-39325.727,-16888.428,-39055.707,-39304.89,-28767.945
1222039.3743747876,-46876.914,-34667.727,-52760.336,-39324.3,-16887.615,-39055.79,-39303.348,-28763.998
1222039.378374785,-46877.035,-34667.523,-52759.44,-39323.977,-16889.08,-39055.83,-39304.324,-28760.05
1222039.3823747823,-46880.047,-34673.543,-52761.07,-39325.523,-16891.521,-39056.766,-39305.543,-28763.389
1222039.3863747795,-46885.664,-34678.14,-52762.86,-39328.004,-16897.299,-39055.38,-39304.566,-28766.277
1222039.390374777,-46887.29,-34679.527,-52762.9,-39328.94,-16898.234,-39055.055,-39303.062,-28768.678
1222039.3943747743,-46883.586,-34676.35,-52762.086,-39326.742,-16895.63,-39056.6,-39305.746,-28771.934
1222039.3983747715,-46882.324,-34675.457,-52760.99,-39324.91,-16893.107,-39057.984,-39309.082,-28773.275
1222039.4023747689,-46884.2,-34675.133,-52763.023,-39325.848,-16893.352,-39060.14,-39309.938,-28769.572
1222039.4063747663,-46879.234,-34671.184,-52762.29,-39324.79,-16890.951,-39058.92,-39307.13,-28766.113
1222039.4103747634,-46877.566,-34667.48,-52761.72,-39323.65,-16888.63,-39056.64,-39302.98,-28766.195
1222039.4143747608,-46877.32,-34669.312,-52761.395,-39323.73,-16887.818,-39056.152,-39301.598,-28773.234
1222039.4183747582,-46879.355,-34672.73,-52761.965,-39324.18,-16889.363,-39057.293,-39303.957,-28770.63
1222039.4223747554,-46880.74,-34674.156,-52762.004,-39323.406,-16889.934,-39057.945,-39305.992,-28769.166
1222039.4263747528,-46882.285,-34675.05,-52763.348,-39323.49,-16891.969,-39059.695,-39308.023,-28772.828
1222039.4303747502,-46882.164,-34672.12,-52762.41,-39323.527,-16887.898,-39060.14,-39305.055,-28763.998
1222039.4343747473,-46880.21,-34670.613,-52761.68,-39322.062,-16886.963,-39058.676,-39300.62,-28758.994
1222039.4383747447,-46880.656,-34670.047,-52760.254,-39322.55,-16885.783,-39058.51,-39301.15,-28768.271
1222039.4423747421,-46882.69,-34667.523,-52760.457,-39323.773,-16886.15,-39058.797,-39300.008,-28763.021
1222039.4463747393,-46881.145,-34669.273,-52761.68,-39323.285,-16886.027,-39059.285,-39298.953,-28759.562
1222039.4503747367,-46878.5,-34670.86,-52761.516,-39322.47,-16886.475,-39058.066,-39295.25,-28761.924
1222039.4543747338,-46875.938,-34669.11,-52760.457,-39321.574,-16881.877,-39056.766,-39290.12,-28750.773
1222039.4583747312,-46875.816,-34665.812,-52760.38,-39321.13,-16878.541,-39056.355,-39289.957,-28753.215
1222039.4623747286,-46874.84,-34665.773,-52760.742,-39322.062,-16880.047,-39058.92,-39297.65,-28765.586
1222039.4663747258,-46872.438,-34668.01,-52760.133,-39322.836,-16883.18,-39060.63,-39301.188,-28765.3
1222039.4703747232,-46876.668,-34670.98,-52762.37,-39323.855,-16884.848,-39060.344,-39298.383,-28763.836
1222039.4743747206,-46880.13,-34672.895,-52762.82,-39323.406,-16887.86,-39059.49,-39296.633,-28763.55
1222039.4783747178,-46877.117,-34672.406,-52761.68,-39322.31,-16886.475,-39060.305,-39298.465,-28767.375
1222039.4823747152,-46878.906,-34673.3,-52761.477,-39322.715,-16885.742,-39059.285,-39297.85,-28767.13
1222039.4863747125,-46882.367,-34674.645,-52761.76,-39322.957,-16885.742,-39058.797,-39295.207,-28762.656
1222039.4903747097,-46880.168,-34671.387,-52760.457,-39321.902,-16882.61,-39058.72,-39291.18,-28758.79
1222039.494374707,-46872.6,-34666.953,-52757.734,-39318.605,-16879.762,-39058.066,-39288.574,-28755.209
1222039.4983747045,-46869.062,-34661.62,-52756.227,-39317.71,-16877.605,-39060.508,-39292.195,-28759.441
1222039.5023747017,-46876.668,-34663.98,-52758.26,-39319.664,-16881.47,-39060.1,-39295.33,-28762.371
1222039.506374699,-46882.855,-34671.062,-52760.945,-39322.062,-16887.94,-39060.02,-39294.027,-28760.986
1222039.5103746965,-46883.63,-34671.633,-52762.94,-39323.12,-16888.387,-39059.49,-39289.836,-28755.576
1222039.5143746936,-46887.047,-34671.387,-52763.145,-39321.13,-16884.93,-39058.88,-39284.914,-28747.6
1222039.518374691,-46888.594,-34666.63,-52762.94,-39320.355,-16880.982,-39056.97,-39284.953,-28746.787
1222039.5223746884,-46889.73,-34666.87,-52764.527,-39321.25,-16879.395,-39059.082,-39289.31,-28750.082
1222039.5263746856,-46890.83,-34666.3,-52765.586,-39321.492,-16878.297,-39061.566,-39290.242,-28745.158
1222039.530374683,-46884.277,-34663.94,-52761.8,-39320.027,-16877.117,-39059.207,-39288.21,-28750.611
1222039.5343746804,-46878.01,-34659.832,-52757.895,-39317.547,-16875.896,-39058.676,-39286.906,-28754.924
1222039.5383746775,-46882.69,-34662.723,-52757.324,-39316.69,-16873.088,-39059.33,-39287.965,-28752.482
1222039.542374675,-46888.31,-34664.715,-52758.465,-39317.668,-16874.879,-39061.28,-39289.105,-28753.215
1222039.5463746723,-46889.85,-34666.465,-52760.38,-39318.402,-16876.668,-39062.543,-39291.75,-28759.441
1222039.5503746695,-46887.29,-34662.844,-52760.215,-39316.45,-16876.547,-39062.34,-39288.902,-28753.338
1222039.554374667,-46882.49,-34660.156,-52758.223,-39314.496,-16875.896,-39063.316,-39287.07,-28743.857
1222039.558374664,-46882.164,-34659.586,-52755.902,-39313.844,-16874.92,-39063.76,-39286.54,-28739.014
1222039.5623746614,-46873.25,-34647.543,-52752.645,-39312.543,-16871.785,-39064.78,-39287.395,-28741.293
1222039.5663746588,-46862.227,-34635.99,-52750.246,-39310.59,-16869.182,-39064.984,-39288.004,-28753.297
1222039.570374656,-46857.75,-34639.566,-52749.188,-39309.57,-16868.979,-39063.883,-39284.832,-28752.85
1222039.5743746534,-46825.93,-34623.25,-52745.527,-39304.566,-16869.67,-39065.105,-39285.605,-28754.559
1222039.5783746508,-46856.65,-34633.953,-52748.535,-39308.35,-16869.182,-39063.19,-39283.53,-28747.111
1222039.582374648,-46841.555,-34621.297,-52747.03,-39306.234,-16867.635,-39064.332,-39284.098,-28743.205
1222039.5863746454,-46844.523,-34625.938,-52749.27,-39306.805,-16868.572,-39067.344,-39289.227,-28755.047
1222039.5903746428,-46869.02,-34646.77,-52757.0,-39311.32,-16868.693,-39064.535,-39285.727,-28753.012
1222039.59437464,-46898.848,-34659.18,-52758.992,-39314.617,-16870.443,-39062.297,-39280.273,-28745.281
1222039.5983746373,-46904.95,-34662.965,-52759.848,-39315.145,-16869.305,-39061.77,-39279.055,-28741.74
1222039.6023746347,-46894.9,-34654.46,-52758.426,-39314.13,-16871.582,-39062.582,-39282.227,-28750.488
1222039.6063746319,-46882.652,-34644.777,-52755.21,-39313.52,-16871.014,-39064.58,-39283.977,-28746.908
1222039.6103746293,-46876.875,-34641.684,-52752.2,-39310.793,-16868.002,-39063.68,-39282.797,-28747.07
1222039.6143746267,-46872.76,-34641.48,-52750.203,-39308.066,-16866.62,-39062.094,-39279.34,-28739.951
1222039.6183746238,-46869.71,-34642.293,-52749.27,-39308.72,-16866.293,-39061.727,-39280.56,-28742.352
1222039.6223746212,-46867.11,-34643.15,-52751.668,-39309.45,-16868.164,-39062.703,-39285.28,-28753.867
1222039.6263746186,-46872.64,-34646.16,-52756.023,-39310.875,-16869.426,-39064.332,-39285.605,-28752.727
1222039.6303746158,-46858.035,-34636.11,-52753.34,-39308.434,-16867.92,-39065.066,-39282.473,-28745.85
1222039.6343746132,-46873.008,-34633.14,-52755.37,-39309.164,-16866.822,-39063.273,-39277.547,-28735.963
1222039.6383746106,-46890.016,-34649.54,-52757.406,-39311.605,-16867.676,-39062.95,-39277.832,-28732.219
1222039.6423746077,-46886.07,-34659.14,-52756.758,-39311.28,-16867.352,-39065.105,-39282.676,-28744.834
1222039.6463746051,-46879.477,-34654.258,-52754.477,-39310.508,-16866.09,-39065.43,-39284.832,-28753.297
1222039.6503746025,-46867.11,-34641.562,-52750.652,-39308.637,-16864.91,-39065.797,-39285.24,-28753.094
1222039.6543745997,-46854.94,-34633.953,-52745.32,-39305.137,-16863.729,-39065.31,-39283.0,-28750.814
1222039.658374597,-46840.17,-34623.617,-52740.723,-39301.188,-16861.084,-39065.918,-39282.43,-28748.129
1222039.6623745942,-46833.375,-34620.973,-52741.54,-39301.188,-16860.027,-39065.96,-39282.023,-28744.629
1222039.6663745916,-46839.4,-34617.594,-52744.305,-39302.043,-16860.19,-39066.855,-39281.414,-28741.09
1222039.670374589,-46850.06,-34624.88,-52743.53,-39302.734,-16861.451,-39067.098,-39281.58,-28740.764
1222039.6743745862,-46860.516,-34638.145,-52744.793,-39303.754,-16862.672,-39066.855,-39279.582,-28734.783
1222039.6783745836,-46856.65,-34635.094,-52744.59,-39303.426,-16858.562,-39066.12,-39282.918,-28742.31
1222039.682374581,-46852.664,-34628.582,-52746.016,-39302.816,-16855.104,-39066.652,-39288.902,-28757.61
1222039.6863745782,-46857.668,-34631.836,-52748.7,-39305.3,-16858.887,-39069.46,-39291.22,-28760.621
1222039.6903745756,-46855.43,-34632.61,-52748.902,-39303.875,-16859.742,-39068.484,-39286.785,-28759.238
1222039.694374573,-46853.516,-34629.312,-52749.676,-39301.758,-16856.771,-39068.688,-39282.594,-28753.338
1222039.69837457,-46858.4,-34630.21,-52749.758,-39301.96,-16857.38,-39071.535,-39288.7,-28755.371
1222039.7023745675,-46856.49,-34630.777,-52749.84,-39303.55,-16857.666,-39071.695,-39291.098,-28762.9
1222039.706374565,-46848.188,-34626.426,-52750.773,-39303.426,-16855.55,-39072.918,-39292.195,-28762.574
1222039.710374562,-46840.535,-34626.14,-52749.15,-39301.312,-16852.498,-39073.977,-39291.016,-28756.512
1222039.7143745595,-46852.5,-34636.516,-52747.64,-39302.652,-16854.533,-39072.184,-39286.336,-28750.57
1222039.7183745569,-46862.348,-34642.78,-52745.2,-39302.777,-16857.666,-39070.027,-39286.336,-28755.209
1222039.722374554,-46859.54,-34636.72,-52745.934,-39301.637,-16858.318,-39070.68,-39290.69,-28754.15
1222039.7263745514,-46858.156,-34630.984,-52748.17,-39299.6,-16853.271,-39070.395,-39289.594,-28749.229
1222039.7303745488,-46862.145,-34638.31,-52748.945,-39300.863,-16851.238,-39070.926,-39285.605,-28748.617
1222039.734374546,-46863.566,-34645.754,-52749.555,-39301.555,-16854.777,-39071.492,-39281.656,-28745.77
1222039.7383745434,-46858.887,-34631.188,-52746.46,-39298.504,-16845.418,-39071.29,-39281.617,-28743.49
1222039.7423745408,-46851.848,-34615.03,-52745.32,-39296.023,-16839.885,-39072.227,-39286.664,-28748.617
1222039.746374538,-46859.215,-34623.863,-52747.48,-39298.707,-16845.826,-39072.797,-39286.99,-28747.6
1222039.7503745353,-46874.31,-34641.562,-52750.53,-39302.492,-16849.488,-39071.82,-39284.223,-28747.764
1222039.7543745327,-46877.44,-34646.363,-52748.17,-39302.41,-16849.447,-39071.25,-39281.7,-28742.393
1222039.75837453,-46876.06,-34644.246,-52744.67,-39301.92,-16848.918,-39069.742,-39279.055,-28740.031
1222039.7623745273,-46875.043,-34640.055,-52746.582,-39302.125,-16848.104,-39070.598,-39280.438,-28742.066
1222039.7663745244,-46880.293,-34644.004,-52750.0,-39304.08,-16850.18,-39072.023,-39281.78,-28734.824
1222039.7703745218,-46879.438,-34645.875,-52749.715,-39303.55,-16851.238,-39072.145,-39281.7,-28735.596
1222039.7743745192,-46875.57,-34644.168,-52746.176,-39302.45,-16850.262,-39071.535,-39278.934,-28740.602
1222039.7783745164,-46877.484,-34648.805,-52745.117,-39303.266,-16853.11,-39068.766,-39278.2,-28740.805
1222039.7823745138,-46880.13,-34657.066,-52744.957,-39304.688,-16858.318,-39069.582,-39279.38,-28735.922
1222039.7863745112,-46880.13,-34656.984,-52744.957,-39304.08,-16858.357,-39071.617,-39282.105,-28734.172
1222039.7903745084,-46877.85,-34654.215,-52744.266,-39302.33,-16857.951,-39073.16,-39281.047,-28731.934
1222039.7943745058,-46876.914,-34656.82,-52742.88,-39302.492,-16858.48,-39071.656,-39281.496,-28739.584
1222039.7983745032,-46880.7,-34659.18,-52745.04,-39303.55,-16859.334,-39069.906,-39285.035,-28742.514
1222039.8023745003,-46881.348,-34658.285,-52745.242,-39303.305,-16859.09,-39071.37,-39290.977,-28741.008
1222039.8063744977,-46877.402,-34656.13,-52743.29,-39302.41,-16858.887,-39071.332,-39290.855,-28735.148
1222039.810374495,-46877.727,-34658.0,-52743.695,-39301.473,-16859.05,-39070.438,-39286.297,-28735.434
1222039.8143744923,-46882.977,-34662.234,-52743.652,-39301.84,-16862.02,-39068.688,-39283.406,-28726.4
1222039.8183744897,-46885.99,-34663.004,-52742.434,-39302.207,-16864.38,-39069.176,-39285.645,-28727.662
1222039.822374487,-46887.535,-34662.926,-52741.17,-39302.613,-16865.602,-39071.777,-39291.465,-28738.281
1222039.8263744842,-46885.457,-34662.355,-52740.684,-39303.223,-16865.805,-39071.94,-39293.863,-28742.637
1222039.8303744816,-46885.54,-34662.965,-52742.516,-39303.71,-16866.21,-39069.336,-39288.574,-28725.586
1222039.834374479,-46885.254,-34661.703,-52739.746,-39301.598,-16865.113,-39066.164,-39284.098,-28711.346
1222039.8383744762,-46886.355,-34660.688,-52739.137,-39300.17,-16862.346,-39067.426,-39290.652,-28730.51
1222039.8423744736,-46889.0,-34661.336,-52740.03,-39300.21,-16862.59,-39070.68,-39295.695,-28737.957
1222039.846374471,-46891.727,-34662.07,-52743.246,-39302.246,-16864.99,-39073.445,-39299.848,-28736.816
1222039.8503744681,-46891.316,-34663.98,-52743.043,-39302.695,-16866.7,-39072.754,-39297.895,-28736.94
1222039.8543744655,-46891.727,-34665.977,-52741.742,-39302.246,-16866.822,-39072.918,-39299.645,-28738.16
1222039.858374463,-46892.293,-34666.79,-52740.03,-39301.84,-16868.084,-39072.43,-39300.17,-28741.172
1222039.86237446,-46894.9,-34667.93,-52739.504,-39302.938,-16869.305,-39071.82,-39299.684,-28738.486
1222039.8663744575,-46894.33,-34666.098,-52739.87,-39302.492,-16869.344,-39072.754,-39299.113,-28737.875
1222039.8703744547,-46892.254,-34665.203,-52739.3,-39301.15,-16869.67,-39072.43,-39297.73,-28739.746
1222039.874374452,-46894.246,-34665.934,-52739.83,-39300.824,-16869.467,-39072.145,-39295.695,-28734.824
1222039.8783744494,-46891.4,-34661.5,-52738.12,-39299.316,-16870.076,-39071.535,-39295.816,-28738.363
1222039.8823744466,-46891.316,-34662.152,-52735.965,-39298.098,-16867.555,-39070.68,-39296.67,-28738.486
1222039.886374444,-46895.305,-34665.0,-52737.875,-39300.58,-16867.555,-39070.312,-39294.312,-28725.18
1222039.8903744414,-46896.242,-34668.254,-52739.098,-39301.555,-16869.914,-39069.46,-39291.668,-28727.744
1222039.8943744386,-46896.324,-34668.824,-52736.94,-39300.336,-16869.588,-39067.547,-39290.855,-28732.26
1222039.898374436,-46898.848,-34666.79,-52735.84,-39300.54,-16869.752,-39066.855,-39291.42,-28732.79
1222039.9023744334,-46898.03,-34669.68,-52732.992,-39301.8,-16875.203,-39069.703,-39296.023,-28736.94
1222039.9063744305,-46900.555,-34672.406,-52734.457,-39302.652,-16875.041,-39070.926,-39297.08,-28735.027
1222039.910374428,-46901.41,-34667.766,-52737.1,-39302.207,-16873.535,-39069.582,-39291.668,-28722.697
1222039.9143744253,-46898.64,-34662.723,-52737.793,-39300.293,-16871.094,-39071.047,-39291.14,-28727.174
1222039.9183744225,-46896.812,-34658.734,-52736.98,-39297.812,-16868.734,-39072.023,-39294.395,-28729.697
1222039.9223744199,-46897.87,-34656.74,-52737.145,-39297.363,-16869.752,-39071.86,-39295.9,-28725.627
1222039.9263744173,-46897.46,-34658.61,-52735.434,-39296.715,-16871.785,-39071.13,-39295.535,-28721.68
1222039.9303744144,-46897.707,-34660.645,-52732.91,-39297.527,-16873.617,-39069.38,-39290.652,-28720.379
1222039.9343744118,-46902.266,-34664.47,-52732.504,-39298.586,-16876.059,-39069.176,-39288.047,-28718.75
1222039.9383744092,-46903.65,-34662.844,-52733.523,-39297.12,-16873.21,-39071.332,-39292.887,-28715.252
1222039.9423744064,-46902.547,-34658.977,-52732.06,-39297.203,-16872.07,-39073.04,-39295.86,-28713.42
1222039.9463744038,-46903.688,-34656.008,-52733.4,-39297.12,-16869.752,-39072.633,-39294.8,-28705.04
1222039.9503744012,-46904.46,-34656.496,-52737.508,-39296.51,-16871.094,-39072.184,-39296.51,-28714.885
1222039.9543743983,-46907.27,-34655.316,-52737.918,-39295.33,-16869.832,-39074.016,-39301.23,-28733.195
1222039.9583743957,-46912.11,-34655.355,-52738.406,-39294.312,-16869.182,-39074.586,-39300.254,-28730.836
1222039.9623743931,-46914.715,-34655.926,-52738.363,-39296.145,-16870.24,-39072.715,-39297.69,-28727.906
1222039.9663743903,-46916.832,-34655.07,-52739.625,-39298.137,-16870.729,-39071.695,-39297.934,-28723.023
1222039.9703743877,-46919.434,-34655.316,-52741.78,-39298.258,-16871.826,-39073.04,-39295.816,-28718.71
1222039.974374385,-46924.645,-34654.625,-52745.2,-39298.992,-16871.297,-39074.42,-39294.598,-28718.262
1222039.9783743822,-46928.426,-34656.535,-52744.754,-39300.008,-16873.373,-39072.67,-39293.254,-28716.473
1222039.9823743796,-46926.15,-34655.887,-52741.336,-39299.03,-16874.146,-39072.145,-39294.15,-28719.117
1222039.9863743768,-46930.38,-34654.094,-52741.293,-39298.42,-16870.117,-39071.29,-39292.562,-28715.7
1222039.9903743742,-46934.695,-34653.973,-52740.926,-39298.87,-16868.408,-39072.39,-39291.42,-28718.1
1222039.9943743716,-46935.59,-34655.844,-52741.66,-39298.22,-16869.588,-39072.184,-39287.76,-28714.152
1222039.9983743688,-46936.402,-34657.84,-52740.848,-39298.137,-16870.076,-39071.82,-39286.094,-28711.387
1222040.0023743662,-46934.773,-34656.617,-52742.35,-39298.016,-16870.402,-39072.836,-39287.438,-28712.037
1222040.0063743636,-46935.996,-34656.863,-52743.855,-39297.65,-16871.379,-39073.445,-39290.324,-28720.947
1222040.0103743607,-46934.41,-34654.867,-52742.598,-39296.875,-16870.646,-39072.184,-39285.2,-28710.734
1222040.014374358,-46934.41,-34651.082,-52740.97,-39297.04,-16867.473,-39070.926,-39279.5,-28701.66
1222040.0183743555,-46938.234,-34648.6,-52741.254,-39296.387,-16863.525,-39071.25,-39281.984,-28716.96
1222040.0223743527,-46940.633,-34648.887,-52742.637,-39297.0,-16862.875,-39071.13,-39283.49,-28715.984
1222040.02637435,-46934.082,-34644.574,-52740.723,-39295.695,-16865.764,-39071.492,-39282.188,-28708.74
1222040.0303743475,-46933.23,-34644.816,-52738.69,-39294.35,-16867.066,-39072.348,-39282.105,-28709.799
1222040.0343743446,-46935.996,-34649.21,-52739.3,-39294.516,-16867.31,-39072.31,-39283.773,-28719.32
1222040.038374342,-46933.15,-34645.266,-52736.37,-39292.4,-16864.584,-39073.61,-39286.336,-28718.71
1222040.0423743394,-46933.84,-34640.668,-52737.918,-39292.48,-16859.986,-39073.69,-39282.633,-28706.87
1222040.0463743366,-46935.793,-34641.316,-52738.08,-39292.523,-16856.771,-39072.348,-39279.664,-28701.904
1222040.050374334,-46933.473,-34641.6,-52736.168,-39292.035,-16857.098,-39072.51,-39279.543,-28701.945
1222040.0543743314,-46933.92,-34642.54,-52734.336,-39291.383,-16858.074,-39072.594,-39277.67,-28703.29
1222040.0583743285,-46933.35,-34642.09,-52731.445,-39289.47,-16859.578,-39073.242,-39273.48,-28695.68
1222040.062374326,-46933.676,-34643.027,-52730.39,-39288.98,-16858.074,-39075.36,-39278.117,-28686.402
1222040.0663743233,-46935.305,-34645.957,-52731.895,-39290.445,-16860.107,-39076.945,-39284.63,-28704.387
