timestamp,Fp1,Fp2,F3,Fz,F4,Cz,Pz,Oz
1221997.5864028328,-42062.83,-33540.0,-54745.973,-41061.93,-17883.26,-38302.29,-40514.324,-30292.604
1221997.5904028302,-42059.41,-33537.395,-54745.363,-41060.793,-17883.3,-38301.473,-40512.047,-30291.709
1221997.5944028276,-42060.793,-33536.99,-54746.83,-41060.426,-17884.969,-38302.164,-40508.586,-30284.344
1221997.5984028247,-42063.316,-33539.145,-54748.21,-41061.24,-17885.418,-38302.492,-40511.76,-30291.748
1221997.602402822,-42067.79,-33544.56,-54747.805,-41062.01,-17883.424,-38302.492,-40519.816,-30303.63
1221997.6064028195,-42070.598,-33547.12,-54747.97,-41062.703,-17882.121,-38301.96,-40520.957,-30299.48
1221997.6104028167,-42071.086,-33547.65,-54749.27,-41063.234,-17879.965,-38302.98,-40513.67,-30291.992
1221997.614402814,-42073.16,-33549.887,-54750.695,-41063.19,-17879.395,-38304.117,-40506.633,-30285.727
1221997.6184028112,-42074.547,-33552.53,-54749.92,-41062.297,-17878.459,-38305.016,-40504.234,-30282.715
1221997.6224028086,-42072.184,-33550.21,-54748.008,-41062.785,-17876.629,-38304.73,-40506.43,-30277.385
1221997.626402806,-42066.895,-33545.29,-54745.04,-41062.38,-17874.268,-38303.062,-40506.062,-30274.09
1221997.6304028032,-42069.133,-33546.51,-54746.582,-41063.64,-17877.197,-38302.164,-40496.38,-30266.44
1221997.6344028006,-42073.324,-33548.18,-54748.78,-41063.723,-17879.03,-38300.945,-40486.656,-30261.191
1221997.638402798,-42075.97,-33551.312,-54747.766,-41063.723,-17880.494,-38298.91,-40485.312,-30260.459
1221997.6424027951,-42079.918,-33555.176,-54747.4,-41066.53,-17882.568,-38298.137,-40489.664,-30261.395
1221997.6464027925,-42082.6,-33559.41,-54748.58,-41068.93,-17881.715,-38300.293,-40493.33,-30263.998
1221997.65040279,-42079.957,-33555.258,-54747.355,-41065.715,-17877.523,-38302.043,-40491.7,-30269.775
1221997.654402787,-42073.855,-33550.254,-54745.16,-41062.5,-17875.0,-38303.305,-40489.95,-30273.926
1221997.6584027845,-42070.68,-33548.87,-54743.33,-41061.523,-17874.47,-38304.85,-40492.39,-30278.809
1221997.662402782,-42068.973,-33549.93,-54739.625,-41061.566,-17875.814,-38305.625,-40499.918,-30281.576
1221997.666402779,-42068.117,-33550.496,-54736.086,-41062.094,-17877.361,-38304.605,-40506.348,-30286.418
1221997.6704027764,-42065.105,-33549.766,-54735.883,-41061.605,-17878.459,-38302.492,-40501.75,-30282.756
1221997.6744027738,-42066.324,-33551.555,-54738.445,-41061.973,-17881.715,-38302.9,-40499.51,-30284.912
1221997.678402771,-42069.95,-33554.605,-54741.336,-41061.93,-17881.959,-38304.484,-40505.25,-30292.725
1221997.6824027684,-42070.598,-33554.934,-54740.887,-41062.906,-17882.771,-38305.83,-40512.332,-30293.418
1221997.6864027658,-42067.75,-33553.55,-54738.12,-41062.297,-17882.527,-38306.07,-40516.805,-30296.143
1221997.690402763,-42061.89,-33549.684,-54733.36,-41059.53,-17881.307,-38307.742,-40514.69,-30293.865
1221997.6944027604,-42060.67,-33548.625,-54733.035,-41057.535,-17879.191,-38307.984,-40508.953,-30280.396
1221997.6984027578,-42064.453,-33550.66,-54735.395,-41058.105,-17878.662,-38308.023,-40510.254,-30281.617
1221997.702402755,-42071.207,-33554.85,-54738.527,-41059.613,-17876.75,-38307.945,-40517.418,-30289.715
1221997.7064027523,-42071.902,-33553.836,-54736.9,-41060.06,-17874.756,-38305.42,-40518.434,-30285.605
1221997.7104027497,-42069.582,-33553.67,-54737.387,-41060.426,-17875.855,-38304.484,-40512.37,-30281.535
1221997.7144027469,-42073.285,-33557.13,-54744.426,-41063.477,-17880.371,-38305.094,-40506.633,-30274.902
1221997.7184027443,-42075.48,-33562.785,-54746.46,-41064.047,-17883.79,-38305.42,-40507.812,-30276.775
1221997.7224027414,-42078.043,-33565.348,-54744.957,-41064.008,-17883.545,-38304.605,-40512.82,-30278.77
1221997.7264027388,-42081.42,-33569.38,-54746.258,-41065.023,-17883.871,-38304.117,-40513.59,-30276.572
1221997.7304027362,-42081.79,-33570.11,-54745.77,-41065.023,-17883.748,-38303.1,-40507.49,-30276.084
1221997.7344027334,-42082.234,-33569.418,-54746.664,-41064.332,-17883.992,-38301.883,-40500.977,-30275.229
1221997.7384027308,-42083.824,-33572.023,-54748.742,-41064.293,-17883.465,-38302.29,-40502.605,-30278.77
1221997.7424027282,-42086.426,-33575.44,-54749.105,-41066.49,-17882.121,-38302.86,-40512.9,-30286.418
1221997.7464027253,-42085.207,-33575.195,-54747.438,-41067.383,-17883.424,-38302.004,-40519.777,-30290.691
1221997.7504027227,-42083.902,-33573.977,-54747.03,-41066.855,-17884.889,-38301.92,-40518.19,-30294.8
1221997.7544027201,-42080.812,-33572.348,-54746.95,-41064.902,-17885.498,-38301.676,-40516.277,-30299.236
1221997.7584027173,-42082.766,-33575.074,-54747.684,-41066.043,-17888.348,-38304.324,-40522.42,-30302.451
1221997.7624027147,-42084.027,-33574.668,-54745.77,-41065.348,-17886.842,-38306.113,-40530.68,-30303.63
1221997.766402712,-42081.055,-33570.883,-54743.004,-41064.74,-17883.992,-38307.047,-40536.336,-30310.832
1221997.7704027093,-42075.562,-33568.605,-54740.887,-41063.805,-17884.115,-38305.38,-40527.75,-30304.24
1221997.7744027067,-42071.414,-33565.96,-54738.0,-41061.93,-17883.139,-38304.08,-40515.42,-30293.701
1221997.778402704,-42069.703,-33561.973,-54736.695,-41061.24,-17881.715,-38304.2,-40514.895,-30290.162
1221997.7824027012,-42068.035,-33558.758,-54736.656,-41059.938,-17881.104,-38303.914,-40522.707,-30294.883
1221997.7864026986,-42068.117,-33556.926,-54736.86,-41059.246,-17880.412,-38305.016,-40531.617,-30305.95
1221997.790402696,-42072.39,-33559.57,-54738.203,-41060.67,-17881.307,-38305.83,-40530.805,-30306.846
1221997.7944026932,-42075.074,-33561.363,-54736.207,-41060.67,-17881.836,-38304.28,-40521.566,-30297.893
1221997.7984026906,-42072.51,-33559.855,-54732.707,-41059.043,-17880.25,-38304.527,-40515.625,-30286.744
1221997.802402688,-42069.54,-33556.03,-54730.594,-41058.84,-17878.988,-38304.65,-40515.707,-30280.926
1221997.8064026851,-42068.727,-33556.152,-54728.844,-41059.207,-17880.086,-38302.9,-40512.9,-30271.973
1221997.8104026825,-42066.977,-33556.766,-54726.402,-41058.27,-17881.959,-38300.54,-40500.406,-30264.08
1221997.81440268,-42064.13,-33554.934,-54724.164,-41056.48,-17880.494,-38299.113,-40488.445,-30258.75
1221997.818402677,-42063.152,-33550.78,-54723.145,-41055.176,-17876.873,-38298.668,-40485.27,-30255.9
1221997.8224026745,-42064.82,-33548.42,-54722.535,-41054.85,-17874.309,-38298.055,-40486.207,-30249.432
1221997.8264026716,-42063.03,-33546.793,-54721.355,-41054.566,-17873.455,-38297.812,-40487.02,-30249.594
1221997.830402669,-42063.19,-33547.406,-54724.406,-41056.6,-17875.123,-38298.383,-40483.4,-30253.988
1221997.8344026664,-42062.664,-33549.723,-54726.36,-41056.6,-17876.953,-38299.4,-40479.82,-30251.953
1221997.8384026636,-42064.25,-33549.684,-54727.094,-41055.543,-17878.582,-38301.15,-40484.254,-30258.018
1221997.842402661,-42069.867,-33553.184,-54727.785,-41056.766,-17880.697,-38300.21,-40490.4,-30259.766
1221997.8464026584,-42072.31,-33556.438,-54727.62,-41058.188,-17880.656,-38298.992,-40495.035,-30260.498
1221997.8504026555,-42077.11,-33560.875,-54731.73,-41059.695,-17882.324,-38301.637,-40497.684,-30265.748
1221997.854402653,-42079.793,-33564.86,-54734.906,-41060.465,-17882.121,-38305.016,-40499.555,-30269.004
1221997.8584026503,-42083.7,-33567.71,-54735.395,-41061.16,-17881.55,-38305.137,-40502.156,-30271.69
1221997.8624026475,-42088.785,-33567.586,-54734.582,-41061.688,-17882.203,-38302.29,-40506.348,-30274.74
1221997.866402645,-42090.617,-33567.18,-54733.727,-41061.727,-17879.598,-38301.8,-40507.855,-30271.201
1221997.8704026423,-42089.52,-33567.87,-54734.742,-41061.363,-17880.941,-38304.2,-40504.19,-30269.736
1221997.8744026395,-42089.926,-33568.36,-54737.1,-41061.688,-17883.383,-38303.793,-40501.383,-30272.38
1221997.8784026369,-42093.06,-33570.477,-54737.145,-41062.83,-17885.377,-38302.574,-40502.523,-30278.24
1221997.8824026342,-42094.89,-33573.855,-54735.477,-41063.152,-17885.213,-38302.164,-40509.97,-30283.814
1221997.8864026314,-42098.105,-33574.586,-54737.266,-41065.797,-17884.93,-38304.812,-40519.125,-30292.807
1221997.8904026288,-42099.527,-33575.848,-54738.61,-41066.977,-17888.348,-38306.195,-40517.254,-30291.79
1221997.8944026262,-42104.453,-33581.83,-54739.22,-41068.605,-17891.357,-38304.812,-40512.695,-30293.58
1221997.8984026234,-42105.836,-33583.254,-54741.254,-41068.074,-17895.996,-38303.184,-40513.67,-30299.44
1221997.9024026208,-42107.3,-33582.805,-54741.09,-41067.63,-17893.514,-38301.637,-40515.137,-30298.137
1221997.9064026182,-42113.12,-33586.67,-54741.7,-41068.523,-17886.598,-38301.23,-40513.754,-30300.416
1221997.9104026153,-42122.64,-33597.13,-54745.85,-41071.047,-17893.107,-38300.7,-40504.438,-30293.457
1221997.9144026127,-42128.582,-33606.527,-54747.277,-41071.047,-17897.87,-38298.707,-40494.223,-30282.676
1221997.91840261,-42117.88,-33592.49,-54742.883,-41067.79,-17890.707,-38297.61,-40493.695,-30278.281
1221997.9224026073,-42107.707,-33580.69,-54739.586,-41064.535,-17885.742,-38300.21,-40501.996,-30286.094
1221997.9264026047,-42107.465,-33580.28,-54739.707,-41065.348,-17884.277,-38302.45,-40508.504,-30300.62
1221997.9304026018,-42116.457,-33585.45,-54743.652,-41067.344,-17886.598,-38301.027,-40500.816,-30293.865
1221997.9344025992,-42127.93,-33598.43,-54748.984,-41070.11,-17891.602,-38300.62,-40492.516,-30285.28
1221997.9384025966,-42129.926,-33599.12,-54747.805,-41068.766,-17890.504,-38301.434,-40493.33,-30290.691
1221997.9424025938,-42133.63,-33602.215,-54745.566,-41068.117,-17888.387,-38301.555,-40494.223,-30285.117
1221997.9464025912,-42136.19,-33606.16,-54742.516,-41067.344,-17889.486,-38302.37,-40493.652,-30278.89
1221997.9504025886,-42133.87,-33600.953,-54741.7,-41064.902,-17885.945,-38302.9,-40491.13,-30280.396
1221997.9544025857,-42139.04,-33604.41,-54742.8,-41066.0,-17884.074,-38302.29,-40485.15,-30276.043
1221997.9584025831,-42145.996,-33612.223,-54743.9,-41065.105,-17883.748,-38301.027,-40481.85,-30271.648
1221997.9624025805,-42156.293,-33625.246,-54745.324,-41066.203,-17885.05,-38299.44,-40482.465,-30265.79
1221997.9664025777,-42169.56,-33633.87,-54746.543,-41068.973,-17884.686,-38299.03,-40484.945,-30258.994
1221997.970402575,-42172.895,-33633.14,-54749.23,-41071.25,-17883.26,-38301.027,-40482.83,-30257.773
1221997.9744025725,-42181.03,-33643.68,-54751.996,-41072.31,-17884.604,-38300.906,-40477.38,-30253.053
1221997.9784025697,-42193.688,-33654.99,-54751.426,-41071.37,-17883.748,-38298.016,-40470.38,-30240.846
1221997.982402567,-42202.19,-33663.617,-54749.39,-41072.55,-17891.033,-38297.69,-40469.523,-30231.812
1221997.9864025644,-42205.566,-33667.645,-54747.52,-41073.242,-17891.48,-38297.28,-40469.035,-30230.795
1221997.9904025616,-42210.45,-33670.086,-54749.676,-41074.383,-17887.371,-38295.453,-40462.32,-30229.656
1221997.994402559,-42220.418,-33681.48,-54753.258,-41077.434,-17888.469,-38293.62,-40454.633,-30226.848
1221997.9984025564,-42220.34,-33678.47,-54752.89,-41077.027,-17887.248,-38295.047,-40457.438,-30229.697
1221998.0024025536,-42228.07,-33681.926,-54754.6,-41076.54,-17885.498,-38292.727,-40460.207,-30233.318
1221998.006402551,-42240.48,-33692.668,-54757.12,-41079.715,-17886.598,-38290.812,-40461.184,-30229.453
1221998.0104025484,-42247.4,-33697.227,-54761.027,-41082.4,-17888.021,-38291.18,-40455.77,-30217.855
1221998.0144025455,-42247.316,-33696.86,-54763.31,-41082.4,-17887.94,-38293.336,-40454.754,-30225.586
1221998.018402543,-42251.344,-33699.42,-54764.04,-41082.723,-17888.875,-38293.62,-40460.086,-30240.805
1221998.0224025403,-42255.82,-33701.09,-54765.26,-41082.438,-17888.795,-38293.457,-40464.52,-30242.514
1221998.0264025375,-42258.06,-33704.957,-54766.113,-41083.66,-17888.469,-38293.17,-40466.594,-30247.07
1221998.0304025349,-42259.727,-33707.52,-54768.312,-41085.043,-17889.04,-38293.336,-40461.67,-30245.605
1221998.034402532,-42261.56,-33708.21,-54769.94,-41084.15,-17891.928,-38293.375,-40455.77,-30243.164
1221998.0384025294,-42261.19,-33706.746,-54769.86,-41082.805,-17891.195,-38295.37,-40456.098,-30242.96
1221998.0424025268,-42258.832,-33705.04,-54766.277,-41080.324,-17886.271,-38295.207,-40459.434,-30242.229
1221998.046402524,-42259.89,-33705.08,-54764.49,-41080.484,-17885.295,-38294.273,-40459.15,-30236.857
1221998.0504025214,-42262.37,-33708.375,-54766.24,-41083.863,-17888.754,-38294.637,-40454.957,-30229.818
1221998.0544025188,-42260.457,-33708.54,-54766.36,-41084.15,-17888.55,-38295.535,-40449.79,-30227.418
1221998.058402516,-42259.766,-33705.61,-54765.18,-41081.83,-17885.213,-38297.0,-40451.863,-30232.422
1221998.0624025133,-42261.312,-33706.87,-54764.16,-41080.363,-17883.871,-38297.812,-40455.363,-30231.365
1221998.0664025107,-42263.227,-33705.73,-54764.242,-41081.91,-17883.79,-38297.69,-40457.234,-30229.29
1221998.070402508,-42261.516,-33705.65,-54765.383,-41082.766,-17885.986,-38296.67,-40452.92,-30225.465
1221998.0744025053,-42260.215,-33704.67,-54765.137,-41081.383,-17884.807,-38295.25,-40445.926,-30219.361
1221998.0784025027,-42259.766,-33703.25,-54762.82,-41080.406,-17883.953,-38296.184,-40443.81,-30216.146
1221998.0824024999,-42258.06,-33700.24,-54759.766,-41079.996,-17880.738,-38296.67,-40446.453,-30216.025
1221998.0864024973,-42257.57,-33699.586,-54758.547,-41078.695,-17881.023,-38294.92,-40445.11,-30205.934
1221998.0904024947,-42260.01,-33700.113,-54761.438,-41081.098,-17883.953,-38294.72,-40436.93,-30201.986
1221998.0944024918,-42254.844,-33695.965,-54759.688,-41079.59,-17882.365,-38293.742,-40433.594,-30209.84
1221998.0984024892,-42252.32,-33692.383,-54755.74,-41078.043,-17881.307,-38294.11,-40436.32,-30215.049
1221998.1024024866,-42255.168,-33696.13,-54754.07,-41077.76,-17880.86,-38293.62,-40438.723,-30212.24
1221998.1064024838,-42257.773,-33697.266,-54754.07,-41078.574,-17880.209,-38292.48,-40438.926,-30202.598
1221998.1104024812,-42258.953,-33697.957,-54755.94,-41078.816,-17882.447,-38292.605,-40434.652,-30201.701
1221998.1144024786,-42259.81,-33702.72,-54754.56,-41078.695,-17885.621,-38294.92,-40432.984,-30209.717
1221998.1184024757,-42259.36,-33702.883,-54751.67,-41077.555,-17884.848,-38293.418,-40432.17,-30211.305
1221998.1224024731,-42258.18,-33701.17,-54751.06,-41078.168,-17882.854,-38290.445,-40433.39,-30204.875
1221998.1264024705,-42262.492,-33701.945,-54753.258,-41080.28,-17882.568,-38288.86,-40432.902,-30199.748
1221998.1304024677,-42264.445,-33702.76,-54754.6,-41080.61,-17882.244,-38287.598,-40427.164,-30194.744
1221998.134402465,-42261.598,-33702.84,-54753.543,-41079.957,-17883.871,-38288.7,-40424.234,-30195.477
1221998.1384024625,-42261.23,-33701.62,-54749.797,-41078.125,-17882.895,-38287.844,-40426.676,-30204.102
1221998.1424024596,-42262.25,-33699.504,-54747.887,-41078.492,-17879.273,-38288.617,-40429.242,-30205.771
1221998.146402457,-42260.785,-33698.934,-54746.176,-41079.184,-17877.28,-38289.594,-40433.72,-30209.514
1221998.1504024542,-42259.48,-33696.29,-54745.934,-41078.453,-17877.28,-38289.754,-40428.914,-30206.992
1221998.1544024516,-42261.72,-33697.062,-54746.582,-41078.125,-17877.889,-38287.273,-40422.934,-30203.613
1221998.158402449,-42263.59,-33699.3,-54744.996,-41078.777,-17879.639,-38285.81,-40421.47,-30199.912
1221998.1624024461,-42267.824,-33700.727,-54744.71,-41079.754,-17878.988,-38286.582,-40425.906,-30196.412
1221998.1664024435,-42268.473,-33701.457,-54746.46,-41079.348,-17877.889,-38288.332,-40432.21,-30202.516
1221998.170402441,-42269.125,-33704.184,-54751.344,-41080.65,-17878.338,-38289.676,-40429.973,-30203.898
1221998.174402438,-42267.336,-33703.37,-54753.055,-41080.69,-17877.035,-38289.062,-40424.03,-30204.184
1221998.1784024355,-42270.02,-33703.41,-54751.59,-41080.363,-17877.035,-38287.844,-40422.812,-30201.092
1221998.182402433,-42273.438,-33706.383,-54751.02,-41081.586,-17876.14,-38288.98,-40429.527,-30208.049
1221998.18640243,-42274.254,-33705.73,-54751.305,-41082.156,-17878.094,-38289.918,-40431.355,-30207.154
1221998.1904024275,-42277.387,-33706.746,-54753.34,-41081.79,-17879.72,-38290.652,-40427.41,-30205.771
1221998.1944024249,-42279.5,-33708.414,-54756.51,-41082.113,-17880.656,-38292.156,-40423.992,-30203.045
1221998.198402422,-42274.332,-33706.055,-54752.44,-41080.203,-17880.574,-38292.48,-40424.684,-30207.969
1221998.2024024194,-42273.723,-33705.85,-54750.0,-41079.387,-17878.215,-38292.81,-40427.004,-30207.725
1221998.2064024168,-42270.957,-33703.043,-54750.695,-41079.266,-17877.482,-38294.23,-40428.387,-30204.184
1221998.210402414,-42270.996,-33703.37,-54752.28,-41079.754,-17880.738,-38294.76,-40423.87,-30198.324
1221998.2144024114,-42269.613,-33703.94,-54752.08,-41079.67,-17877.523,-38294.477,-40417.766,-30191.285
1221998.2184024088,-42267.824,-33703.574,-54753.01,-41078.41,-17874.756,-38294.883,-40419.15,-30194.541
1221998.222402406,-42272.707,-33705.895,-54751.26,-41078.168,-17873.617,-38294.8,-40424.156,-30198.04
1221998.2264024033,-42280.152,-33707.03,-54751.914,-41079.47,-17873.047,-38294.84,-40424.97,-30197.918
1221998.2304024007,-42280.477,-33706.016,-54751.875,-41079.47,-17875.0,-38295.86,-40422.12,-30199.79
1221998.2344023979,-42284.832,-33712.08,-54753.746,-41079.793,-17878.906,-38297.08,-40420.047,-30200.928
1221998.2384023953,-42291.87,-33717.69,-54756.105,-41080.16,-17878.215,-38297.406,-40419.598,-30196.697
1221998.2424023927,-42295.777,-33720.62,-54756.96,-41081.258,-17878.012,-38306.844,-40424.645,-30198.365
1221998.2464023898,-42296.793,-33721.316,-54757.324,-41082.36,-17875.408,-38326.785,-40430.055,-30205.648
1221998.2504023872,-42295.125,-33721.68,-54756.227,-41082.4,-17875.936,-38340.863,-40425.17,-30200.969
1221998.2544023844,-42293.785,-33723.43,-54753.664,-41081.383,-17877.523,-38348.96,-40419.23,-30194.703
1221998.2584023818,-42292.36,-33723.633,-54748.66,-41078.777,-17874.39,-38354.332,-40415.445,-30188.6
1221998.2624023792,-42291.707,-33722.496,-54746.582,-41078.94,-17873.088,-38357.992,-40419.23,-30192.303
1221998.2664023764,-42293.17,-33723.39,-54747.195,-41081.504,-17874.594,-38361.246,-40426.8,-30199.342
1221998.2704023737,-42295.207,-33728.23,-54746.582,-41081.543,-17876.873,-38362.43,-40421.67,-30193.076
1221998.2744023711,-42296.184,-33730.145,-54747.4,-41081.46,-17876.709,-38362.59,-40414.55,-30185.791
1221998.2784023683,-42299.36,-33732.465,-54747.07,-41080.895,-17876.791,-38361.33,-40412.8,-30181.682
1221998.2824023657,-42305.664,-33741.496,-54748.21,-41082.887,-17879.395,-38360.477,-40417.24,-30179.363
1221998.286402363,-42316.652,-33748.82,-54750.043,-41084.066,-17881.104,-38360.758,-40420.29,-30180.096
1221998.2904023603,-42303.47,-33734.703,-54747.887,-41082.887,-17878.012,-38362.305,-40419.516,-30179.607
1221998.2944023577,-42283.53,-33718.71,-54742.312,-41080.12,-17874.309,-38361.492,-40419.637,-30189.209
1221998.298402355,-42278.85,-33714.76,-54741.008,-41078.453,-17874.676,-38361.41,-40421.305,-30193.156
1221998.3024023522,-42269.656,-33705.934,-54736.33,-41075.727,-17872.273,-38361.695,-40426.598,-30195.312
1221998.3064023496,-42272.707,-33708.945,-54735.965,-41075.44,-17872.682,-38361.574,-40428.387,-30191.326
1221998.310402347,-42273.844,-33711.02,-54737.43,-41076.58,-17875.244,-38360.15,-40424.52,-30185.14
1221998.3144023442,-42278.89,-33716.96,-54740.684,-41078.613,-17878.662,-38359.09,-40421.145,-30185.182
1221998.3184023416,-42281.09,-33721.52,-54741.09,-41078.086,-17880.78,-38358.4,-40421.023,-30184.611
1221998.322402339,-42283.406,-33723.918,-54740.97,-41078.168,-17881.674,-38357.79,-40423.258,-30180.95
1221998.3264023361,-42288.004,-33726.766,-54742.72,-41079.918,-17881.836,-38358.4,-40427.246,-30184.979
1221998.3304023335,-42288.37,-33729.086,-54743.613,-41079.957,-17880.697,-38357.91,-40426.676,-30194.377
1221998.334402331,-42286.258,-33725.992,-54741.66,-41078.168,-17880.371,-38356.977,-40418.99,-30187.988
1221998.338402328,-42284.586,-33723.27,-54738.977,-41076.945,-17878.377,-38356.69,-40417.4,-30185.508
1221998.3424023255,-42285.727,-33724.246,-54737.43,-41075.93,-17876.629,-38356.85,-40424.44,-30189.78
1221998.3464023229,-42285.24,-33723.473,-54734.457,-41076.5,-17877.035,-38355.387,-40428.223,-30188.64
1221998.35040232,-42286.05,-33723.797,-54732.465,-41074.707,-17877.85,-38355.51,-40422.69,-30180.38
1221998.3544023174,-42286.664,-33727.664,-54732.75,-41074.06,-17878.865,-38357.992,-40418.863,-30180.502
1221998.3584023146,-42290.406,-33732.504,-54733.562,-41074.465,-17879.191,-38358.93,-40420.086,-30182.902
1221998.362402312,-42290.61,-33731.363,-54731.082,-41073.406,-17875.977,-38359.01,-40425.7,-30184.45
1221998.3664023094,-42290.285,-33731.203,-54729.332,-41073.977,-17875.285,-38360.15,-40429.527,-30183.555
1221998.3704023066,-42291.3,-33731.04,-54731.285,-41074.504,-17877.97,-38359.62,-40423.668,-30178.223
1221998.374402304,-42291.465,-33731.977,-54732.87,-41074.383,-17880.209,-38359.418,-40420.125,-30184.57
1221998.3784023013,-42293.094,-33732.87,-54732.832,-41074.26,-17879.477,-38359.01,-40419.516,-30183.594
1221998.3824022985,-42297.0,-33736.656,-54733.97,-41075.562,-17879.883,-38359.824,-40423.18,-30179.322
1221998.386402296,-42299.684,-33735.637,-54735.965,-41076.254,-17880.615,-38361.086,-40429.28,-30183.432
1221998.3904022933,-42302.086,-33738.973,-54736.168,-41076.457,-17882.244,-38362.508,-40427.938,-30188.803
1221998.3944022905,-42303.793,-33740.4,-54736.29,-41075.6,-17882.406,-38362.062,-40422.242,-30186.035
1221998.3984022879,-42309.125,-33742.637,-54734.17,-41075.277,-17878.053,-38363.363,-40423.83,-30188.682
1221998.4024022853,-42308.594,-33741.742,-54731.61,-41073.895,-17876.424,-38362.996,-40427.33,-30185.873
1221998.4064022824,-42310.02,-33747.805,-54732.87,-41074.42,-17880.168,-38361.98,-40429.527,-30183.229
1221998.4104022798,-42316.367,-33753.62,-54738.242,-41077.273,-17885.01,-38362.59,-40428.184,-30185.588
1221998.4144022772,-42317.426,-33750.938,-54739.016,-41077.15,-17885.945,-38362.875,-40425.78,-30194.377
1221998.4184022744,-42322.754,-33757.406,-54740.848,-41078.37,-17889.486,-38364.258,-40428.55,-30198.527
1221998.4224022718,-42326.945,-33761.273,-54740.848,-41078.613,-17889.324,-38363.895,-40434.41,-30198.895
1221998.4264022692,-42327.15,-33760.215,-54739.625,-41078.574,-17888.55,-38364.543,-40439.293,-30201.498
1221998.4304022663,-42327.312,-33758.953,-54741.418,-41078.86,-17888.998,-38365.316,-40437.99,-30199.871
1221998.4344022637,-42328.74,-33759.97,-54741.496,-41077.23,-17888.957,-38364.83,-40434.125,-30199.748
1221998.4384022611,-42329.59,-33761.19,-54740.97,-41075.4,-17888.836,-38363.406,-40430.22,-30192.22
1221998.4424022583,-42332.36,-33761.477,-54738.934,-41075.6,-17887.33,-38362.387,-40433.84,-30199.18
1221998.4464022557,-42330.324,-33759.684,-54737.67,-41075.074,-17885.498,-38362.793,-40437.664,-30204.998
1221998.450402253,-42327.312,-33759.562,-54738.16,-41075.195,-17885.621,-38364.34,-40433.188,-30198.691
1221998.4544022502,-42327.027,-33759.32,-54739.953,-41074.42,-17885.418,-38365.766,-40429.77,-30198.527
1221998.4584022476,-42328.37,-33759.848,-54739.34,-41072.31,-17883.83,-38364.3,-40430.46,-30200.156
1221998.4624022448,-42327.15,-33756.51,-54738.61,-41071.004,-17881.062,-38363.2,-40434.043,-30200.725
1221998.4664022422,-42328.453,-33755.168,-54738.73,-41072.43,-17880.291,-38363.406,-40435.875,-30199.463
1221998.4704022396,-42330.895,-33758.18,-54740.6,-41074.504,-17885.783,-38362.47,-40430.055,-30195.03
1221998.4744022368,-42342.41,-33771.04,-54744.426,-41077.15,-17890.3,-38361.453,-40420.613,-30190.715
1221998.4784022341,-42347.535,-33774.66,-54741.375,-41075.887,-17887.94,-38360.23,-40418.215,-30187.094
1221998.4824022315,-42328.777,-33754.152,-54734.906,-41071.207,-17880.006,-38362.145,-40427.207,-30190.268
1221998.4864022287,-42322.145,-33745.28,-54733.645,-41070.883,-17875.896,-38364.87,-40434.45,-30196.086
1221998.490402226,-42323.203,-33747.64,-54735.598,-41071.82,-17877.482,-38364.707,-40428.71,-30189.088
1221998.4944022235,-42329.59,-33754.8,-54737.59,-41072.43,-17880.168,-38362.996,-40421.145,-30186.973
1221998.4984022207,-42330.527,-33757.938,-54737.67,-41071.414,-17881.43,-38363.28,-40423.668,-30193.32
1221998.502402218,-42335.53,-33759.117,-54737.145,-41071.617,-17886.271,-38363.2,-40429.445,-30195.15
1221998.5064022155,-42342.41,-33764.363,-54738.363,-41073.285,-17886.027,-38362.59,-40431.887,-30197.227
1221998.5104022126,-42339.684,-33764.16,-54739.18,-41073.445,-17882.977,-38363.324,-40426.72,-30193.197
1221998.51440221,-42339.48,-33762.492,-54739.746,-41073.242,-17884.48,-38363.812,-40423.543,-30193.727
1221998.5184022074,-42345.703,-33769.574,-54740.156,-41074.465,-17886.639,-38364.625,-40423.055,-30191.123
1221998.5224022046,-42344.24,-33769.29,-54737.67,-41074.3,-17887.127,-38363.812,-40426.23,-30189.494
1221998.526402202,-42345.38,-33768.15,-54737.023,-41075.074,-17887.533,-38364.543,-40430.664,-30192.139
1221998.5304021994,-42343.06,-33765.625,-54735.8,-41072.31,-17884.93,-38361.777,-40422.977,-30184.408
1221998.5344021965,-42338.625,-33761.273,-54734.785,-41070.438,-17883.79,-38362.145,-40416.3,-30181.602
1221998.538402194,-42333.58,-33757.406,-54732.547,-41068.074,-17881.307,-38363.2,-40418.906,-30190.594
1221998.5424021913,-42335.652,-33759.195,-54731.69,-41067.26,-17880.982,-38363.445,-40423.258,-30189.047
1221998.5464021885,-42336.55,-33756.96,-54733.523,-41067.3,-17878.906,-38365.195,-40426.883,-30183.758
1221998.5504021859,-42335.855,-33757.57,-54736.41,-41067.3,-17878.174,-38365.926,-40425.09,-30190.186
1221998.5544021833,-42338.664,-33760.703,-54737.715,-41068.277,-17879.518,-38366.17,-40419.477,-30188.518
1221998.5584021804,-42340.13,-33762.207,-54736.41,-41067.426,-17876.668,-38366.58,-40416.504,-30182.496
1221998.5624021778,-42337.81,-33756.023,-54735.07,-41066.12,-17874.635,-38366.13,-40422.12,-30188.152
1221998.566402175,-42337.73,-33755.37,-54734.418,-41066.0,-17876.1,-38365.03,-40425.496,-30191.57
1221998.5704021724,-42340.535,-33758.06,-54735.76,-41067.14,-17875.408,-38365.48,-40418.54,-30188.6
1221998.5744021698,-42339.195,-33757.61,-54739.055,-41067.465,-17875.447,-38364.46,-40412.56,-30187.867
1221998.578402167,-42337.32,-33754.152,-54737.023,-41066.203,-17875.652,-38364.098,-40414.062,-30192.18
1221998.5824021643,-42340.7,-33755.37,-54735.07,-41064.25,-17873.738,-38365.277,-40421.793,-30199.139
1221998.5864021617,-42340.74,-33758.426,-54733.035,-41064.168,-17874.432,-38366.375,-40425.863,-30199.83
1221998.590402159,-42342.285,-33760.66,-54735.23,-41065.473,-17877.156,-38366.78,-40422.363,-30196.656
1221998.5944021563,-42344.402,-33762.574,-54736.86,-41066.12,-17879.518,-38366.293,-40418.133,-30195.068
1221998.5984021537,-42344.645,-33762.656,-54737.023,-41065.023,-17877.564,-38366.58,-40416.707,-30190.553
1221998.6024021509,-42346.598,-33763.43,-54736.168,-41066.203,-17876.344,-38367.312,-40421.184,-30189.088
1221998.6064021483,-42346.152,-33766.074,-54735.07,-41067.668,-17879.354,-38366.66,-40421.633,-30186.85
1221998.6104021457,-42343.465,-33764.08,-54733.93,-41066.69,-17879.883,-38364.707,-40416.832,-30189.17
1221998.6144021428,-42343.71,-33764.566,-54733.074,-41065.836,-17879.965,-38363.77,-40411.62,-30191.406
1221998.6184021402,-42345.176,-33766.6,-54732.14,-41066.082,-17879.639,-38363.73,-40409.914,-30184.164
1221998.6224021376,-42348.062,-33766.074,-54730.88,-41066.043,-17877.564,-38364.3,-40414.188,-30176.637
1221998.6264021348,-42348.918,-33763.47,-54730.227,-41065.51,-17876.059,-38365.113,-40420.574,-30188.64
1221998.6304021322,-42349.246,-33764.527,-54732.547,-41064.984,-17876.465,-38363.242,-40415.49,-30189.047
1221998.6344021296,-42351.117,-33767.008,-54734.418,-41065.836,-17877.97,-38362.348,-40407.066,-30181.234
1221998.6384021267,-42352.742,-33771.65,-54732.832,-41067.383,-17878.621,-38362.062,-40406.82,-30181.926
1221998.6424021241,-42358.93,-33777.14,-54732.383,-41068.44,-17878.582,-38363.242,-40412.883,-30185.914
1221998.6464021215,-42362.996,-33780.76,-54733.562,-41070.23,-17879.395,-38365.152,-40419.23,-30194.215
1221998.6504021187,-42364.87,-33781.25,-54736.695,-41070.598,-17881.145,-38366.05,-40415.895,-30190.43
1221998.654402116,-42365.562,-33784.06,-54739.055,-41070.926,-17882.65,-38366.863,-40411.336,-30187.623
1221998.6584021135,-42366.17,-33783.203,-54739.22,-41070.273,-17881.227,-38366.902,-40412.438,-30193.809
1221998.6624021106,-42367.27,-33783.043,-54737.305,-41069.906,-17880.941,-38367.312,-40418.01,-30196.777
1221998.666402108,-42369.387,-33783.652,-54734.785,-41069.01,-17880.453,-38367.15,-40420.816,-30196.33
1221998.6704021052,-42367.637,-33782.31,-54733.887,-41068.035,-17881.227,-38367.92,-40419.15,-30198.812
1221998.6744021026,-42366.7,-33782.27,-54735.598,-41067.3,-17881.715,-38368.004,-40414.266,-30197.307
1221998.6784021,-42366.375,-33787.516,-54734.297,-41065.918,-17875.367,-38367.8,-40413.492,-30200.074
1221998.6824020972,-42370.688,-33785.44,-54733.24,-41066.367,-17876.75,-38368.29,-40417.766,-30203.818
1221998.6864020946,-42375.855,-33782.43,-54734.375,-41067.996,-17878.906,-38369.426,-40422.73,-30205.201
1221998.690402092,-42376.02,-33785.523,-54736.816,-41067.426,-17881.959,-38370.16,-40420.168,-30203.207
1221998.694402089,-42377.484,-33786.5,-54736.168,-41066.12,-17884.318,-38370.117,-40415.285,-30201.377
1221998.6984020865,-42377.484,-33786.215,-54732.75,-41063.965,-17881.877,-38369.63,-40414.594,-30198.365
1221998.702402084,-42376.508,-33787.273,-54730.676,-41063.64,-17877.441,-38369.1,-40417.766,-30192.832
1221998.706402081,-42374.797,-33783.938,-54729.777,-41063.395,-17876.75,-38368.53,-40418.215,-30191.123
1221998.7104020785,-42370.484,-33780.887,-54728.883,-41062.867,-17875.285,-38368.004,-40412.027,-30195.924
1221998.7144020759,-42370.035,-33781.008,-54729.94,-41063.273,-17875.53,-38368.207,-40404.46,-30189.373
1221998.718402073,-42372.805,-33779.867,-54729.492,-41063.03,-17875.326,-38368.613,-40403.28,-30181.926
1221998.7224020704,-42370.77,-33776.57,-54726.562,-41061.605,-17873.738,-38368.41,-40408.734,-30184.693
1221998.7264020678,-42371.785,-33772.46,-54727.133,-41062.297,-17872.885,-38369.47,-40413.86,-30193.115
1221998.730402065,-42372.113,-33775.15,-54729.617,-41062.258,-17872.723,-38369.14,-40409.14,-30189.494
1221998.7344020624,-42373.58,-33776.285,-54727.46,-41060.465,-17872.07,-38368.695,-40401.98,-30182.861
1221998.7384020598,-42374.918,-33778.445,-54726.645,-41059.41,-17870.646,-38366.742,-40398.438,-30178.06
1221998.742402057,-42374.84,-33780.4,-54726.848,-41060.06,-17869.752,-38364.098,-40400.72,-30179.932
1221998.7464020543,-42374.758,-33779.867,-54725.426,-41060.793,-17869.71,-38362.875,-40401.246,-30175.66
1221998.7504020517,-42374.918,-33781.58,-54726.36,-41061.727,-17869.1,-38363.61,-40397.42,-30171.55
1221998.754402049,-42375.45,-33783.816,-54727.824,-41062.176,-17870.729,-38366.375,-40397.46,-30173.463
1221998.7584020463,-42374.473,-33783.33,-54724.61,-41060.26,-17869.67,-38364.91,-40395.67,-30172.852
1221998.7624020437,-42374.35,-33781.496,-54721.438,-41060.223,-17867.188,-38362.47,-40397.055,-30173.219
1221998.7664020408,-42372.273,-33778.605,-54720.34,-41060.996,-17865.926,-38362.836,-40399.78,-30174.44
1221998.7704020382,-42371.785,-33777.344,-54722.09,-41062.258,-17865.967,-38362.348,-40394.33,-30171.754
1221998.7744020356,-42372.887,-33777.832,-54723.43,-41060.914,-17864.828,-38362.43,-40390.87,-30176.23
1221998.7784020328,-42374.637,-33778.605,-54723.555,-41059.9,-17864.828,-38364.95,-40395.426,-30182.658
1221998.7824020302,-42375.773,-33783.043,-54722.7,-41060.387,-17866.984,-38366.496,-40403.08,-30183.838
1221998.7864020274,-42375.734,-33784.75,-54720.91,-41060.02,-17867.27,-38366.984,-40406.74,-30181.846
1221998.7904020248,-42374.15,-33782.715,-54719.89,-41059.33,-17867.84,-38367.594,-40402.47,-30181.438
1221998.7944020221,-42376.26,-33783.895,-54721.19,-41060.426,-17870.525,-38367.27,-40398.355,-30179.484
1221998.7984020193,-42378.785,-33786.38,-54719.65,-41061.035,-17872.396,-38367.88,-40399.82,-30180.584
1221998.8024020167,-42381.797,-33788.21,-54719.566,-41062.094,-17872.479,-38368.207,-40406.21,-30189.291
1221998.806402014,-42382.773,-33788.535,-54718.67,-41062.38,-17870.932,-38367.27,-40406.984,-30187.744
1221998.8104020113,-42380.13,-33788.13,-54717.53,-41061.81,-17868.816,-38366.984,-40402.71,-30183.229
1221998.8144020087,-42378.582,-33786.99,-54718.59,-41061.523,-17868.205,-38370.2,-40403.523,-30186.688
1221998.818402006,-42377.117,-33785.523,-54717.45,-41059.652,-17867.107,-38370.85,-40401.207,-30181.438
1221998.8224020032,-42377.402,-33783.53,-54715.05,-41057.863,-17867.92,-38369.914,-40400.35,-30174.805
1221998.8264020006,-42383.22,-33784.14,-54715.82,-41059.043,-17865.682,-38370.605,-40403.117,-30181.926
1221998.830401998,-42384.605,-33785.973,-54717.41,-41059.33,-17865.846,-38371.055,-40401.695,-30183.879
1221998.8344019952,-42375.203,-33779.297,-54716.35,-41057.414,-17863.322,-38372.52,-40402.47,-30188.438
1221998.8384019926,-42371.42,-33776.367,-54713.22,-41055.867,-17858.725,-38372.76,-40404.094,-30188.844
1221998.84240199,-42370.16,-33774.293,-54708.336,-41054.16,-17859.172,-38372.152,-40403.727,-30183.27
1221998.8464019871,-42371.867,-33774.984,-54706.465,-41053.348,-17857.625,-38371.42,-40403.81,-30180.176
1221998.8504019845,-42373.293,-33776.53,-54709.72,-41052.86,-17856.934,-38370.85,-40398.316,-30176.88
1221998.854401982,-42375.734,-33778.117,-54710.9,-41053.836,-17857.91,-38370.85,-40394.33,-30179.484
1221998.858401979,-42374.676,-33776.938,-54710.086,-41053.426,-17857.625,-38370.08,-40393.598,-30179.77
1221998.8624019765,-42373.94,-33776.53,-54709.15,-41053.184,-17857.3,-38369.547,-40396.363,-30179.16
1221998.8664019739,-42378.746,-33776.613,-54709.555,-41053.957,-17857.016,-38369.266,-40399.13,-30178.549
1221998.870401971,-42378.906,-33774.984,-54710.125,-41052.816,-17855.062,-38369.305,-40393.68,-30174.195
1221998.8744019684,-42380.086,-33775.39,-54710.938,-41052.695,-17855.795,-38369.47,-40389.406,-30170.736
1221998.8784019658,-42383.26,-33779.38,-54711.387,-41052.938,-17857.83,-38368.33,-40389.773,-30175.904
1221998.882401963,-42386.027,-33781.7,-54709.758,-41053.426,-17853.068,-38366.336,-40390.79,-30173.545
1221998.8864019604,-42384.81,-33779.01,-54710.9,-41053.914,-17851.197,-38365.113,-40390.34,-30163.535
1221998.8904019576,-42384.89,-33781.82,-54714.4,-41055.582,-17854.9,-38365.97,-40385.867,-30160.523
1221998.894401955,-42382.773,-33782.51,-54713.22,-41055.83,-17859.172,-38366.05,-40383.75,-30174.033
1221998.8984019523,-42383.465,-33783.734,-54711.348,-41054.566,-17857.219,-38365.848,-40386.19,-30181.52
1221998.9024019495,-42383.79,-33785.484,-54710.734,-41053.793,-17856.934,-38366.254,-40390.098,-30177.613
1221998.906401947,-42381.348,-33780.805,-54709.96,-41052.777,-17854.412,-38365.723,-40393.883,-30177.37
1221998.9104019443,-42378.867,-33781.21,-54710.816,-41051.8,-17853.68,-38364.664,-40390.668,-30175.62
1221998.9144019415,-42378.703,-33784.426,-54711.875,-41052.41,-17855.55,-38365.805,-40389.73,-30176.758
1221998.9184019389,-42377.89,-33783.652,-54711.062,-41051.555,-17855.145,-38365.03,-40393.758,-30179.81
1221998.9224019363,-42379.19,-33784.426,-54710.125,-41052.164,-17856.04,-38364.95,-40399.863,-30179.484
1221998.9264019334,-42381.715,-33787.19,-54708.457,-41054.605,-17856.771,-38366.742,-40403.81,-30174.887
1221998.9304019308,-42384.44,-33791.87,-54710.98,-41055.91,-17859.904,-38367.516,-40400.72,-30174.56
1221998.9344019282,-42382.73,-33793.54,-54711.793,-41055.664,-17859.62,-38365.234,-40394.125,-30167.807
1221998.9384019254,-42381.676,-33794.516,-54710.207,-41054.527,-17858.602,-38362.223,-40391.156,-30163.25
1221998.9424019228,-42382.406,-33792.93,-54708.133,-41054.2,-17860.963,-38360.395,-40394.125,-30163.615
1221998.9464019202,-42382.977,-33790.812,-54707.03,-41055.176,-17861.287,-38360.758,-40397.746,-30166.383
1221998.9504019173,-42388.145,-33797.73,-54710.574,-41057.617,-17867.107,-38361.777,-40397.38,-30172.363
1221998.9544019147,-42389.406,-33799.6,-54711.508,-41057.375,-17870.525,-38362.305,-40392.824,-30169.312
1221998.9584019121,-42386.23,-33793.62,-54709.434,-41054.973,-17868.531,-38362.184,-40393.84,-30167.4
1221998.9624019093,-42387.37,-33795.207,-54707.4,-41054.16,-17866.09,-38362.184,-40397.176,-30169.475
1221998.9664019067,-42386.844,-33794.312,-54706.992,-41052.9,-17864.584,-38360.477,-40399.58,-30167.93
1221998.970401904,-42384.32,-33792.684,-54707.316,-41052.816,-17864.95,-38358.44,-40395.1,-30161.053
1221998.9744019012,-42384.81,-33793.62,-54709.027,-41054.117,-17866.902,-38359.62,-40394.125,-30161.297
1221998.9784018986,-42385.133,-33792.605,-54708.133,-41053.754,-17865.154,-38361.043,-40397.46,-30164.186
1221998.982401896,-42383.426,-33790.242,-54704.348,-41052.33,-17865.52,-38360.066,-40400.35,-30159.018
1221998.9864018932,-42382.73,-33789.957,-54701.99,-41052.29,-17865.072,-38360.637,-40403.973,-30165.447
1221998.9904018906,-42383.465,-33789.145,-54704.836,-41052.9,-17867.799,-38362.305,-40402.547,-30171.266
1221998.9944018878,-42384.81,-33790.855,-54707.113,-41052.37,-17866.7,-38361.98,-40397.707,-30171.143
1221998.9984018852,-42386.477,-33792.766,-54705.285,-41049.44,-17862.508,-38361.37,-40398.438,-30171.672
1221999.0024018825,-42388.55,-33790.73,-54705.812,-41048.625,-17859.822,-38362.145,-40409.75,-30182.334
1221999.0064018797,-42390.383,-33792.81,-54707.195,-41048.83,-17860.555,-38363.812,-40415.203,-30185.02
1221999.010401877,-42388.797,-33793.457,-54708.293,-41049.195,-17862.713,-38365.152,-40409.668,-30181.764
1221999.0144018745,-42386.23,-33795.492,-54707.195,-41048.016,-17867.96,-38364.543,-40401.855,-30178.59
1221999.0184018717,-42389.895,-33796.062,-54709.312,-41050.457,-17864.625,-38363.242,-40400.23,-30178.305
1221999.022401869,-42394.574,-33799.93,-54710.574,-41051.27,-17865.682,-38363.406,-40404.34,-30179.484
1221999.0264018665,-42397.42,-33802.37,-54710.53,-41052.938,-17864.99,-38363.08,-40406.863,-30177.898
1221999.0304018636,-42395.223,-33801.23,-54709.84,-41053.836,-17863.729,-38363.12,-40404.055,-30176.84
1221999.034401861,-42399.254,-33805.867,-54711.875,-41053.305,-17871.338,-38362.59,-40400.27,-30178.264
1221999.0384018584,-42402.75,-33805.867,-54713.867,-41051.883,-17870.281,-38362.793,-40401.004,-30179.404
1221999.0424018556,-42404.297,-33804.973,-54713.176,-41050.62,-17868.816,-38362.918,-40407.066,-30180.42
1221999.046401853,-42403.28,-33803.348,-54709.883,-41049.805,-17870.564,-38362.387,-40408.734,-30177.94
1221999.0504018504,-42400.676,-33799.4,-54708.336,-41048.746,-17869.873,-38362.59,-40403.523,-30177.531
1221999.0544018475,-42399.7,-33800.824,-54710.777,-41047.61,-17871.664,-38361.86,-40397.91,-30177.207
1221999.058401845,-42398.64,-33801.434,-54710.004,-41047.527,-17871.746,-38361.574,-40397.586,-30177.857
1221999.0624018423,-42395.67,-33798.992,-54707.887,-41046.305,-17869.832,-38363.08,-40404.094,-30180.543
1221999.0664018395,-42395.47,-33799.113,-54708.254,-41047.406,-17867.432,-38365.926,-40410.93,-30183.96
1221999.070401837,-42395.875,-33799.4,-54707.727,-41048.42,-17868.531,-38365.805,-40406.58,-30181.52
1221999.0744018343,-42395.793,-33798.668,-54705.566,-41048.34,-17869.02,-38362.184,-40396.363,-30167.93
1221999.0784018314,-42397.016,-33799.195,-54705.08,-41046.47,-17866.658,-38359.742,-40392.945,-30169.475
1221999.0824018288,-42400.594,-33802.652,-54705.363,-41047.12,-17867.676,-38361.453,-40396.85,-30173.79
1221999.0864018262,-42403.81,-33804.16,-54705.773,-41048.504,-17870.564,-38362.59,-40398.926,-30168.01
1221999.0904018234,-42405.152,-33805.83,-54707.766,-41050.66,-17870.77,-38361.574,-40393.68,-30159.791
1221999.0944018208,-42407.43,-33809.125,-54709.23,-41049.277,-17871.42,-38360.8,-40389.242,-30164.512
1221999.098401818,-42406.78,-33809.246,-54707.36,-41047.73,-17870.77,-38359.457,-40391.97,-30170.736
1221999.1024018154,-42408.69,-33807.945,-54708.008,-41048.016,-17868.205,-38361.492,-40398.766,-30179.973
1221999.1064018128,-42410.727,-33807.047,-54707.195,-41049.44,-17869.508,-38361.29,-40400.15,-30180.096
1221999.11040181,-42408.773,-33806.52,-54707.684,-41049.848,-17870.076,-38360.19,-40394.29,-30174.805
1221999.1144018073,-42407.676,-33807.535,-54708.54,-41048.91,-17868.816,-38358.523,-40387.535,-30172.04
1221999.1184018047,-42411.664,-33810.465,-54709.066,-41048.953,-17869.02,-38356.69,-40385.094,-30167.807
1221999.1224018019,-42414.88,-33812.543,-54709.84,-41048.707,-17867.635,-38357.547,-40389.16,-30170.492
1221999.1264017993,-42418.215,-33812.418,-54710.33,-41048.953,-17866.74,-38358.6,-40392.008,-30171.143
1221999.1304017967,-42419.598,-33813.6,-54712.2,-41050.78,-17868.408,-38358.113,-40387.168,-30169.719
1221999.1344017938,-42421.633,-33815.88,-54714.234,-41050.984,-17869.996,-38357.26,-40382.855,-30170.166
1221999.1384017912,-42421.387,-33813.844,-54713.42,-41048.016,-17868.979,-38357.137,-40382.773,-30171.672
1221999.1424017886,-42419.883,-33811.2,-54709.312,-41046.1,-17867.84,-38357.625,-40385.945,-30174.44
1221999.1464017858,-42423.992,-33813.56,-54709.84,-41048.83,-17871.176,-38359.09,-40390.504,-30176.025
1221999.1504017832,-42427.53,-33816.895,-54712.65,-41050.17,-17872.844,-38360.434,-40388.918,-30174.113
1221999.1544017806,-42426.027,-33813.234,-54713.91,-41049.195,-17872.885,-38360.637,-40384.36,-30171.469
1221999.1584017777,-42423.992,-33809.855,-54712.73,-41047.406,-17872.273,-38359.66,-40382.0,-30168.824
1221999.1624017751,-42423.79,-33809.57,-54710.574,-41047.0,-17866.7,-38361.043,-40387.207,-30168.906
1221999.1664017725,-42423.586,-33808.88,-54709.598,-41047.73,-17866.658,-38362.47,-40390.91,-30170.29
1221999.1704017697,-42425.375,-33810.63,-54710.043,-41048.746,-17869.629,-38360.555,-40383.586,-30166.22
1221999.174401767,-42429.08,-33817.63,-54708.254,-41049.074,-17872.479,-38357.42,-40373.453,-30157.309
1221999.1784017645,-42423.668,-33810.26,-54703.086,-41046.348,-17868.896,-38356.73,-40373.293,-30150.799
1221999.1824017616,-42413.82,-33797.566,-54699.547,-41043.05,-17864.096,-38358.195,-40378.297,-30148.56
1221999.186401759,-42417.848,-33796.387,-54703.004,-41044.76,-17865.602,-38359.375,-40382.12,-30158.244
1221999.1904017564,-42418.17,-33795.492,-54708.133,-41046.023,-17865.805,-38359.62,-40378.867,-30163.33
1221999.1944017536,-42425.09,-33804.117,-54710.734,-41048.625,-17867.146,-38358.727,-40373.863,-30157.105
1221999.198401751,-42420.125,-33797.65,-54707.887,-41046.266,-17862.63,-38359.78,-40377.93,-30165.244
1221999.2024017482,-42421.754,-33796.227,-54707.52,-41045.9,-17860.148,-38358.805,-40379.395,-30163.127
1221999.2064017456,-42424.887,-33798.258,-54705.61,-41046.43,-17861.98,-38357.992,-40378.055,-30159.75
1221999.210401743,-42416.465,-33792.117,-54703.9,-41044.312,-17860.352,-38358.156,-40373.13,-30163.291
1221999.21440174,-42416.87,-33797.0,-54705.04,-41045.98,-17863.77,-38357.26,-40367.105,-30158.123
1221999.2184017375,-42419.68,-33801.11,-54703.613,-41045.207,-17865.805,-38357.18,-40367.473,-30158.855
1221999.222401735,-42418.785,-33798.953,-54700.523,-41043.05,-17864.666,-38358.727,-40372.4,-30160.686
1221999.226401732,-42419.312,-33798.055,-54699.707,-41043.17,-17862.957,-38358.195,-40374.31,-30157.105
1221999.2304017295,-42420.535,-33799.234,-54700.97,-41043.17,-17863.648,-38358.562,-40370.08,-30153.484
1221999.2344017269,-42421.062,-33798.992,-54701.62,-41042.156,-17865.031,-38360.066,-40368.734,-30156.738
1221999.238401724,-42423.543,-33796.55,-54702.11,-41041.953,-17864.137,-38359.703,-40370.32,-30159.506
1221999.2424017214,-42427.043,-33796.67,-54702.355,-41042.523,-17862.305,-38358.805,-40374.555,-30162.03
1221999.2464017188,-42427.246,-33795.98,-54702.312,-41041.79,-17859.701,-38358.6,-40377.035,-30164.145
1221999.250401716,-42426.92,-33795.613,-54702.273,-41041.18,-17859.822,-38360.312,-40376.223,-30166.383
1221999.2544017134,-42426.312,-33798.383,-54702.516,-41041.22,-17861.572,-38362.47,-40375.246,-30170.248
1221999.2584017108,-42424.36,-33795.9,-54700.605,-41039.836,-17858.684,-38364.707,-40377.36,-30172.201
1221999.262401708,-42426.598,-33793.05,-54698.324,-41038.086,-17854.207,-38363.895,-40377.36,-30166.26
1221999.2664017053,-42427.816,-33790.773,-54698.12,-41037.844,-17852.295,-38362.305,-40377.156,-30160.32
1221999.2704017027,-42429.65,-33793.5,-54700.562,-41039.51,-17854.412,-38364.055,-40372.6,-30150.84
1221999.2744017,-42428.996,-33796.023,-54701.5,-41040.934,-17857.504,-38365.074,-40368.492,-30146.037
1221999.2784016973,-42426.11,-33795.98,-54701.582,-41039.918,-17855.795,-38364.46,-40369.957,-30149.74
1221999.2824016947,-42423.746,-33792.605,-54700.36,-41039.88,-17854.086,-38364.098,-40372.355,-30151.408
1221999.2864016918,-42423.586,-33789.188,-54698.285,-41039.633,-17853.23,-38364.3,-40370.73,-30147.258
1221999.2904016892,-42424.316,-33787.438,-54698.367,-41038.453,-17852.824,-38364.34,-40364.625,-30139.121
1221999.2944016866,-42427.816,-33790.61,-54699.06,-41040.49,-17853.8,-38365.723,-40359.58,-30140.26
1221999.2984016838,-42428.957,-33792.887,-54697.836,-41040.12,-17853.395,-38363.73,-40361.492,-30149.7
1221999.3024016812,-42430.38,-33791.953,-54697.96,-41039.715,-17850.953,-38362.996,-40370.605,-30164.674
1221999.3064016784,-42430.992,-33789.43,-54700.074,-41040.406,-17850.79,-38365.36,-40375.855,-30163.656
1221999.3104016758,-42428.223,-33787.926,-54700.81,-41040.49,-17852.498,-38365.234,-40368.98,-30155.803
1221999.3144016732,-42427.938,-33787.19,-54700.156,-41040.61,-17851.686,-38363.65,-40359.863,-30149.496
1221999.3184016703,-42429.566,-33785.848,-54699.3,-41039.594,-17849.244,-38361.9,-40359.09,-30150.92
1221999.3224016677,-42431.316,-33785.523,-54699.14,-41038.86,-17848.104,-38361.734,-40366.375,-30158.447
1221999.326401665,-42432.09,-33782.96,-54699.383,-41038.86,-17848.553,-38364.34,-40372.273,-30161.621
1221999.3304016623,-42432.82,-33784.832,-54701.01,-41038.25,-17847.982,-38363.934,-40367.35,-30159.75
1221999.3344016597,-42436.973,-33792.074,-54703.82,-41040.69,-17850.506,-38363.484,-40361.168,-30156.78
1221999.338401657,-42436.727,-33793.62,-54701.418,-41039.797,-17850.912,-38362.145,-40359.254,-30153.24
1221999.3424016542,-42436.89,-33792.766,-54699.707,-41040.61,-17849.406,-38363.812,-40364.42,-30156.535
1221999.3464016516,-42439.047,-33790.895,-54699.547,-41040.69,-17848.309,-38364.625,-40365.64,-30155.723
1221999.350401649,-42438.152,-33790.773,-54701.867,-41040.04,-17848.186,-38365.234,-40362.02,-30155.967
1221999.3544016462,-42440.96,-33797.0,-54705.65,-41041.707,-17853.354,-38367.15,-40362.387,-30160.889
1221999.3584016436,-42444.01,-33799.4,-54706.3,-41042.36,-17853.312,-38366.336,-40365.48,-30162.762
1221999.362401641,-42445.64,-33798.3,-54704.633,-41040.773,-17854.656,-38365.723,-40370.566,-30164.592
1221999.3664016381,-42446.656,-33800.293,-54703.86,-41039.348,-17853.719,-38367.39,-40377.484,-30177.37
1221999.3704016355,-42447.39,-33804.484,-54705.773,-41039.676,-17855.184,-38368.816,-40375.895,-30179.404
1221999.374401633,-42447.957,-33805.016,-54705.566,-41039.39,-17857.463,-38369.47,-40371.258,-30177.49
1221999.37840163,-42447.47,-33804.402,-54703.453,-41038.13,-17856.486,-38369.47,-40372.195,-30177.043
1221999.3824016275,-42452.15,-33806.6,-54704.023,-41039.55,-17857.625,-38368.98,-40374.473,-30172.975
1221999.386401625,-42458.66,-33808.434,-54706.3,-41040.977,-17859.05,-38368.777,-40375.367,-30164.836
1221999.390401622,-42462.81,-33814.13,-54710.207,-41043.17,-17860.596,-38371.543,-40374.105,-30164.47
1221999.3944016194,-42466.15,-33817.996,-54713.176,-41043.824,-17862.793,-38371.99,-40372.805,-30167.93
1221999.3984016168,-42464.07,-33814.617,-54710.613,-41041.953,-17859.13,-38371.258,-40375.043,-30173.992
1221999.402401614,-42461.426,-33812.297,-54706.91,-41040.12,-17856.61,-38371.42,-40379.64,-30180.502
1221999.4064016114,-42466.676,-33819.867,-54707.195,-41041.547,-17857.91,-38371.95,-40382.324,-30182.129
1221999.4104016088,-42472.78,-33822.797,-54709.68,-41042.156,-17858.033,-38373.25,-40379.312,-30182.984
1221999.414401606,-42460.246,-33808.594,-54708.496,-41038.617,-17852.377,-38374.15,-40376.344,-30186.729
1221999.4184016034,-42454.184,-33802.53,-54706.098,-41037.723,-17848.674,-38373.09,-40375.734,-30186.646
1221999.4224016005,-42454.305,-33800.133,-54706.465,-41036.746,-17843.426,-38372.684,-40375.734,-30179.525
1221999.426401598,-42458.336,-33802.33,-54709.312,-41037.76,-17843.832,-38373.58,-40375.855,-30175.049
1221999.4304015953,-42459.8,-33799.93,-54711.793,-41037.598,-17842.773,-38373.7,-40370.566,-30169.639
1221999.4344015925,-42458.21,-33797.85,-54711.508,-41036.54,-17843.1,-38373.047,-40364.746,-30166.953
1221999.4384015899,-42459.758,-33799.316,-54709.312,-41035.93,-17841.064,-38372.152,-40364.34,-30167.969
1221999.4424015873,-42455.566,-33792.766,-54705.566,-41034.18,-17838.014,-38373.7,-40371.34,-30174.033
1221999.4464015844,-42461.67,-33796.1,-54707.562,-41034.996,-17838.787,-38374.27,-40375.45,-30177.654
1221999.4504015818,-42467.246,-33802.98,-54709.84,-41035.848,-17840.943,-38371.746,-40367.758,-30171.55
1221999.4544015792,-42466.473,-33803.793,-54708.66,-41035.645,-17841.105,-38371.094,-40360.066,-30168.701
1221999.4584015764,-42465.535,-33802.246,-54705.895,-41035.645,-17842.205,-38371.42,-40359.703,-30170.371
1221999.4624015738,-42467.57,-33802.9,-54705.65,-41035.36,-17842.773,-38372.03,-40364.3,-30172.73
1221999.4664015712,-42469.85,-33805.42,-54706.79,-41037.152,-17842.896,-38372.03,-40365.03,-30169.76
1221999.4704015683,-42471.883,-33807.414,-54709.434,-41040.285,-17846.03,-38371.664,-40359.945,-30166.3
1221999.4744015657,-42470.664,-33809.285,-54709.15,-41040.12,-17844.686,-38372.152,-40355.47,-30164.836
1221999.4784015631,-42472.496,-33811.973,-54708.945,-41040.12,-17843.588,-38373.17,-40358.805,-30170.98
1221999.4824015603,-42474.57,-33810.426,-54707.195,-41039.43,-17842.45,-38374.105,-40366.293,-30176.475
1221999.4864015577,-42473.715,-33807.13,-54705.285,-41038.98,-17843.67,-38373.09,-40366.58,-30171.836
1221999.490401555,-42470.867,-33803.305,-54702.883,-41037.234,-17843.709,-38369.508,-40355.227,-30161.662
1221999.4944015522,-42467.125,-33802.695,-54700.81,-41036.01,-17843.506,-38369.59,-40348.188,-30159.506
1221999.4984015496,-42468.75,-33804.605,-54700.035,-41033.816,-17838.582,-38370.566,-40346.76,-30160.809
1221999.502401547,-42469.77,-33806.234,-54699.22,-41035.24,-17840.414,-38371.664,-40352.336,-30162.842
1221999.5064015442,-42471.64,-33806.887,-54700.117,-41036.05,-17840.332,-38371.055,-40355.715,-30162.314
1221999.5104015416,-42469.93,-33804.65,-54700.195,-41035.402,-17840.78,-38369.875,-40347.047,-30152.955
1221999.514401539,-42471.395,-33806.52,-54703.047,-41034.508,-17841.717,-38369.875,-40341.715,-30147.705
1221999.5184015362,-42469.523,-33807.617,-54702.355,-41034.793,-17841.064,-38370.89,-40346.52,-30155.152
1221999.5224015336,-42471.68,-33807.66,-54701.215,-41036.176,-17839.234,-38371.46,-40353.965,-30160.28
1221999.5264015307,-42475.016,-33809.695,-54701.17,-41037.395,-17835.857,-38370.65,-40357.098,-30160.564
1221999.530401528,-42473.023,-33809.246,-54701.5,-41036.664,-17833.21,-38369.223,-40349.977,-30153.2
1221999.5344015255,-42476.727,-33815.594,-54705.85,-41037.844,-17838.055,-38370.2,-40346.965,-30154.094
1221999.5384015227,-42478.72,-33818.688,-54707.156,-41039.023,-17843.262,-38370.445,-40348.348,-30152.67
1221999.54240152,-42477.457,-33818.81,-54705.242,-41039.105,-17845.053,-38370.28,-40354.13,-30161.133
1221999.5464015175,-42474.855,-33816.812,-54703.004,-41038.168,-17844.523,-38370.605,-40355.875,-30156.006
1221999.5504015146,-42470.746,-33812.83,-54700.117,-41036.54,-17842.896,-38371.094,-40350.547,-30150.717
1221999.554401512,-42468.387,-33814.13,-54699.63,-41035.727,-17841.96,-38369.67,-40348.188,-30152.629
1221999.5584015094,-42466.96,-33815.188,-54699.586,-41036.133,-17843.059,-38369.47,-40353.027,-30156.088
1221999.5624015066,-42466.594,-33816.285,-54696.902,-41033.816,-17841.838,-38368.695,-40359.66,-30158.611
1221999.566401504,-42466.188,-33816.49,-54695.07,-41032.105,-17840.455,-38369.547,-40361.777,-30157.553
1221999.5704015014,-42468.223,-33819.46,-54697.754,-41034.223,-17843.873,-38371.664,-40360.027,-30161.988
1221999.5744014985,-42470.582,-33821.777,-54701.17,-41035.36,-17847.332,-38370.402,-40356.812,-30160.441
1221999.578401496,-42470.746,-33823.203,-54699.3,-41034.465,-17846.436,-38369.957,-40359.457,-30161.297
1221999.5824014933,-42470.176,-33820.965,-54695.19,-41032.27,-17844.035,-38369.793,-40363.12,-30162.314
1221999.5864014905,-42467.613,-33818.605,-54692.87,-41031.008,-17842.938,-38370.973,-40366.414,-30160.197
1221999.590401488,-42469.973,-33821.414,-54694.703,-41031.94,-17844.93,-38371.258,-40365.64,-30159.385
1221999.5944014853,-42470.746,-33823.977,-54694.867,-41032.676,-17848.633,-38371.42,-40362.793,-30158.244
1221999.5984014824,-42469.727,-33823.527,-54693.44,-41031.58,-17846.924,-38370.81,-40361.37,-30156.17
1221999.6024014798,-42467.41,-33821.617,-54691.203,-41030.152,-17844.646,-38368.53,-40361.246,-30154.258
1221999.6064014772,-42470.258,-33822.105,-54691.816,-41029.91,-17845.623,-38368.816,-40361.9,-30146.525
1221999.6104014744,-42473.715,-33824.06,-54694.055,-41031.656,-17848.389,-38370.117,-40362.1,-30153.037
1221999.6144014718,-42471.152,-33822.88,-54693.973,-41030.76,-17848.47,-38371.176,-40359.78,-30157.838
1221999.6184014692,-42470.746,-33822.39,-54691.613,-41029.42,-17847.82,-38371.664,-40358.113,-30159.262
1221999.6224014664,-42479.492,-33832.234,-54691.938,-41031.008,-17850.383,-38370.402,-40359.58,-30155.803
1221999.6264014638,-42483.727,-33834.72,-54692.793,-41032.84,-17851.318,-38370.688,-40365.438,-30153.605
1221999.630401461,-42470.258,-33819.176,-54691.33,-41028.32,-17844.564,-38371.707,-40367.105,-30158.896
1221999.6344014583,-42469.645,-33819.418,-54693.36,-41029.95,-17844.28,-38371.582,-40360.516,-30158.203
1221999.6384014557,-42473.594,-33822.55,-54694.297,-41029.867,-17843.465,-38369.875,-40358.562,-30159.791
1221999.6424014529,-42476.48,-33823.16,-54693.605,-41029.95,-17841.879,-38368.043,-40359.336,-30158.244
1221999.6464014503,-42474.773,-33819.46,-54690.715,-41029.055,-17840.088,-38367.96,-40359.99,-30153.037
1221999.6504014477,-42471.64,-33816.043,-54688.76,-41026.082,-17838.543,-38368.29,-40355.51,-30149.496
1221999.6544014448,-42475.383,-33819.46,-54691.53,-41027.67,-17842.367,-38369.02,-40352.05,-30149.902
1221999.6584014422,-42478.027,-33821.98,-54691.734,-41028.2,-17845.094,-38369.387,-40352.742,-30155.885
1221999.6624014396,-42482.06,-33822.55,-54692.26,-41027.59,-17843.953,-38369.996,-40356.934,-30158.367
1221999.6664014368,-42481.363,-33818.727,-54690.84,-41028.24,-17839.885,-38370.65,-40361.492,-30155.926
1221999.6704014342,-42480.43,-33816.406,-54692.06,-41026.164,-17839.885,-38370.242,-40358.316,-30152.426
1221999.6744014316,-42479.25,-33817.465,-54692.953,-41025.676,-17841.023,-38369.02,-40354.9,-30152.305
1221999.6784014287,-42481.65,-33821.695,-54693.484,-41026.652,-17843.629,-38368.57,-40355.594,-30153.076
1221999.6824014261,-42483.562,-33819.906,-54692.996,-41026.734,-17843.465,-38369.223,-40360.72,-30154.258
1221999.6864014235,-42485.434,-33820.56,-54692.547,-41026.45,-17842.855,-38368.29,-40360.11,-30148.275
1221999.6904014207,-42487.145,-33821.656,-54693.32,-41026.855,-17844.238,-38368.613,-40356.12,-30147.38
1221999.694401418,-42485.758,-33820.11,-54692.426,-41025.84,-17845.418,-38369.754,-40355.023,-30150.92
1221999.6984014155,-42489.42,-33823.082,-54690.918,-41024.66,-17844.809,-38369.71,-40358.562,-30155.111
1221999.7024014127,-42487.508,-33819.46,-54689.293,-41023.195,-17841.268,-38370.242,-40364.664,-30164.756
1221999.70640141,-42488.04,-33819.54,-54691.0,-41023.64,-17841.96,-38370.117,-40366.984,-30159.912
1221999.7104014074,-42494.1,-33827.066,-54696.086,-41026.855,-17846.883,-38371.46,-40362.996,-30149.537
1221999.7144014046,-42494.832,-33829.266,-54697.836,-41027.14,-17847.535,-38372.64,-40360.27,-30157.023
1221999.718401402,-42495.484,-33828.086,-54696.453,-41026.207,-17845.947,-38371.34,-40356.65,-30158.773
1221999.7224013994,-42496.746,-33827.92,-54693.605,-41026.45,-17846.68,-38367.35,-40355.51,-30150.879
1221999.7264013966,-42494.47,-33824.18,-54692.63,-41026.082,-17845.541,-38366.58,-40358.523,-30153.89
1221999.730401394,-42492.8,-33820.355,-54692.18,-41024.17,-17845.418,-38367.88,-40354.656,-30154.297
1221999.7344013911,-42492.84,-33819.05,-54691.49,-41023.6,-17844.32,-38368.613,-40347.82,-30152.832
1221999.7384013885,-42492.35,-33821.574,-54690.676,-41023.64,-17842.164,-38368.613,-40347.168,-30150.188
1221999.742401386,-42495.08,-33823.934,-54690.023,-41025.066,-17840.82,-38368.938,-40352.945,-30151.002
1221999.746401383,-42498.047,-33827.19,-54691.69,-41025.637,-17844.035,-38369.59,-40355.875,-30154.297
1221999.7504013805,-42496.176,-33825.4,-54692.668,-41025.027,-17847.412,-38370.73,-40350.71,-30149.496
1221999.7544013779,-42493.33,-33823.082,-54692.26,-41024.332,-17845.906,-38371.22,-40345.664,-30148.072
1221999.758401375,-42490.887,-33822.55,-54689.82,-41023.195,-17842.652,-38371.46,-40343.305,-30147.137
1221999.7624013724,-42493.164,-33824.75,-54689.21,-41023.152,-17841.064,-38371.746,-40348.27,-30148.154
1221999.7664013698,-42495.605,-33824.625,-54688.887,-41023.03,-17840.414,-38370.934,-40352.62,-30150.39
1221999.770401367,-42496.664,-33822.39,-54690.473,-41023.03,-17837.158,-38369.793,-40348.633,-30151.205
1221999.7744013644,-42497.926,-33821.25,-54692.02,-41022.46,-17836.264,-38370.65,-40343.508,-30149.049
1221999.7784013618,-42498.902,-33822.43,-54691.855,-41023.355,-17838.46,-38372.805,-40344.117,-30151.816
1221999.782401359,-42499.88,-33822.51,-54689.82,-41022.83,-17839.193,-38373.82,-40349.203,-30155.152
1221999.7864013563,-42500.855,-33822.918,-54687.91,-41021.484,-17839.193,-38373.66,-40350.586,-30149.578
1221999.7904013537,-42499.676,-33820.477,-54687.785,-41019.86,-17841.064,-38373.535,-40346.64,-30143.148
1221999.794401351,-42498.74,-33821.37,-54688.4,-41019.816,-17842.57,-38373.496,-40341.188,-30144.572
1221999.7984013483,-42495.973,-33817.832,-54687.176,-41019.574,-17839.803,-38373.902,-40344.605,-30152.344
1221999.8024013457,-42496.707,-33816.367,-54684.207,-41018.35,-17837.605,-38372.56,-40348.27,-30148.764
1221999.8064013429,-42499.84,-33817.06,-54683.8,-41018.92,-17835.775,-38371.543,-40346.965,-30145.428
1221999.8104013402,-42499.797,-33818.32,-54685.305,-41019.168,-17834.717,-38373.17,-40343.914,-30146.525
1221999.8144013376,-42503.418,-33821.574,-54688.56,-41020.305,-17838.379,-38376.547,-40341.84,-30141.48
1221999.8184013348,-42505.7,-33823.0,-54690.715,-41020.996,-17840.617,-38376.832,-40343.387,-30144.125
1221999.8224013322,-42504.03,-33821.086,-54690.715,-41019.98,-17839.885,-38374.918,-40345.83,-30144.572
1221999.8264013296,-42505.168,-33818.605,-54690.88,-41020.184,-17839.559,-38375.816,-40349.855,-30150.39
1221999.8304013268,-42504.844,-33818.156,-54691.734,-41020.55,-17838.502,-38377.848,-40351.605,-30155.479
1221999.8344013242,-42505.86,-33820.07,-54695.152,-41021.08,-17839.803,-38378.99,-40349.367,-30154.053
1221999.8384013213,-42505.86,-33820.23,-54693.32,-41019.98,-17837.605,-38377.727,-40347.453,-30153.484
1221999.8424013187,-42505.86,-33819.254,-54688.152,-41018.883,-17836.549,-38377.688,-40350.79,-30154.502
1221999.846401316,-42508.18,-33820.64,-54685.754,-41017.906,-17835.531,-38377.035,-40353.273,-30157.105
1221999.8504013133,-42508.914,-33821.695,-54687.95,-41019.125,-17836.996,-38376.71,-40350.63,-30158.652
1221999.8544013107,-42512.086,-33826.05,-54691.164,-41020.996,-17840.496,-38377.24,-40344.727,-30157.432
1221999.858401308,-42508.992,-33825.074,-54689.74,-41018.72,-17840.252,-38376.914,-40344.81,-30159.994
1221999.8624013052,-42506.55,-33820.56,-54687.582,-41016.316,-17836.834,-38377.566,-40349.49,-30158.936
1221999.8664013026,-42510.62,-33822.51,-54688.723,-41017.293,-17836.549,-38378.297,-40351.2,-30158.123
1221999.8704013,-42511.07,-33822.062,-54690.797,-41017.824,-17837.932,-38378.582,-40347.332,-30156.902
1221999.8744012972,-42511.76,-33822.51,-54691.125,-41017.62,-17839.314,-38378.95,-40344.2,-30157.188
1221999.8784012946,-42510.133,-33822.67,-54688.926,-41015.79,-17837.89,-38378.46,-40345.133,-30154.705
1221999.882401292,-42512.086,-33824.016,-54687.46,-41015.87,-17838.217,-38379.64,-40350.26,-30155.479
1221999.8864012891,-42516.24,-33823.445,-54687.95,-41015.91,-17837.158,-38379.68,-40352.824,-30153.688
1221999.8904012865,-42524.414,-33827.555,-54692.465,-41018.19,-17839.396,-38377.44,-40346.965,-30149.863
1221999.894401284,-42526.652,-33829.996,-54691.246,-41018.758,-17840.414,-38377.36,-40340.457,-30146.281
1221999.898401281,-42512.574,-33821.902,-54683.473,-41015.91,-17841.676,-38378.582,-40343.953,-30155.926
1221999.9024012785,-42508.22,-33814.453,-54681.234,-41013.797,-17834.96,-38378.95,-40350.79,-30162.639
1221999.906401276,-42510.785,-33817.426,-54681.52,-41013.754,-17834.514,-38379.234,-40353.883,-30155.682
1221999.910401273,-42507.285,-33816.49,-54680.746,-41014.65,-17834.92,-38378.664,-40347.13,-30151.205
1221999.9144012704,-42510.215,-33815.88,-54682.78,-41015.055,-17835.043,-38378.055,-40342.734,-30159.18
1221999.9184012678,-42508.426,-33813.844,-54681.97,-41013.43,-17832.764,-38378.094,-40343.59,-30163.412
1221999.922401265,-42507.652,-33810.59,-54680.42,-41012.332,-17830.16,-38376.71,-40344.566,-30157.959
1221999.9264012624,-42510.215,-33810.344,-54682.09,-41013.754,-17829.021,-38377.117,-40345.582,-30156.7
1221999.9304012598,-42515.586,-33813.52,-54685.305,-41014.566,-17830.525,-38378.785,-40344.035,-30154.258
1221999.934401257,-42518.35,-33815.96,-54687.22,-41014.16,-17832.602,-38380.37,-40343.18,-30158.244
1221999.9384012544,-42515.707,-33814.58,-54683.84,-41011.56,-17829.143,-38378.99,-40342.855,-30156.088
1221999.9424012515,-42515.625,-33812.664,-54679.527,-41010.215,-17827.557,-38376.547,-40342.855,-30151.855
1221999.946401249,-42519.45,-33815.473,-54680.34,-41012.168,-17828.533,-38378.297,-40346.64,-30155.193
1221999.9504012463,-42520.55,-33818.2,-54683.23,-41013.43,-17826.986,-38381.715,-40346.316,-30158.447
1221999.9544012435,-42521.04,-33817.79,-54683.473,-41013.266,-17825.807,-38382.527,-40342.652,-30156.17
1221999.9584012409,-42522.22,-33817.14,-54682.7,-41012.86,-17827.516,-38380.984,-40338.83,-30148.398
1221999.9624012383,-42522.707,-33815.066,-54681.074,-41011.434,-17824.26,-38378.664,-40340.414,-30151.287
1221999.9664012354,-42520.223,-33811.605,-54680.137,-41010.54,-17820.191,-38376.75,-40341.637,-30156.006
1221999.9704012328,-42519.613,-33811.484,-54680.87,-41009.562,-17819.703,-38375.53,-40335.207,-30149.21
1221999.9744012302,-42523.195,-33815.758,-54683.92,-41010.742,-17825.115,-38376.1,-40330.406,-30144.94
1221999.9784012274,-42523.684,-33820.8,-54682.21,-41011.477,-17827.027,-38378.133,-40333.945,-30155.479
1221999.9824012248,-42523.887,-33823.934,-54678.918,-41010.99,-17824.91,-38380.29,-40337.688,-30155.6
1221999.9864012222,-42522.664,-33817.586,-54676.27,-41009.766,-17823.121,-38382.0,-40340.09,-30153.2
1221999.9904012193,-42519.86,-33814.82,-54675.703,-41009.684,-17824.3,-38381.633,-40337.89,-30153.402
1221999.9944012167,-42521.363,-33815.96,-54677.613,-41010.133,-17826.904,-38382.12,-40335.043,-30151.896
1221999.9984012141,-42524.58,-33817.914,-54678.67,-41010.254,-17826.416,-38382.04,-40333.902,-30146.525
1222000.0024012113,-42526.773,-33817.465,-54678.71,-41009.727,-17824.992,-38381.227,-40335.98,-30146.404
1222000.0064012087,-42529.215,-33818.035,-54680.3,-41010.05,-17826.58,-38379.64,-40340.58,-30149.822
1222000.010401206,-42535.156,-33822.184,-54684.734,-41011.11,-17831.422,-38378.99,-40339.926,-30155.885
1222000.0144012033,-42534.953,-33821.656,-54686.85,-41011.312,-17830.242,-38380.168,-40334.92,-30154.746
1222000.0184012007,-42533.773,-33822.47,-54685.63,-41010.01,-17828.41,-38381.023,-40334.27,-30154.258
1222000.022401198,-42532.27,-33821.74,-54682.09,-41009.645,-17825.848,-38379.64,-40337.527,-30155.03
1222000.0264011952,-42530.19,-33818.81,-54679.28,-41009.81,-17824.383,-38378.99,-40340.008,-30157.553
1222000.0304011926,-42532.96,-33819.215,-54679.2,-41010.785,-17827.107,-38377.81,-40333.09,-30157.92
1222000.03440119,-42532.676,-33820.598,-54679.2,-41010.99,-17830.445,-38377.24,-40328.41,-30155.559
1222000.0384011872,-42532.797,-33821.004,-54678.145,-41011.637,-17829.51,-38377.402,-40330.73,-30159.709
1222000.0424011846,-42533.734,-33822.715,-54677.125,-41012.086,-17828.857,-38376.508,-40332.723,-30156.088
1222000.0464011817,-42535.28,-33824.953,-54676.35,-41013.266,-17830.445,-38376.953,-40333.254,-30151.855
1222000.0504011791,-42536.05,-33825.93,-54677.086,-41012.29,-17830.525,-38378.38,-40328.9,-30143.88
1222000.0544011765,-42535.156,-33827.35,-54675.62,-41011.19,-17829.672,-38378.703,-40324.504,-30141.277
1222000.0584011737,-42533.816,-33825.887,-54675.09,-41010.094,-17827.434,-38378.703,-40326.945,-30144.328
1222000.062401171,-42533.49,-33822.55,-54674.727,-41009.684,-17825.195,-38380.82,-40335.652,-30150.635
1222000.0664011685,-42529.99,-33818.93,-54673.383,-41008.87,-17823.934,-38382.0,-40341.555,-30155.355
1222000.0704011656,-42528.035,-33818.605,-54674.4,-41008.383,-17823.854,-38381.348,-40336.996,-30154.258
1222000.074401163,-42529.582,-33819.38,-54677.168,-41009.402,-17821.86,-38380.902,-40331.137,-30153.89
1222000.0784011604,-42531.293,-33818.2,-54676.68,-41007.57,-17819.5,-38379.355,-40328.94,-30154.95
1222000.0824011576,-42532.227,-33817.14,-54674.766,-41007.082,-17818.645,-38380.047,-40333.824,-30154.785
1222000.086401155,-42527.426,-33813.113,-54672.324,-41006.676,-17816.488,-38381.105,-40338.016,-30160.605
1222000.0904011524,-42530.4,-33814.656,-54677.492,-41007.938,-17818.807,-38383.586,-40335.777,-30161.215
1222000.0944011495,-42531.21,-33817.547,-54679.61,-41008.14,-17820.68,-38384.89,-40332.4,-30159.344
1222000.098401147,-42531.82,-33817.344,-54678.71,-41007.773,-17821.533,-38385.582,-40334.188,-30162.518
1222000.1024011443,-42531.78,-33819.867,-54676.84,-41007.242,-17820.76,-38384.848,-40338.016,-30164.47
1222000.1064011415,-42531.25,-33818.523,-54674.523,-41005.453,-17817.465,-38385.215,-40342.203,-30168.986
1222000.110401139,-42532.31,-33815.555,-54674.645,-41006.227,-17817.547,-38386.355,-40337.934,-30163.86
1222000.1144011363,-42533.773,-33819.742,-54675.863,-41007.164,-17818.562,-38388.1,-40332.195,-30162.07
1222000.1184011335,-42532.918,-33818.32,-54675.703,-41004.598,-17815.512,-38387.9,-40331.098,-30161.5
1222000.1224011309,-42533.406,-33815.594,-54676.27,-41003.297,-17815.389,-38388.227,-40334.96,-30159.22
1222000.1264011282,-42535.24,-33818.117,-54677.168,-41005.29,-17815.877,-38388.1,-40336.062,-30157.432
1222000.1304011254,-42538.047,-33820.68,-54677.086,-41007.895,-17820.8,-38389.977,-40335.652,-30161.174
1222000.1344011228,-42538.168,-33820.72,-54677.207,-41006.594,-17818.645,-38390.543,-40335.855,-30166.465
1222000.1384011202,-42536.95,-33821.98,-54677.125,-41004.312,-17817.668,-38389.69,-40333.742,-30163.941
1222000.1424011174,-42537.312,-33822.797,-54676.23,-41004.52,-17816.732,-38388.51,-40334.637,-30158.773
1222000.1464011148,-42539.918,-33824.098,-54674.195,-41005.13,-17819.703,-38387.41,-40338.707,-30160.361
1222000.1504011122,-42544.07,-33825.93,-54678.508,-41006.55,-17821.004,-38388.633,-40337.77,-30170.451
1222000.1544011093,-42553.387,-33832.074,-54681.684,-41006.754,-17821.492,-38388.754,-40332.36,-30170.98
1222000.1584011067,-42555.46,-33835.613,-54676.758,-41005.047,-17820.883,-38387.41,-40330.08,-30167.889
1222000.1624011039,-42541.383,-33823.895,-54668.54,-41001.344,-17815.594,-38386.76,-40333.7,-30165.04
1222000.1664011013,-42538.617,-33819.95,-54667.81,-41001.75,-17813.924,-38387.332,-40336.875,-30161.5
1222000.1704010987,-42543.05,-33821.535,-54669.64,-41003.094,-17815.023,-38386.273,-40331.055,-30158.447
1222000.1744010958,-42544.434,-33823.895,-54668.99,-41003.38,-17813.355,-38383.586,-40321.168,-30153.32
1222000.1784010932,-42536.5,-33820.598,-54663.453,-41001.465,-17812.256,-38383.26,-40319.094,-30149.049
1222000.1824010906,-42535.562,-33817.668,-54662.03,-41000.33,-17811.035,-38383.14,-40322.145,-30146.77
1222000.1864010878,-42537.926,-33819.664,-54663.008,-41001.508,-17810.426,-38385.54,-40327.273,-30148.764
1222000.1904010852,-42536.133,-33819.297,-54664.88,-41001.832,-17811.688,-38387.86,-40328.207,-30150.107
1222000.1944010826,-42537.965,-33822.633,-54667.688,-41001.63,-17811.932,-38388.184,-40327.11,-30154.297
1222000.1984010797,-42542.81,-33828.9,-54671.105,-41002.566,-17814.006,-38387.535,-40328.86,-30158.57
1222000.2024010771,-42545.207,-33828.98,-54671.918,-41003.582,-17813.803,-38385.17,-40332.48,-30162.518
1222000.2064010745,-42545.98,-33829.55,-54671.31,-41005.94,-17815.633,-38382.082,-40333.7,-30161.906
1222000.2104010717,-42544.395,-33832.6,-54672.69,-41006.43,-17819.988,-38381.88,-40330.12,-30159.832
1222000.214401069,-42541.14,-33833.457,-54671.797,-41005.13,-17818.197,-38383.504,-40328.86,-30158.691
1222000.2184010665,-42540.04,-33832.848,-54669.76,-41003.703,-17818.727,-38383.426,-40329.715,-30154.705
1222000.2224010637,-42539.145,-33833.457,-54667.2,-41003.785,-17820.395,-38380.617,-40332.48,-30151.328
1222000.226401061,-42538.453,-33835.45,-54666.344,-41004.152,-17820.72,-38381.145,-40336.793,-30157.023
1222000.2304010584,-42538.004,-33836.184,-54667.48,-41005.656,-17822.836,-38383.426,-40335.246,-30152.752
1222000.2344010556,-42541.75,-33840.78,-54669.355,-41005.535,-17824.992,-38384.195,-40331.79,-30148.602
1222000.238401053,-42545.047,-33846.68,-54670.574,-41005.777,-17827.19,-38383.344,-40335.086,-30155.396
1222000.2424010504,-42544.11,-33845.906,-54667.605,-41004.883,-17827.922,-38382.855,-40342.082,-30163.818
1222000.2464010476,-42544.92,-33847.617,-54666.383,-41005.94,-17831.096,-38383.26,-40346.11,-30160.441
1222000.250401045,-42543.094,-33847.414,-54667.402,-41005.94,-17832.398,-38384.402,-40343.1,-30160.28
1222000.2544010424,-42541.098,-33841.96,-54668.457,-41003.5,-17831.99,-38384.562,-40338.38,-30157.35
1222000.2584010395,-42538.902,-33839.234,-54667.848,-41001.75,-17829.998,-38383.75,-40338.582,-30158.855
1222000.262401037,-42540.367,-33839.316,-54667.402,-41001.1,-17828.41,-38384.93,-40341.066,-30157.92
1222000.266401034,-42540.367,-33840.535,-54665.977,-41001.344,-17830.078,-38382.773,-40339.64,-30152.467
1222000.2704010315,-42539.43,-33840.58,-54666.098,-41000.938,-17830.566,-38379.883,-40333.824,-30149.781
1222000.2744010289,-42536.906,-33840.78,-54664.145,-41000.977,-17829.916,-38380.414,-40330.65,-30148.602
1222000.278401026,-42534.953,-33841.35,-54662.03,-40999.797,-17830.77,-38381.348,-40330.65,-30145.916
1222000.2824010234,-42536.824,-33841.105,-54661.867,-40999.715,-17831.707,-38382.12,-40335.816,-30146.24
1222000.2864010208,-42539.715,-33841.31,-54661.215,-40999.918,-17831.746,-38381.836,-40339.805,-30148.193
1222000.290401018,-42539.633,-33840.902,-54662.598,-40999.35,-17831.38,-38382.285,-40334.027,-30145.875
1222000.2944010154,-42539.633,-33842.33,-54662.68,-40999.023,-17831.707,-38381.797,-40327.23,-30143.393
1222000.2984010128,-42541.26,-33843.59,-54660.93,-40998.25,-17830.77,-38381.676,-40328.043,-30148.764
1222000.30240101,-42544.027,-33843.1,-54661.95,-41000.164,-17830.77,-38381.594,-40333.62,-30153.85
1222000.3064010073,-42540.57,-33838.95,-54660.89,-41000.043,-17826.824,-38382.203,-40336.426,-30156.617
1222000.3104010047,-42537.8,-33838.46,-54660.32,-40998.74,-17826.01,-38381.43,-40330.16,-30152.873
1222000.314401002,-42539.105,-33839.48,-54660.85,-40999.31,-17828.166,-38381.594,-40325.6,-30149.902
1222000.3184009993,-42541.953,-33841.637,-54659.832,-40998.58,-17830.037,-38382.203,-40327.15,-30150.84
1222000.3224009967,-42544.395,-33842.977,-54658.69,-40998.58,-17831.299,-38381.633,-40330.973,-30148.967
1222000.3264009939,-42542.074,-33837.65,-54656.17,-40997.152,-17828.492,-38380.13,-40329.633,-30145.875
1222000.3304009913,-42545.9,-33837.445,-54658.203,-40997.56,-17829.266,-38378.543,-40321.13,-30139.404
1222000.3344009886,-42546.305,-33839.76,-54660.402,-40997.477,-17829.957,-38379.477,-40318.277,-30149.414
1222000.3384009858,-42543.824,-33838.34,-54658.164,-40996.094,-17827.963,-38379.395,-40317.668,-30147.828
1222000.3424009832,-42545.492,-33840.78,-54657.676,-40996.01,-17826.172,-38379.598,-40322.105,-30141.643
1222000.3464009806,-42549.074,-33840.496,-54657.637,-40997.152,-17826.863,-38381.105,-40328.207,-30141.887
1222000.3504009778,-42549.03,-33842.816,-54659.06,-40996.582,-17829.225,-38381.43,-40329.59,-30156.414
1222000.3544009752,-42548.016,-33843.75,-54659.875,-40996.785,-17833.13,-38380.902,-40323.73,-30152.264
1222000.3584009726,-42551.27,-33844.645,-54659.75,-40997.4,-17833.781,-38379.723,-40321.29,-30149.008
1222000.3624009697,-42554.566,-33845.418,-54661.215,-40999.023,-17833.537,-38379.477,-40327.76,-30155.273
1222000.3664009671,-42556.03,-33844.93,-54662.152,-40998.902,-17833.781,-38378.867,-40332.4,-30155.438
1222000.3704009643,-42553.914,-33844.156,-54663.13,-40998.94,-17833.455,-38380.21,-40328.816,-30152.71
1222000.3744009617,-42553.754,-33844.566,-54664.96,-40999.023,-17834.27,-38380.94,-40323.61,-30154.541
1222000.378400959,-42551.516,-33842.734,-54665.04,-40997.805,-17832.928,-38380.29,-40323.812,-30154.582
1222000.3824009562,-42552.45,-33841.637,-54663.453,-40996.99,-17830.404,-38380.168,-40327.516,-30154.99
1222000.3864009536,-42556.926,-33843.63,-54662.355,-40997.234,-17831.014,-38379.723,-40328.816,-30150.432
1222000.390400951,-42557.617,-33843.1,-54663.78,-40996.664,-17832.275,-38379.477,-40324.18,-30147.178
1222000.3944009482,-42553.67,-33840.414,-54662.844,-40995.523,-17831.87,-38380.902,-40321.004,-30152.793
1222000.3984009456,-42554.566,-33839.805,-54661.746,-40993.41,-17831.258,-38381.797,-40323.367,-30157.39
1222000.402400943,-42560.184,-33842.0,-54663.453,-40994.02,-17831.91,-38382.812,-40329.836,-30159.668
1222000.4064009401,-42557.82,-33836.832,-54662.844,-40992.594,-17828.328,-38382.938,-40333.457,-30162.924
1222000.4104009375,-42555.016,-33834.676,-54662.68,-40992.312,-17827.678,-38381.473,-40325.81,-30154.99
1222000.414400935,-42554.402,-33835.492,-54662.965,-40992.473,-17827.922,-38380.82,-40318.93,-30147.787
1222000.418400932,-42553.754,-33832.848,-54661.133,-40993.164,-17826.01,-38381.43,-40319.785,-30147.746
1222000.4224009295,-42554.605,-33830.61,-54659.387,-40992.8,-17824.383,-38382.406,-40321.695,-30144.287
1222000.426400927,-42558.35,-33832.52,-54660.85,-40992.88,-17823.854,-38382.527,-40323.04,-30143.678
1222000.430400924,-42563.965,-33834.676,-54662.965,-40994.832,-17826.701,-38384.24,-40318.36,-30136.557
1222000.4344009215,-42565.555,-33836.996,-54663.86,-40993.41,-17826.904,-38383.465,-40314.496,-30139.812
1222000.4384009189,-42564.008,-33837.242,-54661.215,-40991.66,-17825.887,-38383.504,-40316.043,-30153.443
1222000.442400916,-42562.95,-33833.78,-54658.53,-40990.48,-17826.701,-38382.0,-40318.605,-30157.635
1222000.4464009134,-42565.676,-33835.086,-54659.02,-40992.555,-17827.637,-38380.86,-40319.38,-30155.682
1222000.4504009108,-42567.344,-33837.973,-54660.363,-40993.855,-17829.06,-38381.918,-40316.773,-30151.246
1222000.454400908,-42568.727,-33840.7,-54663.496,-40993.816,-17830.281,-38383.22,-40314.332,-30152.264
1222000.4584009054,-42575.645,-33843.02,-54666.016,-40993.938,-17828.695,-38382.812,-40313.355,-30153.361
1222000.4624009028,-42584.066,-33850.016,-54665.938,-40994.63,-17828.533,-38382.45,-40315.43,-30153.443
1222000.4664009,-42572.105,-33842.0,-54659.1,-40991.66,-17826.336,-38383.79,-40320.07,-30154.582
1222000.4704008973,-42564.37,-33837.973,-54657.105,-40990.562,-17828.41,-38386.355,-40320.19,-30158.164
1222000.4744008945,-42569.176,-33846.805,-54658.652,-40992.92,-17832.52,-38385.5,-40315.43,-30157.227
1222000.4784008919,-42565.066,-33842.652,-54656.7,-40992.312,-17832.072,-38384.035,-40312.418,-30154.135
1222000.4824008893,-42564.414,-33843.06,-54655.355,-40992.105,-17830.486,-38383.06,-40313.477,-30151.855
1222000.4864008864,-42561.688,-33843.63,-54654.22,-40991.496,-17831.137,-38384.562,-40317.668,-30150.107
1222000.4904008838,-42560.06,-33842.938,-54656.008,-40992.105,-17833.66,-38386.434,-40315.758,-30149.375
1222000.4944008812,-42556.438,-33841.637,-54654.094,-40989.91,-17833.62,-38385.66,-40310.914,-30151.938
1222000.4984008784,-42552.004,-33839.355,-54649.375,-40986.574,-17831.096,-38383.547,-40308.105,-30149.375
1222000.5024008758,-42557.457,-33841.434,-54647.87,-40986.453,-17832.072,-38384.645,-40310.344,-30145.672
1222000.5064008732,-42563.56,-33844.727,-54651.492,-40989.137,-17834.514,-38387.168,-40317.465,-30150.27
1222000.5104008703,-42566.53,-33847.086,-54653.77,-40991.336,-17835.37,-38388.227,-40317.465,-30153.076
1222000.5144008677,-42562.543,-33843.996,-54653.08,-40989.504,-17833.537,-38387.98,-40314.168,-30151.408
1222000.5184008651,-42560.223,-33841.188,-54649.62,-40986.613,-17832.357,-38386.92,-40313.152,-30151.938
1222000.5224008623,-42559.49,-33840.7,-54648.805,-40985.15,-17830.242,-38387.41,-40319.785,-30159.465
1222000.5264008597,-42562.625,-33841.92,-54649.336,-40985.84,-17830.242,-38388.43,-40323.203,-30159.75
1222000.530400857,-42568.24,-33845.418,-54650.96,-40987.67,-17833.74,-38388.1,-40317.63,-30154.094
1222000.5344008543,-42570.027,-33847.13,-54653.08,-40988.61,-17833.822,-38387.332,-40310.06,-30147.95
1222000.5384008517,-42569.99,-33845.785,-54652.875,-40988.445,-17831.543,-38387.41,-40312.703,-30156.006
1222000.542400849,-42567.3,-33841.105,-54650.434,-40985.27,-17826.498,-38387.332,-40315.594,-30159.953
1222000.5464008462,-42566.977,-33840.984,-54649.17,-40985.477,-17824.342,-38388.348,-40318.36,-30160.361
1222000.5504008436,-42567.508,-33841.35,-54649.945,-40985.35,-17824.139,-38389.04,-40314.58,-30156.129
1222000.554400841,-42570.8,-33842.652,-54651.004,-40984.99,-17824.586,-38389.16,-40310.02,-30152.873
1222000.5584008382,-42572.715,-33845.297,-54649.945,-40984.05,-17824.83,-38390.34,-40311.605,-30153.037
1222000.5624008356,-42574.75,-33847.414,-54650.11,-40985.758,-17827.434,-38391.684,-40315.473,-30152.14
1222000.566400833,-42576.375,-33848.023,-54650.188,-40987.387,-17827.393,-38391.766,-40316.0,-30151.855
1222000.5704008301,-42574.707,-33850.3,-54651.98,-40988.688,-17827.393,-38389.445,-40309.773,-30148.031
1222000.5744008275,-42577.066,-33851.562,-54655.52,-40989.22,-17828.94,-38389.203,-40304.28,-30146.77
1222000.5784008247,-42578.004,-33851.32,-54653.77,-40988.61,-17829.672,-38388.918,-40303.67,-30147.258
1222000.582400822,-42576.906,-33851.117,-54650.92,-40988.973,-17829.102,-38386.598,-40304.812,-30145.143
1222000.5864008195,-42577.273,-33851.605,-54649.7,-40988.973,-17828.451,-38386.23,-40306.277,-30142.09
1222000.5904008166,-42576.863,-33850.668,-54651.043,-40988.527,-17826.701,-38388.348,-40305.746,-30145.428
1222000.594400814,-42579.918,-33852.664,-54654.094,-40988.73,-17827.8,-38390.87,-40304.2,-30149.74
1222000.5984008114,-42580.895,-33854.13,-54654.91,-40988.324,-17828.328,-38392.17,-40307.457,-30154.826
1222000.6024008086,-42579.43,-33853.883,-54652.754,-40987.55,-17827.271,-38391.93,-40311.727,-30156.088
1222000.606400806,-42582.887,-33854.207,-54653.242,-40987.223,-17826.498,-38390.3,-40309.57,-30149.17
1222000.6104008034,-42584.8,-33852.5,-54655.64,-40987.633,-17828.816,-38390.26,-40302.574,-30140.87
1222000.6144008006,-42581.668,-33850.63,-54654.992,-40986.574,-17827.596,-38389.812,-40297.12,-30138.184
1222000.618400798,-42583.984,-33852.05,-54653.566,-40985.11,-17825.807,-38389.16,-40301.35,-30149.781
1222000.6224007953,-42585.652,-33851.605,-54654.42,-40985.066,-17824.666,-38388.348,-40308.676,-30157.105
1222000.6264007925,-42583.496,-33848.062,-54654.992,-40985.19,-17822.266,-38387.98,-40313.234,-30162.639
1222000.63040079,-42584.758,-33847.94,-54656.047,-40986.168,-17821.127,-38388.715,-40308.23,-30159.344
1222000.6344007873,-42585.29,-33848.473,-54655.113,-40985.598,-17822.795,-38389.895,-40303.55,-30157.268
1222000.6384007845,-42584.312,-33848.836,-54651.9,-40983.766,-17823.771,-38390.18,-40305.055,-30158.123
1222000.6424007819,-42587.73,-33851.402,-54651.574,-40984.99,-17825.807,-38391.766,-40310.426,-30158.896
1222000.6464007793,-42589.805,-33852.62,-54651.777,-40986.574,-17826.213,-38393.758,-40314.656,-30163.738
1222000.6504007764,-42589.4,-33851.402,-54651.574,-40985.027,-17827.516,-38393.27,-40309.49,-30160.727
1222000.6544007738,-42592.367,-33852.254,-54653.566,-40984.863,-17827.8,-38393.598,-40305.664,-30161.094
1222000.6584007712,-42591.84,-33849.812,-54653.117,-40985.066,-17826.05,-38394.45,-40303.996,-30160.4
1222000.6624007684,-42592.938,-33847.984,-54651.53,-40984.375,-17823.242,-38392.742,-40303.55,-30154.746
1222000.6664007658,-42596.11,-33850.18,-54651.574,-40983.93,-17825.033,-38390.83,-40306.195,-30150.799
1222000.6704007632,-42595.297,-33853.72,-54651.45,-40984.78,-17829.266,-38391.645,-40302.9,-30154.258
1222000.6744007603,-42592.367,-33853.92,-54650.312,-40985.11,-17828.94,-38392.375,-40295.37,-30151.531
1222000.6784007577,-42592.45,-33851.156,-54648.074,-40982.586,-17824.586,-38392.703,-40294.273,-30147.46
1222000.682400755,-42592.652,-33847.82,-54646.16,-40981.285,-17821.004,-38392.945,-40300.21,-30151.816
1222000.6864007523,-42593.344,-33845.99,-54647.586,-40981.445,-17819.418,-38395.67,-40306.152,-30155.6
1222000.6904007497,-42595.297,-33847.21,-54649.414,-40981.895,-17820.639,-38395.67,-40302.41,-30152.467
1222000.6944007468,-42595.34,-33849.938,-54650.027,-40981.85,-17822.713,-38396.445,-40300.293,-30152.67
1222000.6984007442,-42592.41,-33846.68,-54648.195,-40980.715,-17820.8,-38395.67,-40302.98,-30155.682
1222000.7024007416,-42594.2,-33845.906,-54647.098,-40981.445,-17818.97,-38396.89,-40306.684,-30158.773
1222000.7064007388,-42595.99,-33844.688,-54645.67,-40980.875,-17817.059,-38397.586,-40308.594,-30158.285
1222000.7104007362,-42595.215,-33844.28,-54645.55,-40981.0,-17816.447,-38396.812,-40303.305,-30153.525
1222000.7144007336,-42595.46,-33845.99,-54646.895,-40981.082,-17816.814,-38395.47,-40295.047,-30146.322
1222000.7184007308,-42596.273,-33848.918,-54646.08,-40983.316,-17816.406,-38395.223,-40292.195,-30139.61
1222000.7224007281,-42601.24,-33856.895,-54646.12,-40983.97,-17818.28,-38396.28,-40298.22,-30150.676
1222000.7264007255,-42609.703,-33861.492,-54649.21,-40985.15,-17821.045,-38396.77,-40303.426,-30159.344
1222000.7304007227,-42602.457,-33849.652,-54649.824,-40984.133,-17821.615,-38397.664,-40301.96,-30156.047
1222000.73440072,-42593.06,-33837.65,-54647.383,-40980.594,-17817.953,-38397.504,-40295.86,-30152.832
1222000.7384007175,-42593.426,-33837.527,-54645.508,-40979.047,-17818.074,-38397.055,-40293.906,-30152.832
1222000.7424007147,-42598.797,-33843.344,-54645.348,-40979.695,-17815.105,-38396.08,-40296.305,-30154.014
1222000.746400712,-42599.977,-33843.832,-54646.61,-40981.363,-17812.785,-38395.71,-40299.52,-30150.92
1222000.7504007095,-42601.848,-33845.543,-54648.562,-40981.61,-17813.68,-38396.242,-40296.59,-30142.863
1222000.7544007066,-42606.773,-33849.04,-54652.02,-40981.934,-17815.105,-38398.48,-40297.445,-30148.682
1222000.758400704,-42605.55,-33847.293,-54651.207,-40980.836,-17813.64,-38397.664,-40301.188,-30164.795
1222000.7624007014,-42607.87,-33848.676,-54649.945,-40982.016,-17813.232,-38396.688,-40305.42,-30172.568
1222000.7664006986,-42610.84,-33849.57,-54652.387,-40983.316,-17813.559,-38396.28,-40305.79,-30169.639
1222000.770400696,-42613.2,-33850.26,-54655.03,-40984.01,-17815.594,-38395.67,-40301.883,-30167.766
1222000.7744006934,-42615.03,-33853.395,-54656.09,-40985.35,-17817.994,-38397.258,-40300.133,-30163.738
1222000.7784006905,-42614.3,-33852.99,-54653.566,-40983.24,-17818.36,-38398.723,-40302.125,-30162.598
1222000.782400688,-42614.664,-33851.074,-54651.938,-40982.18,-17815.389,-38399.742,-40308.023,-30168.742
1222000.7864006853,-42618.082,-33850.79,-54651.777,-40982.625,-17814.332,-38401.695,-40312.137,-30168.418
1222000.7904006825,-42617.8,-33850.586,-54651.816,-40981.812,-17814.982,-38400.72,-40306.316,-30163.127
1222000.7944006799,-42615.438,-33850.953,-54652.793,-40982.22,-17814.412,-38399.414,-40298.953,-30162.314
1222000.798400677,-42613.77,-33851.97,-54652.062,-40982.547,-17812.744,-38397.3,-40297.324,-30162.11
1222000.8024006744,-42618.33,-33854.617,-54652.71,-40983.805,-17813.803,-38395.836,-40300.375,-30160.076
1222000.8064006718,-42620.934,-33857.098,-54651.45,-40985.15,-17817.465,-38396.12,-40302.125,-30156.21
1222000.810400669,-42620.2,-33856.527,-54650.434,-40983.848,-17815.959,-38396.566,-40295.29,-30148.56
1222000.8144006664,-42622.76,-33859.09,-54651.246,-40983.93,-17817.586,-38396.242,-40286.664,-30136.23
1222000.8184006638,-42622.64,-33858.684,-54648.4,-40982.504,-17816.814,-38397.055,-40289.957,-30147.217
1222000.822400661,-42622.6,-33857.75,-54646.324,-40982.668,-17815.918,-38397.707,-40297.324,-30155.479
1222000.8264006583,-42625.406,-33860.883,-54648.195,-40984.293,-17816.406,-38395.957,-40299.52,-30151.49
1222000.8304006557,-42629.234,-33863.61,-54651.41,-40986.41,-17816.447,-38395.996,-40295.656,-30149.334
1222000.834400653,-42630.777,-33864.016,-54652.184,-40985.72,-17816.447,-38395.47,-40290.367,-30147.91
1222000.8384006503,-42631.676,-33862.145,-54650.312,-40984.54,-17816.854,-38395.348,-40291.344,-30147.299
1222000.8424006477,-42630.047,-33865.438,-54647.18,-40983.523,-17813.803,-38394.86,-40298.3,-30160.482
1222000.8464006449,-42628.46,-33861.37,-54645.43,-40982.42,-17811.932,-38395.062,-40301.188,-30162.762
1222000.8504006423,-42625.57,-33858.24,-54645.266,-40982.75,-17813.64,-38396.484,-40294.637,-30152.06
1222000.8544006397,-42624.555,-33858.727,-54645.43,-40981.85,-17814.494,-38396.688,-40287.926,-30146.201
1222000.8584006368,-42625.49,-33860.35,-54644.574,-40980.184,-17811.646,-38396.12,-40288.574,-30149.984
1222000.8624006342,-42629.68,-33862.67,-54644.574,-40980.594,-17810.914,-38396.77,-40294.92,-30157.635
1222000.8664006316,-42634.24,-33867.35,-54645.305,-40982.75,-17812.135,-38396.04,-40300.336,-30158.773
1222000.8704006288,-42633.75,-33864.625,-54647.668,-40983.36,-17812.664,-38396.363,-40297.08,-30156.494
1222000.8744006262,-42634.24,-33868.492,-54650.27,-40983.523,-17815.715,-38398.48,-40293.375,-30156.332
1222000.8784006236,-42634.605,-33869.63,-54648.316,-40982.34,-17817.098,-38399.54,-40293.094,-30154.705
1222000.8824006207,-42630.7,-33865.52,-54644.94,-40981.85,-17814.373,-38399.78,-40295.453,-30152.588
1222000.8864006181,-42630.21,-33862.55,-54643.84,-40981.895,-17813.191,-38399.58,-40296.145,-30151.611
1222000.8904006155,-42627.605,-33859.457,-54642.457,-40979.207,-17809.979,-38397.91,-40289.39,-30149.21
1222000.8944006127,-42630.37,-33860.92,-54645.43,-40979.777,-17810.1,-38399.09,-40287.027,-30149.375
1222000.89840061,-42630.82,-33861.37,-54646.04,-40978.355,-17809.285,-38397.746,-40288.004,-30150.676
1222000.9024006072,-42628.99,-33859.457,-54645.227,-40977.664,-17807.576,-38396.934,-40293.66,-30153.443
1222000.9064006046,-42626.914,-33858.523,-54646.445,-40977.785,-17807.7,-38398.152,-40298.383,-30155.193
1222000.910400602,-42627.2,-33856.082,-54646.65,-40977.418,-17808.797,-38399.09,-40292.848,-30150.188
1222000.9144005992,-42622.152,-33851.156,-54643.273,-40973.676,-17804.81,-38399.617,-40286.746,-30148.154
1222000.9184005966,-42620.445,-33848.715,-54640.26,-40971.03,-17800.945,-38399.496,-40286.094,-30151.816
1222000.922400594,-42622.844,-33849.527,-54639.04,-40972.535,-17801.148,-38399.82,-40291.098,-30149.74
1222000.9264005912,-42627.36,-33850.914,-54641.81,-40975.426,-17800.537,-38401.33,-40294.84,-30151.855
1222000.9304005885,-42628.055,-33849.855,-54644.74,-40976.605,-17802.857,-38401.816,-40290.812,-30149.293
1222000.934400586,-42624.797,-33849.855,-54646.73,-40975.465,-17804.729,-38402.184,-40287.152,-30147.299
1222000.938400583,-42625.125,-33854.25,-54647.668,-40975.75,-17807.049,-38403.523,-40290.082,-30156.006
1222000.9424005805,-42629.07,-33861.98,-54647.055,-40976.645,-17809.814,-38403.445,-40294.883,-30155.07
1222000.946400578,-42630.25,-33863.973,-54645.793,-40975.953,-17809.693,-38402.793,-40294.35,-30145.305
1222000.950400575,-42616.254,-33847.74,-54642.824,-40973.31,-17800.863,-38404.83,-40290.73,-30147.34
1222000.9544005725,-42610.15,-33838.95,-54641.48,-40971.805,-17798.504,-38407.84,-40288.74,-30153.281
1222000.9584005699,-42612.875,-33841.715,-54640.098,-40970.95,-17797.934,-38405.68,-40287.516,-30142.05
1222000.962400567,-42611.37,-33839.273,-54639.73,-40970.664,-17796.428,-38404.055,-40290.812,-30139.324
1222000.9664005644,-42613.77,-33842.043,-54641.035,-40970.297,-17799.969,-38401.652,-40293.457,-30139.73
1222000.9704005618,-42611.33,-33841.797,-54640.06,-40969.605,-17799.44,-38401.004,-40292.848,-30149.455
1222000.974400559,-42610.395,-33843.14,-54638.633,-40968.14,-17800.375,-38401.98,-40291.547,-30147.014
1222000.9784005564,-42609.133,-33845.543,-54637.656,-40967.164,-17801.799,-38401.98,-40293.375,-30145.387
1222000.9824005538,-42610.68,-33847.902,-54637.695,-40966.88,-17802.37,-38401.57,-40300.254,-30147.787
1222000.986400551,-42611.41,-33847.414,-54637.168,-40967.246,-17802.857,-38401.246,-40304.605,-30148.56
1222000.9904005483,-42608.805,-33844.08,-54635.742,-40966.637,-17801.434,-38400.31,-40298.383,-30150.676
1222000.9944005457,-42608.727,-33847.293,-54635.336,-40967.938,-17804.2,-38400.516,-40294.477,-30152.344
1222000.998400543,-42610.027,-33848.918,-54634.074,-40966.88,-17805.34,-38399.414,-40294.84,-30151.938
1222001.0024005403,-42611.695,-33852.906,-54634.117,-40967.082,-17806.072,-38398.113,-40298.34,-30149.578
1222001.0064005374,-42611.777,-33853.23,-54634.2,-40967.855,-17806.234,-38398.03,-40305.95,-30150.31
1222001.0104005348,-42612.387,-33849.527,-54633.953,-40967.652,-17806.805,-38399.902,-40305.3,-30150.635
1222001.0144005322,-42612.348,-33849.367,-54633.3,-40967.164,-17807.008,-38401.652,-40302.33,-30149.496
1222001.0184005294,-42612.02,-33850.79,-54631.797,-40966.637,-17806.56,-38402.387,-40302.938,-30148.234
1222001.0224005268,-42611.734,-33849.164,-54629.477,-40965.617,-17805.543,-38402.793,-40306.152,-30146.525
1222001.0264005242,-42611.86,-33844.44,-54627.24,-40964.4,-17802.775,-38401.33,-40308.72,-30146.77
1222001.0304005214,-42612.348,-33842.734,-54628.99,-40966.066,-17803.508,-38400.188,-40303.02,-30140.992
1222001.0344005188,-42615.03,-33845.83,-54629.6,-40966.227,-17803.834,-38399.008,-40299.234,-30141.887
1222001.0384005161,-42615.4,-33846.273,-54628.055,-40965.047,-17801.393,-38398.074,-40301.188,-30143.23
1222001.0424005133,-42615.64,-33848.594,-54627.484,-40964.438,-17803.793,-38397.46,-40306.64,-30146.24
1222001.0464005107,-42613.566,-33848.918,-54627.16,-40966.27,-17805.95,-38397.707,-40308.35,-30142.66
1222001.050400508,-42612.996,-33848.023,-54627.727,-40966.31,-17806.64,-38398.926,-40301.84,-30134.562
1222001.0544005053,-42616.254,-33851.48,-54630.09,-40966.96,-17807.129,-38399.984,-40298.746,-30139.486
1222001.0584005027,-42618.41,-33850.992,-54631.188,-40966.227,-17806.111,-38400.96,-40305.016,-30149.578
1222001.0624005,-42625.652,-33852.54,-54633.426,-40966.676,-17806.031,-38400.555,-40312.664,-30153.564
1222001.0664004972,-42631.633,-33854.74,-54636.516,-40969.2,-17808.676,-38400.23,-40316.734,-30152.752
1222001.0704004946,-42628.418,-33853.598,-54635.99,-40969.08,-17809.285,-38399.293,-40313.19,-30157.105
1222001.074400492,-42627.93,-33852.906,-54635.336,-40967.977,-17809.938,-38399.332,-40307.047,-30154.746
1222001.0784004892,-42628.336,-33853.273,-54634.074,-40966.434,-17810.873,-38399.414,-40307.047,-30150.107
1222001.0824004866,-42627.645,-33854.13,-54632.938,-40966.31,-17810.385,-38401.45,-40315.188,-30157.512
1222001.086400484,-42632.527,-33856.04,-54634.89,-40967.082,-17810.67,-38402.47,-40321.004,-30162.518
1222001.0904004811,-42636.23,-33857.504,-54638.227,-40967.125,-17814.006,-38403.24,-40316.977,-30156.617
1222001.0944004785,-42640.22,-33859.742,-54639.73,-40966.188,-17816.244,-38403.89,-40314.21,-30157.064
1222001.098400476,-42642.54,-33861.043,-54638.594,-40964.56,-17812.988,-38403.85,-40319.05,-30168.418
1222001.102400473,-42642.58,-33861.29,-54638.105,-40965.13,-17812.256,-38403.363,-40323.527,-30170.451
1222001.1064004705,-42645.996,-33862.957,-54639.445,-40967.49,-17815.594,-38404.094,-40323.65,-30164.348
1222001.1104004676,-42643.96,-33860.11,-54640.098,-40967.082,-17815.797,-38405.03,-40321.37,-30160.197
1222001.114400465,-42642.58,-33860.84,-54640.465,-40965.58,-17814.373,-38407.758,-40320.07,-30168.906
1222001.1184004624,-42642.496,-33862.633,-54638.348,-40963.543,-17815.105,-38407.43,-40320.23,-30169.557
1222001.1224004596,-42644.29,-33861.613,-54638.754,-40964.4,-17817.22,-38407.145,-40325.44,-30170.777
1222001.126400457,-42646.973,-33861.53,-54640.465,-40965.25,-17816.447,-38405.965,-40329.996,-30172.934
1222001.1304004544,-42647.3,-33862.387,-54641.562,-40965.21,-17815.389,-38406.656,-40328.25,-30176.637
1222001.1344004516,-42651.043,-33864.016,-54640.91,-40965.457,-17814.697,-38405.152,-40319.906,-30165.244
1222001.138400449,-42652.996,-33862.145,-54640.344,-40964.4,-17816.203,-38404.83,-40317.344,-30161.621
1222001.1424004463,-42650.31,-33857.83,-54637.617,-40963.95,-17814.9,-38403.2,-40322.145,-30167.93
1222001.1464004435,-42650.35,-33860.965,-54637.414,-40964.844,-17817.465,-38404.01,-40324.26,-30170.248
1222001.150400441,-42649.293,-33862.266,-54638.105,-40963.543,-17819.215,-38402.957,-40316.53,-30161.906
1222001.1544004383,-42651.207,-33864.137,-54639.324,-40964.64,-17820.72,-38402.547,-40311.402,-30161.012
1222001.1584004355,-42654.5,-33866.66,-54638.918,-40964.03,-17821.615,-38402.184,-40312.746,-30165.936
1222001.1624004329,-42657.145,-33866.254,-54637.98,-40964.316,-17822.713,-38401.367,-40317.914,-30166.668
1222001.1664004303,-42658.895,-33866.375,-54637.332,-40964.438,-17823.406,-38401.125,-40320.598,-30167.686
1222001.1704004274,-42657.51,-33863.895,-54637.98,-40963.504,-17820.068,-38401.043,-40316.53,-30167.725
1222001.1744004248,-42657.676,-33864.504,-54639.16,-40963.22,-17819.662,-38401.695,-40309.0,-30158.367
1222001.1784004222,-42655.19,-33861.574,-54636.11,-40961.793,-17816.773,-38401.082,-40307.332,-30155.234
1222001.1824004194,-42656.21,-33860.758,-54635.99,-40961.14,-17816.814,-38401.285,-40312.01,-30156.982
1222001.1864004168,-42658.652,-33861.004,-54635.62,-40961.344,-17817.018,-38402.71,-40316.938,-30164.47
1222001.1904004142,-42661.215,-33864.176,-54637.74,-40963.785,-17818.035,-38402.47,-40313.477,-30161.744
1222001.1944004113,-42662.723,-33867.96,-54638.715,-40963.91,-17821.209,-38401.57,-40309.125,-30158.691
1222001.1984004087,-42662.883,-33867.35,-54637.74,-40962.08,-17818.156,-38400.39,-40310.832,-30160.28
1222001.2024004061,-42663.332,-33865.195,-54636.477,-40961.266,-17814.047,-38400.23,-40315.105,-30158.367
1222001.2064004033,-42663.13,-33862.1,-54637.13,-40961.71,-17813.559,-38400.72,-40315.31,-30154.826
1222001.2104004007,-42664.348,-33864.543,-54638.957,-40962.363,-17817.18,-38400.35,-40307.17,-30149.7
1222001.2144003978,-42672.0,-33872.4,-54641.156,-40963.992,-17820.068,-38398.766,-40299.52,-30144.736
1222001.2184003952,-42666.87,-33862.957,-54638.754,-40962.73,-17817.586,-38399.21,-40302.125,-30145.63
1222001.2224003926,-42658.33,-33852.418,-54636.598,-40961.957,-17814.78,-38399.66,-40307.78,-30148.967
1222001.2264003898,-42664.88,-33856.04,-54638.184,-40963.22,-17813.518,-38398.766,-40311.973,-30154.705
1222001.2304003872,-42668.785,-33858.48,-54639.367,-40964.113,-17814.373,-38398.4,-40307.254,-30152.873
1222001.2344003846,-42671.062,-33861.043,-54640.586,-40963.625,-17816.936,-38399.05,-40302.086,-30154.582
1222001.2384003818,-42672.69,-33859.824,-54640.586,-40961.508,-17816.732,-38398.887,-40302.37,-30152.549
1222001.2424003792,-42671.51,-33854.207,-54639.324,-40959.23,-17815.553,-38400.105,-40306.926,-30154.46
1222001.2464003765,-42671.875,-33852.176,-54639.934,-40959.35,-17817.22,-38402.387,-40313.52,-30160.768
1222001.2504003737,-42678.266,-33856.773,-54644.125,-40960.777,-17816.447,-38400.92,-40308.39,-30154.705
1222001.254400371,-42678.184,-33856.49,-54646.61,-40961.55,-17816.244,-38400.92,-40304.04,-30156.332
1222001.2584003685,-42679.89,-33858.805,-54647.055,-40961.55,-17816.0,-38401.695,-40304.688,-30156.006
1222001.2624003657,-42682.863,-33861.453,-54646.04,-40960.574,-17816.447,-38400.35,-40308.35,-30156.494
1222001.266400363,-42684.734,-33863.324,-54646.566,-40961.184,-17817.791,-38399.82,-40309.9,-30156.088
1222001.2704003605,-42686.28,-33864.383,-54648.562,-40962.08,-17819.012,-38399.54,-40306.07,-30156.82
1222001.2744003576,-42688.07,-33867.84,-54650.637,-40961.508,-17817.83,-38399.902,-40301.758,-30157.188
1222001.278400355,-42688.6,-33865.52,-54649.008,-40958.902,-17815.43,-38401.57,-40301.27,-30156.535
1222001.2824003524,-42688.03,-33862.387,-54647.383,-40958.008,-17814.088,-38402.957,-40305.42,-30155.479
1222001.2864003496,-42689.78,-33863.16,-54646.527,-40958.293,-17814.494,-38402.875,-40307.78,-30154.258
1222001.290400347,-42689.7,-33864.258,-54647.87,-40959.15,-17815.756,-38404.055,-40305.91,-30158.082
1222001.2944003444,-42688.805,-33863.812,-54647.258,-40957.723,-17813.762,-38403.89,-40301.23,-30157.309
1222001.2984003415,-42689.453,-33866.54,-54643.965,-40955.973,-17812.459,-38403.16,-40298.42,-30152.793
1222001.302400339,-42689.656,-33867.92,-54641.887,-40956.055,-17813.477,-38402.59,-40300.496,-30150.84
1222001.3064003363,-42692.02,-33868.164,-54640.953,-40957.234,-17814.941,-38404.5,-40305.42,-30153.443
1222001.3104003335,-42691.69,-33868.53,-54640.586,-40957.4,-17816.488,-38405.03,-40301.27,-30153.484
1222001.314400331,-42690.797,-33868.33,-54639.527,-40956.586,-17815.105,-38402.875,-40294.312,-30147.666
1222001.318400328,-42691.61,-33867.39,-54636.8,-40955.363,-17811.768,-38400.31,-40291.383,-30144.695
1222001.3224003254,-42690.918,-33862.996,-54635.094,-40955.69,-17808.27,-38399.293,-40292.277,-30140.748
1222001.3264003228,-42690.555,-33862.145,-54633.06,-40954.67,-17806.805,-38399.13,-40295.41,-30142.457
1222001.33040032,-42695.027,-33864.258,-54635.99,-40956.625,-17810.303,-38401.45,-40294.434,-30142.295
1222001.3344003174,-42700.727,-33868.652,-54637.004,-40957.52,-17813.273,-38402.875,-40293.457,-30143.107
1222001.3384003148,-42703.816,-33869.67,-54635.01,-40958.21,-17813.559,-38401.492,-40293.254,-30141.48
1222001.342400312,-42701.582,-33866.375,-54631.473,-40956.746,-17809.49,-38401.855,-40295.695,-30143.066
1222001.3464003094,-42700.605,-33864.3,-54630.984,-40956.098,-17808.797,-38402.344,-40298.137,-30140.87
1222001.3504003068,-42701.703,-33870.73,-54633.06,-40956.543,-17809.123,-38402.63,-40294.19,-30138.998
1222001.354400304,-42704.387,-33872.844,-54634.035,-40958.21,-17810.506,-38401.695,-40287.477,-30130.738
1222001.3584003013,-42709.8,-33870.85,-54635.582,-40958.414,-17809.57,-38402.508,-40289.348,-30129.395
1222001.3624002987,-42713.055,-33869.67,-54637.535,-40959.516,-17805.867,-38404.258,-40298.137,-30140.91
1222001.3664002959,-42715.457,-33869.793,-54638.957,-40960.086,-17804.2,-38404.01,-40303.062,-30151.531
1222001.3704002933,-42714.887,-33869.996,-54638.957,-40958.336,-17804.973,-38403.484,-40299.156,-30153.402
1222001.3744002907,-42714.684,-33870.81,-54638.062,-40956.098,-17807.902,-38405.152,-40296.184,-30152.385
1222001.3784002878,-42715.13,-33871.42,-54636.273,-40954.957,-17807.008,-38407.633,-40299.44,-30157.35
1222001.3824002852,-42718.465,-33873.74,-54636.8,-40955.08,-17806.844,-38408.164,-40304.2,-30164.55
1222001.3864002826,-42719.605,-33874.676,-54637.656,-40955.363,-17807.658,-38408.69,-40306.97,-30161.703
1222001.3904002798,-42716.72,-33874.227,-54637.29,-40954.02,-17806.64,-38409.305,-40303.223,-30161.133
1222001.3944002772,-42715.82,-33874.594,-54636.273,-40951.09,-17805.42,-38411.01,-40302.98,-30165.283
1222001.3984002746,-42716.434,-33873.82,-54636.516,-40949.465,-17804.363,-38413.535,-40306.926,-30171.184
1222001.4024002717,-42718.06,-33873.008,-54638.105,-40950.277,-17805.055,-38413.86,-40312.625,-30171.55
1222001.4064002691,-42718.67,-33869.875,-54638.836,-40950.277,-17804.89,-38414.023,-40314.293,-30170.533
1222001.4104002665,-42715.293,-33866.54,-54636.72,-40949.18,-17805.99,-38412.926,-40305.992,-30166.3
1222001.4144002637,-42714.6,-33869.06,-54637.37,-40948.65,-17806.64,-38411.5,-40298.668,-30164.268
1222001.418400261,-42719.44,-33874.797,-54636.8,-40949.79,-17810.547,-38413.086,-40302.574,-30170.045
1222001.4224002585,-42720.785,-33870.688,-54633.14,-40947.918,-17809.652,-38413.535,-40309.816,-30174.969
1222001.4264002556,-42720.785,-33871.664,-54634.93,-40948.977,-17808.96,-38413.047,-40310.67,-30171.916
1222001.430400253,-42718.547,-33874.758,-54633.63,-40949.26,-17805.908,-38412.64,-40301.473,-30164.959
1222001.4344002502,-42716.797,-33874.066,-54632.773,-40948.406,-17807.049,-38411.5,-40293.336,-30159.14
1222001.4384002476,-42716.88,-33871.746,-54631.594,-40947.715,-17806.967,-38410.727,-40293.62,-30158.326
1222001.442400245,-42717.977,-33871.137,-54632.45,-40948.04,-17807.332,-38409.914,-40295.98,-30155.355
1222001.4464002422,-42721.113,-33874.188,-54634.562,-40950.32,-17809.082,-38407.88,-40294.23,-30147.422
1222001.4504002396,-42722.535,-33876.63,-54634.727,-40949.707,-17809.408,-38407.145,-40290.57,-30150.229
1222001.454400237,-42721.64,-33874.227,-54634.81,-40948.934,-17807.943,-38407.473,-40289.918,-30157.512
1222001.458400234,-42719.363,-33871.176,-54633.26,-40949.75,-17808.879,-38408.367,-40291.707,-30152.223
1222001.4624002315,-42718.875,-33872.477,-54628.258,-40948.73,-17806.682,-38408.816,-40295.535,-30153.037
1222001.466400229,-42717.246,-33862.184,-54626.1,-40947.715,-17803.549,-38408.043,-40295.492,-30151.084
1222001.470400226,-42714.926,-33858.316,-54627.85,-40947.227,-17803.426,-38407.35,-40289.51,-30145.834
1222001.4744002235,-42717.125,-33862.793,-54630.293,-40948.855,-17805.34,-38406.82,-40283.977,-30146.69
1222001.4784002209,-42717.652,-33865.03,-54631.88,-40949.465,-17804.852,-38405.723,-40281.984,-30140.463
1222001.482400218,-42716.637,-33862.348,-54631.39,-40948.69,-17802.37,-38403.89,-40284.547,-30141.846
1222001.4864002154,-42720.215,-33864.3,-54632.49,-40951.01,-17798.34,-38404.83,-40289.023,-30149.252
1222001.4904002128,-42720.34,-33866.742,-54639.977,-40951.99,-17799.643,-38404.625,-40286.418,-30146.12
1222001.49440021,-42720.582,-33866.54,-54652.508,-40952.516,-17799.684,-38405.316,-40279.5,-30139.201
1222001.4984002074,-42721.273,-33866.21,-54657.188,-40950.6,-17795.451,-38403.08,-40277.14,-30133.424
1222001.5024002048,-42721.883,-33864.176,-54659.71,-40950.156,-17795.451,-38401.9,-40280.64,-30139.648
1222001.506400202,-42725.668,-33866.254,-54664.43,-40952.395,-17796.307,-38402.26,-40282.96,-30142.701
1222001.5104001993,-42726.117,-33868.855,-54667.402,-40952.516,-17795.29,-38401.773,-40276.938,-30138.998
1222001.5144001967,-42728.273,-33870.117,-54670.777,-40952.312,-17794.678,-38402.06,-40273.277,-30137.736
1222001.518400194,-42727.38,-33867.676,-54670.617,-40950.277,-17794.271,-38403.363,-40276.367,-30140.463
1222001.5224001913,-42729.74,-33867.516,-54672.324,-40950.93,-17793.54,-38404.42,-40279.703,-30139.61
1222001.5264001887,-42728.395,-33867.15,-54671.184,-40950.684,-17791.871,-38404.34,-40279.176,-30130.291
1222001.5304001858,-42728.926,-33870.16,-54673.06,-40950.113,-17792.807,-38404.38,-40274.496,-30128.094
1222001.5344001832,-42732.383,-33871.01,-54676.11,-40950.562,-17793.254,-38404.95,-40272.176,-30128.623
1222001.5384001804,-42738.934,-33873.82,-54678.223,-40951.824,-17794.271,-38406.293,-40276.652,-30132.488
1222001.5424001778,-42746.055,-33882.406,-54680.42,-40951.215,-17796.102,-38405.355,-40282.35,-30136.475
1222001.5464001752,-42751.914,-33887.086,-54682.7,-40952.8,-17797.486,-38404.703,-40286.38,-30139.812
1222001.5504001724,-42749.715,-33879.438,-54684.043,-40952.68,-17796.102,-38407.066,-40286.258,-30142.05
1222001.5544001698,-42741.742,-33868.492,-54683.88,-40949.586,-17794.434,-38408.57,-40287.11,-30146.363
1222001.5584001672,-42742.27,-33866.617,-54684.004,-40948.406,-17793.742,-38407.84,-40288.453,-30147.787
1222001.5624001643,-42750.33,-33872.926,-54685.387,-40949.547,-17794.922,-38408.203,-40293.66,-30149.375
1222001.5664001617,-42750.246,-33874.473,-54687.055,-40950.684,-17794.678,-38408.773,-40295.613,-30146.77
1222001.570400159,-42751.14,-33873.047,-54687.95,-40950.523,-17793.01,-38408.734,-40290.406,-30152.182
1222001.5744001563,-42751.305,-33872.438,-54689.332,-40950.277,-17792.848,-38410.24,-40286.824,-30155.682
1222001.5784001537,-42751.71,-33871.83,-54689.78,-40950.645,-17794.842,-38409.914,-40288.7,-30159.912
1222001.582400151,-42758.016,-33876.71,-54691.043,-40951.62,-17795.654,-38408.977,-40292.562,-30160.482
1222001.5864001482,-42764.12,-33882.12,-54692.914,-40954.145,-17797.242,-38408.816,-40293.66,-30157.47
1222001.5904001456,-42764.65,-33883.87,-54693.973,-40955.04,-17800.537,-38408.53,-40285.77,-30146.566
1222001.594400143,-42763.105,-33883.14,-54691.855,-40952.19,-17798.951,-38407.594,-40278.89,-30142.09
1222001.5984001402,-42759.766,-33882.773,-54689.293,-40950.887,-17795.37,-38407.676,-40281.21,-30152.629
1222001.6024001376,-42757.61,-33881.594,-54687.95,-40951.297,-17794.88,-38407.797,-40288.414,-30160.156
1222001.606400135,-42759.688,-33884.97,-54689.7,-40952.598,-17796.184,-38409.26,-40291.42,-30156.17
1222001.6104001321,-42755.414,-33882.406,-54688.805,-40952.8,-17795.98,-38409.305,-40285.074,-30150.555
1222001.6144001295,-42755.78,-33882.73,-54689.453,-40952.965,-17797.283,-38408.49,-40280.477,-30150.107
1222001.618400127,-42758.26,-33883.22,-54690.918,-40953.29,-17796.266,-38406.617,-40279.42,-30151.816
1222001.622400124,-42757.49,-33883.832,-54690.594,-40952.477,-17794.475,-38406.863,-40284.02,-30153.037
1222001.6264001215,-42761.07,-33887.207,-54691.855,-40953.29,-17797.81,-38407.066,-40287.965,-30152.508
1222001.630400119,-42764.285,-33891.766,-54693.973,-40954.67,-17801.352,-38407.145,-40286.176,-30152.305
1222001.634400116,-42767.17,-33895.02,-54697.105,-40956.18,-17803.508,-38408.246,-40284.06,-30158.652
1222001.6384001134,-42767.703,-33893.27,-54699.06,-40954.836,-17801.352,-38408.855,-40283.895,-30156.332
1222001.6424001106,-42767.336,-33894.207,-54697.266,-40952.8,-17798.992,-38408.57,-40287.516,-30154.176
1222001.646400108,-42766.277,-33894.207,-54696.13,-40952.8,-17797.486,-38407.96,-40289.188,-30150.066
1222001.6504001054,-42766.074,-33892.984,-54699.3,-40953.9,-17796.266,-38406.82,-40283.895,-30145.469
1222001.6544001026,-42769.33,-33894.29,-54702.516,-40954.43,-17794.434,-38404.91,-40276.125,-30143.393
1222001.6584001,-42772.664,-33893.35,-54701.742,-40953.207,-17794.557,-38404.258,-40274.21,-30144.613
1222001.6624000974,-42770.71,-33893.19,-54699.547,-40953.86,-17795.654,-38405.316,-40279.664,-30143.148
1222001.6664000945,-42769.94,-33894.207,-54699.75,-40953.816,-17796.59,-38405.68,-40284.914,-30145.549
1222001.670400092,-42767.293,-33893.066,-54699.383,-40952.395,-17797.201,-38405.19,-40278.77,-30140.342
1222001.6744000893,-42768.68,-33894.207,-54699.87,-40952.72,-17796.875,-38406.617,-40274.58,-30139.324
1222001.6784000865,-42770.918,-33896.12,-54702.312,-40952.92,-17795.818,-38406.453,-40276.652,-30144.37
1222001.6824000839,-42773.6,-33894.613,-54702.56,-40951.58,-17793.54,-38404.543,-40282.066,-30148.154
1222001.6864000813,-42777.184,-33895.71,-54703.41,-40952.477,-17793.254,-38404.258,-40287.723,-30153.158
1222001.6904000784,-42775.312,-33893.598,-54704.1,-40951.863,-17792.766,-38403.605,-40285.074,-30150.31
1222001.6944000758,-42773.316,-33893.92,-54702.72,-40951.418,-17792.645,-38404.543,-40282.555,-30146.729
1222001.6984000732,-42772.87,-33897.664,-54701.945,-40950.24,-17793.05,-38406.09,-40283.816,-30150.146
1222001.7024000704,-42774.05,-33897.38,-54701.215,-40951.375,-17791.463,-38405.19,-40288.13,-30146.934
1222001.7064000678,-42770.305,-33896.12,-54699.344,-40949.953,-17791.057,-38403.727,-40287.965,-30138.307
1222001.7104000652,-42765.465,-33890.87,-54695.883,-40947.51,-17790.203,-38403.688,-40280.4,-30128.826
1222001.7144000623,-42763.023,-33890.055,-54693.727,-40945.72,-17791.219,-38404.215,-40277.957,-30130.615
1222001.7184000597,-42767.293,-33893.19,-54694.176,-40947.39,-17792.928,-38404.42,-40281.94,-30133.668
1222001.7224000571,-42767.99,-33893.516,-54693.156,-40947.51,-17792.195,-38402.75,-40286.38,-30135.336
1222001.7264000543,-42768.23,-33893.027,-54692.914,-40947.31,-17790.895,-38401.773,-40288.535,-30138.062
1222001.7304000517,-42764.934,-33892.496,-54693.28,-40947.184,-17791.098,-38402.1,-40283.406,-30131.633
1222001.734400049,-42753.582,-33890.22,-54690.51,-40944.664,-17790.08,-38402.547,-40278.77,-30128.459
1222001.7384000462,-42745.934,-33890.137,-54687.34,-40943.848,-17786.988,-38401.57,-40279.867,-30125.244
1222001.7424000436,-42746.137,-33890.953,-54685.914,-40943.24,-17789.674,-38398.316,-40279.83,-30118.287
1222001.7464000408,-42746.137,-33889.977,-54686.117,-40944.094,-17791.586,-38397.746,-40281.047,-30120.932
1222001.7504000382,-42748.09,-33897.992,-54686.85,-40945.883,-17795.98,-38397.867,-40280.844,-30131.877
1222001.7544000356,-42750.082,-33901.695,-54689.82,-40945.72,-17797.242,-38396.16,-40277.426,-30127.727
1222001.7584000328,-42743.816,-33892.254,-54690.31,-40943.645,-17792.4,-38396.688,-40279.83,-30129.191
1222001.7624000302,-42735.273,-33880.7,-54689.496,-40942.465,-17786.092,-38398.844,-40288.535,-30139.08
1222001.7664000276,-42733.6,-33877.645,-54689.617,-40942.223,-17785.482,-38398.6,-40290.773,-30133.994
1222001.7704000247,-42734.66,-33882.652,-54690.555,-40943.2,-17789.754,-38397.46,-40283.816,-30123.535
1222001.774400022,-42737.918,-33889.04,-54692.71,-40944.418,-17792.195,-38396.2,-40275.88,-30118.979
1222001.7784000195,-42741.78,-33890.016,-54691.082,-40943.645,-17791.707,-38394.207,-40275.105,-30116.537
1222001.7824000167,-42739.34,-33887.613,-54691.773,-40943.523,-17791.463,-38395.55,-40281.332,-30125.45
1222001.786400014,-42741.457,-33889.61,-54692.953,-40944.215,-17792.807,-38396.28,-40283.652,-30124.473
1222001.7904000115,-42744.71,-33891.887,-54694.62,-40944.582,-17792.156,-38398.03,-40281.25,-30120.932
1222001.7944000086,-42744.062,-33891.36,-54695.312,-40943.24,-17793.824,-38398.926,-40279.785,-30123.617
1222001.798400006,-42745.973,-33891.645,-54695.8,-40942.06,-17792.969,-38399.58,-40283.49,-30130.168
1222001.8024000034,-42747.152,-33892.496,-54694.906,-40942.26,-17791.748,-38398.277,-40286.746,-30130.941
1222001.8064000006,-42747.56,-33894.29,-54694.867,-40943.688,-17790.812,-38397.664,-40287.64,-30129.07
1222001.810399998,-42746.785,-33894.613,-54695.355,-40944.215,-17792.604,-38396.242,-40282.43,-30125.285
1222001.8143999954,-42745.402,-33897.586,-54694.824,-40943.484,-17793.904,-38394.41,-40275.555,-30121.42
1222001.8183999925,-42745.402,-33897.95,-54695.07,-40942.586,-17794.23,-38393.72,-40274.13,-30121.867
1222001.82239999,-42745.566,-33897.016,-54695.52,-40942.06,-17792.562,-38393.027,-40279.01,-30122.764
1222001.8263999873,-42745.2,-33895.387,-54697.227,-40944.418,-17793.865,-38393.92,-40283.246,-30123.7
1222001.8303999845,-42743.777,-33893.68,-54697.266,-40943.848,-17794.354,-38393.758,-40279.34,-30128.623
1222001.834399982,-42746.992,-33892.254,-54699.465,-40942.75,-17793.416,-38395.145,-40278.2,-30130.9
1222001.8383999793,-42749.27,-33892.906,-54701.297,-40942.953,-17792.725,-38396.324,-40281.047,-30129.639
1222001.8423999764,-42750.203,-33893.8,-54699.26,-40942.344,-17791.342,-38398.074,-40289.39,-30133.506
1222001.8463999738,-42749.594,-33892.133,-54696.453,-40942.953,-17790.936,-38400.066,-40291.504,-30129.436
1222001.850399971,-42750.57,-33891.766,-54698.285,-40942.79,-17794.23,-38400.35,-40284.547,-30118.572
1222001.8543999684,-42748.7,-33892.05,-54698.0,-40941.61,-17794.557,-38399.21,-40278.566,-30117.188
1222001.8583999658,-42750.33,-33893.8,-54696.74,-40940.227,-17795.166,-38398.113,-40280.4,-30119.996
1222001.862399963,-42750.45,-33891.36,-54695.234,-40939.535,-17794.148,-38396.566,-40281.617,-30118.287
1222001.8663999604,-42749.88,-33889.61,-54694.824,-40939.58,-17791.016,-38396.12,-40283.12,-30118.002
1222001.8703999578,-42750.45,-33888.51,-54695.883,-40939.58,-17790.812,-38398.723,-40279.785,-30124.064
1222001.874399955,-42750.0,-33887.086,-54697.023,-40939.13,-17790.04,-38399.984,-40275.027,-30119.793
1222001.8783999523,-42748.414,-33888.227,-54695.477,-40938.07,-17788.29,-38400.758,-40276.98,-30117.717
1222001.8823999497,-42746.504,-33883.63,-54694.176,-40936.44,-17788.29,-38400.96,-40282.758,-30119.223
1222001.8863999469,-42744.832,-33881.145,-54693.08,-40936.363,-17789.348,-38400.15,-40286.336,-30117.27
1222001.8903999443,-42745.605,-33884.32,-54692.793,-40936.727,-17791.912,-38402.59,-40285.688,-30121.258
1222001.8943999417,-42747.76,-33886.273,-54693.81,-40935.508,-17791.219,-38401.855,-40282.51,-30125.977
1222001.8983999388,-42749.555,-33887.25,-54692.344,-40933.88,-17788.982,-38399.7,-40280.355,-30128.338
1222001.9023999362,-42752.484,-33887.207,-54691.45,-40934.125,-17787.965,-38399.293,-40283.45,-30130.371
1222001.9063999336,-42753.906,-33886.15,-54693.36,-40934.938,-17787.842,-38399.66,-40286.336,-30130.535
1222001.9103999308,-42754.805,-33887.25,-54694.176,-40935.832,-17791.83,-38399.82,-40281.656,-30127.97
1222001.9143999282,-42753.867,-33889.203,-54692.547,-40936.24,-17790.771,-38398.52,-40278.16,-30130.86
1222001.9183999256,-42755.902,-33889.406,-54692.305,-40935.223,-17792.277,-38399.414,-40280.52,-30134.848
1222001.9223999227,-42759.48,-33890.3,-54692.18,-40935.953,-17792.848,-38399.414,-40285.727,-30136.395
1222001.9263999201,-42757.04,-33888.715,-54691.246,-40934.977,-17791.912,-38399.13,-40291.016,-30145.59
1222001.9303999175,-42757.324,-33891.887,-54693.36,-40936.93,-17794.23,-38399.78,-40286.215,-30143.066
1222001.9343999147,-42759.766,-33892.78,-54694.336,-40937.094,-17795.451,-38399.254,-40279.01,-30135.58
1222001.938399912,-42759.97,-33890.75,-54695.477,-40936.44,-17794.393,-38398.52,-40277.06,-30128.947
1222001.9423999095,-42758.344,-33888.266,-54692.63,-40935.02,-17790.854,-38398.152,-40278.65,-30125.773
1222001.9463999067,-42760.254,-33887.98,-54692.465,-40934.207,-17789.998,-38398.316,-40281.94,-30128.012
1222001.950399904,-42767.863,-33896.445,-54696.168,-40937.055,-17795.086,-38398.234,-40280.887,-30132.203
1222001.9543999012,-42777.71,-33907.96,-54701.418,-40940.633,-17798.707,-38398.113,-40275.72,-30133.709
1222001.9583998986,-42777.266,-33902.832,-54703.125,-40939.37,-17797.201,-38399.008,-40277.305,-30134.562
1222001.962399896,-42771.363,-33892.945,-54702.72,-40938.52,-17794.434,-38400.72,-40287.64,-30140.463
1222001.9663998932,-42771.445,-33896.73,-54702.355,-40938.56,-17796.387,-38401.367,-40292.32,-30144.37
1222001.9703998906,-42771.566,-33898.03,-54704.1,-40938.844,-17796.184,-38402.14,-40287.76,-30143.475
1222001.974399888,-42773.03,-33898.4,-54706.016,-40938.438,-17795.41,-38402.344,-40283.57,-30142.172
1222001.9783998851,-42772.87,-33896.2,-54705.65,-40938.273,-17794.068,-38401.855,-40282.31,-30140.057
1222001.9823998825,-42772.46,-33893.312,-54705.895,-40938.152,-17792.033,-38400.39,-40285.402,-30141.928
1222001.98639988,-42776.734,-33897.137,-54707.645,-40939.168,-17793.377,-38399.254,-40285.81,-30137.168
1222001.990399877,-42778.484,-33898.03,-54710.125,-40940.27,-17795.29,-38399.78,-40281.09,-30139.73
1222001.9943998745,-42776.164,-33895.633,-54710.613,-40940.348,-17794.557,-38399.82,-40274.7,-30139.527
1222001.9983998719,-42777.223,-33893.395,-54710.492,-40938.19,-17794.354,-38397.664,-40271.688,-30131.186
1222002.002399869,-42776.695,-33893.883,-54707.645,-40938.03,-17794.637,-38396.973,-40275.96,-30133.912
1222002.0063998664,-42777.14,-33890.707,-54705.363,-40938.234,-17791.83,-38397.83,-40279.297,-30128.418
1222002.0103998638,-42777.547,-33890.34,-54703.695,-40936.93,-17791.098,-38398.52,-40277.06,-30130.453
1222002.014399861,-42779.42,-33893.312,-54703.086,-40936.688,-17793.05,-38399.54,-40274.945,-30134.645
1222002.0183998584,-42778.65,-33893.92,-54702.15,-40936.44,-17794.354,-38400.35,-40278.2,-30134.93
1222002.0223998558,-42780.723,-33894.41,-54701.17,-40935.387,-17793.213,-38399.21,-40279.99,-30130.127
1222002.026399853,-42780.4,-33891.36,-54699.75,-40935.63,-17791.504,-38399.293,-40281.58,-30138.266
1222002.0303998503,-42778.605,-33890.383,-54700.195,-40936.2,-17790.61,-38398.074,-40275.188,-30135.215
1222002.0343998477,-42779.137,-33890.543,-54702.72,-40934.816,-17789.43,-38398.195,-40269.613,-30128.459
1222002.038399845,-42779.01,-33888.715,-54701.215,-40932.375,-17788.656,-38397.016,-40269.695,-30129.273
1222002.0423998423,-42777.67,-33889.527,-54699.547,-40932.984,-17788.371,-38395.67,-40271.89,-30130.291
1222002.0463998397,-42780.6,-33891.113,-54698.895,-40933.92,-17792.969,-38397.586,-40277.71,-30133.22
1222002.0503998369,-42779.258,-33889.65,-54699.14,-40934.164,-17794.23,-38400.15,-40276.043,-30132.691
1222002.0543998342,-42780.52,-33888.754,-54702.07,-40932.863,-17791.463,-38401.53,-40272.42,-30135.01
1222002.0583998316,-42780.316,-33887.74,-54702.312,-40932.21,-17790.771,-38401.285,-40272.137,-30133.3
1222002.0623998288,-42782.43,-33888.875,-54701.17,-40932.414,-17789.674,-38399.09,-40273.48,-30125.773
1222002.0663998262,-42786.38,-33891.805,-54702.23,-40934.33,-17790.324,-38398.113,-40275.758,-30126.303
1222002.0703998234,-42788.25,-33892.457,-54702.883,-40935.02,-17789.877,-38398.074,-40271.688,-30126.506
1222002.0743998208,-42790.61,-33893.555,-54704.715,-40936.44,-17790.527,-38399.254,-40266.93,-30128.174
1222002.0783998182,-42790.285,-33894.086,-54705.977,-40935.547,-17790.447,-38398.723,-40268.11,-30126.465
1222002.0823998153,-42791.098,-33894.656,-54707.645,-40935.75,-17789.959,-38398.355,-40273.926,-30130.453
1222002.0863998127,-42795.98,-33896.445,-54708.05,-40937.055,-17790.812,-38397.42,-40275.105,-30131.633
1222002.09039981,-42793.867,-33895.957,-54708.05,-40936.566,-17789.836,-38396.04,-40269.53,-30124.756
1222002.0943998073,-42796.023,-33896.65,-54709.96,-40937.46,-17789.795,-38398.6,-40267.375,-30126.506
1222002.0983998047,-42798.586,-33898.805,-54708.54,-40935.914,-17789.062,-38398.074,-40268.72,-30128.867
1222002.102399802,-42802.492,-33901.207,-54708.703,-40935.344,-17790.04,-38398.277,-40275.105,-30131.47
1222002.1063997992,-42808.027,-33902.59,-54710.37,-40937.99,-17791.016,-38400.516,-40280.234,-30131.674
1222002.1103997966,-42807.7,-33901.125,-54710.777,-40939.293,-17792.521,-38401.57,-40277.59,-30140.666
1222002.114399794,-42806.684,-33901.98,-54713.543,-40939.535,-17793.254,-38400.88,-40272.38,-30143.719
1222002.1183997912,-42805.625,-33901.285,-54711.59,-40937.297,-17790.447,-38398.074,-40269.086,-30136.395
1222002.1223997886,-42806.926,-33901.816,-54708.58,-40935.02,-17787.924,-38397.504,-40271.363,-30136.068
1222002.126399786,-42808.797,-33903.08,-54707.766,-40935.06,-17787.72,-38399.902,-40275.434,-30137.248
1222002.1303997831,-42810.832,-33905.477,-54710.37,-40936.44,-17790.568,-38401.043,-40272.258,-30135.459
1222002.1343997805,-42813.316,-33906.94,-54711.836,-40937.625,-17791.383,-38401.164,-40269.125,-30137.94
1222002.138399778,-42813.926,-33908.816,-54710.656,-40937.867,-17790.691,-38402.75,-40271.527,-30140.137
1222002.142399775,-42812.703,-33907.188,-54707.4,-40936.363,-17791.463,-38404.42,-40274.54,-30137.412
1222002.1463997725,-42809.125,-33902.305,-54703.492,-40934.33,-17788.86,-38403.934,-40275.797,-30136.475
1222002.15039977,-42808.188,-33901.164,-54704.875,-40934.613,-17789.021,-38403.2,-40271.402,-30134.562
1222002.154399767,-42806.805,-33900.758,-54707.074,-40933.105,-17786.133,-38400.96,-40264.73,-30131.592
1222002.1583997644,-42809.043,-33902.1,-54707.44,-40931.52,-17778.158,-38399.254,-40260.62,-30126.262
1222002.1623997618,-42810.14,-33902.06,-54705.566,-40930.34,-17776.734,-38399.293,-40262.332,-30123.984
1222002.166399759,-42808.96,-33901.734,-54703.613,-40931.03,-17778.523,-38401.98,-40266.684,-30128.094
1222002.1703997564,-42811.445,-33905.64,-54705.324,-40934.285,-17784.424,-38403.24,-40263.145,-30126.709
1222002.1743997536,-42821.21,-33918.336,-54705.977,-40936.566,-17791.139,-38400.027,-40252.645,-30117.148
1222002.178399751,-42820.516,-33917.24,-54704.875,-40935.1,-17789.186,-38397.38,-40247.234,-30109.13
1222002.1823997484,-42798.383,-33892.008,-54700.848,-40930.016,-17777.996,-38398.805,-40254.76,-30113.201
1222002.1863997455,-42794.07,-33884.195,-54701.945,-40929.2,-17772.299,-38400.15,-40260.17,-30122.844
1222002.190399743,-42791.79,-33881.227,-54704.266,-40929.973,-17772.543,-38401.53,-40256.473,-30122.479
1222002.1943997403,-42790.203,-33878.38,-54705.242,-40929.85,-17773.846,-38402.344,-40250.406,-30111.451
1222002.1983997375,-42785.688,-33871.01,-54702.516,-40926.883,-17768.799,-38404.38,-40254.68,-30116.984
1222002.2023997349,-42778.523,-33863.12,-54699.383,-40923.22,-17764.527,-38408.12,-40267.945,-30137.29
1222002.2063997323,-42776.855,-33857.18,-54699.87,-40923.137,-17762.166,-38408.45,-40270.55,-30136.842
1222002.2103997294,-42773.113,-33852.785,-54700.605,-40922.49,-17763.55,-38407.96,-40262.9,-30132.936
