timestamp,Fp1,Fp2,F3,Fz,F4,Cz,Pz,Oz
1214718.3174148658,-35388.266,-73140.34,4421.0205,-15256.186,-42013.797,-42832.113,-50371.137,-21260.457
1214718.3214148604,-35386.312,-73141.89,4422.038,-15254.069,-42017.254,-42832.48,-50372.76,-21259.686
1214718.3254148553,-35383.586,-73152.914,4423.584,-15253.459,-42014.61,-42831.992,-50371.22,-21263.592
1214718.3294148499,-35388.062,-73136.07,4423.625,-15255.005,-42014.445,-42834.066,-50371.582,-21267.334
1214718.3334148447,-35390.586,-73135.54,4422.567,-15255.941,-42016.277,-42833.133,-50370.2,-21252.97
1214718.3374148393,-35391.24,-73144.86,4422.9736,-15258.667,-42019.207,-42833.293,-50370.117,-21258.504
1214718.341414834,-35395.836,-73146.484,4424.0317,-15257.609,-42021.363,-42835.246,-50374.188,-21266.154
1214718.3454148287,-35395.875,-73142.984,4423.625,-15256.104,-42019.41,-42835.938,-50378.094,-21273.072
1214718.3494148233,-35395.875,-73140.42,4422.119,-15255.575,-42019.207,-42833.09,-50377.77,-21272.055
1214718.353414818,-35401.043,-73145.23,4425.985,-15259.033,-42016.074,-42832.766,-50373.293,-21257.203
1214718.3574148128,-35392.496,-73138.02,4430.7456,-15257.202,-42012.168,-42827.92,-50371.91,-21262.371
1214718.3614148074,-35390.87,-73132.65,4431.885,-15256.308,-42008.098,-42825.156,-50371.22,-21267.13
1214718.3654148022,-35395.387,-73140.016,4429.077,-15256.999,-42010.945,-42827.477,-50371.992,-21274.496
1214718.3694147968,-35398.4,-73142.58,4424.6016,-15259.685,-42015.26,-42830.04,-50370.973,-21273.275
1214718.3734147914,-35398.074,-73140.55,4423.259,-15262.126,-42015.26,-42828.535,-50366.293,-21267.334
1214718.3774147863,-35393.35,-73135.26,4425.7812,-15261.068,-42014.406,-42828.74,-50361.94,-21259.156
1214718.3814147809,-35395.67,-73132.0,4428.3857,-15260.132,-42012.086,-42826.375,-50360.477,-21252.28
1214718.3854147757,-35401.082,-73132.29,4426.9614,-15261.3125,-42014.61,-42826.54,-50361.29,-21253.703
1214718.3894147703,-35398.64,-73130.945,4427.368,-15260.254,-42010.094,-42828.535,-50361.777,-21257.895
1214718.393414765,-35399.863,-73131.63,4427.6123,-15258.83,-42010.742,-42825.36,-50358.727,-21250.732
1214718.3974147597,-35404.34,-73140.625,4425.171,-15259.399,-42013.59,-42823.652,-50355.184,-21242.758
1214718.4014147543,-35406.94,-73142.91,4421.0205,-15258.749,-42015.87,-42822.715,-50357.465,-21242.188
1214718.4054147492,-35409.383,-73146.81,4417.7656,-15258.667,-42017.78,-42824.42,-50363.12,-21254.03
1214718.4094147438,-35410.117,-73148.56,4419.1895,-15259.359,-42013.348,-42826.863,-50367.8,-21270.875
1214718.4134147384,-35409.305,-73146.2,4421.3867,-15260.824,-42010.5,-42826.375,-50368.734,-21262.166
1214718.4174147332,-35407.594,-73140.95,4421.1426,-15259.888,-42009.24,-42824.06,-50366.496,-21243.49
1214718.4214147278,-35406.047,-73139.69,4424.8047,-15256.063,-42014.12,-42820.07,-50366.496,-21247.07
1214718.4254147224,-35409.098,-73138.305,4426.6357,-15254.558,-42018.637,-42821.574,-50369.914,-21259.645
1214718.4294147172,-35407.023,-73138.06,4428.1006,-15254.599,-42020.508,-42823.203,-50370.445,-21261.312
1214718.4334147118,-35407.105,-73148.56,4429.4844,-15255.534,-42018.11,-42822.957,-50369.754,-21261.678
1214718.4374147067,-35412.68,-73157.23,4428.874,-15256.308,-42021.934,-42821.98,-50368.816,-21265.951
1214718.4414147013,-35415.73,-73139.28,4429.9316,-15251.872,-42025.96,-42817.223,-50364.055,-21258.098
1214718.445414696,-35412.273,-73134.195,4429.647,-15249.35,-42022.137,-42816.938,-50362.836,-21254.11
1214718.4494146907,-35407.27,-73129.92,4431.0303,-15250.773,-42018.35,-42818.36,-50358.523,-21245.281
1214718.4534146853,-35410.24,-73133.305,4428.06,-15250.732,-42017.62,-42819.54,-50354.453,-21238.037
1214718.4574146802,-35415.73,-73141.766,4422.7705,-15253.256,-42020.426,-42817.26,-50351.523,-21239.299
1214718.4614146748,-35419.15,-73141.766,4426.7173,-15252.075,-42014.203,-42813.273,-50353.76,-21248.25
1214718.4654146694,-35421.633,-73143.35,4427.8564,-15249.716,-42013.59,-42812.785,-50355.348,-21249.35
1214718.4694146642,-35422.977,-73143.39,4429.403,-15249.309,-42015.625,-42813.887,-50356.0,-21246.908
1214718.4734146588,-35420.207,-73140.38,4432.414,-15247.478,-42013.918,-42814.496,-50356.49,-21251.18
1214718.4774146536,-35417.277,-73138.1,4432.7393,-15247.844,-42010.785,-42815.227,-50358.074,-21251.791
1214718.4814146482,-35419.395,-73137.9,4432.536,-15245.239,-42010.457,-42816.53,-50359.99,-21251.385
1214718.4854146428,-35414.88,-73133.625,4436.5645,-15242.595,-42009.035,-42818.562,-50360.555,-21246.623
1214718.4894146377,-35407.676,-73131.76,4439.5347,-15243.693,-42003.094,-42820.844,-50358.32,-21243.328
1214718.4934146323,-35409.383,-73135.91,4438.0293,-15243.53,-42005.168,-42819.5,-50354.37,-21236.207
1214718.4974146269,-35413.332,-73137.49,4437.9883,-15243.896,-42013.51,-42817.832,-50352.906,-21233.318
1214718.5014146217,-35412.965,-73134.69,4442.0576,-15240.845,-42005.047,-42814.168,-50350.63,-21229.818
1214718.5054146163,-35408.61,-73132.81,4442.993,-15238.363,-42001.59,-42812.34,-50347.37,-21227.703
1214718.5094146112,-35409.914,-73138.836,4441.6914,-15240.031,-42006.797,-42812.625,-50347.74,-21225.057
1214718.5134146058,-35414.918,-73144.734,4443.929,-15243.49,-42007.57,-42814.21,-50354.86,-21250.896
1214718.5174146004,-35417.4,-73146.445,4441.732,-15244.955,-42009.81,-42815.43,-50356.367,-21249.064
1214718.5214145952,-35417.035,-73144.01,4442.383,-15244.223,-42007.45,-42813.56,-50357.79,-21243.123
1214718.5254145898,-35416.26,-73145.96,4441.732,-15242.27,-41989.22,-42813.6,-50358.113,-21239.38
1214718.5294145846,-35418.17,-73160.04,4441.488,-15243.693,-41989.22,-42811.934,-50358.766,-21241.496
1214718.5334145792,-35420.125,-73153.57,4441.1216,-15246.013,-41996.34,-42813.4,-50357.953,-21233.357
1214718.5374145738,-35418.375,-73138.59,4439.2905,-15243.979,-41997.76,-42810.63,-50355.47,-21209.758
1214718.5414145687,-35418.05,-73134.08,4442.22,-15241.821,-41997.844,-42808.797,-50356.65,-21210.287
1214718.5454145633,-35417.074,-73134.445,4444.336,-15239.746,-41998.13,-42812.95,-50367.312,-21261.557
1214718.549414558,-35416.91,-73137.49,4441.976,-15239.706,-41999.473,-42817.547,-50368.29,-21265.3
1214718.5534145527,-35414.594,-73141.766,4440.389,-15240.438,-41991.17,-42818.32,-50366.58,-21251.912
1214718.5574145473,-35406.7,-73139.484,4440.267,-15240.642,-41991.336,-42813.805,-50363.65,-21247.844
1214718.5614145421,-35409.223,-73135.26,4439.006,-15239.096,-41997.64,-42811.08,-50360.477,-21239.055
1214718.5654145367,-35406.74,-73129.64,4440.837,-15237.712,-42003.46,-42809.695,-50358.035,-21233.766
1214718.5694145313,-35403.2,-73131.06,4443.929,-15239.096,-42005.574,-42810.914,-50357.586,-21236.94
1214718.5734145262,-35405.4,-73133.95,4445.516,-15241.13,-42003.543,-42811.65,-50354.902,-21229.94
1214718.5774145208,-35407.43,-73143.805,4444.824,-15242.473,-42001.793,-42811.402,-50354.004,-21226.604
1214718.5814145156,-35407.27,-73142.13,4445.8823,-15239.584,-42000.082,-42807.902,-50353.23,-21218.506
1214718.5854145102,-35410.32,-73137.17,4445.7197,-15238.159,-42006.39,-42806.6,-50351.156,-21213.258
1214718.5894145048,-35408.406,-73140.18,4445.3535,-15238.525,-42009.074,-42809.9,-50350.996,-21217.938
1214718.5934144997,-35410.81,-73142.21,4446.737,-15238.566,-42003.133,-42809.004,-50353.11,-21224.041
1214718.5974144943,-35412.723,-73143.48,4445.964,-15238.403,-42005.496,-42806.074,-50351.848,-21219.117
1214718.601414489,-35417.36,-73145.19,4444.092,-15237.427,-42001.793,-42803.67,-50352.215,-21217.53
1214718.6054144837,-35420.37,-73142.46,4439.779,-15235.637,-41997.07,-42801.96,-50352.703,-21222.371
1214718.6094144783,-35420.086,-73141.85,4438.0293,-15236.166,-41999.758,-42801.96,-50351.035,-21227.336
1214718.6134144731,-35420.613,-73147.22,4440.552,-15237.265,-42000.285,-42800.78,-50346.723,-21211.549
1214718.6174144677,-35418.99,-73153.89,4440.4707,-15239.38,-42003.99,-42795.656,-50343.508,-21203.736
1214718.6214144626,-35421.633,-73153.77,4436.157,-15239.34,-42012.207,-42795.9,-50344.85,-21221.6
1214718.6254144572,-35421.387,-73151.62,4433.1465,-15236.45,-42010.99,-42798.055,-50347.984,-21244.14
1214718.6294144518,-35417.562,-73161.664,4437.378,-15236.654,-42004.64,-42795.9,-50340.82,-21227.58
1214718.6334144466,-35417.035,-73147.71,4436.8086,-15238.525,-42006.145,-42795.168,-50338.258,-21220.947
1214718.6374144412,-35423.098,-73142.78,4437.0933,-15238.852,-42008.14,-42789.227,-50335.37,-21214.52
1214718.6414144358,-35420.168,-73142.984,4440.4707,-15238.647,-42010.457,-42784.63,-50332.52,-21207.357
1214718.6454144306,-35422.895,-73142.055,4439.6567,-15237.59,-42006.918,-42787.56,-50330.69,-21195.76
1214718.6494144253,-35423.258,-73143.31,4437.9478,-15237.387,-42001.223,-42790.61,-50330.04,-21200.115
1214718.65341442,-35423.3,-73147.83,4439.4126,-15239.828,-42007.082,-42791.22,-50329.59,-21205.975
1214718.6574144147,-35426.598,-73149.91,4437.785,-15238.607,-42008.18,-42789.797,-50331.18,-21215.129
1214718.6614144093,-35419.68,-73141.44,4441.5693,-15234.253,-42006.797,-42784.465,-50326.375,-21206.502
1214718.6654144041,-35406.94,-73137.78,4449.4224,-15231.486,-42004.76,-42783.49,-50323.445,-21202.271
1214718.6694143987,-35405.152,-73137.945,4451.7417,-15230.754,-42004.68,-42784.305,-50322.145,-21197.918
1214718.6734143936,-35408.855,-73142.46,4451.9453,-15232.097,-41994.344,-42781.863,-50322.023,-21195.354
1214718.6774143882,-35407.066,-73144.49,4453.8984,-15230.347,-41995.566,-42779.5,-50321.777,-21193.727
1214718.6814143828,-35405.316,-73145.14,4455.6885,-15227.865,-41998.66,-42777.71,-50320.477,-21192.547
1214718.6854143776,-35410.24,-73146.94,4456.9907,-15227.011,-42001.1,-42776.777,-50316.12,-21183.39
1214718.6894143722,-35413.82,-73150.72,4455.078,-15226.645,-42000.49,-42776.45,-50318.074,-21189.332
1214718.693414367,-35417.36,-73154.055,4452.881,-15226.767,-41998.332,-42778.605,-50320.516,-21197.389
1214718.6974143616,-35419.027,-73158.94,4453.369,-15227.417,-42002.36,-42779.137,-50320.844,-21191.082
1214718.7014143562,-35419.434,-73159.06,4454.9155,-15225.505,-42000.246,-42777.957,-50324.992,-21193.686
1214718.705414351,-35422.363,-73161.46,4450.7246,-15226.156,-41998.13,-42778.77,-50323.203,-21182.902
1214718.7094143457,-35422.895,-73163.945,4446.859,-15227.051,-41996.42,-42780.234,-50326.094,-21187.867
1214718.7134143403,-35422.12,-73166.75,4447.551,-15226.645,-41994.67,-42779.785,-50329.145,-21207.928
1214718.717414335,-35424.277,-73170.125,4445.3535,-15226.685,-41997.844,-42775.188,-50325.523,-21201.58
1214718.7214143297,-35429.77,-73173.14,4446.574,-15225.586,-41996.42,-42771.973,-50324.383,-21195.477
1214718.7254143246,-35426.676,-73170.17,4445.6787,-15226.767,-41998.25,-42772.543,-50324.953,-21199.627
1214718.7294143192,-35424.805,-73168.91,4446.8184,-15226.522,-41999.105,-42776.41,-50326.375,-21206.299
1214718.7334143138,-35428.1,-73167.56,4445.8823,-15226.5625,-41999.39,-42778.89,-50326.297,-21200.766
1214718.7374143086,-35427.734,-73166.42,4446.167,-15225.871,-41997.926,-42778.688,-50329.184,-21199.707
1214718.7414143032,-35427.164,-73165.445,4447.673,-15223.755,-41997.52,-42777.06,-50329.51,-21197.062
1214718.745414298,-35427.125,-73164.47,4448.7715,-15221.802,-41995.973,-42778.363,-50329.023,-21195.965
1214718.7494142926,-35423.42,-73166.875,4447.998,-15221.965,-41992.434,-42776.9,-50323.57,-21179.852
1214718.7534142872,-35417.24,-73178.266,4448.934,-15223.389,-41992.105,-42776.207,-50324.87,-21202.8
1214718.757414282,-35416.06,-73166.586,4449.3003,-15222.25,-41990.97,-42772.79,-50323.57,-21210.775
1214718.7614142767,-35417.156,-73164.875,4450.3584,-15221.3545,-41988.85,-42769.94,-50319.094,-21200.398
1214718.7654142715,-35418.336,-73168.625,4450.5615,-15221.232,-41990.926,-42771.242,-50318.645,-21198.486
1214718.769414266,-35421.715,-73169.4,4454.2646,-15221.64,-41990.64,-42771.242,-50319.95,-21200.398
1214718.7734142607,-35424.195,-73167.03,4453.5728,-15221.3955,-41989.586,-42770.875,-50318.156,-21188.72
1214718.7774142555,-35419.68,-73166.14,4449.951,-15219.687,-41987.59,-42767.863,-50315.84,-21179.402
1214718.7814142501,-35418.785,-73164.19,4452.0674,-15219.401,-41986.453,-42764.527,-50317.426,-21188.6
1214718.7854142447,-35418.62,-73163.25,4454.3457,-15217.367,-41988.324,-42766.805,-50320.273,-21192.912
1214718.7894142396,-35415.49,-73164.96,4452.881,-15217.326,-41987.348,-42770.348,-50323.04,-21194.295
1214718.7934142342,-35414.188,-73166.79,4450.887,-15218.994,-41991.54,-42771.242,-50323.406,-21193.197
1214718.797414229,-35414.676,-73167.97,4446.7773,-15222.087,-41994.184,-42769.125,-50325.684,-21191.773
1214718.8014142236,-35413.574,-73169.11,4447.3877,-15222.453,-41990.52,-42769.33,-50327.516,-21188.518
1214718.8054142182,-35414.676,-73171.35,4448.934,-15222.25,-41989.504,-42772.992,-50324.707,-21179.078
1214718.809414213,-35417.605,-73173.26,4449.5444,-15223.552,-41988.363,-42774.617,-50322.31,-21170.125
1214718.8134142077,-35416.832,-73174.766,4449.0967,-15223.959,-41992.15,-42775.516,-50324.06,-21187.988
1214718.8174142025,-35420.816,-73181.27,4448.446,-15225.871,-41996.746,-42774.54,-50323.242,-21180.787
1214718.821414197,-35421.918,-73177.984,4448.8936,-15225.18,-41994.67,-42772.055,-50322.918,-21171.307
1214718.8254141917,-35420.574,-73172.445,4448.283,-15225.058,-41987.266,-42776.043,-50328.613,-21182.21
1214718.8294141865,-35419.19,-73170.21,4447.3877,-15225.79,-41977.01,-42778.973,-50330.77,-21180.867
1214718.8334141811,-35419.395,-73171.02,4447.3877,-15227.905,-41976.035,-42781.047,-50327.35,-21169.475
1214718.8374141757,-35414.797,-73171.266,4447.225,-15227.987,-41974.855,-42781.78,-50327.312,-21180.299
1214718.8414141706,-35407.96,-73168.13,4447.876,-15227.946,-41974.977,-42780.684,-50331.543,-21192.547
1214718.8454141652,-35408.816,-73169.234,4450.2363,-15229.126,-41981.285,-42786.215,-50331.098,-21186.605
1214718.84941416,-35408.285,-73165.04,4449.056,-15230.591,-41978.92,-42790.49,-50331.016,-21187.176
1214718.8534141546,-35407.105,-73166.016,4448.0796,-15230.144,-41973.023,-42793.38,-50330.77,-21185.873
1214718.8574141492,-35408.246,-73167.16,4448.283,-15230.225,-41961.793,-42790.164,-50328.613,-21174.357
1214718.861414144,-35407.35,-73164.31,4447.1436,-15230.551,-41956.18,-42787.03,-50328.453,-21174.56
1214718.8654141387,-35404.258,-73159.016,4448.161,-15229.655,-41960.53,-42790.527,-50331.91,-21179.443
1214718.8694141335,-35403.035,-73169.72,4450.0327,-15230.957,-41964.195,-42793.703,-50333.824,-21175.457
1214718.873414128,-35408.12,-73166.79,4449.341,-15232.91,-41970.582,-42796.67,-50331.098,-21165.936
1214718.8774141227,-35411.867,-73162.766,4451.091,-15232.951,-41969.727,-42796.51,-50331.34,-21168.865
1214718.8814141175,-35411.38,-73167.93,4452.9624,-15231.608,-41964.887,-42795.695,-50340.17,-21185.588
1214718.8854141121,-35410.035,-73165.77,4452.6367,-15231.242,-41959.11,-42800.824,-50344.688,-21193.93
1214718.889414107,-35408.977,-73159.51,4450.4395,-15230.185,-41956.504,-42803.387,-50343.508,-21193.727
1214718.8934141016,-35414.754,-73162.36,4452.0264,-15232.91,-41955.406,-42803.71,-50338.992,-21187.623
1214718.8974140962,-35417.32,-73163.78,4452.0264,-15233.317,-41955.527,-42797.895,-50334.15,-21175.172
1214718.901414091,-35415.895,-73160.445,4452.9624,-15231.649,-41954.793,-42794.15,-50333.133,-21165.447
1214718.9054140856,-35416.547,-73161.91,4453.044,-15231.201,-41956.46,-42798.586,-50337.812,-21175.537
1214718.9094140802,-35416.344,-73160.28,4452.6367,-15231.079,-41958.58,-42801.11,-50340.945,-21185.67
1214718.913414075,-35415.406,-73159.1,4453.491,-15230.469,-41957.6,-42800.336,-50337.73,-21185.182
1214718.9174140696,-35411.582,-73158.125,4454.1016,-15229.696,-41953.207,-42799.44,-50337.484,-21191.082
1214718.9214140645,-35411.01,-73158.66,4454.956,-15228.598,-41950.97,-42797.73,-50336.67,-21179.363
1214718.925414059,-35411.176,-73161.17,4453.41,-15228.19,-41951.336,-42799.97,-50335.816,-21179.322
1214718.9294140537,-35411.664,-73163.9,4451.579,-15230.266,-41955.16,-42803.426,-50338.582,-21190.023
1214718.9334140485,-35416.63,-73167.69,4450.521,-15231.853,-41952.35,-42805.625,-50339.844,-21198.162
1214718.9374140431,-35416.42,-73170.78,4449.178,-15233.032,-41953.29,-42802.777,-50338.137,-21188.477
1214718.941414038,-35415.895,-73175.01,4449.951,-15233.5205,-41956.504,-42799.316,-50337.16,-21177.125
1214718.9454140326,-35411.785,-73172.41,4453.8984,-15232.707,-41957.316,-42799.48,-50337.973,-21180.42
1214718.9494140272,-35411.336,-73167.766,4454.59,-15231.161,-41957.848,-42799.562,-50334.516,-21172.73
1214718.953414022,-35408.61,-73163.21,4456.014,-15230.754,-41962.16,-42799.645,-50334.23,-21173.219
1214718.9574140166,-35409.586,-73164.92,4459.1475,-15232.463,-41957.195,-42801.19,-50332.4,-21166.463
1214718.9614140114,-35403.65,-73161.87,4460.4087,-15229.492,-41951.785,-42799.48,-50328.98,-21162.191
1214718.965414006,-35405.6,-73164.96,4461.1006,-15229.086,-41949.707,-42800.742,-50329.387,-21171.143
1214718.9694140006,-35409.344,-73167.4,4458.659,-15230.469,-41946.86,-42804.527,-50331.87,-21176.678
1214718.9734139955,-35412.07,-73169.44,4458.537,-15230.795,-41948.812,-42802.086,-50329.227,-21167.766
1214718.97741399,-35414.145,-73166.83,4459.758,-15230.591,-41948.0,-42797.445,-50330.04,-21169.312
1214718.9814139847,-35413.332,-73155.16,4458.171,-15228.435,-41946.86,-42795.98,-50332.4,-21173.055
1214718.9854139795,-35417.645,-73159.34,4457.9673,-15227.824,-41947.062,-42797.527,-50333.21,-21177.328
1214718.989413974,-35423.383,-73162.516,4456.828,-15228.76,-41947.145,-42798.42,-50331.992,-21174.072
1214718.993413969,-35420.004,-73155.97,4457.5605,-15228.842,-41940.88,-42800.66,-50331.383,-21161.174
1214718.9974139635,-35410.973,-73153.0,4458.415,-15226.848,-41931.887,-42802.41,-50332.52,-21162.842
1214719.0014139581,-35409.383,-73148.69,4460.083,-15223.349,-41937.094,-42801.637,-50336.387,-21175.578
1214719.005413953,-35406.25,-73145.8,4463.623,-15222.453,-41935.793,-42800.09,-50335.164,-21173.666
1214719.0094139476,-35405.316,-73148.84,4463.9893,-15221.151,-41925.336,-42800.496,-50334.11,-21171.713
1214719.0134139424,-35406.74,-73151.94,4460.6123,-15222.494,-41919.434,-42803.957,-50337.28,-21176.922
1214719.017413937,-35405.926,-73145.14,4461.548,-15222.331,-41923.258,-42801.555,-50336.387,-21166.016
1214719.0214139316,-35408.246,-73145.63,4461.7515,-15221.232,-41929.363,-42798.992,-50335.938,-21163.209
1214719.0254139265,-35410.645,-73150.59,4465.251,-15220.785,-41933.105,-42799.645,-50339.4,-21171.713
1214719.029413921,-35406.656,-73151.77,4467.326,-15219.849,-41935.465,-42801.27,-50340.742,-21176.799
1214719.033413916,-35403.523,-73151.695,4469.6455,-15220.378,-41938.234,-42801.598,-50337.812,-21162.8
1214719.0374139105,-35402.75,-73150.19,4472.9414,-15218.547,-41936.484,-42798.42,-50333.742,-21163.941
1214719.041413905,-35400.758,-73147.14,4471.395,-15217.041,-41937.46,-42795.74,-50331.83,-21165.203
1214719.0454139,-35398.6,-73145.1,4468.384,-15215.332,-41936.484,-42796.47,-50330.73,-21161.906
1214719.0494138945,-35403.688,-73146.445,4465.373,-15216.553,-41940.348,-42797.49,-50331.34,-21170.33
1214719.0534138891,-35407.023,-73151.53,4461.955,-15218.994,-41945.883,-42795.656,-50327.637,-21160.645
1214719.057413884,-35403.363,-73149.375,4462.4023,-15218.71,-41947.31,-42790.406,-50320.68,-21145.955
1214719.0614138786,-35400.15,-73144.29,4462.728,-15218.344,-41947.754,-42788.37,-50324.344,-21157.918
1214719.0654138734,-35399.13,-73142.414,4462.8096,-15217.814,-41941.57,-42789.062,-50326.297,-21160.564
1214719.069413868,-35394.574,-73140.914,4464.071,-15215.414,-41938.6,-42787.844,-50323.773,-21156.576
1214719.0734138626,-35394.777,-73142.984,4462.972,-15214.885,-41938.395,-42787.234,-50320.76,-21153.564
1214719.0774138574,-35397.098,-73143.48,4464.6406,-15214.926,-41940.594,-42787.11,-50321.492,-21151.45
1214719.081413852,-35400.96,-73149.7,4465.332,-15216.431,-41933.35,-42789.348,-50323.977,-21149.822
1214719.085413847,-35403.81,-73150.07,4462.362,-15216.269,-41935.06,-42793.05,-50329.023,-21155.762
1214719.0894138415,-35404.746,-73151.9,4461.3037,-15216.228,-41939.74,-42792.93,-50331.055,-21150.27
1214719.093413836,-35405.4,-73152.71,4460.002,-15215.495,-41941.164,-42793.945,-50332.4,-21151.002
1214719.097413831,-35405.723,-73156.01,4454.061,-15215.17,-41937.95,-42791.953,-50331.055,-21141.602
1214719.1014138255,-35402.26,-73156.78,4453.8574,-15213.461,-41939.168,-42788.777,-50330.65,-21148.846
1214719.1054138204,-35401.57,-73159.75,4455.5664,-15214.722,-41943.402,-42791.14,-50334.11,-21170.94
1214719.109413815,-35403.934,-73161.3,4456.8687,-15216.146,-41944.95,-42791.992,-50334.72,-21164.348
1214719.1134138096,-35406.168,-73161.5,4457.845,-15217.204,-41940.43,-42790.812,-50331.668,-21151.814
1214719.1174138044,-35403.523,-73157.02,4460.5713,-15217.326,-41936.81,-42787.152,-50331.016,-21152.873
1214719.121413799,-35403.24,-73154.3,4462.728,-15216.064,-41940.88,-42786.746,-50335.613,-21173.422
1214719.1254137936,-35402.75,-73153.445,4465.78,-15215.17,-41946.453,-42788.414,-50338.137,-21179.037
1214719.1294137884,-35402.184,-73154.625,4465.373,-15213.908,-41932.82,-42789.96,-50335.53,-21165.812
1214719.133413783,-35400.516,-73153.2,4465.2915,-15212.646,-41925.906,-42787.477,-50329.754,-21151.367
1214719.1374137779,-35399.332,-73150.72,4467.611,-15211.833,-41928.875,-42785.605,-50328.94,-21153.932
1214719.1414137725,-35399.863,-73147.75,4468.506,-15209.473,-41931.52,-42786.95,-50330.324,-21153.2
1214719.145413767,-35402.67,-73147.34,4468.7095,-15207.275,-41932.047,-42789.55,-50329.348,-21147.46
1214719.149413762,-35398.03,-73146.2,4470.866,-15206.137,-41933.96,-42792.36,-50331.34,-21150.27
1214719.1534137565,-35393.434,-73150.11,4471.2324,-15207.357,-41933.473,-42790.61,-50330.895,-21143.88
1214719.1574137514,-35389.773,-73145.59,4469.8896,-15207.561,-41931.4,-42788.21,-50330.895,-21141.236
1214719.161413746,-35388.145,-73140.42,4468.506,-15205.526,-41929.402,-42784.426,-50332.195,-21148.885
1214719.1654137406,-35387.207,-73144.086,4464.7217,-15204.753,-41930.176,-42785.727,-50332.6,-21153.973
1214719.1694137354,-35389.977,-73148.805,4465.902,-15207.642,-41935.305,-42790.082,-50332.195,-21150.717
1214719.17341373,-35388.184,-73143.92,4470.215,-15207.846,-41933.92,-42788.332,-50328.94,-21146.77
1214719.1774137248,-35385.094,-73140.016,4471.5576,-15206.34,-41930.707,-42783.49,-50328.004,-21145.06
1214719.1814137194,-35388.55,-73143.35,4470.9473,-15206.015,-41928.508,-42778.688,-50326.582,-21142.213
1214719.185413714,-35390.668,-73146.85,4468.506,-15207.602,-41947.184,-42781.13,-50328.9,-21149.943
1214719.1894137089,-35393.312,-73149.7,4467.3667,-15208.374,-41955.08,-42783.367,-50328.125,-21146.81
1214719.1934137035,-35391.44,-73147.34,4469.0757,-15206.543,-41940.348,-42780.438,-50327.92,-21143.88
1214719.197413698,-35389.85,-73147.914,4469.442,-15207.561,-41932.82,-42779.83,-50328.613,-21142.742
1214719.201413693,-35391.766,-73148.234,4468.9536,-15205.485,-41930.625,-42777.67,-50326.094,-21134.156
1214719.2054136875,-35391.4,-73148.03,4472.2495,-15200.277,-41928.55,-42782.188,-50330.12,-21149.09
1214719.2094136823,-35388.062,-73148.56,4475.627,-15200.114,-41926.11,-42787.312,-50333.09,-21154.744
1214719.213413677,-35383.79,-73147.586,4475.5454,-15199.301,-41926.23,-42786.867,-50329.1,-21139.934
1214719.2174136715,-35386.312,-73150.72,4472.6157,-15198.935,-41940.145,-42782.27,-50325.605,-21129.11
1214719.2214136664,-35388.875,-73156.91,4472.6157,-15199.138,-41962.08,-42777.957,-50324.18,-21122.803
1214719.225413661,-35388.836,-73161.79,4473.1855,-15197.876,-41955.527,-42776.125,-50323.57,-21121.785
1214719.2294136558,-35382.57,-73155.27,4475.4233,-15197.836,-41940.758,-42776.33,-50329.754,-21148.64
1214719.2334136504,-35379.68,-73156.984,4476.6035,-15199.992,-41932.82,-42774.66,-50328.816,-21145.102
1214719.237413645,-35379.07,-73162.805,4476.074,-15201.904,-41931.766,-42772.87,-50327.11,-21154.256
1214719.2414136399,-35383.79,-73165.98,4474.3247,-15202.922,-41934.613,-42774.293,-50327.598,-21156.738
1214719.2454136345,-35386.516,-73163.01,4473.755,-15202.2705,-41929.16,-42774.293,-50327.434,-21150.025
1214719.2494136293,-35386.8,-73158.57,4473.0225,-15201.986,-41920.25,-42775.105,-50329.062,-21161.133
1214719.253413624,-35385.5,-73159.55,4472.412,-15202.393,-41925.418,-42775.96,-50330.12,-21158.936
1214719.2574136185,-35380.574,-73157.39,4475.871,-15199.423,-41924.562,-42771.242,-50326.254,-21149.049
1214719.2614136133,-35382.164,-73154.5,4476.9697,-15196.818,-41923.055,-42768.516,-50326.54,-21143.475
1214719.265413608,-35381.023,-73153.65,4476.6035,-15196.859,-41923.18,-42771.363,-50331.18,-21147.502
1214719.2694136025,-35378.46,-73153.16,4474.8535,-15197.551,-41917.195,-42771.324,-50328.816,-21142.13
1214719.2734135974,-35374.758,-73154.664,4479.045,-15196.899,-41917.93,-42770.062,-50326.01,-21139.363
1214719.277413592,-35373.008,-73157.8,4481.079,-15196.615,-41918.254,-42769.043,-50325.195,-21137.574
1214719.2814135868,-35373.7,-73154.664,4479.2075,-15195.435,-41919.965,-42766.48,-50325.156,-21136.027
1214719.2854135814,-35376.953,-73152.914,4475.6675,-15195.883,-41924.848,-42767.375,-50324.18,-21134.318
1214719.289413576,-35384.97,-73164.06,4474.243,-15198.568,-41929.973,-42768.84,-50325.074,-21136.23
1214719.2934135708,-35388.227,-73166.625,4470.866,-15200.644,-41922.65,-42765.87,-50323.73,-21132.771
1214719.2974135655,-35386.844,-73164.19,4469.8486,-15199.748,-41921.957,-42763.31,-50322.31,-21129.639
1214719.3014135603,-35382.773,-73162.234,4468.7095,-15198.608,-41924.36,-42761.395,-50323.934,-21134.645
1214719.305413555,-35388.715,-73165.98,4466.512,-15199.626,-41921.957,-42763.145,-50325.035,-21135.54
1214719.3094135495,-35396.973,-73174.69,4465.088,-15200.684,-41926.434,-42763.875,-50320.395,-21122.07
1214719.3134135443,-35390.098,-73172.57,4468.913,-15199.219,-41926.72,-42764.242,-50323.12,-21138.998
1214719.317413539,-35379.438,-73166.34,4474.5283,-15197.795,-41925.54,-42762.086,-50324.547,-21148.438
1214719.3214135338,-35376.18,-73167.65,4477.661,-15195.517,-41925.54,-42759.89,-50323.977,-21141.725
1214719.3254135284,-35376.06,-73167.69,4478.801,-15194.784,-41925.863,-42759.36,-50321.492,-21135.945
1214719.329413523,-35377.81,-73170.25,4478.3936,-15196.533,-41929.2,-42762.453,-50318.484,-21128.865
1214719.3334135178,-35375.977,-73165.61,4478.5156,-15195.354,-41923.707,-42763.105,-50319.258,-21133.383
1214719.3374135124,-35377.688,-73165.98,4476.3184,-15195.028,-41930.34,-42760.5,-50317.996,-21130.412
1214719.341413507,-35379.19,-73166.67,4474.935,-15193.686,-41926.96,-42755.37,-50317.02,-21124.432
1214719.3454135018,-35382.367,-73168.46,4471.5576,-15194.702,-41928.71,-42756.594,-50315.88,-21115.072
1214719.3494134964,-35381.754,-73172.0,4468.669,-15196.615,-41930.992,-42759.89,-50318.645,-21128.703
1214719.3534134913,-35382.04,-73178.14,4466.96,-15196.371,-41927.734,-42763.227,-50322.715,-21142.742
1214719.3574134859,-35383.465,-73181.73,4465.9834,-15196.696,-41926.15,-42761.355,-50319.54,-21125.53
1214719.3614134805,-35384.156,-73182.25,4467.1226,-15194.133,-41918.5,-42755.37,-50318.156,-21118.896
1214719.3654134753,-35381.96,-73180.26,4468.221,-15191.569,-41917.93,-42754.395,-50321.004,-21129.803
1214719.36941347,-35379.68,-73176.31,4472.982,-15190.634,-41913.047,-42754.883,-50320.07,-21126.385
1214719.3734134648,-35375.164,-73171.67,4473.8364,-15190.878,-41915.445,-42753.543,-50318.156,-21114.46
1214719.3774134594,-35372.273,-73169.11,4477.092,-15189.453,-41916.14,-42750.082,-50317.098,-21108.318
1214719.381413454,-35367.96,-73166.38,4479.37,-15184.082,-41914.105,-42746.504,-50321.21,-21119.67
1214719.3854134488,-35364.95,-73167.08,4480.713,-15181.396,-41912.11,-42746.094,-50325.277,-21139.201
1214719.3894134434,-35365.4,-73169.195,4482.015,-15184.774,-41915.73,-42750.69,-50327.23,-21138.143
1214719.3934134382,-35369.547,-73173.83,4480.998,-15187.297,-41921.062,-42754.19,-50328.004,-21133.098
1214719.3974134328,-35370.445,-73178.14,4483.2764,-15185.019,-41923.543,-42752.77,-50325.24,-21122.967
1214719.4014134274,-35367.312,-73174.28,4486.45,-15182.536,-41921.266,-42751.508,-50325.887,-21121.746
1214719.4054134223,-35367.676,-73175.58,4485.433,-15182.251,-41920.41,-42753.99,-50323.61,-21113.852
1214719.4094134169,-35364.992,-73172.164,4484.375,-15179.606,-41918.215,-42756.594,-50324.18,-21116.578
1214719.4134134115,-35364.22,-73169.195,4483.8057,-15181.152,-41915.445,-42755.293,-50323.324,-21112.957
1214719.4174134063,-35370.65,-73168.375,4482.5034,-15181.723,-41916.668,-42750.816,-50324.547,-21117.799
1214719.421413401,-35369.63,-73169.64,4484.416,-15181.234,-41904.34,-42746.42,-50326.215,-21122.723
1214719.4254133957,-35366.17,-73171.23,4484.8228,-15179.606,-41906.74,-42746.543,-50322.55,-21117.107
1214719.4294133903,-35367.516,-73170.734,4485.6772,-15181.804,-41912.64,-42747.887,-50319.785,-21113.648
1214719.433413385,-35369.184,-73174.195,4484.66,-15183.269,-41913.13,-42749.105,-50318.32,-21106.69
1214719.4374133798,-35366.58,-73174.03,4484.619,-15181.56,-41911.99,-42748.17,-50319.215,-21103.598
1214719.4414133744,-35362.062,-73174.6,4485.067,-15181.967,-41911.38,-42748.25,-50319.906,-21104.9
1214719.4454133692,-35367.066,-73179.2,4483.236,-15182.617,-41913.492,-42751.426,-50316.855,-21098.186
1214719.4494133638,-35367.637,-73178.1,4481.4453,-15182.943,-41916.547,-42751.426,-50314.7,-21091.064
1214719.4534133584,-35367.676,-73181.44,4478.719,-15183.838,-41918.66,-42751.668,-50316.285,-21082.928
1214719.4574133533,-35365.152,-73182.336,4477.458,-15183.472,-41918.133,-42749.105,-50317.914,-21085.287
1214719.4614133479,-35363.61,-73184.2,4478.2715,-15182.699,-41915.855,-42749.27,-50322.676,-21102.295
1214719.4654133427,-35358.156,-73181.195,4479.94,-15180.746,-41913.82,-42753.418,-50328.656,-21123.535
1214719.4694133373,-35351.24,-73179.28,4480.5503,-15181.56,-41909.305,-42756.188,-50325.277,-21112.305
1214719.473413332,-35354.25,-73183.07,4480.428,-15184.978,-41907.105,-42760.664,-50320.883,-21096.883
1214719.4774133267,-35354.94,-73181.64,4480.2246,-15184.408,-41901.816,-42757.49,-50317.344,-21087.973
1214719.4814133213,-35352.457,-73179.41,4480.835,-15183.065,-41896.812,-42757.977,-50319.05,-21093.018
1214719.485413316,-35352.38,-73180.22,4483.7646,-15182.78,-41896.2,-42760.54,-50320.76,-21099.285
1214719.4894133108,-35355.31,-73180.99,4482.137,-15184.408,-41896.61,-42761.19,-50320.07,-21097.127
1214719.4934133054,-35359.58,-73180.99,4481.4453,-15186.198,-41897.098,-42761.395,-50314.008,-21076.416
1214719.4974133002,-35358.6,-73177.86,4479.004,-15188.07,-41892.984,-42761.19,-50312.664,-21077.312
1214719.5014132948,-35353.965,-73175.414,4478.882,-15186.768,-41888.47,-42762.41,-50317.75,-21098.227
1214719.5054132894,-35354.168,-73174.97,4478.5156,-15186.239,-41887.656,-42764.12,-50322.023,-21105.51
1214719.5094132842,-35359.863,-73177.984,4478.5156,-15187.053,-41887.574,-42766.6,-50321.617,-21097.25
1214719.5134132789,-35359.09,-73177.33,4479.3296,-15185.669,-41885.133,-42767.375,-50320.438,-21091.512
1214719.5174132737,-35354.86,-73169.516,4482.544,-15185.1,-41882.49,-42766.36,-50318.523,-21083.455
1214719.5214132683,-35354.004,-73174.89,4483.2764,-15186.442,-41886.965,-42769.86,-50322.145,-21090.129
1214719.525413263,-35355.145,-73181.805,4482.0557,-15187.134,-41889.12,-42774.7,-50327.965,-21098.348
1214719.5294132577,-35353.76,-73181.766,4481.242,-15187.256,-41890.91,-42775.92,-50329.184,-21096.68
1214719.5334132523,-35356.57,-73187.5,4479.6143,-15189.413,-41890.953,-42777.996,-50329.348,-21096.559
1214719.5374132472,-35363.61,-73193.766,4477.336,-15192.749,-41886.15,-42775.594,-50328.37,-21092.896
1214719.5414132418,-35367.516,-73196.66,4476.0337,-15193.726,-41885.5,-42774.617,-50329.145,-21092.244
1214719.5454132364,-35368.938,-73199.875,4476.4404,-15194.336,-41885.54,-42781.008,-50330.69,-21093.547
1214719.5494132312,-35369.914,-73197.23,4477.2544,-15194.865,-41887.207,-42782.27,-50332.195,-21102.254
1214719.5534132258,-35367.516,-73194.54,4479.6553,-15191.406,-41889.895,-42780.355,-50331.465,-21098.715
1214719.5574132204,-35367.39,-73193.56,4477.783,-15190.39,-41886.434,-42779.46,-50328.94,-21088.338
1214719.5614132152,-35367.676,-73191.125,4481.527,-15190.593,-41884.117,-42780.6,-50329.875,-21092.53
1214719.5654132098,-35363.77,-73185.266,4481.323,-15189.128,-41884.523,-42783.855,-50330.85,-21096.111
1214719.5694132047,-35365.64,-73192.22,4478.9634,-15189.779,-41879.76,-42786.785,-50329.55,-21091.146
1214719.5734131993,-35370.973,-73201.375,4478.0273,-15191.691,-41882.203,-42785.484,-50328.613,-21095.418
1214719.5774131939,-35371.664,-73201.54,4478.5156,-15191.732,-41881.062,-42780.844,-50328.125,-21092.611
1214719.5814131887,-35368.695,-73198.81,4480.591,-15189.25,-41882.406,-42777.793,-50329.145,-21088.502
1214719.5854131833,-35369.02,-73195.234,4481.079,-15190.1045,-41880.047,-42780.4,-50332.52,-21091.676
1214719.5894131782,-35372.477,-73197.8,4481.893,-15190.756,-41879.234,-42783.69,-50332.277,-21093.994
1214719.5934131728,-35369.59,-73199.914,4482.5034,-15192.017,-41876.18,-42783.938,-50328.695,-21085.246
1214719.5974131674,-35366.496,-73201.945,4481.771,-15192.221,-41872.195,-42782.51,-50325.117,-21076.58
1214719.6014131622,-35364.664,-73199.47,4482.544,-15190.878,-41873.332,-42780.805,-50323.324,-21070.516
1214719.6054131568,-35365.438,-73194.87,4482.7476,-15187.256,-41871.543,-42782.43,-50324.953,-21082.602
1214719.6094131516,-35365.277,-73194.42,4483.236,-15188.884,-41872.76,-42782.066,-50332.156,-21102.58
1214719.6134131462,-35367.27,-73197.266,4483.48,-15189.535,-41872.355,-42777.02,-50328.613,-21099.895
1214719.6174131408,-35366.54,-73196.9,4482.5034,-15189.331,-41868.98,-42774.617,-50322.227,-21082.887
1214719.6214131357,-35369.754,-73194.336,4480.2656,-15187.419,-41869.996,-42774.617,-50321.86,-21078.41
1214719.6254131303,-35370.65,-73195.15,4479.167,-15185.588,-41871.867,-42777.47,-50326.457,-21089.275
1214719.6294131249,-35371.867,-73201.945,4477.3765,-15187.338,-41871.094,-42779.664,-50327.516,-21093.018
1214719.6334131197,-35371.707,-73199.95,4473.999,-15187.622,-41867.92,-42782.555,-50329.51,-21093.1
1214719.6374131143,-35376.223,-73194.586,4476.5625,-15187.663,-41872.234,-42778.402,-50330.28,-21090.455
1214719.6414131091,-35378.258,-73202.15,4479.289,-15188.437,-41870.934,-42775.637,-50330.895,-21094.605
1214719.6454131037,-35376.832,-73206.26,4476.115,-15188.681,-41873.94,-42776.855,-50331.016,-21098.553
1214719.6494130983,-35376.668,-73200.12,4476.0337,-15188.151,-41877.117,-42776.734,-50330.324,-21096.111
1214719.6534130932,-35384.074,-73207.32,4473.3887,-15191.772,-41879.152,-42777.957,-50330.69,-21095.947
1214719.6574130878,-35381.023,-73207.195,4472.9414,-15191.691,-41874.227,-42776.53,-50330.85,-21089.967
1214719.6614130826,-35380.414,-73205.08,4472.453,-15189.779,-41872.805,-42774.945,-50330.12,-21085.979
1214719.6654130772,-35382.73,-73204.02,4471.5986,-15188.965,-41874.31,-42776.938,-50335.37,-21104.98
1214719.6694130718,-35381.797,-73199.625,4471.3545,-15189.087,-41867.84,-42775.434,-50336.062,-21100.262
1214719.6734130667,-35383.383,-73201.664,4471.151,-15190.756,-41868.043,-42774.254,-50335.652,-21093.1
1214719.6774130613,-35388.836,-73207.234,4472.209,-15191.447,-41872.844,-42772.504,-50330.28,-21076.457
1214719.681413056,-35394.246,-73211.8,4472.7783,-15190.308,-41873.863,-42772.055,-50329.51,-21072.918
1214719.6854130507,-35395.71,-73216.19,4474.5283,-15189.413,-41878.133,-42774.66,-50335.86,-21100.953
1214719.6894130453,-35393.96,-73216.02,4474.284,-15190.512,-41876.75,-42774.496,-50334.027,-21101.318
1214719.6934130401,-35391.277,-73216.43,4476.3184,-15189.738,-41874.51,-42773.6,-50327.516,-21084.84
1214719.6974130347,-35387.98,-73216.23,4476.4814,-15187.744,-41870.484,-42771.12,-50322.55,-21069.377
1214719.7014130293,-35384.684,-73205.33,4478.801,-15185.873,-41871.137,-42765.668,-50321.414,-21070.436
1214719.7054130242,-35384.402,-73201.13,4480.1025,-15185.222,-41867.15,-42768.598,-50328.086,-21092.855
1214719.7094130188,-35384.074,-73205.0,4481.12,-15184.326,-41862.348,-42772.992,-50332.52,-21104.656
1214719.7134130136,-35385.582,-73213.22,4480.6724,-15184.326,-41862.836,-42772.504,-50329.67,-21094.89
1214719.7174130082,-35389.69,-73218.75,4481.7305,-15185.019,-41865.277,-42774.008,-50327.516,-21084.148
1214719.7214130028,-35388.957,-73221.44,4480.9165,-15185.1,-41872.316,-42772.992,-50327.68,-21084.066
1214719.7254129976,-35385.5,-73217.53,4478.801,-15183.146,-41873.902,-42770.836,-50331.668,-21095.947
1214719.7294129923,-35390.668,-73217.66,4476.2373,-15184.937,-41872.887,-42771.363,-50333.863,-21091.188
1214719.733412987,-35396.527,-73219.73,4472.7783,-15187.053,-41871.258,-42771.527,-50335.574,-21095.174
1214719.7374129817,-35392.984,-73218.55,4473.1445,-15186.117,-41863.77,-42765.75,-50336.67,-21109.334
1214719.7414129763,-35390.668,-73222.45,4472.7783,-15184.814,-41868.164,-42763.754,-50333.62,-21097.25
1214719.7454129711,-35390.79,-73222.74,4472.7783,-15185.873,-41869.996,-42766.074,-50335.004,-21102.133
1214719.7494129657,-35390.22,-73222.82,4471.761,-15183.879,-41868.855,-42763.67,-50334.11,-21114.422
1214719.7534129606,-35391.44,-73223.67,4470.7847,-15182.577,-41866.617,-42761.56,-50329.47,-21097.9
1214719.7574129552,-35389.242,-73224.445,4475.2607,-15184.245,-41867.15,-42759.688,-50326.582,-21086.385
1214719.7614129498,-35388.67,-73230.1,4475.0166,-15185.995,-41868.938,-42758.75,-50328.207,-21091.676
1214719.7654129446,-35391.93,-73227.22,4472.453,-15186.198,-41869.06,-42758.71,-50327.68,-21099.365
1214719.7694129392,-35394.168,-73228.4,4472.575,-15187.134,-41868.613,-42763.836,-50331.953,-21104.168
1214719.7734129338,-35398.723,-73227.91,4474.121,-15186.931,-41870.81,-42765.26,-50330.85,-21099.488
1214719.7774129286,-35397.867,-73226.32,4474.4873,-15187.134,-41869.957,-42759.81,-50327.07,-21089.64
1214719.7814129232,-35397.992,-73225.18,4470.9883,-15185.629,-41870.484,-42754.883,-50323.855,-21078.533
1214719.785412918,-35397.543,-73223.63,4470.134,-15184.164,-41871.42,-42756.918,-50325.32,-21084.596
1214719.7894129127,-35395.387,-73228.07,4472.6157,-15183.1875,-41873.984,-42759.277,-50326.17,-21097.656
1214719.7934129073,-35399.457,-73233.12,4473.104,-15184.123,-41873.617,-42760.5,-50320.56,-21087.932
1214719.7974129021,-35404.625,-73235.39,4471.3545,-15186.035,-41874.84,-42757.527,-50315.473,-21075.807
1214719.8014128967,-35402.305,-73231.37,4471.8833,-15183.96,-41871.664,-42753.38,-50313.19,-21072.55
1214719.8054128916,-35400.516,-73231.98,4470.5,-15183.35,-41871.258,-42753.543,-50315.594,-21081.707
1214719.8094128862,-35401.773,-73230.59,4471.5986,-15184.367,-41872.52,-42754.56,-50317.18,-21091.838
1214719.8134128808,-35404.582,-73231.81,4469.7266,-15186.076,-41874.15,-42755.047,-50315.676,-21083.049
1214719.8174128756,-35406.902,-73233.4,4467.611,-15188.559,-41871.91,-42754.965,-50316.246,-21077.107
1214719.8214128702,-35403.566,-73229.25,4467.8145,-15185.385,-41867.473,-42755.13,-50318.93,-21081.502
1214719.825412865,-35404.01,-73228.84,4467.5293,-15183.228,-41863.77,-42758.223,-50317.465,-21077.557
1214719.8294128596,-35400.88,-73226.65,4467.855,-15184.001,-41864.258,-42758.586,-50322.918,-21083.74
1214719.8334128542,-35396.688,-73222.62,4471.802,-15183.757,-41864.746,-42758.223,-50329.305,-21095.703
1214719.837412849,-35394.656,-73222.49,4473.999,-15183.065,-41865.316,-42757.61,-50331.953,-21097.168
1214719.8414128437,-35390.668,-73221.16,4477.987,-15181.03,-41866.17,-42755.25,-50331.3,-21094.441
1214719.8454128383,-35380.332,-73210.33,4484.009,-15177.734,-41863.895,-42756.105,-50332.4,-21105.998
1214719.849412833,-35371.867,-73200.445,4487.5083,-15175.863,-41860.965,-42755.82,-50331.543,-21108.48
1214719.8534128277,-35362.918,-73198.61,4489.421,-15173.056,-41856.285,-42754.965,-50329.1,-21098.877
1214719.8574128225,-35350.465,-73187.625,4494.5884,-15169.76,-41855.184,-42755.74,-50331.18,-21104.9
1214719.8614128171,-35333.21,-73172.81,4501.872,-15165.609,-41852.99,-42757.0,-50334.188,-21104.695
1214719.8654128117,-35312.258,-73154.87,4506.063,-15161.418,-41848.797,-42761.11,-50338.91,-21115.072
1214719.8694128066,-35294.56,-73136.76,4508.586,-15159.546,-41846.07,-42762.574,-50337.77,-21108.684
1214719.8734128012,-35281.94,-73119.305,4510.173,-15157.39,-41848.348,-42761.516,-50336.957,-21100.424
1214719.877412796,-35270.305,-73115.89,4510.8643,-15156.982,-41854.086,-42761.273,-50336.957,-21104.168
1214719.8814127906,-35252.688,-73102.58,4516.3574,-15154.745,-41856.445,-42761.152,-50339.684,-21114.38
1214719.8854127852,-35226.523,-73070.44,4522.339,-15150.146,-41849.45,-42761.56,-50342.53,-21121.094
1214719.88941278,-35210.45,-73050.13,4528.6055,-15146.729,-41845.34,-42763.227,-50345.38,-21123.006
1214719.8934127747,-35199.707,-73038.54,4533.6104,-15144.694,-41836.914,-42762.617,-50343.875,-21120.037
1214719.8974127695,-35192.75,-73027.305,4534.465,-15145.061,-41829.875,-42756.43,-50338.504,-21106.934
1214719.901412764,-35186.93,-73015.055,4535.1562,-15142.538,-41831.258,-42752.645,-50333.824,-21095.338
1214719.9054127587,-35177.043,-73003.38,4537.679,-15140.381,-41826.457,-42752.484,-50333.742,-21100.709
1214719.9094127535,-35174.723,-72999.68,4536.784,-15139.16,-41828.86,-42754.355,-50333.008,-21108.113
1214719.9134127481,-35183.676,-73013.35,4534.0576,-15140.91,-41838.016,-42754.438,-50327.434,-21093.182
1214719.9174127427,-35184.367,-73019.53,4534.79,-15141.684,-41840.535,-42749.39,-50327.19,-21088.543
1214719.9214127376,-35186.2,-73024.58,4536.743,-15144.003,-41846.07,-42744.754,-50330.0,-21096.111
1214719.9254127322,-35195.844,-73032.516,4533.529,-15146.037,-41853.92,-42747.48,-50332.195,-21096.68
1214719.929412727,-35202.477,-73040.57,4529.582,-15147.99,-41853.68,-42749.758,-50331.543,-21089.844
1214719.9334127216,-35208.09,-73049.69,4525.594,-15147.746,-41850.344,-42746.258,-50328.168,-21090.414
1214719.9374127162,-35212.688,-73056.12,4522.4204,-15149.17,-41841.88,-42743.9,-50327.19,-21094.727
1214719.941412711,-35221.234,-73062.586,4523.3564,-15149.008,-41839.64,-42743.164,-50329.55,-21100.342
1214719.9454127057,-35231.73,-73076.945,4521.2812,-15149.048,-41849.61,-42745.65,-50333.21,-21104.777
1214719.9494127005,-35241.945,-73090.58,4515.5845,-15149.902,-41851.36,-42746.137,-50333.293,-21096.883
1214719.953412695,-35253.582,-73103.07,4513.8755,-15150.92,-41846.965,-42744.184,-50332.97,-21097.615
1214719.9574126897,-35264.773,-73113.445,4510.8237,-15151.286,-41841.594,-42741.17,-50339.6,-21122.03
1214719.9614126845,-35273.4,-73121.016,4505.941,-15150.798,-41843.63,-42740.156,-50340.863,-21120.688
1214719.9654126791,-35285.2,-73132.0,4501.3022,-15151.489,-41838.664,-42741.58,-50341.434,-21118.246
1214719.969412674,-35294.11,-73142.58,4497.8027,-15154.582,-41829.996,-42741.133,-50338.176,-21112.225
1214719.9734126686,-35298.83,-73146.445,4496.338,-15155.478,-41839.152,-42740.03,-50336.266,-21116.293
1214719.9774126632,-35306.844,-73150.516,4493.9375,-15155.192,-41842.043,-42737.67,-50332.074,-21108.033
1214719.981412658,-35311.605,-73158.45,4492.839,-15155.07,-41844.08,-42735.637,-50328.33,-21101.93
1214719.9854126526,-35314.58,-73164.59,4492.025,-15152.588,-41845.258,-42736.37,-50326.582,-21101.889
1214719.9894126472,-35319.867,-73172.2,4491.374,-15154.867,-41843.547,-42739.016,-50322.88,-21096.924
1214719.993412642,-35327.434,-73182.7,4489.7056,-15158.61,-41844.645,-42738.934,-50317.06,-21079.875
1214719.9974126366,-35333.21,-73192.14,4491.9844,-15157.227,-41840.21,-42737.184,-50318.645,-21081.584
1214720.0014126315,-35333.496,-73196.66,4492.5947,-15156.454,-41839.56,-42737.59,-50322.676,-21087.729
1214720.005412626,-35336.996,-73199.14,4489.909,-15157.227,-41852.664,-42737.754,-50319.99,-21080.81
1214720.0094126207,-35341.434,-73202.48,4488.729,-15157.39,-41861.816,-42737.062,-50319.05,-21078.777
1214720.0134126155,-35342.125,-73204.43,4488.851,-15157.1045,-41852.215,-42736.29,-50319.215,-21094.523
1214720.0174126101,-35342.164,-73204.71,4490.5195,-15155.3955,-41849.812,-42730.715,-50316.816,-21090.21
1214720.021412605,-35345.703,-73207.195,4492.147,-15155.925,-41850.426,-42728.516,-50315.473,-21081.543
1214720.0254125996,-35347.25,-73212.164,4489.7056,-15155.884,-41852.133,-42732.504,-50316.53,-21079.834
1214720.0294125942,-35350.465,-73218.266,4485.5146,-15158.163,-41847.7,-42734.945,-50319.664,-21078.328
1214720.033412589,-35358.195,-73222.01,4481.12,-15161.459,-41847.574,-42732.87,-50320.844,-21080.607
1214720.0374125836,-35363.28,-73226.4,4480.7944,-15159.912,-41857.83,-42728.312,-50316.45,-21073.406
1214720.0414125784,-35360.23,-73227.91,4481.9336,-15157.715,-41854.453,-42724.855,-50313.887,-21065.268
1214720.045412573,-35360.68,-73231.53,4482.137,-15159.75,-41856.324,-42726.89,-50318.36,-21077.596
1214720.0494125676,-35367.188,-73234.09,4478.923,-15160.93,-41858.156,-42730.348,-50322.715,-21086.14
1214720.0534125625,-35368.207,-73236.45,4477.702,-15161.987,-41858.195,-42733.277,-50325.156,-21087.037
1214720.057412557,-35370.242,-73238.445,4476.3184,-15163.127,-41859.824,-42731.285,-50322.55,-21079.06
1214720.0614125517,-35376.223,-73245.85,4474.2026,-15162.517,-41865.6,-42727.46,-50319.258,-21077.84
1214720.0654125465,-35378.297,-73250.2,4473.877,-15162.354,-41869.47,-42729.695,-50321.7,-21090.658
1214720.069412541,-35379.883,-73248.21,4474.284,-15162.842,-41852.99,-42729.414,-50318.77,-21078.777
1214720.073412536,-35380.21,-73249.15,4476.3594,-15163.005,-41854.74,-42728.355,-50315.023,-21071.453
1214720.0774125305,-35376.63,-73247.11,4479.7363,-15162.476,-41854.086,-42722.82,-50310.71,-21070.271
1214720.0814125251,-35373.902,-73243.49,4479.533,-15161.255,-41854.535,-42719.117,-50308.758,-21067.342
1214720.08541252,-35374.84,-73245.24,4479.411,-15161.703,-41856.85,-42720.703,-50308.027,-21059.734
1214720.0894125146,-35373.496,-73247.195,4479.696,-15163.005,-41856.082,-42723.023,-50305.22,-21047.893
1214720.0934125094,-35373.25,-73252.36,4477.3765,-15164.633,-41855.875,-42723.43,-50303.508,-21047.771
1214720.097412504,-35376.87,-73257.0,4476.5625,-15165.039,-41857.504,-42716.758,-50301.758,-21046.59
1214720.1014124986,-35378.297,-73259.36,4476.156,-15163.859,-41856.324,-42716.023,-50304.65,-21056.764
1214720.1054124935,-35380.94,-73262.9,4477.3765,-15162.231,-41856.04,-42719.727,-50305.664,-21056.926
1214720.109412488,-35381.633,-73262.62,4477.0103,-15162.231,-41854.453,-42724.12,-50307.66,-21059.246
1214720.113412483,-35383.465,-73268.48,4476.4814,-15163.737,-41856.445,-42729.94,-50308.96,-21059.49
1214720.1174124775,-35385.824,-73273.805,4477.702,-15165.243,-41862.918,-42731.406,-50309.9,-21052.734
1214720.121412472,-35383.465,-73271.69,4477.8647,-15163.249,-41854.535,-42730.594,-50308.72,-21043.783
1214720.125412467,-35376.914,-73267.87,4478.3125,-15162.313,-41845.703,-42731.977,-50309.082,-21048.707
1214720.1294124615,-35374.637,-73264.33,4479.126,-15162.191,-41836.957,-42733.24,-50310.75,-21057.252
1214720.1334124561,-35376.02,-73268.19,4478.2715,-15165.283,-41842.53,-42738.08,-50310.914,-21054.078
1214720.137412451,-35376.426,-73265.586,4479.167,-15166.708,-41841.758,-42738.973,-50309.57,-21048.87
1214720.1414124456,-35375.53,-73265.22,4479.8584,-15166.057,-41839.844,-42737.793,-50308.35,-21041.627
1214720.1454124404,-35378.055,-73272.664,4477.4985,-15166.87,-41844.24,-42744.426,-50313.234,-21055.379
1214720.149412435,-35382.324,-73278.0,4479.7363,-15166.301,-41845.258,-42748.902,-50315.31,-21062.297
1214720.1534124296,-35384.523,-73278.65,4479.045,-15166.301,-41837.81,-42748.82,-50313.965,-21045.125
1214720.1574124245,-35381.31,-73271.98,4478.109,-15163.818,-41827.516,-42746.137,-50319.336,-21051.473
1214720.161412419,-35379.8,-73269.25,4478.3125,-15162.639,-41839.355,-42745.527,-50321.37,-21056.967
1214720.165412414,-35378.867,-73263.43,4475.464,-15161.947,-41838.258,-42747.64,-50318.973,-21053.143
1214720.1694124085,-35381.633,-73262.086,4471.4355,-15164.0625,-41828.043,-42749.555,-50315.43,-21040.975
1214720.173412403,-35382.04,-73263.43,4471.0693,-15165.976,-41827.35,-42749.594,-50318.36,-21048.543
1214720.177412398,-35382.938,-73264.57,4472.412,-15166.342,-41828.777,-42749.51,-50320.598,-21051.717
1214720.1814123925,-35386.434,-73268.59,4474.691,-15166.667,-41832.156,-42752.32,-50320.273,-21051.678
1214720.1854123874,-35388.227,-73269.33,4472.738,-15167.521,-41835.652,-42755.453,-50322.348,-21058.514
1214720.189412382,-35388.67,-73266.89,4472.3716,-15168.823,-41832.805,-42759.035,-50325.562,-21069.783
1214720.1934123766,-35385.05,-73260.22,4477.051,-15166.83,-41831.83,-42759.688,-50322.47,-21055.543
1214720.1974123714,-35384.97,-73260.09,4480.591,-15165.243,-41826.418,-42756.918,-50318.074,-21045.736
1214720.201412366,-35384.97,-73258.914,4483.5615,-15164.022,-41824.832,-42756.51,-50321.414,-21067.791
1214720.2054123606,-35387.004,-73261.03,4482.7476,-15165.649,-41829.996,-42757.734,-50320.273,-21061.361
1214720.2094123554,-35387.047,-73262.375,4479.37,-15165.976,-41827.516,-42759.645,-50320.355,-21059.773
1214720.21341235,-35387.453,-73262.984,4478.719,-15166.667,-41824.016,-42760.5,-50322.023,-21060.506
1214720.2174123449,-35390.34,-73267.3,4477.336,-15168.173,-41823.73,-42758.26,-50323.0,-21051.107
1214720.2214123395,-35388.43,-73265.14,4476.3594,-15164.551,-41821.13,-42757.812,-50325.277,-21051.799
1214720.225412334,-35390.3,-73265.914,4475.4233,-15163.534,-41820.926,-42762.207,-50328.656,-21055.176
1214720.229412329,-35394.492,-73269.21,4475.871,-15165.731,-41816.855,-42765.18,-50329.348,-21057.088
1214720.2334123235,-35393.96,-73267.055,4478.923,-15164.633,-41808.72,-42769.086,-50330.895,-21063.924
1214720.2374123184,-35392.496,-73262.9,4479.6143,-15164.348,-41810.06,-42766.766,-50331.18,-21060.588
1214720.241412313,-35393.516,-73261.76,4479.0854,-15162.313,-41812.176,-42763.957,-50330.85,-21058.758
1214720.2454123076,-35396.242,-73261.84,4476.644,-15161.377,-41814.09,-42766.48,-50331.3,-21058.432
1214720.2494123024,-35398.438,-73258.914,4476.278,-15163.574,-41814.008,-42765.137,-50327.11,-21048.707
1214720.253412297,-35397.91,-73258.38,4480.0215,-15164.836,-41813.805,-42763.918,-50324.14,-21054.322
1214720.2574122918,-35395.55,-73260.58,4481.323,-15165.527,-41810.02,-42759.97,-50323.242,-21056.193
1214720.2614122864,-35399.332,-73266.69,4478.475,-15166.098,-41811.402,-42759.156,-50323.12,-21048.992
1214720.265412281,-35402.67,-73267.91,4478.882,-15165.69,-41821.453,-42764.16,-50324.953,-21054.281
1214720.2694122759,-35403.81,-73270.02,4479.7363,-15167.196,-41819.418,-42764.445,-50321.902,-21047.445
1214720.2734122705,-35406.984,-73276.086,4478.2715,-15170.736,-41822.55,-42763.836,-50319.99,-21040.61
1214720.277412265,-35410.848,-73281.5,4475.627,-15170.939,-41822.105,-42758.3,-50323.773,-21052.979
1214720.28141226,-35409.75,-73280.31,4475.464,-15169.556,-41817.914,-42754.477,-50324.06,-21054.646
1214720.2854122545,-35399.05,-73270.43,4478.5566,-15167.074,-41816.082,-42757.0,-50323.527,-21050.293
1214720.2894122493,-35398.48,-73265.46,4478.2715,-15166.87,-41814.902,-42759.36,-50323.61,-21043.213
1214720.293412244,-35401.773,-73273.03,4479.3296,-15167.929,-41813.03,-42759.523,-50324.586,-21049.764
1214720.2974122385,-35402.508,-73276.29,4480.3467,-15167.318,-41812.785,-42758.016,-50328.74,-21055.95
1214720.3014122334,-35399.21,-73273.805,4483.236,-15165.976,-41811.363,-42756.715,-50330.61,-21057.17
1214720.305412228,-35401.613,-73274.78,4483.7646,-15163.818,-41810.26,-42757.69,-50331.016,-21056.111
1214720.3094122228,-35406.94,-73280.27,4480.428,-15164.958,-41810.67,-42761.19,-50329.793,-21050.537
1214720.3134122174,-35404.625,-73278.77,4481.8525,-15164.877,-41808.105,-42760.297,-50327.598,-21050.822
1214720.317412212,-35399.17,-73273.766,4483.8867,-15162.924,-41807.82,-42757.12,-50324.832,-21039.389
1214720.3214122069,-35400.758,-73272.664,4482.463,-15161.174,-41809.285,-42754.805,-50324.87,-21037.068
1214720.3254122015,-35404.094,-73278.04,4481.5674,-15161.093,-41812.176,-42752.85,-50323.855,-21037.191
1214720.3294121963,-35404.297,-73277.266,4481.201,-15162.069,-41813.6,-42751.14,-50322.023,-21037.068
1214720.333412191,-35404.01,-73278.89,4479.126,-15164.877,-41815.145,-42749.797,-50320.883,-21036.744
1214720.3374121855,-35402.63,-73281.58,4477.987,-15164.348,-41814.21,-42747.152,-50321.13,-21047.527
1214720.3414121803,-35407.188,-73280.48,4479.4517,-15160.971,-41812.906,-42744.266,-50319.582,-21039.104
1214720.345412175,-35410.402,-73281.66,4481.323,-15158.813,-41811.035,-42745.605,-50319.867,-21042.562
1214720.3494121695,-35408.33,-73282.43,4482.3813,-15158.773,-41808.434,-42750.9,-50323.652,-21048.828
1214720.3534121644,-35404.746,-73281.91,4485.0264,-15159.831,-41807.375,-42751.426,-50322.47,-21046.795
1214720.357412159,-35400.516,-73277.914,4487.427,-15157.023,-41808.555,-42745.08,-50320.07,-21044.8
1214720.3614121538,-35402.305,-73275.84,4486.8574,-15155.803,-41807.414,-42742.473,-50317.344,-21035.727
1214720.3654121484,-35406.047,-73278.08,4485.759,-15156.088,-41806.195,-42745.08,-50315.918,-21031.535
1214720.369412143,-35401.816,-73276.53,4485.311,-15155.559,-41805.992,-42743.29,-50312.38,-21027.059
1214720.3734121379,-35400.23,-73277.38,4483.1543,-15156.21,-41805.016,-42740.766,-50309.652,-21022.99
1214720.3774121325,-35396.688,-73278.2,4485.9214,-15155.151,-41804.242,-42739.46,-50309.734,-21024.049
1214720.3814121273,-35396.28,-73275.27,4489.095,-15153.687,-41801.8,-42738.242,-50309.773,-21028.117
1214720.385412122,-35396.812,-73282.23,4489.177,-15153.524,-41804.04,-42741.008,-50311.727,-21033.855
1214720.3894121165,-35397.137,-73286.586,4488.6885,-15154.094,-41804.89,-42742.434,-50312.543,-21032.064
1214720.3934121113,-35399.617,-73288.9,4487.671,-15155.518,-41800.984,-42742.8,-50311.24,-21022.055
1214720.397412106,-35403.24,-73291.305,4487.9966,-15155.6,-41799.562,-42738.324,-50312.055,-21023.926
1214720.4014121008,-35402.14,-73290.98,4489.3394,-15154.379,-41799.6,-42737.266,-50314.78,-21030.111
1214720.4054120954,-35400.758,-73291.1,4489.0547,-15156.413,-41799.645,-42742.35,-50319.176,-21034.912
1214720.40941209,-35400.637,-73290.98,4487.956,-15156.088,-41799.6,-42747.07,-50322.51,-21039.918
1214720.4134120848,-35403.727,-73294.92,4487.468,-15157.715,-41801.066,-42749.84,-50323.652,-21041.219
1214720.4174120794,-35402.957,-73293.91,4488.6475,-15156.006,-41802.613,-42747.56,-50323.04,-21037.68
1214720.421412074,-35402.59,-73294.72,4490.7227,-15154.989,-41801.473,-42745.2,-50321.21,-21032.594
1214720.4254120688,-35399.254,-73294.07,4489.665,-15153.442,-41803.63,-42745.89,-50319.336,-21023.926
1214720.4294120634,-35399.617,-73290.695,4490.5195,-15153.769,-41803.836,-42747.887,-50319.5,-21021.77
1214720.4334120583,-35402.996,-73294.72,4489.5835,-15154.257,-41804.363,-42746.785,-50319.582,-21015.91
1214720.4374120529,-35406.414,-73292.766,4486.8164,-15153.483,-41804.688,-42742.96,-50318.848,-21014.527
1214720.4414120475,-35413.656,-73292.73,4484.375,-15153.076,-41805.38,-42742.39,-50319.62,-21025.635
1214720.4454120423,-35417.4,-73294.27,4485.759,-15152.344,-41802.816,-42744.63,-50324.06,-21041.342
1214720.449412037,-35423.18,-73298.75,4484.375,-15153.158,-41805.016,-42747.07,-50322.836,-21037.72
1214720.4534120318,-35425.742,-73300.375,4483.9683,-15153.361,-41806.195,-42747.152,-50320.312,-21025.31
1214720.4574120264,-35425.66,-73300.664,4485.5146,-15154.338,-41804.16,-42743.98,-50319.297,-21023.602
1214720.461412021,-35429.445,-73301.76,4486.6133,-15151.855,-41801.8,-42740.438,-50317.953,-21027.385
1214720.4654120158,-35432.7,-73302.77,4485.3926,-15151.205,-41804.16,-42741.09,-50318.074,-21024.578
1214720.4694120104,-35432.82,-73303.1,4483.3984,-15153.442,-41806.195,-42743.98,-50317.547,-21022.87
1214720.4734120052,-35437.055,-73306.97,4482.0557,-15155.803,-41812.176,-42742.758,-50314.7,-21009.645
1214720.4774119998,-35437.297,-73309.57,4481.3643,-15155.3955,-41813.926,-42735.84,-50319.785,-21036.824
1214720.4814119944,-35437.01,-73312.016,4479.3296,-15154.826,-41813.926,-42734.66,-50321.617,-21033.691
1214720.4854119893,-35434.45,-73310.586,4480.0215,-15154.297,-41814.37,-42735.23,-50321.535,-21027.791
1214720.4894119839,-35433.35,-73311.77,4481.7305,-15151.733,-41812.137,-42735.637,-50322.754,-21032.674
1214720.4934119785,-35433.84,-73311.65,4482.9917,-15151.652,-41809.773,-42739.34,-50327.637,-21042.4
1214720.4974119733,-35434.45,-73313.234,4485.3516,-15150.391,-41809.285,-42738.445,-50328.168,-21028.932
1214720.501411968,-35442.06,-73313.84,4486.898,-15149.984,-41810.387,-42736.613,-50328.33,-21036.174
1214720.5054119627,-35446.535,-73318.93,4488.037,-15149.577,-41810.953,-42741.05,-50329.348,-21043.01
1214720.5094119573,-35451.457,-73316.41,4489.258,-15149.374,-41809.613,-42743.574,-50329.023,-21041.139
1214720.513411952,-35452.84,-73313.234,4489.38,-15149.17,-41807.66,-42741.496,-50326.66,-21035.197
1214720.5174119468,-35452.23,-73314.58,4492.4316,-15148.642,-41807.332,-42735.15,-50319.05,-21015.828
1214720.5214119414,-35455.04,-73317.34,4492.8794,-15147.461,-41811.484,-42732.832,-50317.996,-21019.775
1214720.5254119362,-35459.637,-73318.766,4492.513,-15146.973,-41815.836,-42732.383,-50319.5,-21033.447
1214720.5294119308,-35464.844,-73325.89,4490.804,-15150.269,-41812.99,-42731.082,-50313.355,-21018.31
1214720.5334119254,-35467.41,-73329.1,4489.177,-15151.53,-41810.1,-42731.57,-50309.938,-21010.213
1214720.5374119203,-35467.285,-73333.74,4488.485,-15151.408,-41808.594,-42730.55,-50312.83,-21017.334
1214720.5414119149,-35469.44,-73335.49,4487.468,-15151.042,-41808.88,-42729.13,-50314.902,-21027.1
1214720.5454119097,-35472.008,-73336.34,4488.5254,-15149.618,-41809.57,-42730.715,-50313.234,-21024.334
1214720.5494119043,-35472.902,-73335.734,4491.333,-15149.902,-41806.723,-42732.504,-50308.96,-21011.271
1214720.553411899,-35470.62,-73333.87,4491.8623,-15149.089,-41804.973,-42728.72,-50304.527,-21002.156
1214720.5574118937,-35468.996,-73331.22,4492.1064,-15148.56,-41806.277,-42721.844,-50304.242,-21007.771
1214720.5614118883,-35471.598,-73329.43,4491.74,-15148.193,-41809.49,-42718.184,-50303.305,-21005.086
1214720.565411883,-35469.24,-73329.63,4489.7056,-15147.99,-41809.164,-42720.582,-50304.445,-21006.268
1214720.5694118778,-35465.945,-73326.7,4488.973,-15149.211,-41809.082,-42723.758,-50308.758,-21012.29
1214720.5734118724,-35467.33,-73328.086,4489.99,-15148.479,-41808.637,-42724.69,-50307.78,-21012.86
1214720.5774118672,-35468.914,-73328.29,4488.8916,-15148.967,-41806.887,-42721.07,-50303.02,-20999.064
1214720.5814118618,-35469.605,-73326.17,4487.264,-15147.583,-41807.7,-42720.746,-50306.844,-21006.756
1214720.5854118564,-35468.996,-73328.29,4487.834,-15144.003,-41807.58,-42724.285,-50310.75,-21013.184
1214720.5894118513,-35471.273,-73326.375,4491.4146,-15144.531,-41807.293,-42727.418,-50311.117,-21009.807
1214720.5934118459,-35471.477,-73328.62,4494.385,-15144.735,-41808.758,-42726.973,-50308.92,-20994.305
1214720.5974118407,-35468.547,-73326.46,4494.914,-15142.782,-41809.773,-42723.145,-50313.76,-21013.348
1214720.6014118353,-35468.02,-73323.41,4495.321,-15141.154,-41807.617,-42721.234,-50318.727,-21028.523
1214720.60541183,-35467.613,-73326.7,4495.8496,-15140.666,-41805.504,-42724.082,-50315.758,-21016.277
1214720.6094118247,-35466.88,-73324.016,4495.4834,-15139.445,-41804.28,-42725.098,-50316.895,-21022.705
1214720.6134118193,-35465.58,-73321.49,4497.152,-15137.817,-41798.953,-42723.96,-50315.066,-21020.06
1214720.6174118142,-35467.49,-73323.2,4498.861,-15137.777,-41796.305,-42717.57,-50310.957,-21005.697
1214720.6214118088,-35469.688,-73321.375,4496.9893,-15139.201,-41798.3,-42714.97,-50309.246,-21003.621
1214720.6254118034,-35473.918,-73325.4,4496.379,-15140.056,-41805.055,-42720.01,-50307.945,-21011.8
1214720.6294117982,-35474.895,-73330.65,4494.5884,-15141.398,-41804.04,-42720.906,-50303.184,-21005.453
1214720.6334117928,-35474.977,-73330.69,4494.344,-15143.759,-41802.938,-42717.367,-50299.36,-20994.955
1214720.6374117874,-35475.547,-73332.93,4494.344,-15143.718,-41801.27,-42712.605,-50298.543,-20986.531
1214720.6414117822,-35476.117,-73330.94,4493.9375,-15142.863,-41800.906,-42709.516,-50297.977,-20983.846
1214720.6454117768,-35475.953,-73328.82,4493.286,-15140.625,-41805.258,-42712.973,-50300.375,-20996.746
1214720.6494117717,-35475.426,-73331.055,4494.8325,-15138.632,-41803.836,-42715.82,-50299.36,-20992.473
1214720.6534117663,-35480.023,-73335.37,4492.92,-15140.829,-41797.69,-42718.832,-50298.668,-20993.979
1214720.6574117609,-35480.918,-73334.15,4492.961,-15140.015,-41795.453,-42714.887,-50295.9,-20986.531
1214720.6614117557,-35478.68,-73331.914,4494.548,-15138.062,-41797.895,-42711.266,-50295.29,-20980.51
1214720.6654117503,-35479.9,-73336.47,4493.4897,-15138.062,-41797.65,-42709.84,-50295.086,-20971.559
1214720.6694117452,-35482.34,-73339.805,4492.961,-15139.445,-41798.953,-42713.094,-50299.24,-20985.84
1214720.6734117398,-35479.207,-73333.26,4495.0767,-15138.916,-41799.52,-42710.86,-50303.793,-21006.186
1214720.6774117344,-35477.945,-73331.55,4496.867,-15138.184,-41796.754,-42706.465,-50302.41,-20993.246
1214720.6814117292,-35479.656,-73335.62,4498.535,-15136.963,-41793.863,-42704.348,-50300.984,-20987.549
1214720.6854117238,-35481.85,-73336.95,4499.0234,-15134.359,-41795.086,-42704.918,-50300.008,-20984.172
1214720.6894117186,-35486.695,-73334.516,4496.501,-15137.167,-41795.86,-42705.61,-50298.465,-20986.898
1214720.6934117132,-35485.92,-73336.55,4495.321,-15139.893,-41791.75,-42705.527,-50299.727,-20999.39
1214720.6974117078,-35481.85,-73335.77,4495.443,-15139.12,-41785.36,-42701.094,-50296.59,-20987.508
1214720.7014117027,-35477.176,-73332.97,4498.6167,-15137.695,-41783.977,-42700.24,-50294.56,-20982.422
1214720.7054116973,-35477.742,-73336.914,4500.0,-15134.848,-41787.965,-42705.445,-50292.523,-20979.29
1214720.7094116919,-35479.168,-73341.02,4498.535,-15137.207,-41794.434,-42706.3,-50289.715,-20968.426
1214720.7134116867,-35478.273,-73339.68,4497.762,-15139.323,-41799.4,-42707.52,-50288.047,-20961.14
1214720.7174116813,-35480.184,-73340.13,4497.1113,-15138.55,-41796.957,-42706.87,-50295.37,-20981.201
1214720.7214116761,-35478.8,-73341.76,4497.2334,-15137.573,-41788.902,-42704.023,-50294.15,-20979.168
1214720.7254116707,-35476.156,-73335.33,4496.1753,-15137.899,-41788.492,-42706.668,-50295.168,-20980.916
1214720.7294116654,-35475.668,-73335.33,4492.8794,-15136.597,-41786.867,-42710.41,-50296.715,-20982.504
1214720.7334116602,-35476.035,-73339.68,4493.0015,-15136.963,-41785.32,-42712.16,-50292.24,-20973.268
1214720.7374116548,-35477.133,-73344.12,4493.5303,-15138.225,-41794.312,-42711.67,-50288.574,-20960.084
1214720.7414116496,-35471.395,-73340.01,4495.2803,-15136.679,-41795.125,-42710.41,-50290.69,-20963.055
1214720.7454116442,-35472.21,-73339.48,4494.751,-15137.817,-41786.336,-42713.22,-50296.348,-20977.133
1214720.7494116388,-35473.836,-73338.91,4494.385,-15138.266,-41780.723,-42718.06,-50297.285,-20978.68
1214720.7534116337,-35471.273,-73337.08,4494.344,-15139.12,-41775.066,-42719.65,-50296.266,-20974.0
1214720.7574116283,-35471.03,-73341.31,4493.8154,-15139.038,-41775.188,-42719.93,-50299.113,-20981.69
1214720.761411623,-35473.105,-73347.82,4493.4897,-15138.347,-41777.67,-42721.56,-50299.97,-20972.371
1214720.7654116177,-35473.594,-73347.086,4492.0654,-15140.707,-41778.32,-42727.01,-50300.945,-20974.568
1214720.7694116123,-35476.848,-73351.32,4490.804,-15142.863,-41786.95,-42729.86,-50302.777,-20980.184
1214720.7734116071,-35478.355,-73352.17,4488.8916,-15143.718,-41784.87,-42731.285,-50302.98,-20976.604
1214720.7774116017,-35476.32,-73349.24,4489.7056,-15144.491,-41774.375,-42730.39,-50307.496,-20983.602
1214720.7814115963,-35475.914,-73347.74,4489.868,-15144.206,-41761.11,-42731.812,-50312.582,-20991.781
1214720.7854115912,-35475.75,-73343.67,4490.0312,-15142.09,-41763.918,-42733.645,-50313.234,-20985.148
1214720.7894115858,-35475.504,-73346.195,4490.072,-15143.393,-41764.61,-42738.324,-50313.152,-20980.836
1214720.7934115806,-35475.26,-73344.61,4492.4316,-15146.24,-41767.17,-42741.293,-50315.023,-20986.166
1214720.7974115752,-35471.76,-73339.07,4497.274,-15145.549,-41765.953,-42738.527,-50317.344,-20995.117
1214720.8014115698,-35477.05,-73341.23,4495.8496,-15144.694,-41762.94,-42738.484,-50315.188,-20991.375
1214720.8054115647,-35477.05,-73341.76,4494.548,-15145.752,-41765.465,-42740.48,-50312.95,-20987.834
1214720.8094115593,-35474.0,-73342.81,4493.7744,-15145.305,-41767.863,-42741.496,-50311.727,-20984.66
1214720.813411554,-35473.023,-73344.89,4493.408,-15144.084,-41764.08,-42740.36,-50308.27,-20972.738
1214720.8174115487,-35473.473,-73341.43,4494.873,-15143.393,-41762.207,-42738.08,-50307.375,-20969.076
1214720.8214115433,-35474.406,-73342.33,4495.809,-15143.2705,-41762.41,-42737.793,-50308.797,-20969.076
1214720.8254115381,-35474.45,-73341.43,4492.269,-15144.247,-41762.29,-42740.156,-50312.34,-20982.748
1214720.8294115327,-35474.324,-73335.53,4490.5195,-15145.386,-41767.293,-42741.742,-50317.305,-20990.643
1214720.8334115276,-35473.27,-73330.734,4493.408,-15143.311,-41768.68,-42741.54,-50315.023,-20984.945
1214720.8374115222,-35471.883,-73329.76,4492.5537,-15142.619,-41765.992,-42737.836,-50314.375,-20983.033
1214720.8414115168,-35475.098,-73333.13,4490.9263,-15143.393,-41775.15,-42738.61,-50316.652,-20991.09
1214720.8454115116,-35478.355,-73334.92,4489.4614,-15143.474,-41768.19,-42740.723,-50315.715,-20990.154
1214720.8494115062,-35476.523,-73336.67,4490.194,-15143.799,-41762.86,-42741.902,-50312.137,-20984.54
1214720.8534115008,-35476.93,-73336.266,4488.8916,-15148.315,-41761.15,-42742.72,-50308.188,-20978.883
1214720.8574114956,-35477.254,-73338.664,4489.1357,-15149.17,-41760.582,-42740.887,-50308.676,-20976.807
1214720.8614114902,-35481.0,-73341.68,4490.1123,-15146.933,-41760.418,-42742.473,-50311.727,-20969.482
1214720.865411485,-35479.777,-73340.336,4492.391,-15145.549,-41756.51,-42743.695,-50310.387,-20960.205
1214720.8694114797,-35474.285,-73334.92,4496.501,-15144.003,-41759.117,-42743.45,-50315.594,-20988.12
1214720.8734114743,-35471.07,-73332.805,4497.1924,-15144.897,-41754.723,-42741.863,-50315.39,-20987.346
1214720.8774114691,-35468.914,-73329.914,4496.501,-15143.84,-41740.4,-42737.184,-50310.547,-20966.473
1214720.8814114637,-35461.67,-73324.95,4500.2036,-15141.562,-41748.332,-42735.555,-50312.297,-20967.693
1214720.8854114586,-35457.074,-73324.42,4505.127,-15138.347,-41753.418,-42739.22,-50316.246,-20981.893
1214720.8894114532,-35453.33,-73322.1,4506.307,-15137.451,-41752.688,-42743.492,-50315.758,-20977.459
1214720.8934114478,-35449.016,-73319.99,4506.1035,-15139.242,-41755.453,-42745.04,-50319.258,-20984.62
1214720.8974114426,-35443.89,-73312.83,4508.789,-15136.068,-41758.098,-42741.336,-50320.19,-20982.219
1214720.9014114372,-35431.03,-73307.336,4513.021,-15131.674,-41756.715,-42737.875,-50323.73,-20991.455
1214720.905411432,-35416.992,-73298.664,4515.1777,-15129.761,-41752.156,-42741.62,-50323.977,-20996.014
1214720.9094114266,-35400.473,-73276.98,4521.037,-15124.797,-41744.266,-42743.004,-50322.39,-20994.955
1214720.9134114212,-35382.527,-73260.74,4528.1577,-15124.594,-41740.64,-42744.266,-50320.598,-20985.555
1214720.917411416,-35372.355,-73246.46,4531.494,-15124.39,-41736.125,-42740.156,-50319.05,-20986.98
1214720.9214114107,-35356.895,-73230.43,4532.959,-15123.942,-41734.824,-42738.812,-50321.414,-20997.762
1214720.9254114053,-35345.906,-73221.805,4533.651,-15119.589,-41735.395,-42740.926,-50323.367,-20992.31
1214720.9294114,-35332.645,-73209.555,4537.2314,-15117.514,-41737.55,-42743.98,-50323.934,-20983.562
1214720.9334113947,-35324.137,-73198.94,4538.8184,-15116.943,-41734.5,-42744.426,-50328.004,-20997.682
1214720.9374113895,-35314.984,-73184.66,4541.382,-15112.183,-41730.836,-42743.777,-50334.92,-21011.598
1214720.9414113841,-35300.824,-73170.734,4546.1426,-15105.225,-41732.91,-42745.85,-50334.434,-21008.139
1214720.9454113788,-35291.22,-73160.61,4548.381,-15101.318,-41736.086,-42747.07,-50334.11,-21009.562
1214720.9494113736,-35293.742,-73158.66,4546.875,-15100.668,-41740.887,-42746.258,-50335.613,-21011.516
1214720.9534113682,-35296.305,-73159.266,4545.207,-15102.58,-41739.055,-42743.45,-50331.668,-20997.314
1214720.957411363,-35300.008,-73157.516,4544.5557,-15101.97,-41739.543,-42737.227,-50329.793,-20996.582
1214720.9614113576,-35304.402,-73156.91,4541.5854,-15103.231,-41731.812,-42734.906,-50329.957,-20995.77
1214720.9654113522,-35304.688,-73161.7,4540.202,-15105.144,-41728.273,-42735.19,-50330.65,-21003.256
1214720.969411347,-35312.258,-73169.195,4538.7373,-15106.486,-41728.07,-42737.062,-50332.723,-21008.668
1214720.9734113417,-35320.395,-73179.81,4536.947,-15109.05,-41732.625,-42743.33,-50336.55,-21020.467
1214720.9774113365,-35327.434,-73187.09,4535.9297,-15108.643,-41735.19,-42740.113,-50333.05,-21006.715
1214720.981411331,-35329.633,-73190.06,4534.8716,-15107.788,-41734.09,-42734.01,-50328.94,-20996.664
1214720.9854113257,-35335.652,-73193.93,4534.1797,-15108.847,-41737.266,-42732.91,-50326.254,-20991.293
1214720.9894113205,-35342.367,-73198.28,4531.9824,-15111.166,-41736.53,-42732.992,-50322.105,-20983.928
1214720.9934113151,-35345.297,-73208.336,4531.5757,-15112.468,-41734.215,-42730.67,-50320.844,-20987.549
1214720.9974113097,-35353.355,-73216.92,4530.1514,-15112.712,-41733.93,-42725.18,-50317.668,-20981.16
1214721.0014113046,-35367.066,-73225.71,4525.4316,-15115.397,-41735.027,-42725.383,-50314.58,-20973.43
1214721.0054112992,-35378.094,-73237.51,4523.4375,-15116.415,-41729.98,-42731.406,-50318.44,-20982.91
1214721.009411294,-35388.55,-73248.05,4524.984,-15118.571,-41729.492,-42731.65,-50320.477,-20988.404
1214721.0134112886,-35396.527,-73256.23,4522.5425,-15120.728,-41736.734,-42726.81,-50318.156,-20978.068
1214721.0174112832,-35400.027,-73262.29,4520.9556,-15121.826,-41735.516,-42724.367,-50318.36,-20976.441
1214721.021411278,-35406.25,-73269.414,4518.3516,-15123.373,-41722.168,-42723.27,-50323.164,-20986.572
1214721.0254112727,-35410.605,-73274.3,4516.5205,-15124.268,-41720.95,-42727.01,-50328.86,-20998.291
1214721.0294112675,-35415.285,-73277.266,4516.7646,-15124.553,-41725.098,-42727.867,-50330.49,-20996.826
1214721.033411262,-35418.54,-73282.15,4517.5376,-15124.594,-41728.56,-42727.742,-50327.92,-20989.91
1214721.0374112567,-35419.965,-73284.34,4517.9854,-15123.413,-41734.54,-42725.87,-50325.97,-20981.365
1214721.0414112515,-35424.766,-73288.62,4516.7646,-15122.233,-41736.125,-42726.93,-50325.727,-20976.441
1214721.0454112461,-35428.47,-73293.74,4513.672,-15120.6875,-41736.613,-42727.785,-50323.934,-20969.523
1214721.049411241,-35430.094,-73296.43,4513.9976,-15122.437,-41738.04,-42727.824,-50322.47,-20966.064
1214721.0534112356,-35435.14,-73301.76,4512.655,-15125.529,-41741.457,-42728.07,-50322.105,-20971.232
1214721.0574112302,-35442.79,-73308.02,4512.329,-15126.994,-41743.777,-42723.715,-50321.332,-20984.416
1214721.061411225,-35446.98,-73315.836,4511.841,-15127.238,-41745.16,-42720.785,-50318.32,-20987.59
1214721.0654112196,-35451.09,-73318.36,4507.1616,-15129.965,-41747.355,-42723.88,-50319.582,-20986.816
1214721.0694112142,-35455.895,-73324.83,4503.011,-15131.145,-41750.652,-42724.57,-50319.215,-20983.113
1214721.073411209,-35460.164,-73332.16,4504.232,-15129.883,-41752.402,-42723.758,-50316.938,-20980.348
1214721.0774112036,-35457.36,-73330.33,4505.9004,-15127.319,-41746.785,-42717.855,-50315.43,-20976.848
1214721.0814111985,-35462.28,-73332.97,4505.9814,-15128.337,-41744.63,-42715.742,-50313.926,-20970.012
1214721.085411193,-35465.945,-73335.9,4505.819,-15126.791,-41744.305,-42718.02,-50313.477,-20970.215
1214721.0894111877,-35464.316,-73341.96,4504.7607,-15128.052,-41750.33,-42722.656,-50314.535,-20969.32
1214721.0934111825,-35462.117,-73342.81,4506.9175,-15126.791,-41759.117,-42724.855,-50313.6,-20955.975
1214721.0974111771,-35462.85,-73342.57,4510.539,-15125.57,-41753.95,-42722.25,-50312.83,-20947.957
1214721.101411172,-35464.56,-73341.02,4512.7363,-15123.983,-41750.734,-42719.85,-50315.39,-20967.244
1214721.1054111666,-35466.797,-73339.27,4513.1025,-15124.472,-41754.395,-42721.273,-50316.652,-20977.54
1214721.1094111612,-35466.066,-73339.234,4512.899,-15126.791,-41757.977,-42719.402,-50314.984,-20970.947
1214721.113411156,-35469.08,-73342.49,4511.9224,-15127.401,-41755.777,-42718.26,-50315.105,-20968.873
1214721.1174111506,-35467.734,-73338.664,4515.1367,-15126.465,-41750.53,-42715.332,-50310.67,-20958.09
1214721.1214111454,-35467.49,-73338.87,4515.666,-15124.35,-41748.617,-42714.887,-50310.63,-20956.625
1214721.12541114,-35471.926,-73344.16,4514.5264,-15121.623,-41753.297,-42719.484,-50313.355,-20958.62
1214721.1294111346,-35473.227,-73345.22,4514.201,-15121.745,-41753.785,-42721.844,-50315.797,-20950.398
1214721.1334111295,-35474.12,-73342.77,4512.1665,-15123.373,-41747.926,-42719.117,-50316.734,-20950.969
1214721.137411124,-35478.883,-73343.914,4511.5967,-15122.152,-41747.316,-42714.113,-50317.26,-20966.92
1214721.1414111187,-35481.934,-73345.42,4510.8237,-15120.646,-41746.83,-42712.16,-50314.902,-20954.754
1214721.1454111135,-35482.547,-73346.195,4510.9863,-15119.019,-41748.332,-42712.527,-50314.09,-20957.723
1214721.149411108,-35481.445,-73345.5,4513.1025,-15119.263,-41745.65,-42711.67,-50310.47,-20957.44
1214721.153411103,-35478.76,-73347.45,4514.486,-15118.083,-41742.84,-42711.836,-50306.684,-20942.465
1214721.1574110975,-35479.086,-73346.11,4515.0557,-15117.839,-41742.23,-42707.4,-50302.98,-20929.037
1214721.1614110922,-35478.76,-73345.586,4516.317,-15117.025,-41742.27,-42703.29,-50307.414,-20943.768
1214721.165411087,-35476.93,-73348.555,4516.3574,-15116.659,-41740.6,-42705.812,-50310.63,-20959.31
1214721.1694110816,-35481.04,-73355.06,4513.265,-15119.426,-41743.246,-42709.84,-50309.53,-20956.38
1214721.1734110764,-35482.383,-73358.44,4511.1494,-15119.751,-41750.57,-42711.062,-50309.41,-20949.666
1214721.177411071,-35484.215,-73359.91,4511.4746,-15118.612,-41756.836,-42709.92,-50314.58,-20959.555
1214721.1814110656,-35483.24,-73357.95,4512.451,-15116.537,-41749.84,-42708.906,-50317.426,-20971.639
1214721.1854110605,-35485.23,-73359.46,4512.1665,-15115.886,-41747.07,-42707.684,-50311.77,-20965.17
1214721.189411055,-35488.363,-73363.41,4511.3525,-15116.659,-41748.13,-42707.074,-50305.867,-20947.633
1214721.19341105,-35489.586,-73364.664,4511.556,-15118.205,-41749.918,-42705.895,-50306.52,-20941.977
1214721.1974110445,-35488.65,-73360.48,4513.4688,-15114.584,-41740.848,-42700.766,-50307.05,-20943.115
1214721.201411039,-35490.766,-73357.51,4517.334,-15110.962,-41741.984,-42697.39,-50304.484,-20942.912
1214721.205411034,-35489.383,-73358.85,4521.1997,-15109.945,-41740.6,-42700.44,-50302.613,-20946.209
1214721.2094110285,-35487.305,-73357.016,4522.949,-15109.538,-41743.125,-42702.72,-50298.465,-20933.514
1214721.2134110231,-35487.633,-73361.37,4522.99,-15111.572,-41746.99,-42703.695,-50296.59,-20929.932
1214721.217411018,-35487.754,-73365.6,4523.7227,-15112.143,-41744.996,-42698.527,-50296.59,-20929.158
1214721.2214110126,-35491.414,-73372.93,4523.2344,-15112.346,-41745.973,-42695.516,-50297.527,-20924.928
1214721.2254110074,-35488.324,-73370.69,4524.7803,-15111.044,-41741.824,-42696.047,-50298.42,-20923.38
1214721.229411002,-35487.836,-73366.05,4524.048,-15110.718,-41740.277,-42699.383,-50301.23,-20939.291
1214721.2334109966,-35490.277,-73365.36,4519.735,-15112.753,-41744.59,-42700.44,-50299.24,-20932.902
1214721.2374109915,-35491.09,-73363.08,4518.5957,-15112.265,-41745.89,-42698.61,-50300.457,-20933.309
1214721.241410986,-35493.98,-73365.32,4517.9854,-15113.078,-41746.176,-42700.605,-50301.72,-20939.82
1214721.245410981,-35499.88,-73371.38,4517.7,-15112.509,-41744.06,-42698.49,-50296.633,-20936.361
1214721.2494109755,-35501.06,-73373.58,4516.3574,-15112.997,-41743.125,-42697.594,-50293.01,-20934.285
1214721.25341097,-35498.414,-73370.24,4516.561,-15112.956,-41740.195,-42696.37,-50292.645,-20934.205
1214721.257410965,-35495.2,-73365.07,4516.439,-15110.718,-41740.438,-42692.344,-50295.168,-20935.629
1214721.2614109595,-35495.65,-73368.53,4516.7236,-15109.335,-41741.617,-42692.098,-50297.242,-20933.797
1214721.2654109544,-35501.18,-73373.05,4517.0493,-15108.928,-41746.42,-42694.46,-50297.812,-20927.002
1214721.269410949,-35499.84,-73372.03,4516.968,-15110.515,-41747.113,-42696.86,-50298.465,-20928.223
1214721.2734109436,-35495.973,-73373.45,4518.5547,-15110.922,-41748.414,-42698.934,-50299.848,-20928.305
1214721.2774109384,-35499.27,-73376.18,4517.375,-15109.497,-41740.195,-42694.5,-50298.26,-20916.912
1214721.281410933,-35497.76,-73372.36,4516.7236,-15106.649,-41737.55,-42693.848,-50299.156,-20931.438
1214721.2854109276,-35494.426,-73372.36,4515.422,-15107.097,-41740.97,-42695.395,-50299.316,-20931.723
1214721.2894109224,-35494.06,-73377.36,4511.434,-15107.951,-41747.64,-42696.98,-50297.934,-20934.938
1214721.293410917,-35495.523,-73386.11,4508.3823,-15109.985,-41751.223,-42697.836,-50297.73,-20937.947
1214721.2974109119,-35496.297,-73386.92,4506.6733,-15110.393,-41745.934,-42691.895,-50296.023,-20928.143
1214721.3014109065,-35498.008,-73385.22,4505.819,-15109.904,-41744.344,-42689.09,-50296.43,-20925.945
1214721.305410901,-35498.94,-73388.59,4505.7783,-15109.05,-41747.477,-42691.734,-50298.87,-20933.39
1214721.309410896,-35501.26,-73390.95,4504.9644,-15111.328,-41747.234,-42695.11,-50302.695,-20941.488
1214721.3134108905,-35501.06,-73390.99,4504.5166,-15112.59,-41749.27,-42694.785,-50302.125,-20937.582
1214721.3174108854,-35500.0,-73392.01,4505.7373,-15110.107,-41746.094,-42692.223,-50299.195,-20930.096
1214721.32141088,-35498.7,-73387.53,4508.8706,-15106.975,-41743.938,-42690.31,-50298.3,-20929.443
1214721.3254108746,-35497.926,-73381.92,4508.708,-15107.788,-41742.066,-42693.645,-50303.184,-20937.623
1214721.3294108694,-35499.555,-73385.58,4504.9644,-15111.41,-41742.473,-42699.26,-50305.95,-20934.082
1214721.333410864,-35500.33,-73388.35,4503.9062,-15113.77,-41745.035,-42701.824,-50306.355,-20926.473
1214721.3374108588,-35494.266,-73387.45,4506.429,-15111.572,-41744.875,-42700.44,-50310.06,-20937.947
1214721.3414108534,-35493.816,-73387.78,4507.4873,-15110.718,-41744.71,-42699.547,-50309.98,-20936.117
1214721.345410848,-35492.312,-73385.54,4509.033,-15110.393,-41732.625,-42698.73,-50306.684,-20930.705
1214721.3494108429,-35495.363,-73387.086,4507.6904,-15112.183,-41730.836,-42701.297,-50304.73,-20926.148
1214721.3534108375,-35498.82,-73393.15,4505.371,-15115.561,-41734.906,-42704.633,-50306.48,-20923.828
1214721.357410832,-35496.83,-73394.49,4506.307,-15115.967,-41732.465,-42703.047,-50310.957,-20928.467
1214721.361410827,-35490.03,-73394.125,4508.2197,-15114.909,-41734.863,-42705.08,-50312.703,-20933.473
1214721.3654108215,-35494.508,-73391.4,4505.6562,-15114.096,-41730.836,-42710.574,-50313.4,-20931.234
1214721.3694108163,-35494.832,-73389.53,4503.6216,-15114.624,-41725.953,-42714.152,-50314.984,-20930.623
1214721.373410811,-35490.36,-73382.734,4506.4697,-15114.99,-41721.965,-42717.367,-50318.402,-20936.97
1214721.3774108056,-35487.633,-73377.52,4506.7954,-15113.7295,-41719.85,-42713.137,-50316.406,-20927.693
1214721.3814108004,-35490.805,-73379.48,4504.598,-15114.746,-41722.453,-42713.137,-50313.07,-20911.5
1214721.385410795,-35493.816,-73381.8,4501.465,-15115.723,-41722.496,-42717.855,-50317.14,-20926.758
1214721.3894107898,-35496.746,-73385.09,4499.3896,-15118.693,-41723.105,-42724.043,-50321.453,-20938.436
1214721.3934107844,-35499.227,-73387.125,4496.704,-15119.67,-41723.105,-42725.465,-50319.867,-20931.967
1214721.397410779,-35498.496,-73387.82,4497.7217,-15119.385,-41721.355,-42721.316,-50319.46,-20934.082
1214721.4014107739,-35500.734,-73389.81,4498.2505,-15120.483,-41720.785,-42720.297,-50320.598,-20939.78
1214721.4054107685,-35500.406,-73385.46,4499.9595,-15120.6875,-41717.773,-42724.57,-50323.445,-20942.912
1214721.4094107633,-35499.96,-73384.97,4502.075,-15119.304,-41717.203,-42729.94,-50322.633,-20939.088
1214721.413410758,-35501.832,-73388.96,4500.57,-15120.565,-41723.39,-42734.01,-50322.348,-20934.49
1214721.4174107525,-35504.64,-73390.95,4499.675,-15120.28,-41724.69,-42729.25,-50321.98,-20927.37
1214721.4214107473,-35501.87,-73387.695,4502.9297,-15118.042,-41722.37,-42722.13,-50317.344,-20914.55
1214721.425410742,-35499.35,-73386.27,4503.784,-15118.042,-41720.01,-42726.277,-50320.438,-20923.26
1214721.4294107365,-35502.2,-73386.07,4502.8076,-15120.769,-41714.926,-42729.332,-50322.55,-20931.844
1214721.4334107314,-35505.008,-73385.26,4502.116,-15121.542,-41710.164,-42727.742,-50320.68,-20933.676
1214721.437410726,-35505.453,-73383.06,4506.1035,-15120.932,-41711.1,-42723.348,-50318.24,-20927.166
1214721.4414107208,-35509.32,-73382.85,4506.185,-15121.867,-41713.707,-42723.758,-50318.89,-20925.863
1214721.4454107154,-35513.145,-73384.36,4506.877,-15120.077,-41718.75,-42728.76,-50322.227,-20930.705
1214721.44941071,-35516.03,-73388.71,4506.592,-15121.826,-41726.035,-42736.043,-50324.832,-20935.1
1214721.4534107049,-35518.68,-73389.53,4502.889,-15123.861,-41718.547,-42733.6,-50321.86,-20926.555
1214721.4574106995,-35517.496,-73383.22,4502.4414,-15122.355,-41715.008,-42728.152,-50319.99,-20910.115
1214721.4614106943,-35515.91,-73383.83,4504.4355,-15119.873,-41715.535,-42725.508,-50320.312,-20906.658
1214721.465410689,-35519.004,-73388.51,4504.7607,-15121.054,-41717.652,-42729.695,-50320.395,-20912.436
1214721.4694106835,-35518.883,-73386.31,4505.0864,-15121.216,-41716.023,-42731.49,-50320.11,-20926.352
1214721.4734106783,-35518.883,-73383.67,4504.883,-15121.094,-41715.25,-42729.98,-50315.188,-20926.107
1214721.477410673,-35520.387,-73382.41,4507.0396,-15119.182,-41713.016,-42725.586,-50311.32,-20916.219
1214721.4814106678,-35518.96,-73385.26,4508.016,-15118.652,-41714.52,-42726.402,-50313.926,-20919.678
1214721.4854106624,-35520.59,-73387.53,4506.999,-15118.693,-41721.56,-42732.3,-50317.305,-20923.748
1214721.489410657,-35524.863,-73390.18,4505.0864,-15119.711,-41719.402,-42734.375,-50318.645,-20926.19
1214721.4934106518,-35524.984,-73391.64,4504.6387,-15119.345,-41713.258,-42733.887,-50319.01,-20922.322
1214721.4974106464,-35524.332,-73391.08,4510.62,-15117.758,-41713.95,-42727.5,-50317.098,-20912.965
1214721.501410641,-35522.137,-73388.96,4512.4106,-15116.537,-41715.457,-42724.938,-50318.645,-20915.812
1214721.5054106358,-35521.16,-73388.266,4511.6377,-15115.764,-41711.266,-42724.043,-50318.32,-20920.37
1214721.5094106304,-35523.234,-73390.875,4509.033,-15116.903,-41714.152,-42727.906,-50318.074,-20920.695
1214721.5134106253,-35523.277,-73394.164,4508.1787,-15118.449,-41718.793,-42731.082,-50318.156,-20917.562
1214721.5174106199,-35521.484,-73394.78,4510.742,-15116.577,-41716.188,-42726.766,-50318.562,-20917.521
1214721.5214106145,-35523.887,-73398.56,4511.19,-15116.618,-41717.57,-42723.348,-50317.586,-20917.277
1214721.5254106093,-35527.63,-73402.8,4508.138,-15118.979,-41720.297,-42725.18,-50317.953,-20919.23
1214721.529410604,-35530.273,-73404.79,4508.1787,-15119.873,-41722.414,-42728.477,-50314.984,-20911.012
1214721.5334105988,-35529.95,-73403.57,4506.958,-15121.094,-41720.867,-42729.332,-50309.57,-20904.541
1214721.5374105934,-35530.316,-73403.0,4507.6094,-15121.216,-41720.46,-42726.402,-50308.594,-20908.65
1214721.541410588,-35534.223,-73403.52,4508.8706,-15119.792,-41721.844,-42721.113,-50307.984,-20908.285
1214721.5454105828,-35535.973,-73404.83,4509.5215,-15119.67,-41715.375,-42720.582,-50305.258,-20894.084
1214721.5494105774,-35533.816,-73402.59,4511.963,-15118.286,-41702.35,-42719.81,-50301.473,-20894.654
1214721.5534105722,-35535.562,-73399.945,4510.9053,-15117.88,-41708.742,-42720.582,-50303.223,-20906.535
1214721.5574105668,-35536.99,-73397.14,4509.1147,-15117.636,-41712.605,-42718.223,-50302.98,-20893.434
1214721.5614105614,-35538.7,-73398.6,4510.295,-15116.089,-41714.52,-42718.14,-50303.1,-20888.55
1214721.5654105563,-35539.836,-73405.4,4508.016,-15116.13,-41721.926,-42723.023,-50304.04,-20881.715
1214721.5694105509,-35538.25,-73403.52,4508.2603,-15115.479,-41722.7,-42723.023,-50305.664,-20885.133
1214721.5734105455,-35539.188,-73402.305,4508.2197,-15114.177,-41714.844,-42718.996,-50305.95,-20882.324
1214721.5774105403,-35537.76,-73399.13,4509.6436,-15112.997,-41715.58,-42714.277,-50308.188,-20874.105
1214721.581410535,-35537.152,-73400.02,4509.725,-15112.224,-41714.113,-42715.21,-50312.46,-20873.576
1214721.5854105297,-35539.023,-73405.31,4508.789,-15111.41,-41717.33,-42716.39,-50313.316,-20880.168
1214721.5894105243,-35539.957,-73409.06,4507.894,-15111.776,-41718.223,-42717.816,-50315.594,-20879.15
1214721.593410519,-35545.168,-73413.49,4506.7954,-15113.403,-41721.11,-42722.617,-50316.61,-20872.355
1214721.5974105138,-35543.785,-73411.09,4508.708,-15112.671,-41722.574,-42718.793,-50319.746,-20887.29
1214721.6014105084,-35543.418,-73408.695,4510.132,-15110.718,-41718.996,-42714.766,-50320.355,-20884.36
1214721.6054105032,-35543.945,-73407.19,4510.01,-15110.637,-41720.664,-42715.535,-50319.05,-20875.326
1214721.6094104978,-35542.727,-73407.35,4511.2305,-15109.416,-41716.105,-42714.844,-50316.203,-20868.611
1214721.6134104924,-35540.242,-73404.336,4512.37,-15110.2295,-41717.285,-42715.293,-50315.594,-20867.352
1214721.6174104873,-35540.04,-73399.62,4512.6143,-15109.741,-41716.023,-42713.055,-50316.938,-20868.611
1214721.6214104819,-35543.62,-73400.76,4511.312,-15108.276,-41717.9,-42710.652,-50314.74,-20859.213
1214721.6254104767,-35548.625,-73403.77,4508.0977,-15106.567,-41720.38,-42711.184,-50310.914,-20845.623
1214721.6294104713,-35549.48,-73405.44,4506.5513,-15108.928,-41719.117,-42711.223,-50308.797,-20848.389
1214721.633410466,-35548.137,-73406.91,4507.772,-15111.125,-41719.605,-42711.305,-50307.17,-20849.0
1214721.6374104607,-35550.906,-73410.12,4508.667,-15111.044,-41719.93,-42708.375,-50311.16,-20864.055
1214721.6414104553,-35550.58,-73412.88,4506.5513,-15109.985,-41719.156,-42704.793,-50308.39,-20852.174
1214721.64541045,-35550.906,-73411.83,4505.8594,-15111.572,-41718.996,-42707.684,-50308.027,-20849.568
1214721.6494104448,-35557.66,-73415.61,4506.999,-15111.9795,-41724.773,-42712.973,-50306.48,-20845.906
1214721.6534104394,-35558.758,-73415.29,4508.2603,-15111.125,-41726.523,-42711.957,-50306.152,-20849.895
1214721.6574104342,-35558.92,-73413.86,4507.406,-15110.107,-41723.594,-42705.77,-50307.332,-20846.314
1214721.6614104288,-35556.926,-73412.766,4506.185,-15108.969,-41723.062,-42702.92,-50308.676,-20843.547
1214721.6654104234,-35555.582,-73410.93,4504.4355,-15107.341,-41722.37,-42704.633,-50307.21,-20838.135
1214721.6694104183,-35557.09,-73413.58,4503.1333,-15108.195,-41722.086,-42709.516,-50311.523,-20845.297
1214721.6734104129,-35560.387,-73416.586,4503.215,-15110.515,-41725.098,-42710.207,-50315.105,-20851.197
1214721.6774104077,-35560.832,-73418.74,4506.3887,-15110.556,-41723.797,-42705.445,-50313.19,-20843.629
1214721.6814104023,-35558.51,-73416.266,4508.3823,-15109.823,-41722.453,-42703.33,-50310.26,-20837.85
1214721.685410397,-35558.39,-73413.414,4507.2837,-15108.114,-41726.523,-42705.406,-50312.543,-20847.615
1214721.6894103917,-35560.387,-73411.664,4507.5684,-15107.992,-41726.645,-42706.953,-50313.6,-20851.562
1214721.6934103863,-35564.25,-73410.81,4506.6733,-15108.439,-41719.32,-42703.086,-50311.16,-20847.371
1214721.6974103812,-35565.96,-73411.46,4506.836,-15108.073,-41716.96,-42696.21,-50307.293,-20835.572
1214721.7014103758,-35562.95,-73412.36,4507.6904,-15105.347,-41716.023,-42693.035,-50301.598,-20813.436
1214721.7054103704,-35564.78,-73417.24,4507.365,-15105.673,-41717.938,-42698.12,-50307.05,-20840.047
1214721.7094103652,-35567.508,-73420.58,4505.9004,-15107.992,-41722.78,-42703.33,-50312.703,-20856.975
1214721.7134103598,-35562.46,-73415.164,4505.5747,-15107.91,-41729.086,-42701.418,-50309.938,-20843.14
1214721.7174103544,-35561.566,-73411.625,4508.301,-15105.144,-41717.938,-42694.703,-50306.52,-20833.943
1214721.7214103492,-35561.28,-73413.66,4509.4404,-15102.092,-41722.574,-42694.38,-50308.758,-20843.629
1214721.7254103438,-35558.84,-73412.27,4509.9287,-15100.261,-41723.797,-42696.29,-50310.957,-20849.854
1214721.7294103387,-35558.066,-73409.1,4507.7314,-15100.79,-41716.473,-42696.21,-50311.24,-20845.297
1214721.7334103333,-35559.49,-73408.57,4507.9756,-15102.743,-41714.97,-42698.0,-50312.95,-20849.895
1214721.737410328,-35555.91,-73407.836,4510.946,-15100.993,-41714.887,-42693.523,-50310.305,-20848.268
1214721.7414103227,-35555.055,-73412.56,4511.4746,-15101.156,-41714.64,-42693.44,-50311.523,-20852.703
1214721.7454103173,-35556.113,-73413.375,4512.37,-15099.365,-41711.508,-42696.25,-50313.438,-20847.656
1214721.7494103122,-35559.246,-73415.85,4513.143,-15101.5625,-41719.523,-42697.227,-50311.523,-20844.361
1214721.7534103068,-35560.06,-73416.305,4514.9336,-15102.621,-41721.355,-42692.305,-50303.387,-20830.81
1214721.7574103014,-35558.31,-73415.77,4516.439,-15100.708,-41716.715,-42685.547,-50297.65,-20810.344
1214721.7614102962,-35557.902,-73417.52,4515.422,-15099.854,-41718.832,-42685.793,-50295.656,-20800.252
1214721.7654102908,-35558.758,-73423.51,4514.038,-15100.342,-41723.062,-42691.734,-50299.316,-20819.54
1214721.7694102856,-35555.137,-73421.305,4513.265,-15100.993,-41719.645,-42693.2,-50302.492,-20836.14
1214721.7734102802,-35550.984,-73419.68,4514.5264,-15099.854,-41715.457,-42689.78,-50298.91,-20829.428
1214721.7774102748,-35550.09,-73419.555,4517.578,-15099.447,-41715.535,-42684.004,-50296.1,-20820.965
1214721.7814102697,-35548.992,-73421.39,4518.5547,-15099.365,-41722.496,-42683.15,-50295.004,-20820.598
1214721.7854102643,-35549.156,-73420.086,4516.0728,-15099.731,-41717.164,-42683.27,-50292.766,-20818.074
1214721.7894102589,-35546.227,-73414.67,4518.27,-15098.755,-41711.875,-42684.164,-50291.3,-20817.139
1214721.7934102537,-35543.945,-73415.77,4520.427,-15099.284,-41712.04,-42681.805,-50286.418,-20808.635
1214721.7974102483,-35547.324,-73419.72,4521.118,-15099.325,-41713.22,-42678.184,-50284.953,-20802.41
1214721.8014102431,-35548.79,-73415.77,4522.5425,-15099.609,-41712.32,-42678.508,-50285.605,-20808.96
1214721.8054102378,-35548.543,-73417.69,4521.8506,-15098.959,-41715.375,-42680.504,-50288.453,-20818.238
1214721.8094102324,-35551.516,-73422.08,4521.7285,-15099.04,-41722.617,-42681.723,-50291.344,-20829.021
1214721.8134102272,-35554.688,-73424.56,4521.4033,-15100.017,-41726.32,-42681.926,-50288.94,-20820.15
1214721.8174102218,-35552.613,-73421.67,4522.5425,-15098.837,-41715.66,-42675.62,-50286.703,-20813.273
1214721.8214102166,-35552.086,-73418.87,4522.0947,-15097.453,-41716.066,-42672.895,-50286.01,-20815.186
1214721.8254102112,-35550.78,-73419.64,4521.159,-15099.243,-41718.59,-42676.23,-50287.395,-20813.68
1214721.8294102058,-35555.176,-73424.766,4518.1885,-15099.081,-41720.95,-42678.875,-50286.5,-20798.055
1214721.8334102007,-35561.08,-73434.98,4515.9507,-15101.44,-41720.258,-42680.586,-50286.297,-20797.648
1214721.8374101953,-35559.0,-73435.266,4517.212,-15099.365,-41724.69,-42675.008,-50293.336,-20833.252
1214721.84141019,-35560.14,-73434.0,4514.4043,-15098.877,-41734.215,-42674.113,-50295.29,-20831.219
1214721.8454101847,-35559.125,-73432.7,4514.486,-15098.43,-41733.48,-42675.742,-50295.086,-20831.746
1214721.8494101793,-35559.57,-73433.02,4515.422,-15097.616,-41733.24,-42677.86,-50293.336,-20827.027
1214721.8534101741,-35561.89,-73435.02,4514.9336,-15100.22,-41727.05,-42678.387,-50292.402,-20814.9
1214721.8574101687,-35559.773,-73432.414,4514.8926,-15098.349,-41723.715,-42672.406,-50294.434,-20811.361
1214721.8614101633,-35561.16,-73431.234,4517.009,-15094.89,-41722.535,-42670.332,-50298.87,-20832.846
1214721.8654101582,-35562.137,-73430.79,4514.282,-15095.175,-41723.918,-42673.22,-50300.945,-20838.99
1214721.8694101528,-35562.38,-73427.94,4513.794,-15093.628,-41723.188,-42677.41,-50301.68,-20836.996
1214721.8734101476,-35564.58,-73428.836,4513.9976,-15093.506,-41721.152,-42678.55,-50298.953,-20831.951
1214721.8774101422,-35565.43,-73430.055,4513.794,-15094.36,-41718.59,-42671.918,-50293.38,-20819.662
1214721.8814101368,-35563.883,-73428.63,4513.957,-15094.482,-41722.78,-42671.875,-50292.684,-20814.982
1214721.8854101317,-35567.668,-73433.31,4509.4404,-15093.588,-41732.42,-42675.78,-50294.355,-20815.633
1214721.8894101263,-35570.355,-73439.58,4509.6846,-15096.11,-41738.65,-42677.246,-50294.434,-20819.947
1214721.893410121,-35569.742,-73437.5,4510.8643,-15096.436,-41738.484,-42677.043,-50298.625,-20829.59
1214721.8974101157,-35572.145,-73434.53,4511.9224,-15094.442,-41735.477,-42672.49,-50299.03,-20825.684
1214721.9014101103,-35572.184,-73431.805,4511.841,-15093.14,-41731.977,-42671.754,-50294.56,-20820.271
1214721.9054101051,-35573.49,-73429.24,4512.8584,-15091.105,-41730.184,-42673.22,-50294.598,-20818.523
1214721.9094100997,-35568.89,-73430.055,4511.5156,-15090.292,-41724.285,-42675.254,-50295.98,-20820.354
1214721.9134100946,-35569.5,-73431.44,4510.417,-15091.879,-41722.25,-42674.6,-50292.93,-20814.088
1214721.9174100892,-35569.95,-73431.56,4511.4746,-15090.82,-41717.734,-42671.875,-50290.04,-20801.96
1214721.9214100838,-35564.13,-73434.53,4513.1025,-15089.152,-41708.66,-42672.406,-50291.098,-20806.764
1214721.9254100786,-35561.2,-73436.81,4514.8926,-15090.495,-41710.98,-42674.074,-50288.617,-20803.06
1214721.9294100732,-35555.3,-73430.625,4517.904,-15090.902,-41713.42,-42673.098,-50285.32,-20802.775
1214721.9334100678,-35552.125,-73428.59,4517.8633,-15093.547,-41719.363,-42670.82,-50278.28,-20790.283
1214721.9374100626,-35554.04,-73425.945,4517.2935,-15093.872,-41718.1,-42665.57,-50270.59,-20770.875
1214721.9414100572,-35552.53,-73420.21,4520.3857,-15091.513,-41713.34,-42662.395,-50269.29,-20777.67
1214721.945410052,-35547.324,-73417.12,4523.8447,-15091.391,-41709.96,-42666.383,-50273.03,-20790.162
1214721.9494100467,-35552.043,-73422.164,4522.624,-15095.907,-41710.45,-42673.18,-50272.098,-20776.896
1214721.9534100413,-35557.58,-73427.49,4520.2637,-15099.121,-41708.742,-42677.004,-50272.586,-20772.176
1214721.9574100361,-35559.33,-73426.76,4520.996,-15098.715,-41704.266,-42673.383,-50279.785,-20801.758
1214721.9614100307,-35560.387,-73427.49,4520.345,-15097.29,-41698.977,-42672.69,-50283.734,-20805.42
1214721.9654100256,-35561.402,-73430.016,4518.026,-15097.9,-41699.3,-42677.656,-50283.613,-20798.219
1214721.9694100202,-35561.28,-73427.25,4517.334,-15098.349,-41699.26,-42684.652,-50289.96,-20817.098
1214721.9734100148,-35565.43,-73426.59,4515.9507,-15098.471,-41692.465,-42688.477,-50291.87,-20808.473
1214721.9774100096,-35569.824,-73426.96,4512.37,-15097.128,-41692.668,-42685.387,-50291.586,-20802.45
1214721.9814100042,-35568.645,-73424.44,4511.068,-15095.785,-41689.984,-42685.26,-50296.145,-20817.83
1214721.985409999,-35569.176,-73420.695,4510.946,-15094.32,-41687.625,-42691.734,-50299.156,-20820.965
1214721.9894099936,-35571.777,-73423.305,4510.3354,-15094.238,-41685.14,-42699.42,-50299.645,-20814.291
1214721.9934099882,-35573.082,-73426.59,4509.9287,-15095.175,-41688.273,-42701.17,-50301.555,-20814.047
1214721.997409983,-35570.8,-73426.8,4511.19,-15095.785,-41690.836,-42697.145,-50303.184,-20817.953
1214722.0014099777,-35570.64,-73424.93,4511.678,-15095.988,-41688.395,-42696.86,-50304.65,-20818.645
1214722.0054099723,-35573.57,-73426.35,4511.6377,-15097.941,-41692.223,-42704.348,-50308.27,-20827.107
1214722.009409967,-35577.027,-73426.555,4510.62,-15097.25,-41689.008,-42707.316,-50309.125,-20834.637
1214722.0134099617,-35579.996,-73428.836,4508.3823,-15098.959,-41685.71,-42705.934,-50306.887,-20832.398
1214722.0174099565,-35581.707,-73425.414,4507.6904,-15098.308,-41680.094,-42700.48,-50305.46,-20831.055
1214722.0214099512,-35586.062,-73425.21,4506.1035,-15097.941,-41682.332,-42699.832,-50305.625,-20831.34
1214722.0254099458,-35586.387,-73426.59,4506.5107,-15099.731,-41684.855,-42702.72,-50305.867,-20832.234
1214722.0294099406,-35583.78,-73426.07,4507.772,-15099.569,-41679.85,-42704.43,-50304.445,-20829.713
1214722.0334099352,-35585.695,-73428.836,4508.545,-15101.889,-41671.957,-42705.527,-50303.836,-20830.525
1214722.03740993,-35585.41,-73429.08,4509.481,-15100.708,-41671.47,-42701.375,-50304.85,-20822.836
1214722.0414099246,-35587.484,-73427.29,4509.725,-15102.377,-41675.863,-42700.277,-50303.348,-20814.576
1214722.0454099192,-35591.023,-73425.01,4508.5044,-15103.516,-41676.11,-42702.312,-50304.04,-20825.154
1214722.049409914,-35590.17,-73427.77,4509.1553,-15105.754,-41687.703,-42707.723,-50307.17,-20841.594
1214722.0534099087,-35591.188,-73430.055,4508.1787,-15105.957,-41688.723,-42707.156,-50305.34,-20833.09
1214722.0574099035,-35590.09,-73429.445,4508.0977,-15105.347,-41684.0,-42701.742,-50301.96,-20819.418
1214722.061409898,-35589.844,-73431.16,4509.1147,-15104.614,-41687.543,-42700.93,-50302.98,-20827.393
1214722.0654098927,-35591.434,-73430.75,4509.3994,-15104.818,-41690.715,-42701.863,-50304.402,-20835.775
1214722.0694098875,-35591.676,-73430.914,4509.8066,-15105.021,-41689.74,-42701.336,-50303.184,-20825.562
1214722.0734098821,-35592.285,-73425.336,4512.5327,-15105.429,-41689.94,-42702.07,-50304.527,-20829.346
1214722.0774098767,-35595.297,-73422.85,4512.207,-15105.185,-41689.902,-42701.906,-50305.95,-20819.459
1214722.0814098716,-35598.31,-73430.26,4510.742,-15105.632,-41689.7,-42705.895,-50312.258,-20838.705
1214722.0854098662,-35598.55,-73432.945,4509.8066,-15106.323,-41694.176,-42709.15,-50314.047,-20845.418
1214722.089409861,-35597.293,-73423.55,4509.237,-15106.039,-41692.18,-42710.86,-50310.875,-20830.322
1214722.0934098556,-35596.395,-73416.95,4510.2134,-15102.377,-41688.19,-42710.613,-50311.934,-20837.322
1214722.0974098502,-35592.0,-73413.695,4511.556,-15099.447,-41686.2,-42704.633,-50310.1,-20830.525
1214722.101409845,-35592.082,-73412.31,4511.1084,-15099.895,-41684.043,-42704.633,-50308.105,-20816.65
1214722.1054098397,-35593.305,-73415.164,4512.655,-15098.837,-41683.31,-42708.62,-50308.105,-20822.795
1214722.1094098345,-35591.92,-73413.695,4515.3403,-15100.383,-41682.902,-42710.98,-50312.176,-20838.582
1214722.113409829,-35592.816,-73414.59,4514.5674,-15102.621,-41686.65,-42710.086,-50315.31,-20839.438
1214722.1174098237,-35592.285,-73413.62,4516.0728,-15101.318,-41687.625,-42704.633,-50310.14,-20819.865
1214722.1214098185,-35590.457,-73415.65,4518.799,-15099.243,-41686.484,-42705.363,-50305.137,-20802.49
1214722.1254098131,-35591.105,-73415.37,4522.827,-15097.494,-41685.953,-42708.906,-50309.9,-20827.068
1214722.129409808,-35589.56,-73415.695,4521.932,-15098.593,-41684.33,-42712.363,-50314.375,-20845.459
1214722.1334098026,-35588.83,-73412.88,4521.7285,-15098.471,-41685.465,-42714.4,-50311.934,-20828.084
1214722.1374097972,-35585.695,-73409.71,4525.472,-15094.564,-41685.184,-42709.066,-50312.785,-20826.824
1214722.141409792,-35587.934,-73414.15,4524.7803,-15093.262,-41684.246,-42704.836,-50313.273,-20830.445
1214722.1454097866,-35592.69,-73415.98,4520.793,-15094.727,-41683.797,-42704.145,-50309.082,-20819.824
1214722.1494097812,-35592.285,-73415.41,4519.2466,-15093.222,-41686.85,-42703.816,-50304.445,-20815.47
1214722.153409776,-35596.395,-73417.28,4518.5957,-15096.558,-41689.94,-42703.9,-50304.527,-20827.678
1214722.1574097706,-35598.188,-73418.46,4522.4204,-15096.802,-41692.87,-42703.004,-50303.305,-20824.666
1214722.1614097655,-35596.68,-73417.52,4523.3564,-15094.564,-41690.066,-42699.18,-50302.125,-20818.807
1214722.16540976,-35594.2,-73419.195,4524.0073,-15095.012,-41691.367,-42700.97,-50306.723,-20832.275
1214722.1694097547,-35590.17,-73416.42,4524.17,-15095.093,-41688.883,-42699.586,-50307.58,-20835.734
1214722.1734097495,-35593.547,-73417.24,4524.984,-15095.337,-41687.582,-42697.633,-50303.387,-20829.51
1214722.1774097441,-35595.297,-73418.26,4525.798,-15095.297,-41688.68,-42693.81,-50298.625,-20822.43
1214722.181409739,-35592.41,-73414.76,4525.798,-15093.466,-41692.75,-42692.832,-50298.34,-20823.242
1214722.1854097336,-35594.77,-73418.7,4523.4375,-15095.093,-41698.082,-42698.773,-50301.11,-20830.73
1214722.1894097282,-35598.227,-73419.195,4522.258,-15095.581,-41698.49,-42701.785,-50303.223,-20834.717
1214722.193409723,-35595.418,-73419.555,4521.159,-15097.412,-41695.312,-42699.586,-50301.19,-20827.068
1214722.1974097176,-35594.566,-73417.65,4519.8975,-15096.802,-41686.363,-42693.074,-50298.465,-20823.324
1214722.2014097124,-35595.215,-73412.07,4519.979,-15092.651,-41684.207,-42689.414,-50298.3,-20823.771
1214722.205409707,-35595.46,-73412.84,4523.5596,-15090.048,-41686.65,-42692.547,-50299.645,-20824.83
1214722.2094097016,-35593.996,-73412.44,4525.879,-15089.396,-41688.234,-42695.883,-50300.54,-20831.787
1214722.2134096965,-35597.902,-73421.06,4523.4785,-15092.489,-41696.82,-42697.754,-50298.543,-20824.463
1214722.217409691,-35599.246,-73421.39,4523.6816,-15094.076,-41695.68,-42692.098,-50301.395,-20827.352
1214722.2214096857,-35598.188,-73417.445,4524.9434,-15093.547,-41691.12,-42690.43,-50305.95,-20832.684
1214722.2254096805,-35595.46,-73416.38,4523.967,-15092.407,-41692.344,-42694.258,-50308.594,-20837.281
1214722.229409675,-35597.74,-73420.49,4522.054,-15092.733,-41694.297,-42699.465,-50310.26,-20841.756
1214722.23340967,-35597.902,-73419.35,4523.2344,-15092.489,-41695.152,-42697.918,-50309.816,-20834.555
1214722.2374096646,-35598.105,-73420.58,4522.949,-15091.024,-41688.477,-42693.484,-50309.773,-20823.324
1214722.2414096592,-35596.316,-73418.17,4524.577,-15088.501,-41679.73,-42693.44,-50316.652,-20848.756
1214722.245409654,-35597.496,-73417.52,4523.031,-15089.519,-41682.617,-42694.62,-50314.008,-20840.496
1214722.2494096486,-35599.406,-73416.625,4521.7695,-15090.942,-41690.676,-42694.824,-50309.45,-20834.229
1214722.2534096434,-35598.836,-73413.945,4521.6064,-15091.513,-41688.805,-42693.117,-50311.16,-20842.773
1214722.257409638,-35595.38,-73409.586,4524.048,-15089.152,-41681.766,-42686.28,-50309.043,-20840.047
1214722.2614096326,-35594.523,-73409.266,4524.9023,-15086.833,-41682.78,-42685.71,-50309.734,-20836.346
1214722.2654096275,-35593.63,-73410.81,4523.3564,-15086.996,-41686.44,-42692.586,-50309.695,-20834.107
1214722.269409622,-35593.14,-73415.08,4525.798,-15088.583,-41687.38,-42696.7,-50312.746,-20838.746
1214722.273409617,-35597.008,-73421.51,4523.2344,-15090.292,-41687.83,-42700.727,-50313.76,-20835.408
1214722.2774096115,-35600.668,-73417.69,4523.8447,-15087.402,-41683.066,-42693.77,-50307.78,-20821.574
1214722.281409606,-35601.766,-73414.96,4525.5127,-15086.833,-41681.887,-42690.51,-50305.016,-20817.139
1214722.285409601,-35601.156,-73417.03,4523.153,-15087.321,-41674.562,-42690.88,-50305.098,-20824.91
1214722.2894095955,-35601.074,-73414.76,4522.0947,-15086.182,-41682.332,-42691.895,-50304.402,-20829.998
1214722.2934095901,-35595.746,-73413.05,4522.217,-15084.433,-41679.363,-42691.895,-50303.71,-20837.2
1214722.297409585,-35592.53,-73413.74,4523.0713,-15082.764,-41678.508,-42690.39,-50304.934,-20834.393
1214722.3014095796,-35599.203,-73417.03,4521.322,-15083.74,-41683.15,-42689.902,-50308.594,-20841.756
1214722.3054095744,-35602.254,-73426.516,4520.9556,-15085.124,-41688.723,-42691.816,-50311.035,-20850.057
1214722.309409569,-35603.68,-73430.18,4520.9556,-15086.02,-41689.293,-42693.645,-50311.934,-20851.562
1214722.3134095636,-35603.72,-73429.37,4521.322,-15087.036,-41693.44,-42694.54,-50311.77,-20842.773
1214722.3174095585,-35600.547,-73424.234,4523.6006,-15084.188,-41687.5,-42688.355,-50311.77,-20839.926
1214722.321409553,-35601.848,-73424.93,4525.798,-15081.584,-41682.293,-42684.773,-50312.01,-20842.938
1214722.325409548,-35603.434,-73422.77,4524.7803,-15081.218,-41684.977,-42689.7,-50318.32,-20869.426
1214722.3294095425,-35601.035,-73419.84,4523.519,-15081.625,-41685.426,-42693.36,-50321.492,-20872.885
1214722.333409537,-35599.082,-73420.58,4523.926,-15081.055,-41682.375,-42694.582,-50319.094,-20861.166
1214722.337409532,-35595.95,-73415.81,4528.2393,-15078.695,-41678.1,-42689.047,-50315.594,-20854.777
1214722.3414095265,-35594.81,-73414.67,4530.5586,-15075.928,-41681.723,-42688.438,-50314.58,-20852.824
1214722.3454095214,-35598.31,-73417.195,4530.3955,-15075.847,-41685.06,-42691.734,-50316.33,-20863.934
1214722.349409516,-35595.99,-73414.875,4530.111,-15076.172,-41683.797,-42691.734,-50316.285,-20860.637
1214722.3534095106,-35593.426,-73414.02,4532.878,-15076.091,-41684.613,-42690.105,-50312.01,-20846.191
1214722.3574095054,-35595.46,-73417.89,4534.302,-15077.963,-41688.438,-42689.293,-50313.805,-20853.191
1214722.3614095,-35594.93,-73420.375,4535.726,-15077.963,-41686.89,-42686.523,-50315.43,-20866.13
1214722.3654094946,-35593.18,-73423.625,4535.2783,-15078.207,-41687.785,-42685.67,-50313.68,-20862.469
1214722.3694094894,-35593.26,-73429.85,4536.662,-15078.085,-41687.582,-42687.258,-50310.344,-20857.83
1214722.373409484,-35593.832,-73432.45,4534.0576,-15081.828,-41676.92,-42684.734,-50306.48,-20846.559
1214722.3774094789,-35596.355,-73429.73,4531.9014,-15083.13,-41673.625,-42675.457,-50304.61,-20836.467
1214722.3814094735,-35594.28,-73424.84,4528.646,-15080.16,-41680.95,-42672.895,-50306.438,-20844.482
1214722.385409468,-35592.9,-73425.54,4526.6113,-15082.275,-41685.996,-42678.914,-50308.066,-20851.889
1214722.389409463,-35591.758,-73427.62,4526.693,-15084.88,-41689.09,-42681.562,-50307.457,-20853.719
1214722.3934094575,-35588.95,-73423.83,4527.6694,-15083.456,-41693.36,-42679.973,-50306.152,-20845.785
1214722.3974094524,-35588.016,-73423.75,4529.338,-15081.503,-41697.633,-42675.215,-50303.55,-20835.896
1214722.401409447,-35588.83,-73428.02,4532.43,-15079.59,-41694.95,-42676.68,-50308.516,-20855.184
1214722.4054094416,-35590.17,-73427.94,4535.034,-15078.207,-41696.25,-42678.914,-50309.41,-20859.254
1214722.4094094364,-35590.21,-73428.19,4536.377,-15079.834,-41691.855,-42678.062,-50303.59,-20839.682
1214722.413409431,-35586.996,-73429.73,4539.022,-15080.16,-41690.758,-42675.008,-50301.19,-20833.049
1214722.4174094258,-35584.312,-73427.37,4538.9,-15077.759,-41689.13,-42670.613,-50305.867,-20843.914
1214722.4214094204,-35582.684,-73424.56,4534.6274,-15076.376,-41689.7,-42670.535,-50309.246,-20845.135
1214722.425409415,-35584.027,-73422.33,4531.616,-15078.003,-41691.812,-42675.418,-50310.75,-20852.621
1214722.4294094099,-35586.1,-73424.52,4530.3955,-15079.712,-41694.133,-42681.234,-50311.89,-20862.305
1214722.4334094045,-35590.74,-73428.914,4529.419,-15082.561,-41691.082,-42680.3,-50308.31,-20859.457
1214722.437409399,-35598.105,-73432.78,4528.3203,-15081.584,-41684.734,-42671.754,-50302.53,-20838.543
1214722.441409394,-35597.453,-73431.766,4527.954,-15079.712,-41688.805,-42668.418,-50305.867,-20846.436
1214722.4454093885,-35594.156,-73426.27,4531.413,-15077.189,-41690.188,-42670.37,-50308.555,-20866.252
1214722.4494093833,-35595.664,-73426.59,4532.308,-15077.23,-41694.215,-42673.83,-50304.73,-20856.73
1214722.453409378,-35596.316,-73432.45,4530.5586,-15079.956,-41695.844,-42674.727,-50302.37,-20848.064
1214722.4574093726,-35595.418,-73433.516,4530.355,-15076.416,-41693.562,-42669.312,-50300.863,-20838.258
1214722.4614093674,-35596.477,-73431.12,4530.0703,-15072.876,-41692.383,-42667.035,-50303.223,-20845.053
1214722.465409362,-35598.715,-73430.83,4531.82,-15073.202,-41690.715,-42669.027,-50307.375,-20858.318
1214722.4694093568,-35601.97,-73436.08,4530.884,-15073.894,-41690.555,-42669.72,-50306.355,-20855.672
1214722.4734093514,-35602.99,-73441.695,4527.588,-15072.917,-41691.977,-42670.74,-50302.777,-20845.582
1214722.477409346,-35601.562,-73443.766,4525.798,-15074.138,-41693.484,-42669.92,-50301.72,-20839.6
1214722.4814093409,-35605.348,-73445.44,4527.71,-15072.104,-41692.18,-42668.094,-50303.55,-20839.723
1214722.4854093355,-35606.363,-73447.06,4526.286,-15071.086,-41687.055,-42669.07,-50305.707,-20845.215
1214722.4894093303,-35602.742,-73450.08,4527.832,-15071.818,-41689.13,-42669.516,-50302.492,-20841.594
1214722.493409325,-35604.29,-73450.195,4528.076,-15073.039,-41691.855,-42667.684,-50297.566,-20829.957
1214722.4974093195,-35603.965,-73442.34,4528.524,-15072.51,-41692.547,-42659.75,-50295.656,-20826.213
1214722.5014093143,-35602.664,-73441.0,4529.704,-15070.883,-41691.49,-42658.12,-50295.74,-20821.168
1214722.505409309,-35602.05,-73439.984,4529.989,-15068.889,-41694.01,-42661.906,-50295.613,-20822.836
1214722.5094093035,-35606.363,-73441.41,4528.117,-15069.052,-41694.418,-42665.57,-50295.98,-20832.398
1214722.5134092984,-35611.086,-73446.62,4527.507,-15070.761,-41696.453,-42669.11,-50297.69,-20842.693
1214722.517409293,-35598.145,-73434.9,4533.8135,-15067.18,-41695.11,-42666.26,-50299.24,-20841.268
1214722.5214092878,-35595.38,-73431.27,4537.069,-15065.268,-41691.12,-42663.98,-50298.383,-20825.562
1214722.5254092824,-35600.3,-73435.18,4533.203,-15064.779,-41686.93,-42662.11,-50301.15,-20843.303
1214722.529409277,-35599.324,-73436.56,4531.5757,-15064.209,-41686.85,-42663.168,-50301.68,-20846.191
1214722.5334092719,-35597.78,-73441.61,4531.82,-15064.738,-41689.047,-42663.29,-50301.8,-20842.326
1214722.5374092665,-35596.883,-73443.69,4534.3833,-15063.273,-41687.99,-42660.727,-50302.816,-20841.797
1214722.5414092613,-35597.82,-73447.516,4535.97,-15065.43,-41690.348,-42663.82,-50301.92,-20836.67
1214722.545409256,-35597.37,-73448.41,4535.034,-15066.691,-41691.855,-42664.676,-50299.36,-20826.986
1214722.5494092505,-35600.63,-73448.0,4532.0234,-15068.319,-41692.953,-42664.43,-50297.285,-20824.951
1214722.5534092453,-35603.11,-73449.1,4530.7617,-15071.655,-41687.906,-42665.082,-50296.348,-20830.363
1214722.55740924,-35605.918,-73446.62,4530.477,-15070.679,-41682.09,-42661.906,-50295.047,-20831.219
1214722.5614092348,-35603.64,-73441.37,4530.7617,-15068.4,-41675.984,-42660.688,-50296.348,-20832.764
1214722.5654092294,-35599.164,-73436.65,4534.1797,-15066.447,-41673.098,-42664.836,-50295.125,-20830.77
1214722.569409224,-35597.82,-73437.18,4533.2847,-15067.424,-41670.492,-42670.574,-50296.47,-20834.88
1214722.5734092188,-35598.39,-73439.21,4531.9014,-15069.296,-41671.227,-42673.504,-50295.82,-20829.305
1214722.5774092134,-35599.285,-73442.305,4531.7793,-15070.557,-41672.0,-42671.754,-50294.844,-20816.041
1214722.581409208,-35600.14,-73445.07,4532.308,-15069.092,-41670.816,-42674.24,-50297.04,-20817.18
1214722.5854092028,-35600.18,-73446.74,4532.4707,-15069.011,-41668.99,-42680.664,-50302.168,-20824.545
1214722.5894091974,-35596.76,-73442.586,4530.925,-15070.231,-41666.465,-42682.617,-50301.96,-20823.854
1214722.5934091923,-35595.34,-73442.914,4530.6807,-15072.185,-41663.656,-42686.035,-50305.46,-20840.82
1214722.597409187,-35596.477,-73446.62,4533.244,-15072.185,-41655.438,-42683.473,-50304.77,-20832.234
1214722.6014091815,-35594.727,-73443.04,4535.034,-15069.621,-41652.26,-42681.152,-50302.41,-20824.219
1214722.6054091763,-35591.88,-73441.2,4535.238,-15069.255,-41653.28,-42685.67,-50302.004,-20819.703
1214722.609409171,-35591.105,-73448.445,4534.953,-15069.662,-41647.38,-42687.38,-50301.473,-20818.727
1214722.6134091658,-35588.137,-73444.17,4536.255,-15070.679,-41649.414,-42689.617,-50300.863,-20814.535
1214722.6174091604,-35587.08,-73440.39,4536.865,-15070.557,-41646.65,-42686.727,-50298.137,-20797.242
1214722.621409155,-35587.973,-73442.875,4535.5635,-15071.696,-41651.043,-42686.65,-50299.316,-20806.56
1214722.6254091498,-35590.984,-73440.516,4537.069,-15070.476,-41655.07,-42690.715,-50305.38,-20832.56
1214722.6294091444,-35591.92,-73440.19,4536.0107,-15073.568,-41656.656,-42694.05,-50304.402,-20829.916
1214722.6334091392,-35587.117,-73438.56,4536.052,-15074.219,-41665.164,-42693.77,-50302.816,-20821.818
1214722.6374091338,-35589.6,-73439.945,4534.6274,-15074.179,-41677.492,-42685.914,-50300.58,-20817.342
1214722.6414091284,-35591.27,-73440.23,4534.424,-15071.899,-41665.812,-42684.043,-50301.23,-20819.133
1214722.6454091233,-35588.625,-73437.83,4534.139,-15072.0625,-41658.895,-42691.33,-50301.72,-20820.557
1214722.6494091179,-35587.242,-73435.55,4532.6743,-15073.894,-41657.188,-42695.76,-50297.69,-20810.018
1214722.6534091125,-35591.105,-73436.08,4531.9824,-15073.039,-41654.215,-42698.242,-50295.004,-20798.34
1214722.6574091073,-35591.84,-73435.305,4534.7495,-15072.429,-41640.83,-42693.848,-50295.656,-20805.055
1214722.661409102,-35590.66,-73435.23,4534.546,-15071.574,-41629.8,-42691.734,-50301.11,-20814.656
1214722.6654090967,-35589.6,-73436.0,4534.546,-15072.266,-41636.8,-42693.77,-50305.42,-20813.396
1214722.6694090914,-35588.46,-73432.78,4533.8545,-15073.527,-41644.86,-42697.227,-50307.496,-20803.387
1214722.673409086,-35588.137,-73429.24,4535.7666,-15071.045,-41637.535,-42697.633,-50310.305,-20812.703
1214722.6774090808,-35588.258,-73424.73,4538.33,-15068.441,-41640.22,-42693.973,-50314.902,-20834.229
1214722.6814090754,-35591.39,-73424.36,4539.6323,-15069.255,-41647.176,-42693.117,-50316.246,-20831.584
1214722.6854090702,-35590.047,-73429.32,4540.4463,-15067.953,-41652.67,-42698.242,-50313.76,-20826.58
1214722.6894090648,-35590.7,-73432.09,4540.039,-15071.452,-41660.44,-42705.363,-50313.56,-20826.295
1214722.6934090594,-35595.01,-73432.09,4537.3535,-15071.94,-41658.285,-42702.72,-50311.035,-20814.9
1214722.6974090543,-35596.76,-73428.02,4538.086,-15069.214,-41650.23,-42696.332,-50308.516,-20800.863
1214722.7014090489,-35596.723,-73426.11,4539.388,-15066.366,-41647.992,-42697.31,-50315.594,-20826.986
1214722.7054090437,-35598.594,-73424.12,4540.202,-15064.047,-41646.28,-42698.773,-50316.69,-20830.16
1214722.7094090383,-35599.57,-73426.92,4538.005,-15066.732,-41647.098,-42705.527,-50316.203,-20826.01
1214722.713409033,-35604.047,-73431.766,4536.0923,-15068.808,-41653.81,-42706.137,-50313.6,-20823.08
1214722.7174090277,-35606.324,-73430.46,4536.4585,-15065.878,-41652.71,-42698.855,-50312.258,-20812.256
1214722.7214090223,-35610.637,-73429.81,4538.249,-15064.657,-41651.734,-42693.727,-50313.926,-20808.39
1214722.725409017,-35611.043,-73429.12,4539.8765,-15066.0,-41647.38,-42697.797,-50315.88,-20822.186
1214722.7294090118,-35608.074,-73427.9,4540.8125,-15067.221,-41644.168,-42701.05,-50316.45,-20831.463
1214722.7334090064,-35607.34,-73429.04,4543.823,-15067.424,-41645.305,-42699.504,-50313.723,-20822.633
1214722.7374090012,-35607.06,-73429.28,4545.6543,-15066.04,-41647.46,-42695.965,-50313.07,-20815.877
1214722.7414089958,-35605.023,-73428.266,4545.9395,-15064.087,-41650.676,-42696.004,-50315.51,-20815.105
1214722.7454089904,-35606.57,-73426.11,4543.1724,-15064.047,-41650.516,-42697.836,-50314.09,-20812.744
1214722.7494089853,-35606.16,-73430.38,4542.684,-15066.813,-41659.305,-42702.56,-50311.85,-20811.117
1214722.7534089799,-35608.645,-73433.88,4542.3584,-15066.977,-41659.547,-42703.004,-50311.117,-20816.691
1214722.7574089747,-35622.113,-73441.0,4539.2256,-15066.081,-41657.145,-42694.094,-50309.004,-20809.652
1214722.7614089693,-35617.066,-73437.055,4542.2773,-15064.413,-41655.56,-42690.715,-50307.58,-20800.863
1214722.765408964,-35599.49,-73424.97,4549.8047,-15061.157,-41652.59,-42691.043,-50304.2,-20783.57
1214722.7694089587,-35598.715,-73427.82,4551.473,-15060.873,-41652.75,-42693.44,-50307.863,-20800.537
1214722.7734089533,-35604.656,-73435.34,4548.95,-15062.338,-41654.46,-42693.77,-50312.258,-20824.098
1214722.7774089482,-35599.69,-73431.234,4552.8564,-15060.059,-41659.465,-42690.676,-50309.734,-20819.256
1214722.7814089428,-35596.19,-73425.13,4556.0303,-15057.455,-41658.652,-42689.902,-50308.555,-20809.326
1214722.7854089374,-35596.11,-73426.31,4555.7456,-15056.601,-41658.12,-42691.367,-50309.285,-20804.484
1214722.7894089322,-35597.984,-73429.61,4555.786,-15058.757,-41656.535,-42692.18,-50309.125,-20795.166
1214722.7934089268,-35601.074,-73433.48,4554.8096,-15060.913,-41655.355,-42689.047,-50305.258,-20789.021
1214722.7974089214,-35599.0,-73431.93,4555.2573,-15059.855,-41652.1,-42683.758,-50307.05,-20804.2
1214722.8014089162,-35595.01,-73430.38,4556.8037,-15056.396,-41651.164,-42680.746,-50306.152,-20806.031
1214722.8054089108,-35592.33,-73429.12,4557.2104,-15054.606,-41651.734,-42683.516,-50307.863,-20815.268
1214722.8094089057,-35599.246,-73430.55,4556.0303,-15058.92,-41654.746,-42686.117,-50304.973,-20806.438
1214722.8134089003,-35600.547,-73430.83,4557.3325,-15059.896,-41657.188,-42685.832,-50301.066,-20794.312
1214722.817408895,-35598.39,-73429.94,4558.635,-15057.821,-41653.605,-42678.184,-50298.465,-20790.61
1214722.8214088897,-35604.9,-73430.83,4555.0537,-15056.804,-41649.414,-42676.68,-50300.703,-20790.406
1214722.8254088843,-35604.9,-73433.27,4552.8564,-15056.601,-41650.676,-42681.234,-50302.246,-20787.518
1214722.8294088792,-35607.668,-73440.59,4552.3276,-15058.879,-41658.082,-42685.426,-50304.812,-20798.096
1214722.8334088738,-35607.87,-73447.06,4552.2056,-15060.385,-41661.176,-42685.75,-50303.184,-20786.418
1214722.8374088684,-35606.203,-73443.89,4553.874,-15058.96,-41657.918,-42678.957,-50306.316,-20798.625
1214722.8414088632,-35605.957,-73444.664,4554.9727,-15057.251,-41659.914,-42678.266,-50309.492,-20804.078
1214722.8454088578,-35608.277,-73446.945,4554.769,-15057.007,-41659.668,-42682.21,-50311.035,-20793.783
1214722.8494088526,-35605.31,-73443.89,4556.234,-15056.926,-41658.49,-42685.875,-50312.38,-20799.031
1214722.8534088472,-35602.54,-73439.945,4556.5596,-15056.804,-41657.066,-42685.914,-50311.934,-20802.043
1214722.8574088418,-35600.87,-73439.414,4557.8613,-15054.281,-41656.78,-42681.52,-50310.14,-20792.725
1214722.8614088367,-35604.9,-73445.64,4558.2686,-15053.874,-41662.883,-42682.375,-50310.71,-20794.19
1214722.8654088313,-35609.824,-73451.984,4553.63,-15056.071,-41663.086,-42683.15,-50309.33,-20793.01
1214722.8694088259,-35607.75,-73456.305,4548.1367,-15058.798,-41662.844,-42684.285,-50307.863,-20794.598
1214722.8734088207,-35608.44,-73454.875,4546.8345,-15059.042,-41664.55,-42682.54,-50308.676,-20795.451
1214722.8774088153,-35611.9,-73455.734,4549.2354,-15056.682,-41662.438,-42672.812,-50304.2,-20777.426
1214722.8814088101,-35611.656,-73455.61,4548.462,-15056.112,-41663.777,-42672.0,-50305.098,-20785.28
1214722.8854088048,-35615.4,-73454.19,4547.689,-15055.786,-41668.297,-42677.777,-50309.004,-20798.625
1214722.8894087994,-35618.695,-73456.305,4547.16,-15058.024,-41667.24,-42684.492,-50311.08,-20796.754
1214722.8934087942,-35618.004,-73461.266,4546.997,-15059.245,-41663.82,-42685.426,-50310.547,-20783.53
1214722.8974087888,-35614.383,-73457.89,4549.886,-15053.671,-41660.44,-42679.89,-50313.234,-20795.654
1214722.9014087836,-35613.08,-73455.98,4549.3164,-15052.287,-41659.71,-42679.28,-50312.42,-20789.592
1214722.9054087782,-35619.387,-73457.195,4546.753,-15053.508,-41666.3,-42681.03,-50312.664,-20786.012
1214722.9094087728,-35618.855,-73451.984,4545.7764,-15054.77,-41663.777,-42682.293,-50314.293,-20797.852
1214722.9134087677,-35615.887,-73449.71,4546.4683,-15053.833,-41660.156,-42683.96,-50315.633,-20797.16
1214722.9174087623,-35618.9,-73450.445,4547.7705,-15054.281,-41661.215,-42679.16,-50315.594,-20791.545
1214722.921408757,-35623.66,-73452.64,4545.451,-15054.565,-41660.727,-42677.29,-50316.816,-20802.898
1214722.9254087517,-35625.043,-73455.57,4544.841,-15053.874,-41662.07,-42680.543,-50316.12,-20800.863
1214722.9294087463,-35624.84,-73453.82,4546.3057,-15053.386,-41664.836,-42681.355,-50310.426,-20781.738
1214722.9334087411,-35626.18,-73450.56,4545.085,-15053.671,-41664.348,-42678.305,-50303.836,-20771.037
1214722.9374087357,-35624.84,-73447.39,4545.166,-15053.549,-41662.438,-42674.727,-50308.066,-20784.871
1214722.9414087303,-35624.715,-73445.97,4549.52,-15051.352,-41661.99,-42674.887,-50312.867,-20797.04
1214722.9454087252,-35622.03,-73446.78,4551.9614,-15050.822,-41668.457,-42678.836,-50314.375,-20793.904
1214722.9494087198,-35620.08,-73446.74,4549.8457,-15051.758,-41669.35,-42679.65,-50309.9,-20782.715
1214722.9534087146,-35618.45,-73448.9,4549.398,-15051.758,-41666.992,-42676.15,-50307.66,-20779.664
1214722.9574087092,-35619.06,-73451.83,4552.572,-15051.025,-41667.32,-42668.215,-50304.934,-20777.223
1214722.9614087038,-35622.52,-73453.164,4550.0083,-15050.619,-41667.97,-42664.754,-50303.47,-20776.408
1214722.9654086987,-35624.51,-73454.51,4546.4277,-15050.822,-41664.715,-42667.074,-50305.055,-20780.193
1214722.9694086933,-35623.008,-73453.9,4547.241,-15052.368,-41661.54,-42668.38,-50304.85,-20775.635
1214722.973408688,-35622.52,-73455.0,4546.0615,-15054.199,-41663.574,-42669.273,-50302.98,-20767.986
1214722.9774086827,-35621.5,-73453.414,4547.3633,-15052.531,-41661.094,-42667.117,-50306.113,-20781.209
1214722.9814086773,-35621.543,-73457.6,4548.991,-15050.497,-41664.105,-42664.676,-50308.066,-20783.244
1214722.9854086721,-35622.234,-73459.555,4549.1133,-15047.974,-41667.727,-42668.703,-50308.594,-20781.453
1214722.9894086667,-35615.723,-73456.586,4552.7754,-15046.062,-41665.934,-42671.55,-50311.65,-20800.537
1214722.9934086616,-35614.016,-73456.38,4554.5654,-15045.939,-41659.098,-42669.273,-50310.387,-20800.416
1214722.9974086562,-35613.85,-73457.93,4555.42,-15045.085,-41655.4,-42664.266,-50306.152,-20783.855
