timestamp,Fp1,Fp2,F3,Fz,F4,Cz,Pz,Oz
1215355.7645690665,-44917.156,-66532.02,17668.904,9376.465,-18773.64,-10872.722,-38267.703,30175.904
1215355.768569061,-44912.56,-66525.15,17670.818,9381.877,-18776.814,-10869.263,-38267.336,30188.07
1215355.772569056,-44907.88,-66530.48,17669.434,9383.017,-18775.188,-10871.664,-38268.8,30185.182
1215355.7765690505,-44912.76,-66539.47,17669.434,9373.169,-18780.6,-10880.615,-38268.395,30165.447
1215355.780569045,-44916.953,-66537.195,17671.795,9374.756,-18771.648,-10878.784,-38268.598,30156.25
1215355.78456904,-44913.617,-66530.234,17673.26,9381.958,-18753.906,-10869.995,-38266.156,30174.602
1215355.7885690345,-44904.22,-66539.19,17674.236,9384.399,-18757.771,-10865.805,-38264.324,30191.57
1215355.7925690294,-44912.76,-66529.79,17669.312,9381.022,-18765.3,-10868.408,-38264.08,30198.242
1215355.796569024,-44907.918,-66525.64,17664.348,9374.431,-18770.916,-10879.68,-38263.633,30180.543
1215355.8005690186,-44906.902,-66543.984,17665.527,9372.478,-18771.525,-10882.8125,-38269.246,30150.188
1215355.8045690134,-44909.914,-66539.06,17670.37,9379.761,-18770.223,-10874.594,-38268.883,30161.174
1215355.808569008,-44904.5,-66530.93,17671.266,9385.092,-18766.846,-10868.205,-38269.53,30177.654
1215355.8125690026,-44906.293,-66529.586,17671.55,9382.65,-18770.793,-10871.948,-38269.9,30183.31
1215355.8165689975,-44911.746,-66535.41,17667.562,9375.244,-18776.855,-10883.83,-38269.695,30174.56
1215355.820568992,-44911.543,-66539.59,17666.3,9375.244,-18775.879,-10882.8125,-38273.152,30159.344
1215355.824568987,-44905.965,-66536.5,17670.004,9383.22,-18773.846,-10873.251,-38271.688,30181.764
1215355.8285689815,-44908.285,-66549.16,17671.834,9388.184,-18767.781,-10868.856,-38272.137,30189.576
1215355.832568976,-44910.688,-66541.79,17666.951,9384.685,-18769.49,-10874.919,-38273.766,30181.967
1215355.836568971,-44912.68,-66535.16,17664.021,9375.61,-18776.57,-10887.451,-38273.887,30154.623
1215355.8405689655,-44914.023,-66541.586,17667.645,9377.686,-18776.693,-10887.004,-38269.734,30148.967
1215355.8445689604,-44907.88,-66542.12,17668.254,9385.58,-18774.781,-10875.814,-38265.42,30170.533
1215355.848568955,-44903.605,-66528.12,17668.945,9388.469,-18776.814,-10868.612,-38268.027,30178.508
1215355.8525689496,-44907.15,-66534.18,17667.969,9385.417,-18770.996,-10870.81,-38268.19,30181.723
1215355.8565689444,-44916.75,-66538.25,17663.738,9378.784,-18770.793,-10876.791,-38263.633,30176.678
1215355.860568939,-44911.99,-66541.42,17664.998,9380.046,-18770.184,-10876.587,-38264.08,30167.36
1215355.8645689338,-44905.684,-66531.13,17670.613,9387.167,-18766.033,-10868.408,-38265.953,30170.736
1215355.8685689284,-44899.375,-66525.31,17676.148,9390.991,-18763.184,-10864.136,-38267.906,30179.688
1215355.872568923,-44890.83,-66545.25,17676.637,9387.329,-18769.572,-10869.101,-38269.9,30182.293
1215355.8765689179,-44899.13,-66552.164,17673.38,9380.249,-18769.287,-10882.202,-38269.41,30171.428
1215355.8805689125,-44902.184,-66546.875,17672.12,9381.022,-18766.44,-10883.22,-38265.26,30171.713
1215355.884568907,-44901.98,-66532.266,17676.19,9387.167,-18767.457,-10874.472,-38264.406,30179.729
1215355.888568902,-44898.887,-66529.87,17677.734,9393.352,-18767.213,-10867.798,-38265.016,30191.244
1215355.8925688965,-44901.004,-66541.914,17677.328,9393.066,-18769.287,-10870.199,-38265.055,30192.18
1215355.8965688914,-44906.58,-66545.695,17675.984,9385.132,-18777.467,-10879.272,-38264.49,30178.508
1215355.900568886,-44903.32,-66543.5,17675.213,9383.545,-18780.6,-10882.487,-38267.906,30160.605
1215355.9045688806,-44904.055,-66540.94,17677.246,9390.097,-18773.56,-10872.803,-38267.375,30175.13
1215355.9085688754,-44905.4,-66543.42,17679.607,9393.2295,-18764.893,-10866.333,-38265.91,30195.557
1215355.91256887,-44899.457,-66549.93,17675.252,9389.282,-18764.445,-10870.036,-38265.91,30198.203
1215355.9165688648,-44907.188,-66556.32,17667.36,9380.778,-18770.916,-10881.104,-38270.47,30174.602
1215355.9205688594,-44910.77,-66569.99,17666.383,9381.226,-18770.223,-10880.575,-38272.34,30161.174
1215355.924568854,-44907.105,-66562.09,17668.01,9384.644,-18766.725,-10872.844,-38268.19,30178.223
1215355.9285688489,-44906.25,-66546.875,17675.008,9389.7705,-18764.08,-10868.896,-38268.473,30188.438
1215355.9325688435,-44897.016,-66548.95,17674.113,9390.178,-18767.457,-10870.117,-38268.72,30180.584
1215355.9365688383,-44905.477,-66549.44,17668.904,9382.162,-18773.602,-10877.238,-38265.586,30174.602
1215355.940568833,-44907.15,-66539.19,17672.078,9383.261,-18774.537,-10873.413,-38261.92,30184.123
1215355.9445688275,-44903.08,-66546.06,17676.229,9390.707,-18763.348,-10863.933,-38265.18,30176.19
1215355.9485688224,-44899.254,-66547.94,17676.434,9397.827,-18757.895,-10862.346,-38270.184,30176.434
1215355.952568817,-44898.03,-66549.52,17675.213,9392.212,-18761.354,-10866.537,-38269.246,30181.396
1215355.9565688116,-44907.594,-66562.26,17670.207,9382.69,-18764.893,-10879.11,-38269.41,30162.477
1215355.9605688064,-44904.258,-66563.56,17668.824,9385.336,-18764.12,-10879.436,-38268.11,30157.879
1215355.964568801,-44906.25,-66575.766,17668.824,9391.806,-18758.627,-10869.426,-38267.54,30171.754
1215355.9685687958,-44900.676,-66558.76,17672.078,9396.24,-18761.354,-10862.59,-38265.992,30194.947
1215355.9725687904,-44902.305,-66545.82,17671.102,9393.352,-18764.404,-10864.096,-38261.76,30212.932
1215355.976568785,-44907.797,-66556.52,17667.766,9387.817,-18765.992,-10874.268,-38265.79,30173.016
1215355.9805687799,-44908.57,-66555.09,17666.18,9386.638,-18767.62,-10875.366,-38272.91,30149.17
1215355.9845687745,-44904.664,-66549.64,17666.057,9393.148,-18763.592,-10864.421,-38270.59,30166.992
1215355.9885687693,-44895.387,-66547.61,17670.248,9398.682,-18762.41,-10859.66,-38270.02,30180.096
1215355.992568764,-44899.984,-66548.016,17670.33,9394.897,-18762.736,-10863.811,-38267.133,30193.197
1215355.9965687585,-44909.18,-66560.914,17666.586,9387.045,-18764.607,-10873.657,-38266.36,30178.346
1215356.0005687533,-44915.04,-66582.805,17669.11,9387.939,-18760.662,-10875.8955,-38271.812,30154.582
1215356.004568748,-44912.234,-66575.12,17669.719,9392.497,-18762.574,-10868.49,-38272.543,30165.936
1215356.0085687428,-44916.016,-66556.03,17671.346,9395.508,-18766.316,-10863.607,-38273.074,30172.486
1215356.0125687374,-44918.582,-66556.84,17673.219,9394.491,-18767.049,-10866.537,-38272.586,30172.893
1215356.016568732,-44904.22,-66547.81,17676.229,9389.445,-18766.887,-10878.418,-38270.348,30172.242
1215356.0205687268,-44894.246,-66538.58,17680.217,9393.066,-18764.812,-10877.6455,-38273.48,30164.592
1215356.0245687214,-44884.89,-66536.625,17684.205,9401.286,-18761.842,-10868.774,-38273.766,30171.63
1215356.028568716,-44878.5,-66529.055,17685.832,9405.273,-18754.639,-10864.828,-38272.746,30186.605
1215356.0325687109,-44878.99,-66523.44,17686.688,9402.385,-18755.33,-10871.216,-38272.83,30185.14
1215356.0365687055,-44872.887,-66526.33,17684.285,9400.676,-18763.875,-10883.993,-38277.387,30153.77
1215356.0405687003,-44874.637,-66548.71,17682.414,9399.577,-18763.875,-10884.97,-38278.28,30145.225
1215356.044568695,-44880.047,-66547.61,17684.652,9407.227,-18755.168,-10876.587,-38276.082,30158.041
1215356.0485686895,-44866.7,-66509.766,17687.582,9412.964,-18756.268,-10870.932,-38273.844,30174.357
1215356.0525686843,-44862.1,-66512.984,17688.518,9409.262,-18763.998,-10871.46,-38267.418,30188.559
1215356.056568679,-44869.426,-66521.32,17683.635,9402.995,-18762.086,-10880.778,-38266.52,30170.33
1215356.0605686738,-44878.62,-66524.62,17680.055,9401.408,-18758.586,-10881.308,-38264.812,30164.836
1215356.0645686684,-44880.7,-66528.28,17682.088,9405.966,-18753.826,-10873.657,-38260.99,30178.184
1215356.068568663,-44876.18,-66531.91,17685.71,9409.994,-18752.768,-10868.815,-38257.938,30187.42
1215356.0725686578,-44868.777,-66530.07,17683.064,9407.471,-18760.295,-10871.257,-38254.395,30197.674
1215356.0765686524,-44879.805,-66533.66,17677.043,9398.845,-18761.271,-10882.284,-38257.938,30166.383
1215356.0805686472,-44885.01,-66539.516,17677.166,9398.967,-18761.963,-10878.215,-38256.633,30156.617
1215356.0845686418,-44883.992,-66555.22,17679.607,9405.925,-18755.818,-10867.839,-38251.832,30180.625
1215356.0885686364,-44881.473,-66556.6,17680.99,9408.732,-18750.977,-10864.99,-38248.535,30204.63
1215356.0925686313,-44876.996,-66523.03,17680.096,9407.634,-18754.436,-10871.054,-38252.36,30188.03
1215356.096568626,-44881.836,-66530.195,17678.223,9399.496,-18763.104,-10880.005,-38253.99,30165.244
1215356.1005686205,-44886.72,-66539.15,17682.537,9399.17,-18759.93,-10879.761,-38254.965,30148.031
1215356.1045686153,-44881.348,-66530.4,17688.396,9405.559,-18758.016,-10871.013,-38252.605,30167.074
1215356.10856861,-44870.242,-66532.15,17692.668,9411.784,-18758.504,-10866.943,-38254.883,30175.863
1215356.1125686048,-44872.805,-66536.7,17690.145,9407.837,-18759.645,-10872.885,-38256.31,30180.176
1215356.1165685994,-44884.727,-66542.65,17683.96,9399.658,-18761.639,-10883.383,-38256.715,30160.035
1215356.120568594,-44890.016,-66544.88,17686.28,9402.182,-18760.133,-10884.074,-38256.145,30145.834
1215356.1245685888,-44878.01,-66543.945,17690.959,9409.262,-18757.488,-10876.75,-38254.926,30156.658
1215356.1285685834,-44877.156,-66554.32,17691.082,9414.307,-18758.504,-10870.443,-38255.21,30167.48
1215356.1325685782,-44883.79,-66558.516,17688.559,9411.011,-18761.76,-10876.425,-38257.12,30169.963
1215356.1365685728,-44891.195,-66543.87,17683.758,9403.646,-18767.863,-10885.376,-38257.082,30152.467
1215356.1405685674,-44897.87,-66541.79,17682.943,9402.385,-18772.625,-10882.854,-38253.664,30153.24
1215356.1445685623,-44888.023,-66544.6,17684.246,9409.018,-18764.201,-10874.919,-38253.746,30169.19
1215356.1485685569,-44887.9,-66545.984,17686.2,9411.865,-18763.795,-10872.559,-38255.574,30179.16
1215356.1525685517,-44887.332,-66548.22,17684.855,9410.441,-18764.934,-10879.924,-38254.965,30179.566
1215356.1565685463,-44893.883,-66557.375,17680.176,9402.995,-18762.98,-10894.409,-38253.867,30164.307
1215356.160568541,-44901.613,-66557.09,17681.6,9403.239,-18757.203,-10892.212,-38253.46,30149.74
1215356.1645685358,-44887.777,-66559.57,17685.873,9410.686,-18753.906,-10880.249,-38253.664,30154.176
1215356.1685685304,-44875.855,-66557.45,17686.727,9416.016,-18750.123,-10875.61,-38251.996,30173.545
1215356.172568525,-44872.113,-66554.0,17685.018,9413.005,-18752.564,-10880.981,-38251.832,30181.479
1215356.1765685198,-44884.117,-66547.445,17682.861,9406.698,-18761.883,-10892.416,-38250.33,30174.357
1215356.1805685144,-44882.895,-66539.555,17679.443,9404.013,-18761.434,-10894.938,-38251.465,30162.598
1215356.1845685092,-44876.387,-66542.85,17679.729,9409.221,-18756.145,-10887.777,-38252.28,30166.668
1215356.1885685038,-44875.49,-66547.53,17683.96,9410.522,-18757.854,-10885.864,-38252.035,30178.387
1215356.1925684984,-44884.89,-66560.67,17684.367,9405.681,-18765.26,-10893.066,-38249.88,30184.367
1215356.1965684933,-44890.586,-66558.59,17681.844,9399.333,-18758.545,-10901.978,-38251.26,30157.676
1215356.2005684879,-44886.68,-66554.52,17682.861,9400.798,-18748.82,-10899.536,-38248.293,30155.479
1215356.2045684827,-44877.117,-66555.34,17682.373,9404.541,-18737.387,-10892.578,-38241.21,30180.176
1215356.2085684773,-44872.844,-66552.29,17680.096,9407.919,-18743.043,-10888.55,-38238.812,30197.674
1215356.212568472,-44872.48,-66555.586,17678.102,9403.524,-18752.482,-10894.084,-38239.3,30194.621
1215356.2165684667,-44876.06,-66574.14,17676.799,9396.811,-18755.78,-10905.559,-38238.895,30167.236
1215356.2205684613,-44882.367,-66578.62,17676.27,9395.712,-18758.83,-10905.844,-38235.312,30161.459
1215356.2245684562,-44882.12,-66542.03,17678.59,9401.774,-18757.771,-10897.014,-38234.05,30175.293
1215356.2285684508,-44874.555,-66547.2,17679.443,9404.907,-18756.186,-10892.863,-38233.887,30189.535
1215356.2325684454,-44875.246,-66559.29,17677.979,9400.554,-18760.01,-10898.804,-38237.754,30187.217
1215356.2365684402,-44883.71,-66569.46,17676.352,9390.991,-18764.648,-10913.493,-38239.42,30168.621
1215356.2405684348,-44891.805,-66568.766,17676.96,9391.5205,-18762.371,-10915.527,-38237.47,30161.053
1215356.2445684294,-44889.12,-66566.61,17680.867,9397.868,-18764.404,-10903.036,-38238.16,30172.486
1215356.2485684243,-44875.734,-66563.56,17679.484,9401.164,-18765.707,-10897.705,-38237.59,30189.78
1215356.2525684189,-44876.668,-66567.47,17676.96,9398.153,-18769.979,-10904.541,-38239.383,30191.123
1215356.2565684137,-44881.51,-66571.21,17672.445,9392.985,-18775.635,-10916.301,-38240.4,30176.23
1215356.2605684083,-44877.484,-66571.33,17670.736,9393.962,-18772.828,-10915.854,-38242.105,30167.889
1215356.264568403,-44879.68,-66576.3,17674.154,9399.577,-18766.766,-10909.018,-38243.9,30171.672
1215356.2685683977,-44875.125,-66588.91,17676.025,9404.257,-18766.766,-10907.023,-38244.1,30184.49
1215356.2725683923,-44874.96,-66582.69,17674.154,9401.083,-18776.326,-10913.412,-38244.957,30185.71
1215356.2765683872,-44880.414,-66578.66,17674.031,9394.45,-18778.117,-10920.492,-38244.06,30168.213
1215356.2805683818,-44883.383,-66580.69,17676.434,9396.688,-18772.746,-10917.847,-38241.414,30156.82
1215356.2845683764,-44882.12,-66568.484,17679.646,9403.605,-18764.16,-10908.569,-38237.996,30173.79
1215356.2885683712,-44879.926,-66565.23,17680.096,9406.494,-18756.55,-10899.943,-38237.47,30192.18
1215356.2925683658,-44872.52,-66570.72,17677.979,9404.826,-18756.227,-10902.222,-38238.08,30197.47
1215356.2965683606,-44882.04,-66578.66,17673.504,9395.996,-18764.893,-10912.761,-38238.16,30178.752
1215356.3005683552,-44886.152,-66580.37,17673.828,9395.549,-18763.428,-10914.145,-38240.848,30158.611
1215356.3045683498,-44881.836,-66577.76,17678.346,9403.036,-18761.76,-10904.867,-38241.617,30165.283
1215356.3085683447,-44878.99,-66577.555,17681.723,9407.919,-18760.01,-10896.647,-38239.664,30182.293
1215356.3125683393,-44875.164,-66581.26,17678.67,9405.233,-18759.889,-10900.635,-38239.22,30189.453
1215356.316568334,-44876.508,-66599.2,17674.398,9397.461,-18764.812,-10910.278,-38236.94,30176.27
1215356.3205683287,-44881.145,-66599.98,17676.96,9399.252,-18772.014,-10907.023,-38234.66,30169.598
1215356.3245683233,-44876.18,-66560.1,17679.688,9406.86,-18761.15,-10896.566,-38232.83,30184.043
1215356.3285683182,-44872.6,-66555.75,17683.27,9412.883,-18756.186,-10889.567,-38233.93,30193.197
1215356.3325683128,-44868.816,-66565.96,17680.096,9410.441,-18756.389,-10890.951,-38229.453,30203.086
1215356.3365683074,-44870.934,-66563.6,17678.06,9403.076,-18755.168,-10900.106,-38230.797,30182.902
1215356.3405683022,-44872.64,-66570.6,17688.355,9400.391,-18752.605,-10898.153,-38232.547,30173.016
1215356.3445682968,-44873.09,-66576.055,17699.83,9405.884,-18746.705,-10887.899,-38233.24,30179.77
1215356.3485682916,-44865.277,-66572.1,17707.846,9411.174,-18749.227,-10880.819,-38226.645,30207.969
1215356.3525682862,-44857.22,-66576.91,17709.025,9406.657,-18751.018,-10884.033,-38227.99,30199.748
1215356.3565682808,-44865.926,-66579.305,17707.357,9399.943,-18748.658,-10899.862,-38232.098,30171.875
1215356.3605682757,-44874.637,-66579.67,17707.479,9401.855,-18744.996,-10898.193,-38230.797,30173.504
1215356.3645682703,-44873.09,-66580.164,17709.393,9409.75,-18739.584,-10887.126,-38228.434,30200.4
1215356.368568265,-44861.086,-66597.58,17714.885,9414.104,-18738.445,-10882.202,-38229.74,30201.254
1215356.3725682597,-44862.957,-66572.76,17715.455,9410.563,-18743.734,-10885.905,-38229.98,30194.621
1215356.3765682543,-44867.11,-66567.266,17710.816,9402.385,-18745.158,-10897.746,-38227.5,30186.361
1215356.3805682492,-44865.766,-66568.04,17711.264,9404.379,-18732.79,-10895.427,-38228.76,30184.45
1215356.3845682438,-44865.645,-66564.25,17712.688,9410.197,-18723.104,-10887.004,-38231.65,30189.697
1215356.3885682384,-44868.855,-66570.03,17714.314,9413.574,-18730.795,-10880.575,-38232.098,30203.086
1215356.3925682332,-44873.496,-66573.85,17716.594,9411.499,-18741.375,-10882.568,-38226.605,30213.46
1215356.3965682278,-44873.047,-66592.53,17713.299,9404.053,-18751.303,-10893.311,-38223.145,30210.41
1215356.4005682226,-44873.863,-66596.11,17714.314,9405.233,-18747.193,-10892.172,-38226.402,30191.611
1215356.4045682172,-44881.023,-66585.98,17714.193,9411.377,-18742.27,-10880.737,-38228.312,30188.477
1215356.4085682118,-44881.633,-66589.12,17715.414,9416.83,-18745.24,-10874.756,-38230.062,30193.36
1215356.4125682067,-44865.887,-66604.78,17714.438,9412.72,-18752.076,-10878.784,-38228.598,30199.504
1215356.4165682013,-44864.746,-66584.19,17711.508,9407.268,-18767.213,-10890.178,-38229.656,30187.338
1215356.420568196,-44867.72,-66565.02,17712.89,9408.61,-18758.627,-10889.7705,-38231.69,30187.867
1215356.4245681907,-44869.508,-66573.37,17715.902,9414.022,-18747.723,-10882.65,-38232.383,30195.312
1215356.4285681853,-44868.816,-66575.805,17719.727,9418.661,-18748.658,-10878.174,-38233.035,30200.36
1215356.4325681801,-44873.535,-66580.12,17718.22,9416.545,-18748.576,-10882.609,-38232.3,30198.324
1215356.4365681747,-44881.062,-66585.45,17714.682,9412.558,-18752.076,-10892.212,-38226.2,30181.031
1215356.4405681696,-44878.62,-66586.34,17717.0,9425.944,-18758.139,-10889.038,-38222.21,30178.143
1215356.4445681642,-44878.215,-66575.234,17722.535,9446.777,-18752.85,-10876.872,-38220.746,30194.336
1215356.4485681588,-44868.33,-66570.68,17723.309,9457.397,-18744.793,-10868.205,-38222.13,30206.137
1215356.4525681536,-44860.883,-66576.21,17719.158,9462.158,-18745.564,-10872.111,-38222.94,30209.229
1215356.4565681482,-44864.3,-66591.43,17713.623,9458.578,-18749.635,-10883.749,-38222.902,30197.062
1215356.4605681428,-44866.414,-66592.9,17715.252,9465.78,-18741.17,-10885.051,-38222.332,30195.232
1215356.4645681377,-44866.78,-66579.76,17719.035,9475.017,-18738.648,-10877.686,-38225.953,30189.861
1215356.4685681323,-44868.613,-66566.04,17722.088,9484.579,-18737.549,-10876.018,-38231.61,30190.838
1215356.472568127,-44874.715,-66574.55,17721.72,9489.462,-18737.06,-10883.057,-38236.168,30190.105
1215356.4765681217,-44888.348,-66584.8,17717.611,9483.847,-18748.047,-10897.136,-38240.316,30163.818
1215356.4805681163,-44892.863,-66590.78,17717.855,9488.119,-18748.21,-10895.02,-38240.195,30161.174
1215356.4845681111,-44876.832,-66587.164,17720.012,9497.925,-18743.855,-10884.685,-38237.1,30182.373
1215356.4885681057,-44865.4,-66583.21,17723.309,9506.674,-18741.822,-10880.859,-38232.87,30203.898
1215356.4925681006,-44867.39,-66599.9,17723.512,9507.69,-18734.783,-10886.027,-38236.125,30196.533
1215356.4965680952,-44869.914,-66586.75,17721.436,9504.761,-18728.68,-10895.793,-38239.137,30169.922
1215356.5005680898,-44865.48,-66574.79,17721.72,9508.179,-18733.684,-10895.915,-38235.312,30170.736
1215356.5045680846,-44868.207,-66590.7,17722.615,9516.765,-18729.695,-10888.021,-38234.418,30184.775
1215356.5085680792,-44871.992,-66592.66,17721.762,9520.915,-18730.713,-10885.01,-38234.703,30192.832
1215356.512568074,-44869.832,-66575.445,17724.08,9522.461,-18735.555,-10887.533,-38237.184,30183.146
1215356.5165680686,-44870.08,-66581.71,17722.453,9518.799,-18739.787,-10897.868,-38237.02,30172.648
1215356.5205680632,-44880.984,-66587.41,17721.15,9521.159,-18737.549,-10895.671,-38237.145,30161.541
1215356.524568058,-44871.297,-66580.33,17724.121,9529.582,-18744.182,-10885.661,-38237.1,30174.725
1215356.5285680527,-44866.254,-66583.54,17724.568,9534.587,-18741.7,-10881.918,-38239.176,30182.455
1215356.5325680473,-44866.008,-66589.68,17723.512,9531.494,-18733.318,-10885.092,-38239.055,30185.547
1215356.5365680421,-44870.65,-66595.95,17721.355,9526.123,-18736.207,-10895.671,-38239.3,30161.703
1215356.5405680367,-44875.367,-66601.65,17723.47,9528.85,-18736.125,-10893.2705,-38240.6,30154.664
1215356.5445680316,-44875.938,-66595.83,17723.715,9535.971,-18730.754,-10884.033,-38238.406,30174.316
1215356.5485680262,-44872.113,-66579.35,17722.168,9541.057,-18729.9,-10881.511,-38241.17,30174.48
1215356.5525680208,-44873.863,-66588.586,17720.094,9541.789,-18730.877,-10887.248,-38244.266,30172.975
1215356.5565680156,-44880.7,-66609.87,17716.92,9534.221,-18739.096,-10896.851,-38243.043,30165.977
1215356.5605680102,-44884.97,-66592.0,17716.838,9536.54,-18729.574,-10895.834,-38240.36,30158.0
1215356.564568005,-44875.53,-66581.75,17721.477,9545.207,-18728.23,-10887.329,-38239.055,30164.104
1215356.5685679996,-44873.25,-66585.05,17720.867,9549.316,-18732.545,-10883.952,-38236.453,30178.428
1215356.5725679942,-44872.48,-66590.336,17717.285,9548.34,-18739.217,-10889.16,-38235.027,30188.314
1215356.576567989,-44871.055,-66598.47,17713.379,9544.516,-18743.164,-10897.502,-38235.84,30168.213
1215356.5805679837,-44875.816,-66609.01,17716.594,9547.079,-18743.123,-10899.292,-38237.793,30154.664
1215356.5845679785,-44876.832,-66596.93,17719.809,9555.542,-18739.055,-10891.195,-38241.78,30166.18
1215356.588567973,-44866.133,-66581.75,17722.494,9562.012,-18735.84,-10886.882,-38243.9,30168.174
1215356.5925679677,-44867.473,-66594.04,17724.244,9561.035,-18740.52,-10894.897,-38246.5,30156.129
1215356.5965679626,-44879.883,-66593.55,17724.773,9556.601,-18740.846,-10904.379,-38241.54,30151.816
1215356.6005679572,-44886.965,-66591.63,17729.615,9558.96,-18729.492,-10901.571,-38237.59,30154.094
1215356.6045679518,-44877.523,-66599.9,17735.596,9567.587,-18723.43,-10891.276,-38234.906,30169.23
1215356.6085679466,-44860.92,-66580.81,17739.38,9575.766,-18723.797,-10883.667,-38231.895,30185.264
1215356.6125679412,-44865.723,-66575.4,17738.893,9574.097,-18731.283,-10885.742,-38226.562,30197.43
1215356.616567936,-44864.746,-66579.23,17735.027,9569.946,-18730.348,-10893.555,-38224.773,30189.576
1215356.6205679306,-44855.67,-66575.484,17735.596,9571.452,-18722.615,-10893.148,-38226.44,30178.264
1215356.6245679252,-44858.156,-66572.875,17735.799,9577.922,-18721.72,-10886.3125,-38223.715,30195.477
1215356.62856792,-44855.023,-66580.89,17736.451,9584.555,-18718.709,-10883.057,-38224.04,30199.586
1215356.6325679147,-44858.97,-66581.055,17735.107,9584.921,-18721.559,-10888.916,-38226.93,30187.135
1215356.6365679095,-44875.816,-66583.336,17731.568,9577.148,-18732.545,-10902.141,-38226.766,30173.707
1215356.640567904,-44885.094,-66595.13,17731.648,9576.01,-18733.318,-10901.774,-38224.734,30177.531
1215356.6445678987,-44873.21,-66596.805,17733.398,9583.374,-18720.988,-10891.887,-38226.645,30184.246
1215356.6485678935,-44868.816,-66576.78,17734.334,9589.682,-18722.088,-10886.679,-38231.16,30174.602
1215356.6525678881,-44868.734,-66575.234,17736.613,9587.524,-18730.348,-10887.167,-38230.023,30174.44
1215356.656567883,-44864.79,-66573.164,17733.807,9580.404,-18734.254,-10893.799,-38227.176,30167.318
1215356.6605678776,-44861.9,-66570.07,17731.648,9582.072,-18731.16,-10893.515,-38224.773,30167.686
1215356.6645678722,-44869.957,-66573.57,17733.807,9587.321,-18726.441,-10888.184,-38224.855,30176.719
1215356.668567867,-44872.07,-66581.95,17736.328,9592.285,-18727.58,-10881.796,-38224.04,30191.162
1215356.6725678616,-44876.426,-66587.04,17737.59,9587.158,-18732.87,-10886.394,-38225.79,30192.709
1215356.6765678562,-44884.97,-66587.93,17736.248,9581.95,-18734.09,-10895.956,-38225.586,30176.066
1215356.680567851,-44878.094,-66584.15,17733.521,9585.979,-18731.771,-10893.393,-38224.324,30166.424
1215356.6845678457,-44865.6,-66573.37,17733.277,9590.251,-18731.08,-10882.243,-38222.984,30179.443
1215356.6885678405,-44858.32,-66580.164,17735.678,9593.913,-18731.445,-10874.268,-38221.52,30193.4
1215356.692567835,-44861.613,-66574.42,17735.799,9590.088,-18733.684,-10876.099,-38216.715,30199.016
1215356.6965678297,-44873.7,-66575.195,17734.05,9583.008,-18736.328,-10885.946,-38210.695,30196.33
1215356.7005678245,-44870.16,-66575.445,17736.531,9584.677,-18735.271,-10887.939,-38209.473,30183.758
1215356.7045678191,-44855.633,-66571.49,17739.258,9590.983,-18733.033,-10880.453,-38209.27,30186.361
1215356.708567814,-44857.18,-66571.125,17743.652,9595.297,-18735.76,-10875.61,-38209.473,30203.29
1215356.7125678086,-44864.668,-66577.76,17741.455,9592.611,-18744.588,-10881.836,-38209.312,30209.107
1215356.7165678032,-44869.14,-66597.05,17734.904,9588.013,-18740.438,-10890.381,-38208.824,30196.371
1215356.720567798,-44877.484,-66599.33,17734.66,9586.833,-18734.295,-10889.567,-38210.004,30194.703
1215356.7245677926,-44882.977,-66579.555,17734.498,9591.146,-18731.73,-10882.731,-38217.203,30179.525
1215356.7285677874,-44883.06,-66574.875,17732.586,9594.809,-18730.184,-10876.913,-38220.582,30179.688
1215356.732567782,-44874.555,-66576.54,17734.375,9595.053,-18729.207,-10877.279,-38216.023,30191.773
1215356.7365677767,-44869.062,-66587.2,17733.033,9588.867,-18731.121,-10888.916,-38217.125,30177.166
1215356.7405677715,-44872.195,-66573.98,17733.277,9588.786,-18725.953,-10892.416,-38221.19,30159.059
1215356.744567766,-44875.41,-66567.836,17736.328,9594.401,-18716.39,-10888.144,-38222.535,30166.383
1215356.7485677607,-44874.31,-66568.484,17741.863,9602.621,-18720.053,-10882.446,-38224.164,30171.672
1215356.7525677555,-44865.48,-66572.02,17744.344,9600.139,-18723.309,-10886.068,-38223.918,30173.3
1215356.7565677501,-44872.07,-66574.79,17742.596,9591.553,-18730.916,-10897.868,-38222.496,30170.736
1215356.760567745,-44868.043,-66574.67,17742.879,9594.279,-18738.037,-10894.816,-38221.152,30170.004
1215356.7645677396,-44867.15,-66574.38,17744.996,9597.616,-18734.295,-10886.068,-38221.11,30168.213
1215356.7685677342,-44865.6,-66589.195,17746.217,9600.668,-18729.94,-10883.952,-38220.746,30179.484
1215356.772567729,-44864.87,-66584.11,17746.217,9599.203,-18729.492,-10888.51,-38220.703,30176.352
1215356.7765677236,-44876.387,-66588.38,17742.146,9591.024,-18736.043,-10900.757,-38220.906,30156.373
1215356.7805677184,-44892.742,-66586.67,17740.887,9592.489,-18739.746,-10898.764,-38218.996,30150.96
1215356.784567713,-44885.62,-66585.734,17742.39,9599.243,-18737.225,-10889.526,-38217.367,30171.062
1215356.7885677076,-44871.22,-66585.45,17747.355,9605.021,-18739.137,-10886.516,-38215.414,30194.012
1215356.7925677025,-44879.07,-66565.23,17745.646,9601.929,-18739.38,-10891.684,-38211.67,30203.004
1215356.796567697,-44874.758,-66565.72,17741.658,9595.866,-18733.44,-10903.483,-38211.71,30185.547
1215356.800567692,-44876.02,-66570.97,17739.91,9594.849,-18731.854,-10901.611,-38208.902,30184.287
1215356.8045676865,-44874.637,-66568.484,17739.055,9599.203,-18735.434,-10894.653,-38210.29,30189.617
1215356.8085676811,-44873.047,-66569.055,17741.049,9601.604,-18736.41,-10889.323,-38211.062,30197.55
1215356.812567676,-44871.746,-66583.13,17744.793,9599.813,-18736.613,-10891.276,-38207.887,30192.22
1215356.8165676706,-44881.39,-66583.87,17741.293,9593.547,-18738.078,-10902.182,-38207.562,30181.926
1215356.8205676652,-44886.11,-66581.38,17737.793,9593.466,-18737.916,-10902.629,-38205.812,30185.508
1215356.82456766,-44880.086,-66570.88,17742.514,9602.011,-18731.242,-10895.102,-38210.9,30175.781
1215356.8285676546,-44875.043,-66576.375,17745.281,9607.3,-18728.883,-10893.393,-38210.53,30181.438
1215356.8325676494,-44874.758,-66594.0,17744.793,9602.621,-18730.348,-10894.775,-38205.73,30193.115
1215356.836567644,-44884.32,-66597.05,17739.502,9594.768,-18727.986,-10900.432,-38203.613,30184.814
1215356.8405676386,-44884.48,-66578.734,17739.217,9596.191,-18723.309,-10901.245,-38202.15,30177.531
1215356.8445676335,-44876.75,-66571.54,17740.723,9605.347,-18725.545,-10893.107,-38201.742,30182.293
1215356.848567628,-44870.73,-66568.36,17743.693,9609.335,-18726.848,-10887.817,-38200.93,30191.611
1215356.852567623,-44872.887,-66569.26,17746.746,9605.0625,-18729.615,-10890.544,-38202.72,30196.615
1215356.8565676175,-44877.156,-66575.195,17745.932,9598.552,-18731.73,-10900.351,-38201.99,30184.896
1215356.860567612,-44876.305,-66581.664,17745.77,9597.738,-18727.54,-10901.774,-38202.72,30182.617
1215356.864567607,-44873.457,-66585.53,17747.518,9604.98,-18727.254,-10896.484,-38205.406,30182.252
1215356.8685676015,-44870.445,-66573.49,17750.367,9607.382,-18728.395,-10896.566,-38205.406,30191.162
1215356.8725675964,-44874.105,-66571.375,17748.291,9605.103,-18730.348,-10900.757,-38203.086,30205.404
1215356.876567591,-44877.484,-66577.72,17744.588,9599.65,-18732.707,-10910.889,-38203.33,30185.996
1215356.8805675856,-44875.246,-66585.57,17748.535,9598.308,-18736.492,-10908.732,-38207.645,30158.977
1215356.8845675804,-44872.4,-66593.43,17753.988,9602.702,-18739.137,-10900.024,-38206.42,30167.969
1215356.888567575,-44860.312,-66575.195,17752.605,9607.463,-18735.596,-10899.292,-38208.54,30187.217
1215356.8925675696,-44862.67,-66572.92,17749.35,9603.76,-18737.346,-10906.169,-38208.457,30193.768
1215356.8965675645,-44873.617,-66577.44,17743.896,9596.11,-18748.25,-10918.661,-38208.496,30174.236
1215356.900567559,-44873.332,-66576.664,17743.938,9596.843,-18749.553,-10920.085,-38208.984,30164.55
1215356.904567554,-44870.363,-66579.71,17746.623,9600.464,-18742.229,-10911.947,-38210.734,30168.783
1215356.9085675485,-44872.844,-66589.73,17747.803,9603.435,-18734.416,-10908.691,-38210.777,30187.135
1215356.912567543,-44867.8,-66600.95,17743.043,9600.18,-18729.248,-10914.389,-38208.09,30201.295
1215356.916567538,-44875.125,-66597.58,17735.23,9591.797,-18735.963,-10924.765,-38206.746,30185.508
1215356.9205675325,-44881.188,-66585.45,17735.148,9591.594,-18741.658,-10926.352,-38209.8,30160.035
1215356.9245675274,-44868.53,-66581.38,17740.193,9596.232,-18740.602,-10917.929,-38207.848,30174.725
1215356.928567522,-44862.266,-66582.12,17743.287,9599.854,-18734.701,-10914.511,-38204.305,30189.982
1215356.9325675166,-44862.59,-66595.95,17740.072,9593.059,-18736.94,-10918.701,-38200.113,30197.348
1215356.9365675114,-44869.67,-66583.945,17735.066,9581.95,-18740.113,-10926.474,-38195.844,30189.861
1215356.940567506,-44877.89,-66581.09,17732.87,9583.252,-18736.857,-10923.544,-38190.797,30195.354
1215356.9445675008,-44878.785,-66585.86,17733.725,9589.111,-18737.752,-10914.389,-38193.727,30198.04
1215356.9485674954,-44877.523,-66591.555,17732.38,9590.536,-18744.629,-10912.802,-38198.285,30196.574
1215356.95256749,-44875.53,-66595.586,17731.61,9588.583,-18751.385,-10920.736,-38201.09,30189.941
1215356.956567485,-44885.54,-66605.72,17726.033,9582.642,-18750.164,-10930.746,-38200.93,30180.95
1215356.9605674795,-44888.47,-66623.58,17722.9,9580.974,-18743.531,-10931.926,-38204.875,30166.016
1215356.964567474,-44893.15,-66612.23,17725.018,9589.233,-18737.469,-10927.287,-38211.426,30167.156
1215356.968567469,-44895.062,-66598.39,17727.295,9593.222,-18732.137,-10923.218,-38212.934,30180.787
1215356.9725674635,-44881.105,-66598.47,17725.994,9590.617,-18737.834,-10928.183,-38212.81,30188.438
1215356.9765674584,-44880.414,-66608.484,17722.494,9581.421,-18746.502,-10938.07,-38218.18,30150.066
1215356.980567453,-44885.215,-66618.62,17724.162,9579.143,-18757.488,-10939.169,-38221.64,30122.314
1215356.9845674476,-44891.113,-66621.664,17726.848,9585.002,-18754.803,-10933.269,-38221.805,30136.76
1215356.9885674424,-44889.57,-66631.31,17727.865,9588.949,-18744.385,-10928.671,-38220.5,30154.95
1215356.992567437,-44887.41,-66622.88,17724.812,9587.036,-18744.14,-10929.565,-38219.08,30164.877
1215356.9965674318,-44891.6,-66618.05,17718.75,9579.631,-18752.889,-10935.751,-38216.188,30155.518
1215357.0005674264,-44894.9,-66616.5,17720.174,9576.742,-18746.217,-10935.222,-38215.78,30149.781
1215357.004567421,-44894.41,-66613.77,17726.766,9581.096,-18739.38,-10928.996,-38215.457,30158.488
1215357.0085674159,-44887.535,-66629.4,17730.062,9584.88,-18735.719,-10922.689,-38209.473,30175.457
1215357.0125674105,-44891.035,-66634.6,17729.695,9581.747,-18730.389,-10925.863,-38204.996,30177.572
1215357.0165674053,-44893.92,-66618.33,17728.557,9576.701,-18736.531,-10932.902,-38202.92,30169.516
1215357.0205674,-44885.703,-66616.984,17726.848,9576.05,-18736.328,-10930.502,-38199.547,30173.38
1215357.0245673945,-44885.336,-66618.125,17726.766,9580.322,-18734.904,-10921.509,-38198.49,30178.184
1215357.0285673894,-44884.402,-66615.89,17728.068,9585.979,-18737.06,-10914.999,-38199.22,30183.025
1215357.032567384,-44886.516,-66618.086,17724.041,9583.537,-18739.543,-10921.265,-38198.934,30183.838
1215357.0365673786,-44892.66,-66622.234,17718.344,9573.608,-18738.648,-10928.508,-38195.64,30184.205
1215357.0405673734,-44897.707,-66628.18,17719.93,9574.789,-18734.172,-10928.508,-38196.74,30175.13
1215357.044567368,-44889.69,-66635.99,17722.86,9584.636,-18729.086,-10918.945,-38199.18,30173.91
1215357.0485673628,-44882.652,-66618.94,17723.633,9586.955,-18729.695,-10913.737,-38197.957,30191.041
1215357.0525673574,-44882.246,-66614.22,17726.156,9584.392,-18731.324,-10916.423,-38196.86,30194.865
1215357.056567352,-44888.67,-66621.22,17726.4,9577.678,-18739.217,-10925.944,-38196.695,30182.17
1215357.0605673469,-44888.957,-66613.04,17726.766,9578.329,-18734.334,-10922.282,-38196.492,30175.66
1215357.0645673415,-44882.57,-66609.414,17727.865,9584.392,-18724.895,-10915.487,-38201.742,30174.684
1215357.0685673363,-44879.19,-66610.31,17732.586,9592.001,-18726.197,-10912.028,-38205.973,30181.805
1215357.072567331,-44873.293,-66611.94,17730.633,9588.664,-18729.9,-10916.22,-38206.137,30186.117
1215357.0765673255,-44878.582,-66619.14,17726.727,9581.747,-18729.533,-10925.497,-38204.836,30172.04
1215357.0805673203,-44877.973,-66618.125,17728.354,9584.106,-18729.533,-10922.567,-38201.375,30173.951
1215357.084567315,-44876.832,-66615.84,17732.098,9590.82,-18726.318,-10914.673,-38202.76,30177.531
1215357.0885673098,-44875.652,-66614.42,17734.375,9595.988,-18722.78,-10911.621,-38206.746,30180.828
1215357.0925673044,-44878.62,-66617.44,17734.457,9591.797,-18726.197,-10917.48,-38208.54,30186.28
1215357.096567299,-44895.836,-66632.53,17728.395,9585.083,-18728.68,-10927.775,-38209.72,30165.691
1215357.1005672938,-44898.52,-66637.05,17726.197,9585.734,-18730.428,-10924.602,-38210.207,30153.443
1215357.1045672884,-44883.504,-66617.516,17731.648,9592.245,-18725.22,-10914.0625,-38209.11,30171.754
1215357.108567283,-44875.855,-66619.55,17735.555,9597.534,-18719.238,-10909.872,-38210.53,30179.688
1215357.1125672779,-44880.13,-66620.93,17734.295,9592.407,-18723.023,-10912.231,-38208.05,30174.602
1215357.1165672725,-44886.355,-66606.08,17728.436,9585.612,-18736.166,-10919.353,-38200.4,30181.723
1215357.1205672673,-44883.18,-66602.99,17728.395,9586.06,-18733.113,-10917.318,-38198.49,30184.043
1215357.124567262,-44876.14,-66598.76,17735.027,9594.035,-18721.232,-10910.4,-38203.29,30168.377
1215357.1285672565,-44874.84,-66596.93,17736.41,9598.959,-18717.938,-10907.268,-38206.746,30174.805
1215357.1325672513,-44880.82,-66605.76,17733.398,9595.093,-18721.395,-10912.517,-38206.383,30187.094
1215357.136567246,-44897.504,-66609.984,17730.021,9586.752,-18725.994,-10923.625,-38206.992,30175.863
1215357.1405672408,-44883.465,-66600.586,17731.404,9589.355,-18719.646,-10923.503,-38209.473,30156.535
1215357.1445672354,-44864.746,-66593.14,17736.775,9596.313,-18714.234,-10912.964,-38206.137,30175.09
1215357.14856723,-44858.848,-66601.56,17740.275,9601.196,-18712.402,-10906.982,-38203.574,30197.389
1215357.1525672248,-44862.062,-66600.67,17741.781,9599.243,-18711.793,-10908.8955,-38199.22,30210.734
1215357.1565672194,-44869.1,-66593.75,17741.781,9590.902,-18718.791,-10920.41,-38200.97,30195.68
1215357.1605672142,-44873.332,-66580.77,17739.299,9590.902,-18720.541,-10919.678,-38196.777,30197.104
1215357.1645672088,-44857.625,-66566.445,17742.879,9596.3955,-18715.17,-10910.482,-38195.312,30200.766
1215357.1685672035,-44850.79,-66566.04,17747.438,9598.796,-18721.883,-10906.21,-38195.355,30209.27
1215357.1725671983,-44860.027,-66574.016,17743.775,9595.256,-18732.951,-10909.79,-38194.46,30213.746
1215357.176567193,-44870.363,-66580.484,17741.863,9589.355,-18741.375,-10919.027,-38195.273,30200.604
1215357.1805671875,-44862.145,-66589.84,17742.635,9590.17,-18737.06,-10918.417,-38196.29,30188.6
1215357.1845671823,-44861.74,-66594.61,17748.861,9595.053,-18734.904,-10911.296,-38194.54,30199.424
1215357.188567177,-44861.777,-66591.31,17752.4,9596.3955,-18736.94,-10904.379,-38192.18,30211.508
1215357.1925671718,-44864.746,-66593.71,17748.738,9592.937,-18732.545,-10905.029,-38190.676,30207.072
1215357.1965671664,-44869.47,-66613.484,17745.037,9585.409,-18731.73,-10915.039,-38192.26,30184.938
1215357.200567161,-44870.973,-66607.305,17746.95,9586.223,-18730.348,-10912.72,-38189.58,30192.303
1215357.2045671558,-44880.13,-66585.9,17750.611,9592.529,-18729.207,-10902.385,-38186.727,30197.51
1215357.2085671504,-44869.71,-66576.74,17751.791,9595.988,-18722.25,-10898.52,-38188.152,30196.533
1215357.2125671452,-44869.266,-66581.71,17750.0,9592.855,-18724.08,-10901.855,-38186.523,30206.828
1215357.2165671398,-44874.715,-66589.03,17747.559,9586.264,-18734.334,-10911.54,-38186.44,30187.094
1215357.2205671344,-44878.215,-66593.586,17749.879,9585.897,-18731.975,-10911.947,-38185.996,30179.607
1215357.2245671293,-44874.35,-66590.54,17752.768,9592.285,-18726.645,-10903.891,-38184.367,30199.219
1215357.2285671239,-44868.246,-66586.914,17753.377,9594.32,-18718.75,-10902.995,-38186.93,30209.555
1215357.2325671187,-44866.457,-66589.4,17755.086,9592.814,-18719.482,-10906.86,-38190.27,30202.148
1215357.2365671133,-44872.07,-66588.79,17749.879,9588.908,-18728.395,-10916.626,-38193.24,30178.06
1215357.240567108,-44878.582,-66592.125,17749.023,9589.274,-18725.262,-10916.138,-38191.57,30181.805
1215357.2445671028,-44874.27,-66602.3,17753.744,9595.093,-18727.783,-10910.278,-38190.105,30193.482
1215357.2485670974,-44873.008,-66611.164,17755.127,9599.447,-18720.379,-10907.187,-38194.01,30191.691
1215357.252567092,-44885.05,-66599.9,17751.385,9595.622,-18715.008,-10907.959,-38195.355,30181.723
1215357.2565670868,-44883.992,-66591.8,17744.14,9588.867,-18722.982,-10917.725,-38196.453,30167.074
1215357.2605670814,-44882.527,-66593.914,17744.996,9590.332,-18724.936,-10915.8125,-38198.285,30163.371
1215357.2645670762,-44882.45,-66593.06,17748.7,9596.191,-18721.273,-10908.8545,-38201.58,30164.633
1215357.2685670708,-44880.74,-66593.95,17747.355,9601.196,-18720.053,-10906.332,-38200.562,30176.19
1215357.2725670654,-44880.37,-66593.47,17745.484,9597.738,-18732.666,-10910.482,-38197.797,30186.605
1215357.2765670603,-44885.99,-66588.99,17742.025,9589.519,-18732.87,-10918.213,-38198.082,30177.328
1215357.2805670549,-44884.035,-66584.11,17743.531,9592.163,-18722.127,-10917.074,-38197.797,30169.598
1215357.2845670497,-44881.43,-66582.52,17749.268,9599.609,-18711.06,-10909.465,-38200.727,30168.621
1215357.2885670443,-44879.52,-66597.086,17751.059,9602.214,-18710.896,-10907.512,-38200.887,30184.979
1215357.292567039,-44873.13,-66605.875,17747.6,9599.895,-18717.53,-10911.093,-38201.418,30179.973
1215357.2965670337,-44884.32,-66580.85,17740.846,9590.617,-18723.797,-10919.556,-38201.66,30166.098
1215357.3005670283,-44892.742,-66581.055,17742.84,9589.682,-18725.953,-10922.7295,-38205.973,30153.484
1215357.3045670232,-44889.203,-66582.766,17747.518,9598.227,-18723.756,-10916.382,-38206.46,30160.97
1215357.3085670178,-44881.43,-66582.07,17750.773,9603.354,-18721.436,-10907.919,-38202.8,30188.762
1215357.3125670124,-44879.844,-66585.734,17753.012,9600.668,-18722.941,-10910.522,-38203.207,30186.158
1215357.3165670072,-44881.594,-66589.27,17753.338,9596.721,-18717.814,-10918.783,-38207.03,30153.605
1215357.3205670018,-44890.91,-66590.3,17752.076,9596.3955,-18703.613,-10917.399,-38207.438,30144.248
1215357.3245669964,-44886.965,-66591.555,17752.809,9601.44,-18706.746,-10911.133,-38204.387,30155.967
1215357.3285669913,-44875.57,-66583.664,17752.523,9604.33,-18712.729,-10905.07,-38200.93,30177.613
1215357.3325669859,-44877.81,-66595.42,17749.797,9600.18,-18721.6,-10909.872,-38200.562,30178.996
1215357.3365669807,-44884.766,-66603.15,17745.2,9592.448,-18723.797,-10919.963,-38199.547,30171.428
1215357.3405669753,-44888.387,-66587.61,17748.129,9593.832,-18723.756,-10916.098,-38196.82,30166.992
1215357.34456697,-44882.773,-66598.19,17748.738,9599.325,-18716.92,-10907.878,-38197.145,30165.527
1215357.3485669647,-44869.47,-66589.36,17749.105,9602.946,-18714.438,-10902.466,-38193.277,30186.158
1215357.3525669593,-44864.91,-66569.91,17747.152,9601.318,-18704.754,-10904.989,-38190.633,30193.686
1215357.3565669542,-44871.176,-66573.94,17743.49,9593.547,-18715.535,-10913.778,-38188.52,30182.578
1215357.3605669488,-44869.47,-66576.42,17745.361,9593.059,-18717.367,-10912.395,-38187.418,30174.113
1215357.3645669434,-44866.7,-66573.2,17750.0,9598.959,-18710.734,-10906.332,-38185.875,30181.723
1215357.3685669382,-44868.164,-66577.11,17751.588,9603.027,-18713.826,-10899.943,-38181.766,30198.936
1215357.3725669328,-44867.027,-66580.41,17751.344,9601.074,-18712.037,-10900.554,-38178.71,30209.31
1215357.3765669276,-44867.72,-66573.61,17750.896,9595.256,-18720.988,-10906.657,-38173.79,30196.982
1215357.3805669222,-44868.33,-66574.99,17752.809,9596.802,-18720.623,-10903.972,-38170.535,30194.906
1215357.3845669169,-44864.055,-66573.81,17755.006,9602.702,-18707.56,-10895.224,-38171.266,30197.389
1215357.3885669117,-44864.625,-66577.64,17757.936,9604.94,-18709.432,-10891.846,-38171.145,30203.207
1215357.3925669063,-44866.133,-66574.95,17758.424,9600.668,-18715.17,-10896.525,-38170.086,30201.742
1215357.396566901,-44874.758,-66567.63,17757.283,9593.994,-18723.064,-10905.64,-38167.645,30202.271
1215357.4005668957,-44868.574,-66569.586,17760.824,9594.564,-18723.756,-10903.605,-38165.977,30205.404
1215357.4045668903,-44864.055,-66582.03,17767.742,9601.767,-18718.832,-10895.671,-38169.92,30198.242
1215357.4085668852,-44861.9,-66565.11,17770.834,9604.94,-18714.885,-10889.7705,-38172.08,30199.545
1215357.4125668798,-44866.09,-66556.89,17769.125,9605.632,-18708.09,-10892.782,-38170.74,30196.738
1215357.4165668744,-44874.227,-66567.99,17764.607,9600.017,-18711.508,-10901.9375,-38167.48,30192.506
1215357.4205668692,-44869.266,-66574.47,17763.307,9599.121,-18715.17,-10902.182,-38169.56,30189.332
1215357.4245668638,-44864.383,-66574.586,17765.26,9606.242,-18708.537,-10896.24,-38170.207,30198.61
1215357.4285668586,-44863.85,-66574.18,17766.643,9610.026,-18706.299,-10894.206,-38172.242,30198.447
1215357.4325668532,-44872.03,-66580.69,17764.527,9609.823,-18710.938,-10897.665,-38174.805,30197.959
1215357.4365668478,-44880.332,-66584.234,17761.15,9609.335,-18712.037,-10907.431,-38174.316,30187.135
1215357.4405668427,-44880.82,-66600.55,17759.4,9613.688,-18711.67,-10905.64,-38174.766,30190.023
1215357.4445668373,-44879.926,-66588.18,17760.133,9620.565,-18709.799,-10897.339,-38180.176,30187.094
1215357.448566832,-44887.168,-66575.36,17760.742,9625.977,-18710.857,-10892.497,-38183.105,30184.57
1215357.4525668267,-44897.42,-66582.69,17758.83,9626.262,-18718.262,-10895.224,-38180.91,30187.297
1215357.4565668213,-44891.074,-66590.13,17754.273,9623.901,-18727.662,-10906.982,-38183.51,30162.395
1215357.4605668162,-44891.44,-66593.02,17755.168,9630.371,-18723.268,-10905.3955,-38182.535,30156.25
1215357.4645668108,-44892.54,-66593.55,17758.016,9640.381,-18721.803,-10899.252,-38178.14,30171.836
1215357.4685668054,-44891.36,-66584.19,17759.521,9647.787,-18718.629,-10895.549,-38175.375,30192.871
1215357.4725668002,-44885.62,-66576.87,17759.4,9647.909,-18720.256,-10900.269,-38178.59,30185.059
1215357.4765667948,-44885.418,-66581.51,17756.145,9644.043,-18722.697,-10908.773,-38178.266,30170.533
1215357.4805667896,-44886.477,-66579.06,17760.498,9648.804,-18720.338,-10907.268,-38176.23,30170.574
1215357.4845667842,-44880.984,-66576.375,17765.79,9659.18,-18707.887,-10900.839,-38173.383,30185.508
1215357.4885667788,-44876.71,-66576.83,17768.678,9666.586,-18710.775,-10894.45,-38172.406,30197.51
1215357.4925667737,-44884.523,-66585.37,17767.457,9667.5625,-18717.205,-10898.193,-38171.47,30205.975
1215357.4965667683,-44894.9,-66591.07,17762.533,9662.028,-18722.088,-10908.163,-38173.91,30176.963
1215357.500566763,-44882.12,-66573.164,17764.201,9666.911,-18721.111,-10907.431,-38173.668,30168.54
1215357.5045667577,-44875.043,-66569.99,17767.742,9677.979,-18718.994,-10900.146,-38171.836,30187.826
1215357.5085667523,-44878.418,-66569.87,17772.38,9684.652,-18718.832,-10895.956,-38173.18,30194.297
1215357.5125667471,-44878.418,-66573.94,17773.56,9684.937,-18717.732,-10894.328,-38173.83,30190.023
1215357.5165667417,-44884.156,-66579.96,17769.816,9681.967,-18714.967,-10904.297,-38175.945,30166.342
1215357.5205667366,-44887.332,-66595.016,17770.223,9684.489,-18714.438,-10904.379,-38174.723,30165.771
1215357.5245667312,-44880.37,-66574.75,17775.635,9693.156,-18712.361,-10897.258,-38175.742,30174.725
1215357.5285667258,-44878.38,-66564.25,17777.547,9698.202,-18715.861,-10892.66,-38171.67,30204.51
1215357.5325667206,-44873.535,-66578.125,17777.955,9699.26,-18720.541,-10897.258,-38172.527,30199.463
1215357.5365667152,-44880.984,-66582.805,17774.21,9695.883,-18726.482,-10911.621,-38179.934,30163.086
1215357.5405667098,-44891.316,-66577.92,17775.676,9698.12,-18726.36,-10914.755,-38180.992,30159.018
1215357.5445667047,-44880.21,-66572.516,17780.72,9707.235,-18715.861,-10909.221,-38178.348,30182.008
1215357.5485666993,-44873.13,-66573.77,17782.227,9713.623,-18716.188,-10906.657,-38174.93,30196.982
1215357.552566694,-44870.117,-66565.516,17779.46,9711.589,-18721.232,-10907.349,-38174.36,30196.006
1215357.5565666887,-44869.875,-66558.19,17776.123,9707.4795,-18717.326,-10913.168,-38173.625,30184.652
1215357.5605666833,-44874.434,-66558.76,17774.17,9710.002,-18712.443,-10912.802,-38174.4,30178.955
1215357.5645666781,-44877.77,-66561.73,17777.547,9717.367,-18708.172,-10906.535,-38173.992,30185.547
1215357.5685666727,-44876.59,-66565.92,17779.705,9723.593,-18704.875,-10904.989,-38175.496,30189.047
1215357.5725666676,-44876.223,-66573.2,17779.379,9723.633,-18708.375,-10911.337,-38177.53,30182.21
1215357.5765666622,-44878.094,-66587.04,17778.117,9719.687,-18714.844,-10918.579,-38180.016,30156.129
1215357.5805666568,-44872.844,-66568.24,17779.623,9723.674,-18715.658,-10915.649,-38178.062,30161.053
1215357.5845666516,-44869.1,-66555.34,17781.17,9731.364,-18711.102,-10907.471,-38175.906,30174.277
1215357.5885666462,-44871.707,-66554.12,17780.518,9735.515,-18710.084,-10902.06,-38174.48,30191.326
1215357.592566641,-44876.75,-66564.29,17780.396,9731.567,-18713.664,-10906.942,-38176.35,30196.045
1215357.5965666356,-44872.76,-66565.8,17778.688,9725.912,-18712.646,-10914.755,-38175.945,30174.725
1215357.6005666303,-44868.734,-66571.01,17779.053,9727.173,-18708.943,-10914.267,-38173.098,30172.893
1215357.604566625,-44876.75,-66556.68,17780.477,9733.48,-18699.83,-10911.418,-38174.277,30178.793
1215357.6085666197,-44878.785,-66554.41,17780.314,9739.909,-18705.281,-10908.61,-38176.27,30180.46
1215357.6125666143,-44871.46,-66563.16,17777.629,9735.637,-18713.135,-10913.33,-38176.15,30184.57
1215357.6165666091,-44875.285,-66574.055,17772.055,9727.661,-18723.186,-10923.747,-38173.707,30176.434
1215357.6205666037,-44878.215,-66574.47,17770.387,9727.946,-18716.92,-10921.753,-38171.145,30180.787
1215357.6245665986,-44874.434,-66569.5,17770.916,9731.853,-18714.479,-10914.267,-38167.156,30197.51
1215357.6285665932,-44873.375,-66571.29,17770.549,9736.044,-18714.967,-10911.093,-38167.156,30203.98
1215357.6325665878,-44880.13,-66571.49,17768.922,9732.016,-18718.994,-10918.051,-38166.668,30209.107
1215357.6365665826,-44885.297,-66585.414,17767.498,9723.227,-18720.662,-10930.339,-38168.785,30182.496
1215357.6405665772,-44891.887,-66579.35,17766.521,9724.447,-18716.594,-10929.118,-38167.36,30178.264
1215357.644566572,-44883.832,-66559.37,17766.44,9728.679,-18720.012,-10924.805,-38168.17,30191.244
1215357.6485665666,-44881.594,-66554.94,17770.102,9732.016,-18717.488,-10924.4795,-38170.37,30202.19
1215357.6525665612,-44881.145,-66552.29,17768.434,9731.894,-18716.309,-10930.502,-38172.69,30200.44
1215357.656566556,-44893.27,-66573.94,17763.021,9722.453,-18730.957,-10940.552,-38174.195,30184.49
1215357.6605665507,-44904.094,-66589.73,17762.371,9721.884,-18729.98,-10940.349,-38177.938,30165.08
1215357.6645665455,-44889.977,-66577.03,17765.666,9727.824,-18727.174,-10931.967,-38179.363,30169.434
1215357.6685665401,-44889.57,-66579.43,17763.916,9732.829,-18732.91,-10929.77,-38179.04,30185.547
1215357.6725665347,-44884.156,-66575.97,17762.695,9732.3,-18728.516,-10932.699,-38178.348,30187.744
1215357.6765665296,-44880.496,-66574.875,17761.719,9725.871,-18717.977,-10943.93,-38178.957,30173.828
1215357.6805665242,-44889.49,-66575.766,17760.377,9727.499,-18731.121,-10941.203,-38178.59,30169.719
1215357.6845665188,-44893.19,-66575.89,17760.457,9731.771,-18727.459,-10934.774,-38177.574,30184.367
1215357.6885665136,-44889.69,-66577.555,17764.04,9736.247,-18718.385,-10934.448,-38180.79,30188.232
1215357.6925665082,-44887.86,-66579.14,17763.916,9736.45,-18717.773,-10941.691,-38186.81,30171.875
1215357.696566503,-44892.742,-66591.836,17756.756,9732.504,-18727.865,-10952.597,-38185.67,30166.465
1215357.7005664976,-44903.81,-66599.37,17753.459,9730.876,-18727.742,-10950.888,-38185.71,30163.291
1215357.7045664922,-44901.29,-66579.02,17754.68,9737.102,-18717.285,-10941.244,-38184.9,30165.244
1215357.708566487,-44894.86,-66578.29,17756.389,9743.042,-18704.834,-10936.6455,-38185.67,30164.512
1215357.7125664817,-44894.9,-66585.29,17757.61,9741.577,-18698.486,-10942.546,-38185.793,30166.668
1215357.7165664765,-44897.95,-66574.75,17754.965,9737.346,-18707.928,-10951.498,-38181.355,30166.342
1215357.720566471,-44899.293,-66571.125,17753.621,9736.898,-18704.793,-10947.429,-38180.504,30163.738
1215357.7245664657,-44895.387,-66571.9,17754.639,9743.368,-18699.951,-10938.029,-38183.594,30164.43
1215357.7285664605,-44896.566,-66578.58,17754.842,9745.402,-18702.637,-10934.53,-38181.4,30180.258
1215357.7325664551,-44901.98,-66583.09,17752.93,9744.426,-18706.707,-10937.826,-38178.266,30189.25
1215357.73656645,-44909.87,-66592.57,17752.238,9739.746,-18719.605,-10947.429,-38179.973,30165.527
1215357.7405664446,-44907.758,-66584.92,17753.418,9743.286,-18714.64,-10948.73,-38182.13,30147.91
1215357.7445664392,-44902.59,-66581.46,17757.65,9752.279,-18711.305,-10939.291,-38181.6,30157.715
1215357.748566434,-44897.3,-66592.37,17760.133,9757.731,-18713.543,-10933.676,-38178.957,30180.584
1215357.7525664286,-44889.57,-66580.08,17761.76,9757.528,-18714.803,-10934.53,-38177.53,30183.879
1215357.7565664232,-44889.65,-66566.2,17762.574,9752.319,-18714.152,-10943.034,-38178.754,30168.58
1215357.760566418,-44892.05,-66567.63,17762.574,9753.5,-18709.758,-10941.325,-38180.176,30165.732
1215357.7645664127,-44892.418,-66576.46,17758.627,9758.749,-18699.504,-10936.198,-38180.016,30178.955
1215357.7685664075,-44893.027,-66574.75,17759.115,9763.632,-18698.812,-10934.123,-38180.83,30182.902
1215357.772566402,-44894.453,-66561.32,17761.883,9762.939,-18704.59,-10937.338,-38185.793,30169.598
1215357.7765663967,-44907.797,-66567.99,17754.559,9755.412,-18707.928,-10945.395,-38187.95,30150.717
1215357.7805663915,-44911.258,-66576.17,17754.232,9756.796,-18698.895,-10943.686,-38184.57,30155.152
1215357.7845663861,-44901.367,-66577.48,17759.521,9763.388,-18694.133,-10932.861,-38183.023,30165.447
1215357.788566381,-44895.348,-66568.85,17763.387,9767.172,-18696.98,-10924.765,-38180.176,30176.963
1215357.7925663756,-44898.234,-66570.68,17762.492,9764.853,-18696.736,-10927.816,-38174.277,30187.012
1215357.7965663702,-44897.504,-66575.97,17758.912,9759.318,-18695.842,-10936.117,-38172.0,30174.725
1215357.800566365,-44900.92,-66591.19,17758.748,9760.58,-18699.383,-10933.269,-38167.523,30178.955
1215357.8045663596,-44901.004,-66590.09,17757.527,9764.853,-18703.898,-10926.636,-38166.18,30191.57
1215357.8085663542,-44898.52,-66565.68,17758.3,9768.799,-18704.672,-10924.968,-38172.73,30177.084
1215357.812566349,-44898.562,-66567.67,17756.836,9765.178,-18705.363,-10929.565,-38173.91,30169.11
1215357.8165663437,-44902.426,-66558.07,17755.209,9761.068,-18704.51,-10937.988,-38174.4,30162.03
1215357.8205663385,-44908.613,-66559.734,17754.598,9763.103,-18699.3,-10936.035,-38177.004,30156.617
1215357.824566333,-44896.73,-66557.414,17759.441,9769.328,-18692.871,-10930.664,-38182.008,30157.432
1215357.8285663277,-44890.83,-66550.336,17762.29,9774.577,-18690.756,-10928.549,-38183.066,30170.94
1215357.8325663225,-44889.406,-66554.61,17759.645,9772.705,-18700.928,-10932.129,-38182.945,30175.986
1215357.8365663171,-44902.387,-66565.88,17754.395,9765.463,-18715.455,-10940.512,-38185.1,30155.6
1215357.840566312,-44911.38,-66569.99,17753.377,9764.893,-18708.74,-10936.401,-38186.727,30147.217
1215357.8445663066,-44898.64,-66566.81,17756.47,9773.112,-18697.145,-10927.897,-38188.19,30157.594
1215357.8485663012,-44900.35,-66580.89,17759.197,9777.06,-18695.312,-10924.316,-38186.85,30172.242
1215357.852566296,-44898.562,-66561.81,17757.203,9776.652,-18695.191,-10923.056,-38184.285,30174.684
1215357.8565662906,-44903.08,-66548.79,17755.047,9770.386,-18700.643,-10928.63,-38185.387,30154.623
1215357.8605662854,-44903.688,-66557.09,17755.086,9769.653,-18701.498,-10927.979,-38187.543,30151.693
1215357.86456628,-44902.344,-66563.56,17759.115,9775.92,-18698.406,-10921.713,-38187.258,30163.982
1215357.8685662746,-44905.113,-66574.83,17761.312,9777.385,-18699.586,-10921.143,-38185.508,30163.535
1215357.8725662695,-44901.855,-66558.72,17758.709,9771.362,-18697.186,-10921.916,-38184.734,30158.041
1215357.876566264,-44900.35,-66559.29,17753.215,9763.428,-18705.201,-10929.932,-38179.566,30152.71
1215357.8805662587,-44901.164,-66562.87,17753.662,9764.812,-18707.398,-10928.386,-38176.516,30146.281
1215357.8845662535,-44901.125,-66560.63,17755.656,9770.061,-18699.83,-10922.974,-38175.906,30158.814
1215357.8885662481,-44903.77,-66572.02,17758.465,9774.902,-18695.842,-10919.475,-38175.742,30171.062
1215357.892566243,-44903.85,-66591.27,17759.766,9771.566,-18698.365,-10923.544,-38176.27,30174.113
1215357.8965662376,-44912.8,-66566.94,17757.732,9765.585,-18700.848,-10929.77,-38179.605,30154.46
1215357.9005662322,-44905.195,-66567.18,17756.186,9765.341,-18697.592,-10928.589,-38180.016,30153.2
1215357.904566227,-44903.16,-66569.83,17758.586,9770.061,-18691.977,-10922.404,-38179.812,30162.803
1215357.9085662216,-44901.207,-66545.05,17760.457,9776.693,-18689.453,-10919.678,-38181.316,30174.195
1215357.9125662164,-44903.523,-66548.95,17758.748,9774.821,-18692.059,-10926.962,-38182.496,30172.363
1215357.916566211,-44907.066,-66564.49,17753.988,9766.154,-18697.389,-10936.523,-38184.652,30153.525
1215357.9205662056,-44911.906,-66563.27,17754.354,9764.404,-18693.074,-10931.682,-38184.734,30144.207
1215357.9245662005,-44907.676,-66553.59,17758.668,9771.444,-18691.365,-10920.492,-38185.59,30148.031
1215357.928566195,-44903.85,-66554.32,17759.725,9774.292,-18694.418,-10915.283,-38184.49,30165.977
1215357.93256619,-44906.82,-66557.09,17759.236,9771.77,-18699.91,-10919.76,-38181.438,30172.08
1215357.9365661845,-44913.13,-66561.04,17757.977,9765.747,-18702.963,-10930.217,-38179.04,30158.285
1215357.940566179,-44921.55,-66573.94,17755.818,9765.137,-18704.63,-10928.915,-38176.434,30156.088
1215357.944566174,-44917.277,-66573.85,17756.756,9769.328,-18701.824,-10923.706,-38176.312,30163.818
1215357.9485661685,-44903.2,-66535.766,17759.686,9774.333,-18695.72,-10917.44,-38175.008,30179.852
1215357.9525661631,-44904.137,-66534.38,17759.807,9770.63,-18696.248,-10923.503,-38175.09,30178.387
1215357.956566158,-44911.746,-66550.82,17757.203,9762.777,-18699.504,-10932.129,-38175.54,30156.535
1215357.9605661526,-44911.543,-66554.24,17756.104,9763.144,-18698.201,-10926.27,-38173.34,30160.482
1215357.9645661474,-44907.15,-66534.79,17758.424,9769.572,-18692.791,-10914.958,-38169.883,30171.998
1215357.968566142,-44905.03,-66531.74,17762.29,9772.461,-18690.674,-10909.343,-38168.01,30182.658
1215357.9725661366,-44905.805,-66534.266,17759.725,9767.863,-18698.365,-10914.47,-38167.117,30185.303
1215357.9765661315,-44915.61,-66544.31,17753.053,9762.248,-18707.154,-10924.357,-38168.863,30170.615
1215357.980566126,-44918.094,-66550.82,17753.621,9763.51,-18702.312,-10921.672,-38170.777,30157.432
1215357.984566121,-44908.895,-66545.86,17757.406,9770.427,-18697.145,-10914.267,-38176.23,30152.996
1215357.9885661155,-44895.387,-66542.12,17763.266,9775.635,-18698.04,-10911.377,-38180.094,30159.75
1215357.99256611,-44901.9,-66520.914,17764.771,9771.566,-18701.13,-10916.992,-38175.945,30170.41
1215357.996566105,-44910.93,-66521.164,17761.719,9764.201,-18707.316,-10925.741,-38175.418,30153.361
1215358.0005660995,-44903.523,-66525.64,17764.73,9764.16,-18705.281,-10925.944,-38175.496,30151.734
1215358.0045660944,-44895.387,-66533.2,17768.393,9770.712,-18700.643,-10921.428,-38175.008,30161.906
1215358.008566089,-44890.992,-66522.625,17769.94,9776.123,-18694.012,-10917.114,-38176.676,30167.277
1215358.0125660836,-44890.016,-66508.18,17773.682,9775.513,-18692.465,-10918.905,-38175.17,30166.586
1215358.0165660784,-44892.17,-66514.85,17772.42,9771.851,-18697.389,-10926.514,-38170.125,30162.639
1215358.020566073,-44902.184,-66515.95,17773.152,9771.647,-18698.08,-10924.561,-38168.5,30160.564
1215358.0245660676,-44902.266,-66520.47,17774.984,9776.042,-18691.57,-10915.283,-38167.562,30165.365
1215358.0285660625,-44888.145,-66528.41,17776.938,9779.013,-18687.379,-10908.285,-38163.74,30182.21
1215358.032566057,-44889.285,-66525.31,17776.45,9773.886,-18685.75,-10910.727,-38159.344,30192.791
1215358.036566052,-44899.66,-66531.21,17771.037,9764.079,-18689.209,-10919.108,-38157.51,30179.973
1215358.0405660465,-44904.785,-66551.555,17768.475,9764.201,-18690.47,-10916.301,-38160.117,30166.098
1215358.044566041,-44906.293,-66550.54,17770.346,9768.474,-18689.78,-10911.296,-38165.203,30164.348
1215358.048566036,-44905.52,-66542.73,17769.816,9771.973,-18692.262,-10906.942,-38166.79,30177.328
1215358.0525660305,-44904.42,-66542.85,17766.48,9768.188,-18694.295,-10907.837,-38163.414,30183.146
1215358.0565660254,-44909.547,-66538.25,17759.115,9760.702,-18696.656,-10915.894,-38165.445,30155.967
1215358.06056602,-44913.168,-66538.01,17760.254,9761.882,-18692.262,-10913.371,-38167.156,30150.514
1215358.0645660146,-44906.66,-66541.42,17760.336,9766.928,-18692.791,-10907.1045,-38167.195,30161.621
1215358.0685660094,-44897.992,-66546.8,17761.516,9771.322,-18696.941,-10905.029,-38165.406,30177.775
1215358.072566004,-44903.445,-66550.055,17761.8,9767.416,-18700.398,-10909.384,-38162.64,30175.293
1215358.0765659988,-44916.3,-66557.3,17756.795,9760.661,-18705.445,-10920.044,-38163.617,30149.863
1215358.0805659934,-44916.26,-66555.22,17757.283,9759.97,-18697.754,-10915.8125,-38162.438,30147.705
1215358.084565988,-44907.555,-66549.64,17761.922,9765.259,-18695.598,-10907.268,-38159.06,30164.715
1215358.0885659829,-44907.188,-66554.77,17765.219,9768.107,-18697.266,-10903.809,-38159.87,30174.846
1215358.0925659775,-44913.453,-66576.17,17763.998,9765.829,-18695.395,-10906.332,-38160.035,30175.01
1215358.096565972,-44921.836,-66576.984,17756.512,9759.399,-18697.592,-10919.149,-38162.516,30150.473
1215358.100565967,-44924.645,-66545.58,17753.338,9760.58,-18695.11,-10918.498,-38162.477,30152.629
1215358.1045659615,-44924.6,-66543.22,17757.203,9766.276,-18678.71,-10908.8545,-38160.44,30166.912
1215358.1085659564,-44921.715,-66551.8,17758.83,9768.515,-18674.969,-10904.826,-38157.633,30176.27
1215358.112565951,-44923.016,-66560.305,17756.592,9763.916,-18695.842,-10909.058,-38160.848,30166.668
1215358.1165659456,-44929.324,-66567.95,17751.1,9755.005,-18703.166,-10918.457,-38163.617,30148.275
1215358.1205659404,-44929.89,-66573.28,17752.564,9758.261,-18709.27,-10916.952,-38165.895,30137.695
1215358.124565935,-44932.902,-66568.65,17755.574,9764.526,-18700.604,-10909.384,-38166.098,30147.828
1215358.1285659298,-44923.87,-66563.07,17756.023,9765.259,-18702.88,-10909.262,-38163.37,30164.307
1215358.1325659244,-44924.93,-66566.734,17756.186,9762.126,-18712.281,-10914.877,-38167.523,30150.188
1215358.136565919,-44938.844,-66578.25,17750.977,9755.046,-18715.78,-10926.147,-38168.254,30132.447
1215358.1405659139,-44941.043,-66584.35,17751.303,9754.3545,-18711.873,-10923.056,-38163.168,30134.238
1215358.1445659085,-44942.996,-66594.41,17754.762,9758.708,-18701.742,-10911.581,-38159.14,30149.822
1215358.1485659033,-44945.883,-66593.71,17755.494,9761.23,-18701.945,-10909.262,-38158.45,30163.941
1215358.152565898,-44952.883,-66583.945,17754.639,9760.295,-18700.887,-10915.609,-38159.914,30166.668
1215358.1565658925,-44954.633,-66580.445,17750.488,9755.209,-18701.824,-10923.381,-38161.824,30156.82
1215358.1605658873,-44949.26,-66583.54,17750.691,9756.958,-18701.701,-10922.812,-38163.453,30149.7
1215358.164565882,-44943.89,-66585.94,17755.371,9764.975,-18695.639,-10916.83,-38163.37,30159.994
1215358.1685658765,-44946.25,-66590.17,17754.354,9768.188,-18703.37,-10915.08,-38161.297,30170.86
1215358.1725658714,-44958.418,-66598.39,17751.994,9762.289,-18709.025,-10917.44,-38160.36,30167.236
1215358.176565866,-44957.03,-66597.25,17754.518,9758.993,-18709.799,-10925.212,-38162.477,30149.375
1215358.1805658608,-44930.79,-66583.74,17761.271,9764.73,-18705.73,-10923.34,-38162.312,30147.34
1215358.1845658554,-44925.58,-66581.305,17768.31,9772.258,-18709.188,-10913.534,-38160.727,30157.47
1215358.18856585,-44929.73,-66588.99,17774.902,9775.635,-18704.875,-10910.686,-38159.098,30168.58
1215358.1925658449,-44930.707,-66592.086,17777.303,9769.816,-18701.336,-10914.0625,-38157.594,30174.113
1215358.1965658395,-44933.105,-66583.91,17774.049,9764.934,-18692.791,-10923.422,-38156.58,30163.291
1215358.2005658343,-44933.637,-66600.71,17776.855,9766.398,-18688.803,-10923.096,-38155.887,30161.785
1215358.204565829,-44928.266,-66592.29,17779.053,9774.536,-18689.738,-10916.179,-38156.902,30162.477
1215358.2085658235,-44930.137,-66576.3,17779.664,9778.646,-18691.977,-10913.33,-38157.188,30173.096
1215358.2125658183,-44937.83,-66576.01,17778.729,9775.432,-18691.895,-10916.179,-38155.844,30180.34
1215358.216565813,-44933.555,-66578.125,17774.578,9768.799,-18691.895,-10925.009,-38154.664,30171.062
1215358.2205658078,-44923.34,-66571.414,17777.467,9772.217,-18682.74,-10921.672,-38152.426,30165.488
1215358.2245658024,-44916.63,-66565.266,17783.447,9779.297,-18672.852,-10913.046,-38151.816,30169.516
1215358.228565797,-44912.355,-66564.66,17792.725,9781.982,-18676.148,-10908.651,-38146.688,30190.186
1215358.2325657918,-44907.15,-66568.24,17795.086,9780.437,-18677.328,-10913.046,-38141.848,30196.453
1215358.2365657864,-44916.383,-66579.43,17790.486,9773.601,-18677.857,-10921.103,-38137.453,30181.64
1215358.240565781,-44922.65,-66571.21,17793.133,9774.089,-18675.334,-10921.062,-38135.867,30178.184
1215358.2445657759,-44920.492,-66563.16,17797.16,9779.826,-18668.986,-10915.202,-38136.07,30187.582
1215358.2485657705,-44912.438,-66570.195,17800.008,9783.732,-18669.922,-10911.011,-38137.94,30186.28
1215358.2525657653,-44907.715,-66556.52,17797.852,9780.681,-18670.086,-10913.574,-38138.754,30183.96
1215358.25656576,-44909.953,-66557.3,17793.213,9774.577,-18672.852,-10923.788,-38137.98,30181.234
1215358.2605657545,-44916.586,-66555.55,17798.828,9776.083,-18678.996,-10923.137,-38140.586,30177.246
1215358.2645657493,-44905.152,-66554.65,17803.834,9782.675,-18676.025,-10913.29,-38140.137,30185.182
1215358.268565744,-44897.055,-66559.125,17804.037,9783.977,-18676.393,-10910.686,-38140.75,30187.338
1215358.2725657388,-44894.98,-66560.14,17802.287,9778.28,-18680.299,-10916.626,-38138.184,30195.232
1215358.2765657334,-44901.207,-66564.62,17799.316,9774.414,-18691.082,-10929.565,-38135.17,30187.95
1215358.280565728,-44906.09,-66573.85,17800.701,9775.717,-18690.756,-10928.142,-38134.035,30183.473
1215358.2845657228,-44900.188,-66553.43,17803.996,9780.233,-18681.805,-10918.864,-38136.11,30186.484
1215358.2885657174,-44899.824,-66554.445,17803.875,9781.088,-18680.543,-10916.22,-38135.742,30198.73
1215358.2925657122,-44902.957,-66563.27,17796.59,9776.245,-18682.293,-10921.143,-38133.992,30197.227
1215358.2965657068,-44904.5,-66584.35,17790.568,9769.328,-18683.432,-10927.328,-38130.74,30190.023
1215358.3005657014,-44911.094,-66575.4,17785.768,9766.602,-18684.246,-10926.2295,-38128.215,30195.03
1215358.3045656963,-44912.68,-66550.13,17784.547,9768.393,-18682.17,-10921.143,-38126.793,30208.74
1215358.3085656909,-44909.668,-66554.445,17786.336,9769.003,-18682.943,-10922.445,-38132.45,30206.137
1215358.3125656855,-44909.668,-66563.805,17785.93,9764.648,-18684.285,-10927.979,-38132.406,30201.213
1215358.3165656803,-44911.99,-66567.34,17779.908,9755.371,-18688.03,-10938.151,-38134.848,30175.62
1215358.320565675,-44913.94,-66567.22,17780.07,9754.802,-18682.21,-10937.5,-38134.848,30171.836
1215358.3245656698,-44913.414,-66568.56,17779.867,9760.01,-18680.867,-10932.129,-38134.605,30184.896
1215358.3285656644,-44903.035,-66553.51,17778.973,9764.364,-18679.77,-10926.596,-38130.656,30209.922
1215358.332565659,-44896.688,-66553.1,17777.752,9761.271,-18680.746,-10931.112,-38134.24,30204.307
1215358.3365656538,-44910.973,-66570.805,17776.123,9751.425,-18687.094,-10941.569,-38134.562,30196.818
1215358.3405656484,-44916.832,-66573.04,17772.664,9750.773,-18694.336,-10939.982,-38132.895,30196.453
1215358.3445656432,-44920.168,-66572.35,17773.602,9755.697,-18694.703,-10933.757,-38136.56,30186.32
1215358.3485656378,-44918.05,-66580.81,17773.193,9758.179,-18694.865,-10930.461,-38136.07,30190.674
1215358.3525656324,-44916.22,-66566.24,17770.305,9754.232,-18696.656,-10935.629,-38133.426,30199.016
1215358.3565656273,-44919.355,-66569.586,17764.04,9745.402,-18700.928,-10944.702,-38132.367,30186.523
1215358.3605656219,-44925.496,-66570.27,17762.207,9746.176,-18706.422,-10943.034,-38131.918,30184.652
1215358.3645656167,-44922.445,-66570.44,17762.492,9751.709,-18701.824,-10936.117,-38128.258,30201.092
1215358.3685656113,-44915.367,-66581.664,17763.225,9753.418,-18694.215,-10933.716,-38127.727,30210.287
1215358.372565606,-44914.918,-66587.77,17762.492,9749.675,-18695.027,-10935.791,-38130.453,30204.102
1215358.3765656007,-44927.207,-66581.71,17760.701,9743.53,-18696.371,-10942.912,-38132.61,30183.432
1215358.3805655953,-44935.06,-66577.92,17759.033,9744.019,-18695.516,-10940.918,-38133.426,30179.484
1215358.38456559,-44929.08,-66583.375,17761.678,9749.064,-18699.178,-10931.152,-38131.227,30194.297
1215358.3885655848,-44918.297,-66581.87,17762.533,9752.93,-18700.807,-10929.321,-38132.406,30202.8
1215358.3925655794,-44924.074,-66588.016,17759.807,9747.803,-18699.383,-10933.92,-38133.016,30198.162
1215358.3965655742,-44931.113,-66607.99,17756.918,9740.316,-18696.045,-10944.255,-38131.55,30176.27
1215358.4005655688,-44931.562,-66593.63,17758.22,9743.002,-18696.453,-10942.627,-38131.676,30174.072
1215358.4045655634,-44930.34,-66579.836,17758.22,9748.901,-18690.633,-10934.978,-38135.133,30183.758
1215358.4085655583,-44921.51,-66581.99,17759.36,9751.14,-18689.332,-10932.414,-38133.87,30199.504
1215358.4125655529,-44926.15,-66587.81,17761.068,9746.42,-18693.686,-10935.385,-38133.426,30196.982
1215358.4165655477,-44925.293,-66587.04,17759.115,9741.577,-18684.652,-10942.749,-38132.57,30180.502
1215358.4205655423,-44926.72,-66595.91,17759.36,9745.443,-18687.826,-10941.8545,-38134.766,30176.27
1215358.424565537,-44926.72,-66583.21,17762.94,9752.157,-18685.75,-10932.861,-38136.76,30182.537
1215358.4285655317,-44922.566,-66581.18,17764.568,9756.755,-18684.408,-10930.258,-38135.62,30196.86
1215358.4325655263,-44926.27,-66594.56,17760.457,9751.506,-18685.467,-10932.983,-38134.24,30201.133
1215358.4365655212,-44937.582,-66593.63,17755.33,9746.257,-18690.389,-10937.582,-38132.61,30188.6
1215358.4405655158,-44933.473,-66588.22,17758.18,9747.152,-18692.994,-10936.239,-38137.656,30168.133
1215358.4445655104,-44928.02,-66596.68,17761.19,9752.971,-18691.895,-10930.42,-38143.883,30163.291
1215358.4485655052,-44933.15,-66610.76,17762.045,9758.505,-18692.465,-10924.316,-38142.293,30185.344
1215358.4525654998,-44932.945,-66596.234,17759.033,9753.622,-18691.447,-10927.165,-38141.44,30194.459
1215358.4565654944,-44936.566,-66597.25,17755.33,9745.932,-18688.355,-10935.547,-38141.766,30178.59
1215358.4605654893,-44940.633,-66603.195,17755.291,9745.972,-18691.854,-10934.408,-38140.625,30181.113
1215358.4645654839,-44936.08,-66602.87,17758.709,9751.303,-18692.262,-10924.398,-38141.36,30186.768
1215358.4685654787,-44930.176,-66592.25,17758.871,9756.063,-18688.965,-10921.225,-38146.85,30165.121
1215358.4725654733,-44933.96,-66594.73,17757.121,9752.93,-18692.465,-10924.438,-38143.8,30169.516
1215358.476565468,-44934.125,-66589.73,17752.809,9745.932,-18697.062,-10933.513,-38142.418,30156.617
1215358.4805654627,-44933.676,-66587.85,17751.262,9746.908,-18697.998,-10931.845,-38141.48,30148.887
1215358.4845654573,-44930.867,-66580.94,17751.588,9752.035,-18704.793,-10921.387,-38141.03,30162.762
1215358.4885654522,-44931.723,-66594.81,17757.162,9757.121,-18697.633,-10915.365,-38141.24,30175.781
1215358.4925654468,-44935.508,-66602.22,17758.465,9754.558,-18695.8,-10920.776,-38143.555,30171.143
1215358.4965654414,-44941.0,-66585.66,17754.965,9749.553,-18702.027,-10927.572,-38142.62,30161.5
1215358.5005654362,-44932.617,-66585.45,17753.541,9752.157,-18702.596,-10921.916,-38139.895,30164.145
1215358.5045654308,-44930.625,-66589.03,17757.732,9757.976,-18690.023,-10913.778,-38137.086,30178.467
1215358.5085654256,-44934.734,-66583.74,17764.242,9760.864,-18684.773,-10909.872,-38133.18,30193.36
1215358.5125654202,-44924.4,-66581.38,17765.34,9758.383,-18682.82,-10910.808,-38130.86,30196.86
1215358.5165654148,-44923.18,-66595.83,17762.818,9752.6455,-18682.82,-10920.898,-38130.777,30179.932
1215358.5205654097,-44930.746,-66588.87,17764.648,9753.134,-18686.361,-10919.882,-38130.574,30170.94
1215358.5245654043,-44925.78,-66570.15,17768.514,9756.836,-18683.758,-10909.221,-38131.023,30183.838
1215358.5285653989,-44919.56,-66571.9,17766.277,9758.83,-18683.229,-10902.67,-38127.44,30196.656
1215358.5325653937,-44923.055,-66576.58,17763.225,9756.308,-18685.791,-10906.413,-38126.02,30196.045
1215358.5365653883,-44926.8,-66578.33,17761.719,9749.594,-18681.764,-10912.191,-38123.09,30189.658
1215358.5405653832,-44928.59,-66592.57,17762.533,9751.547,-18680.584,-10909.709,-38120.77,30191.0
1215358.5445653778,-44931.4,-66585.45,17766.684,9758.667,-18681.52,-10904.338,-38123.047,30188.64
1215358.5485653724,-44925.78,-66567.06,17771.24,9760.62,-18685.67,-10901.001,-38121.91,30197.715
1215358.5525653672,-44919.477,-66574.016,17767.986,9755.737,-18694.947,-10903.605,-38120.117,30196.412
1215358.5565653618,-44927.086,-66578.414,17769.287,9748.698,-18699.463,-10911.499,-38118.246,30189.006
1215358.5605653566,-44928.875,-66578.25,17770.916,9752.035,-18688.64,-10910.197,-38122.113,30179.81
1215358.5645653512,-44926.758,-66586.95,17769.328,9757.324,-18679.24,-10903.769,-38126.06,30184.938
1215358.5685653458,-44921.836,-66567.51,17772.014,9760.58,-18680.908,-10900.106,-38127.973,30202.434
1215358.5725653407,-44919.355,-66566.53,17769.49,9758.22,-18683.514,-10904.785,-38130.13,30205.607
1215358.5765653353,-44928.633,-66576.7,17762.86,9749.919,-18685.1,-10915.976,-38133.383,30184.043
1215358.58056533,-44934.33,-66583.945,17761.434,9747.233,-18684.123,-10915.283,-38134.277,30173.178
1215358.5845653247,-44932.617,-66583.82,17767.62,9752.279,-18678.223,-10908.691,-38137.535,30173.545
1215358.5885653193,-44933.516,-66596.84,17771.484,9756.145,-18682.088,-10907.553,-38141.52,30176.514
1215358.5925653141,-44920.047,-66604.78,17770.264,9752.035,-18684.246,-10909.465,-38137.777,30183.473
1215358.5965653087,-44918.5,-66583.7,17769.695,9746.704,-18684.041,-10916.789,-38132.69,30179.484
1215358.6005653033,-44923.707,-66579.63,17771.443,9751.384,-18682.293,-10916.911,-38130.086,30189.902
1215358.6045652982,-44922.566,-66579.266,17774.414,9757.324,-18677.857,-10911.133,-38130.617,30188.396
1215358.6085652928,-44917.562,-66583.984,17778.523,9762.248,-18679.729,-10905.64,-38136.23,30168.621
1215358.6125652876,-44920.656,-66604.086,17777.955,9758.545,-18678.875,-10906.332,-38131.31,30184.45
1215358.6165652822,-44928.062,-66586.47,17774.17,9750.041,-18681.234,-10912.761,-38129.234,30180.584
1215358.6205652768,-44923.668,-66581.914,17773.602,9752.523,-18685.467,-10910.482,-38132.45,30170.41
1215358.6245652717,-44922.324,-66593.47,17776.326,9758.708,-18685.223,-10903.076,-38132.61,30182.943
1215358.6285652663,-44927.41,-66593.51,17777.426,9760.295,-18684.041,-10902.954,-38134.117,30192.22
1215358.632565261,-44919.19,-66576.5,17777.02,9755.575,-18685.873,-10910.238,-38133.504,30188.152
1215358.6365652557,-44923.87,-66580.2,17772.746,9747.885,-18693.238,-10918.62,-38132.57,30174.928
1215358.6405652503,-44934.207,-66584.19,17770.02,9747.478,-18688.03,-10913.615,-38131.145,30173.545
1215358.6445652451,-44931.6,-66579.266,17769.49,9753.947,-18681.234,-10905.803,-38134.195,30179.078
1215358.6485652397,-44928.875,-66584.44,17771.363,9757.446,-18677.572,-10902.588,-38136.11,30187.094
1215358.6525652346,-44925.742,-66589.32,17772.299,9753.662,-18680.34,-10904.501,-38133.26,30194.824
1215358.6565652292,-44938.316,-66600.1,17769.125,9747.478,-18683.229,-10912.639,-38132.0,30184.57
1215358.6605652238,-44942.223,-66588.3,17770.346,9747.233,-18679.525,-10912.558,-38131.88,30185.791
1215358.6645652186,-44928.957,-66578.53,17775.105,9751.343,-18678.875,-10907.431,-38134.277,30184.123
1215358.6685652132,-44925.742,-66580.65,17778.688,9755.859,-18683.879,-10906.82,-38136.395,30179.973
1215358.6725652078,-44921.918,-66582.32,17778.24,9755.575,-18685.059,-10907.023,-38133.707,30186.564
1215358.6765652027,-44924.4,-66595.625,17775.229,9751.059,-18685.14,-10915.405,-38134.277,30178.143
1215358.6805651973,-44923.137,-66581.95,17774.781,9751.831,-18682.373,-10913.656,-38136.355,30175.498
1215358.684565192,-44924.766,-66568.16,17777.588,9757.731,-18675.496,-10905.478,-38135.457,30182.496
1215358.6885651867,-44924.887,-66573.53,17782.553,9760.864,-18671.51,-10903.564,-38134.605,30191.895
1215358.6925651813,-44919.395,-66578.25,17784.18,9756.552,-18672.566,-10907.959,-38134.93,30187.217
1215358.6965651761,-44928.145,-66588.14,17782.309,9751.913,-18676.025,-10913.981,-38133.75,30168.824
1215358.7005651707,-44925.05,-66582.52,17787.8,9754.843,-18674.764,-10911.133,-38130.902,30168.133
1215358.7045651656,-44918.297,-66572.96,17788.818,9760.376,-18669.598,-10903.32,-38127.727,30188.844
1215358.7085651602,-44909.02,-66563.03,17788.29,9765.625,-18672.69,-10900.879,-38124.637,30208.293
1215358.7125651548,-44908.0,-66561.445,17785.768,9763.184,-18676.31,-10905.437,-38132.406,30184.49
1215358.7165651496,-44916.465,-66563.07,17783.936,9754.477,-18679.566,-10912.842,-38134.035,30161.988
1215358.7205651442,-44926.312,-66581.71,17779.5,9753.093,-18680.95,-10908.691,-38131.266,30164.633
1215358.724565139,-44923.137,-66566.53,17784.465,9761.068,-18675.66,-10897.705,-38127.81,30186.2
1215358.7285651336,-44919.883,-66555.664,17788.697,9764.689,-18677.043,-10895.63,-38130.37,30191.0
1215358.7325651282,-44925.906,-66562.5,17789.754,9760.295,-18679.607,-10902.67,-38130.496,30192.22
1215358.736565123,-44927.45,-66563.805,17787.03,9753.622,-18682.008,-10907.268,-38128.38,30183.473
1215358.7405651177,-44922.566,-66562.22,17786.785,9756.592,-18678.752,-10903.483,-38125.855,30182.21
1215358.7445651123,-44912.477,-66569.5,17792.969,9764.079,-18674.725,-10896.118,-38126.508,30190.023
1215358.7485651071,-44906.17,-66568.36,17791.992,9766.276,-18673.748,-10893.921,-38127.08,30199.424
1215358.7525651017,-44918.17,-66565.39,17789.266,9762.207,-18681.396,-10899.414,-38128.094,30196.086
1215358.7565650966,-44918.254,-66562.5,17788.33,9755.778,-18686.402,-10908.651,-38127.28,30188.314
1215358.7605650912,-44920.086,-66563.36,17787.232,9756.308,-18681.682,-10909.953,-38132.69,30168.906
1215358.7645650858,-44915.977,-66559.41,17789.47,9762.411,-18679.158,-10904.216,-38136.92,30163.738
1215358.7685650806,-44917.44,-66573.9,17790.691,9766.357,-18676.473,-10901.774,-38135.336,30178.02
1215358.7725650752,-44928.71,-66573.734,17788.209,9761.516,-18666.707,-10903.198,-38132.49,30195.557
1215358.77656507,-44933.105,-66572.92,17786.459,9755.615,-18670.207,-10911.418,-38130.453,30193.848
1215358.7805650646,-44932.17,-66569.17,17783.406,9754.3545,-18676.066,-10910.808,-38134.81,30172.08
1215358.7845650592,-44924.195,-66574.79,17783.326,9758.83,-18680.176,-10904.867,-38137.37,30173.91
1215358.788565054,-44921.266,-66559.086,17784.832,9761.597,-18684.123,-10905.151,-38133.832,30190.39
1215358.7925650487,-44928.957,-66556.805,17785.604,9757.8125,-18685.1,-10907.1455,-38128.62,30199.219
1215358.7965650435,-44935.59,-66558.8,17785.4,9753.581,-18685.059,-10914.267,-38128.336,30175.945
1215358.800565038,-44921.754,-66562.18,17784.344,9754.883,-18681.396,-10912.558,-38130.777,30161.094
1215358.8045650327,-44920.82,-66557.375,17785.076,9758.627,-18681.275,-10902.67,-38129.19,30174.113
1215358.8085650275,-44918.66,-66557.375,17788.127,9759.604,-18670.574,-10900.229,-38129.11,30187.338
1215358.8125650221,-44913.414,-66555.75,17789.715,9757.284,-18665.406,-10904.826,-38130.574,30191.691
1215358.8165650168,-44918.38,-66575.766,17787.068,9754.272,-18672.322,-10913.534,-38130.777,30187.217
1215358.8205650116,-44925.293,-66577.44,17783.041,9755.005,-18674.113,-10913.33,-38133.707,30178.06
1215358.8245650062,-44925.418,-66548.14,17783.0,9760.254,-18678.02,-10905.233,-38136.07,30167.686
1215358.828565001,-44920.82,-66543.42,17785.197,9762.126,-18673.34,-10901.164,-38132.895,30183.229
1215358.8325649956,-44919.883,-66560.43,17787.312,9760.946,-18672.771,-10905.925,-38135.094,30173.79
1215358.8365649902,-44919.355,-66565.516,17785.686,9753.134,-18682.74,-10917.725,-38137.777,30154.297
1215358.840564985,-44928.305,-66561.77,17784.832,9754.028,-18685.14,-10914.47,-38135.703,30160.441
1215358.8445649797,-44931.562,-66565.47,17784.344,9758.667,-18680.99,-10904.419,-38136.68,30173.178
1215358.8485649745,-44926.637,-66563.27,17786.174,9762.289,-18682.943,-10900.31,-38136.92,30180.46
1215358.852564969,-44926.23,-66566.695,17786.459,9757.202,-18679.77,-10903.564,-38135.945,30183.555
1215358.8565649637,-44930.3,-66576.21,17783.244,9752.6455,-18679.729,-10913.208,-38136.027,30167.725
1215358.8605649585,-44933.15,-66584.72,17781.902,9754.639,-18678.549,-10909.668,-38133.426,30173.91
1215358.8645649531,-44926.19,-66567.47,17783.895,9760.458,-18671.998,-10901.978,-38129.76,30194.256
1215358.868564948,-44925.58,-66544.15,17787.477,9764.12,-18663.9,-10902.914,-38133.63,30187.988
1215358.8725649426,-44924.156,-66549.195,17788.412,9758.423,-18662.395,-10910.034,-38133.63,30191.123
1215358.8765649372,-44920.41,-66556.89,17786.377,9752.401,-18676.31,-10919.23,-38131.797,30186.28
1215358.880564932,-44926.516,-66564.01,17788.33,9757.04,-18673.992,-10915.487,-38132.49,30171.387
1215358.8845649266,-44925.54,-66581.586,17792.48,9762.533,-18667.4,-10906.128,-38133.586,30173.87
1215358.8885649212,-44916.87,-66571.21,17794.963,9763.916,-18666.83,-10901.978,-38132.285,30186.117
1215358.892564916,-44913.25,-66548.95,17793.377,9760.051,-18669.475,-10904.216,-38126.668,30202.027
1215358.8965649107,-44919.434,-66548.1,17791.219,9756.999,-18676.758,-10908.651,-38123.332,30195.518
1215358.9005649055,-44921.633,-66551.19,17790.08,9756.674,-18682.902,-10909.302,-38123.496,30186.402
1215358.9045649,-44920.535,-66553.305,17790.65,9762.289,-18688.518,-10902.995,-38128.746,30186.932
1215358.9085648947,-44923.79,-66570.72,17788.045,9764.16,-18680.176,-10900.676,-38128.297,30194.133
1215358.9125648895,-44933.15,-66560.305,17787.354,9760.661,-18673.26,-10898.723,-38121.707,30203.574
1215358.9165648841,-44932.457,-66563.48,17785.848,9754.272,-18677.002,-10905.844,-38121.22,30177.654
1215358.920564879,-44934.938,-66577.805,17784.588,9752.849,-18675.822,-10904.785,-38117.066,30184.043
1215358.9245648736,-44924.562,-66558.88,17788.533,9758.952,-18665.324,-10895.061,-38113.445,30209.434
1215358.9285648682,-44918.5,-66561.41,17789.145,9763.225,-18654.541,-10891.643,-38114.016,30205.283
1215358.932564863,-44921.715,-66562.42,17785.768,9758.545,-18666.951,-10897.055,-38114.055,30205.771
1215358.9365648576,-44928.348,-66554.94,17782.756,9751.872,-18679.037,-10907.553,-38113.04,30200.44
1215358.9405648524,-44931.152,-66558.31,17782.064,9751.831,-18666.912,-10906.82,-38112.875,30191.65
1215358.944564847,-44928.957,-66548.79,17782.553,9756.796,-18661.336,-10900.554,-38118.164,30182.658
1215358.9485648416,-44927.246,-66546.8,17786.459,9760.295,-18664.43,-10897.909,-38118.492,30195.477
1215358.9525648365,-44936.77,-66559.734,17786.377,9756.348,-18675.66,-10905.3955,-38118.57,30200.074
1215358.956564831,-44945.312,-66580.57,17782.553,9747.274,-18690.594,-10918.864,-38122.195,30179.77
1215358.9605648257,-44939.82,-66566.164,17780.965,9746.623,-18689.697,-10919.638,-38122.805,30174.072
1215358.9645648205,-44941.367,-66553.836,17780.64,9754.3545,-18685.75,-10913.493,-38119.06,30189.047
1215358.9685648151,-44931.6,-66555.625,17782.959,9756.592,-18686.117,-10911.418,-38120.85,30198.486
1215358.97256481,-44927.45,-66565.96,17781.902,9753.581,-18687.988,-10915.976,-38121.91,30205.73
1215358.9765648046,-44939.332,-66554.65,17779.297,9743.815,-18698.486,-10928.223,-38122.07,30200.318
1215358.9805647992,-44940.105,-66556.27,17778.035,9741.496,-18692.668,-10930.624,-38122.844,30186.932
1215358.984564794,-44930.664,-66547.164,17778.932,9747.274,-18687.094,-10925.578,-38124.758,30189.373
1215358.9885647886,-44932.414,-66548.914,17780.314,9748.251,-18688.191,-10925.944,-38123.414,30199.057
1215358.9925647834,-44946.535,-66559.49,17778.32,9743.612,-18692.586,-10929.77,-38124.15,30190.39
1215358.996564778,-44955.28,-66568.65,17772.543,9735.434,-18692.83,-10937.663,-38124.676,30178.428
1215359.0005647726,-44953.41,-66573.04,17767.578,9734.497,-18691.61,-10937.541,-38127.402,30172.16
1215359.0045647675,-44945.844,-66574.18,17767.049,9740.438,-18683.717,-10930.949,-38132.0,30165.527
1215359.008564762,-44938.152,-66550.74,17767.62,9741.171,-18688.111,-10928.63,-38132.04,30175.742
1215359.012564757,-44943.117,-66555.75,17764.648,9735.759,-18690.594,-10933.065,-38128.62,30187.094
1215359.0165647515,-44946.94,-66567.55,17760.986,9727.417,-18694.05,-10944.702,-38126.223,30170.533
1215359.020564746,-44953.29,-66559.086,17761.557,9730.469,-18698.73,-10945.3125,-38126.547,30167.36
1215359.024564741,-44951.99,-66551.88,17766.277,9739.177,-18691.365,-10936.6455,-38125.125,30183.635
1215359.0285647355,-44942.793,-66550.664,17770.916,9741.74,-18690.35,-10932.78,-38126.02,30189.738
1215359.0325647302,-44935.184,-66551.64,17771.12,9740.723,-18691.854,-10936.85,-38122.64,30199.586
1215359.036564725,-44939.047,-66550.055,17768.514,9736.613,-18696.453,-10942.465,-38120.566,30188.193
1215359.0405647196,-44942.426,-66532.31,17771.443,9737.509,-18694.54,-10939.697,-38120.117,30175.254
1215359.0445647144,-44931.684,-66532.555,17773.64,9742.554,-18690.186,-10932.577,-38118.33,30188.762
1215359.048564709,-44926.19,-66540.77,17770.549,9744.101,-18692.424,-10929.199,-38116.66,30203.613
1215359.0525647036,-44925.62,-66544.96,17770.549,9738.974,-18694.865,-10933.065,-38115.562,30205.322
1215359.0565646985,-44931.766,-66555.46,17770.875,9736.044,-18694.05,-10941.0,-38118.57,30180.34
1215359.060564693,-44939.008,-66545.78,17771.566,9738.078,-18686.809,-10939.575,-38118.652,30175.578
1215359.064564688,-44937.625,-66533.77,17772.258,9744.629,-18683.39,-10932.617,-38118.33,30190.594
1215359.0685646825,-44935.184,-66545.58,17771.81,9747.314,-18689.373,-10929.321,-38118.492,30202.8
1215359.072564677,-44940.676,-66544.195,17774.578,9743.896,-18695.354,-10934.082,-38123.047,30193.727
1215359.076564672,-44935.793,-66542.4,17771.729,9736.003,-18697.43,-10941.203,-38121.22,30183.105
1215359.0805646665,-44935.71,-66542.56,17768.025,9736.9795,-18691.406,-10936.442,-38118.207,30190.879
1215359.0845646614,-44929.445,-66542.08,17770.996,9740.112,-18686.89,-10930.542,-38117.88,30196.453
1215359.088564656,-44923.34,-66538.086,17773.967,9744.833,-18685.262,-10924.846,-38115.152,30199.057
1215359.0925646506,-44923.543,-66538.945,17773.031,9744.792,-18683.635,-10928.467,-38114.098,30204.63
1215359.0965646454,-44924.277,-66549.4,17770.63,9739.706,-18683.758,-10937.785,-38117.758,30190.959
1215359.10056464,-44929.566,-66545.58,17770.793,9740.927,-18685.832,-10938.681,-38121.055,30189.047
1215359.1045646346,-44936.28,-66550.984,17772.664,9742.92,-18684.773,-10931.763,-38118.652,30196.615
1215359.1085646295,-44936.16,-66557.375,17775.717,9746.013,-18677.654,-10928.305,-38120.523,30186.32
1215359.112564624,-44935.223,-66566.66,17777.02,9743.979,-18673.38,-10931.234,-38122.152,30185.059
1215359.116564619,-44950.97,-66566.41,17772.584,9737.265,-18679.484,-10935.751,-38120.77,30181.072
1215359.1205646135,-44947.797,-66547.28,17772.258,9738.892,-18676.678,-10929.443,-38122.76,30175.701
1215359.124564608,-44932.332,-66535.61,17771.607,9742.147,-18677.002,-10920.695,-38123.66,30182.049
1215359.128564603,-44938.273,-66543.055,17768.678,9743.083,-18681.275,-10918.051,-38127.605,30184.57
1215359.1325645975,-44944.094,-66551.234,17765.057,9740.153,-18682.21,-10925.049,-38132.69,30172.404
1215359.1365645924,-44949.63,-66554.445,17763.307,9732.3,-18689.047,-10935.1,-38131.062,30156.088
1215359.140564587,-44952.965,-66556.56,17764.812,9735.107,-18689.535,-10931.763,-38126.383,30163.006
1215359.1445645816,-44948.49,-66550.664,17768.514,9741.333,-18681.967,-10923.422,-38124.105,30176.31
1215359.1485645764,-44938.03,-66547.33,17768.758,9743.693,-18676.473,-10918.701,-38123.047,30183.799
1215359.152564571,-44942.383,-66561.36,17766.928,9743.083,-18678.508,-10920.939,-38125.246,30182.252
1215359.1565645658,-44947.266,-66575.56,17763.836,9736.654,-18682.008,-10931.274,-38126.508,30170.492
1215359.1605645604,-44946.492,-66551.48,17764.771,9737.265,-18681.6,-10930.705,-38126.465,30171.51
1215359.164564555,-44955.566,-66554.94,17767.781,9742.554,-18670.533,-10925.741,-38127.727,30178.264
1215359.1685645499,-44944.95,-66556.89,17769.531,9745.605,-18678.71,-10920.898,-38130.82,30179.404
1215359.1725645445,-44943.24,-66567.875,17767.781,9742.717,-18681.926,-10924.561,-38132.406,30182.373
1215359.176564539,-44953.29,-66565.39,17765.016,9735.515,-18683.717,-10931.315,-38131.88,30174.56
1215359.180564534,-44950.887,-66556.234,17767.049,9732.87,-18683.473,-10927.49,-38130.37,30171.428
1215359.1845645285,-44941.977,-66552.82,17770.508,9740.479,-18673.055,-10918.254,-38131.754,30174.846
1215359.1885645234,-44942.87,-66549.64,17772.34,9745.117,-18676.84,-10915.039,-38129.965,30184.855
1215359.192564518,-44948.73,-66559.37,17769.734,9740.153,-18684.611,-10917.847,-38130.13,30175.781
1215359.1965645126,-44951.254,-66560.8,17764.12,9735.067,-18682.7,-10922.974,-38125.855,30160.768
1215359.2005645074,-44953.492,-66563.16,17763.021,9736.369,-18682.373,-10919.189,-38124.105,30158.814
1215359.204564502,-44954.1,-66566.734,17767.254,9740.52,-18680.664,-10910.849,-38125.043,30167.521
1215359.2085644968,-44961.184,-66575.65,17771.2,9743.368,-18678.508,-10906.454,-38125.49,30176.758
1215359.2125644914,-44944.703,-66577.516,17770.834,9738.933,-18679.078,-10908.569,-38122.113,30191.611
1215359.216564486,-44939.78,-66556.07,17766.643,9731.934,-18682.21,-10916.22,-38120.484,30180.34
1215359.2205644809,-44934.734,-66563.805,17770.184,9734.538,-18686.97,-10915.568,-38117.92,30183.473
1215359.2245644755,-44934.492,-66556.36,17776.49,9740.356,-18686.2,-10911.703,-38118.164,30184.043
1215359.2285644703,-44933.15,-66548.914,17777.67,9745.361,-18686.076,-10908.285,-38120.16,30182.861
1215359.232564465,-44931.684,-66547.33,17774.74,9743.205,-18682.7,-10910.482,-38119.1,30177.613
1215359.2365644595,-44940.51,-66557.414,17770.996,9736.003,-18684.246,-10917.399,-38116.336,30171.348
1215359.2405644543,-44942.508,-66557.62,17770.916,9737.346,-18683.35,-10914.836,-38116.336,30173.992
1215359.244564449,-44939.293,-66554.445,17773.152,9743.083,-18674.154,-10907.1045,-38116.617,30185.873
1215359.2485644436,-44937.42,-66558.48,17775.229,9745.6875,-18673.34,-10905.681,-38116.984,30198.406
1215359.2525644384,-44942.668,-66559.82,17775.514,9743.896,-18676.31,-10911.703,-38117.88,30188.559
1215359.256564433,-44947.31,-66565.72,17771.893,9737.102,-18690.959,-10919.922,-38117.15,30170.29
1215359.2605644278,-44943.32,-66569.87,17772.096,9739.136,-18685.14,-10915.935,-38117.027,30166.871
1215359.2645644224,-44931.52,-66578.33,17779.338,9747.233,-18674.195,-10905.844,-38118.29,30176.963
1215359.268564417,-44924.887,-66569.055,17780.885,9751.628,-18671.143,-10900.473,-38115.766,30195.557
1215359.2725644119,-44927.86,-66559.734,17776.57,9750.244,-18670.857,-10901.652,-38113.688,30201.377
1215359.2765644065,-44930.258,-66549.84,17773.602,9744.019,-18670.086,-10912.436,-38119.266,30171.63
1215359.2805644013,-44934.125,-66556.64,17775.229,9742.88,-18671.916,-10908.773,-38116.7,30173.584
1215359.284564396,-44934.41,-66561.16,17779.338,9746.379,-18673.87,-10901.367,-38117.312,30182.455
1215359.2885643905,-44935.996,-66554.65,17778.768,9746.42,-18675.701,-10900.676,-38120.484,30188.273
1215359.2925643853,-44942.668,-66565.63,17776.326,9742.595,-18676.88,-10904.419,-38119.305,30194.621
1215359.29656438,-44943.117,-66568.12,17776.326,9738.607,-18674.072,-10912.517,-38118.734,30180.584
1215359.3005643748,-44932.414,-66564.78,17773.723,9739.34,-18671.59,-10909.18,-38118.816,30173.016
1215359.3045643694,-44928.957,-66566.445,17774.129,9744.589,-18669.598,-10899.577,-38118.207,30186.076
1215359.308564364,-44932.78,-66569.91,17775.229,9747.966,-18673.584,-10900.31,-38118.855,30191.977
1215359.3125643588,-44946.332,-66580.77,17771.607,9742.839,-18681.885,-10904.704,-38118.734,30184.164
1215359.3165643534,-44943.32,-66576.5,17771.932,9737.997,-18680.543,-10910.075,-38117.88,30170.94
1215359.320564348,-44933.84,-66582.97,17771.648,9740.356,-18680.258,-10906.413,-38115.887,30174.805
1215359.3245643429,-44940.39,-66588.83,17774.861,9745.239,-18681.926,-10899.74,-38111.53,30195.965
1215359.3285643375,-44935.996,-66560.23,17776.693,9747.437,-18675.578,-10894.9795,-38109.133,30209.066
1215359.3325643323,-44936.402,-66560.02,17774.861,9743.205,-18671.307,-10897.868,-38112.55,30192.059
1215359.336564327,-44943.402,-66574.47,17770.834,9736.288,-18677.205,-10906.82,-38115.113,30175.09
1215359.3405643215,-44945.027,-66582.195,17772.217,9739.096,-18677.49,-10904.623,-38111.453,30177.246
1215359.3445643163,-44947.31,-66582.6,17775.025,9745.972,-18672.445,-10898.315,-38109.824,30189.576
1215359.348564311,-44941.773,-66588.22,17773.113,9746.623,-18670.533,-10897.339,-38111.37,30194.215
1215359.3525643058,-44941.895,-66591.68,17769.695,9742.636,-18672.934,-10900.92,-38113.895,30185.996
1215359.3565643004,-44953.047,-66594.12,17767.498,9737.468,-18673.992,-10907.512,-38112.47,30170.818
1215359.360564295,-44950.074,-66592.49,17767.904,9739.299,-18675.09,-10903.158,-38110.84,30176.025
1215359.3645642898,-44939.414,-66588.26,17772.705,9749.756,-18670.818,-10894.003,-38108.887,30192.22
1215359.3685642844,-44943.727,-66588.46,17772.543,9751.425,-18672.12,-10892.538,-38110.598,30197.104
1215359.3725642792,-44955.16,-66598.31,17769.816,9746.542,-18675.334,-10898.153,-38113.445,30193.604
1215359.3765642738,-44959.395,-66622.16,17769.084,9738.77,-18679.281,-10909.79,-38115.805,30172.648
1215359.3805642684,-44955.324,-66588.87,17771.973,9741.333,-18676.84,-10906.413,-38115.6,30166.342
1215359.3845642633,-44944.95,-66576.58,17774.17,9746.542,-18676.434,-10898.193,-38114.098,30174.684
1215359.3885642579,-44944.95,-66586.14,17776.45,9749.268,-18676.107,-10894.409,-38113.85,30177.246
1215359.3925642525,-44941.082,-66588.87,17774.049,9746.42,-18677.775,-10895.264,-38113.08,30185.67
1215359.3965642473,-44947.51,-66592.61,17768.88,9741.13,-18677.002,-10899.74,-38111.246,30179.484
1215359.400564242,-44948.73,-66584.07,17766.846,9743.856,-18673.38,-10897.705,-38108.766,30181.602
1215359.4045642368,-44945.965,-66573.28,17769.49,9750.692,-18670.33,-10890.788,-38107.547,30191.367
1215359.4085642314,-44944.215,-66576.5,17769.613,9753.256,-18671.102,-10888.51,-38106.242,30200.562
1215359.412564226,-44947.957,-66584.76,17769.125,9747.437,-18673.219,-10892.538,-38104.9,30202.88
1215359.4165642208,-44953.492,-66594.41,17768.19,9741.862,-18672.04,-10899.943,-38103.883,30187.988
1215359.4205642154,-44951.66,-66604.9,17767.986,9745.932,-18668.295,-10897.502,-38100.14,30186.24
1215359.4245642102,-44945.844,-66621.26,17774.822,9753.906,-18665.406,-10890.056,-38096.883,30193.441
1215359.4285642048,-44942.996,-66588.38,17777.223,9755.168,-18670.695,-10887.899,-38097.008,30196.453
1215359.4325641994,-44942.098,-66576.74,17773.357,9750.732,-18666.951,-10889.567,-38097.13,30193.4
1215359.4365641943,-44952.56,-66591.35,17766.725,9744.589,-18664.795,-10895.59,-38093.59,30187.582
1215359.4405641889,-44950.117,-66585.57,17766.887,9745.891,-18664.836,-10894.003,-38094.32,30182.861
1215359.4445641837,-44940.31,-66576.984,17772.584,9752.116,-18665.324,-10886.027,-38097.13,30193.727
1215359.4485641783,-44940.023,-66573.24,17774.21,9752.971,-18667.48,-10883.342,-38097.008,30212.322
1215359.452564173,-44941.855,-66575.56,17772.95,9748.82,-18671.428,-10885.336,-38097.78,30206.26
1215359.4565641677,-44948.367,-66581.664,17771.893,9742.229,-18677.857,-10893.962,-38100.426,30184.246
1215359.4605641623,-44943.81,-66583.336,17773.357,9744.101,-18678.955,-10897.177,-38101.848,30179.852
1215359.464564157,-44938.234,-66584.64,17776.693,9751.303,-18672.648,-10891.154,-38101.523,30190.146
1215359.4685641518,-44947.31,-66588.38,17775.555,9752.849,-18673.463,-10887.085,-38104.453,30186.809
1215359.4725641464,-44949.63,-66573.164,17772.87,9749.512,-18671.428,-10889.567,-38106.04,30185.996
1215359.4765641412,-44958.05,-66576.375,17769.695,9744.873,-18671.916,-10895.305,-38104.98,30177.734
1215359.4805641358,-44949.707,-66594.484,17769.531,9746.135,-18669.23,-10895.63,-38106.0,30172.975
1215359.4845641304,-44939.617,-66607.34,17772.95,9752.238,-18663.412,-10888.144,-38105.43,30196.574
1215359.4885641253,-44941.53,-66580.33,17772.584,9753.174,-18664.021,-10884.521,-38103.844,30206.34
1215359.4925641199,-44950.562,-66575.08,17773.275,9748.901,-18676.352,-10889.73,-38105.55,30188.03
1215359.4965641147,-44952.637,-66577.6,17774.17,9746.46,-18678.467,-10893.799,-38102.176,30176.758
1215359.5005641093,-44945.926,-66576.945,17773.072,9749.309,-18677.002,-10890.747,-38099.0,30182.21
1215359.504564104,-44939.94,-66572.836,17773.602,9753.947,-18673.828,-10883.749,-38096.56,30194.215
1215359.5085640987,-44934.98,-66572.516,17774.09,9754.272,-18668.05,-10880.575,-38094.93,30193.36
1215359.5125640933,-44942.586,-66583.3,17774.822,9750.407,-18666.627,-10884.685,-38092.043,30195.965
1215359.5165640882,-44955.77,-66597.58,17770.71,9743.571,-18670.086,-10893.393,-38091.758,30189.209
1215359.5205640828,-44948.203,-66601.6,17770.955,9744.792,-18666.627,-10895.915,-38095.746,30171.957
1215359.5245640774,-44947.062,-66607.46,17776.693,9753.418,-18654.42,-10887.289,-38096.19,30174.766
1215359.5285640722,-44945.516,-66596.6,17776.246,9755.819,-18638.184,-10882.121,-38095.34,30190.959
1215359.5325640668,-44945.64,-66587.61,17771.932,9750.651,-18649.781,-10887.899,-38094.688,30195.191
1215359.5365640614,-44954.1,-66608.766,17767.701,9744.629,-18658.244,-10897.095,-38098.51,30173.992
1215359.5405640563,-44952.56,-66613.08,17767.09,9745.199,-18659.018,-10895.142,-38100.79,30168.906
1215359.5445640509,-44944.746,-66593.18,17771.973,9751.425,-18657.674,-10888.835,-38099.324,30182.537
1215359.5485640457,-44938.355,-66581.79,17776.45,9756.958,-18657.309,-10885.824,-38100.223,30184.164
1215359.5525640403,-44939.453,-66588.91,17775.594,9754.924,-18659.1,-10887.207,-38096.805,30186.809
1215359.556564035,-44952.434,-66600.1,17774.17,9747.641,-18663.209,-10893.515,-38092.613,30189.738
1215359.5605640297,-44946.37,-66586.43,17778.443,9752.197,-18652.508,-10889.934,-38093.914,30187.012
1215359.5645640243,-44936.688,-66571.62,17780.477,9762.004,-18640.79,-10884.807,-38100.06,30175.742
1215359.5685640192,-44935.67,-66574.67,17780.6,9765.341,-18651.938,-10884.155,-38099.45,30185.914
1215359.5725640138,-44935.26,-66582.12,17780.682,9760.498,-18656.861,-10888.957,-38094.605,30194.785
1215359.5765640084,-44935.832,-66592.81,17779.217,9756.063,-18654.541,-10897.787,-38091.637,30178.59
1215359.5805640032,-44934.855,-66577.48,17782.715,9758.667,-18653.564,-10895.142,-38090.535,30167.645
1215359.5845639978,-44933.35,-66567.71,17785.645,9764.038,-18649.17,-10884.807,-38086.387,30184.45
1215359.5885639926,-44936.973,-66580.81,17783.0,9765.585,-18649.252,-10881.186,-38086.63,30197.715
1215359.5925639872,-44935.793,-66597.82,17783.447,9764.648,-18652.508,-10882.121,-38084.96,30209.107
1215359.5965639818,-44933.637,-66572.67,17781.697,9758.423,-18666.627,-10891.317,-38083.21,30201.457
1215359.6005639767,-44935.387,-66558.88,17785.36,9756.714,-18663.494,-10893.718,-38083.133,30199.748
1215359.6045639713,-44934.164,-66566.445,17790.854,9764.648,-18657.674,-10889.648,-38085.855,30199.504
1215359.608563966,-44937.785,-66577.48,17794.516,9764.567,-18660.36,-10889.853,-38085.29,30205.934
1215359.6125639607,-44936.28,-66585.164,17793.213,9758.952,-18662.191,-10893.107,-38085.043,30208.781
1215359.6165639553,-44938.113,-66590.17,17788.941,9754.761,-18661.58,-10898.601,-38086.996,30192.424
1215359.6205639502,-44932.78,-66589.44,17789.186,9760.376,-18663.371,-10898.56,-38090.332,30178.143
1215359.6245639448,-44929.61,-66595.5,17792.928,9765.137,-18660.197,-10891.643,-38090.17,30188.762
1215359.6285639394,-44935.547,-66596.44,17791.992,9766.439,-18670.857,-10888.835,-38090.09,30203.613
1215359.6325639342,-44933.676,-66580.81,17792.074,9763.835,-18677.41,-10892.944,-38089.844,30198.527
1215359.6365639288,-44938.723,-66594.41,17783.162,9754.599,-18666.912,-10900.229,-38085.29,30201.336
1215359.6405639236,-44942.63,-66605.72,17780.111,9751.425,-18666.424,-10902.426,-38083.336,30205.445
1215359.6445639182,-44937.01,-66585.57,17784.791,9758.017,-18676.025,-10896.933,-38083.17,30204.795
1215359.6485639128,-44939.656,-66581.625,17787.273,9759.359,-18675.74,-10896.525,-38083.54,30218.588
1215359.6525639077,-44942.02,-66578.01,17782.512,9754.883,-18670.613,-10903.769,-38088.38,30206.543
1215359.6565639023,-44945.76,-66586.1,17774.21,9747.803,-18671.754,-10914.267,-38089.805,30194.092
1215359.660563897,-44939.453,-66589.234,17772.746,9745.524,-18668.986,-10916.22,-38091.31,30181.64
1215359.6645638917,-44941.406,-66592.77,17774.658,9749.268,-18669.557,-10911.703,-38091.555,30188.438
1215359.6685638863,-44941.977,-66599.41,17776.123,9751.465,-18669.557,-10908.773,-38090.414,30202.76
1215359.6725638811,-44943.93,-66599.98,17773.56,9749.756,-18672.445,-10912.72,-38088.867,30207.56
1215359.6765638757,-44949.504,-66591.96,17766.48,9744.019,-18676.514,-10923.503,-38091.105,30199.627
1215359.6805638704,-44946.168,-66590.25,17763.143,9744.995,-18675.74,-10922.7295,-38092.69,30192.18
1215359.6845638652,-44947.47,-66591.48,17762.818,9750.204,-18666.586,-10915.609,-38092.816,30192.953
1215359.6885638598,-44947.797,-66598.836,17762.898,9750.937,-18666.748,-10914.348,-38094.973,30194.256
1215359.6925638546,-44951.703,-66616.17,17762.207,9747.966,-18665.406,-10921.591,-38093.305,30195.965
1215359.6965638492,-44951.05,-66601.16,17759.156,9740.845,-18674.072,-10930.136,-38093.426,30182.617
1215359.7005638438,-44952.56,-66597.45,17757.406,9743.164,-18674.154,-10929.647,-38092.41,30186.605
1215359.7045638387,-44949.992,-66596.56,17762.654,9748.82,-18669.027,-10921.875,-38093.75,30190.512
1215359.7085638333,-44940.105,-66588.99,17763.55,9751.018,-18666.057,-10916.423,-38096.438,30192.912
1215359.712563828,-44948.57,-66588.99,17762.98,9747.681,-18665.162,-10919.312,-38095.38,30199.545
1215359.7165638227,-44952.56,-66598.19,17759.156,9742.554,-18674.56,-10929.362,-38095.99,30187.379
1215359.7205638173,-44950.32,-66599.53,17758.465,9744.589,-18671.51,-10930.664,-38098.633,30174.766
1215359.7245638121,-44950.277,-66611.58,17760.05,9748.21,-18672.648,-10925.131,-38100.26,30174.928
1215359.7285638067,-44949.91,-66603.64,17762.33,9751.343,-18671.957,-10922.323,-38101.117,30181.967
1215359.7325638016,-44947.31,-66588.09,17761.883,9750.57,-18670.29,-10924.235,-38099.12,30188.03
1215359.7365637962,-44950.117,-66593.51,17763.592,9746.664,-18667.684,-10930.258,-38097.535,30179.893
1215359.7405637908,-44950.727,-66602.17,17763.713,9748.047,-18662.273,-10924.5205,-38099.812,30171.062
1215359.7445637856,-44949.79,-66587.69,17762.166,9754.028,-18646.281,-10912.842,-38097.496,30185.385
1215359.7485637802,-44948.285,-66574.875,17758.912,9753.093,-18649.496,-10910.808,-38093.875,30199.383
1215359.7525637748,-44945.312,-66577.03,17758.912,9749.797,-18653.729,-10917.521,-38093.02,30201.58
1215359.7565637697,-44949.547,-66590.414,17757.162,9744.223,-18659.912,-10926.188,-38090.09,30196.33
1215359.7605637643,-44953.168,-66587.98,17756.674,9747.437,-18653.523,-10923.015,-38091.473,30185.385
1215359.764563759,-44941.367,-66585.21,17759.848,9755.412,-18637.818,-10914.022,-38091.31,30185.67
1215359.7685637537,-44935.59,-66583.74,17760.742,9758.83,-18644.775,-10909.709,-38091.105,30196.656
1215359.7725637483,-44928.02,-66586.75,17761.678,9758.139,-18645.59,-10913.778,-38093.63,30191.123
1215359.7765637431,-44930.055,-66596.72,17760.986,9750.732,-18653.443,-10920.898,-38091.51,30185.059
1215359.7805637377,-44931.316,-66600.51,17760.05,9751.75,-18660.035,-10920.695,-38090.984,30179.893
1215359.7845637326,-44931.234,-66574.875,17763.428,9758.911,-18650.676,-10912.395,-38093.18,30184.45
1215359.7885637272,-44930.38,-66583.82,17764.812,9761.719,-18649.334,-10908.773,-38091.96,30195.72
1215359.7925637218,-44934.207,-66586.95,17760.865,9757.528,-18651.408,-10911.499,-38087.89,30207.154
1215359.7965637166,-44944.05,-66572.15,17756.268,9748.21,-18658.447,-10915.854,-38087.16,30200.807
1215359.8005637112,-44945.438,-66574.016,17757.527,9748.169,-18665.121,-10914.185,-38088.46,30197.51
1215359.804563706,-44933.23,-66580.484,17758.465,9755.737,-18666.139,-10905.355,-38092.125,30192.506
1215359.8085637006,-44926.72,-66581.914,17759.36,9756.511,-18657.47,-10903.442,-38093.305,30198.568
1215359.8125636952,-44931.316,-66581.51,17759.93,9753.337,-18658.814,-10904.257,-38090.25,30195.883
1215359.81656369,-44944.54,-66591.72,17754.559,9745.81,-18662.924,-10912.231,-38090.25,30180.42
1215359.8205636847,-44942.383,-66597.78,17752.197,9748.169,-18662.273,-10910.727,-38091.51,30177.451
1215359.8245636793,-44940.35,-66591.27,17754.436,9754.802,-18657.105,-10902.792,-38091.39,30189.861
1215359.8285636741,-44938.805,-66595.625,17758.912,9756.999,-18657.186,-10898.315,-38089.684,30200.562
1215359.8325636687,-44934.938,-66596.516,17761.23,9754.965,-18661.906,-10897.177,-38085.816,30202.354
1215359.8365636636,-44946.777,-66608.85,17755.535,9748.983,-18664.43,-10902.588,-38082.52,30195.03
1215359.8405636582,-44949.344,-66592.66,17754.924,9750.448,-18659.709,-10902.304,-38082.926,30190.39
1215359.8445636528,-44950.36,-66582.56,17755.697,9757.568,-18658.203,-10897.705,-38082.723,30199.342
1215359.8485636476,-44930.664,-66589.64,17757.691,9760.702,-18655.64,-10898.071,-38085.004,30198.527
1215359.8525636422,-44930.95,-66590.54,17757.162,9759.074,-18651.814,-10902.263,-38087.32,30199.748
1215359.856563637,-44938.844,-66591.39,17756.918,9754.68,-18655.232,-10907.471,-38086.996,30189.941
1215359.8605636316,-44937.785,-66584.64,17756.104,9755.209,-18660.115,-10902.548,-38089.438,30175.537
1215359.8645636262,-44934.285,-66585.9,17758.586,9760.295,-18661.785,-10896.362,-38089.684,30185.344
1215359.868563621,-44940.676,-66594.81,17759.277,9762.533,-18659.139,-10892.904,-38086.508,30201.54
1215359.8725636157,-44940.27,-66595.016,17759.115,9759.196,-18665.447,-10892.578,-38085.652,30200.4
1215359.8765636105,-44941.773,-66589.64,17759.236,9754.883,-18666.748,-10897.543,-38080.77,30197.918
1215359.880563605,-44944.133,-66596.766,17758.871,9754.761,-18661.621,-10894.572,-38082.52,30183.473
1215359.8845635997,-44938.887,-66589.52,17761.557,9760.986,-18654.379,-10889.323,-38084.598,30188.355
1215359.8885635945,-44934.164,-66576.58,17762.98,9763.55,-18654.012,-10884.807,-38079.508,30209.434
1215359.8925635892,-44934.246,-66592.33,17762.207,9760.905,-18655.64,-10886.435,-38076.62,30218.1
1215359.8965635838,-44931.723,-66608.766,17760.58,9756.389,-18656.697,-10893.188,-38077.273,30206.463
1215359.9005635786,-44933.473,-66585.734,17761.15,9757.08,-18647.828,-10895.874,-38081.34,30192.1
1215359.9045635732,-44934.043,-66570.03,17762.98,9762.289,-18649.537,-10890.544,-38086.344,30186.605
1215359.908563568,-44930.586,-66573.164,17765.422,9765.137,-18650.758,-10885.173,-38088.625,30184.775
1215359.9125635626,-44926.35,-66587.2,17763.63,9762.207,-18655.07,-10886.719,-38083.984,30199.26
1215359.9165635572,-44935.26,-66597.375,17758.748,9754.843,-18659.262,-10894.206,-38081.504,30189.17
1215359.920563552,-44937.055,-66592.53,17758.504,9756.836,-18656.129,-10892.822,-38080.484,30184.002
1215359.9245635467,-44935.387,-66579.02,17761.312,9763.225,-18652.71,-10882.284,-38080.73,30196.086
1215359.9285635415,-44938.723,-66578.66,17762.33,9765.991,-18655.232,-10878.703,-38080.73,30207.154
1215359.932563536,-44934.816,-66588.14,17761.963,9762.98,-18655.64,-10885.58,-38082.6,30201.133
1215359.9365635307,-44933.96,-66581.305,17759.848,9758.667,-18660.4,-10895.061,-38084.312,30182.496
1215359.9405635255,-44942.793,-66583.82,17758.627,9758.749,-18661.621,-10892.904,-38085.734,30180.502
1215359.9445635201,-44938.887,-66580.28,17762.86,9767.497,-18651.123,-10883.586,-38084.27,30187.297
1215359.948563515,-44934.125,-66571.29,17763.51,9771.24,-18648.396,-10883.261,-38079.918,30206.584
1215359.9525635096,-44924.645,-66586.266,17762.695,9766.5205,-18650.92,-10887.492,-38079.67,30214.885
1215359.9565635042,-44932.78,-66583.91,17760.295,9760.092,-18658.041,-10893.2705,-38079.305,30197.43
1215359.960563499,-44933.105,-66565.43,17759.36,9758.871,-18657.227,-10887.817,-38075.848,30189.291
1215359.9645634936,-44926.19,-66562.18,17761.557,9762.492,-18647.42,-10879.802,-38071.656,30209.799
1215359.9685634882,-44922.0,-66565.68,17763.387,9766.195,-18644.084,-10878.947,-38070.23,30220.623
1215359.972563483,-44922.934,-66576.945,17764.73,9765.503,-18647.42,-10886.23,-38069.99,30215.74
1215359.9765634777,-44928.957,-66565.59,17765.584,9762.004,-18649.334,-10895.508,-38072.47,30198.895
1215359.9805634725,-44930.95,-66547.24,17764.527,9765.137,-18647.502,-10894.653,-38072.348,30202.068
1215359.984563467,-44919.395,-66550.984,17764.648,9768.718,-18647.217,-10886.271,-38069.133,30225.018
1215359.9885634617,-44921.957,-66551.68,17767.498,9772.38,-18643.148,-10880.981,-38074.016,30213.014
1215359.9925634565,-44918.457,-66561.85,17765.34,9770.468,-18645.305,-10884.766,-38077.23,30209.922
1215359.9965634511,-44918.66,-66569.91,17762.41,9764.16,-18647.096,-10894.043,-38073.812,30206.055
1215360.000563446,-44922.85,-66573.164,17761.598,9765.341,-18644.695,-10895.02,-38074.3,30197.836
1215360.0045634406,-44919.76,-66571.29,17766.236,9771.037,-18643.922,-10884.644,-38073.445,30207.031
1215360.0085634352,-44918.703,-66552.984,17768.555,9774.13,-18644.49,-10881.186,-38071.86,30215.781
1215360.01256343,-44924.887,-66559.2,17768.23,9772.055,-18645.71,-10881.877,-38071.13,30210.654
1215360.0165634246,-44931.074,-66572.35,17765.34,9763.713,-18651.775,-10888.916,-38069.336,30201.865
1215360.0205634194,-44930.504,-66578.33,17764.934,9764.689,-18655.152,-10889.079,-38068.24,30205.078
1215360.024563414,-44926.434,-66583.82,17768.596,9772.624,-18647.502,-10882.528,-38068.973,30214.56
1215360.0285634086,-44923.42,-66569.91,17772.137,9772.665,-18641.033,-10877.849,-38070.11,30213.746
1215360.0325634035,-44924.684,-66564.21,17774.008,9769.857,-18641.969,-10879.558,-38071.047,30209.514
1215360.036563398,-44935.996,-66571.375,17771.77,9761.923,-18645.549,-10885.336,-38069.05,30212.729
1215360.0405633927,-44930.504,-66574.305,17767.578,9763.347,-18644.207,-10882.895,-38074.344,30191.773
1215360.0445633875,-44925.703,-66575.4,17768.799,9770.956,-18642.01,-10876.465,-38078.29,30187.623
1215360.0485633821,-44925.984,-66586.266,17770.305,9770.549,-18647.664,-10873.413,-38080.61,30201.783
1215360.052563377,-44936.566,-66572.02,17763.795,9763.306,-18657.105,-10877.035,-38078.98,30208.781
1215360.0565633716,-44945.598,-66579.59,17755.941,9756.145,-18668.213,-10888.306,-38082.277,30179.404
1215360.0605633662,-44946.37,-66597.78,17753.662,9757.528,-18665.73,-10884.97,-38084.88,30159.14
1215360.064563361,-44946.777,-66594.81,17754.436,9761.475,-18660.035,-10874.838,-38082.316,30171.387
1215360.0685633556,-44949.465,-66590.945,17753.662,9763.632,-18658.488,-10874.268,-38085.086,30177.898
1215360.0725633504,-44953.25,-66598.67,17752.645,9761.068,-18658.65,-10875.448,-38083.008,30182.252
1215360.076563345,-44958.21,-66601.81,17747.03,9756.308,-18662.557,-10884.033,-38081.016,30169.23
1215360.0805633396,-44964.723,-66606.33,17746.908,9757.935,-18662.15,-10884.237,-38082.277,30159.22
1215360.0845633345,-44964.07,-66611.66,17751.1,9762.899,-18656.658,-10877.116,-38087.242,30156.129
1215360.088563329,-44962.242,-66612.96,17748.455,9765.788,-18650.35,-10875.692,-38088.582,30163.291
1215360.092563324,-44967.49,-66616.74,17743.002,9762.573,-18655.314,-10878.378,-38088.176,30170.777
1215360.0965633185,-44968.75,-66620.12,17739.746,9756.43,-18659.139,-10882.69,-38085.777,30168.986
1215360.100563313,-44970.258,-66622.805,17739.217,9760.051,-18659.139,-10881.511,-38085.695,30164.023
1215360.104563308,-44967.125,-66617.72,17741.74,9765.625,-18654.785,-10876.099,-38093.02,30155.682
1215360.1085633026,-44961.508,-66621.7,17743.084,9767.294,-18655.03,-10872.844,-38092.855,30165.121
1215360.1125632972,-44964.844,-66626.99,17742.432,9763.754,-18656.414,-10875.407,-38093.02,30169.598
1215360.116563292,-44970.543,-66617.64,17740.113,9756.714,-18654.867,-10883.098,-38093.793,30153.646
1215360.1205632866,-44974.203,-66598.31,17741.822,9759.97,-18655.559,-10881.958,-38095.38,30145.834
1215360.1245632814,-44968.06,-66590.336,17745.809,9767.253,-18650.514,-10875.937,-38093.14,30160.117
1215360.128563276,-44965.457,-66593.305,17746.135,9767.904,-18648.723,-10872.152,-38085.734,30187.256
1215360.1325632706,-44968.914,-66602.83,17747.273,9764.201,-18653.117,-10874.634,-38085.816,30170.818
1215360.1365632655,-44972.453,-66621.016,17747.314,9759.644,-18665.61,-10881.104,-38085.98,30142.66
1215360.14056326,-44968.67,-66607.71,17748.373,9762.533,-18668.58,-10879.639,-38079.02,30151.287
1215360.144563255,-44959.96,-66595.016,17753.256,9769.247,-18658.732,-10869.019,-38077.555,30163.818
1215360.1485632495,-44951.945,-66595.016,17753.377,9772.177,-18651.367,-10864.502,-38076.62,30174.969
1215360.152563244,-44947.55,-66593.79,17751.506,9766.846,-18653.402,-10866.455,-38073.773,30176.555
1215360.156563239,-44947.918,-66593.38,17752.809,9763.021,-18651.57,-10872.07,-38070.152,30169.719
1215360.1605632335,-44946.086,-66604.05,17754.68,9765.829,-18649.049,-10871.542,-38065.633,30175.904
1215360.1645632284,-44941.895,-66612.51,17759.156,9770.712,-18647.99,-10865.112,-38067.098,30191.406
1215360.168563223,-44942.832,-66595.3,17760.945,9771.973,-18649.74,-10863.688,-38069.215,30195.436
1215360.1725632176,-44941.0,-66576.3,17762.777,9769.043,-18657.105,-10870.402,-38069.867,30177.246
1215360.1765632124,-44942.098,-66580.77,17760.945,9764.364,-18652.629,-10874.919,-38067.914,30170.207
1215360.180563207,-44946.94,-66593.75,17756.47,9764.975,-18653.24,-10870.402,-38065.88,30174.316
1215360.1845632016,-44945.438,-66588.18,17757.691,9769.9795,-18648.234,-10862.468,-38067.508,30178.59
1215360.1885631965,-44932.375,-66579.76,17762.574,9775.92,-18641.44,-10856.771,-38063.6,30197.877
1215360.192563191,-44933.188,-66591.27,17761.557,9773.723,-18641.44,-10862.061,-38059.45,30207.643
1215360.196563186,-44936.81,-66588.95,17757.771,9765.788,-18646.404,-10870.932,-38060.223,30189.658
1215360.2005631805,-44940.633,-66585.414,17758.748,9767.741,-18642.781,-10870.443,-38061.688,30173.463
1215360.204563175,-44928.062,-66586.8,17761.598,9774.496,-18633.26,-10865.153,-38062.137,30177.246
1215360.20856317,-44925.17,-66586.34,17766.236,9777.588,-18631.43,-10861.247,-38059.773,30196.168
1215360.2125631645,-44923.87,-66597.74,17768.678,9772.421,-18637.86,-10862.305,-38055.664,30203.574
1215360.2165631594,-44925.984,-66600.51,17764.404,9765.585,-18645.387,-10870.605,-38055.46,30192.791
1215360.220563154,-44932.17,-66577.35,17763.143,9767.334,-18652.508,-10868.002,-38057.332,30189.373
1215360.2245631486,-44931.766,-66571.05,17763.592,9773.479,-18647.908,-10861.084,-38058.31,30187.338
1215360.2285631434,-44933.92,-66573.85,17767.09,9777.182,-18642.945,-10860.596,-38057.13,30191.367
1215360.232563138,-44927.41,-66581.22,17768.27,9773.926,-18641.805,-10864.706,-38055.055,30195.883
1215360.2365631328,-44930.176,-66585.66,17766.805,9770.264,-18643.678,-10871.135,-38055.016,30188.64
1215360.2405631274,-44933.39,-66584.27,17767.701,9772.421,-18638.348,-10871.948,-38055.664,30187.705
1215360.244563122,-44928.836,-66588.14,17770.305,9779.135,-18635.174,-10865.153,-38056.113,30189.738
1215360.2485631169,-44923.992,-66588.87,17772.137,9782.593,-18635.701,-10862.915,-38057.008,30199.26
1215360.2525631115,-44928.47,-66586.1,17770.102,9779.907,-18635.986,-10866.089,-38054.973,30204.225
1215360.256563106,-44934.938,-66591.27,17766.236,9771.078,-18645.71,-10874.675,-38056.316,30187.012
1215360.260563101,-44943.402,-66601.97,17765.828,9770.264,-18646.852,-10874.634,-38057.414,30182.617
1215360.2645630955,-44939.13,-66593.47,17765.707,9774.211,-18641.195,-10863.933,-38054.73,30199.342
1215360.2685630904,-44944.746,-66586.75,17764.69,9775.065,-18644.287,-10861.898,-38054.04,30205.527
1215360.272563085,-44945.965,-66589.6,17763.795,9772.136,-18642.416,-10866.943,-38057.945,30204.754
1215360.2765630796,-44938.926,-66596.03,17764.771,9771.281,-18639.363,-10873.779,-38056.4,30206.34
1215360.2805630744,-44934.816,-66610.92,17767.62,9772.949,-18639.283,-10875.407,-38058.15,30197.998
1215360.284563069,-44928.145,-66592.98,17769.531,9777.182,-18635.865,-10872.519,-38060.344,30194.541
1215360.2885630638,-44923.18,-66583.09,17769.613,9778.931,-18635.742,-10873.617,-38059.0,30200.645
1215360.2925630584,-44917.523,-66584.19,17771.932,9777.873,-18639.975,-10875.8955,-38059.49,30198.895
1215360.296563053,-44919.76,-66595.91,17772.38,9774.252,-18640.545,-10880.412,-38059.816,30189.658
1215360.3005630479,-44927.168,-66599.41,17770.428,9774.13,-18639.69,-10880.412,-38061.2,30184.896
1215360.3045630425,-44931.195,-66583.945,17770.346,9777.548,-18630.535,-10874.105,-38064.008,30188.193
1215360.3085630373,-44926.395,-66583.78,17769.002,9775.92,-18634.889,-10871.867,-38062.746,30197.633
1215360.312563032,-44935.875,-66591.39,17763.672,9769.206,-18643.678,-10877.238,-38060.953,30204.59
1215360.3165630265,-44941.082,-66611.01,17759.033,9761.394,-18645.102,-10885.986,-38057.742,30190.47
1215360.3205630213,-44936.973,-66611.086,17758.383,9764.648,-18641.398,-10885.173,-38057.742,30185.791
1215360.324563016,-44936.77,-66596.11,17760.457,9770.142,-18641.602,-10876.628,-38054.04,30212.973
1215360.3285630106,-44938.4,-66595.83,17760.418,9771.77,-18642.254,-10873.861,-38053.062,30219.85
1215360.3325630054,-44932.05,-66599.61,17757.283,9767.66,-18646.2,-10879.477,-38051.598,30213.543
1215360.336563,-44932.496,-66610.76,17754.03,9759.726,-18652.344,-10887.004,-38049.723,30206.016
1215360.3405629948,-44934.98,-66600.836,17752.117,9759.359,-18652.914,-10889.16,-38049.887,30204.225
1215360.3445629894,-44935.184,-66583.74,17750.855,9765.747,-18648.64,-10883.545,-38050.17,30208.293
1215360.348562984,-44934.98,-66585.164,17747.518,9767.863,-18645.467,-10882.406,-38051.8,30212.443
1215360.3525629789,-44935.63,-66603.03,17744.752,9764.323,-18645.834,-10888.347,-38050.66,30225.953
1215360.3565629735,-44943.484,-66612.14,17743.938,9757.528,-18649.129,-10898.071,-38048.91,30227.824
1215360.3605629683,-44934.938,-66604.45,17744.06,9757.8125,-18649.455,-10898.682,-38052.734,30208.09
1215360.364562963,-44922.566,-66606.37,17745.32,9764.689,-18647.137,-10894.247,-38057.008,30195.03
1215360.3685629575,-44923.586,-66602.664,17744.508,9767.375,-18643.922,-10891.073,-38053.996,30213.055
1215360.3725629523,-44935.547,-66595.664,17741.537,9760.62,-18646.484,-10896.851,-38050.863,30213.664
1215360.376562947,-44938.926,-66603.15,17741.822,9755.127,-18647.908,-10902.954,-38049.562,30194.418
1215360.3805629418,-44933.473,-66609.5,17742.596,9756.552,-18650.35,-10901.978,-38049.03,30199.951
1215360.3845629364,-44929.934,-66614.95,17744.1,9763.144,-18648.152,-10892.416,-38046.305,30216.594
1215360.388562931,-44928.875,-66611.695,17744.14,9765.788,-18648.967,-10888.713,-38047.445,30214.805
1215360.3925629258,-44932.496,-66623.74,17741.293,9763.754,-18650.229,-10886.271,-38039.023,30234.213
1215360.3965629204,-44935.508,-66608.36,17737.06,9757.65,-18667.236,-10892.497,-38039.31,30216.797
1215360.400562915,-44939.617,-66605.47,17736.043,9755.9,-18653.443,-10895.671,-38042.562,30205.445
1215360.4045629099,-44935.1,-66611.9,17739.38,9762.858,-18640.992,-10891.276,-38049.766,30199.26
1215360.4085629045,-44940.023,-66613.12,17737.63,9765.381,-18647.99,-10887.411,-38049.684,30203.777
1215360.4125628993,-44940.918,-66615.56,17735.434,9760.946,-18652.385,-10890.544,-38046.918,30209.066
1215360.416562894,-44947.266,-66621.13,17733.236,9756.714,-18653.035,-10895.793,-38044.395,30196.9
1215360.4205628885,-44947.55,-66632.695,17734.254,9758.464,-18646.688,-10892.456,-38045.492,30195.842
1215360.4245628833,-44939.21,-66630.086,17737.752,9763.957,-18641.398,-10885.783,-38047.69,30202.719
1215360.428562878,-44933.797,-66621.016,17739.787,9764.323,-18644.857,-10883.911,-38046.348,30216.064
1215360.4325628728,-44935.832,-66626.14,17740.602,9762.37,-18658.285,-10887.533,-38047.61,30212.973
1215360.4365628674,-44942.426,-66630.695,17738.729,9757.202,-18664.47,-10897.705,-38046.59,30202.76
1215360.440562862,-44948.69,-66634.69,17732.219,9758.952,-18660.645,-10895.386,-38044.312,30211.143
1215360.4445628568,-44946.004,-66640.26,17736.94,9765.991,-18651.205,-10886.963,-38049.766,30193.238
1215360.4485628514,-44939.7,-66627.445,17741.781,9770.834,-18647.096,-10884.97,-38053.266,30187.135
1215360.4525628462,-44937.42,-66616.05,17742.555,9769.531,-18646.281,-10889.445,-38053.062,30198.203
1215360.4565628408,-44933.27,-66609.984,17740.398,9763.144,-18648.031,-10894.206,-38051.883,30195.8
1215360.4605628354,-44937.38,-66609.3,17742.635,9765.91,-18635.254,-10890.178,-38047.69,30201.54
1215360.4645628303,-44930.22,-66618.98,17748.414,9773.315,-18638.51,-10883.261,-38046.227,30208.09
1215360.468562825,-44928.184,-66606.85,17749.959,9775.595,-18637.574,-10882.8125,-38046.67,30210.41
1215360.4725628195,-44931.438,-66604.9,17747.03,9773.031,-18630.453,-10884.888,-38046.062,30212.158
1215360.4765628143,-44935.223,-66614.664,17742.107,9767.904,-18634.197,-10889.12,-38045.695,30199.83
1215360.480562809,-44939.78,-66615.32,17740.764,9767.782,-18640.422,-10889.242,-38049.156,30181.723
1215360.4845628038,-44931.113,-66612.43,17746.42,9773.804,-18632.324,-10880.819,-38046.227,30195.842
1215360.4885627984,-44922.85,-66605.06,17750.814,9779.094,-18628.215,-10878.296,-38045.695,30210.246
1215360.492562793,-44931.113,-66605.59,17749.959,9775.635,-18633.383,-10884.5625,-38048.79,30202.068
1215360.4965627878,-44940.27,-66613.0,17747.559,9768.596,-18633.748,-10888.713,-38043.703,30199.707
1215360.5005627824,-44939.414,-66618.37,17743.734,9770.59,-18632.771,-10883.545,-38040.527,30202.557
1215360.5045627772,-44934.734,-66621.99,17748.129,9777.873,-18630.78,-10873.291,-38041.18,30204.795
1215360.5085627718,-44922.0,-66600.47,17751.547,9780.192,-18629.273,-10869.101,-38044.883,30212.566
1215360.5125627664,-44925.984,-66593.305,17747.885,9776.449,-18620.484,-10873.088,-38046.55,30212.852
1215360.5165627613,-44931.4,-66608.56,17744.264,9770.956,-18607.87,-10878.825,-38044.883,30193.848
1215360.5205627559,-44931.684,-66616.13,17742.025,9771.566,-18628.338,-10878.378,-38041.586,30204.957
1215360.5245627507,-44928.996,-66601.6,17745.484,9777.548,-18627.035,-10871.908,-38038.98,30222.494
1215360.5285627453,-44925.375,-66601.24,17746.908,9778.076,-18624.188,-10867.92,-38043.457,30214.682
1215360.53256274,-44926.8,-66597.62,17748.17,9776.001,-18626.668,-10870.646,-38048.953,30192.22
1215360.5365627347,-44936.08,-66601.6,17748.291,9772.055,-18630.25,-10877.523,-38047.77,30182.334
1215360.5405627294,-44929.527,-66600.305,17750.041,9774.577,-18623.21,-10875.122,-38045.94,30186.2
1215360.544562724,-44924.36,-66595.87,17756.104,9780.437,-18607.137,-10865.967,-38045.33,30200.562
