timestamp,Fp1,Fp2,F3,Fz,F4,Cz,Pz,Oz
1398894.3810761655,-88609.26,-82471.97,-47699.465,1870.8496,-32925.78,-48970.785,-33141.848,-24234.254
1398894.38507616,-88617.234,-82484.78,-47703.816,1866.6179,-32931.97,-48970.664,-33138.633,-24228.516
1398894.3890761547,-88614.664,-82482.95,-47701.457,1871.6635,-32927.9,-48972.37,-33143.312,-24231.934
1398894.3930761493,-88622.195,-82471.48,-47702.273,1875.7732,-32924.277,-48970.746,-33144.043,-24228.232
1398894.3970761439,-88635.17,-82476.69,-47705.527,1873.2504,-32927.938,-48970.703,-33146.2,-24230.795
1398894.4010761385,-88636.56,-82483.16,-47710.652,1869.5476,-32928.1,-48971.844,-33145.633,-24228.354
1398894.405076133,-88638.35,-82484.83,-47712.973,1868.8152,-32925.21,-48970.785,-33142.09,-24221.965
1398894.4090761275,-88639.57,-82488.164,-47712.28,1871.0938,-32925.984,-48970.543,-33139.934,-24218.303
1398894.413076122,-88641.65,-82486.05,-47712.2,1873.291,-32915.082,-48970.83,-33139.324,-24217.855
1398894.4170761167,-88648.36,-82482.83,-47717.285,1869.4255,-32918.863,-48973.633,-33141.848,-24217.611
1398894.4210761113,-88650.64,-82489.71,-47722.37,1865.2344,-32933.434,-48976.117,-33144.938,-24225.75
1398894.4250761059,-88665.65,-82506.19,-47727.824,1861.6943,-32938.68,-48977.824,-33148.355,-24235.8
1398894.4290761005,-88669.516,-82509.89,-47731.73,1863.4847,-32925.17,-48979.13,-33147.22,-24224.732
1398894.433076095,-88673.14,-82507.61,-47729.777,1867.9607,-32913.453,-48978.64,-33146.61,-24222.453
1398894.4370760894,-88682.13,-82505.91,-47730.39,1866.2517,-32928.836,-48975.586,-33144.004,-24223.47
1398894.441076084,-88674.36,-82508.836,-47729.37,1862.7117,-32930.95,-48973.066,-33140.465,-24227.459
1398894.4450760786,-88679.2,-82515.83,-47733.727,1860.433,-32936.035,-48973.348,-33138.715,-24224.732
1398894.4490760732,-88680.914,-82514.98,-47728.68,1865.6006,-32925.984,-48973.066,-33139.73,-24227.133
1398894.4530760678,-88682.05,-82509.93,-47726.277,1866.4144,-32921.1,-48974.12,-33140.625,-24220.053
1398894.4570760624,-88682.01,-82505.336,-47725.3,1863.6068,-32924.074,-48973.227,-33138.715,-24214.805
1398894.461076057,-88686.32,-82506.67,-47725.63,1859.782,-32931.48,-48974.895,-33136.8,-24206.787
1398894.4650760514,-88695.56,-82520.914,-47722.008,1858.9681,-32921.633,-48975.87,-33134.93,-24202.678
1398894.469076046,-88695.31,-82519.21,-47713.707,1863.5662,-32919.19,-48974.773,-33134.32,-24203.574
1398894.4730760406,-88685.55,-82504.84,-47704.754,1871.9482,-32897.91,-48973.758,-33136.68,-24211.346
1398894.4770760352,-88676.805,-82499.76,-47699.547,1872.7214,-32885.99,-48970.38,-33129.438,-24198.406
1398894.4810760298,-88677.66,-82495.445,-47695.477,1866.6586,-32901.45,-48967.613,-33119.957,-24187.053
1398894.4850760244,-88682.62,-82503.09,-47695.56,1865.2751,-32902.305,-48966.434,-33117.88,-24187.338
1398894.489076019,-88687.625,-82502.08,-47692.953,1869.1814,-32891.195,-48966.23,-33120.566,-24196.412
1398894.4930760134,-88688.52,-82498.414,-47689.453,1873.1283,-32880.574,-48967.33,-33123.25,-24198.08
1398894.497076008,-88686.57,-82493.164,-47686.28,1872.0297,-32875.938,-48967.938,-33122.03,-24191.611
1398894.5010760026,-88692.016,-82499.8,-47687.38,1867.9607,-32879.19,-48967.49,-33117.188,-24181.56
1398894.5050759972,-88693.81,-82507.81,-47687.746,1865.4785,-32887.74,-48969.727,-33115.48,-24176.922
1398894.5090759918,-88694.91,-82510.375,-47685.305,1867.9199,-32877.484,-48971.926,-33116.824,-24176.066
1398894.5130759864,-88690.836,-82503.664,-47681.074,1873.2504,-32871.582,-48973.758,-33122.438,-24186.24
1398894.517075981,-88690.23,-82496.586,-47682.78,1871.5007,-32866.496,-48974.773,-33126.305,-24185.14
1398894.5210759754,-88693.2,-82499.96,-47686.117,1867.0654,-32874.105,-48972.94,-33123.66,-24179.281
1398894.52507597,-88700.805,-82508.67,-47688.723,1865.1531,-32873.82,-48971.395,-33121.625,-24175.01
1398894.5290759646,-88702.72,-82507.695,-47687.99,1868.6117,-32866.457,-48970.5,-33123.13,-24182.293
1398894.5330759592,-88692.875,-82497.805,-47685.914,1873.9014,-32851.2,-48970.297,-33125.613,-24191.162
1398894.5370759538,-88689.86,-82493.45,-47685.426,1872.3552,-32851.32,-48970.094,-33124.227,-24186.28
1398894.5410759484,-88689.414,-82492.31,-47685.996,1868.8558,-32865.887,-48970.297,-33122.477,-24182.455
1398894.545075943,-88696.945,-82500.164,-47690.797,1865.8855,-32866.496,-48972.984,-33124.227,-24177.695
1398894.5490759374,-88698.24,-82502.2,-47692.344,1870.4427,-32855.266,-48976.81,-33132.895,-24194.377
1398894.553075932,-88693.89,-82489.99,-47690.918,1876.2207,-32843.02,-48975.586,-33135.01,-24202.23
1398894.5570759266,-88687.625,-82480.305,-47689.656,1875.407,-32836.387,-48972.94,-33135.01,-24203.857
1398894.5610759212,-88693.73,-82489.016,-47694.95,1869.7103,-32847.168,-48974.164,-33137.047,-24206.584
1398894.5650759158,-88702.44,-82499.555,-47694.746,1867.5945,-32858.074,-48975.953,-33138.1,-24202.76
1398894.5690759104,-88708.58,-82504.27,-47698.12,1868.1641,-32857.625,-48978.19,-33141.24,-24199.912
1398894.573075905,-88707.484,-82502.32,-47697.715,1871.3787,-32861.777,-48978.72,-33145.184,-24204.266
1398894.5770758993,-88703.62,-82492.72,-47697.51,1869.751,-32848.55,-48980.39,-33145.996,-24215.129
1398894.581075894,-88702.76,-82496.14,-47699.06,1865.1531,-32848.145,-48981.445,-33146.445,-24220.42
1398894.5850758885,-88704.76,-82506.06,-47702.84,1866.4144,-32854.047,-48981.49,-33148.48,-24221.436
1398894.5890758832,-88707.484,-82509.195,-47701.297,1870.1172,-32850.63,-48980.67,-33146.934,-24218.059
1398894.5930758778,-88706.71,-82501.51,-47699.18,1874.349,-32837.688,-48980.39,-33146.402,-24209.88
1398894.5970758724,-88709.15,-82498.7,-47699.098,1873.8201,-32838.95,-48976.973,-33138.55,-24199.18
1398894.6010758667,-88712.04,-82499.63,-47701.906,1868.6117,-32847.7,-48977.094,-33138.43,-24196.25
1398894.6050758613,-88715.91,-82511.234,-47706.992,1864.9902,-32857.586,-48980.348,-33144.574,-24204.266
1398894.609075856,-88718.305,-82515.51,-47710.53,1867.9199,-32854.047,-48978.11,-33142.703,-24197.633
1398894.6130758505,-88715.17,-82503.336,-47711.426,1871.6635,-32838.094,-48974.977,-33141.277,-24197.836
1398894.6170758451,-88712.65,-82498.01,-47713.746,1870.4427,-32833.336,-48972.25,-33139.08,-24201.254
1398894.6210758397,-88716.88,-82506.39,-47719.363,1866.8213,-32844.24,-48971.477,-33134.523,-24192.668
1398894.6250758343,-88722.01,-82515.38,-47722.58,1866.6586,-32845.906,-48972.414,-33132.0,-24185.344
1398894.6290758287,-88724.125,-82513.67,-47721.395,1870.2393,-32838.34,-48972.414,-33128.094,-24179.281
1398894.6330758233,-88720.38,-82503.5,-47717.41,1876.18,-32836.14,-48971.395,-33129.312,-24182.74
1398894.637075818,-88717.37,-82500.77,-47716.72,1874.3083,-32833.742,-48970.95,-33128.336,-24182.455
1398894.6410758125,-88724.125,-82507.125,-47718.996,1869.0593,-32846.965,-48971.844,-33127.645,-24181.193
1398894.645075807,-88741.13,-82529.22,-47727.336,1862.915,-32857.75,-48973.555,-33128.336,-24182.578
1398894.6490758017,-88748.62,-82539.02,-47733.44,1864.4613,-32856.977,-48972.74,-33129.477,-24186.646
1398894.6530757963,-88728.88,-82512.78,-47729.535,1871.3787,-32841.84,-48973.023,-33130.777,-24189.78
1398894.6570757907,-88724.45,-82506.92,-47731.57,1869.3035,-32845.703,-48972.617,-33128.5,-24185.629
1398894.6610757853,-88743.25,-82528.37,-47739.504,1861.613,-32849.977,-48970.83,-33123.902,-24179.893
1398894.66507578,-88757.86,-82544.6,-47745.04,1860.1482,-32849.734,-48971.113,-33123.21,-24176.84
1398894.6690757745,-88764.08,-82546.1,-47748.008,1864.3799,-32844.93,-48971.234,-33123.78,-24175.293
1398894.673075769,-88759.24,-82538.414,-47746.137,1868.3269,-32838.094,-48968.06,-33120.523,-24170.86
1398894.6770757637,-88759.52,-82535.69,-47749.27,1864.0544,-32837.16,-48967.57,-33117.637,-24163.982
1398894.6810757583,-88767.91,-82538.21,-47754.805,1859.6599,-32849.367,-48968.67,-33116.293,-24158.53
1398894.6850757527,-88775.31,-82548.18,-47757.45,1858.4392,-32856.61,-48969.973,-33113.65,-24143.352
1398894.6890757473,-88778.65,-82552.984,-47757.164,1860.5144,-32838.582,-48970.83,-33117.027,-24152.02
1398894.6930757419,-88776.0,-82543.83,-47756.227,1864.624,-32826.742,-48971.6,-33124.715,-24179.16
1398894.6970757365,-88771.94,-82533.9,-47755.168,1863.973,-32839.844,-48974.367,-33131.348,-24187.826
1398894.701075731,-88770.39,-82530.36,-47752.77,1860.5957,-32852.176,-48974.367,-33126.547,-24177.41
1398894.7050757257,-88765.914,-82536.26,-47749.39,1861.8978,-32852.867,-48974.53,-33125.164,-24174.236
1398894.7090757203,-88767.375,-82536.7,-47750.734,1865.2344,-32847.496,-48974.203,-33125.367,-24168.906
1398894.7130757147,-88765.875,-82529.38,-47750.816,1866.333,-32840.008,-48975.914,-33127.44,-24168.457
1398894.7170757093,-88763.516,-82521.24,-47750.082,1864.5427,-32836.062,-48974.324,-33124.84,-24164.307
1398894.7210757039,-88765.22,-82520.836,-47751.223,1860.1074,-32841.227,-48973.96,-33124.27,-24172.242
1398894.7250756985,-88769.21,-82529.26,-47754.234,1857.7474,-32845.785,-48975.914,-33126.305,-24178.467
1398894.729075693,-88776.53,-82530.44,-47755.656,1861.2468,-32840.945,-48974.164,-33120.85,-24167.93
1398894.7330756877,-88771.445,-82520.71,-47753.95,1863.4441,-32830.812,-48973.39,-33115.723,-24159.953
1398894.7370756823,-88769.21,-82519.86,-47750.652,1861.2875,-32830.242,-48971.76,-33109.5,-24154.705
1398894.7410756766,-88771.24,-82530.97,-47752.363,1856.1199,-32843.508,-48972.414,-33108.44,-24148.602
1398894.7450756712,-88776.0,-82534.43,-47754.805,1855.9164,-32855.754,-48972.656,-33108.074,-24146.201
1398894.7490756658,-88774.62,-82532.23,-47752.523,1861.6943,-32857.547,-48973.594,-33110.066,-24151.938
1398894.7530756604,-88773.84,-82530.93,-47753.258,1864.7869,-32826.215,-48972.09,-33108.24,-24152.629
1398894.757075655,-88772.46,-82522.95,-47755.535,1862.915,-32812.99,-48970.99,-33108.766,-24157.268
1398894.7610756496,-88772.87,-82524.01,-47760.5,1857.5847,-32836.387,-48971.723,-33109.418,-24165.406
1398894.7650756442,-88779.5,-82529.586,-47764.73,1854.3701,-32847.37,-48970.99,-33102.906,-24155.926
1398894.7690756386,-88780.56,-82537.97,-47764.527,1857.2592,-32845.746,-48971.113,-33099.45,-24141.236
1398894.7730756332,-88779.91,-82535.56,-47762.656,1860.5957,-32839.926,-48970.176,-33097.21,-24136.842
1398894.7770756278,-88779.38,-82532.02,-47760.5,1860.5144,-32847.74,-48967.33,-33093.02,-24126.75
1398894.7810756224,-88780.52,-82533.81,-47763.715,1857.0557,-32859.54,-48968.426,-33091.15,-24122.275
1398894.785075617,-88782.31,-82543.78,-47769.734,1856.9336,-32860.395,-48970.746,-33091.758,-24128.5
1398894.7890756116,-88781.82,-82539.43,-47768.637,1861.084,-32848.188,-48969.93,-33090.008,-24123.576
1398894.793075606,-88771.04,-82526.82,-47763.633,1864.8682,-32843.996,-48967.977,-33090.25,-24128.703
1398894.7970756006,-88768.555,-82520.43,-47764.242,1865.2344,-32840.25,-48969.605,-33094.484,-24135.133
1398894.8010755952,-88772.95,-82520.02,-47766.074,1860.1888,-32849.0,-48969.523,-33092.33,-24133.342
1398894.8050755898,-88776.29,-82526.94,-47769.246,1859.2937,-32857.953,-48972.25,-33099.203,-24152.467
1398894.8090755844,-88781.21,-82532.23,-47770.836,1863.6882,-32852.457,-48972.047,-33103.477,-24153.77
1398894.813075579,-88781.7,-82531.74,-47770.836,1866.9434,-32839.887,-48970.418,-33103.395,-24148.193
1398894.8170755736,-88777.914,-82528.52,-47770.957,1863.7289,-32837.81,-48971.926,-33104.82,-24149.62
1398894.821075568,-88779.26,-82533.0,-47773.684,1858.1136,-32852.336,-48972.86,-33103.8,-24150.676
1398894.8250755626,-88783.2,-82539.43,-47776.043,1856.2012,-32869.63,-48972.58,-33101.074,-24147.746
1398894.8290755572,-88782.76,-82538.74,-47775.312,1859.8633,-32866.78,-48971.926,-33100.016,-24147.99
1398894.8330755518,-88779.34,-82534.14,-47776.652,1862.0199,-32854.37,-48968.953,-33099.082,-24142.904
1398894.8370755464,-88781.414,-82523.97,-47780.926,1861.1248,-32852.133,-48967.977,-33097.293,-24148.234
1398894.841075541,-88789.76,-82526.53,-47785.848,1853.2715,-32862.793,-48970.625,-33100.26,-24159.588
1398894.8450755356,-88798.055,-82540.94,-47791.504,1850.6674,-32870.523,-48972.535,-33102.742,-24165.203
1398894.84907553,-88801.39,-82551.64,-47791.26,1853.6785,-32870.445,-48971.805,-33104.047,-24165.812
1398894.8530755246,-88803.266,-82552.734,-47790.082,1855.5908,-32870.117,-48972.13,-33105.715,-24166.139
1398894.8570755192,-88795.945,-82555.55,-47789.88,1852.3357,-32880.13,-48973.023,-33105.633,-24162.68
1398894.8610755138,-88798.51,-82562.5,-47796.875,1845.0521,-32890.953,-48975.586,-33107.06,-24164.795
1398894.8650755084,-88806.84,-82576.87,-47799.6,1844.157,-32898.074,-48977.297,-33110.19,-24165.283
1398894.869075503,-88810.95,-82577.27,-47802.086,1845.459,-32894.043,-48979.574,-33111.53,-24174.887
1398894.8730754976,-88810.59,-82566.04,-47803.914,1849.2839,-32878.664,-48978.844,-33110.84,-24175.537
1398894.877075492,-88809.82,-82556.805,-47803.914,1847.29,-32876.71,-48977.094,-33107.383,-24169.19
1398894.8810754865,-88810.266,-82557.01,-47803.508,1841.7156,-32887.98,-48977.05,-33104.207,-24163.615
1398894.8850754811,-88815.02,-82568.41,-47809.41,1840.9424,-32889.895,-48978.965,-33108.074,-24166.504
1398894.8890754757,-88818.61,-82580.04,-47812.176,1844.157,-32887.207,-48979.13,-33110.066,-24179.12
1398894.8930754703,-88816.33,-82574.75,-47810.14,1847.697,-32883.098,-48977.95,-33107.83,-24171.51
1398894.897075465,-88812.7,-82563.93,-47809.9,1845.866,-32883.016,-48974.203,-33101.605,-24160.076
1398894.9010754596,-88815.06,-82569.46,-47813.965,1839.3148,-32890.383,-48973.348,-33095.664,-24148.398
1398894.905075454,-88817.266,-82571.58,-47816.816,1838.7045,-32894.938,-48973.797,-33100.547,-24175.334
1398894.9090754485,-88817.836,-82563.56,-47819.703,1843.4652,-32885.457,-48972.78,-33097.25,-24168.174
1398894.9130754431,-88815.02,-82552.21,-47821.004,1844.808,-32876.87,-48971.844,-33097.86,-24170.898
1398894.9170754377,-88810.266,-82543.22,-47820.11,1841.6748,-32876.668,-48973.31,-33102.133,-24181.967
1398894.9210754323,-88808.96,-82545.78,-47820.395,1838.0127,-32890.22,-48976.562,-33105.105,-24183.514
1398894.925075427,-88813.195,-82554.164,-47823.164,1839.9658,-32893.555,-48977.906,-33105.67,-24179.932
1398894.9290754215,-88811.41,-82551.15,-47823.527,1843.9941,-32881.836,-48979.37,-33108.074,-24181.275
1398894.933075416,-88808.02,-82546.76,-47822.227,1847.697,-32871.785,-48978.477,-33107.06,-24183.514
1398894.9370754105,-88808.23,-82544.31,-47821.453,1842.9769,-32878.094,-48976.89,-33101.36,-24169.557
1398894.941075405,-88814.54,-82546.1,-47823.895,1837.1582,-32884.277,-48976.727,-33096.52,-24158.408
1398894.9450753997,-88814.91,-82550.7,-47824.06,1837.7279,-32882.938,-48975.426,-33091.594,-24156.332
1398894.9490753943,-88815.48,-82555.18,-47816.938,1839.7625,-32880.414,-48973.145,-33088.91,-24151.043
1398894.953075389,-88814.17,-82547.41,-47811.934,1843.3025,-32874.023,-48974.49,-33096.152,-24170.695
1398894.9570753835,-88815.31,-82547.484,-47810.508,1840.9424,-32873.902,-48973.715,-33098.88,-24180.99
1398894.9610753779,-88819.22,-82550.7,-47810.547,1834.0251,-32882.203,-48974.367,-33097.82,-24175.254
1398894.9650753725,-88825.766,-82556.64,-47809.125,1832.3568,-32880.777,-48976.89,-33097.535,-24176.637
1398894.969075367,-88831.875,-82566.04,-47807.457,1836.7513,-32872.355,-48978.965,-33100.098,-24176.107
1398894.9730753617,-88832.85,-82562.5,-47802.086,1839.9252,-32860.15,-48980.062,-33102.094,-24176.107
1398894.9770753563,-88831.51,-82557.945,-47797.324,1839.5183,-32858.848,-48980.918,-33102.254,-24168.662
1398894.981075351,-88830.57,-82565.88,-47794.434,1835.7341,-32863.324,-48982.22,-33102.254,-24174.766
1398894.9850753453,-88832.03,-82567.586,-47791.832,1836.0596,-32866.008,-48984.254,-33102.785,-24192.18
1398894.9890753399,-88830.33,-82560.71,-47786.785,1840.5355,-32854.492,-48984.906,-33104.004,-24184.246
1398894.9930753345,-88820.92,-82548.79,-47779.46,1844.1162,-32845.95,-48982.668,-33100.992,-24185.02
1398894.997075329,-88820.44,-82543.42,-47776.125,1842.0004,-32843.71,-48981.61,-33096.723,-24177.613
1398895.0010753237,-88825.65,-82544.84,-47775.15,1835.2458,-32851.32,-48980.715,-33094.156,-24169.883
1398895.0050753183,-88836.43,-82556.52,-47777.426,1833.8217,-32851.2,-48982.22,-33092.734,-24167.4
1398895.0090753129,-88837.77,-82565.266,-47775.758,1838.2568,-32848.633,-48982.18,-33095.34,-24176.555
1398895.0130753072,-88832.16,-82557.13,-47773.03,1842.2039,-32832.645,-48981.04,-33096.438,-24178.346
1398895.0170753018,-88824.875,-82546.23,-47768.19,1841.7969,-32826.824,-48981.69,-33100.668,-24185.914
1398895.0210752964,-88824.79,-82546.96,-47769.207,1838.501,-32826.99,-48981.242,-33098.348,-24182.902
1398895.025075291,-88828.49,-82556.84,-47772.95,1836.1003,-32835.53,-48982.465,-33095.258,-24179.2
1398895.0290752857,-88826.13,-82551.96,-47769.125,1839.1521,-32831.504,-48982.625,-33097.496,-24177.613
1398895.0330752803,-88825.766,-82539.35,-47768.516,1843.0583,-32817.87,-48981.895,-33099.04,-24186.402
1398895.0370752749,-88821.29,-82542.16,-47768.11,1841.8783,-32828.656,-48977.906,-33092.125,-24173.666
1398895.0410752692,-88829.19,-82552.94,-47773.52,1835.7341,-32833.742,-48978.598,-33084.35,-24168.783
1398895.0450752638,-88833.664,-82555.42,-47776.33,1834.7576,-32834.8,-48979.656,-33082.438,-24171.836
1398895.0490752584,-88832.36,-82551.59,-47774.13,1840.2507,-32827.8,-48978.07,-33080.406,-24174.154
1398895.053075253,-88828.82,-82541.38,-47771.28,1844.0349,-32818.688,-48974.57,-33078.29,-24173.178
1398895.0570752476,-88828.86,-82536.91,-47770.184,1842.1631,-32811.93,-48972.21,-33076.418,-24163.656
1398895.0610752422,-88834.31,-82543.625,-47774.984,1838.5824,-32820.56,-48970.582,-33075.523,-24162.273
1398895.0650752368,-88832.32,-82551.68,-47778.117,1837.7686,-32830.363,-48973.27,-33080.69,-24174.277
1398895.0690752312,-88833.26,-82547.69,-47779.094,1841.3494,-32826.906,-48976.277,-33088.176,-24188.926
1398895.0730752258,-88830.2,-82540.37,-47778.81,1846.1101,-32806.723,-48975.79,-33089.97,-24188.926
1398895.0770752204,-88829.35,-82537.195,-47779.582,1845.6218,-32804.04,-48977.094,-33090.66,-24184.002
1398895.081075215,-88833.01,-82536.336,-47782.96,1843.099,-32808.72,-48977.54,-33093.75,-24193.604
1398895.0850752096,-88836.1,-82541.266,-47784.465,1841.1459,-32816.734,-48977.094,-33090.945,-24187.176
1398895.0890752042,-88835.21,-82546.02,-47781.332,1844.3197,-32809.695,-48977.418,-33091.15,-24187.623
1398895.0930751988,-88828.734,-82537.03,-47777.47,1850.7488,-32802.164,-48977.418,-33094.32,-24197.877
1398895.0970751932,-88827.11,-82526.414,-47778.89,1851.1556,-32806.277,-48975.508,-33088.22,-24183.594
1398895.1010751878,-88831.016,-82536.74,-47785.848,1843.9128,-32813.152,-48977.867,-33090.047,-24189.941
1398895.1050751824,-88839.52,-82554.24,-47790.977,1840.332,-32821.332,-48979.902,-33090.21,-24190.43
1398895.109075177,-88842.66,-82559.45,-47795.777,1842.2852,-32818.24,-48981.73,-33095.543,-24200.684
1398895.1130751716,-88832.484,-82543.375,-47793.867,1845.4998,-32803.14,-48981.12,-33096.355,-24203.166
1398895.1170751662,-88823.41,-82529.95,-47791.586,1843.6279,-32801.676,-48978.477,-33096.19,-24202.88
1398895.1210751608,-88833.336,-82541.75,-47795.656,1836.792,-32812.137,-48976.688,-33093.832,-24196.86
1398895.1250751552,-88836.266,-82546.63,-47795.695,1836.7107,-32821.414,-48979.98,-33095.46,-24198.771
1398895.1290751498,-88833.17,-82548.79,-47795.98,1839.4369,-32825.36,-48982.707,-33098.715,-24202.719
1398895.1330751444,-88830.94,-82548.875,-47793.742,1841.5527,-32810.305,-48983.035,-33101.074,-24207.072
1398895.137075139,-88829.71,-82545.53,-47796.797,1838.9893,-32807.863,-48982.707,-33098.633,-24209.96
1398895.1410751336,-88835.086,-82549.93,-47803.793,1833.8623,-32818.402,-48980.67,-33093.02,-24197.021
1398895.1450751282,-88841.43,-82560.305,-47809.938,1831.9906,-32829.1,-48981.895,-33095.582,-24200.195
1398895.1490751228,-88842.62,-82563.27,-47809.285,1835.0017,-32819.54,-48983.074,-33100.953,-24210.898
1398895.1530751172,-88840.78,-82557.91,-47808.31,1836.792,-32810.875,-48982.832,-33101.48,-24204.55
1398895.1570751118,-88838.26,-82545.01,-47808.594,1836.4258,-32814.37,-48979.777,-33099.324,-24212.688
1398895.1610751064,-88847.17,-82554.57,-47817.832,1827.0671,-32823.855,-48980.715,-33097.574,-24210.246
1398895.165075101,-88850.18,-82559.86,-47819.05,1827.0264,-32832.438,-48981.367,-33098.797,-24214.56
1398895.1690750956,-88846.48,-82557.54,-47819.094,1831.6244,-32823.61,-48980.348,-33098.145,-24215.576
1398895.1730750902,-88844.24,-82552.984,-47816.45,1835.0424,-32803.47,-48977.215,-33095.543,-24205.893
1398895.1770750848,-88841.15,-82551.72,-47819.215,1833.5369,-32803.63,-48974.895,-33091.188,-24196.86
1398895.1810750791,-88844.445,-82553.875,-47823.445,1828.8168,-32816.61,-48976.074,-33088.016,-24192.262
1398895.1850750737,-88846.93,-82552.414,-47823.324,1830.1189,-32824.79,-48977.54,-33092.613,-24210.043
1398895.1890750683,-88841.84,-82543.91,-47819.664,1835.8562,-32818.36,-48979.004,-33095.34,-24212.566
1398895.193075063,-88842.53,-82544.195,-47818.89,1837.4023,-32811.727,-48980.918,-33098.145,-24217.814
1398895.1970750575,-88841.23,-82539.96,-47819.38,1832.3975,-32816.246,-48981.0,-33097.574,-24217.002
1398895.2010750521,-88846.64,-82541.99,-47823.445,1826.9857,-32828.004,-48979.535,-33090.17,-24202.434
1398895.2050750465,-88853.84,-82552.57,-47827.07,1823.9746,-32834.516,-48978.56,-33085.33,-24195.842
1398895.209075041,-88854.945,-82559.49,-47829.59,1829.3457,-32822.55,-48976.2,-33083.457,-24204.875
1398895.2130750357,-88855.47,-82555.55,-47829.145,1831.665,-32816.0,-48975.18,-33087.242,-24212.932
1398895.2170750303,-88853.44,-82546.59,-47828.41,1829.1016,-32822.51,-48975.79,-33088.582,-24213.055
1398895.221075025,-88853.4,-82547.24,-47827.68,1828.3285,-32823.895,-48976.81,-33087.605,-24208.416
1398895.2250750195,-88853.44,-82547.65,-47828.492,1828.0844,-32819.176,-48979.656,-33090.74,-24203.451
1398895.2290750141,-88849.61,-82546.39,-47828.25,1831.5837,-32824.26,-48979.94,-33092.652,-24204.469
1398895.2330750085,-88843.67,-82539.43,-47827.56,1835.2051,-32820.19,-48979.902,-33093.63,-24200.645
1398895.237075003,-88839.97,-82534.43,-47825.074,1832.0312,-32817.06,-48979.004,-33094.688,-24205.486
1398895.2410749977,-88852.46,-82550.21,-47830.812,1824.5037,-32836.426,-48980.348,-33093.305,-24209.96
1398895.2450749923,-88862.02,-82562.664,-47836.67,1824.4629,-32838.707,-48982.3,-33093.223,-24212.037
1398895.249074987,-88842.734,-82542.85,-47832.316,1831.2988,-32830.242,-48982.22,-33095.867,-24209.758
1398895.2530749815,-88832.28,-82534.266,-47827.23,1835.1644,-32821.25,-48980.55,-33097.21,-24210.166
1398895.257074976,-88825.73,-82523.69,-47825.48,1833.4961,-32824.707,-48980.47,-33100.18,-24221.477
1398895.2610749705,-88815.96,-82516.16,-47824.87,1829.6306,-32827.598,-48984.54,-33101.89,-24223.43
1398895.265074965,-88813.97,-82516.52,-47827.84,1829.183,-32835.246,-48987.67,-33107.06,-24228.516
1398895.2690749597,-88807.09,-82515.18,-47826.01,1835.7748,-32829.184,-48987.918,-33109.54,-24232.383
1398895.2730749543,-88790.24,-82493.21,-47821.29,1843.099,-32821.29,-48988.484,-33111.125,-24240.967
1398895.277074949,-88781.414,-82485.44,-47821.535,1840.739,-32824.383,-48990.316,-33111.492,-24247.6
1398895.2810749435,-88785.766,-82488.24,-47826.66,1834.8796,-32829.754,-48993.164,-33110.434,-24242.758
1398895.285074938,-88792.12,-82497.4,-47831.383,1831.6244,-32835.33,-48993.695,-33108.93,-24232.016
1398895.2890749325,-88788.25,-82493.98,-47829.023,1836.3851,-32819.95,-48992.312,-33112.43,-24235.922
1398895.293074927,-88787.195,-82486.53,-47826.582,1841.0645,-32808.594,-48988.69,-33109.17,-24229.371
1398895.2970749217,-88789.67,-82485.76,-47830.324,1838.908,-32816.61,-48987.47,-33105.594,-24224.61
1398895.3010749163,-88791.67,-82492.15,-47830.895,1832.9672,-32831.707,-48986.574,-33104.74,-24224.61
1398895.3050749109,-88797.37,-82506.8,-47833.133,1829.1423,-32843.06,-48986.574,-33104.207,-24222.047
1398895.3090749055,-88800.414,-82507.734,-47836.062,1831.4617,-32840.25,-48988.73,-33111.168,-24240.398
1398895.3130749,-88800.74,-82498.25,-47837.812,1834.0658,-32830.16,-48990.926,-33116.375,-24247.314
1398895.3170748944,-88798.914,-82492.555,-47838.992,1831.9906,-32829.918,-48991.742,-33117.555,-24249.229
1398895.321074889,-88803.19,-82499.43,-47842.938,1828.0029,-32838.746,-48992.8,-33117.516,-24245.566
1398895.3250748836,-88808.23,-82509.445,-47846.234,1827.7996,-32846.03,-48994.59,-33118.33,-24248.617
1398895.3290748782,-88812.38,-82516.65,-47846.844,1833.4554,-32848.145,-48994.71,-33120.16,-24245.525
1398895.3330748728,-88813.16,-82514.9,-47847.168,1836.4258,-32844.77,-48995.117,-33120.035,-24243.531
1398895.3370748674,-88811.81,-82511.64,-47845.625,1834.1472,-32847.25,-48994.1,-33118.855,-24247.885
1398895.341074862,-88814.62,-82516.03,-47846.113,1829.183,-32860.758,-48989.83,-33110.312,-24246.299
1398895.3450748564,-88818.28,-82519.49,-47851.484,1827.9623,-32853.76,-48989.34,-33106.363,-24249.717
1398895.349074851,-88814.54,-82517.984,-47852.336,1830.6885,-32850.504,-48988.566,-33108.766,-24258.586
1398895.3530748456,-88815.39,-82509.08,-47853.965,1830.4851,-32841.066,-48987.918,-33112.875,-24260.377
1398895.3570748402,-88816.164,-82503.625,-47858.727,1826.2126,-32838.95,-48988.203,-33113.08,-24256.553
1398895.3610748348,-88825.12,-82508.95,-47866.375,1820.1904,-32850.426,-48988.895,-33113.04,-24253.582
1398895.3650748294,-88829.39,-82517.54,-47866.254,1823.0388,-32856.934,-48988.28,-33110.516,-24245.89
1398895.369074824,-88823.445,-82513.92,-47862.184,1828.8574,-32838.137,-48988.73,-33111.33,-24253.906
1398895.3730748184,-88815.63,-82501.63,-47856.61,1834.4727,-32830.69,-48985.72,-33108.48,-24254.559
1398895.377074813,-88815.48,-82496.664,-47854.902,1833.1299,-32830.77,-48982.3,-33101.117,-24236.94
1398895.3810748076,-88812.83,-82497.27,-47856.61,1827.474,-32842.367,-48981.16,-33096.56,-24231.568
1398895.3850748022,-88809.695,-82497.93,-47856.69,1827.2299,-32848.797,-48982.707,-33095.34,-24228.68
1398895.3890747968,-88812.55,-82500.98,-47858.32,1830.4851,-32846.56,-48985.516,-33096.844,-24224.691
1398895.3930747914,-88812.664,-82499.31,-47860.273,1830.4851,-32839.48,-48985.598,-33095.34,-24226.238
1398895.3970747858,-88813.73,-82494.47,-47862.1,1828.0844,-32838.625,-48985.637,-33095.906,-24232.545
1398895.4010747804,-88814.7,-82501.586,-47864.83,1822.8353,-32846.11,-48984.863,-33092.45,-24222.656
1398895.405074775,-88822.67,-82513.875,-47869.223,1819.0511,-32860.883,-48986.125,-33092.977,-24226.727
1398895.4090747696,-88825.73,-82514.61,-47870.242,1821.9402,-32855.918,-48989.098,-33098.105,-24234.295
1398895.4130747642,-88816.66,-82502.85,-47868.043,1826.5381,-32850.14,-48987.633,-33098.227,-24234.58
1398895.4170747588,-88809.49,-82495.41,-47865.277,1825.1953,-32845.906,-48986.86,-33098.594,-24229.574
1398895.4210747534,-88813.64,-82501.266,-47867.27,1820.4753,-32849.164,-48988.406,-33100.06,-24230.998
1398895.4250747478,-88812.75,-82504.44,-47869.47,1820.3939,-32858.93,-48989.18,-33101.277,-24239.746
1398895.4290747424,-88815.35,-82505.984,-47868.086,1823.9746,-32853.76,-48990.234,-33101.074,-24236.207
1398895.433074737,-88812.055,-82497.56,-47865.074,1827.7181,-32841.594,-48988.77,-33102.336,-24248.21
1398895.4370747316,-88810.47,-82488.484,-47864.91,1826.7416,-32838.707,-48988.61,-33100.71,-24244.752
1398895.4410747262,-88813.97,-82492.96,-47865.48,1821.0043,-32848.96,-48991.78,-33102.176,-24245.932
1398895.4450747208,-88820.4,-82512.25,-47864.746,1819.9056,-32854.656,-48993.9,-33106.203,-24250.732
1398895.4490747154,-88824.016,-82517.3,-47861.86,1823.1609,-32855.184,-48995.77,-33109.293,-24252.402
1398895.4530747097,-88821.336,-82508.47,-47857.547,1827.2705,-32838.91,-48994.832,-33109.418,-24251.953
1398895.4570747043,-88819.74,-82508.914,-47855.105,1822.225,-32841.023,-48995.73,-33110.883,-24252.523
1398895.461074699,-88824.22,-82513.59,-47854.902,1817.5049,-32851.48,-48996.46,-33111.816,-24249.512
1398895.4650746936,-88823.9,-82511.88,-47850.3,1818.9697,-32850.71,-48995.934,-33112.223,-24250.041
1398895.4690746882,-88821.01,-82505.375,-47841.84,1825.5209,-32837.973,-48993.98,-33112.348,-24257.773
1398895.4730746828,-88818.766,-82500.77,-47837.2,1829.2644,-32830.16,-48991.457,-33109.418,-24246.176
1398895.4770746774,-88817.79,-82498.62,-47833.17,1826.823,-32828.816,-48991.336,-33109.01,-24247.396
1398895.4810746717,-88820.97,-82503.54,-47831.016,1824.3002,-32836.793,-48990.848,-33103.8,-24244.06
1398895.4850746663,-88824.95,-82506.35,-47828.453,1825.9685,-32840.008,-48990.645,-33098.594,-24235.596
1398895.489074661,-88823.81,-82507.734,-47823.445,1831.2582,-32829.875,-48994.47,-33106.445,-24255.412
1398895.4930746555,-88816.61,-82496.99,-47816.652,1838.4603,-32814.09,-48997.273,-33115.234,-24274.13
1398895.4970746501,-88816.695,-82489.18,-47816.652,1837.0769,-32804.445,-48995.81,-33112.633,-24263.51
1398895.5010746447,-88821.66,-82494.63,-47818.484,1830.892,-32812.055,-48994.832,-33111.246,-24264.975
1398895.5050746393,-88830.484,-82504.68,-47823.652,1829.7527,-32818.035,-48995.04,-33112.996,-24268.107
1398895.5090746337,-88838.55,-82510.336,-47826.418,1831.543,-32814.453,-48996.91,-33115.152,-24265.504
1398895.5130746283,-88839.16,-82510.22,-47823.445,1835.3679,-32806.887,-48998.863,-33119.793,-24273.479
1398895.517074623,-88840.17,-82510.22,-47822.594,1832.601,-32793.785,-48998.375,-33119.59,-24267.904
1398895.5210746175,-88839.69,-82514.61,-47823.242,1828.7354,-32808.88,-48997.76,-33115.113,-24259.562
1398895.5250746121,-88842.25,-82518.68,-47824.63,1831.0955,-32813.56,-48995.566,-33111.94,-24259.766
1398895.5290746067,-88839.805,-82521.04,-47822.145,1839.1113,-32802.164,-48993.695,-33111.656,-24263.469
1398895.5330746013,-88831.055,-82506.15,-47819.664,1842.1631,-32786.215,-48993.33,-33111.453,-24266.928
1398895.5370745957,-88824.51,-82493.33,-47818.156,1839.4369,-32785.402,-48992.598,-33108.277,-24262.29
1398895.5410745903,-88826.78,-82498.7,-47821.492,1834.3506,-32795.492,-48990.684,-33104.656,-24253.418
1398895.545074585,-88836.55,-82510.625,-47824.586,1831.6244,-32803.996,-48991.293,-33105.754,-24255.86
1398895.5490745795,-88833.91,-82510.74,-47821.332,1835.49,-32796.51,-48990.4,-33106.363,-24257.53
1398895.553074574,-88822.39,-82500.37,-47815.758,1840.6982,-32786.38,-48989.746,-33107.504,-24264.201
1398895.5570745687,-88823.53,-82495.445,-47813.68,1840.2507,-32785.523,-48988.69,-33105.715,-24257.895
1398895.5610745633,-88830.53,-82504.31,-47818.2,1833.1707,-32794.312,-48991.008,-33106.527,-24254.273
1398895.5650745577,-88837.52,-82515.1,-47822.797,1831.1768,-32804.605,-48992.188,-33107.137,-24255.291
1398895.5690745523,-88836.55,-82515.18,-47825.117,1834.6355,-32801.8,-48994.426,-33113.445,-24270.713
1398895.5730745469,-88832.28,-82507.57,-47824.586,1836.7513,-32789.348,-48995.527,-33119.67,-24277.426
1398895.5770745415,-88831.55,-82504.56,-47825.4,1833.4148,-32783.895,-48994.55,-33117.96,-24274.7
1398895.581074536,-88834.96,-82507.81,-47830.16,1829.9968,-32792.4,-48996.137,-33117.594,-24275.473
1398895.5850745307,-88840.375,-82513.51,-47831.055,1830.892,-32799.113,-48996.137,-33113.73,-24269.492
1398895.5890745253,-88839.4,-82501.43,-47829.67,1834.8796,-32794.516,-48994.793,-33110.27,-24258.22
1398895.5930745197,-88832.85,-82491.3,-47826.99,1839.4369,-32785.2,-48993.652,-33111.656,-24259.889
1398895.5970745143,-88831.46,-82489.664,-47825.195,1835.0424,-32786.297,-48997.355,-33117.434,-24277.06
1398895.6010745089,-88839.234,-82501.266,-47830.324,1830.1595,-32793.418,-48997.234,-33116.78,-24276.043
1398895.6050745035,-88841.8,-82507.0,-47835.33,1830.0375,-32804.934,-48999.39,-33123.13,-24283.936
1398895.609074498,-88840.375,-82509.85,-47834.598,1833.6589,-32811.566,-49000.043,-33126.59,-24288.78
1398895.6130744927,-88833.664,-82500.86,-47834.72,1837.6058,-32804.2,-48998.457,-33125.53,-24284.832
1398895.617074487,-88833.3,-82492.92,-47837.566,1835.7341,-32793.336,-48994.47,-33116.457,-24265.992
1398895.6210744816,-88838.586,-82503.586,-47839.6,1827.9623,-32799.52,-48993.574,-33112.633,-24270.428
1398895.6250744762,-88839.73,-82508.18,-47836.59,1828.2064,-32803.914,-48992.92,-33115.723,-24277.873
1398895.6290744708,-88840.945,-82512.984,-47835.98,1832.601,-32798.42,-48992.96,-33114.664,-24274.09
1398895.6330744654,-88836.63,-82504.27,-47834.598,1837.1176,-32784.87,-48995.2,-33117.676,-24276.205
1398895.63707446,-88834.516,-82500.57,-47835.33,1837.0769,-32785.28,-48996.016,-33121.582,-24283.896
1398895.6410744546,-88839.4,-82511.766,-47841.797,1829.305,-32806.234,-48998.13,-33121.094,-24279.094
1398895.645074449,-88845.5,-82517.7,-47845.83,1828.3691,-32812.664,-48997.805,-33120.2,-24276.002
1398895.6490744436,-88848.31,-82518.68,-47848.473,1833.4554,-32798.42,-48997.316,-33121.83,-24278.24
1398895.6530744382,-88851.81,-82524.54,-47851.93,1832.723,-32792.035,-48999.473,-33127.035,-24283.53
1398895.6570744328,-88850.586,-82518.39,-47851.93,1827.9623,-32795.37,-48999.473,-33126.426,-24286.012
1398895.6610744274,-88851.766,-82522.09,-47853.844,1823.283,-32806.887,-48998.17,-33122.723,-24281.25
1398895.665074422,-88856.33,-82529.75,-47855.55,1822.998,-32812.95,-48997.64,-33118.695,-24265.098
1398895.6690744166,-88847.58,-82518.39,-47857.22,1827.1892,-32807.496,-48997.355,-33119.223,-24268.352
1398895.673074411,-88837.37,-82499.48,-47853.926,1831.1768,-32794.434,-48996.38,-33122.926,-24277.264
1398895.6770744056,-88833.3,-82498.01,-47852.582,1829.9154,-32793.254,-48997.6,-33123.332,-24279.502
1398895.6810744002,-88836.06,-82508.836,-47857.06,1823.7305,-32809.734,-48999.676,-33120.08,-24270.549
1398895.6850743948,-88842.9,-82515.914,-47860.68,1824.6664,-32822.51,-49000.69,-33119.305,-24268.352
1398895.6890743894,-88843.67,-82511.15,-47861.37,1831.3802,-32816.043,-49001.914,-33126.305,-24284.912
1398895.693074384,-88843.8,-82503.74,-47859.58,1831.5023,-32806.64,-49004.598,-33129.68,-24285.32
1398895.6970743786,-88843.47,-82497.97,-47858.848,1827.1484,-32802.086,-49004.316,-33128.582,-24279.623
1398895.701074373,-88844.28,-82501.63,-47859.54,1822.1436,-32821.29,-49002.28,-33124.676,-24282.268
1398895.7050743676,-88845.83,-82504.234,-47862.062,1820.3533,-32825.6,-49002.973,-33121.582,-24273.846
1398895.7090743622,-88843.51,-82501.914,-47860.312,1824.0967,-32817.668,-49002.484,-33123.74,-24278.076
1398895.7130743568,-88839.12,-82496.664,-47859.66,1827.3113,-32814.047,-49002.77,-33126.996,-24283.936
1398895.7170743514,-88839.64,-82498.01,-47861.695,1826.0906,-32814.293,-49004.395,-33128.418,-24282.797
1398895.721074346,-88846.88,-82507.125,-47867.473,1820.1904,-32823.242,-49004.56,-33127.523,-24284.465
1398895.7250743406,-88849.45,-82510.625,-47869.71,1821.1263,-32826.906,-49005.008,-33133.26,-24305.99
1398895.729074335,-88851.41,-82513.92,-47869.14,1824.3002,-32820.152,-49005.086,-33133.63,-24305.746
1398895.7330743296,-88846.84,-82502.24,-47864.34,1830.3223,-32803.793,-49003.418,-33128.824,-24292.807
1398895.7370743242,-88843.23,-82499.15,-47861.695,1827.3926,-32805.582,-49000.734,-33122.723,-24281.861
1398895.7410743188,-88844.65,-82507.41,-47863.895,1821.0449,-32818.89,-48999.594,-33122.152,-24280.03
1398895.7450743134,-88845.26,-82511.88,-47863.566,1819.4174,-32821.74,-48998.902,-33123.863,-24287.354
1398895.749074308,-88848.15,-82517.336,-47865.926,1824.0967,-32815.758,-48998.617,-33123.984,-24276.367
1398895.7530743026,-88845.42,-82513.266,-47866.66,1826.9451,-32810.75,-49001.75,-33125.53,-24277.793
1398895.757074297,-88841.11,-82500.164,-47867.92,1826.0092,-32814.09,-49001.832,-33125.406,-24281.617
1398895.7610742915,-88844.04,-82502.73,-47873.21,1820.8416,-32826.375,-49002.727,-33124.105,-24286.703
1398895.7650742861,-88845.91,-82517.375,-47876.832,1815.4297,-32833.742,-49004.598,-33125.652,-24286.662
1398895.7690742807,-88849.66,-82514.0,-47877.85,1817.7898,-32829.266,-49003.703,-33125.977,-24281.617
1398895.7730742753,-88851.08,-82503.22,-47878.867,1821.2484,-32819.99,-49005.293,-33126.547,-24287.883
1398895.77707427,-88845.42,-82498.3,-47875.855,1819.6208,-32817.098,-49005.086,-33128.46,-24295.086
1398895.7810742646,-88848.68,-82500.2,-47881.96,1815.3076,-32824.707,-49005.21,-33127.156,-24293.865
1398895.785074259,-88855.516,-82501.79,-47882.773,1815.9994,-32830.484,-49004.598,-33126.793,-24291.22
1398895.7890742535,-88853.234,-82505.13,-47880.617,1819.7836,-32827.84,-49007.69,-33133.63,-24307.943
1398895.7930742481,-88850.99,-82500.61,-47879.273,1822.9574,-32819.133,-49008.18,-33133.18,-24303.06
1398895.7970742427,-88851.89,-82501.67,-47880.086,1820.0684,-32819.703,-49006.023,-33126.832,-24287.07
1398895.8010742373,-88852.42,-82506.39,-47881.758,1815.7552,-32839.684,-49006.633,-33125.406,-24293.254
1398895.805074232,-88857.055,-82515.34,-47883.75,1815.6332,-32844.93,-49008.098,-33127.08,-24292.156
1398895.8090742263,-88852.38,-82509.4,-47882.04,1821.8588,-32832.6,-49010.176,-33133.668,-24300.01
1398895.813074221,-88844.73,-82499.516,-47880.414,1825.9277,-32822.715,-49010.05,-33134.562,-24300.781
1398895.8170742155,-88842.94,-82494.266,-47881.55,1823.6084,-32823.57,-49011.11,-33133.914,-24295.533
1398895.82107421,-88844.445,-82495.484,-47887.207,1817.9525,-32828.453,-49013.145,-33134.277,-24290.691
1398895.8250742047,-88848.43,-82501.23,-47891.074,1815.6738,-32838.992,-49013.31,-33135.5,-24287.762
1398895.8290741993,-88853.03,-82501.79,-47890.79,1820.4753,-32838.83,-49012.168,-33137.168,-24301.19
1398895.833074194,-88855.63,-82501.914,-47891.113,1822.1436,-32832.887,-49010.094,-33133.707,-24295.94
1398895.8370741883,-88853.92,-82497.84,-47893.555,1819.0511,-32834.555,-49009.117,-33129.19,-24284.547
1398895.841074183,-88845.055,-82489.18,-47894.816,1815.1449,-32842.9,-49007.61,-33124.676,-24276.45
1398895.8450741775,-88854.125,-82498.336,-47899.13,1811.8896,-32844.688,-49008.14,-33123.66,-24286.744
1398895.849074172,-88858.56,-82503.83,-47901.45,1815.2263,-32840.535,-49009.97,-33125.45,-24290.08
1398895.8530741667,-88850.14,-82489.83,-47895.754,1820.4753,-32831.95,-49009.605,-33128.664,-24297.12
1398895.8570741613,-88848.31,-82486.66,-47894.734,1817.3422,-32834.84,-49009.074,-33129.844,-24304.973
1398895.861074156,-88852.83,-82491.336,-47901.246,1810.14,-32846.03,-49008.79,-33125.895,-24296.021
1398895.8650741503,-88857.305,-82501.67,-47902.71,1810.1807,-32847.168,-49007.45,-33121.99,-24291.22
1398895.8690741449,-88862.63,-82509.6,-47902.47,1815.1042,-32845.543,-49006.473,-33123.453,-24293.701
1398895.8730741395,-88863.0,-82500.05,-47902.305,1819.2139,-32835.816,-49005.617,-33123.453,-24286.947
1398895.877074134,-88863.164,-82497.07,-47903.688,1814.8193,-32843.793,-49005.496,-33121.42,-24291.424
1398895.8810741287,-88867.88,-82501.51,-47907.594,1808.8379,-32859.05,-49008.016,-33124.27,-24297.363
1398895.8850741233,-88875.734,-82514.9,-47912.965,1807.4951,-32859.336,-49009.44,-33126.793,-24297.73
1398895.8890741179,-88878.7,-82513.266,-47911.664,1811.6049,-32849.246,-49011.19,-33131.96,-24304.81
1398895.8930741122,-88872.805,-82501.305,-47908.203,1814.2904,-32838.992,-49012.41,-33137.086,-24306.602
1398895.8970741068,-88869.836,-82493.66,-47912.312,1814.2498,-32845.785,-49011.395,-33135.05,-24297.648
1398895.9010741014,-88873.945,-82503.13,-47916.18,1808.7972,-32851.48,-49013.023,-33138.062,-24324.016
1398895.905074096,-88878.26,-82511.11,-47917.766,1805.8269,-32859.336,-49013.51,-33136.883,-24320.436
1398895.9090740907,-88883.42,-82514.734,-47921.387,1807.1697,-32857.75,-49012.086,-33134.645,-24307.861
1398895.9130740853,-88884.24,-82506.15,-47917.645,1809.7738,-32848.51,-49010.582,-33132.895,-24306.723
1398895.9170740799,-88880.74,-82502.2,-47915.57,1806.2744,-32846.273,-49011.76,-33135.336,-24310.873
1398895.9210740742,-88890.914,-82519.62,-47924.277,1798.4619,-32860.555,-49014.895,-33137.168,-24313.273
1398895.9250740688,-88896.77,-82528.85,-47930.34,1796.1426,-32876.953,-49017.62,-33139.285,-24314.129
1398895.9290740634,-88897.55,-82528.93,-47932.457,1801.9613,-32872.355,-49017.418,-33141.766,-24320.03
1398895.933074058,-88895.43,-82524.74,-47932.7,1806.2744,-32862.223,-49016.766,-33140.016,-24314.941
1398895.9370740526,-88894.66,-82521.2,-47933.39,1804.5654,-32860.883,-49017.293,-33140.016,-24304.893
1398895.9410740472,-88898.766,-82520.555,-47935.26,1800.293,-32867.105,-49018.23,-33138.266,-24304.973
1398895.9450740418,-88901.33,-82525.516,-47931.844,1800.2117,-32872.76,-49016.887,-33133.22,-24301.434
1398895.9490740362,-88897.99,-82523.234,-47922.406,1805.1758,-32864.95,-49016.156,-33133.098,-24305.705
1398895.9530740308,-88890.34,-82510.13,-47914.023,1809.3262,-32857.26,-49015.83,-33132.69,-24312.42
1398895.9570740254,-88885.5,-82508.14,-47908.855,1807.658,-32851.32,-49017.62,-33134.89,-24318.889
1398895.96107402,-88891.69,-82511.766,-47910.605,1802.2869,-32856.57,-49018.027,-33134.402,-24311.973
1398895.9650740146,-88896.37,-82522.46,-47909.793,1800.0488,-32860.35,-49018.027,-33130.168,-24295.166
1398895.9690740092,-88890.67,-82512.58,-47903.484,1805.542,-32855.184,-49015.547,-33125.816,-24289.186
1398895.9730740038,-88887.984,-82499.96,-47898.926,1808.1055,-32843.793,-49015.016,-33125.164,-24285.85
1398895.9770739982,-88884.766,-82492.64,-47894.574,1807.4138,-32840.047,-49012.82,-33120.81,-24281.861
1398895.9810739928,-88888.305,-82499.48,-47890.383,1803.3855,-32843.223,-49011.64,-33116.254,-24283.691
1398895.9850739874,-88890.875,-82508.99,-47888.062,1802.531,-32847.13,-49014.773,-33118.29,-24287.11
1398895.989073982,-88887.58,-82507.164,-47880.496,1807.8613,-32835.53,-49015.42,-33119.63,-24282.797
1398895.9930739766,-88877.16,-82491.62,-47873.984,1813.2732,-32825.36,-49013.31,-33121.543,-24296.957
1398895.9970739712,-88875.086,-82486.58,-47870.04,1813.8021,-32825.156,-49012.492,-33123.984,-24309.367
1398896.0010739658,-88882.53,-82500.0,-47873.863,1810.7097,-32837.16,-49014.203,-33127.08,-24308.838
1398896.0050739602,-88890.055,-82504.27,-47876.75,1810.669,-32837.81,-49013.594,-33128.418,-24310.996
1398896.0090739548,-88893.4,-82502.32,-47876.508,1813.68,-32829.47,-49013.43,-33128.5,-24310.059
1398896.0130739494,-88889.65,-82496.18,-47872.887,1814.9414,-32820.926,-49013.227,-33129.438,-24307.943
1398896.017073944,-88887.29,-82492.234,-47870.2,1814.7787,-32818.562,-49010.297,-33122.6,-24293.457
1398896.0210739386,-88887.086,-82495.98,-47870.402,1811.5642,-32828.37,-49010.664,-33117.434,-24282.594
1398896.0250739332,-88888.43,-82505.01,-47873.293,1810.2621,-32828.656,-49011.312,-33118.33,-24291.465
1398896.0290739276,-88889.94,-82507.37,-47873.008,1813.1918,-32818.645,-49010.215,-33119.02,-24294.678
1398896.0330739222,-88886.27,-82494.1,-47869.832,1817.3422,-32808.27,-49009.89,-33118.652,-24291.545
1398896.0370739168,-88884.36,-82491.945,-47871.137,1815.8773,-32807.7,-49009.81,-33115.195,-24280.967
1398896.0410739114,-88888.836,-82501.18,-47877.645,1809.8145,-32816.164,-49013.918,-33119.06,-24288.86
1398896.045073906,-88889.85,-82503.54,-47880.13,1809.6111,-32813.965,-49016.523,-33122.64,-24294.883
1398896.0490739006,-88891.36,-82507.04,-47878.094,1812.7035,-32815.27,-49016.727,-33125.285,-24295.736
1398896.0530738952,-88886.56,-82499.39,-47874.96,1814.4125,-32805.055,-49014.16,-33124.39,-24292.115
1398896.0570738895,-88885.016,-82495.69,-47873.13,1812.6628,-32811.566,-49013.227,-33120.688,-24278.85
1398896.0610738841,-88886.72,-82499.43,-47874.637,1808.5531,-32819.46,-49013.754,-33120.934,-24286.865
1398896.0650738787,-88891.805,-82505.13,-47877.32,1806.1931,-32820.273,-49017.05,-33125.285,-24297.16
1398896.0690738733,-88889.65,-82508.836,-47877.363,1810.3842,-32810.832,-49018.637,-33131.88,-24304.893
1398896.073073868,-88884.52,-82502.56,-47876.344,1815.2263,-32806.355,-49017.945,-33134.645,-24306.967
1398896.0770738625,-88881.23,-82493.77,-47876.426,1815.5111,-32801.72,-49017.418,-33132.203,-24304.078
1398896.0810738571,-88882.125,-82496.91,-47878.582,1811.4421,-32805.79,-49016.848,-33125.49,-24281.7
1398896.0850738515,-88881.59,-82500.29,-47877.156,1814.331,-32810.832,-49019.207,-33130.535,-24294.76
1398896.0890738461,-88877.61,-82501.266,-47876.875,1820.0277,-32799.44,-49020.55,-33134.035,-24313.559
1398896.0930738407,-88874.59,-82489.09,-47873.984,1822.0623,-32793.824,-49022.3,-33131.88,-24304.2
1398896.0970738353,-88869.914,-82483.234,-47871.46,1820.1091,-32792.035,-49022.504,-33134.32,-24306.56
1398896.10107383,-88873.414,-82493.695,-47872.926,1814.0869,-32803.184,-49020.348,-33133.992,-24309.043
1398896.1050738245,-88876.8,-82496.79,-47875.57,1816.3656,-32798.543,-49020.062,-33132.082,-24309.49
1398896.1090738191,-88873.375,-82490.84,-47876.547,1821.7773,-32807.58,-49018.312,-33128.95,-24301.23
1398896.1130738135,-88869.875,-82483.52,-47877.28,1823.0388,-32805.664,-49018.84,-33128.215,-24296.63
1398896.117073808,-88864.26,-82478.6,-47876.387,1821.1263,-32785.156,-49020.266,-33130.94,-24303.955
1398896.1210738027,-88868.695,-82489.79,-47879.64,1815.4297,-32804.28,-49019.816,-33127.566,-24297.445
1398896.1250737973,-88870.52,-82495.65,-47880.293,1814.331,-32809.57,-49018.72,-33127.28,-24296.51
1398896.129073792,-88868.45,-82486.86,-47876.223,1820.516,-32797.28,-49018.395,-33129.52,-24298.38
1398896.1330737865,-88863.69,-82474.33,-47872.48,1823.8119,-32786.46,-49016.113,-33128.785,-24298.34
1398896.137073781,-88859.984,-82465.09,-47871.22,1823.2422,-32786.133,-49014.812,-33128.176,-24296.836
1398896.1410737755,-88860.4,-82467.125,-47874.105,1819.865,-32799.848,-49015.668,-33128.906,-24302.451
1398896.14507377,-88863.41,-82475.55,-47877.89,1817.9932,-32805.176,-49017.375,-33133.87,-24309.814
1398896.1490737647,-88860.44,-82470.3,-47877.2,1822.5505,-32804.73,-49017.01,-33133.914,-24299.072
1398896.1530737593,-88857.51,-82459.516,-47877.688,1824.992,-32796.754,-49017.375,-33137.656,-24309.287
1398896.157073754,-88855.72,-82452.88,-47878.46,1823.5271,-32794.883,-49017.5,-33135.05,-24306.846
1398896.1610737485,-88851.81,-82447.8,-47877.28,1823.6898,-32800.863,-49014.85,-33128.46,-24295.451
1398896.165073743,-88852.99,-82450.03,-47879.52,1822.347,-32792.887,-49014.445,-33124.637,-24293.133
1398896.1690737375,-88848.59,-82451.625,-47878.297,1825.3582,-32791.79,-49015.34,-33127.32,-24296.957
1398896.173073732,-88838.5,-82438.766,-47877.08,1828.5726,-32787.312,-49016.6,-33132.0,-24304.607
1398896.1770737267,-88833.09,-82429.24,-47878.95,1827.0671,-32791.707,-49017.703,-33132.527,-24304.77
1398896.1810737213,-88831.79,-82431.48,-47880.984,1823.0795,-32802.492,-49018.516,-33131.96,-24302.816
1398896.1850737159,-88832.44,-82439.13,-47880.617,1822.225,-32810.67,-49020.754,-33131.473,-24295.818
1398896.1890737105,-88834.234,-82435.75,-47884.2,1824.707,-32801.27,-49021.445,-33132.406,-24297.363
1398896.193073705,-88832.97,-82423.664,-47883.79,1827.474,-32800.945,-49020.43,-33132.203,-24301.148
1398896.1970736994,-88833.87,-82421.266,-47882.69,1823.4863,-32795.047,-49021.242,-33135.867,-24305.746
1398896.201073694,-88834.76,-82424.36,-47884.81,1816.7318,-32818.523,-49023.6,-33137.98,-24315.715
1398896.2050736886,-88839.16,-82434.86,-47890.504,1815.3484,-32818.848,-49026.777,-33142.66,-24320.477
1398896.2090736832,-88843.75,-82439.45,-47893.434,1819.7021,-32812.95,-49029.094,-33148.355,-24327.88
1398896.2130736778,-88840.01,-82430.95,-47893.027,1821.8181,-32805.543,-49028.688,-33146.527,-24315.47
1398896.2170736725,-88834.59,-82420.82,-47892.742,1820.3533,-32799.156,-49027.06,-33143.11,-24307.293
1398896.2210736668,-88837.57,-82424.805,-47892.99,1816.04,-32807.945,-49026.33,-33138.957,-24309.082
1398896.2250736614,-88843.75,-82440.19,-47895.266,1814.6973,-32812.297,-49025.434,-33136.312,-24307.129
1398896.229073656,-88849.164,-82441.81,-47895.223,1817.2201,-32809.164,-49024.008,-33136.19,-24306.805
1398896.2330736506,-88851.81,-82441.695,-47894.86,1818.9697,-32800.742,-49024.336,-33138.023,-24309.408
1398896.2370736452,-88852.586,-82439.7,-47895.43,1815.5925,-32803.63,-49026.777,-33142.496,-24319.824
1398896.2410736398,-88857.914,-82449.305,-47898.195,1811.2793,-32815.105,-49027.547,-33143.066,-24317.588
1398896.2450736344,-88859.13,-82455.69,-47899.293,1810.4656,-32821.047,-49029.5,-33145.145,-24323.283
1398896.2490736288,-88854.01,-82452.76,-47897.746,1816.325,-32812.99,-49029.22,-33146.324,-24321.941
1398896.2530736234,-88851.32,-82441.57,-47899.824,1818.0339,-32810.1,-49028.85,-33146.85,-24318.156
1398896.257073618,-88851.89,-82431.56,-47900.35,1814.4125,-32814.13,-49029.094,-33146.2,-24312.705
1398896.2610736126,-88857.38,-82440.35,-47902.914,1808.309,-32824.953,-49030.113,-33143.434,-24308.025
1398896.2650736072,-88861.734,-82456.87,-47904.582,1807.658,-32830.242,-49029.707,-33141.727,-24304.566
1398896.2690736018,-88862.67,-82458.055,-47905.113,1811.5234,-32822.145,-49031.535,-33143.72,-24310.588
1398896.2730735964,-88866.336,-82459.64,-47906.414,1811.849,-32815.633,-49032.27,-33144.9,-24309.855
1398896.2770735908,-88863.08,-82456.1,-47904.094,1809.8959,-32822.55,-49032.27,-33140.992,-24302.898
1398896.2810735854,-88864.1,-82460.82,-47908.082,1804.4434,-32832.48,-49034.793,-33140.34,-24304.688
1398896.28507358,-88870.89,-82472.49,-47911.258,1802.6937,-32823.527,-49035.32,-33140.625,-24307.861
1398896.2890735746,-88872.12,-82470.99,-47912.312,1806.3558,-32821.94,-49034.914,-33143.92,-24311.117
1398896.2930735692,-88868.125,-82465.66,-47914.797,1809.2855,-32819.785,-49032.555,-33145.914,-24323.61
1398896.2970735638,-88868.62,-82464.52,-47918.17,1806.1117,-32829.062,-49029.258,-33139.73,-24311.768
1398896.3010735584,-88872.64,-82466.63,-47925.496,1800.0488,-32837.973,-49029.176,-33133.914,-24298.26
1398896.3050735528,-88876.63,-82472.45,-47926.92,1798.4213,-32841.27,-49031.66,-33137.168,-24300.416
1398896.3090735474,-88873.375,-82469.28,-47925.17,1803.7109,-32833.133,-49032.43,-33139.65,-24304.322
1398896.313073542,-88870.28,-82461.266,-47922.445,1807.0476,-32827.637,-49033.45,-33142.984,-24309.287
1398896.3170735366,-88865.234,-82453.29,-47921.836,1805.3793,-32826.785,-49033.367,-33143.8,-24309.938
1398896.3210735312,-88860.76,-82449.18,-47920.492,1802.6937,-32835.574,-49032.43,-33139.04,-24304.281
1398896.3250735258,-88864.305,-82458.54,-47922.85,1802.2869,-32841.434,-49031.047,-33131.266,-24285.645
1398896.3290735204,-88860.516,-82460.086,-47924.195,1806.722,-32840.293,-49030.03,-33130.777,-24287.965
1398896.3330735147,-88855.15,-82451.26,-47922.16,1808.7158,-32831.34,-49029.5,-33131.105,-24296.713
1398896.3370735093,-88859.7,-82451.625,-47923.625,1802.8972,-32829.918,-49029.297,-33130.414,-24298.951
1398896.341073504,-88867.35,-82457.73,-47927.816,1797.6888,-32842.082,-49029.094,-33130.332,-24293.906
1398896.3450734986,-88874.88,-82472.91,-47934.45,1797.3226,-32840.13,-49034.06,-33136.637,-24301.23
1398896.3490734932,-88876.51,-82471.48,-47934.734,1801.7578,-32831.95,-49036.785,-33144.37,-24309.855
1398896.3530734878,-88869.96,-82459.8,-47933.92,1806.1523,-32835.734,-49037.52,-33149.008,-24311.89
1398896.3570734824,-88867.64,-82461.47,-47935.26,1803.7517,-32843.875,-49034.383,-33144.168,-24304.24
1398896.3610734767,-88870.24,-82470.26,-47939.74,1797.2412,-32856.0,-49033.652,-33139.895,-24298.625
1398896.3650734713,-88873.13,-82473.63,-47940.227,1794.4744,-32861.207,-49032.715,-33134.32,-24292.562
1398896.369073466,-88873.984,-82470.83,-47939.82,1798.6654,-32855.023,-49030.6,-33127.81,-24286.256
1398896.3730734605,-88870.57,-82461.59,-47939.09,1799.8861,-32845.215,-49032.27,-33129.11,-24287.68
1398896.3770734551,-88867.76,-82457.234,-47938.19,1797.8109,-32844.32,-49031.82,-33129.03,-24296.428
1398896.3810734497,-88871.14,-82469.04,-47943.36,1791.4226,-32856.082,-49031.535,-33127.727,-24295.127
1398896.3850734443,-88875.9,-82479.29,-47947.43,1789.0625,-32860.23,-49032.84,-33130.617,-24293.213
1398896.3890734387,-88878.336,-82478.15,-47948.57,1793.2943,-32852.418,-49035.89,-33137.29,-24302.41
1398896.3930734333,-88872.32,-82468.75,-47946.25,1797.5261,-32848.676,-49037.56,-33139.69,-24307.008
1398896.397073428,-88870.73,-82465.58,-47946.21,1794.3115,-32855.875,-49040.164,-33143.19,-24309.164
1398896.4010734225,-88875.0,-82469.12,-47950.277,1786.4177,-32872.887,-49041.832,-33138.47,-24296.104
1398896.4050734171,-88881.19,-82480.63,-47951.375,1786.2549,-32883.383,-49042.277,-33136.844,-24287.11
1398896.4090734117,-88877.12,-82483.85,-47948.977,1792.9281,-32870.77,-49042.32,-33143.11,-24310.182
1398896.4130734063,-88871.7,-82466.72,-47946.82,1796.6309,-32853.64,-49042.48,-33145.387,-24316.895
1398896.4170734007,-88868.9,-82459.03,-47945.723,1792.5212,-32854.25,-49041.992,-33140.83,-24305.258
1398896.4210733953,-88870.73,-82460.01,-47946.21,1788.208,-32868.207,-49043.742,-33139.773,-24303.06
1398896.42507339,-88873.87,-82463.87,-47948.855,1785.9294,-32877.727,-49045.086,-33139.0,-24299.072
1398896.4290733845,-88876.51,-82470.87,-47950.277,1787.3943,-32876.344,-49045.82,-33139.934,-24293.213
1398896.433073379,-88872.97,-82464.73,-47949.465,1790.4053,-32865.074,-49043.582,-33140.91,-24295.533
1398896.4370733737,-88868.05,-82458.414,-47953.25,1788.2488,-32861.246,-49044.56,-33139.16,-24298.951
1398896.441073368,-88874.39,-82469.52,-47958.945,1782.7148,-32869.223,-49045.574,-33135.215,-24289.756
1398896.4450733627,-88879.234,-82472.945,-47961.914,1782.959,-32870.363,-49048.016,-33139.406,-24291.3
1398896.4490733573,-88877.52,-82462.04,-47962.85,1790.446,-32862.184,-49052.29,-33151.41,-24309.164
1398896.4530733519,-88876.18,-82453.29,-47962.16,1792.3584,-32859.09,-49052.41,-33156.375,-24321.777
1398896.4570733465,-88877.77,-82459.68,-47964.97,1786.8246,-32862.223,-49051.312,-33156.09,-24323.203
1398896.461073341,-88879.73,-82473.06,-47966.023,1780.5176,-32880.74,-49049.684,-33151.33,-24310.264
1398896.4650733357,-88880.54,-82482.14,-47965.293,1782.5115,-32887.656,-49048.465,-33145.348,-24298.545
1398896.46907333,-88881.555,-82484.055,-47962.28,1784.7087,-32881.39,-49048.098,-33145.508,-24302.166
1398896.4730733247,-88882.125,-82477.91,-47961.793,1786.906,-32878.99,-49049.52,-33146.527,-24302.898
1398896.4770733193,-88877.81,-82469.93,-47962.566,1786.9467,-32875.734,-49047.934,-33148.355,-24308.31
1398896.4810733139,-88888.02,-82470.99,-47963.664,1783.3252,-32873.78,-49046.918,-33149.54,-24311.768
1398896.4850733085,-88896.53,-82478.11,-47958.7,1782.3486,-32880.21,-49047.203,-33148.4,-24310.588
1398896.489073303,-88895.23,-82483.6,-47951.01,1787.0281,-32870.77,-49046.47,-33148.234,-24317.344
1398896.4930732977,-88890.95,-82475.22,-47945.355,1788.3708,-32858.805,-49047.203,-33149.742,-24317.383
1398896.497073292,-88889.24,-82468.75,-47940.39,1783.488,-32861.168,-49046.715,-33148.64,-24314.209
1398896.5010732866,-88893.64,-82474.125,-47939.496,1778.3203,-32869.914,-49046.348,-33144.37,-24309.775
1398896.5050732812,-88896.69,-82481.77,-47941.164,1778.7273,-32872.684,-49047.04,-33141.684,-24306.682
1398896.5090732758,-88902.71,-82490.89,-47940.633,1781.657,-32863.566,-49048.016,-33141.848,-24301.596
1398896.5130732704,-88903.37,-82484.3,-47940.88,1785.6853,-32847.984,-49047.566,-33141.316,-24301.23
1398896.517073265,-88903.04,-82480.516,-47939.293,1785.2377,-32845.01,-49045.37,-33136.434,-24295.41
1398896.5210732596,-88904.26,-82480.02,-47935.957,1781.6976,-32850.832,-49046.836,-33137.004,-24302.898
1398896.525073254,-88900.72,-82485.6,-47928.305,1784.9121,-32850.75,-49049.727,-33140.91,-24313.72
1398896.5290732486,-88896.53,-82487.35,-47923.34,1788.0859,-32843.223,-49050.78,-33141.113,-24308.838
1398896.5330732432,-88892.625,-82484.46,-47916.383,1792.5212,-32829.266,-49051.15,-33143.395,-24311.564
1398896.5370732378,-88890.875,-82476.484,-47913.656,1791.3412,-32829.1,-49048.34,-33138.59,-24304.729
1398896.5410732324,-88890.34,-82476.56,-47915.203,1785.2377,-32835.164,-49044.027,-33132.61,-24299.887
1398896.545073227,-88897.34,-82482.586,-47917.156,1786.1328,-32838.055,-49040.164,-33128.297,-24304.363
1398896.5490732216,-88901.94,-82476.16,-47916.707,1791.7888,-32827.8,-49038.332,-33125.082,-24302.246
1398896.553073216,-88894.086,-82468.95,-47911.133,1795.8984,-32814.82,-49037.355,-33125.246,-24299.033
1398896.5570732106,-88897.46,-82469.41,-47909.305,1792.9688,-32812.176,-49038.25,-33125.773,-24297.486
1398896.5610732052,-88900.8,-82484.375,-47909.18,1788.615,-32828.125,-49041.79,-33128.01,-24297.04
1398896.5650731998,-88901.94,-82488.484,-47908.57,1792.0736,-32829.266,-49043.54,-33133.707,-24299.277
1398896.5690731944,-88900.76,-82484.21,-47910.973,1796.5088,-32820.19,-49046.67,-33139.73,-24310.385
1398896.573073189,-88897.625,-82478.44,-47909.547,1797.8923,-32805.582,-49048.83,-33142.906,-24312.012
1398896.5770731836,-88895.71,-82474.86,-47910.44,1796.4275,-32810.832,-49048.016,-33141.36,-24307.129
1398896.581073178,-88904.3,-82488.85,-47915.895,1788.5742,-32826.785,-49048.504,-33140.016,-24305.787
1398896.5850731726,-88915.29,-82495.52,-47920.047,1787.0687,-32826.54,-49047.812,-33142.945,-24313.111
1398896.5890731672,-88917.73,-82502.89,-47919.598,1792.033,-32821.047,-49046.875,-33141.645,-24298.422
1398896.5930731618,-88914.76,-82497.6,-47917.074,1795.6136,-32817.953,-49047.16,-33143.35,-24308.635
1398896.5970731564,-88910.56,-82492.35,-47916.344,1792.033,-32819.582,-49048.992,-33146.566,-24323.162
1398896.601073151,-88911.5,-82492.15,-47918.38,1787.4756,-32825.766,-49048.098,-33142.863,-24311.729
1398896.6050731456,-88909.14,-82491.3,-47919.07,1786.6211,-32824.18,-49047.04,-33140.87,-24314.006
1398896.60907314,-88905.12,-82488.12,-47918.66,1790.0391,-32817.223,-49045.82,-33139.812,-24316.041
1398896.6130731346,-88902.67,-82479.74,-47918.824,1794.4744,-32800.863,-49040.895,-33136.15,-24318.97
1398896.6170731292,-88901.05,-82474.77,-47919.395,1792.3584,-32797.934,-49037.965,-33132.082,-24310.996
1398896.6210731238,-88911.22,-82484.5,-47923.83,1788.1267,-32804.527,-49038.25,-33126.344,-24293.906
1398896.6250731184,-88918.3,-82495.484,-47927.53,1786.5398,-32811.117,-49039.55,-33127.402,-24294.23
1398896.629073113,-88916.71,-82491.91,-47923.465,1792.0736,-32803.305,-49041.504,-33134.36,-24307.09
1398896.6330731073,-88910.89,-82483.93,-47921.023,1798.055,-32792.195,-49042.195,-33136.965,-24308.717
1398896.637073102,-88907.63,-82480.516,-47920.332,1796.3867,-32795.86,-49041.914,-33137.86,-24308.717
1398896.6410730965,-88910.08,-82487.555,-47922.363,1792.9281,-32807.293,-49042.727,-33138.797,-24310.832
1398896.6450730911,-88913.21,-82498.09,-47924.97,1791.9109,-32815.633,-49044.434,-33141.24,-24311.361
1398896.6490730857,-88906.91,-82488.445,-47923.543,1796.5496,-32806.56,-49044.355,-33144.9,-24321.209
1398896.6530730803,-88904.586,-82485.15,-47923.22,1796.8344,-32797.203,-49042.97,-33143.15,-24315.959
1398896.657073075,-88903.164,-82485.03,-47925.457,1794.1488,-32793.336,-49041.547,-33140.22,-24314.129
1398896.6610730693,-88908.66,-82489.71,-47928.957,1790.2019,-32799.848,-49041.3,-33137.574,-24308.676
1398896.665073064,-88919.92,-82494.95,-47932.617,1790.0391,-32806.805,-49040.895,-33136.15,-24308.066
1398896.6690730585,-88922.37,-82492.234,-47933.72,1793.5385,-32808.555,-49041.504,-33140.383,-24319.336
1398896.6730730531,-88916.38,-82484.984,-47931.03,1796.6309,-32802.246,-49040.895,-33141.93,-24318.604
1398896.6770730477,-88912.516,-82480.836,-47929.934,1795.7764,-32806.03,-49038.86,-33138.633,-24312.42
1398896.6810730423,-88916.586,-82488.89,-47935.426,1788.2894,-32823.773,-49037.598,-33131.227,-24297.852
1398896.685073037,-88917.69,-82493.77,-47940.96,1785.6445,-32826.62,-49038.94,-33129.883,-24300.01
1398896.6890730313,-88918.87,-82494.47,-47942.14,1788.8998,-32818.24,-49040.324,-33135.742,-24312.826
1398896.693073026,-88913.86,-82488.77,-47939.496,1793.1316,-32809.45,-49040.45,-33138.266,-24320.72
1398896.6970730205,-88916.914,-82484.625,-47941.45,1788.2488,-32812.38,-49040.367,-33134.93,-24311.932
1398896.701073015,-88926.76,-82494.95,-47947.145,1783.2845,-32818.277,-49040.69,-33132.324,-24304.81
1398896.7050730097,-88928.875,-82501.38,-47949.26,1781.5756,-32828.656,-49043.094,-33135.785,-24309.043
1398896.7090730043,-88932.13,-82505.45,-47949.707,1784.3425,-32823.895,-49043.254,-33138.51,-24310.385
1398896.713072999,-88922.08,-82491.5,-47946.617,1788.4929,-32824.18,-49044.027,-33142.863,-24316.285
1398896.7170729933,-88916.06,-82482.75,-47945.844,1786.9467,-32823.445,-49043.254,-33139.0,-24308.31
1398896.721072988,-88922.0,-82491.62,-47951.582,1779.8259,-32833.133,-49043.133,-33136.395,-24304.24
1398896.7250729825,-88926.35,-82504.03,-47956.91,1776.6927,-32839.723,-49044.76,-33138.1,-24302.41
1398896.729072977,-88927.984,-82502.52,-47955.566,1780.6396,-32828.9,-49046.875,-33143.598,-24312.379
1398896.7330729717,-88920.29,-82489.99,-47953.004,1784.7494,-32819.254,-49047.773,-33145.914,-24314.414
1398896.7370729663,-88918.91,-82489.87,-47956.137,1780.6396,-32821.617,-49050.375,-33146.242,-24313.438
1398896.741072961,-88921.875,-82494.1,-47958.254,1776.2859,-32831.87,-49052.246,-33146.04,-24312.256
1398896.7450729553,-88925.414,-82501.836,-47957.44,1776.0824,-32843.914,-49049.848,-33141.44,-24310.426
1398896.7490729499,-88921.92,-82502.69,-47953.37,1780.9246,-32835.734,-49048.625,-33141.44,-24314.697
1398896.7530729445,-88913.82,-82488.53,-47953.125,1784.3832,-32823.73,-49048.75,-33141.766,-24311.973
1398896.757072939,-88914.47,-82482.95,-47955.812,1781.2094,-32832.723,-49045.168,-33133.668,-24303.428
1398896.7610729337,-88919.15,-82489.38,-47961.062,1776.123,-32842.367,-49045.695,-33135.05,-24303.06
1398896.7650729283,-88923.1,-82495.98,-47963.664,1776.6521,-32845.543,-49045.777,-33135.01,-24299.805
1398896.7690729229,-88920.984,-82493.0,-47961.996,1780.8838,-32833.21,-49044.434,-33135.5,-24305.176
1398896.7730729172,-88914.23,-82479.66,-47959.84,1785.0342,-32827.15,-49044.11,-33133.383,-24304.078
1398896.7770729118,-88913.86,-82480.836,-47964.56,1783.8949,-32828.004,-49043.133,-33130.047,-24288.086
1398896.7810729065,-88920.45,-82491.13,-47967.855,1779.948,-32834.92,-49045.9,-33133.426,-24292.604
1398896.785072901,-88919.31,-82495.37,-47969.117,1780.9652,-32840.82,-49049.03,-33138.918,-24303.02
1398896.7890728957,-88917.73,-82494.02,-47970.83,1786.1328,-32831.46,-49048.83,-33142.133,-24310.467
1398896.7930728903,-88914.266,-82489.99,-47969.523,1788.9812,-32823.773,-49048.098,-33142.254,-24311.484
1398896.7970728849,-88914.59,-82482.95,-47968.75,1786.1328,-32828.86,-49046.31,-33140.3,-24304.404
1398896.8010728792,-88918.055,-82485.27,-47972.047,1780.5176,-32836.754,-49044.07,-33138.51,-24301.596
1398896.8050728738,-88918.7,-82494.63,-47973.27,1777.71,-32845.176,-49045.332,-33140.3,-24308.96
1398896.8090728684,-88915.445,-82500.05,-47973.145,1780.6396,-32839.316,-49047.73,-33144.207,-24326.416
1398896.813072863,-88917.81,-82495.164,-47976.32,1783.366,-32826.703,-49047.61,-33143.15,-24320.354
1398896.8170728576,-88920.086,-82488.53,-47979.29,1781.3314,-32827.555,-49048.137,-33144.086,-24318.523
1398896.8210728522,-88925.7,-82495.77,-47984.05,1776.3672,-32836.832,-49051.72,-33149.09,-24328.98
1398896.8250728466,-88929.81,-82497.6,-47984.17,1777.2217,-32842.043,-49052.168,-33148.4,-24323.406
1398896.8290728412,-88927.66,-82502.65,-47979.207,1782.308,-32841.84,-49049.277,-33146.04,-24318.36
1398896.8330728358,-88921.555,-82496.664,-47976.277,1787.0281,-32834.27,-49048.016,-33146.242,-24321.045
1398896.8370728304,-88917.65,-82491.3,-47975.14,1784.139,-32829.715,-49048.625,-33145.426,-24321.25
1398896.841072825,-88923.14,-82496.625,-47980.31,1776.2451,-32845.906,-49049.766,-33144.45,-24316.082
1398896.8450728196,-88926.68,-82505.05,-47983.277,1775.6755,-32852.457,-49049.887,-33145.836,-24319.541
1398896.8490728142,-88924.73,-82502.41,-47983.44,1779.2969,-32844.28,-49048.465,-33143.473,-24318.238
1398896.8530728086,-88921.59,-82493.125,-47981.65,1781.2908,-32840.13,-49047.73,-33140.383,-24313.03
1398896.8570728032,-88916.79,-82485.31,-47980.105,1779.7039,-32840.984,-49045.492,-33136.027,-24306.682
1398896.8610727978,-88920.86,-82498.336,-47984.17,1772.583,-32852.01,-49045.207,-33134.32,-24302.084
1398896.8650727924,-88931.16,-82511.35,-47989.3,1769.7754,-32860.027,-49050.008,-33136.637,-24297.363
1398896.869072787,-88928.305,-82503.79,-47988.69,1775.1465,-32851.035,-49052.53,-33139.895,-24294.922
1398896.8730727816,-88918.17,-82492.48,-47985.598,1776.2859,-32842.855,-49054.973,-33144.734,-24306.602
1398896.8770727762,-88917.6,-82489.26,-47989.055,1773.1934,-32839.52,-49053.836,-33147.42,-24322.186
1398896.8810727706,-88921.266,-82493.98,-47993.9,1767.2119,-32839.438,-49052.777,-33144.98,-24318.035
1398896.8850727652,-88925.664,-82501.95,-47995.484,1767.9443,-32847.047,-49051.96,-33138.67,-24305.42
1398896.8890727598,-88932.13,-82489.26,-47999.27,1770.0603,-32850.223,-49052.41,-33138.797,-24299.236
1398896.8930727544,-88928.19,-82482.83,-47999.105,1771.4031,-32846.273,-49052.29,-33142.742,-24306.193
1398896.897072749,-88922.24,-82476.73,-47995.77,1771.8099,-32846.965,-49051.637,-33141.03,-24306.805
1398896.9010727436,-88929.89,-82487.96,-47998.21,1767.0898,-32859.05,-49052.492,-33140.953,-24300.62
1398896.9050727382,-88933.15,-82499.555,-48001.832,1764.6892,-32868.652,-49052.86,-33141.684,-24300.986
1398896.9090727326,-88933.39,-82497.234,-48003.83,1765.2588,-32864.95,-49054.85,-33147.176,-24312.053
1398896.9130727272,-88932.21,-82489.34,-48005.414,1767.0492,-32857.504,-49055.79,-33149.05,-24320.762
1398896.9170727218,-88931.52,-82484.21,-48009.117,1762.2478,-32853.72,-49056.113,-33149.617,-24323.283
1398896.9210727164,-88937.75,-82491.91,-48014.61,1755.3711,-32868.492,-49056.97,-33149.7,-24318.076
1398896.925072711,-88942.23,-82493.86,-48015.953,1757.1208,-32872.113,-49057.58,-33151.9,-24325.033
1398896.9290727056,-88942.914,-82495.08,-48014.285,1762.8582,-32865.36,-49056.152,-33152.387,-24324.83
1398896.9330727002,-88941.37,-82493.695,-48012.086,1764.6484,-32868.043,-49056.48,-33153.65,-24321.982
1398896.9370726945,-88935.63,-82488.445,-48010.5,1763.2244,-32871.34,-49056.97,-33152.344,-24319.785
1398896.9410726891,-88943.32,-82498.25,-48013.184,1758.8705,-32883.707,-49058.96,-33149.13,-24313.518
1398896.9450726837,-88948.94,-82506.266,-48018.27,1758.5449,-32879.76,-49059.004,-33147.91,-24311.809
1398896.9490726783,-88944.7,-82496.625,-48019.695,1762.8174,-32869.184,-49059.492,-33149.82,-24316.244
1398896.953072673,-88940.06,-82485.44,-48016.44,1765.0554,-32857.098,-49057.58,-33149.332,-24327.88
1398896.9570726675,-88940.02,-82479.375,-48019.086,1761.9222,-32860.965,-49055.46,-33147.016,-24323.568
1398896.9610726621,-88943.24,-82491.82,-48024.13,1759.074,-32870.08,-49055.664,-33145.836,-24320.598
1398896.9650726565,-88945.68,-82500.53,-48025.96,1757.4463,-32875.53,-49057.66,-33148.074,-24324.098
1398896.9690726511,-88947.19,-82503.91,-48024.457,1761.0677,-32871.664,-49057.984,-33147.34,-24315.838
1398896.9730726457,-88941.81,-82500.77,-48022.258,1762.1664,-32865.152,-49059.855,-33149.945,-24313.314
1398896.9770726403,-88943.16,-82498.01,-48026.207,1757.1208,-32871.42,-49062.094,-33153.484,-24322.633
1398896.981072635,-88947.72,-82505.58,-48030.844,1751.8718,-32885.945,-49064.7,-33154.664,-24328.492
1398896.9850726295,-88946.82,-82512.21,-48031.78,1754.476,-32884.97,-49067.14,-33155.316,-24332.154
1398896.9890726241,-88948.2,-82513.35,-48032.023,1759.6843,-32888.266,-49065.633,-33151.57,-24319.336
1398896.9930726185,-88945.56,-82507.2,-48032.473,1760.8643,-32873.82,-49065.39,-33152.957,-24327.271
1398896.997072613,-88940.31,-82496.99,-48028.28,1759.4402,-32872.273,-49065.145,-33151.652,-24333.578
1398897.0010726077,-88939.984,-82502.32,-48028.16,1755.0863,-32884.523,-49065.594,-33147.016,-24324.098
1398897.0050726023,-88943.766,-82509.195,-48026.855,1755.0049,-32887.94,-49068.89,-33152.184,-24327.88
1398897.009072597,-88941.77,-82505.336,-48023.848,1760.2947,-32876.1,-49068.035,-33153.363,-24324.098
1398897.0130725915,-88937.5,-82502.81,-48020.43,1763.3464,-32865.36,-49066.406,-33149.984,-24315.959
1398897.017072586,-88934.25,-82500.81,-48019.37,1760.8236,-32862.348,-49063.56,-33148.03,-24320.924
1398897.0210725805,-88939.7,-82503.18,-48019.613,1755.2898,-32861.004,-49062.176,-33143.516,-24312.5
1398897.025072575,-88941.734,-82504.84,-48014.082,1758.3822,-32870.242,-49062.137,-33141.684,-24309.693
1398897.0290725697,-88937.75,-82498.3,-48006.062,1763.6719,-32858.848,-49062.297,-33145.062,-24311.402
1398897.0330725643,-88930.016,-82484.91,-47995.89,1767.9037,-32847.332,-49060.914,-33143.598,-24305.584
1398897.037072559,-88928.76,-82484.46,-47991.133,1764.3636,-32847.453,-49060.914,-33141.156,-24299.277
1398897.0410725535,-88936.89,-82491.336,-47990.113,1757.0394,-32856.285,-49062.99,-33139.12,-24305.096
1398897.0450725479,-88937.55,-82497.93,-47987.59,1757.0394,-32856.363,-49063.56,-33136.637,-24296.957
1398897.0490725425,-88935.43,-82498.336,-47985.15,1765.2996,-32849.406,-49063.355,-33141.03,-24301.555
1398897.053072537,-88931.195,-82489.586,-47980.266,1771.8914,-32836.47,-49062.99,-33145.387,-24307.129
1398897.0570725317,-88927.695,-82485.19,-47978.926,1769.5312,-32831.668,-49064.7,-33147.83,-24310.67
1398897.0610725263,-88935.95,-82501.914,-47981.367,1764.2416,-32845.46,-49066.895,-33147.664,-24304.24
1398897.0650725209,-88940.63,-82502.12,-47978.516,1766.4388,-32845.906,-49066.49,-33147.586,-24307.129
1398897.0690725155,-88938.766,-82495.28,-47973.715,1770.6707,-32832.926,-49066.203,-33152.305,-24320.557
1398897.0730725098,-88930.14,-82487.02,-47966.066,1776.8962,-32828.74,-49061.117,-33148.234,-24318.4
1398897.0770725044,-88929.32,-82482.47,-47963.46,1774.0479,-32823.855,-49059.45,-33145.223,-24310.873
1398897.081072499,-88930.26,-82487.51,-47963.46,1770.7113,-32827.8,-49058.88,-33144.492,-24309.408
1398897.0850724936,-88933.76,-82491.09,-47966.594,1771.7693,-32828.656,-49060.875,-33146.934,-24315.43
1398897.0890724882,-88938.766,-82489.87,-47971.07,1774.9431,-32817.668,-49061.402,-33148.766,-24314.494
1398897.0930724829,-88937.34,-82484.375,-47971.883,1779.948,-32805.016,-49061.2,-33147.83,-24309.043
1398897.0970724775,-88935.59,-82485.84,-47970.34,1775.472,-32811.363,-49062.176,-33149.58,-24310.1
1398897.1010724718,-88939.7,-82489.42,-47971.477,1771.1996,-32829.996,-49062.785,-33145.71,-24300.822
1398897.1050724664,-88943.61,-82496.09,-47970.543,1772.2576,-32835.246,-49065.145,-33146.89,-24311.035
1398897.109072461,-88942.266,-82495.28,-47968.426,1775.472,-32820.883,-49064.496,-33148.844,-24309.246
1398897.1130724556,-88932.74,-82482.75,-47965.742,1779.2969,-32803.426,-49063.723,-33148.97,-24310.629
1398897.1170724502,-88930.26,-82479.125,-47966.797,1777.9949,-32795.74,-49062.83,-33148.277,-24319.012
1398897.1210724448,-88933.11,-82484.13,-47971.723,1771.5658,-32803.305,-49062.258,-33144.9,-24310.588
1398897.1250724394,-88935.1,-82488.28,-47975.953,1770.5892,-32803.266,-49062.42,-33143.883,-24304.078
1398897.1290724338,-88936.93,-82487.836,-47977.54,1774.4548,-32797.61,-49062.664,-33146.77,-24308.92
1398897.1330724284,-88935.47,-82480.67,-47975.953,1776.123,-32794.84,-49062.46,-33147.79,-24309.367
1398897.137072423,-88938.68,-82484.09,-47977.5,1772.3796,-32810.59,-49063.56,-33143.11,-24303.06
1398897.1410724176,-88942.305,-82490.07,-47976.645,1770.0195,-32819.703,-49062.746,-33141.36,-24306.885
1398897.1450724122,-88940.68,-82490.69,-47973.594,1770.9554,-32809.695,-49061.28,-33139.566,-24305.746
1398897.1490724068,-88941.94,-82493.45,-47974.285,1775.2279,-32801.676,-49060.957,-33141.44,-24309.652
1398897.1530724014,-88935.8,-82487.19,-47972.535,1775.472,-32790.69,-49061.85,-33144.004,-24311.564
1398897.1570723958,-88935.51,-82485.31,-47975.71,1772.8271,-32789.797,-49061.85,-33142.254,-24301.555
1398897.1610723904,-88941.164,-82495.445,-47982.547,1768.2699,-32799.234,-49061.934,-33141.24,-24299.887
1398897.165072385,-88943.97,-82504.44,-47986.043,1770.1416,-32803.184,-49065.227,-33148.805,-24315.35
1398897.1690723796,-88943.445,-82493.37,-47987.266,1775.35,-32787.8,-49066.53,-33155.6,-24322.674
1398897.1730723742,-88932.664,-82481.94,-47981.324,1780.7211,-32771.242,-49063.805,-33152.1,-24314.982
1398897.1770723688,-88928.19,-82477.7,-47978.926,1780.2328,-32780.926,-49061.523,-33148.355,-24310.547
1398897.1810723634,-88925.83,-82478.11,-47978.438,1775.35,-32797.12,-49064.168,-33150.066,-24324.342
1398897.1850723578,-88926.64,-82482.42,-47978.19,1775.7162,-32802.777,-49066.285,-33151.695,-24325.115
1398897.1890723524,-88927.49,-82481.98,-47977.46,1779.0935,-32794.68,-49065.43,-33150.797,-24316.895
1398897.193072347,-88923.586,-82473.72,-47977.664,1782.959,-32786.133,-49065.43,-33154.176,-24326.945
1398897.1970723416,-88919.766,-82463.34,-47977.582,1781.1687,-32788.98,-49065.84,-33154.785,-24325.562
1398897.2010723362,-88919.195,-82462.04,-47980.227,1777.059,-32799.645,-49065.473,-33151.734,-24317.383
1398897.2050723308,-88923.18,-82470.5,-47983.113,1776.4893,-32803.387,-49065.105,-33150.676,-24316.203
1398897.2090723254,-88921.555,-82464.766,-47982.953,1780.9246,-32800.21,-49066.61,-33155.234,-24324.871
1398897.2130723197,-88917.73,-82458.055,-47982.547,1784.139,-32795.047,-49068.605,-33160.77,-24326.05
1398897.2170723143,-88915.9,-82458.664,-47986.29,1780.1514,-32797.527,-49067.06,-33156.168,-24315.146
1398897.221072309,-88916.875,-82454.67,-47991.414,1775.7976,-32789.145,-49069.094,-33158.406,-24321.371
1398897.2250723036,-88919.35,-82460.086,-47990.684,1776.2045,-32780.316,-49071.13,-33161.867,-24325.44
1398897.2290722982,-88914.35,-82455.61,-47990.926,1782.8777,-32784.508,-49068.848,-33159.75,-24320.598
1398897.2330722928,-88910.12,-82443.89,-47993.53,1784.5052,-32794.72,-49066.285,-33156.168,-24316.895
1398897.2370722871,-88913.336,-82438.6,-47995.2,1778.1982,-32800.58,-49066.203,-33151.613,-24310.182
1398897.2410722817,-88919.805,-82453.05,-47997.887,1772.3389,-32812.5,-49067.14,-33149.66,-24313.762
1398897.2450722763,-88922.28,-82465.78,-47997.684,1772.8271,-32812.785,-49066.816,-33149.902,-24312.582
1398897.249072271,-88922.0,-82461.96,-47996.785,1777.0183,-32805.83,-49067.18,-33151.125,-24315.47
1398897.2530722655,-88921.266,-82454.71,-47995.81,1776.5707,-32802.695,-49068.28,-33155.438,-24329.102
1398897.2570722601,-88919.4,-82453.9,-47998.58,1773.8851,-32802.164,-49067.586,-33155.76,-24322.998
1398897.2610722547,-88927.58,-82460.33,-48006.43,1770.3044,-32808.066,-49068.973,-33159.223,-24326.986
1398897.265072249,-88932.336,-82462.85,-48009.074,1768.1072,-32820.516,-49069.176,-33159.465,-24324.79
1398897.2690722437,-88935.02,-82464.68,-48010.703,1771.4031,-32808.15,-49069.094,-33158.33,-24320.762
1398897.2730722383,-88929.164,-82455.41,-48008.3,1774.3328,-32801.96,-49068.2,-33155.4,-24311.076
1398897.277072233,-88926.19,-82457.36,-48010.176,1769.1244,-32808.066,-49068.484,-33151.816,-24309.082
1398897.2810722275,-88940.72,-82474.37,-48017.254,1760.6201,-32820.312,-49069.54,-33147.746,-24303.102
1398897.2850722221,-88941.49,-82484.21,-48018.27,1760.0098,-32824.06,-49069.176,-33144.9,-24298.748
1398897.2890722167,-88936.445,-82476.85,-48014.082,1765.8285,-32811.24,-49069.5,-33149.54,-24314.006
1398897.293072211,-88936.0,-82467.45,-48013.957,1766.5609,-32804.688,-49069.094,-33151.45,-24315.674
1398897.2970722057,-88933.35,-82466.11,-48014.57,1765.0554,-32812.867,-49069.46,-33152.914,-24314.047
1398897.3010722003,-88933.92,-82467.45,-48016.24,1763.4277,-32820.477,-49071.74,-33153.523,-24313.03
1398897.305072195,-88938.52,-82472.375,-48016.44,1765.1367,-32821.047,-49073.164,-33151.652,-24306.926
1398897.3090721895,-88934.9,-82474.086,-48012.9,1771.5251,-32811.566,-49074.668,-33153.727,-24310.955
1398897.313072184,-88929.61,-82465.54,-48007.812,1772.8679,-32804.85,-49075.156,-33158.816,-24322.062
1398897.3170721787,-88931.234,-82460.164,-48010.38,1766.8865,-32809.0,-49075.48,-33156.21,-24311.809
1398897.321072173,-88940.43,-82466.68,-48016.6,1759.725,-32823.73,-49076.5,-33151.695,-24304.729
1398897.3250721677,-88943.24,-82479.78,-48017.215,1759.7656,-32824.18,-49076.457,-33153.605,-24308.92
1398897.3290721623,-88941.77,-82484.625,-48017.742,1764.5264,-32819.05,-49074.668,-33152.508,-24306.396
1398897.3330721569,-88938.16,-82488.445,-48016.4,1765.7471,-32810.1,-49072.918,-33148.64,-24293.986
1398897.3370721515,-88936.12,-82484.09,-48017.17,1763.3057,-32802.29,-49071.574,-33149.254,-24302.41
1398897.341072146,-88938.73,-82486.734,-48024.17,1758.3416,-32820.19,-49074.42,-33152.305,-24315.756
1398897.3450721407,-88946.25,-82493.21,-48027.426,1756.8359,-32829.996,-49076.17,-33155.887,-24321.29
1398897.349072135,-88944.09,-82488.69,-48024.58,1763.7533,-32822.145,-49074.465,-33156.21,-24316.367
1398897.3530721297,-88942.914,-82480.266,-48023.97,1765.7471,-32818.402,-49074.42,-33155.926,-24311.688
1398897.3570721243,-88937.42,-82475.016,-48022.746,1761.9222,-32819.38,-49073.977,-33158.0,-24317.871
1398897.3610721189,-88941.0,-82485.234,-48026.367,1757.5277,-32826.215,-49075.035,-33158.406,-24313.111
1398897.3650721135,-88949.42,-82493.0,-48031.617,1757.0394,-32832.6,-49075.605,-33157.105,-24304.729
1398897.369072108,-88947.63,-82489.75,-48033.246,1760.0505,-32827.598,-49075.562,-33159.465,-24309.652
1398897.3730721027,-88945.03,-82484.21,-48034.71,1760.1318,-32823.934,-49075.848,-33159.14,-24301.758
1398897.377072097,-88943.89,-82476.32,-48034.426,1757.6091,-32825.887,-49075.156,-33159.223,-24306.967
1398897.3810720916,-88947.11,-82487.35,-48035.848,1754.8828,-32832.6,-49074.016,-33157.43,-24313.64
1398897.3850720862,-88944.664,-82491.01,-48033.816,1756.9174,-32838.094,-49073.324,-33154.38,-24314.861
1398897.3890720808,-88938.93,-82477.91,-48031.332,1763.9568,-32828.656,-49072.957,-33152.508,-24315.309
1398897.3930720754,-88934.29,-82468.1,-48029.95,1765.3809,-32819.176,-49072.47,-33147.746,-24301.719
1398897.39707207,-88928.63,-82463.09,-48030.56,1761.7188,-32821.94,-49071.29,-33144.45,-24294.395
1398897.4010720646,-88931.93,-82471.766,-48033.855,1755.4932,-32836.996,-49073.242,-33147.176,-24299.56
1398897.405072059,-88935.75,-82484.58,-48035.645,1753.7029,-32851.277,-49076.62,-33152.63,-24308.555
1398897.4090720536,-88939.78,-82486.82,-48038.008,1757.3242,-32841.84,-49077.598,-33158.246,-24313.111
1398897.4130720482,-88939.78,-82477.375,-48042.24,1758.2601,-32831.87,-49078.86,-33161.906,-24315.268
1398897.4170720428,-88941.29,-82474.86,-48046.875,1754.8015,-32837.08,-49079.633,-33159.71,-24316.691
1398897.4210720374,-88945.234,-82472.74,-48051.11,1750.3256,-32848.023,-49079.266,-33156.453,-24317.059
1398897.425072032,-88946.86,-82471.4,-48050.62,1751.9939,-32852.99,-49078.453,-33154.055,-24313.438
1398897.4290720266,-88943.89,-82477.17,-48048.75,1753.7842,-32837.402,-49078.207,-33153.445,-24313.64
1398897.433072021,-88939.58,-82475.016,-48048.383,1757.2836,-32829.1,-49080.363,-33155.6,-24313.72
1398897.4370720156,-88937.22,-82469.65,-48050.54,1754.0283,-32833.62,-49080.65,-33157.51,-24314.25
1398897.4410720102,-88943.93,-82483.97,-48054.445,1747.8435,-32847.37,-49080.445,-33152.957,-24306.805
1398897.4450720048,-88953.58,-82488.164,-48057.902,1746.3379,-32852.336,-49081.746,-33155.07,-24304.973
1398897.4490719994,-88953.21,-82484.21,-48059.164,1750.0,-32845.5,-49081.992,-33158.652,-24316.855
1398897.453071994,-88949.51,-82480.43,-48060.26,1752.8484,-32845.906,-49082.156,-33160.562,-24315.227
1398897.4570719884,-88952.4,-82488.484,-48065.758,1748.3318,-32853.516,-49085.574,-33162.395,-24312.95
1398897.461071983,-88959.92,-82498.336,-48070.64,1742.2689,-32860.395,-49088.094,-33165.934,-24320.354
1398897.4650719776,-88960.9,-82498.13,-48069.95,1742.8793,-32861.41,-49085.938,-33162.76,-24312.094
1398897.4690719722,-88957.03,-82492.15,-48068.28,1749.0234,-32857.06,-49086.59,-33163.902,-24318.076
1398897.4730719668,-88949.42,-82479.9,-48068.2,1751.1394,-32851.97,-49087.65,-33168.05,-24329.387
1398897.4770719614,-88950.445,-82477.42,-48070.355,1746.9076,-32855.145,-49086.062,-33165.0,-24321.86
1398897.481071956,-88962.164,-82486.86,-48079.633,1740.6006,-32867.27,-49086.793,-33160.44,-24311.89
1398897.4850719504,-88969.0,-82495.37,-48084.434,1739.7461,-32874.555,-49086.59,-33159.098,-24314.658
1398897.489071945,-88966.23,-82495.04,-48082.723,1743.2048,-32862.508,-49085.652,-33156.7,-24309.611
1398897.4930719396,-88959.11,-82483.195,-48079.715,1747.1111,-32851.117,-49083.742,-33156.293,-24309.693
1398897.4970719342,-88956.26,-82476.65,-48078.492,1744.9138,-32851.402,-49083.863,-33154.34,-24308.025
1398897.5010719288,-88957.12,-82484.01,-48077.84,1742.9199,-32853.355,-49082.805,-33149.17,-24303.752
1398897.5050719234,-88958.58,-82491.62,-48074.91,1742.7979,-32862.996,-49083.58,-33150.066,-24313.396
1398897.509071918,-88956.14,-82489.87,-48072.348,1746.867,-32862.223,-49083.008,-33151.652,-24310.67
1398897.5130719123,-88951.664,-82481.08,-48073.49,1747.8842,-32857.625,-49082.723,-33150.72,-24300.293
1398897.517071907,-88953.9,-82483.03,-48079.305,1741.2924,-32863.895,-49084.92,-33150.188,-24298.666
1398897.5210719015,-88957.766,-82493.25,-48084.598,1736.6537,-32871.38,-49087.242,-33150.92,-24299.277
1398897.5250718961,-88962.61,-82504.56,-48085.574,1735.6771,-32875.45,-49088.91,-33153.035,-24302.816
1398897.5290718907,-88964.97,-82503.22,-48086.67,1739.3392,-32864.95,-49089.234,-33155.07,-24307.617
1398897.5330718854,-88961.55,-82491.91,-48085.98,1741.1296,-32860.598,-49087.16,-33153.523,-24306.723
1398897.53707188,-88957.44,-82486.086,-48087.402,1737.5896,-32865.4,-49085.37,-33153.523,-24306.479
1398897.5410718743,-88962.77,-82492.234,-48091.676,1731.2826,-32875.0,-49087.324,-33154.582,-24305.787
1398897.545071869,-88969.57,-82497.27,-48094.93,1730.8757,-32877.28,-49089.4,-33157.555,-24315.105
1398897.5490718635,-88971.97,-82495.08,-48096.19,1736.3689,-32862.996,-49091.473,-33160.605,-24313.803
1398897.5530718581,-88963.3,-82490.97,-48090.254,1740.5193,-32862.836,-49090.293,-33160.688,-24308.676
1398897.5570718527,-88957.36,-82487.67,-48086.426,1739.8275,-32870.28,-49086.793,-33158.082,-24311.523
1398897.5610718473,-88965.945,-82505.13,-48090.008,1732.6254,-32876.59,-49085.86,-33152.47,-24303.996
1398897.565071842,-88976.81,-82518.76,-48090.984,1729.9398,-32882.12,-49086.1,-33152.957,-24309.326
1398897.5690718363,-88979.29,-82518.92,-48087.402,1734.2529,-32875.613,-49087.973,-33156.168,-24311.361
1398897.573071831,-88977.79,-82508.51,-48080.445,1736.2875,-32865.438,-49088.707,-33156.293,-24312.908
1398897.5770718255,-88973.02,-82510.79,-48076.945,1733.9275,-32866.05,-49089.723,-33155.316,-24311.484
1398897.58107182,-88979.21,-82517.055,-48076.906,1732.2185,-32868.004,-49090.863,-33155.4,-24310.67
1398897.5850718147,-88983.445,-82519.58,-48073.895,1734.782,-32861.492,-49090.82,-33156.535,-24320.557
1398897.5890718093,-88978.68,-82512.45,-48069.95,1739.4613,-32850.547,-49090.457,-33158.12,-24320.312
1398897.593071804,-88975.016,-82501.18,-48062.867,1743.7338,-32843.305,-49087.605,-33155.723,-24318.97
1398897.5970717983,-88972.78,-82495.89,-48056.6,1743.5303,-32843.14,-49084.883,-33149.863,-24308.799
1398897.601071793,-88973.76,-82498.336,-48052.125,1739.7869,-32854.37,-49081.79,-33143.68,-24304.24
1398897.6050717875,-88976.766,-82513.266,-48046.875,1741.6992,-32856.812,-49082.766,-33144.98,-24315.715
1398897.609071782,-88978.195,-82513.8,-48042.156,1745.6462,-32844.08,-49083.824,-33145.387,-24311.484
1398897.6130717767,-88970.42,-82502.61,-48033.69,1750.0408,-32834.637,-49082.277,-33143.15,-24305.705
1398897.6170717713,-88969.28,-82496.91,-48032.35,1747.8842,-32832.074,-49084.92,-33148.48,-24309.326
1398897.621071766,-88977.91,-82502.08,-48036.418,1743.7744,-32834.066,-49087.242,-33153.77,-24315.959
1398897.6250717603,-88983.12,-82507.57,-48039.023,1743.449,-32842.082,-49090.7,-33158.816,-24320.15
1398897.6290717549,-88983.445,-82500.086,-48036.297,1749.349,-32835.125,-49091.84,-33159.996,-24318.727
1398897.6330717495,-88979.984,-82495.89,-48030.56,1752.6855,-32821.86,-49091.35,-33159.75,-24314.617
1398897.637071744,-88982.51,-82498.5,-48031.13,1748.4131,-32815.715,-49091.594,-33159.953,-24314.129
1398897.6410717387,-88989.1,-82510.664,-48034.914,1744.222,-32829.918,-49090.293,-33155.19,-24306.64
1398897.6450717333,-88990.03,-82515.83,-48036.46,1747.9248,-32835.207,-49089.56,-33154.99,-24314.658
1398897.6490717276,-88987.47,-82507.086,-48034.508,1754.7607,-32811.65,-49086.957,-33155.152,-24317.832
1398897.6530717222,-88983.445,-82498.01,-48033.285,1757.9346,-32802.777,-49085.45,-33154.543,-24308.229
1398897.6570717169,-88981.2,-82496.91,-48034.953,1755.2898,-32814.496,-49083.62,-33153.688,-24308.105
1398897.6610717115,-88981.53,-82503.7,-48036.99,1754.5166,-32818.44,-49083.906,-33155.355,-24319.621
1398897.665071706,-88980.43,-82506.88,-48035.77,1754.9642,-32818.93,-49084.8,-33152.547,-24310.059
1398897.6690717007,-88977.664,-82500.86,-48033.0,1759.2367,-32806.113,-49083.906,-33152.1,-24311.564
1398897.6730716953,-88974.24,-82490.195,-48031.7,1762.1257,-32795.777,-49083.457,-33151.207,-24314.697
1398897.6770716896,-88970.5,-82484.87,-48032.27,1758.0566,-32794.07,-49081.42,-33143.434,-24307.822
1398897.6810716842,-88976.28,-82490.484,-48037.395,1752.1973,-32802.125,-49081.586,-33137.492,-24297.73
1398897.6850716788,-88976.81,-82495.32,-48038.414,1752.3601,-32811.81,-49082.887,-33141.48,-24302.41
1398897.6890716734,-88978.64,-82499.07,-48039.51,1756.3477,-32810.75,-49085.86,-33145.223,-24300.945
1398897.693071668,-88981.49,-82493.66,-48040.61,1757.5277,-32807.984,-49085.777,-33147.664,-24303.02
1398897.6970716626,-88978.15,-82486.01,-48039.754,1757.1208,-32806.195,-49085.33,-33151.246,-24312.705
1398897.7010716572,-88983.6,-82497.48,-48042.684,1751.9531,-32822.145,-49087.04,-33150.92,-24305.87
1398897.7050716516,-88989.625,-82507.37,-48045.695,1747.3145,-32830.65,-49090.82,-33153.035,-24306.52
1398897.7090716462,-88989.26,-82505.49,-48042.523,1751.831,-32816.977,-49091.96,-33159.26,-24326.904
1398897.7130716408,-88988.24,-82497.805,-48040.977,1753.9062,-32804.73,-49090.21,-33160.035,-24319.662
1398897.7170716354,-88989.51,-82499.8,-48042.48,1751.9939,-32806.277,-49090.332,-33161.258,-24327.23
1398897.72107163,-88992.68,-82508.34,-48046.633,1748.169,-32812.625,-49092.816,-33164.957,-24335.654
1398897.7250716246,-88998.05,-82518.88,-48051.96,1747.518,-32822.88,-49093.953,-33168.824,-24347.209
1398897.7290716192,-88998.78,-82518.92,-48053.184,1752.889,-32812.785,-49092.855,-33167.035,-24338.502
1398897.7330716136,-88993.125,-82510.945,-48050.906,1755.4119,-32795.777,-49092.613,-33165.04,-24332.764
1398897.7370716082,-88991.3,-82503.18,-48050.78,1752.0345,-32805.22,-49090.7,-33156.7,-24315.594
1398897.7410716028,-88991.7,-82504.16,-48051.84,1747.8027,-32817.383,-49089.844,-33154.99,-24317.668
1398897.7450715974,-88991.62,-82511.4,-48051.395,1747.9248,-32817.996,-49090.863,-33160.035,-24324.545
1398897.749071592,-88992.76,-82509.85,-48050.293,1751.2207,-32808.31,-49089.6,-33156.984,-24314.617
1398897.7530715866,-88989.87,-82504.44,-48050.133,1754.1504,-32802.164,-49092.734,-33160.645,-24324.139
1398897.7570715812,-88990.64,-82500.77,-48052.613,1752.116,-32799.766,-49093.914,-33161.99,-24326.254
1398897.7610715756,-88993.05,-82506.8,-48056.684,1749.2269,-32804.934,-49093.387,-33160.2,-24322.998
1398897.7650715702,-88995.41,-82507.086,-48058.105,1750.6104,-32821.29,-49093.508,-33160.156,-24322.959
1398897.7690715648,-88991.664,-82507.37,-48053.47,1754.8828,-32814.13,-49094.035,-33164.594,-24333.496
1398897.7730715594,-88986.375,-82501.51,-48053.836,1758.8705,-32802.207,-49092.773,-33166.707,-24335.37
1398897.777071554,-88988.164,-82496.09,-48057.05,1757.365,-32802.938,-49092.652,-33165.895,-24336.793
1398897.7810715486,-88994.836,-82505.86,-48061.77,1752.5635,-32811.363,-49093.547,-33164.31,-24331.178
1398897.7850715432,-88996.625,-82516.805,-48064.82,1751.1394,-32816.406,-49092.695,-33161.746,-24324.627
1398897.7890715376,-88989.42,-82503.83,-48064.82,1755.2084,-32806.07,-49090.496,-33156.496,-24315.756
1398897.7930715322,-88985.72,-82491.5,-48065.35,1757.0394,-32802.574,-49089.56,-33155.273,-24313.438
1398897.7970715268,-88987.305,-82490.195,-48067.668,1749.7966,-32807.617,-49088.3,-33153.523,-24315.512
1398897.8010715214,-88991.055,-82494.59,-48070.152,1745.6869,-32819.05,-49088.83,-33151.613,-24318.604
1398897.805071516,-88995.08,-82503.016,-48071.25,1745.4427,-32824.75,-49090.375,-33148.277,-24310.344
1398897.8090715106,-88996.83,-82511.31,-48071.777,1749.0234,-32819.867,-49087.445,-33143.473,-24303.672
1398897.8130715052,-88993.414,-82501.47,-48069.867,1752.8484,-32813.76,-49087.77,-33147.055,-24311.28
1398897.8170714995,-88991.58,-82497.48,-48070.152,1748.7386,-32816.406,-49089.195,-33148.52,-24318.482
1398897.8210714941,-88993.49,-82503.13,-48071.98,1744.4255,-32825.277,-49092.977,-33152.344,-24321.453
1398897.8250714887,-88993.82,-82504.234,-48072.754,1746.1752,-32825.24,-49093.547,-33153.32,-24312.176
1398897.8290714833,-88992.88,-82497.4,-48072.715,1752.4414,-32813.355,-49091.023,-33152.547,-24312.988
1398897.833071478,-88989.18,-82492.72,-48070.723,1753.2552,-32814.008,-49090.945,-33154.785,-24324.3
1398897.8370714725,-88990.36,-82497.03,-48074.383,1748.3724,-32821.414,-49090.21,-33152.344,-24312.623
1398897.8410714671,-88997.07,-82502.484,-48080.895,1741.2924,-32834.96,-49093.1,-33152.508,-24313.232
1398897.8450714615,-88999.31,-82512.29,-48081.18,1741.5365,-32842.977,-49094.08,-33152.875,-24315.186
1398897.8490714561,-88995.65,-82513.1,-48078.613,1746.46,-32833.254,-49092.57,-33149.617,-24309.123
1398897.8530714507,-88997.52,-82505.49,-48079.51,1747.0703,-32821.207,-49089.07,-33145.957,-24307.334
1398897.8570714453,-88997.73,-82505.086,-48082.723,1743.8965,-32825.887,-49088.22,-33143.883,-24308.27
1398897.86107144,-89006.11,-82519.01,-48090.66,1737.793,-32834.39,-49088.34,-33143.395,-24306.885
1398897.8650714345,-89007.086,-82523.4,-48092.207,1735.8806,-32839.234,-49088.867,-33145.836,-24310.547
1398897.869071429,-89004.07,-82517.74,-48091.105,1739.4207,-32829.67,-49088.582,-33150.027,-24320.11
1398897.8730714235,-88998.54,-82508.71,-48089.844,1739.4207,-32823.934,-49088.38,-33151.53,-24318.889
1398897.877071418,-89004.68,-82518.48,-48094.363,1733.8867,-32834.11,-49089.195,-33149.332,-24319.5
1398897.8810714127,-89013.92,-82534.51,-48103.598,1728.8818,-32845.83,-49090.58,-33147.34,-24314.902
1398897.8850714073,-89018.96,-82536.99,-48107.137,1728.6785,-32848.43,-49091.84,-33146.08,-24311.932
1398897.889071402,-89016.56,-82534.55,-48102.867,1734.375,-32843.875,-49091.066,-33146.12,-24311.484
1398897.8930713965,-89012.21,-82522.34,-48101.277,1735.9619,-32841.023,-49089.805,-33144.45,-24309.326
1398897.8970713909,-89014.24,-82519.695,-48102.664,1730.5095,-32843.465,-49090.66,-33146.445,-24316.977
1398897.9010713855,-89016.69,-82525.19,-48101.44,1726.6439,-32853.56,-49091.35,-33149.375,-24326.865
1398897.90507138,-89016.805,-82533.125,-48104.98,1729.0039,-32854.492,-49091.96,-33149.13,-24324.016
1398897.9090713747,-89021.77,-82529.13,-48107.79,1732.9102,-32847.78,-49092.855,-33151.33,-24324.016
1398897.9130713693,-89016.12,-82519.58,-48106.934,1733.3171,-32837.81,-49092.49,-33154.258,-24328.695
1398897.917071364,-89018.516,-82524.414,-48109.703,1727.946,-32842.043,-49092.613,-33154.664,-24328.125
1398897.9210713585,-89026.21,-82527.14,-48115.805,1723.6328,-32853.598,-49094.89,-33154.703,-24325.521
1398897.9250713529,-89026.82,-82529.95,-48120.08,1723.226,-32861.695,-49098.676,-33160.688,-24336.467
1398897.9290713475,-89026.57,-82533.66,-48120.08,1728.4343,-32843.914,-49098.797,-33161.38,-24334.27
1398897.933071342,-89020.59,-82520.63,-48115.113,1734.1716,-32838.38,-49096.355,-33156.7,-24320.15
1398897.9370713367,-89018.92,-82516.03,-48114.46,1732.6254,-32842.45,-49095.5,-33151.613,-24312.95
1398897.9410713313,-89026.164,-82528.73,-48119.55,1726.5625,-32847.086,-49096.56,-33153.402,-24319.012
1398897.9450713259,-89026.33,-82530.27,-48121.582,1726.0742,-32854.617,-49098.676,-33157.555,-24332.44
1398897.9490713205,-89023.52,-82527.305,-48118.125,1731.893,-32849.652,-49097.414,-33157.797,-24335.898
1398897.9530713148,-89023.44,-82524.87,-48122.316,1733.1136,-32845.582,-49096.438,-33154.785,-24321.533
1398897.9570713094,-89022.664,-82523.97,-48127.523,1727.7426,-32847.617,-49096.965,-33153.523,-24319.58
1398897.961071304,-89024.74,-82530.6,-48127.727,1723.5922,-32861.41,-49096.883,-33152.02,-24325.848
1398897.9650712986,-89030.6,-82541.55,-48128.543,1723.6328,-32867.92,-49096.926,-33149.863,-24317.994
1398897.9690712932,-89019.94,-82530.6,-48122.438,1732.1777,-32861.043,-49094.77,-33149.13,-24319.133
1398897.9730712879,-89012.125,-82521.08,-48120.81,1734.5785,-32856.934,-49093.508,-33147.258,-24313.03
1398897.9770712825,-89007.94,-82515.95,-48121.707,1729.3701,-32854.574,-49091.35,-33142.78,-24304.078
1398897.9810712768,-89009.85,-82521.53,-48125.125,1723.6328,-32862.59,-49090.945,-33141.36,-24308.635
1398897.9850712714,-89008.95,-82518.76,-48127.08,1725.9929,-32865.97,-49089.723,-33142.293,-24314.617
1398897.989071266,-89006.76,-82518.15,-48127.566,1730.5095,-32858.4,-49091.23,-33144.695,-24315.594
1398897.9930712606,-89013.305,-82513.63,-48129.11,1729.2074,-32857.3,-49092.938,-33146.242,-24308.635
1398897.9970712552,-89018.72,-82517.945,-48130.984,1724.6908,-32865.887,-49094.89,-33148.4,-24310.059
1398898.0010712498,-89021.65,-82523.12,-48134.32,1719.6453,-32868.9,-49097.13,-33150.516,-24318.889
1398898.0050712444,-89023.12,-82527.63,-48137.168,1719.3197,-32859.133,-49098.31,-33155.234,-24332.725
1398898.0090712388,-89019.375,-82528.08,-48137.695,1723.226,-32855.51,-49099.406,-33159.098,-24324.627
1398898.0130712334,-89011.92,-82511.555,-48136.883,1726.0336,-32860.15,-49099.45,-33160.2,-24334.96
1398898.017071228,-89009.766,-82507.41,-48142.133,1721.4355,-32864.258,-49097.535,-33157.51,-24331.137
1398898.0210712226,-89016.69,-82518.19,-48146.85,1715.9017,-32873.293,-49098.473,-33152.344,-24315.43
1398898.0250712172,-89023.56,-82526.086,-48151.492,1715.4949,-32873.902,-49100.02,-33151.246,-24313.926
1398898.0290712118,-89020.836,-82521.81,-48152.184,1719.1162,-32868.855,-49098.594,-33151.285,-24316.855
1398898.0330712064,-89020.47,-82510.99,-48150.594,1721.5576,-32862.508,-49097.74,-33151.285,-24321.533
1398898.0370712008,-89016.805,-82511.64,-48150.027,1718.1804,-32866.863,-49098.39,-33153.484,-24328.574
1398898.0410711954,-89016.89,-82513.8,-48151.816,1715.21,-32876.223,-49099.285,-33150.473,-24318.482
1398898.04507119,-89020.96,-82523.52,-48152.914,1716.3494,-32876.914,-49100.586,-33152.344,-24322.674
1398898.0490711846,-89023.44,-82522.34,-48154.707,1720.1335,-32868.41,-49101.89,-33156.21,-24327.922
1398898.0530711792,-89021.85,-82515.71,-48156.58,1720.7031,-32868.41,-49102.254,-33155.19,-24323.975
1398898.0570711738,-89022.75,-82513.02,-48161.99,1714.0707,-32874.797,-49101.074,-33149.984,-24314.209
1398898.0610711682,-89025.07,-82516.89,-48164.715,1709.7576,-32887.004,-49100.508,-33149.17,-24314.617
1398898.0650711628,-89023.805,-82521.164,-48163.574,1711.4258,-32891.36,-49101.24,-33149.496,-24318.441
1398898.0690711574,-89016.28,-82513.8,-48158.816,1713.9893,-32882.57,-49101.523,-33152.14,-24319.012
1398898.073071152,-89013.72,-82503.625,-48156.7,1717.448,-32875.734,-49103.883,-33157.88,-24322.021
1398898.0770711466,-89008.836,-82502.32,-48156.902,1716.3494,-32880.13,-49103.72,-33155.56,-24318.076
1398898.0810711412,-89017.01,-82515.14,-48161.38,1711.2224,-32896.363,-49103.72,-33153.32,-24315.553
1398898.0850711358,-89021.94,-82527.55,-48162.273,1710.3271,-32897.586,-49103.152,-33152.793,-24312.053
1398898.0890711301,-89020.1,-82530.48,-48160.36,1714.5183,-32890.953,-49102.824,-33154.625,-24317.709
1398898.0930711247,-89017.945,-82516.52,-48158.855,1718.9128,-32882.164,-49103.027,-33157.758,-24325.195
1398898.0970711194,-89017.54,-82512.33,-48161.215,1713.4197,-32880.332,-49104.453,-33156.58,-24329.062
1398898.101071114,-89021.77,-82515.95,-48161.46,1709.1472,-32886.11,-49104.574,-33155.56,-24324.951
1398898.1050711086,-89026.0,-82520.63,-48158.246,1711.8734,-32885.17,-49104.82,-33153.32,-24315.47
1398898.1090711032,-89026.734,-82519.695,-48151.33,1716.7156,-32870.445,-49107.344,-33158.0,-24313.762
1398898.1130710978,-89020.76,-82504.234,-48142.375,1723.0225,-32864.79,-49107.18,-33160.44,-24323.365
1398898.1170710921,-89014.9,-82501.266,-48134.523,1723.348,-32867.72,-49104.453,-33156.414,-24322.47
1398898.1210710867,-89017.01,-82514.2,-48131.715,1720.2963,-32876.832,-49102.867,-33152.996,-24321.574
1398898.1250710813,-89024.375,-82523.36,-48133.668,1718.5873,-32872.805,-49104.86,-33157.105,-24324.951
1398898.129071076,-89024.82,-82518.555,-48130.332,1722.0459,-32868.207,-49105.594,-33161.906,-24324.342
1398898.1330710705,-89020.266,-82515.016,-48125.9,1726.3998,-32859.254,-49104.168,-33160.562,-24321.33
1398898.1370710651,-89020.35,-82512.695,-48123.74,1723.1445,-32857.42,-49103.926,-33159.465,-24321.656
1398898.1410710597,-89025.76,-82514.125,-48123.047,1719.5232,-32860.555,-49106.855,-33164.145,-24326.621
1398898.145071054,-89029.3,-82522.14,-48119.266,1723.877,-32859.17,-49108.523,-33167.605,-24327.393
1398898.1490710487,-89026.94,-82518.44,-48116.742,1727.6611,-32847.414,-49109.09,-33169.434,-24332.643
1398898.1530710433,-89019.01,-82507.086,-48111.86,1730.4688,-32845.38,-49106.04,-33164.836,-24332.236
1398898.157071038,-89019.734,-82505.78,-48111.74,1727.1322,-32846.76,-49105.55,-33161.46,-24321.371
1398898.1610710325,-89027.67,-82516.28,-48116.293,1721.8425,-32857.22,-49107.137,-33159.586,-24319.012
1398898.1650710271,-89033.86,-82527.875,-48119.832,1723.7142,-32855.594,-49106.082,-33160.848,-24323.527
1398898.1690710217,-89037.03,-82527.43,-48121.22,1727.824,-32841.758,-49106.934,-33161.867,-24324.668
1398898.173071016,-89034.47,-82523.93,-48119.957,1729.4922,-32835.855,-49105.227,-33161.176,-24328.004
1398898.1770710107,-89032.836,-82515.95,-48119.793,1726.3998,-32837.484,-49103.395,-33161.133,-24329.916
1398898.1810710053,-89035.56,-82519.45,-48120.16,1722.697,-32844.28,-49104.086,-33160.074,-24328.777
1398898.185071,-89040.57,-82531.17,-48122.64,1722.6562,-32845.83,-49104.535,-33160.727,-24325.889
1398898.1890709945,-89037.84,-82531.984,-48121.094,1726.237,-32838.38,-49107.016,-33163.21,-24323.895
1398898.193070989,-89032.836,-82522.914,-48121.297,1728.0681,-32833.66,-49106.895,-33162.234,-24324.016
1398898.1970709837,-89032.31,-82523.56,-48122.195,1727.0101,-32835.855,-49103.965,-33155.355,-24313.193
1398898.201070978,-89036.625,-82526.82,-48124.35,1722.4935,-32837.688,-49104.168,-33154.297,-24318.156
1398898.2050709727,-89042.766,-82532.8,-48127.81,1722.3715,-32834.516,-49107.707,-33159.63,-24325.156
1398898.2090709673,-89035.52,-82522.664,-48124.39,1729.0447,-32827.84,-49107.992,-33161.99,-24332.236
1398898.2130709619,-89027.75,-82509.445,-48120.32,1731.242,-32819.867,-49106.57,-33161.664,-24328.94
1398898.2170709565,-89027.51,-82507.81,-48122.195,1729.0447,-32823.895,-49107.344,-33160.36,-24329.834
1398898.221070951,-89032.23,-82521.77,-48127.89,1725.6267,-32832.113,-49106.445,-33157.633,-24322.998
1398898.2250709457,-89035.69,-82531.13,-48130.984,1725.3418,-32829.67,-49106.406,-33160.605,-24331.016
1398898.22907094,-89030.93,-82528.57,-48129.152,1730.8757,-32824.87,-49104.414,-33159.953,-24328.166
1398898.2330709347,-89030.93,-82524.3,-48128.01,1732.1777,-32818.766,-49104.168,-33156.58,-24316.285
1398898.2370709293,-89026.98,-82516.85,-48128.297,1728.7598,-32820.72,-49107.3,-33160.973,-24323.895
1398898.2410709239,-89031.984,-82514.94,-48131.918,1725.5859,-32825.195,-49110.965,-33165.367,-24327.557
1398898.2450709185,-89029.55,-82517.58,-48129.76,1728.7598,-32828.613,-49112.02,-33167.195,-24329.55
1398898.249070913,-89028.0,-82516.73,-48126.06,1735.3516,-32823.285,-49111.9,-33172.203,-24340.129
1398898.2530709074,-89026.37,-82505.086,-48123.414,1735.7992,-32819.54,-49113.324,-33179.16,-24347.941
1398898.257070902,-89027.63,-82508.67,-48127.727,1731.4047,-32825.277,-49113.406,-33175.906,-24334.27
1398898.2610708966,-89030.6,-82516.85,-48135.254,1723.4701,-32825.97,-49112.55,-33169.434,-24329.469
1398898.2650708912,-89029.83,-82518.76,-48136.516,1724.6501,-32833.742,-49112.957,-33171.633,-24340.861
1398898.2690708858,-89029.22,-82519.695,-48135.297,1730.835,-32820.56,-49110.965,-33169.84,-24335.002
1398898.2730708804,-89025.68,-82506.67,-48134.523,1733.8054,-32815.31,-49107.953,-33164.957,-24328.045
1398898.277070875,-89032.43,-82510.22,-48136.152,1727.9053,-32821.13,-49107.504,-33160.44,-24322.592
1398898.2810708694,-89033.33,-82511.44,-48138.062,1726.237,-32829.793,-49110.555,-33163.21,-24334.066
1398898.285070864,-89030.93,-82514.94,-48135.945,1728.3936,-32828.41,-49112.305,-33167.035,-24340.902
1398898.2890708586,-89030.32,-82513.06,-48130.656,1733.5205,-32818.277,-49111.656,-33168.5,-24334.19
1398898.2930708532,-89024.3,-82500.25,-48129.438,1737.4675,-32814.453,-49114.258,-33171.875,-24332.56
1398898.2970708478,-89027.67,-82495.73,-48133.016,1733.4799,-32819.38,-49115.438,-33171.387,-24329.916
1398898.3010708424,-89031.54,-82498.66,-48135.457,1729.4922,-32831.42,-49114.137,-33168.54,-24334.758
1398898.305070837,-89030.03,-82505.17,-48137.777,1729.248,-32833.133,-49112.918,-33167.4,-24336.426
1398898.3090708314,-89033.695,-82504.766,-48139.69,1734.1309,-32824.586,-49110.598,-33168.863,-24335.37
1398898.313070826,-89030.27,-82493.98,-48142.254,1735.5957,-32815.594,-49110.273,-33172.406,-24343.914
1398898.3170708206,-89029.55,-82493.734,-48146.406,1731.1199,-32821.414,-49108.93,-33168.824,-24338.623
1398898.3210708152,-89035.41,-82505.13,-48150.15,1723.8363,-32838.38,-49108.93,-33164.266,-24328.086
1398898.3250708098,-89033.125,-82509.12,-48148.766,1723.348,-32849.324,-49110.68,-33164.676,-24332.887
1398898.3290708044,-89027.39,-82505.05,-48147.055,1727.2543,-32842.164,-49110.84,-33166.992,-24332.031
1398898.333070799,-89020.875,-82492.19,-48146.363,1730.4688,-32825.562,-49108.645,-33165.61,-24332.44
1398898.3370707934,-89019.01,-82489.87,-48149.13,1727.5391,-32830.04,-49109.62,-33163.902,-24327.354
1398898.341070788,-89020.836,-82494.914,-48152.67,1724.5687,-32840.008,-49110.68,-33164.715,-24325.807
1398898.3450707826,-89022.26,-82498.78,-48154.582,1726.6439,-32838.785,-49114.016,-33168.66,-24326.824
1398898.3490707772,-89023.766,-82501.836,-48157.066,1730.1025,-32825.48,-49116.742,-33173.87,-24333.375
1398898.3530707718,-89018.6,-82490.44,-48153.363,1732.4626,-32825.277,-49114.586,-33171.227,-24326.05
1398898.3570707664,-89016.93,-82483.89,-48153.523,1727.3763,-32834.35,-49113.566,-33170.74,-24332.56
1398898.361070761,-89019.164,-82488.33,-48154.258,1723.348,-32845.5,-49112.836,-33166.26,-24330.16
1398898.3650707554,-89018.84,-82494.875,-48153.605,1725.2197,-32848.676,-49111.86,-33162.965,-24325.074
1398898.36907075,-89017.78,-82490.44,-48153.117,1731.6082,-32841.637,-49110.15,-33163.656,-24327.354
1398898.3730707446,-89011.35,-82480.02,-48153.117,1731.8115,-32833.824,-49108.24,-33160.484,-24323.365
1398898.3770707392,-89010.17,-82481.164,-48155.6,1727.0916,-32837.08,-49105.715,-33156.21,-24320.436
1398898.3810707338,-89013.23,-82488.164,-48159.18,1720.1335,-32847.86,-49104.453,-33153.28,-24321.25
1398898.3850707284,-89021.445,-82498.45,-48163.7,1719.6045,-32849.45,-49109.66,-33159.87,-24330.852
1398898.389070723,-89020.39,-82495.04,-48162.598,1726.3998,-32838.22,-49112.387,-33165.164,-24337.12
1398898.3930707173,-89015.47,-82484.83,-48158.125,1729.1667,-32828.86,-49111.816,-33163.332,-24328.492
1398898.397070712,-89013.8,-82482.914,-48159.508,1721.4355,-32835.574,-49111.29,-33159.06,-24319.5
1398898.4010707065,-89017.54,-82489.95,-48164.715,1716.1459,-32846.76,-49113.28,-33161.258,-24329.387
1398898.4050707011,-89014.24,-82488.164,-48165.57,1718.0176,-32854.29,-49117.188,-33169.598,-24345.176
1398898.4090706958,-89012.29,-82481.33,-48165.45,1721.8832,-32843.59,-49117.72,-33172.977,-24343.385
1398898.4130706904,-89009.93,-82471.07,-48164.96,1723.877,-32830.28,-49117.434,-33177.043,-24349.285
1398898.417070685,-89009.04,-82467.94,-48169.23,1718.2617,-32830.242,-49117.066,-33175.336,-24347.209
1398898.4210706793,-89011.27,-82474.2,-48172.73,1712.7279,-32851.24,-49117.35,-33170.94,-24337.646
1398898.425070674,-89013.76,-82471.27,-48173.504,1714.4775,-32854.98,-49118.734,-33172.203,-24339.072
1398898.4290706685,-89006.555,-82467.05,-48171.062,1718.75,-32849.12,-49118.45,-33174.52,-24340.74
1398898.4330706631,-89001.586,-82459.39,-48167.848,1720.3369,-32838.992,-49115.156,-33170.207,-24334.19
1398898.4370706577,-88996.99,-82460.414,-48168.094,1716.5121,-32850.586,-49114.46,-33164.754,-24328.29
1398898.4410706523,-88994.75,-82467.086,-48170.82,1712.6465,-32865.36,-49117.27,-33163.74,-24325.684
1398898.445070647,-88994.59,-82465.45,-48173.953,1714.3962,-32862.59,-49120.605,-33168.906,-24334.27
1398898.4490706413,-88990.93,-82456.1,-48170.453,1720.8252,-32854.98,-49120.445,-33171.348,-24335.531
1398898.453070636,-88992.15,-82446.336,-48169.72,1722.6562,-32845.094,-49122.195,-33175.418,-24339.723
1398898.4570706305,-88990.73,-82451.91,-48174.074,1718.5873,-32847.82,-49124.51,-33177.37,-24347.332
1398898.461070625,-88999.88,-82461.19,-48178.875,1712.3617,-32852.254,-49126.875,-33179.402,-24351.645
1398898.4650706197,-89011.07,-82470.75,-48181.438,1713.8672,-32856.0,-49125.125,-33175.21,-24339.52
1398898.4690706143,-89013.305,-82473.59,-48181.6,1717.6107,-32856.082,-49124.92,-33172.85,-24330.934
1398898.4730706087,-89006.8,-82464.64,-48179.363,1718.5466,-32852.867,-49123.984,-33172.977,-24332.48
1398898.4770706033,-89003.95,-82458.74,-48181.4,1713.2976,-32850.914,-49121.055,-33172.04,-24338.867
1398898.481070598,-89013.43,-82466.72,-48188.152,1706.1361,-32867.473,-49122.195,-33169.312,-24333.172
1398898.4850705925,-89014.695,-82480.35,-48191.406,1704.4271,-32877.402,-49124.96,-33169.598,-24331.951
1398898.489070587,-89008.51,-82476.766,-48187.137,1711.141,-32866.902,-49122.723,-33170.453,-24337.852
1398898.4930705817,-89006.63,-82467.66,-48185.914,1715.21,-32861.004,-49121.867,-33170.94,-24332.357
1398898.4970705763,-89005.7,-82467.41,-48188.52,1710.4492,-32869.387,-49120.28,-33167.766,-24325.277
1398898.5010705707,-89011.07,-82474.81,-48193.035,1707.9672,-32875.69,-49119.71,-33169.11,-24327.475
1398898.5050705653,-89013.72,-82479.25,-48196.453,1708.9031,-32875.938,-49122.805,-33177.164,-24340.658
1398898.5090705599,-89014.65,-82477.5,-48197.676,1713.4603,-32867.473,-49123.332,-33180.176,-24340.7
1398898.5130705545,-89018.805,-82479.74,-48199.91,1710.2051,-32862.633,-49123.008,-33180.504,-24347.006
1398898.517070549,-89019.53,-82482.586,-48205.73,1704.5492,-32873.25,-49123.902,-33180.582,-24347.129
1398898.5210705437,-89025.39,-82489.55,-48210.29,1701.9043,-32883.953,-49123.17,-33174.52,-24333.252
1398898.5250705383,-89029.91,-82489.46,-48211.305,1703.5726,-32878.38,-49123.82,-33173.668,-24330.771
1398898.5290705326,-89023.07,-82485.19,-48207.277,1710.4086,-32885.297,-49124.797,-33173.91,-24336.59
1398898.5330705272,-89016.805,-82472.21,-48205.08,1712.0361,-32867.39,-49123.74,-33172.242,-24328.248
1398898.5370705219,-89017.26,-82471.56,-48206.016,1706.9906,-32869.1,-49124.92,-33172.895,-24330.73
1398898.5410705165,-89022.42,-82483.6,-48209.15,1701.3754,-32881.715,-49124.96,-33168.863,-24321.086
1398898.545070511,-89019.33,-82484.42,-48206.465,1702.6367,-32886.027,-49126.02,-33169.8,-24333.863
1398898.5490705057,-89015.79,-82472.7,-48205.363,1705.6072,-32880.7,-49126.1,-33169.72,-24334.799
1398898.5530705003,-89011.766,-82467.49,-48207.316,1705.6478,-32873.617,-49125.53,-33168.01,-24326.621
1398898.5570704946,-89014.33,-82475.14,-48213.91,1701.5789,-32878.785,-49124.797,-33165.285,-24317.22
1398898.5610704892,-89020.76,-82483.484,-48218.953,1696.8181,-32890.504,-49124.92,-33167.562,-24329.387
1398898.5650704838,-89029.055,-82489.79,-48222.37,1697.876,-32897.055,-49124.023,-33168.703,-24326.742
1398898.5690704784,-89031.09,-82495.52,-48224.285,1700.4802,-32896.2,-49125.33,-33171.55,-24327.23
1398898.573070473,-89034.14,-82491.91,-48225.79,1699.6664,-32899.21,-49127.85,-33174.887,-24333.62
1398898.5770704676,-89035.08,-82494.55,-48228.72,1697.1436,-32893.312,-49127.484,-33170.9,-24329.469
1398898.5810704622,-89032.31,-82501.47,-48229.94,1693.0339,-32901.043,-49125.773,-33167.48,-24328.451
1398898.5850704566,-89031.7,-82499.555,-48228.312,1695.4346,-32902.547,-49125.043,-33166.832,-24331.178
1398898.5890704512,-89033.164,-82500.0,-48229.656,1699.6257,-32891.074,-49124.84,-33166.22,-24325.44
1398898.5930704458,-89029.055,-82488.08,-48229.168,1700.3582,-32891.113,-49125.41,-33170.168,-24335.938
1398898.5970704404,-89028.85,-82488.08,-48230.47,1696.4926,-32896.324,-49124.434,-33167.195,-24333.008
1398898.601070435,-89033.49,-82497.4,-48234.5,1692.9932,-32891.48,-49123.293,-33166.547,-24330.078
1398898.6050704296,-89034.18,-82500.98,-48234.336,1696.4111,-32896.16,-49123.58,-33165.527,-24327.516
1398898.6090704242,-89034.18,-82502.32,-48232.668,1702.1078,-32897.707,-49124.023,-33167.195,-24326.824
1398898.6130704186,-89028.89,-82501.914,-48229.086,1701.7009,-32892.496,-49124.555,-33170.25,-24328.98
1398898.6170704132,-89027.914,-82493.33,-48226.688,1697.6318,-32891.805,-49124.637,-33169.312,-24337.037
1398898.6210704078,-89029.016,-82493.57,-48224.285,1695.1091,-32898.113,-49125.613,-33167.887,-24335.572
1398898.6250704024,-89029.42,-82496.5,-48219.117,1698.405,-32897.746,-49126.75,-33166.465,-24328.857
1398898.629070397,-89025.35,-82491.46,-48210.574,1705.3223,-32885.01,-49126.996,-33167.645,-24332.357
1398898.6330703916,-89019.25,-82481.28,-48204.55,1707.3975,-32876.14,-49127.566,-33168.297,-24330.527
1398898.6370703862,-89021.0,-82485.35,-48201.01,1705.2816,-32877.402,-49128.055,-33166.14,-24329.387
1398898.6410703806,-89030.32,-82493.9,-48200.766,1702.9216,-32879.312,-49128.34,-33165.367,-24328.857
1398898.6450703752,-89032.07,-82493.49,-48199.42,1703.8982,-32886.11,-49128.785,-33165.0,-24330.81
1398898.6490703698,-89031.21,-82487.96,-48195.844,1707.3568,-32872.76,-49125.816,-33160.562,-24325.48
1398898.6530703644,-89027.19,-82475.016,-48187.95,1711.0596,-32858.848,-49123.617,-33158.406,-24317.912
1398898.657070359,-89022.99,-82469.12,-48182.375,1707.723,-32860.965,-49122.6,-33160.36,-24324.912
1398898.6610703536,-89026.57,-82479.29,-48182.254,1702.6775,-32872.355,-49125.855,-33161.582,-24326.945
1398898.665070348,-89024.91,-82481.53,-48179.484,1705.3223,-32872.965,-49126.426,-33160.605,-24322.145
1398898.6690703426,-89025.64,-82484.5,-48177.492,1709.432,-32862.996,-49128.46,-33167.195,-24330.04
1398898.6730703372,-89022.016,-82478.4,-48172.49,1714.3962,-32861.816,-49128.703,-33170.41,-24336.793
1398898.6770703318,-89020.266,-82481.445,-48171.836,1712.2803,-32872.477,-49128.703,-33168.01,-24331.504
1398898.6810703264,-89031.01,-82492.15,-48174.766,1707.8044,-32873.58,-49127.24,-33164.918,-24320.842
1398898.685070321,-89034.875,-82496.09,-48172.65,1711.0596,-32867.758,-49125.613,-33162.477,-24316.936
1398898.6890703156,-89026.734,-82492.31,-48168.17,1716.6748,-32854.777,-49125.652,-33163.617,-24322.877
1398898.69307031,-89021.08,-82475.51,-48164.473,1718.3431,-32846.07,-49124.51,-33161.664,-24323.447
1398898.6970703045,-89023.32,-82479.375,-48167.89,1713.6638,-32852.742,-49122.684,-33156.047,-24310.14
1398898.7010702991,-89032.555,-82496.625,-48176.72,1706.2582,-32867.27,-49122.684,-33153.85,-24312.582
1398898.7050702937,-89036.87,-82499.72,-48181.766,1708.7402,-32869.14,-49122.52,-33155.152,-24317.303
1398898.7090702883,-89036.87,-82498.984,-48182.17,1713.5417,-32853.23,-49121.992,-33155.887,-24314.006
1398898.713070283,-89036.42,-82489.87,-48182.254,1714.2742,-32843.875,-49122.76,-33157.023,-24316.57
1398898.7170702775,-89037.64,-82487.47,-48181.438,1709.9203,-32845.543,-49121.785,-33154.38,-24310.71
1398898.721070272,-89043.54,-82498.375,-48185.26,1703.6947,-32854.9,-49124.676,-33153.16,-24309.938
1398898.7250702665,-89040.24,-82505.82,-48183.39,1706.7058,-32854.004,-49125.53,-33154.258,-24318.93
1398898.7290702611,-89039.516,-82499.48,-48181.48,1711.5479,-32846.438,-49127.566,-33160.035,-24330.81
1398898.7330702557,-89032.48,-82489.46,-48180.83,1715.4949,-32840.863,-49126.02,-33160.32,-24329.428
1398898.7370702503,-89030.73,-82493.86,-48184.492,1711.9548,-32848.227,-49126.75,-33160.074,-24319.174
1398898.741070245,-89037.766,-82503.09,-48192.02,1705.2816,-32858.848,-49127.645,-33158.57,-24315.674
1398898.7450702395,-89039.67,-82506.88,-48195.355,1705.6478,-32856.285,-49127.484,-33163.37,-24330.73
1398898.749070234,-89040.77,-82500.33,-48195.152,1711.3445,-32845.38,-49123.7,-33163.29,-24327.434
1398898.7530702285,-89039.23,-82491.09,-48193.402,1714.8031,-32839.03,-49122.4,-33162.8,-24336.102
1398898.757070223,-89041.14,-82493.25,-48191.816,1711.1816,-32846.152,-49121.746,-33159.305,-24329.916
1398898.7610702177,-89044.64,-82499.836,-48191.69,1708.0486,-32850.63,-49120.973,-33151.855,-24307.008
1398898.7650702123,-89041.625,-82504.68,-48189.21,1711.1816,-32838.297,-49121.176,-33153.77,-24316.406
1398898.769070207,-89032.8,-82496.75,-48184.45,1716.1459,-32836.508,-49121.785,-33156.78,-24320.72
1398898.7730702015,-89025.234,-82494.02,-48181.64,1718.5873,-32834.637,-49121.055,-33151.734,-24301.23
1398898.7770701959,-89027.836,-82494.55,-48184.004,1715.3728,-32841.27,-49120.527,-33150.594,-24304.443
1398898.7810701905,-89035.32,-82504.4,-48192.914,1711.3851,-32853.355,-49122.723,-33153.445,-24311.768
1398898.785070185,-89046.76,-82516.28,-48201.094,1710.2458,-32858.93,-49126.668,-33160.523,-24322.836
1398898.7890701797,-89045.53,-82507.734,-48201.785,1714.9658,-32842.45,-49126.953,-33163.086,-24327.148
1398898.7930701743,-89043.42,-82500.25,-48202.76,1713.9893,-32833.7,-49124.35,-33158.816,-24315.35
1398898.797070169,-89042.85,-82499.23,-48204.184,1709.3506,-32845.83,-49123.21,-33153.77,-24308.635
1398898.8010701635,-89041.51,-82501.75,-48205.203,1707.601,-32842.043,-49123.617,-33152.26,-24308.432
1398898.8050701579,-89040.0,-82503.336,-48204.023,1709.3506,-32844.2,-49123.617,-33152.71,-24312.176
1398898.8090701525,-89043.016,-82505.66,-48205.934,1709.1064,-32844.523,-49127.08,-33157.797,-24318.035
1398898.813070147,-89043.74,-82506.06,-48209.11,1709.7576,-32841.066,-49127.484,-33159.953,-24317.1
1398898.8170701417,-89049.89,-82500.94,-48214.723,1704.3865,-32842.734,-49127.24,-33156.375,-24308.92
1398898.8210701363,-89055.625,-82511.4,-48219.035,1699.0967,-32853.76,-49129.395,-33155.152,-24306.805
1398898.8250701309,-89052.695,-82519.82,-48217.53,1701.4974,-32855.105,-49133.75,-33161.336,-24322.389
1398898.8290701255,-89051.39,-82510.7,-48217.246,1706.2175,-32839.438,-49133.223,-33163.86,-24321.412
1398898.8330701198,-89046.06,-82493.98,-48216.23,1709.9609,-32833.336,-49131.145,-33162.56,-24318.809
1398898.8370701144,-89047.33,-82492.76,-48220.906,1704.6306,-32841.35,-49130.535,-33160.074,-24314.902
1398898.841070109,-89053.23,-82503.99,-48226.688,1697.5912,-32856.406,-49130.496,-33157.227,-24307.293
1398898.8450701036,-89055.95,-82507.04,-48227.906,1698.3643,-32861.41,-49131.88,-33161.38,-24317.383
1398898.8490700983,-89053.47,-82512.25,-48227.62,1702.0264,-32856.73,-49132.938,-33166.383,-24325.645
1398898.8530700929,-89048.95,-82508.34,-48225.26,1706.2582,-32852.703,-49133.504,-33168.582,-24331.178
1398898.8570700875,-89047.77,-82501.875,-48222.332,1701.9857,-32856.04,-49132.082,-33163.492,-24323.975
1398898.8610700818,-89051.03,-82507.2,-48224.324,1696.8994,-32865.152,-49132.527,-33159.508,-24311.605
1398898.8650700764,-89058.88,-82515.305,-48228.72,1696.7773,-32867.676,-49133.465,-33159.14,-24302.734
1398898.869070071,-89057.7,-82513.836,-48228.598,1700.2767,-32863.65,-49133.016,-33158.53,-24298.87
1398898.8730700656,-89051.68,-82499.72,-48228.19,1703.2064,-32857.586,-49131.43,-33157.31,-24306.805
1398898.8770700602,-89050.26,-82489.914,-48231.445,1699.056,-32849.938,-49131.758,-33158.406,-24315.47
1398898.8810700548,-89058.31,-82505.414,-48236.816,1693.9291,-32863.77,-49132.45,-33159.465,-24315.268
1398898.8850700492,-89062.83,-82522.055,-48237.875,1694.0511,-32869.832,-49132.0,-33162.19,-24320.03
1398898.8890700438,-89061.69,-82516.03,-48235.312,1698.1201,-32859.78,-49130.86,-33162.477,-24321.33
1398898.8930700384,-89059.25,-82509.32,-48234.133,1699.1781,-32859.58,-49127.727,-33155.64,-24310.264
1398898.897070033,-89063.93,-82509.28,-48237.836,1695.4753,-32862.508,-49125.816,-33149.496,-24299.195
1398898.9010700276,-89070.195,-82518.76,-48242.96,1690.7552,-32867.8,-49126.71,-33149.09,-24298.057
1398898.9050700222,-89071.05,-82525.15,-48241.824,1692.2201,-32867.88,-49129.56,-33155.6,-24310.344
1398898.9090700168,-89068.445,-82526.66,-48239.42,1696.7367,-32859.99,-49132.57,-33162.312,-24316.488
1398898.9130700112,-89064.74,-82518.03,-48237.1,1701.4974,-32857.34,-49132.773,-33163.414,-24318.28
1398898.9170700058,-89062.95,-82514.57,-48238.61,1697.4691,-32862.387,-49132.938,-33163.29,-24317.059
1398898.9210700004,-89069.13,-82522.42,-48246.785,1690.3076,-32872.52,-49134.848,-33159.953,-24316.082
1398898.925069995,-89069.38,-82528.85,-48246.094,1692.2607,-32872.07,-49133.344,-33156.496,-24313.518
1398898.9290699896,-89062.87,-82516.65,-48243.086,1697.7539,-32865.723,-49131.918,-33156.58,-24306.602
1398898.9330699842,-89057.664,-82508.99,-48241.984,1697.2656,-32854.98,-49133.26,-33163.492,-24323.203
1398898.9370699788,-89062.42,-82512.58,-48245.445,1693.2373,-32861.086,-49135.336,-33161.46,-24323.486
1398898.9410699732,-89069.5,-82519.62,-48248.25,1688.7207,-32869.223,-49135.99,-33162.76,-24320.639
1398898.9450699678,-89071.695,-82522.83,-48250.9,1690.5925,-32869.547,-49135.336,-33164.023,-24321.777
1398898.9490699624,-89066.49,-82518.6,-48250.33,1695.8416,-32863.934,-49135.906,-33165.324,-24315.227
1398898.953069957,-89062.55,-82508.305,-48250.285,1696.8994,-32863.16,-49137.86,-33169.11,-24322.592
1398898.9570699516,-89061.12,-82509.89,-48252.566,1692.7898,-32874.473,-49138.836,-33168.457,-24321.656
1398898.9610699462,-89067.47,-82524.664,-48255.656,1687.9883,-32880.984,-49140.06,-33166.992,-24322.592
1398898.9650699408,-89065.43,-82529.664,-48255.13,1689.5752,-32881.023,-49139.445,-33166.14,-24323.771
1398898.9690699351,-89063.16,-82521.85,-48251.71,1695.8008,-32870.81,-49138.145,-33165.12,-24322.266
1398898.9730699298,-89057.17,-82509.766,-48248.66,1697.4285,-32868.695,-49135.62,-33161.867,-24316.895
1398898.9770699244,-89062.586,-82506.96,-48251.832,1690.918,-32870.445,-49134.035,-33156.332,-24302.613
1398898.981069919,-89068.97,-82517.46,-48256.348,1687.4594,-32878.055,-49133.586,-33150.96,-24288.168
1398898.9850699136,-89070.16,-82529.46,-48258.63,1686.2386,-32885.05,-49135.54,-33154.5,-24304.404
1398898.9890699082,-89070.27,-82530.27,-48262.98,1689.2904,-32886.8,-49137.656,-33161.703,-24319.336
1398898.9930699028,-89062.83,-82524.46,-48263.184,1693.2373,-32881.715,-49136.598,-33163.414,-24315.879
1398898.9970698971,-89062.625,-82521.65,-48264.65,1690.9994,-32881.145,-49136.027,-33158.938,-24303.02
1398899.0010698917,-89066.0,-82525.8,-48270.184,1685.791,-32890.953,-49137.617,-33158.0,-24300.66
1398899.0050698863,-89066.41,-82526.49,-48268.477,1687.9883,-32893.555,-49139.57,-33164.31,-24318.482
1398899.009069881,-89067.836,-82524.09,-48265.83,1691.1215,-32885.945,-49137.94,-33163.37,-24312.012
1398899.0130698755,-89063.84,-82520.59,-48266.24,1692.3422,-32877.484,-49137.82,-33161.54,-24311.484
1398899.0170698701,-89064.62,-82516.805,-48269.41,1688.3545,-32881.754,-49136.395,-33160.2,-24306.723
1398899.0210698647,-89069.18,-82530.805,-48272.664,1682.78,-32899.254,-49136.11,-33158.246,-24306.113
1398899.025069859,-89074.99,-82537.92,-48274.414,1681.8035,-32901.855,-49136.23,-33158.855,-24314.006
1398899.0290698537,-89074.55,-82533.94,-48276.492,1683.5125,-32897.707,-49135.867,-33162.723,-24317.506
1398899.0330698483,-89070.48,-82527.34,-48278.973,1683.8787,-32896.08,-49137.617,-33165.73,-24322.389
1398899.037069843,-89065.96,-82523.03,-48280.926,1681.8441,-32896.527,-49138.387,-33166.383,-24326.66
1398899.0410698375,-89075.12,-82526.94,-48288.29,1678.3041,-32903.89,-49140.18,-33168.703,-24327.8
1398899.0450698321,-89081.914,-82529.055,-48289.754,1680.7455,-32901.082,-49140.26,-33169.8,-24334.596
1398899.0490698267,-89080.65,-82523.44,-48288.535,1684.7332,-32890.098,-49140.586,-33169.395,-24335.287
1398899.053069821,-89072.23,-82521.12,-48285.24,1685.0586,-32884.36,-49140.18,-33164.023,-24320.842
1398899.0570698157,-89074.625,-82520.914,-48287.64,1680.8269,-32894.9,-49140.3,-33163.21,-24315.838
1398899.0610698103,-89078.05,-82527.914,-48290.49,1678.4261,-32910.605,-49142.01,-33164.023,-24314.941
1398899.065069805,-89079.51,-82534.23,-48289.473,1680.9896,-32910.36,-49142.906,-33166.707,-24317.709
1398899.0690697995,-89075.28,-82527.8,-48286.867,1685.0994,-32898.805,-49141.805,-33170.207,-24333.66
1398899.073069794,-89070.516,-82521.08,-48285.688,1683.8787,-32894.37,-49141.645,-33168.457,-24329.143
1398899.0770697885,-89071.49,-82516.32,-48289.227,1680.4607,-32900.758,-49139.04,-33163.94,-24317.424
1398899.081069783,-89077.03,-82514.9,-48294.355,1678.1006,-32908.082,-49142.54,-33169.273,-24334.678
