timestamp,Fp1,Fp2,F3,Fz,F4,Cz,Pz,Oz
1216146.0389440276,-132394.98,-92774.54,-28460.775,-36890.75,-43930.22,-20875.691,-55965.414,-16085.816
1216146.0429440232,-132338.7,-92738.41,-28459.107,-36890.383,-43926.598,-20875.203,-55955.977,-16087.525
1216146.046944019,-132339.84,-92739.1,-28468.914,-36895.305,-43928.71,-20872.234,-55949.75,-16081.625
1216146.0509440147,-132410.81,-92789.31,-28481.934,-36901.125,-43936.566,-20869.793,-55956.3,-16081.788
1216146.0549440105,-132449.02,-92816.81,-28479.127,-36901.816,-43943.44,-20869.793,-55961.836,-16081.625
1216146.058944006,-132410.03,-92784.586,-28466.92,-36897.38,-43933.35,-20875.123,-55959.598,-16086.508
1216146.0629440018,-132350.52,-92739.75,-28463.176,-36898.113,-43927.41,-20878.256,-55954.47,-16087.932
1216146.0669439975,-132350.06,-92739.99,-28470.215,-36903.523,-43929.89,-20877.156,-55952.477,-16086.305
1216146.0709439933,-132399.45,-92781.336,-28477.947,-36908.57,-43942.305,-20873.902,-55958.215,-16082.154
1216146.074943989,-132434.78,-92809.0,-28476.115,-36905.887,-43938.887,-20869.914,-55961.47,-16075.847
1216146.0789439846,-132400.03,-92784.38,-28465.332,-36902.59,-43931.4,-20872.234,-55954.1,-16072.551
1216146.0829439803,-132346.44,-92745.52,-28461.223,-36901.33,-43923.18,-20875.691,-55948.12,-16082.438
1216146.086943976,-132350.11,-92745.37,-28470.053,-36907.105,-43931.97,-20873.861,-55944.99,-16074.992
1216146.0909439719,-132410.97,-92792.93,-28481.121,-36913.617,-43947.266,-20870.32,-55950.035,-16065.309
1216146.0949439674,-132440.67,-92820.4,-28480.266,-36912.723,-43948.324,-20866.74,-55953.086,-16064.291
1216146.0989439632,-132403.86,-92785.56,-28468.873,-36907.555,-43934.246,-20872.682,-55957.4,-16086.101
1216146.102943959,-132350.14,-92745.65,-28462.24,-36906.7,-43928.348,-20876.22,-55953.94,-16090.658
1216146.1069439547,-132347.86,-92755.86,-28471.07,-36912.883,-43936.363,-20875.611,-55953.086,-16088.542
1216146.1109439502,-132402.47,-92803.305,-28481.08,-36918.582,-43946.492,-20872.885,-55958.05,-16073.039
1216146.114943946,-132445.77,-92832.73,-28479.127,-36918.54,-43947.062,-20871.99,-55962.934,-16069.011
1216146.1189439418,-132411.78,-92801.19,-28467.45,-36913.492,-43945.883,-20876.629,-55962.77,-16092.978
1216146.1229439375,-132355.23,-92748.62,-28461.264,-36912.68,-43939.332,-20878.947,-55953.004,-16092.692
1216146.126943933,-132355.39,-92752.69,-28469.402,-36918.297,-43936.934,-20876.344,-55945.723,-16071.249
1216146.1309439288,-132407.8,-92800.17,-28476.604,-36921.67,-43949.14,-20871.746,-55950.035,-16063.6
1216146.1349439246,-132443.12,-92828.33,-28474.53,-36920.492,-43952.56,-20870.605,-55956.055,-16069.743
1216146.1389439204,-132405.72,-92799.73,-28462.402,-36915.0,-43944.582,-20871.826,-55951.703,-16070.72
1216146.1429439161,-132349.61,-92754.6,-28460.979,-36914.31,-43934.492,-20876.22,-55948.242,-16079.957
1216146.1469439117,-132345.34,-92746.83,-28470.256,-36918.703,-43935.184,-20876.059,-55949.668,-16085.124
1216146.1509439074,-132401.73,-92792.85,-28483.36,-36923.668,-43941.406,-20871.664,-55955.08,-16074.992
1216146.1549439032,-132444.02,-92834.31,-28484.498,-36924.074,-43945.152,-20870.89,-55962.04,-16074.423
1216146.158943899,-132413.53,-92812.625,-28472.332,-36919.434,-43937.867,-20874.959,-55963.504,-16084.677
1216146.1629438945,-132354.83,-92762.62,-28465.252,-36916.547,-43933.84,-20879.639,-55956.87,-16088.868
1216146.1669438903,-132351.94,-92756.59,-28474.162,-36921.67,-43935.59,-20879.72,-55955.04,-16080.526
1216146.170943886,-132408.12,-92799.56,-28483.928,-36927.207,-43946.168,-20877.361,-55961.184,-16074.708
1216146.1749438818,-132437.02,-92820.48,-28476.238,-36923.543,-43946.414,-20873.7,-55963.746,-16072.551
1216146.1789438773,-132404.55,-92798.14,-28466.676,-36919.76,-43935.223,-20877.035,-55960.168,-16075.277
1216146.182943873,-132353.16,-92758.836,-28464.682,-36920.535,-43932.82,-20880.941,-55952.355,-16073.568
1216146.1869438689,-132352.42,-92760.664,-28474.61,-36925.418,-43932.414,-20880.371,-55952.844,-16079.631
1216146.1909438646,-132412.64,-92802.82,-28484.172,-36929.85,-43941.12,-20877.361,-55957.684,-16074.22
1216146.1949438604,-132456.9,-92833.01,-28482.219,-36929.484,-43941.285,-20874.39,-55961.145,-16059.408
1216146.198943856,-132426.64,-92811.65,-28471.396,-36925.54,-43934.125,-20878.459,-55963.83,-16078.248
1216146.2029438517,-132366.78,-92763.15,-28465.984,-36923.504,-43926.15,-20883.953,-55958.336,-16094.809
1216146.2069438475,-132351.73,-92756.11,-28470.094,-36927.45,-43929.934,-20884.766,-55958.703,-16086.874
1216146.2109438432,-132406.45,-92806.89,-28478.271,-36930.582,-43941.246,-20880.127,-55962.61,-16073.283
1216146.2149438388,-132440.52,-92838.38,-28476.441,-36928.67,-43940.473,-20878.5,-55966.105,-16066.041
1216146.2189438345,-132409.72,-92808.68,-28463.584,-36922.895,-43928.266,-20881.104,-55963.38,-16072.145
1216146.2229438303,-132361.83,-92763.06,-28456.38,-36922.242,-43927.37,-20883.22,-55954.1,-16067.994
1216146.226943826,-132357.14,-92764.98,-28466.146,-36927.29,-43936.2,-20879.68,-55950.48,-16067.668
1216146.2309438216,-132410.12,-92810.914,-28480.469,-36933.473,-43945.438,-20875.326,-55956.465,-16075.033
1216146.2349438174,-132451.22,-92837.41,-28479.98,-36933.555,-43945.68,-20873.658,-55963.176,-16075.725
1216146.2389438131,-132425.02,-92811.08,-28471.03,-36929.934,-43937.055,-20878.094,-55962.973,-16079.143
1216146.242943809,-132372.16,-92774.5,-28469.482,-36930.46,-43930.95,-20881.062,-55955.69,-16081.34
1216146.2469438044,-132369.95,-92779.09,-28475.059,-36935.914,-43936.28,-20880.209,-55951.38,-16071.615
1216146.2509438002,-132422.73,-92819.99,-28485.312,-36939.25,-43946.168,-20874.92,-55957.684,-16073.161
1216146.254943796,-132453.7,-92844.93,-28479.656,-36936.523,-43942.996,-20874.309,-55969.402,-16089.152
1216146.2589437917,-132417.77,-92814.78,-28464.396,-36932.293,-43936.65,-20877.809,-55969.605,-16092.286
1216146.2629437875,-132367.27,-92781.05,-28463.217,-36933.676,-43934.816,-20881.389,-55965.742,-16098.1045
1216146.266943783,-132360.64,-92780.32,-28472.209,-36938.355,-43939.863,-20880.291,-55965.496,-16101.4
1216146.2709437788,-132420.53,-92832.36,-28485.596,-36943.484,-43951.17,-20875.53,-55972.293,-16097.169
1216146.2749437746,-132462.77,-92865.56,-28489.137,-36944.62,-43953.33,-20873.7,-55979.902,-16096.884
1216146.2789437703,-132433.8,-92841.23,-28477.824,-36942.06,-43943.848,-20879.354,-55981.082,-16101.197
1216146.2829437659,-132376.8,-92799.03,-28473.064,-36942.06,-43938.273,-20881.836,-55973.27,-16099.488
1216146.2869437616,-132368.86,-92795.414,-28477.621,-36945.883,-43943.77,-20879.232,-55968.1,-16093.344
1216146.2909437574,-132427.38,-92842.49,-28489.014,-36951.785,-43953.613,-20874.227,-55971.234,-16088.217
1216146.2949437532,-132470.58,-92881.31,-28493.205,-36952.555,-43956.137,-20873.291,-55975.793,-16083.985
1216146.2989437487,-132436.33,-92855.72,-28481.895,-36948.934,-43951.297,-20879.07,-55975.426,-16090.333
1216146.3029437445,-132376.39,-92804.41,-28473.268,-36945.76,-43942.305,-20881.268,-55969.2,-16092.408
1216146.3069437402,-132368.61,-92798.26,-28481.04,-36950.277,-43944.176,-20880.86,-55967.492,-16088.095
1216146.310943736,-132421.03,-92848.96,-28490.764,-36956.055,-43958.58,-20877.93,-55973.39,-16080.607
1216146.3149437315,-132472.86,-92892.7,-28492.758,-36957.156,-43959.188,-20876.018,-55978.152,-16076.945
1216146.3189437273,-132438.4,-92859.46,-28478.191,-36948.285,-43948.934,-20880.086,-55976.36,-16084.352
1216146.322943723,-132376.31,-92811.16,-28472.738,-36946.777,-43943.645,-20885.133,-55972.332,-16097.575
1216146.3269437188,-132362.84,-92807.984,-28483.725,-36952.883,-43943.77,-20885.092,-55968.508,-16095.134
1216146.3309437146,-132407.8,-92849.0,-28490.887,-36958.62,-43954.266,-20881.918,-55972.008,-16090.617
1216146.3349437101,-132452.44,-92872.07,-28487.916,-36957.156,-43954.55,-20878.785,-55971.152,-16069.174
1216146.338943706,-132424.69,-92842.05,-28477.295,-36952.066,-43941.61,-20881.348,-55968.793,-16070.476
1216146.3429437017,-132369.34,-92799.36,-28474.406,-36951.01,-43933.39,-20884.277,-55961.062,-16079.875
1216146.3469436974,-132362.55,-92795.78,-28479.412,-36956.83,-43946.13,-20885.213,-55958.78,-16086.427
1216146.350943693,-132420.2,-92843.51,-28489.34,-36963.176,-43952.477,-20882.324,-55964.234,-16082.724
1216146.3549436887,-132459.16,-92871.055,-28487.021,-36963.094,-43950.035,-20880.291,-55966.27,-16063.6
1216146.3589436845,-132431.31,-92840.45,-28474.244,-36956.668,-43939.293,-20882.732,-55963.504,-16062.582
1216146.3629436803,-132371.34,-92791.47,-28464.6,-36953.613,-43933.066,-20887.207,-55958.496,-16067.587
1216146.3669436758,-132359.17,-92793.13,-28472.168,-36959.72,-43938.07,-20886.598,-55955.49,-16066.8545
1216146.3709436716,-132412.97,-92840.25,-28483.562,-36966.35,-43945.273,-20881.877,-55958.254,-16059.733
1216146.3749436673,-132453.1,-92871.055,-28481.283,-36964.56,-43950.605,-20878.947,-55960.734,-16053.02
1216146.378943663,-132419.8,-92841.64,-28467.57,-36958.62,-43939.414,-20882.732,-55961.02,-16068.116
1216146.3829436586,-132368.94,-92802.695,-28465.658,-36959.637,-43934.41,-20886.15,-55954.918,-16074.504
1216146.3869436544,-132363.45,-92806.36,-28479.533,-36967.45,-43939.74,-20886.11,-55952.883,-16072.917
1216146.3909436502,-132414.31,-92850.43,-28487.916,-36971.844,-43952.598,-20881.307,-55954.023,-16059.449
1216146.394943646,-132457.73,-92888.72,-28487.143,-36972.008,-43960.816,-20878.582,-55961.59,-16066.244
1216146.3989436417,-132424.94,-92865.44,-28473.268,-36968.387,-43948.73,-20880.127,-55959.598,-16069.947
1216146.4029436372,-132369.34,-92821.58,-28468.303,-36967.53,-43949.098,-20882.488,-55951.945,-16069.987
1216146.406943633,-132361.3,-92817.875,-28475.465,-36972.496,-43959.72,-20881.592,-55950.523,-16076.295
1216146.4109436288,-132414.6,-92860.31,-28485.557,-36977.824,-43963.582,-20880.371,-55954.957,-16068.808
1216146.4149436245,-132454.34,-92888.06,-28488.404,-36975.06,-43960.938,-20877.361,-55960.613,-16069.906
1216146.41894362,-132428.23,-92867.11,-28476.156,-36971.805,-43951.457,-20881.023,-55961.266,-16069.377
1216146.4229436158,-132379.72,-92828.45,-28471.803,-36971.273,-43946.902,-20883.22,-55952.56,-16057.862
1216146.4269436116,-132384.36,-92840.336,-28483.848,-36978.68,-43953.816,-20883.627,-55954.875,-16077.516
1216146.4309436074,-132436.36,-92877.73,-28497.723,-36983.24,-43963.016,-20881.43,-55965.254,-16090.577
1216146.434943603,-132463.8,-92890.83,-28487.672,-36980.227,-43964.52,-20879.477,-55972.09,-16094.483
1216146.4389435987,-132428.75,-92864.055,-28471.559,-36971.68,-43951.133,-20881.715,-55968.508,-16089.234
1216146.4429435944,-132379.4,-92821.62,-28471.844,-36972.574,-43944.62,-20887.207,-55961.184,-16085.287
1216146.4469435902,-132375.05,-92813.73,-28481.445,-36978.395,-43942.87,-20887.166,-55960.53,-16084.025
1216146.450943586,-132425.17,-92853.766,-28492.31,-36982.87,-43960.37,-20882.162,-55966.066,-16081.34
1216146.4549435815,-132465.66,-92887.25,-28491.455,-36978.516,-43957.887,-20882.0,-55974.043,-16083.578
1216146.4589435773,-132441.69,-92871.055,-28480.389,-36975.383,-43952.84,-20884.889,-55972.863,-16087.484
1216146.462943573,-132377.56,-92826.17,-28473.309,-36974.12,-43946.492,-20887.533,-55965.496,-16089.723
1216146.4669435688,-132357.83,-92812.7,-28481.812,-36978.11,-43947.633,-20885.457,-55959.555,-16089.845
1216146.4709435643,-132410.03,-92854.45,-28491.008,-36985.23,-43956.79,-20880.574,-55962.242,-16072.267
1216146.47494356,-132452.92,-92891.73,-28488.934,-36986.613,-43960.734,-20879.07,-55966.39,-16060.426
1216146.4789435558,-132426.31,-92866.01,-28479.736,-36981.363,-43953.535,-20882.61,-55970.83,-16090.129
1216146.4829435516,-132371.27,-92821.375,-28473.309,-36978.64,-43945.965,-20889.242,-55968.508,-16095.541
1216146.4869435471,-132358.08,-92814.62,-28480.998,-36981.57,-43947.633,-20889.16,-55963.46,-16084.758
1216146.490943543,-132412.31,-92855.836,-28492.88,-36988.04,-43955.445,-20885.174,-55969.445,-16087.932
1216146.4949435387,-132453.86,-92890.586,-28491.578,-36989.176,-43963.094,-20882.488,-55974.367,-16087.443
1216146.4989435344,-132430.27,-92867.516,-28482.219,-36984.133,-43955.812,-20885.295,-55970.95,-16083.009
1216146.50294353,-132379.11,-92822.11,-28475.994,-36984.824,-43945.07,-20889.445,-55964.766,-16083.334
1216146.5069435257,-132365.61,-92810.1,-28481.283,-36991.05,-43952.027,-20887.207,-55960.938,-16079.428
1216146.5109435215,-132424.16,-92857.38,-28495.037,-36996.5,-43956.383,-20884.36,-55966.066,-16080.16
1216146.5149435173,-132473.67,-92891.4,-28492.88,-36995.117,-43965.047,-20880.615,-55966.188,-16066.651
1216146.518943513,-132451.22,-92862.305,-28480.266,-36988.445,-43952.027,-20884.074,-55963.22,-16072.633
1216146.5229435086,-132398.44,-92815.76,-28474.447,-36988.406,-43949.016,-20889.242,-55955.324,-16071.452
1216146.5269435043,-132379.72,-92806.84,-28480.389,-36992.758,-43953.9,-20888.348,-55946.94,-16060.141
1216146.5309435,-132427.05,-92841.23,-28490.764,-36997.113,-43961.02,-20882.447,-55950.523,-16052.287
1216146.5349434959,-132469.48,-92876.51,-28492.27,-36996.137,-43959.395,-20880.291,-55959.637,-16054.933
1216146.5389434914,-132445.92,-92860.195,-28479.371,-36990.6,-43955.406,-20885.05,-55965.05,-16074.016
1216146.5429434872,-132390.02,-92814.86,-28472.738,-36989.42,-43950.32,-20889.812,-55964.316,-16088.339
1216146.546943483,-132371.27,-92799.03,-28479.697,-36991.945,-43950.848,-20890.79,-55964.64,-16095.46
1216146.5509434787,-132419.64,-92838.87,-28488.648,-36994.508,-43960.98,-20886.434,-55966.96,-16081.422
1216146.5549434742,-132459.16,-92869.59,-28488.73,-36992.88,-43962.77,-20883.383,-55968.914,-16072.999
1216146.55894347,-132432.75,-92846.73,-28473.389,-36986.453,-43952.72,-20884.848,-55964.4,-16080.974
1216146.5629434658,-132363.73,-92787.31,-28462.363,-36982.586,-43946.777,-20889.607,-55957.887,-16082.438
1216146.5669434615,-132332.77,-92767.625,-28469.85,-36983.727,-43951.66,-20890.38,-55954.266,-16082.113
1216146.570943457,-132373.3,-92801.84,-28479.371,-36985.637,-43958.78,-20887.818,-55959.96,-16071.33
1216146.5749434528,-132401.78,-92822.35,-28474.732,-36981.203,-43958.984,-20886.598,-55967.207,-16069.215
1216146.5789434486,-132380.45,-92800.91,-28465.82,-36976.93,-43954.43,-20891.154,-55970.297,-16082.235
1216146.5829434444,-132320.6,-92741.01,-28455.242,-36970.62,-43946.74,-20896.607,-55969.363,-16096.559
1216146.5869434401,-132282.88,-92703.9,-28458.822,-36968.465,-43942.344,-20899.537,-55973.066,-16106.324
1216146.5909434357,-132319.7,-92727.38,-28465.537,-36971.52,-43956.746,-20896.852,-55980.51,-16102.906
1216146.5949434314,-132349.89,-92741.984,-28463.176,-36966.84,-43955.566,-20895.143,-55988.49,-16094.239
1216146.5989434272,-132310.47,-92700.52,-28446.533,-36956.42,-43942.63,-20899.7,-55992.27,-16110.678
1216146.602943423,-132243.98,-92643.31,-28438.193,-36950.24,-43938.926,-20904.094,-55987.227,-16122.519
1216146.6069434185,-132204.95,-92608.52,-28436.89,-36948.65,-43938.56,-20906.17,-55987.43,-16132.895
1216146.6109434143,-132240.16,-92640.22,-28441.855,-36949.625,-43940.633,-20901.082,-55991.133,-16132.04
1216146.61494341,-132272.6,-92660.81,-28438.232,-36946.25,-43943.156,-20898.357,-55997.723,-16129.762
1216146.6189434058,-132251.06,-92631.836,-28429.363,-36940.188,-43934.9,-20901.246,-56000.0,-16131.389
1216146.6229434013,-132181.28,-92575.52,-28420.736,-36934.9,-43928.348,-20903.89,-55992.395,-16133.586
1216146.626943397,-132154.5,-92557.74,-28424.521,-36936.85,-43934.9,-20905.6,-55990.234,-16130.656
1216146.6309433929,-132199.34,-92592.086,-28434.246,-36940.555,-43939.453,-20901.531,-55995.324,-16124.187
1216146.6349433886,-132231.66,-92613.69,-28433.31,-36937.418,-43940.88,-20897.584,-55997.152,-16112.428
1216146.6389433842,-132202.72,-92581.914,-28419.963,-36930.094,-43931.926,-20901.814,-56001.953,-16134.848
1216146.64294338,-132140.02,-92529.5,-28410.564,-36925.336,-43924.195,-20907.553,-55999.066,-16138.591
1216146.6469433757,-132110.77,-92505.01,-28416.424,-36925.742,-43928.266,-20907.959,-55997.316,-16138.835
1216146.6509433715,-132148.48,-92535.85,-28420.41,-36927.652,-43933.15,-20907.146,-56005.94,-16135.946
1216146.6549433672,-132192.72,-92564.78,-28417.441,-36925.945,-43936.445,-20907.635,-56014.57,-16138.551
1216146.6589433628,-132171.6,-92549.12,-28406.658,-36919.312,-43928.387,-20910.28,-56014.082,-16139.812
1216146.6629433585,-132111.7,-92496.75,-28397.95,-36916.344,-43925.008,-20913.209,-56011.11,-16144.328
1216146.6669433543,-132078.17,-92470.79,-28399.74,-36919.516,-43932.414,-20913.697,-56008.465,-16145.061
1216146.67094335,-132115.77,-92501.06,-28409.465,-36921.348,-43936.77,-20910.28,-56014.977,-16153.361
1216146.6749433456,-132157.27,-92524.3,-28408.977,-36918.17,-43935.387,-20907.838,-56018.72,-16148.642
1216146.6789433414,-132129.44,-92500.61,-28396.934,-36911.418,-43925.133,-20910.889,-56017.742,-16142.497
1216146.6829433371,-132067.55,-92453.375,-28385.824,-36908.043,-43913.496,-20917.4,-56014.242,-16143.881
1216146.686943333,-132042.53,-92439.58,-28390.057,-36908.816,-43917.074,-20918.621,-56015.3,-16170.126
1216146.6909433284,-132092.38,-92474.37,-28402.873,-36914.105,-43926.555,-20916.342,-56022.137,-16164.836
1216146.6949433242,-132132.81,-92500.66,-28401.572,-36912.19,-43931.195,-20913.941,-56028.89,-16162.069
1216146.69894332,-132108.03,-92479.086,-28387.451,-36907.27,-43928.71,-20917.848,-56031.58,-16167.604
1216146.7029433157,-132046.64,-92426.64,-28381.389,-36905.273,-43917.32,-20924.031,-56029.22,-16168.783
1216146.7069433115,-132029.8,-92413.29,-28389.568,-36911.664,-43924.805,-20924.805,-56026.246,-16163.412
1216146.710943307,-132069.58,-92455.61,-28395.793,-36917.36,-43935.1,-20922.283,-56031.66,-16165.446
1216146.7149433028,-132113.05,-92497.766,-28395.549,-36914.348,-43935.63,-20919.76,-56036.83,-16170.37
1216146.7189432986,-132092.2,-92481.734,-28381.023,-36907.227,-43928.754,-20919.842,-56035.93,-16185.182
1216146.7229432943,-132035.03,-92430.3,-28373.78,-36904.664,-43925.945,-20923.543,-56024.457,-16178.224
1216146.7269432899,-132012.53,-92409.1,-28380.453,-36909.223,-43928.996,-20926.393,-56023.234,-16173.178
1216146.7309432856,-132054.08,-92442.38,-28390.38,-36912.844,-43934.45,-20924.52,-56028.28,-16163.046
1216146.7349432814,-132098.67,-92480.67,-28390.137,-36912.723,-43937.867,-20922.404,-56036.83,-16162.069
1216146.7389432772,-132081.8,-92464.805,-28380.82,-36909.18,-43930.46,-20925.293,-56039.105,-16170.817
1216146.7429432727,-132027.8,-92422.9,-28370.566,-36908.61,-43928.67,-20930.379,-56035.32,-16176.921
1216146.7469432685,-132005.38,-92406.86,-28374.309,-36909.344,-43930.258,-20932.658,-56035.566,-16180.299
1216146.7509432642,-132052.66,-92442.75,-28384.766,-36912.8,-43939.82,-20930.543,-56040.45,-16178.305
1216146.75494326,-132105.64,-92484.22,-28390.83,-36915.445,-43949.547,-20927.572,-56047.04,-16183.351
1216146.7589432555,-132082.77,-92462.85,-28379.314,-36909.87,-43938.965,-20930.543,-56048.22,-16190.634
1216146.7629432513,-132016.94,-92411.09,-28365.723,-36904.664,-43926.8,-20934.002,-56043.582,-16194.418
1216146.766943247,-131989.22,-92396.12,-28371.42,-36908.53,-43929.2,-20932.658,-56037.76,-16188.722
1216146.7709432428,-132035.81,-92435.305,-28382.08,-36914.836,-43941.0,-20927.246,-56040.938,-16180.543
1216146.7749432386,-132086.11,-92470.95,-28385.254,-36914.957,-43942.832,-20922.69,-56046.957,-16180.502
1216146.7789432341,-132073.45,-92455.85,-28377.564,-36910.848,-43931.562,-20923.584,-56048.26,-16185.141
1216146.78294323,-132015.06,-92410.93,-28370.443,-36908.816,-43928.1,-20928.67,-56044.152,-16191.8955
1216146.7869432257,-131991.78,-92392.13,-28376.547,-36912.516,-43940.96,-20928.305,-56040.324,-16192.546
1216146.7909432214,-132040.66,-92435.8,-28389.283,-36917.36,-43940.797,-20924.725,-56046.51,-16191.651
1216146.794943217,-132084.69,-92471.68,-28388.633,-36917.848,-43949.504,-20919.598,-56050.05,-16187.379
1216146.7989432127,-132064.62,-92452.72,-28376.14,-36911.46,-43936.89,-20921.021,-56048.953,-16191.285
1216146.8029432085,-131996.22,-92396.12,-28362.834,-36907.43,-43928.957,-20929.525,-56048.34,-16198.935
1216146.8069432043,-131966.16,-92374.23,-28366.578,-36909.465,-43931.64,-20933.064,-56047.57,-16198.446
1216146.8109431998,-132015.55,-92416.75,-28377.809,-36915.855,-43940.39,-20929.2,-56050.09,-16193.4
1216146.8149431956,-132068.94,-92456.26,-28376.22,-36915.69,-43939.82,-20926.514,-56054.12,-16189.738
1216146.8189431913,-132053.67,-92436.0,-28365.56,-36912.8,-43929.445,-20928.508,-56051.637,-16188.07
1216146.822943187,-131991.45,-92387.17,-28356.121,-36910.973,-43932.58,-20935.1,-56048.016,-16189.657
1216146.8269431826,-131962.66,-92363.89,-28362.225,-36912.598,-43935.47,-20937.379,-56045.574,-16188.803
1216146.8309431784,-132005.17,-92405.234,-28375.57,-36918.582,-43939.78,-20934.57,-56048.87,-16183.676
1216146.8349431742,-132051.69,-92446.375,-28375.773,-36920.086,-43950.035,-20934.285,-56058.027,-16184.815
1216146.83894317,-132029.02,-92433.15,-28362.916,-36915.977,-43946.086,-20937.703,-56058.88,-16189.006
1216146.8429431657,-131970.55,-92387.375,-28354.209,-36914.145,-43935.223,-20942.709,-56055.664,-16193.156
1216146.8469431612,-131945.77,-92362.836,-28358.115,-36918.297,-43940.676,-20943.28,-56050.906,-16196.656
1216146.850943157,-131985.39,-92395.305,-28365.643,-36921.51,-43953.41,-20940.389,-56051.598,-16189.942
1216146.8549431527,-132036.3,-92437.99,-28364.422,-36922.69,-43957.277,-20939.941,-56058.312,-16190.512
1216146.8589431485,-132021.33,-92422.08,-28355.186,-36918.785,-43948.04,-20942.83,-56056.562,-16193.197
1216146.862943144,-131972.17,-92380.78,-28349.691,-36918.99,-43950.074,-20947.186,-56049.887,-16199.301
1216146.8669431398,-131952.6,-92365.56,-28359.986,-36923.465,-43948.203,-20950.36,-56049.156,-16200.196
1216146.8709431356,-131995.05,-92409.875,-28372.438,-36931.926,-43955.69,-20948.934,-56054.65,-16196.29
1216146.8749431313,-132047.89,-92452.92,-28374.229,-36932.945,-43955.77,-20945.842,-56059.33,-16185.182
1216146.8789431269,-132030.84,-92435.71,-28360.963,-36927.45,-43953.004,-20949.139,-56062.176,-16191.8955
1216146.8829431226,-131965.1,-92387.414,-28350.506,-36926.473,-43951.457,-20953.816,-56058.516,-16201.417
1216146.8869431184,-131933.97,-92366.01,-28355.145,-36927.695,-43950.848,-20953.125,-56057.336,-16222.779
1216146.8909431142,-131973.06,-92397.83,-28365.846,-36931.03,-43960.207,-20948.65,-56062.5,-16222.697
1216146.8949431097,-132026.78,-92435.67,-28365.967,-36932.66,-43961.754,-20948.895,-56073.855,-16232.057
1216146.8989431055,-132016.84,-92435.06,-28356.04,-36928.793,-43954.145,-20953.451,-56077.516,-16233.073
1216146.9029431012,-131958.75,-92386.6,-28349.773,-36928.14,-43946.21,-20957.684,-56073.0,-16229.208
1216146.906943097,-131927.9,-92363.37,-28355.754,-36930.992,-43946.535,-20958.943,-56070.11,-16234.823
1216146.9109430928,-131966.84,-92405.68,-28364.746,-36935.71,-43954.305,-20956.502,-56073.855,-16237.387
1216146.9149430883,-132013.67,-92448.85,-28363.566,-36935.06,-43964.684,-20952.23,-56077.23,-16230.266
1216146.918943084,-131995.89,-92427.62,-28352.58,-36930.22,-43953.94,-20954.469,-56075.32,-16229.208
1216146.9229430798,-131937.9,-92377.85,-28345.582,-36927.938,-43941.164,-20958.943,-56067.426,-16229.899
1216146.9269430756,-131909.75,-92362.02,-28350.262,-36930.22,-43942.75,-20960.979,-56063.113,-16228.639
1216146.9309430711,-131954.6,-92401.21,-28362.834,-36936.117,-43955.242,-20958.09,-56063.195,-16216.146
1216146.934943067,-132005.62,-92437.38,-28359.213,-36936.2,-43958.824,-20957.154,-56071.047,-16225.058
1216146.9389430627,-131999.16,-92428.23,-28351.889,-36932.332,-43952.883,-20960.205,-56070.52,-16220.338
1216146.9429430584,-131943.0,-92382.086,-28341.838,-36928.59,-43939.902,-20964.844,-56062.582,-16215.495
1216146.946943054,-131902.84,-92350.95,-28342.693,-36928.914,-43943.93,-20967.123,-56064.78,-16229.167
1216146.9509430497,-131946.83,-92391.4,-28357.422,-36936.117,-43954.51,-20964.844,-56073.73,-16252.564
1216146.9549430455,-131996.6,-92430.51,-28359.13,-36934.695,-43961.47,-20962.605,-56079.184,-16253.012
1216146.9589430413,-131979.86,-92420.33,-28346.885,-36929.73,-43950.848,-20966.268,-56080.0,-16251.547
1216146.962943037,-131923.83,-92379.64,-28339.479,-36927.86,-43943.156,-20971.111,-56073.895,-16254.965
1216146.9669430326,-131892.58,-92351.69,-28343.873,-36930.91,-43940.31,-20973.268,-56070.438,-16259.604
1216146.9709430283,-131930.19,-92377.81,-28358.807,-36935.184,-43945.965,-20971.436,-56074.707,-16261.231
1216146.974943024,-131988.4,-92418.055,-28360.434,-36933.84,-43949.79,-20968.262,-56081.016,-16264.445
1216146.9789430199,-131972.7,-92408.45,-28347.129,-36928.59,-43942.63,-20971.477,-56083.17,-16268.393
1216146.9829430154,-131920.12,-92376.14,-28340.21,-36926.35,-43933.676,-20977.459,-56079.918,-16273.845
1216146.9869430112,-131891.08,-92359.984,-28345.135,-36928.59,-43937.95,-20979.168,-56077.15,-16285.808
1216146.990943007,-131919.48,-92376.95,-28351.807,-36932.047,-43952.68,-20976.97,-56080.773,-16280.681
1216146.9949430027,-131970.47,-92410.61,-28356.568,-36934.082,-43956.992,-20975.098,-56085.53,-16271.688
1216146.9989429982,-131962.45,-92405.16,-28350.22,-36932.21,-43949.26,-20978.312,-56086.59,-16276.774
1216147.002942994,-131897.22,-92355.02,-28342.326,-36927.613,-43935.914,-20982.422,-56082.24,-16279.704
1216147.0069429898,-131862.06,-92332.32,-28346.314,-36929.77,-43936.445,-20983.969,-56076.01,-16271.485
1216147.0109429855,-131896.73,-92366.414,-28357.992,-36934.207,-43945.926,-20982.83,-56079.797,-16273.967
1216147.014942981,-131957.36,-92414.88,-28361.248,-36935.71,-43949.91,-20979.371,-56089.48,-16287.272
1216147.0189429768,-131955.08,-92418.375,-28353.76,-36935.14,-43946.574,-20981.61,-56089.316,-16282.878
1216147.0229429726,-131899.17,-92367.44,-28345.623,-36931.926,-43937.83,-20986.572,-56084.883,-16284.018
1216147.0269429684,-131868.45,-92337.57,-28350.791,-36933.23,-43943.44,-20990.031,-56083.742,-16286.052
1216147.0309429641,-131903.66,-92368.57,-28360.148,-36937.137,-43953.086,-20987.996,-56088.016,-16292.604
1216147.0349429597,-131936.94,-92394.49,-28353.312,-36933.797,-43948.203,-20986.166,-56098.918,-16296.428
1216147.0389429554,-131929.16,-92394.086,-28343.344,-36928.996,-43941.49,-20988.037,-56098.227,-16283.8545
1216147.0429429512,-131881.52,-92358.805,-28339.438,-36927.98,-43933.96,-20993.408,-56092.164,-16284.628
1216147.046942947,-131850.88,-92332.6,-28344.28,-36930.707,-43934.285,-20996.867,-56093.184,-16293.498
1216147.0509429425,-131903.53,-92366.82,-28359.13,-36935.793,-43941.367,-20994.752,-56098.797,-16298.585
1216147.0549429383,-131966.56,-92412.805,-28361.29,-36937.055,-43943.605,-20992.39,-56106.49,-16303.956
1216147.058942934,-131959.64,-92404.055,-28352.418,-36933.15,-43939.863,-20995.32,-56105.594,-16307.455
1216147.0629429298,-131905.69,-92363.08,-28346.965,-36930.83,-43929.77,-20999.39,-56099.69,-16309.042
1216147.0669429253,-131870.56,-92340.01,-28350.22,-36933.434,-43931.926,-21000.0,-56096.03,-16319.865
1216147.070942921,-131908.0,-92366.13,-28362.998,-36939.984,-43941.367,-20996.42,-56096.234,-16312.053
1216147.0749429169,-131954.44,-92407.8,-28362.59,-36940.594,-43944.5,-20991.496,-56096.76,-16298.178
1216147.0789429126,-131943.61,-92401.9,-28351.645,-36937.297,-43932.902,-20991.293,-56093.26,-16295.817
1216147.0829429082,-131888.34,-92352.26,-28344.605,-36935.996,-43926.066,-20995.2,-56088.91,-16298.788
1216147.086942904,-131859.22,-92324.22,-28349.57,-36937.867,-43926.883,-20996.99,-56087.812,-16318.319
1216147.0909428997,-131895.27,-92358.73,-28363.12,-36944.336,-43938.56,-20993.816,-56087.77,-16304.078
1216147.0949428955,-131952.56,-92405.4,-28365.357,-36945.76,-43948.652,-20990.887,-56091.797,-16299.928
1216147.0989428912,-131953.0,-92402.23,-28355.348,-36940.88,-43944.95,-20993.734,-56094.32,-16308.229
1216147.1029428868,-131902.02,-92359.87,-28342.123,-36938.03,-43936.973,-20999.797,-56093.71,-16322.511
1216147.1069428825,-131868.33,-92330.24,-28346.6,-36940.676,-43936.16,-21002.117,-56090.66,-16312.663
1216147.1109428783,-131909.11,-92367.8,-28362.713,-36948.934,-43942.75,-20998.006,-56091.15,-16293.336
1216147.114942874,-131962.12,-92412.805,-28362.59,-36950.24,-43951.254,-20994.955,-56097.863,-16288.005
1216147.1189428696,-131943.03,-92398.195,-28349.977,-36946.492,-43942.63,-20997.518,-56100.63,-16301.881
1216147.1229428654,-131875.58,-92347.91,-28339.316,-36940.676,-43933.23,-21001.629,-56095.258,-16308.106
1216147.1269428611,-131851.36,-92322.06,-28342.652,-36942.223,-43932.78,-21003.988,-56090.457,-16305.583
1216147.130942857,-131907.31,-92355.72,-28355.795,-36949.91,-43943.035,-21001.832,-56092.98,-16301.677
1216147.1349428524,-131968.95,-92404.14,-28357.545,-36950.766,-43948.164,-20997.396,-56095.95,-16294.557
1216147.1389428482,-131955.4,-92399.78,-28345.379,-36946.414,-43942.75,-20999.064,-56095.38,-16285.727
1216147.142942844,-131885.47,-92352.99,-28333.904,-36942.18,-43937.055,-21003.215,-56092.57,-16303.996
1216147.1469428397,-131843.02,-92324.625,-28340.617,-36945.23,-43936.688,-21004.518,-56089.684,-16309.855
1216147.1509428353,-131877.48,-92349.695,-28350.709,-36950.32,-43945.76,-21000.041,-56089.52,-16304.77
1216147.154942831,-131947.47,-92397.51,-28355.957,-36951.457,-43951.215,-20996.42,-56092.043,-16292.155
1216147.1589428268,-131960.3,-92396.33,-28350.018,-36948.527,-43947.43,-20997.438,-56090.17,-16294.068
1216147.1629428226,-131903.97,-92348.266,-28336.143,-36945.07,-43939.535,-21003.133,-56087.85,-16305.136
1216147.1669428183,-131867.97,-92322.06,-28336.264,-36948.082,-43944.336,-21003.662,-56083.008,-16306.275
1216147.1709428139,-131907.47,-92352.38,-28351.482,-36953.816,-43953.207,-20999.188,-56082.848,-16302.45
1216147.1749428096,-131962.33,-92397.26,-28357.016,-36955.445,-43956.668,-20996.582,-56086.508,-16293.498
1216147.1789428054,-131952.11,-92392.13,-28343.71,-36950.97,-43952.965,-20997.762,-56086.71,-16291.261
1216147.1829428012,-131893.31,-92341.48,-28331.137,-36946.492,-43945.07,-20999.838,-56079.797,-16283.448
1216147.1869427967,-131869.42,-92318.484,-28338.299,-36950.645,-43946.617,-20999.879,-56076.297,-16289.511
1216147.1909427925,-131911.14,-92356.94,-28352.5,-36959.637,-43959.72,-20996.541,-56083.457,-16302.572
1216147.1949427882,-131958.3,-92398.12,-28354.533,-36962.04,-43964.805,-20992.39,-56088.34,-16293.092
1216147.198942784,-131941.05,-92391.234,-28340.82,-36956.79,-43958.863,-20994.223,-56086.508,-16289.755
1216147.2029427795,-131879.64,-92345.75,-28332.48,-36953.98,-43951.906,-20998.414,-56081.75,-16289.145
1216147.2069427753,-131842.73,-92319.18,-28336.793,-36955.934,-43952.8,-21000.326,-56078.94,-16285.279
1216147.210942771,-131886.84,-92353.07,-28349.895,-36962.117,-43961.914,-20997.926,-56083.78,-16290.162
1216147.2149427668,-131946.58,-92400.15,-28351.889,-36962.85,-43970.46,-20991.375,-56086.71,-16279.054
1216147.2189427626,-131945.08,-92401.0,-28341.309,-36958.902,-43967.246,-20991.293,-56087.934,-16274.374
1216147.2229427581,-131888.67,-92361.33,-28328.613,-36956.46,-43962.973,-20996.541,-56088.38,-16306.601
1216147.226942754,-131852.58,-92336.1,-28332.195,-36961.266,-43966.473,-20997.559,-56084.883,-16309.693
1216147.2309427497,-131887.83,-92360.195,-28342.773,-36967.246,-43974.45,-20992.879,-56085.125,-16302.45
1216147.2349427454,-131938.77,-92399.984,-28343.506,-36967.57,-43979.535,-20987.549,-56088.38,-16288.9
1216147.238942741,-131932.25,-92394.49,-28334.555,-36962.934,-43973.633,-20985.475,-56086.754,-16286.459
1216147.2429427367,-131874.77,-92348.59,-28322.918,-36957.766,-43966.51,-20987.184,-56080.406,-16291.545
1216147.2469427325,-131836.02,-92330.37,-28324.748,-36961.223,-43972.293,-20985.352,-56071.25,-16281.169
1216147.2509427282,-131873.98,-92361.01,-28339.805,-36966.227,-43979.13,-20978.312,-56069.46,-16263.0625
1216147.2549427238,-131930.88,-92397.51,-28340.332,-36964.6,-43978.76,-20973.389,-56079.55,-16274.252
1216147.2589427195,-131928.06,-92394.375,-28330.363,-36959.27,-43968.02,-20974.65,-56085.98,-16295.411
1216147.2629427153,-131874.56,-92346.48,-28326.986,-36954.996,-43960.613,-20978.027,-56079.023,-16289.836
1216147.266942711,-131840.17,-92321.54,-28330.771,-36956.22,-43961.062,-20976.848,-56070.152,-16280.355
1216147.2709427066,-131868.78,-92351.24,-28342.53,-36960.938,-43971.316,-20972.453,-56071.29,-16271.933
1216147.2749427024,-131922.33,-92398.16,-28350.83,-36963.38,-43978.926,-20968.67,-56077.312,-16262.98
1216147.2789426981,-131931.31,-92408.66,-28343.994,-36961.957,-43975.996,-20967.164,-56079.1,-16262.126
1216147.282942694,-131876.42,-92365.93,-28334.025,-36959.11,-43970.906,-20970.623,-56076.54,-16270.834
1216147.2869426897,-131843.11,-92343.23,-28336.02,-36963.38,-43971.477,-20971.6,-56071.332,-16267.782
1216147.2909426852,-131873.12,-92369.75,-28349.447,-36968.223,-43979.207,-20967.244,-56069.785,-16248.942
1216147.294942681,-131918.98,-92400.07,-28350.303,-36966.35,-43974.652,-20963.46,-56075.605,-16255.453
1216147.2989426767,-131909.72,-92398.52,-28338.584,-36961.266,-43974.246,-20965.129,-56079.55,-16272.543
1216147.3029426725,-131853.19,-92359.625,-28330.16,-36958.336,-43965.863,-20972.86,-56078.207,-16279.338
1216147.306942668,-131819.06,-92332.6,-28335.613,-36960.164,-43962.688,-20977.05,-56075.93,-16273.275
1216147.3109426638,-131853.6,-92362.23,-28349.936,-36963.582,-43973.227,-20974.732,-56078.453,-16264.894
1216147.3149426596,-131919.03,-92409.95,-28355.389,-36966.51,-43978.965,-20971.844,-56086.508,-16268.474
1216147.3189426553,-131929.56,-92415.04,-28352.133,-36965.945,-43975.75,-20972.941,-56090.13,-16280.6
1216147.3229426509,-131877.69,-92367.516,-28340.82,-36959.434,-43966.797,-20975.709,-56088.016,-16295.37
1216147.3269426466,-131841.8,-92340.58,-28341.35,-36958.09,-43966.758,-20978.68,-56084.84,-16292.97
1216147.3309426424,-131877.33,-92374.68,-28355.55,-36962.484,-43975.06,-20975.139,-56081.953,-16279.135
1216147.3349426382,-131941.66,-92427.58,-28360.76,-36963.46,-43980.836,-20970.094,-56082.766,-16268.067
1216147.3389426337,-131939.25,-92419.31,-28349.773,-36955.73,-43972.453,-20972.371,-56085.492,-16268.474
1216147.3429426295,-131876.88,-92369.02,-28336.346,-36947.797,-43959.35,-20977.05,-56079.1,-16268.189
1216147.3469426252,-131851.64,-92354.086,-28344.727,-36950.32,-43960.33,-20975.871,-56070.19,-16264.405
1216147.350942621,-131886.84,-92384.445,-28359.54,-36955.12,-43967.285,-20971.6,-56070.64,-16259.645
1216147.3549426168,-131934.5,-92420.62,-28357.586,-36952.35,-43975.06,-20968.914,-56076.62,-16251.913
1216147.3589426123,-131932.66,-92416.914,-28345.215,-36946.695,-43968.67,-20970.906,-56078.41,-16251.466
1216147.362942608,-131886.56,-92380.13,-28339.926,-36942.914,-43963.992,-20974.895,-56077.027,-16264.405
1216147.3669426038,-131854.02,-92358.16,-28345.785,-36943.117,-43967.53,-20977.621,-56073.773,-16265.504
1216147.3709425996,-131887.98,-92383.51,-28356.69,-36946.82,-43972.293,-20976.197,-56077.92,-16271.119
1216147.3749425951,-131945.97,-92423.34,-28358.807,-36946.047,-43975.383,-20973.756,-56085.086,-16264.527
1216147.378942591,-131953.0,-92426.805,-28350.668,-36940.145,-43970.703,-20975.18,-56086.426,-16267.009
1216147.3829425867,-131898.03,-92385.54,-28340.049,-36934.977,-43958.906,-20979.045,-56080.16,-16270.0205
1216147.3869425824,-131853.64,-92349.086,-28338.42,-36934.734,-43958.09,-20981.73,-56075.605,-16267.945
1216147.390942578,-131887.17,-92376.02,-28350.668,-36938.56,-43966.637,-20977.459,-56075.48,-16266.114
1216147.3949425737,-131946.9,-92425.58,-28356.568,-36939.13,-43969.16,-20972.332,-56078.207,-16259.4
1216147.3989425695,-131942.31,-92416.914,-28349.57,-36933.473,-43962.08,-20972.982,-56079.754,-16263.917
1216147.4029425653,-131879.92,-92359.09,-28338.705,-36927.246,-43953.33,-20978.842,-56076.824,-16272.543
1216147.406942561,-131849.81,-92337.52,-28340.21,-36931.438,-43956.953,-20981.648,-56071.21,-16267.335
1216147.4109425566,-131882.58,-92374.02,-28350.75,-36936.605,-43966.51,-20976.686,-56072.145,-16264.934
1216147.4149425523,-131940.31,-92423.26,-28351.197,-36938.152,-43976.688,-20971.844,-56074.668,-16261.149
1216147.418942548,-131946.86,-92424.12,-28343.75,-36934.734,-43973.227,-20971.72,-56072.473,-16258.708
1216147.4229425439,-131894.4,-92376.836,-28335.654,-36931.766,-43965.332,-20977.05,-56066.69,-16259.767
1216147.4269425394,-131844.86,-92340.82,-28333.457,-36934.9,-43966.188,-20978.639,-56061.363,-16259.196
1216147.4309425352,-131867.52,-92376.586,-28343.385,-36941.61,-43977.418,-20974.162,-56060.426,-16250.367
1216147.434942531,-131915.69,-92415.24,-28348.512,-36942.71,-43981.16,-20972.453,-56068.2,-16249.96
1216147.4389425267,-131920.45,-92415.04,-28339.275,-36935.914,-43975.26,-20975.79,-56071.535,-16255.372
1216147.4429425222,-131880.73,-92378.54,-28332.684,-36933.88,-43968.06,-20977.906,-56064.25,-16255.982
1216147.446942518,-131834.6,-92339.03,-28336.223,-36936.81,-43965.254,-20979.492,-56060.426,-16259.034
1216147.4509425138,-131855.31,-92359.984,-28341.758,-36941.977,-43973.023,-20979.656,-56067.02,-16259.889
1216147.4549425095,-131934.45,-92426.19,-28351.4,-36948.49,-43981.082,-20975.22,-56072.227,-16254.721
1216147.458942505,-131950.12,-92433.96,-28345.176,-36946.86,-43971.965,-20975.3,-56073.69,-16250.651
1216147.4629425008,-131885.88,-92376.266,-28331.584,-36941.246,-43966.39,-20981.527,-56075.074,-16267.945
1216147.4669424966,-131842.25,-92350.75,-28334.799,-36943.766,-43968.305,-20985.271,-56072.473,-16263.469
1216147.4709424924,-131877.2,-92385.7,-28347.861,-36951.09,-43977.418,-20982.992,-56071.168,-16252.89
1216147.4749424881,-131939.45,-92434.37,-28355.186,-36953.816,-43982.016,-20979.86,-56081.79,-16261.354
1216147.4789424837,-131938.23,-92434.49,-28345.135,-36952.8,-43980.594,-20982.422,-56085.492,-16258.261
1216147.4829424794,-131885.27,-92392.42,-28335.328,-36951.133,-43981.242,-20988.12,-56083.09,-16265.016
1216147.4869424752,-131852.06,-92370.32,-28338.867,-36954.508,-43980.797,-20989.787,-56084.27,-16293.01
1216147.490942471,-131879.97,-92393.35,-28350.18,-36958.54,-43985.273,-20985.88,-56086.793,-16290.528
1216147.4949424665,-131939.86,-92438.07,-28354.453,-36960.9,-43998.496,-20980.795,-56091.39,-16283.204
1216147.4989424623,-131959.8,-92443.41,-28345.582,-36956.258,-43994.223,-20979.207,-56091.434,-16280.6
1216147.502942458,-131912.56,-92393.35,-28336.06,-36951.457,-43978.23,-20982.545,-56085.656,-16278.769
1216147.5069424538,-131861.66,-92359.74,-28335.979,-36949.832,-43977.906,-20983.928,-56083.254,-16278.932
1216147.5109424493,-131886.44,-92389.164,-28346.64,-36953.33,-43989.22,-20980.754,-56084.883,-16273.438
1216147.514942445,-131946.83,-92444.54,-28350.668,-36956.46,-44000.285,-20975.383,-56088.016,-16267.701
1216147.5189424409,-131956.55,-92453.49,-28343.467,-36954.145,-43994.996,-20975.586,-56086.508,-16264.649
1216147.5229424366,-131896.25,-92398.73,-28334.31,-36948.0,-43981.57,-20979.86,-56080.61,-16270.305
1216147.5269424322,-131852.14,-92364.51,-28335.613,-36947.715,-43980.797,-20982.098,-56075.727,-16270.305
1216147.530942428,-131888.19,-92401.49,-28350.668,-36955.73,-43994.996,-20977.662,-56073.57,-16262.655
1216147.5349424237,-131953.9,-92456.83,-28354.492,-36959.39,-44007.855,-20972.494,-56076.215,-16256.674
1216147.5389424195,-131955.81,-92451.26,-28343.303,-36953.168,-44001.547,-20973.756,-56080.406,-16257.243
1216147.5429424152,-131899.95,-92408.2,-28329.754,-36949.586,-43990.195,-20979.168,-56076.62,-16259.196
1216147.5469424108,-131866.3,-92381.8,-28334.31,-36952.8,-43976.074,-20980.389,-56070.07,-16255.412
1216147.5509424065,-131891.44,-92408.61,-28349.365,-36961.63,-43987.062,-20976.848,-56071.37,-16253.622
1216147.5549424023,-131941.98,-92454.8,-28355.062,-36963.42,-43990.926,-20974.61,-56077.11,-16250.285
1216147.558942398,-131946.17,-92458.74,-28344.97,-36959.637,-43987.918,-20976.848,-56079.633,-16247.844
1216147.5629423936,-131895.6,-92418.99,-28334.758,-36956.91,-43981.773,-20981.812,-56076.54,-16257.487
1216147.5669423894,-131848.47,-92387.125,-28333.496,-36957.805,-43980.39,-20984.863,-56071.82,-16258.708
1216147.5709423851,-131872.61,-92413.375,-28340.902,-36962.85,-43990.645,-20983.44,-56075.562,-16265.097
1216147.574942381,-131937.14,-92465.09,-28347.617,-36965.78,-43997.97,-20980.389,-56083.62,-16260.417
1216147.5789423764,-131946.66,-92468.75,-28337.566,-36963.258,-43997.97,-20981.527,-56087.445,-16257.121
1216147.5829423722,-131897.02,-92428.19,-28328.818,-36961.387,-43991.457,-20985.88,-56085.246,-16261.068
1216147.586942368,-131849.61,-92395.875,-28330.078,-36965.21,-43978.8,-20988.81,-56083.336,-16257.569
1216147.5909423637,-131865.16,-92413.29,-28341.35,-36969.645,-43979.492,-20988.24,-56089.844,-16264.73
1216147.5949423593,-131925.05,-92457.85,-28347.982,-36972.332,-43990.766,-20985.066,-56098.145,-16280.355
1216147.598942355,-131944.22,-92469.12,-28341.553,-36971.03,-43991.54,-20987.305,-56100.71,-16278.932
1216147.6029423508,-131889.0,-92417.97,-28329.998,-36966.39,-43986.043,-20992.39,-56097.82,-16280.233
1216147.6069423466,-131857.34,-92394.21,-28328.613,-36968.14,-43994.67,-20993.816,-56092.45,-16276.205
1216147.6109423423,-131897.02,-92433.39,-28346.64,-36977.664,-44003.99,-20989.828,-56089.6,-16268.962
1216147.6149423379,-131948.69,-92475.34,-28349.895,-36980.062,-44017.62,-20985.596,-56092.004,-16264.201
1216147.6189423336,-131942.11,-92470.87,-28340.455,-36974.652,-44014.73,-20986.287,-56091.23,-16256.349
1216147.6229423294,-131898.77,-92439.414,-28328.818,-36972.7,-44001.71,-20989.46,-56083.05,-16260.539
1216147.6269423252,-131853.19,-92405.44,-28327.637,-36973.105,-43994.426,-20992.39,-56074.098,-16251.384
1216147.6309423207,-131866.3,-92421.67,-28334.799,-36977.867,-44003.664,-20989.46,-56072.348,-16236.9795
1216147.6349423165,-131931.97,-92478.72,-28344.482,-36981.895,-44014.0,-20985.393,-56073.895,-16225.099
1216147.6389423122,-131950.33,-92499.59,-28342.082,-36979.37,-44010.418,-20985.596,-56074.26,-16229.005
1216147.642942308,-131895.19,-92449.016,-28331.87,-36974.734,-43997.438,-20992.229,-56078.25,-16251.181
1216147.6469423035,-131846.61,-92414.76,-28329.51,-36976.156,-43989.22,-20996.502,-56079.715,-16255.453
1216147.6509422993,-131872.03,-92441.9,-28339.6,-36983.6,-44002.363,-20995.646,-56083.336,-16253.459
1216147.654942295,-131934.53,-92494.47,-28345.744,-36986.613,-44014.445,-20990.682,-56088.016,-16248.332
1216147.6589422908,-131941.4,-92497.64,-28338.258,-36982.586,-44013.918,-20990.072,-56089.926,-16249.269
1216147.6629422866,-131887.58,-92458.26,-28326.213,-36978.355,-44006.797,-20993.084,-56086.875,-16253.703
1216147.666942282,-131847.02,-92427.01,-28324.951,-36979.656,-44003.785,-20995.525,-56083.254,-16252.32
1216147.6709422779,-131867.77,-92445.27,-28335.002,-36984.58,-44014.85,-20992.635,-56083.984,-16252.279
1216147.6749422736,-131933.47,-92497.73,-28344.28,-36990.438,-44026.695,-20987.387,-56086.67,-16245.606
1216147.6789422694,-131948.69,-92506.88,-28337.078,-36988.363,-44024.902,-20987.508,-56088.504,-16252.89
1216147.682942265,-131893.8,-92464.36,-28324.139,-36983.805,-44015.953,-20993.408,-56088.504,-16263.876
1216147.6869422607,-131846.48,-92432.54,-28326.295,-36985.35,-44016.195,-20995.646,-56085.53,-16271.444
1216147.6909422565,-131885.67,-92463.664,-28342.611,-36994.71,-44020.996,-20992.473,-56087.484,-16268.759
1216147.6949422522,-131949.47,-92508.1,-28349.162,-36998.902,-44021.324,-20989.137,-56094.523,-16265.219
1216147.6989422478,-131958.7,-92513.516,-28343.67,-36995.28,-44022.707,-20989.014,-56096.234,-16263.388
1216147.7029422435,-131914.64,-92479.375,-28335.979,-36991.496,-44018.84,-20994.02,-56093.1,-16263.388
1216147.7069422393,-131864.27,-92442.38,-28328.533,-36990.766,-44015.34,-20997.396,-56092.367,-16273.479
1216147.710942235,-131877.94,-92455.08,-28335.37,-36995.445,-44025.312,-20995.729,-56091.637,-16272.99
1216147.7149422306,-131939.12,-92505.74,-28342.164,-36997.76,-44027.996,-20990.643,-56094.363,-16263.673
1216147.7189422264,-131952.69,-92518.88,-28335.246,-36997.52,-44027.06,-20989.217,-56092.285,-16256.674
1216147.7229422221,-131896.53,-92474.81,-28324.912,-36992.758,-44014.12,-20992.352,-56088.543,-16258.302
1216147.726942218,-131848.64,-92435.02,-28331.137,-36992.758,-44009.156,-20993.246,-56082.805,-16254.68
1216147.7309422137,-131877.33,-92453.58,-28343.994,-36999.797,-44023.152,-20988.934,-56078.74,-16242.636
1216147.7349422092,-131935.14,-92499.96,-28347.617,-37004.11,-44037.965,-20985.393,-56083.008,-16235.2705
1216147.738942205,-131942.67,-92506.92,-28340.7,-37002.035,-44028.32,-20985.799,-56085.574,-16238.119
1216147.7429422007,-131889.89,-92466.07,-28329.021,-36995.523,-44017.99,-20989.87,-56080.324,-16242.27
1216147.7469421965,-131848.84,-92438.32,-28331.38,-36996.582,-44015.992,-20993.205,-56077.844,-16242.758
1216147.750942192,-131872.61,-92464.766,-28347.291,-37003.543,-44026.652,-20991.334,-56080.73,-16242.961
1216147.7549421878,-131940.39,-92525.11,-28357.3,-37009.44,-44036.055,-20986.775,-56088.137,-16242.433
1216147.7589421836,-131956.42,-92537.72,-28351.115,-37005.777,-44030.438,-20986.248,-56090.496,-16246.013
1216147.7629421793,-131895.34,-92488.69,-28338.176,-36999.676,-44024.617,-20991.09,-56088.3,-16252.32
1216147.7669421749,-131852.34,-92462.98,-28343.588,-37002.645,-44021.16,-20994.629,-56085.246,-16257.976
1216147.7709421706,-131879.08,-92487.914,-28354.9,-37010.945,-44030.887,-20991.375,-56085.086,-16255.453
1216147.7749421664,-131935.6,-92527.914,-28360.678,-37012.777,-44034.1,-20987.02,-56089.97,-16252.36
1216147.7789421622,-131950.03,-92532.02,-28351.074,-37007.977,-44030.56,-20986.004,-56089.234,-16252.36
1216147.7829421577,-131902.31,-92499.27,-28340.129,-37004.64,-44021.895,-20991.902,-56087.04,-16256.999
1216147.7869421535,-131863.28,-92475.836,-28337.525,-37006.88,-44024.902,-20996.826,-56085.656,-16262.492
1216147.7909421492,-131885.27,-92498.17,-28350.059,-37012.37,-44039.105,-20994.629,-56086.305,-16262.045
1216147.794942145,-131945.11,-92539.8,-28357.463,-37016.44,-44040.203,-20991.578,-56093.996,-16269.45
1216147.7989421408,-131958.9,-92551.39,-28349.162,-37016.766,-44045.047,-20992.596,-56097.74,-16271.647
1216147.8029421363,-131904.02,-92512.9,-28337.484,-37014.04,-44033.57,-20996.664,-56090.617,-16268.474
1216147.806942132,-131850.8,-92472.54,-28335.125,-37014.65,-44024.09,-21000.936,-56087.08,-16275.065
1216147.8109421278,-131868.17,-92483.93,-28346.111,-37021.242,-44028.89,-21000.611,-56086.996,-16265.626
1216147.8149421236,-131934.81,-92536.46,-28355.674,-37025.637,-44038.37,-20996.338,-56085.53,-16233.236
1216147.8189421191,-131955.12,-92553.39,-28345.256,-37023.6,-44040.406,-20996.99,-56089.195,-16243.897
1216147.822942115,-131895.47,-92512.66,-28334.473,-37019.246,-44031.863,-21001.506,-56085.777,-16262.492
1216147.8269421107,-131840.55,-92479.82,-28335.002,-37019.492,-44027.875,-21003.377,-56078.453,-16258.952
1216147.8309421064,-131868.33,-92501.63,-28346.191,-37027.793,-44038.047,-21001.262,-56078.168,-16250.855
1216147.834942102,-131933.84,-92551.11,-28355.348,-37031.21,-44044.477,-20997.152,-56082.24,-16241.822
1216147.8389420977,-131938.44,-92547.81,-28347.006,-37025.35,-44035.688,-21000.488,-56088.016,-16247.4375
1216147.8429420935,-131878.55,-92497.56,-28329.307,-37021.566,-44028.77,-21005.453,-56085.29,-16256.511
1216147.8469420893,-131836.88,-92471.64,-28332.357,-37024.414,-44031.047,-21005.574,-56076.01,-16244.467
1216147.8509420848,-131853.69,-92487.19,-28343.223,-37029.664,-44037.438,-21002.32,-56076.5,-16240.642
1216147.8549420806,-131908.12,-92530.03,-28348.227,-37030.64,-44042.562,-21000.408,-56085.98,-16238.322
1216147.8589420763,-131932.66,-92543.42,-28342.408,-37029.01,-44036.01,-20998.82,-56086.914,-16235.312
1216147.862942072,-131893.28,-92512.49,-28332.969,-37026.043,-44034.02,-21001.385,-56078.086,-16232.707
1216147.8669420679,-131842.61,-92477.79,-28332.56,-37026.33,-44031.7,-21004.518,-56075.32,-16243.368
1216147.8709420634,-131851.16,-92484.09,-28342.938,-37030.887,-44035.2,-21003.703,-56082.4,-16254.721
1216147.8749420592,-131915.17,-92532.23,-28352.295,-37035.645,-44045.207,-20999.268,-56087.527,-16246.827
1216147.878942055,-131932.5,-92549.484,-28344.605,-37033.895,-44045.656,-20998.25,-56088.664,-16252.6045
1216147.8829420507,-131879.64,-92511.92,-28331.096,-37029.176,-44040.12,-21002.441,-56090.09,-16269.735
1216147.8869420462,-131850.22,-92485.76,-28333.375,-37032.105,-44040.57,-21004.354,-56086.426,-16276.408
1216147.890942042,-131873.45,-92501.38,-28343.914,-37037.11,-44045.613,-21002.686,-56086.55,-16269.572
1216147.8949420378,-131928.75,-92540.57,-28352.215,-37039.836,-44047.363,-20998.82,-56090.05,-16258.464
1216147.8989420335,-131947.67,-92548.67,-28346.64,-37035.973,-44044.76,-21000.408,-56096.844,-16262.452
1216147.902942029,-131898.84,-92520.836,-28337.281,-37032.918,-44042.195,-21004.803,-56096.64,-16266.154
1216147.9069420248,-131855.84,-92497.84,-28339.031,-37034.344,-44044.11,-21006.877,-56092.33,-16276.205
1216147.9109420206,-131872.48,-92511.516,-28348.512,-37038.74,-44052.086,-21004.03,-56088.664,-16275.839
1216147.9149420164,-131927.81,-92551.92,-28353.232,-37042.523,-44056.03,-21000.447,-56091.96,-16279.257
1216147.9189420121,-131944.78,-92566.57,-28347.617,-37040.49,-44055.79,-20997.885,-56088.137,-16262.208
1216147.9229420077,-131894.9,-92535.04,-28336.67,-37037.883,-44050.336,-21000.53,-56081.707,-16256.389
1216147.9269420034,-131838.06,-92502.32,-28336.67,-37038.047,-44050.17,-21001.709,-56076.54,-16256.145
1216147.9309419992,-131846.92,-92511.31,-28346.72,-37042.117,-44052.656,-20998.7,-56073.082,-16242.433
1216147.934941995,-131893.08,-92547.37,-28357.3,-37043.824,-44054.445,-20996.582,-56077.15,-16227.499
1216147.9389419905,-131923.67,-92575.36,-28353.477,-37044.84,-44055.176,-20996.867,-56075.97,-16223.186
1216147.9429419863,-131879.92,-92536.3,-28343.791,-37039.227,-44046.348,-21000.977,-56073.73,-16237.672
1216147.946941982,-131821.86,-92497.27,-28340.455,-37039.715,-44043.785,-21004.924,-56071.25,-16239.381
1216147.9509419778,-131840.42,-92522.055,-28354.98,-37047.77,-44053.1,-21001.994,-56068.89,-16237.0205
1216147.9549419733,-131907.6,-92571.01,-28362.916,-37053.957,-44064.168,-20999.838,-56072.797,-16244.589
1216147.958941969,-131922.28,-92574.305,-28355.186,-37048.586,-44059.695,-21001.912,-56077.312,-16246.623
1216147.9629419649,-131878.17,-92544.44,-28344.28,-37043.742,-44052.613,-21006.43,-56076.336,-16246.054
1216147.9669419606,-131846.11,-92514.49,-28345.176,-37045.94,-44050.863,-21010.418,-56075.97,-16254.436
1216147.9709419562,-131859.95,-92526.49,-28356.69,-37049.97,-44055.867,-21008.139,-56076.297,-16253.581
1216147.974941952,-131910.0,-92568.445,-28358.848,-37050.54,-44059.9,-21004.15,-56081.098,-16247.722
1216147.9789419477,-131931.81,-92582.44,-28349.041,-37046.1,-44054.77,-21007.244,-56088.098,-16257.081
1216147.9829419435,-131887.73,-92551.516,-28342.53,-37041.098,-44045.695,-21010.945,-56089.03,-16269.41
1216147.9869419392,-131834.16,-92518.19,-28342.326,-37039.715,-44043.457,-21012.94,-56084.066,-16268.596
1216147.9909419348,-131843.22,-92525.35,-28352.824,-37044.35,-44049.52,-21011.271,-56083.54,-16263.957
1216147.9949419305,-131898.56,-92567.23,-28358.074,-37046.348,-44056.52,-21006.104,-56088.91,-16264.975
1216147.9989419263,-131919.84,-92589.766,-28352.947,-37042.605,-44058.105,-21003.256,-56087.934,-16259.44
1216148.002941922,-131874.47,-92556.52,-28341.92,-37035.973,-44053.996,-21006.55,-56082.24,-16255.738
1216148.0069419176,-131826.55,-92517.26,-28341.553,-37033.977,-44052.777,-21007.527,-56075.074,-16252.971
1216148.0109419134,-131849.25,-92539.39,-28353.516,-37042.523,-44061.934,-21003.621,-56072.39,-16254.11
1216148.0149419091,-131911.9,-92590.91,-28362.713,-37044.84,-44073.855,-20998.494,-56076.297,-16245.973
1216148.018941905,-131924.89,-92598.63,-28356.486,-37037.68,-44067.87,-21000.123,-56083.293,-16253.297
1216148.0229419004,-131871.83,-92564.414,-28340.576,-37030.64,-44062.176,-21004.72,-56081.016,-16253.012
1216148.0269418962,-131835.66,-92539.43,-28345.053,-37032.715,-44064.332,-21005.494,-56070.477,-16244.142
1216148.030941892,-131846.69,-92542.6,-28354.86,-37036.906,-44065.105,-21005.86,-56071.29,-16241.09
1216148.0349418877,-131899.55,-92576.26,-28360.027,-37035.77,-44065.594,-21002.32,-56077.516,-16236.003
1216148.0389418832,-131931.11,-92606.29,-28360.557,-37034.508,-44065.023,-20998.414,-56074.26,-16228.923
1216148.042941879,-131887.94,-92577.805,-28349.488,-37032.31,-44058.027,-20999.756,-56068.402,-16236.125
1216148.0469418748,-131826.67,-92524.87,-28342.205,-37027.832,-44057.496,-21006.023,-56067.668,-16240.561
1216148.0509418705,-131836.52,-92533.05,-28349.082,-37030.805,-44061.727,-21005.86,-56068.688,-16232.016
1216148.0549418663,-131908.61,-92597.05,-28360.475,-37037.723,-44076.01,-21001.22,-56071.86,-16230.836
1216148.0589418618,-131937.34,-92612.02,-28358.398,-37036.703,-44075.24,-21001.547,-56075.523,-16228.679
1216148.0629418576,-131883.27,-92560.23,-28343.059,-37028.688,-44062.176,-21006.918,-56077.883,-16245.28
1216148.0669418534,-131822.06,-92528.41,-28339.031,-37028.566,-44061.934,-21010.906,-56076.133,-16256.389
1216148.0709418491,-131839.2,-92551.44,-28352.662,-37037.64,-44069.094,-21007.244,-56073.895,-16254.11
1216148.0749418447,-131899.95,-92592.734,-28359.66,-37041.91,-44072.957,-21001.791,-56076.66,-16251.954
1216148.0789418404,-131917.44,-92596.766,-28352.05,-37038.047,-44071.7,-21001.14,-56080.812,-16245.851
1216148.0829418362,-131879.97,-92563.4,-28340.984,-37035.074,-44067.344,-21004.518,-56078.29,-16253.093
1216148.086941832,-131832.03,-92525.88,-28342.855,-37035.156,-44063.438,-21007.447,-56072.754,-16251.588
1216148.0909418275,-131839.84,-92535.16,-28350.465,-37039.633,-44070.723,-21007.691,-56075.523,-16245.973
1216148.0949418233,-131885.27,-92579.19,-28352.092,-37040.285,-44078.41,-21006.756,-56086.47,-16252.768
1216148.098941819,-131908.98,-92602.83,-28347.617,-37038.453,-44079.957,-21005.291,-56088.79,-16253.012
1216148.1029418148,-131869.14,-92571.414,-28339.764,-37035.28,-44073.895,-21008.79,-56084.027,-16252.116
1216148.1069418103,-131817.67,-92529.55,-28337.852,-37034.996,-44071.21,-21010.213,-56078.86,-16251.75
1216148.110941806,-131825.56,-92536.74,-28346.191,-37040.242,-44076.742,-21007.895,-56076.945,-16239.665
1216148.1149418019,-131890.02,-92588.99,-28352.703,-37043.906,-44087.65,-21002.28,-56078.332,-16229.086
1216148.1189417976,-131920.53,-92613.98,-28349.406,-37044.312,-44086.836,-20999.594,-56077.23,-16227.458
1216148.1229417934,-131871.14,-92574.06,-28339.805,-37041.547,-44080.28,-21002.238,-56074.098,-16237.997
1216148.126941789,-131814.9,-92533.125,-28334.27,-37042.195,-44075.605,-21003.541,-56067.18,-16235.067
1216148.1309417847,-131829.31,-92549.6,-28344.688,-37048.18,-44084.395,-21000.53,-56064.09,-16223.39
1216148.1349417805,-131886.77,-92601.195,-28353.883,-37051.676,-44092.613,-20996.867,-56069.418,-16217.733
1216148.1389417762,-131908.05,-92609.26,-28349.895,-37046.633,-44087.402,-20996.867,-56073.61,-16217.408
1216148.1429417718,-131869.11,-92573.37,-28340.861,-37041.22,-44077.56,-21000.244,-56071.21,-16228.598
1216148.1469417675,-131827.69,-92545.945,-28338.664,-37040.773,-44081.586,-21003.012,-56065.715,-16227.458
1216148.1509417633,-131832.08,-92552.05,-28345.012,-37045.535,-44085.37,-21001.629,-56069.703,-16231.853
1216148.154941759,-131892.55,-92599.77,-28349.162,-37049.36,-44091.676,-20997.762,-56076.215,-16233.033
1216148.1589417546,-131938.97,-92628.42,-28347.088,-37049.723,-44090.09,-20996.379,-56077.355,-16227.662
1216148.1629417504,-131896.33,-92598.48,-28339.111,-37049.074,-44086.184,-21000.244,-56079.754,-16232.829
1216148.1669417461,-131835.12,-92550.664,-28334.31,-37048.137,-44085.164,-21002.361,-56078.613,-16240.194
1216148.170941742,-131837.53,-92557.62,-28344.402,-37052.33,-44088.094,-20999.064,-56076.457,-16246.542
1216148.1749417377,-131894.1,-92602.91,-28350.22,-37055.016,-44095.01,-20993.938,-56078.086,-16239.909
1216148.1789417332,-131919.03,-92620.0,-28342.45,-37053.387,-44092.938,-20994.06,-56081.383,-16238.566
1216148.182941729,-131872.23,-92586.55,-28331.055,-37048.953,-44085.45,-20998.291,-56079.754,-16244.142
1216148.1869417247,-131822.72,-92553.67,-28329.428,-37050.008,-44084.434,-21000.732,-56074.504,-16239.462
1216148.1909417205,-131836.52,-92569.99,-28341.717,-37055.34,-44091.758,-20998.902,-56072.473,-16232.463
1216148.194941716,-131895.39,-92614.305,-28350.586,-37060.223,-44104.086,-20994.1,-56075.727,-16226.97
1216148.1989417118,-131925.25,-92636.27,-28344.97,-37060.426,-44112.305,-20991.822,-56075.645,-16224.244
1216148.2029417076,-131886.08,-92596.31,-28333.049,-37057.863,-44103.477,-20994.1,-56071.574,-16219.361
1216148.2069417033,-131828.7,-92553.555,-28328.94,-37055.625,-44093.59,-20997.6,-56069.746,-16227.214
1216148.2109416989,-131835.2,-92561.41,-28338.908,-37058.88,-44098.473,-20995.525,-56068.566,-16235.026
1216148.2149416946,-131906.7,-92609.91,-28346.559,-37063.03,-44108.156,-20990.154,-56069.99,-16229.289
1216148.2189416904,-131944.27,-92637.21,-28346.232,-37062.543,-44108.727,-20988.893,-56075.402,-16227.743
1216148.2229416862,-131899.58,-92605.555,-28335.166,-37057.58,-44096.316,-20992.596,-56075.97,-16230.551
1216148.2269416817,-131841.39,-92565.35,-28332.398,-37056.56,-44091.797,-20996.95,-56073.406,-16228.068
1216148.2309416775,-131848.11,-92578.05,-28343.182,-37059.773,-44094.89,-20996.42,-56075.074,-16224.04
1216148.2349416732,-131899.3,-92623.09,-28347.82,-37064.25,-44101.93,-20993.205,-56082.6,-16224.977
1216148.238941669,-131921.92,-92639.2,-28343.14,-37061.363,-44101.035,-20992.799,-56090.008,-16229.086
1216148.2429416648,-131878.62,-92602.586,-28331.748,-37055.3,-44093.875,-20994.223,-56086.387,-16230.632
1216148.2469416603,-131829.06,-92569.42,-28329.957,-37054.812,-44092.734,-20996.176,-56082.97,-16233.684
1216148.250941656,-131838.55,-92580.94,-28342.002,-37062.418,-44100.87,-20993.45,-56083.54,-16234.213
1216148.2549416518,-131893.69,-92620.85,-28348.35,-37064.617,-44110.066,-20987.508,-56090.17,-16234.538
1216148.2589416476,-131929.45,-92643.64,-28343.873,-37063.76,-44117.066,-20985.027,-56090.742,-16229.371
1216148.2629416431,-131901.05,-92618.9,-28337.81,-37062.01,-44103.844,-20986.695,-56085.656,-16237.509
1216148.266941639,-131845.17,-92576.78,-28330.648,-37059.816,-44092.49,-20990.682,-56081.91,-16242.717
1216148.2709416347,-131835.53,-92570.11,-28334.473,-37061.81,-44095.055,-20989.625,-56082.113,-16234.782
1216148.2749416304,-131902.19,-92623.09,-28346.965,-37068.117,-44106.445,-20986.572,-56084.35,-16230.836
1216148.278941626,-131943.33,-92653.32,-28348.43,-37068.156,-44108.727,-20985.148,-56085.574,-16224.325
1216148.2829416217,-131897.14,-92616.945,-28334.514,-37062.215,-44100.79,-20989.055,-56086.71,-16237.468
1216148.2869416175,-131844.4,-92584.72,-28327.922,-37064.656,-44097.74,-20995.037,-56087.61,-16252.035
1216148.2909416133,-131854.02,-92598.76,-28339.52,-37071.74,-44105.31,-20991.7,-56085.98,-16242.961
1216148.2949416088,-131913.33,-92643.27,-28352.295,-37075.195,-44116.254,-20987.102,-56090.945,-16239.381
1216148.2989416046,-131941.2,-92660.32,-28345.5,-37072.184,-44111.613,-20986.287,-56095.137,-16238.038
1216148.3029416003,-131896.81,-92621.83,-28333.09,-37066.57,-44099.285,-20990.072,-56092.41,-16237.794
1216148.306941596,-131849.94,-92587.0,-28337.24,-37068.727,-44096.926,-20991.781,-56085.816,-16235.963
1216148.3109415919,-131861.2,-92594.61,-28350.098,-37074.832,-44105.594,-20991.496,-56084.68,-16232.26
1216148.3149415874,-131905.0,-92634.28,-28354.615,-37077.76,-44111.453,-20988.648,-56088.625,-16222.128
1216148.3189415832,-131938.97,-92662.11,-28352.174,-37077.477,-44111.25,-20986.125,-56088.34,-16208.985
1216148.322941579,-131914.52,-92639.445,-28346.72,-37075.727,-44112.957,-20988.69,-56087.484,-16231.242
1216148.3269415747,-131868.66,-92604.86,-28344.035,-37075.766,-44116.496,-20991.09,-56086.387,-16241.74
1216148.3309415702,-131865.48,-92602.22,-28349.041,-37078.613,-44108.684,-20993.287,-56087.65,-16243.856
1216148.334941566,-131916.22,-92642.78,-28355.592,-37081.18,-44110.19,-20991.537,-56092.613,-16240.724
1216148.3389415618,-131951.45,-92673.016,-28350.871,-37080.16,-44110.92,-20988.729,-56092.53,-16241.862
1216148.3429415575,-131909.88,-92641.36,-28335.49,-37076.457,-44102.418,-20992.39,-56090.008,-16247.844
1216148.346941553,-131846.72,-92590.375,-28327.068,-37076.05,-44097.25,-20998.21,-56087.363,-16247.03
1216148.3509415488,-131857.34,-92604.45,-28343.914,-37081.34,-44104.902,-20995.117,-56083.945,-16240.724
1216148.3549415446,-131925.38,-92663.21,-28358.521,-37087.363,-44117.676,-20989.38,-56087.363,-16235.475
1216148.3589415404,-131957.16,-92676.11,-28355.51,-37083.984,-44112.184,-20990.357,-56097.25,-16240.968
1216148.362941536,-131915.86,-92637.66,-28343.385,-37077.68,-44097.78,-20996.014,-56101.156,-16252.116
1216148.3669415317,-131870.25,-92611.86,-28340.293,-37078.816,-44096.68,-21001.14,-56098.066,-16260.458
1216148.3709415274,-131870.48,-92616.62,-28347.209,-37084.8,-44101.402,-21001.18,-56096.6,-16254.965
1216148.3749415232,-131918.5,-92650.555,-28353.842,-37087.484,-44108.93,-20997.396,-56098.918,-16246.298
1216148.378941519,-131942.83,-92668.13,-28350.871,-37083.824,-44105.266,-20995.24,-56098.676,-16242.066
1216148.3829415145,-131913.78,-92641.52,-28340.332,-37080.406,-44099.895,-20998.82,-56094.934,-16245.199
1216148.3869415103,-131865.69,-92604.86,-28336.67,-37080.04,-44096.723,-21004.924,-56094.117,-16242.961
1216148.390941506,-131859.02,-92606.77,-28340.943,-37082.277,-44100.87,-21006.023,-56096.273,-16243.246
1216148.3949415018,-131910.69,-92639.695,-28347.25,-37085.41,-44105.348,-21001.832,-56098.35,-16242.921
1216148.3989414973,-131951.34,-92670.05,-28349.365,-37085.734,-44110.19,-20999.594,-56100.426,-16246.705
1216148.402941493,-131921.88,-92647.38,-28337.852,-37082.97,-44108.44,-21003.338,-56098.27,-16244.386
1216148.4069414889,-131865.44,-92602.17,-28333.416,-37083.17,-44095.83,-21007.977,-56097.863,-16248.17
1216148.4109414846,-131870.94,-92604.82,-28340.537,-37089.48,-44101.523,-21006.348,-56096.76,-16244.955
1216148.4149414802,-131937.55,-92656.86,-28356.975,-37097.82,-44110.11,-21001.385,-56098.51,-16237.062
1216148.418941476,-131962.81,-92678.8,-28350.953,-37094.688,-44110.555,-20999.715,-56100.914,-16230.754
1216148.4229414717,-131914.77,-92640.875,-28332.887,-37086.996,-44097.94,-21003.662,-56100.832,-16238.7295
1216148.4269414674,-131875.17,-92601.89,-28327.19,-37087.89,-44093.793,-21006.959,-56096.234,-16237.956
1216148.4309414632,-131887.66,-92612.305,-28338.705,-37093.18,-44101.156,-21004.72,-56093.59,-16235.637
1216148.4349414587,-131945.56,-92647.75,-28344.158,-37093.63,-44100.63,-21001.018,-56099.61,-16239.625
1216148.4389414545,-131967.61,-92662.234,-28336.143,-37091.434,-44096.234,-21000.896,-56104.7,-16245.769
1216148.4429414503,-131939.73,-92637.21,-28328.492,-37089.316,-44091.84,-21003.377,-56102.95,-16250.814
1216148.446941446,-131894.98,-92605.266,-28330.81,-37092.0,-44089.4,-21005.209,-56102.215,-16259.318
1216148.4509414416,-131887.45,-92601.89,-28336.875,-37096.11,-44102.297,-21004.273,-56099.53,-16261.231
1216148.4549414373,-131938.72,-92646.33,-28344.443,-37098.88,-44105.918,-20999.023,-56100.223,-16253.053
1216148.458941433,-131980.67,-92681.4,-28343.14,-37097.656,-44107.953,-20995.646,-56099.53,-16247.396
1216148.4629414289,-131956.6,-92660.56,-28336.71,-37095.83,-44106.242,-20995.973,-56095.215,-16249.146
1216148.4669414244,-131905.03,-92621.83,-28335.734,-37097.74,-44101.727,-20999.838,-56093.1,-16252.931
1216148.4709414202,-131887.66,-92620.12,-28341.27,-37100.465,-44104.777,-20999.105,-56093.508,-16249.635
1216148.474941416,-131933.23,-92666.14,-28347.209,-37104.168,-44119.996,-20995.729,-56098.473,-16243.043
1216148.4789414117,-131965.34,-92689.66,-28345.42,-37104.25,-44123.293,-20995.24,-56103.8,-16240.805
1216148.4829414072,-131930.39,-92660.98,-28334.19,-37099.324,-44109.785,-20998.006,-56100.508,-16239.584
1216148.486941403,-131873.25,-92619.59,-28329.55,-37096.805,-44100.996,-21003.174,-56099.49,-16239.543
1216148.4909413988,-131863.98,-92616.78,-28335.857,-37100.016,-44106.61,-21004.518,-56100.465,-16236.654
1216148.4949413945,-131925.34,-92669.31,-28348.47,-37106.69,-44116.293,-20999.594,-56103.395,-16229.859
1216148.4989413903,-131957.08,-92693.04,-28345.338,-37105.836,-44115.723,-20999.756,-56109.01,-16228.395
1216148.5029413858,-131914.84,-92652.266,-28328.533,-37099.164,-44105.957,-21004.273,-56110.637,-16231.8125
1216148.5069413816,-131871.1,-92615.93,-28325.562,-37099.895,-44103.844,-21007.365,-56106.04,-16233.358
1216148.5109413774,-131884.73,-92625.164,-28337.281,-37107.504,-44113.28,-21004.965,-56101.523,-16226.359
1216148.5149413731,-131932.78,-92669.68,-28344.768,-37112.918,-44121.176,-21001.14,-56102.906,-16215.78
1216148.5189413687,-131956.75,-92690.555,-28339.885,-37110.555,-44122.152,-21002.076,-56107.344,-16214.885
1216148.5229413644,-131927.38,-92669.15,-28328.004,-37106.406,-44117.473,-21006.104,-56107.547,-16221.681
1216148.5269413602,-131876.83,-92636.27,-28323.04,-37106.324,-44115.926,-21009.4,-56105.594,-16227.499
1216148.530941356,-131867.11,-92637.414,-28330.445,-37109.99,-44114.18,-21011.15,-56109.254,-16233.195
1216148.5349413515,-131909.67,-92677.21,-28334.922,-37113.73,-44126.387,-21007.244,-56114.22,-16234.254
1216148.5389413473,-131946.78,-92708.26,-28333.375,-37114.383,-44132.938,-21005.656,-56116.62,-16237.265
1216148.542941343,-131921.95,-92689.3,-28323.121,-37111.777,-44122.97,-21008.545,-56117.8,-16247.519
1216148.5469413388,-131870.97,-92648.766,-28319.865,-37112.67,-44116.17,-21012.248,-56118.734,-16255.046
1216148.5509413343,-131877.89,-92651.414,-28331.016,-37118.367,-44121.46,-21010.377,-56117.15,-16253.093
1216148.55494133,-131948.73,-92707.16,-28342.041,-37126.793,-44132.164,-21003.906,-56116.742,-16245.28
1216148.5589413259,-131968.47,-92724.49,-28338.543,-37125.773,-44137.74,-21003.053,-56117.312,-16241.944
1216148.5629413216,-131913.86,-92686.65,-28321.615,-37119.387,-44131.43,-21008.709,-56117.434,-16247.03
1216148.5669413174,-131867.27,-92658.33,-28321.29,-37122.113,-44128.01,-21013.672,-56109.945,-16243.449
1216148.570941313,-131872.64,-92670.53,-28333.537,-37128.543,-44127.08,-21011.963,-56103.355,-16232.992
1216148.5749413087,-131922.58,-92704.92,-28342.326,-37133.18,-44132.04,-21010.213,-56108.684,-16226.237
1216148.5789413045,-131950.0,-92720.79,-28340.496,-37130.37,-44135.99,-21010.457,-56112.145,-16221.192
1216148.5829413002,-131917.77,-92696.58,-28327.719,-37127.117,-44131.105,-21014.242,-56106.934,-16215.17
1216148.5869412958,-131868.73,-92664.15,-28321.371,-37129.598,-44132.69,-21018.025,-56105.55,-16218.1
1216148.5909412915,-131863.48,-92658.164,-28330.322,-37135.297,-44139.445,-21016.398,-56102.133,-16201.01
1216148.5949412873,-131916.06,-92700.6,-28342.123,-37140.34,-44149.7,-21011.516,-56101.156,-16185.629
1216148.598941283,-131953.1,-92728.11,-28339.438,-37139.773,-44152.305,-21009.93,-56105.715,-16209.718
1216148.6029412786,-131919.19,-92692.71,-28324.219,-37135.254,-44139.082,-21014.568,-56108.277,-16219.442
1216148.6069412744,-131862.64,-92643.805,-28318.93,-37133.992,-44134.074,-21019.287,-56107.547,-16217.611
1216148.6109412701,-131860.64,-92641.195,-28327.19,-37137.574,-44139.73,-21016.805,-56102.95,-16207.927
1216148.614941266,-131916.47,-92682.74,-28337.77,-37142.215,-44147.34,-21010.58,-56104.535,-16201.864
1216148.6189412614,-131945.23,-92692.836,-28332.48,-37136.92,-44147.625,-21009.277,-56107.707,-16200.318
1216148.6229412572,-131913.12,-92660.69,-28321.25,-37130.168,-44139.895,-21012.045,-56108.605,-16205.323
1216148.626941253,-131867.89,-92626.1,-28319.418,-37129.234,-44137.74,-21013.63,-56105.145,-16206.869
1216148.6309412487,-131866.66,-92627.52,-28328.94,-37133.26,-44141.113,-21010.377,-56099.53,-16203.085
1216148.6349412445,-131919.11,-92664.06,-28338.543,-37137.332,-44147.95,-21004.965,-56102.746,-16198.365
1216148.63894124,-131954.27,-92686.08,-28337.402,-37136.395,-44148.438,-21002.156,-56106.49,-16201.295
1216148.6429412358,-131929.73,-92658.45,-28327.719,-37129.19,-44143.758,-21001.791,-56103.19,-16202.23
1216148.6469412316,-131879.97,-92610.72,-28326.783,-37126.1,-44141.4,-21005.006,-56097.617,-16203.37
1216148.6509412273,-131864.67,-92597.74,-28333.457,-37128.297,-44144.125,-21006.227,-56096.273,-16199.911
1216148.6549412229,-131909.14,-92635.99,-28340.943,-37132.285,-44154.707,-21002.156,-56098.594,-16192.872
1216148.6589412186,-131947.84,-92670.05,-28339.723,-37132.04,-44160.77,-21000.203,-56101.848,-16186.361
1216148.6629412144,-131926.8,-92654.38,-28332.764,-37130.414,-44157.96,-21002.889,-56098.39,-16185.954
1216148.6669412102,-131882.12,-92618.25,-28330.566,-37129.68,-44152.875,-21005.291,-56094.402,-16198.243
1216148.6709412057,-131880.17,-92611.375,-28337.525,-37132.69,-44150.637,-21005.33,-56094.2,-16195.924
1216148.6749412015,-131932.98,-92649.3,-28348.838,-37138.875,-44155.926,-21001.424,-56094.28,-16176.718
1216148.6789411972,-131970.27,-92674.97,-28346.191,-37138.1,-44161.258,-20998.82,-56094.117,-16170.533
1216148.682941193,-131937.75,-92645.1,-28331.219,-37132.12,-44154.297,-21003.785,-56098.88,-16186.402
1216148.6869411888,-131877.4,-92595.38,-28326.295,-37129.273,-44147.016,-21008.383,-56099.285,-16207.643
1216148.6909411843,-131871.3,-92594.93,-28337.525,-37135.38,-44150.516,-21006.104,-56095.38,-16203.736
1216148.69494118,-131932.95,-92650.72,-28353.027,-37143.23,-44164.062,-20999.309,-56095.582,-16188.3955
1216148.6989411758,-131967.4,-92675.21,-28350.791,-37141.277,-44163.453,-20998.129,-56104.168,-16195.191
1216148.7029411716,-131936.0,-92645.76,-28338.055,-37136.027,-44154.746,-21002.727,-56107.707,-16200.603
1216148.7069411671,-131890.14,-92610.76,-28334.066,-37137.41,-44142.5,-21006.023,-56100.996,-16194.011
1216148.710941163,-131891.33,-92617.03,-28345.297,-37143.473,-44153.242,-21004.598,-56096.64,-16185.466
1216148.7149411587,-131939.38,-92656.5,-28355.918,-37148.805,-44166.26,-21000.326,-56100.71,-16179.118
1216148.7189411544,-131969.69,-92675.21,-28350.709,-37144.816,-44166.3,-20998.17,-56104.902,-16175.7
1216148.72294115,-131942.34,-92648.07,-28339.111,-37140.586,-44158.367,-21000.203,-56102.99,-16179.729
1216148.7269411457,-131892.58,-92612.23,-28337.443,-37140.992,-44155.844,-21002.482,-56096.64,-16180.502
1216148.7309411415,-131884.4,-92607.305,-28344.768,-37144.125,-44158.855,-21002.564,-56092.53,-16175.497
1216148.7349411373,-131929.0,-92638.305,-28352.58,-37145.875,-44164.676,-21000.0,-56096.844,-16170.411
1216148.7389411328,-131969.2,-92667.69,-28352.092,-37145.266,-44165.57,-20998.088,-56100.953,-16168.864
1216148.7429411286,-131946.83,-92647.87,-28345.012,-37143.27,-44166.547,-21000.326,-56099.367,-16170.614
1216148.7469411243,-131891.56,-92604.86,-28337.24,-37143.11,-44163.086,-21003.418,-56095.746,-16170.085
1216148.75094112,-131876.39,-92593.95,-28341.309,-37147.586,-44164.88,-21002.686,-56093.508,-16162.272
1216148.7549411159,-131932.55,-92636.4,-28351.727,-37154.094,-44174.277,-20999.227,-56096.844,-16154.948
1216148.7589411114,-131979.94,-92665.86,-28352.58,-37154.01,-44171.227,-20997.355,-56099.12,-16151.49
1216148.7629411072,-131957.69,-92645.51,-28341.514,-37150.516,-44169.395,-21001.994,-56099.855,-16153.769
1216148.766941103,-131903.12,-92600.22,-28335.654,-37148.113,-44165.203,-21008.465,-56102.01,-16162.477
1216148.7709410987,-131902.67,-92594.04,-28342.041,-37151.98,-44173.26,-21005.615,-56099.082,-16163.534
1216148.7749410942,-131963.8,-92644.94,-28353.842,-37158.855,-44183.027,-21001.262,-56102.46,-16160.482
1216148.77894109,-132002.45,-92670.25,-28351.645,-37159.344,-44183.555,-21000.203,-56106.406,-16157.39
1216148.7829410858,-131970.02,-92631.96,-28339.438,-37152.47,-44174.36,-21003.906,-56105.594,-16160.197
1216148.7869410815,-131918.88,-92601.445,-28334.229,-37153.402,-44173.87,-21006.836,-56099.938,-16161.744
1216148.790941077,-131900.11,-92596.52,-28341.025,-37158.652,-44180.543,-21006.389,-56098.88,-16157.553
1216148.7949410728,-131950.81,-92630.49,-28346.803,-37162.438,-44189.74,-21002.768,-56100.953,-16142.294
1216148.7989410686,-132014.94,-92672.81,-28350.586,-37167.117,-44198.285,-21003.053,-56103.76,-16136.068
1216148.8029410644,-132003.27,-92665.57,-28343.75,-37165.406,-44191.043,-21007.65,-56105.797,-16155.07
1216148.80694106,-131946.25,-92616.945,-28335.37,-37161.99,-44188.07,-21012.94,-56107.63,-16163.575
1216148.8109410556,-131924.73,-92605.76,-28336.752,-37165.203,-44189.78,-21014.08,-56105.55,-16154.135
1216148.8149410514,-131973.84,-92652.39,-28343.994,-37171.875,-44200.32,-21010.133,-56107.63,-16150.27
1216148.8189410472,-132016.16,-92685.39,-28343.873,-37174.52,-44204.305,-21005.615,-56106.73,-16144.491
1216148.822941043,-131993.0,-92657.48,-28335.857,-37170.98,-44196.82,-21008.465,-56103.438,-16136.354
1216148.8269410385,-131942.95,-92616.375,-28331.951,-37170.125,-44187.34,-21013.875,-56099.12,-16135.702
1216148.8309410342,-131934.5,-92626.1,-28337.363,-37175.375,-44196.7,-21013.957,-56092.98,-16132.447
1216148.83494103,-131982.19,-92664.35,-28341.025,-37178.508,-44204.266,-21011.068,-56097.863,-16125.407
1216148.8389410258,-132017.22,-92694.79,-28338.746,-37178.793,-44204.875,-21010.906,-56103.19,-16121.989
1216148.8429410213,-131997.31,-92682.336,-28336.02,-37178.02,-44203.98,-21015.79,-56105.023,-16123.454
1216148.846941017,-131949.19,-92645.43,-28332.52,-37177.164,-44200.48,-21020.508,-56105.633,-16127.931
1216148.8509410128,-131933.77,-92633.38,-28337.078,-37179.04,-44203.25,-21019.37,-56108.074,-16131.227
1216148.8549410086,-131992.84,-92685.63,-28355.021,-37187.5,-44215.58,-21014.852,-56113.65,-16127.809
1216148.8589410041,-132034.6,-92719.2,-28357.139,-37190.188,-44221.07,-21015.625,-56124.434,-16136.516
1216148.862941,-132000.94,-92700.28,-28339.885,-37185.305,-44217.57,-21018.963,-56130.21,-16146.7295
1216148.8669409957,-131956.06,-92669.11,-28335.287,-37184.33,-44212.324,-21023.234,-56127.32,-16145.509
1216148.8709409914,-131946.02,-92657.92,-28343.018,-37185.465,-44212.89,-21022.502,-56120.566,-16123.251
1216148.8749409872,-131991.66,-92688.03,-28354.127,-37189.984,-44223.066,-21017.822,-56125.938,-16137.086
1216148.8789409827,-132037.44,-92730.35,-28357.504,-37192.914,-44226.24,-21013.795,-56131.227,-16162.721
1216148.8829409785,-132015.55,-92714.07,-28345.256,-37190.023,-44221.234,-21013.672,-56126.953,-16162.599
1216148.8869409743,-131955.0,-92668.5,-28335.37,-37187.5,-44216.188,-21017.213,-56121.664,-16154.542
1216148.89094097,-131939.3,-92661.7,-28338.95,-37191.49,-44216.39,-21015.463,-56117.395,-16138.713
1216148.8949409656,-132003.06,-92710.94,-28356.771,-37198.812,-44228.516,-21010.213,-56118.45,-16133.993
1216148.8989409613,-132047.08,-92736.9,-28354.168,-37196.168,-44227.785,-21007.732,-56122.926,-16137.736
1216148.902940957,-132016.03,-92704.06,-28341.96,-37188.56,-44215.535,-21009.48,-56121.016,-16135.702
1216148.9069409529,-131957.08,-92656.62,-28331.787,-37182.742,-44203.25,-21014.08,-56116.824,-16134.115
1216148.9109409484,-131944.58,-92654.7,-28336.955,-37186.402,-44208.008,-21013.348,-56110.434,-16119.345
1216148.9149409442,-132002.16,-92708.01,-28348.918,-37192.75,-44221.723,-21006.268,-56108.4,-16097.779
1216148.91894094,-132037.61,-92739.42,-28353.11,-37193.402,-44221.438,-21003.377,-56114.953,-16102.824
1216148.9229409357,-132015.14,-92705.77,-28345.988,-37187.99,-44209.027,-21006.47,-56117.84,-16114.34
1216148.9269409312,-131967.94,-92662.93,-28340.414,-37186.117,-44201.906,-21009.277,-56113.77,-16116.618
1216148.930940927,-131958.05,-92662.64,-28343.955,-37191.0,-44203.98,-21009.93,-56112.023,-16111.491
1216148.9349409228,-132007.4,-92704.836,-28356.406,-37195.8,-44214.766,-21006.592,-56118.816,-16104.859
1216148.9389409185,-132051.36,-92740.64,-28359.01,-37196.453,-44212.117,-21008.016,-56128.418,-16102.987
1216148.9429409143,-132041.92,-92730.96,-28352.906,-37192.465,-44207.316,-21011.842,-56132.324,-16109.01
1216148.9469409098,-131994.27,-92691.45,-28348.756,-37191.324,-44203.613,-21019.572,-56133.02,-16115.683
1216148.9509409056,-131963.75,-92676.68,-28348.023,-37192.832,-44206.83,-21023.723,-56134.605,-16117.433
1216148.9549409014,-132007.28,-92716.96,-28356.568,-37200.113,-44216.35,-21020.467,-56142.215,-16121.176
1216148.9589408971,-132056.44,-92755.414,-28362.387,-37204.02,-44220.625,-21016.684,-56147.22,-16125.855
1216148.9629408927,-132037.39,-92739.55,-28356.162,-37201.54,-44213.543,-21019.043,-56148.887,-16137.777
1216148.9669408884,-131980.72,-92689.45,-28351.807,-37200.766,-44208.05,-21026.652,-56147.992,-16143.678
1216148.9709408842,-131959.77,-92678.23,-28357.139,-37204.348,-44209.516,-21028.32,-56146.12,-16142.701
1216148.97494088,-132009.64,-92725.14,-28368.938,-37210.367,-44218.14,-21024.781,-56148.113,-16136.557
1216148.9789408755,-132061.77,-92764.77,-28372.234,-37212.04,-44222.453,-21023.031,-56152.184,-16136.598
1216148.9829408713,-132040.58,-92741.7,-28358.807,-37206.22,-44212.527,-21028.688,-56157.676,-16152.507
1216148.986940867,-131989.39,-92688.68,-28352.295,-37204.47,-44208.78,-21033.285,-56160.035,-16166.179
1216148.9909408628,-131981.17,-92688.766,-28361.451,-37211.184,-44218.06,-21034.018,-56156.984,-16162.11
1216148.9949408583,-132029.06,-92740.28,-28375.326,-37220.258,-44226.277,-21030.193,-56154.867,-16151.693
1216148.998940854,-132071.83,-92769.734,-28371.258,-37221.477,-44228.395,-21025.758,-56155.03,-16150.758
1216149.0029408499,-132052.38,-92750.086,-28359.945,-37219.523,-44222.902,-21027.629,-56150.35,-16146.281
1216149.0069408456,-132006.03,-92717.45,-28358.115,-37218.668,-44217.125,-21030.355,-56141.766,-16139.812
1216149.0109408414,-131988.36,-92710.94,-28365.805,-37220.906,-44213.867,-21029.95,-56136.152,-16128.785
1216149.014940837,-132029.9,-92735.68,-28377.238,-37226.117,-44223.918,-21027.71,-56138.47,-16119.874
1216149.0189408327,-132070.77,-92759.766,-28378.582,-37227.133,-44222.047,-21027.996,-56144.37,-16113.363
1216149.0229408285,-132060.42,-92748.336,-28366.74,-37222.617,-44218.547,-21031.576,-56144.86,-16110.597
1216149.0269408242,-132012.58,-92707.64,-28360.23,-37218.875,-44207.887,-21036.703,-56146.445,-16115.275
1216149.0309408198,-131997.16,-92693.484,-28366.252,-37220.418,-44209.8,-21040.447,-56151.41,-16116.903
1216149.0349408155,-132050.9,-92735.92,-28379.965,-37224.57,-44223.39,-21037.639,-56154.38,-16110.719
1216149.0389408113,-132099.17,-92772.664,-28383.424,-37227.215,-44226.484,-21033.773,-56157.473,-16107.667
1216149.042940807,-132075.08,-92747.48,-28371.705,-37224.285,-44218.305,-21036.865,-56160.688,-16112.062
1216149.0469408026,-132010.42,-92695.4,-28361.451,-37221.234,-44205.28,-21042.604,-56160.484,-16118.653
1216149.0509407984,-131983.4,-92683.15,-28364.096,-37223.39,-44211.062,-21045.29,-56159.547,-16119.63
1216149.0549407941,-132043.5,-92735.03,-28381.186,-37232.42,-44223.39,-21042.848,-56164.188,-16120.891
1216149.05894079,-132106.45,-92783.25,-28388.428,-37236.86,-44228.355,-21040.854,-56169.355,-16126.872
1216149.0629407854,-132082.16,-92748.7,-28375.082,-37232.016,-44215.008,-21045.37,-56168.254,-16137.574
1216149.0669407812,-132025.77,-92698.33,-28369.06,-37230.67,-44208.05,-21050.172,-56164.51,-16146.892
1216149.070940777,-132020.03,-92694.99,-28380.047,-37238.16,-44215.457,-21052.125,-56163.902,-16151.002
1216149.0749407727,-132071.1,-92734.3,-28390.057,-37246.664,-44227.418,-21051.393,-56168.945,-16151.449
1216149.0789407685,-132110.8,-92773.6,-28390.79,-37248.7,-44232.344,-21047.852,-56171.227,-16151.571
1216149.082940764,-132090.7,-92759.12,-28380.453,-37244.426,-44223.39,-21050.334,-56170.29,-16152.06
1216149.0869407598,-132050.1,-92725.75,-28379.883,-37245.117,-44213.543,-21058.39,-56169.355,-16161.703
1216149.0909407556,-132026.86,-92704.71,-28384.074,-37248.293,-44220.746,-21061.117,-56169.64,-16166.586
1216149.0949407513,-132066.61,-92733.93,-28396.078,-37250.773,-44224.734,-21058.229,-56173.22,-16155.763
1216149.0989407469,-132120.53,-92778.0,-28401.855,-37254.52,-44229.777,-21054.363,-56172.242,-16127.442
1216149.1029407426,-132107.3,-92769.21,-28392.783,-37252.28,-44227.824,-21056.926,-56175.215,-16146.119
1216149.1069407384,-132047.73,-92719.484,-28385.662,-37249.715,-44217.773,-21061.768,-56175.78,-16164.511
1216149.1109407342,-132020.11,-92705.77,-28385.783,-37251.953,-44220.906,-21060.832,-56172.69,-16162.721
1216149.1149407297,-132062.95,-92743.984,-28393.516,-37259.605,-44234.133,-21055.34,-56171.266,-16149.374
1216149.1189407255,-132108.28,-92784.875,-28396.852,-37262.535,-44240.074,-21051.678,-56172.65,-16135.702
1216149.1229407212,-132087.73,-92768.27,-28384.074,-37255.74,-44232.26,-21054.443,-56174.645,-16133.871
1216149.126940717,-132037.23,-92719.36,-28378.094,-37252.117,-44212.934,-21060.629,-56177.125,-16138.225
1216149.1309407128,-132020.06,-92702.4,-28380.738,-37254.76,-44222.168,-21057.414,-56175.824,-16135.743
1216149.1349407083,-132057.9,-92739.42,-28395.793,-37260.906,-44233.887,-21049.44,-56182.09,-16131.715
1216149.138940704,-132098.27,-92773.484,-28398.113,-37261.598,-44236.207,-21044.148,-56189.047,-16133.017
1216149.1429406998,-132090.12,-92763.555,-28389.69,-37256.105,-44233.48,-21043.621,-56189.25,-16136.394
1216149.1469406956,-132040.86,-92729.66,-28386.76,-37255.37,-44226.645,-21045.818,-56187.543,-16143.8
1216149.1509406911,-132010.9,-92715.82,-28390.83,-37260.215,-44228.23,-21046.795,-56187.91,-16150.798
1216149.154940687,-132050.9,-92754.48,-28400.717,-37264.0,-44236.94,-21042.36,-56195.395,-16152.914
1216149.1589406827,-132110.84,-92808.88,-28410.889,-37267.09,-44252.2,-21038.371,-56200.36,-16155.966
1216149.1629406784,-132098.92,-92786.54,-28401.328,-37262.777,-44247.887,-21041.912,-56200.36,-16161.215
1216149.166940674,-132050.25,-92734.22,-28396.404,-37261.477,-44229.617,-21046.59,-56197.473,-16168.58
1216149.1709406697,-132026.2,-92718.8,-28402.426,-37266.6,-44233.81,-21047.607,-56196.168,-16172.7705
1216149.1749406655,-132070.69,-92758.51,-28418.865,-37272.543,-44244.47,-21043.742,-56197.473,-16169.475
1216149.1789406613,-132121.55,-92799.89,-28424.928,-37274.457,-44250.33,-21038.697,-56195.598,-16162.924
1216149.1829406568,-132109.62,-92785.484,-28414.55,-37270.754,-44244.344,-21040.61,-56194.746,-16171.144
1216149.1869406526,-132063.16,-92744.8,-28413.209,-37270.348,-44243.004,-21046.428,-56194.336,-16180.868
1216149.1909406483,-132045.2,-92738.125,-28421.55,-37276.246,-44239.87,-21047.04,-56192.383,-16179.322
1216149.194940644,-132086.75,-92775.02,-28429.973,-37281.656,-44241.336,-21044.678,-56195.965,-16168.214
1216149.1989406398,-132123.55,-92802.29,-28428.752,-37281.7,-44253.543,-21043.865,-56201.254,-16164.918
1216149.2029406354,-132112.95,-92788.74,-28418.742,-37276.816,-44247.684,-21046.225,-56200.848,-16166.017
1216149.2069406311,-132067.34,-92752.77,-28412.232,-37275.39,-44240.074,-21050.701,-56196.25,-16163.534
1216149.210940627,-132040.61,-92730.72,-28417.033,-37278.688,-44240.766,-21052.084,-56193.89,-16161.622
1216149.2149406227,-132078.58,-92762.414,-28425.66,-37282.96,-44246.055,-21050.049,-56199.992,-16162.843
1216149.2189406182,-132129.97,-92804.77,-28428.223,-37284.223,-44252.32,-21048.951,-56207.97,-16166.057
1216149.222940614,-132121.06,-92795.21,-28419.354,-37279.703,-44246.707,-21052.613,-56210.086,-16167.929
1216149.2269406097,-132079.44,-92754.11,-28416.992,-37278.16,-44239.016,-21057.82,-56210.29,-16172.73
1216149.2309406055,-132061.94,-92739.79,-28424.033,-37281.168,-44234.58,-21059.53,-56212.77,-16177.328
1216149.234940601,-132103.16,-92778.0,-28435.547,-37288.535,-44251.465,-21053.834,-56212.402,-16170.614
1216149.2389405968,-132148.56,-92812.09,-28437.176,-37289.918,-44257.812,-21051.107,-56216.88,-16168.173
1216149.2429405926,-132134.28,-92794.44,-28425.66,-37283.49,-44253.703,-21053.63,-56221.477,-16178.63
1216149.2469405883,-132078.86,-92748.17,-28420.533,-37278.934,-44246.258,-21056.275,-56216.188,-16182.618
1216149.2509405839,-132061.89,-92740.12,-28430.87,-37284.508,-44247.113,-21056.355,-56212.934,-16182.862
1216149.2549405796,-132103.97,-92774.82,-28443.93,-37290.324,-44259.48,-21053.426,-56215.863,-16190.959
1216149.2589405754,-132143.52,-92804.41,-28443.482,-37289.43,-44259.32,-21051.025,-56216.188,-16190.309
1216149.2629405712,-132139.17,-92798.18,-28432.902,-37285.44,-44254.805,-21051.96,-56214.64,-16197.145
1216149.266940567,-132110.52,-92767.83,-28431.885,-37285.727,-44253.094,-21055.705,-56210.613,-16207.398
1216149.2709405625,-132089.69,-92746.14,-28437.053,-37287.68,-44264.49,-21056.031,-56206.992,-16207.643
1216149.2749405582,-132121.42,-92778.81,-28444.5,-37292.24,-44270.633,-21053.508,-56209.15,-16203.573
1216149.278940554,-132159.52,-92824.875,-28446.697,-37292.887,-44270.55,-21052.693,-56214.152,-16204.713
1216149.2829405498,-132151.58,-92819.3,-28439.78,-37290.082,-44269.98,-21056.926,-56218.344,-16212.565
1216149.2869405453,-132104.73,-92774.54,-28433.92,-37286.824,-44262.82,-21064.494,-56220.703,-16217.896
1216149.290940541,-132083.86,-92755.05,-28441.65,-37288.82,-44257.49,-21067.871,-56222.984,-16226.4
1216149.2949405368,-132123.45,-92792.97,-28449.504,-37293.457,-44270.266,-21063.6,-56223.594,-16221.437
1216149.2989405326,-132171.88,-92830.9,-28450.807,-37296.227,-44271.812,-21062.379,-56226.523,-16209.88
1216149.3029405281,-132164.19,-92816.25,-28438.559,-37290.977,-44270.793,-21065.918,-56229.047,-16213.949
1216149.306940524,-132116.62,-92766.97,-28434.611,-37289.188,-44260.215,-21070.312,-56226.074,-16221.07
1216149.3109405197,-132083.78,-92748.3,-28440.105,-37292.32,-44259.074,-21071.248,-56221.316,-16217.53
1216149.3149405154,-132124.72,-92787.03,-28453.736,-37299.52,-44272.504,-21067.139,-56219.77,-16199.545
1216149.318940511,-132179.2,-92829.76,-28458.904,-37303.348,-44280.76,-21065.43,-56225.75,-16208.619
1216149.3229405067,-132160.03,-92810.1,-28449.342,-37296.184,-44269.37,-21067.506,-56226.77,-16212.037
1216149.3269405025,-132107.7,-92762.21,-28444.703,-37291.75,-44257.203,-21072.469,-56224.816,-16213.176
1216149.3309404983,-132090.02,-92754.97,-28450.684,-37295.9,-44260.418,-21074.383,-56223.188,-16214.967
1216149.334940494,-132131.11,-92787.97,-28461.549,-37300.418,-44268.19,-21071.736,-56222.78,-16206.544
1216149.3389404896,-132179.05,-92823.41,-28464.396,-37301.312,-44270.1,-21067.994,-56224.0,-16203.532
1216149.3429404853,-132175.34,-92817.75,-28458.496,-37298.137,-44272.504,-21068.93,-56222.82,-16206.95
1216149.346940481,-132138.92,-92787.234,-28454.713,-37297.242,-44270.184,-21074.545,-56223.555,-16215.617
1216149.3509404769,-132103.52,-92762.62,-28456.38,-37298.992,-44269.168,-21078.37,-56228.477,-16225.953
1216149.3549404724,-132141.16,-92795.375,-28468.385,-37307.902,-44282.188,-21074.91,-56230.918,-16226.237
1216149.3589404682,-132211.75,-92845.95,-28476.727,-37313.477,-44300.58,-21069.662,-56229.656,-16221.314
1216149.362940464,-132210.78,-92835.164,-28468.791,-37310.875,-44296.67,-21070.312,-56230.797,-16224.813
1216149.3669404597,-132158.28,-92786.91,-28459.84,-37307.09,-44283.652,-21077.148,-56233.97,-16233.644
1216149.3709404552,-132129.36,-92763.19,-28461.955,-37308.23,-44277.59,-21081.178,-56235.312,-16239.299
1216149.374940451,-132168.25,-92795.984,-28470.988,-37313.64,-44293.906,-21078.37,-56238.445,-16239.34
1216149.3789404468,-132216.77,-92837.37,-28475.586,-37316.652,-44296.227,-21078.166,-56245.242,-16245.565
1216149.3829404425,-132204.67,-92828.01,-28467.652,-37312.055,-44284.75,-21081.178,-56247.805,-16248.78
1216149.3869404383,-132156.02,-92786.055,-28462.973,-37308.51,-44280.03,-21085.246,-56245.812,-16253.419
1216149.3909404338,-132129.52,-92769.414,-28470.623,-37311.973,-44279.46,-21089.111,-56247.887,-16255.575
1216149.3949404296,-132163.45,-92799.4,-28481.04,-37319.215,-44282.51,-21086.549,-56247.684,-16250.489
1216149.3989404254,-132215.22,-92837.98,-28483.115,-37322.145,-44295.207,-21083.375,-56248.863,-16243.287
1216149.4029404211,-132215.55,-92834.68,-28475.018,-37317.79,-44291.953,-21087.85,-56252.402,-16245.769
1216149.4069404167,-132165.08,-92796.63,-28468.832,-37316.203,-44289.348,-21093.465,-56250.246,-16252.198
1216149.4109404124,-132144.94,-92782.59,-28477.58,-37321.617,-44288.902,-21097.088,-56250.855,-16252.727
1216149.4149404082,-132184.5,-92814.01,-28488.445,-37327.92,-44303.875,-21093.303,-56253.95,-16256.267
1216149.418940404,-132238.73,-92854.86,-28494.426,-37332.766,-44304.324,-21090.332,-56258.3,-16248.536
1216149.4229403995,-132231.25,-92846.31,-28488.404,-37332.316,-44299.195,-21092.408,-56257.855,-16243.409
1216149.4269403953,-132173.7,-92799.73,-28476.93,-37328.74,-44288.74,-21097.127,-56259.36,-16265.016
1216149.430940391,-132153.16,-92786.42,-28484.986,-37334.066,-44290.04,-21096.15,-56254.234,-16257.284
1216149.4349403868,-132198.78,-92823.53,-28497.152,-37342.773,-44299.848,-21091.92,-56251.547,-16242.799
1216149.4389403823,-132239.3,-92857.22,-28498.455,-37342.773,-44304.12,-21091.473,-56257.45,-16249.879
1216149.442940378,-132226.36,-92848.59,-28487.875,-37337.85,-44304.08,-21094.727,-56256.348,-16247.6
1216149.4469403739,-132182.34,-92816.164,-28482.545,-37336.508,-44298.137,-21101.074,-56255.168,-16248.536
1216149.4509403696,-132148.94,-92791.875,-28484.05,-37338.83,-44297.445,-21102.336,-56255.332,-16250.285
1216149.4549403654,-132183.97,-92814.336,-28497.764,-37343.668,-44301.555,-21099.285,-56259.645,-16248.82
1216149.458940361,-132237.14,-92855.92,-28503.662,-37346.477,-44316.043,-21094.809,-56263.836,-16248.739
1216149.4629403567,-132241.5,-92856.98,-28497.031,-37344.727,-44310.305,-21097.412,-56268.312,-16254.477
1216149.4669403525,-132190.72,-92814.91,-28491.537,-37340.863,-44301.312,-21103.963,-56271.324,-16264.689
1216149.4709403482,-132154.83,-92791.875,-28494.629,-37342.082,-44301.637,-21106.73,-56271.65,-16269.776
1216149.4749403438,-132192.47,-92822.72,-28510.295,-37349.49,-44302.086,-21105.062,-56274.984,-16268.596
1216149.4789403395,-132244.55,-92863.445,-28515.057,-37352.867,-44302.53,-21102.783,-56280.195,-16269.003
1216149.4829403353,-132237.03,-92850.95,-28503.744,-37347.293,-44310.71,-21106.61,-56283.69,-16274.659
1216149.486940331,-132184.2,-92807.05,-28498.17,-37346.395,-44308.96,-21111.043,-56281.293,-16279.786
1216149.4909403266,-132152.06,-92788.13,-28499.879,-37348.594,-44303.062,-21114.422,-56279.46,-16274.049
1216149.4949403224,-132183.27,-92813.44,-28509.889,-37355.43,-44315.633,-21111.166,-56279.34,-16267.985
1216149.4989403181,-132239.02,-92852.42,-28516.928,-37358.93,-44318.484,-21109.783,-56285.645,-16277.629
1216149.502940314,-132241.78,-92854.984,-28513.754,-37358.727,-44317.426,-21113.322,-56290.57,-16288.046
1216149.5069403094,-132194.58,-92814.3,-28505.738,-37357.42,-44310.344,-21118.611,-56290.977,-16291.342
1216149.5109403052,-132155.81,-92787.36,-28508.22,-37359.254,-44301.27,-21120.564,-56291.426,-16295.817
1216149.514940301,-132186.05,-92818.85,-28515.707,-37365.6,-44317.06,-21119.955,-56293.945,-16290.162
1216149.5189402967,-132234.98,-92860.15,-28518.027,-37369.266,-44325.605,-21119.223,-56301.15,-16299.684
1216149.5229402925,-132236.0,-92857.016,-28509.97,-37367.15,-44321.25,-21121.867,-56304.973,-16312.826
1216149.526940288,-132189.83,-92818.24,-28508.342,-37365.074,-44319.297,-21123.982,-56297.69,-16306.764
1216149.5309402838,-132160.08,-92799.195,-28513.592,-37368.41,-44321.777,-21125.285,-56296.145,-16304.484
1216149.5349402796,-132190.6,-92824.83,-28522.91,-37373.902,-44329.59,-21122.762,-56296.227,-16295.736
1216149.5389402753,-132240.16,-92864.664,-28525.352,-37375.367,-44327.56,-21118.896,-56298.42,-16287.639
1216149.5429402709,-132241.78,-92867.19,-28520.387,-37374.39,-44332.44,-21117.352,-56296.55,-16287.68
1216149.5469402666,-132199.06,-92831.51,-28512.412,-37370.16,-44329.387,-21121.99,-56295.617,-16293.824
1216149.5509402624,-132163.86,-92806.52,-28513.55,-37370.73,-44325.24,-21126.059,-56295.535,-16297.445
1216149.5549402582,-132199.47,-92831.586,-28526.775,-37374.84,-44337.566,-21123.129,-56299.523,-16300.294
1216149.5589402537,-132248.25,-92862.51,-28530.64,-37375.285,-44337.324,-21117.596,-56299.523,-16297.975
1216149.5629402495,-132251.31,-92868.37,-28521.607,-37372.07,-44333.375,-21119.467,-56304.363,-16301.352
1216149.5669402452,-132206.7,-92840.25,-28519.166,-37373.293,-44332.766,-21125.041,-56304.895,-16308.024
1216149.570940241,-132179.08,-92823.53,-28523.723,-37378.582,-44329.227,-21128.865,-56307.457,-16316.61
1216149.5749402365,-132211.39,-92846.6,-28537.273,-37384.562,-44348.105,-21125.773,-56308.35,-16311.239
1216149.5789402323,-132265.3,-92882.33,-28547.527,-37389.16,-44350.668,-21123.7,-56314.78,-16309.9375
1216149.582940228,-132266.12,-92882.66,-28542.318,-37386.434,-44344.566,-21124.92,-56317.1,-16309.896
1216149.5869402238,-132205.78,-92833.83,-28529.705,-37381.145,-44335.816,-21130.33,-56317.02,-16313.355
1216149.5909402196,-132168.34,-92808.8,-28531.617,-37383.016,-44330.566,-21134.197,-56318.2,-16315.268
1216149.594940215,-132210.25,-92845.22,-28547.324,-37391.074,-44341.105,-21132.568,-56319.258,-16300.538
1216149.5989402109,-132264.66,-92885.625,-28554.607,-37396.812,-44357.547,-21130.453,-56321.086,-16294.841
1216149.6029402066,-132259.03,-92876.95,-28544.598,-37391.44,-44350.996,-21133.545,-56327.477,-16328.939
1216149.6069402024,-132202.16,-92837.57,-28538.168,-37387.332,-44336.996,-21139.771,-56330.445,-16342.448
1216149.610940198,-132162.92,-92815.8,-28538.047,-37390.34,-44339.07,-21144.043,-56331.668,-16347.372
1216149.6149401937,-132205.05,-92857.305,-28552.41,-37400.23,-44353.395,-21142.742,-56332.03,-16342.814
1216149.6189401895,-132269.94,-92909.305,-28561.32,-37405.56,-44364.22,-21136.354,-56331.75,-16332.765
1216149.6229401852,-132267.14,-92897.38,-28550.986,-37400.066,-44362.836,-21137.004,-56333.293,-16329.957
1216149.6269401808,-132218.62,-92854.945,-28545.818,-37395.145,-44346.883,-21143.596,-56333.78,-16336.833
1216149.6309401765,-132191.45,-92835.125,-28546.51,-37398.723,-44353.883,-21144.002,-56331.055,-16336.264
1216149.6349401723,-132231.94,-92861.05,-28557.578,-37404.867,-44362.387,-21141.398,-56329.836,-16329.672
1216149.638940168,-132276.0,-92897.42,-28559.082,-37407.31,-44369.266,-21138.836,-56332.156,-16323.527
1216149.6429401638,-132273.11,-92890.99,-28550.986,-37403.85,-44362.348,-21139.363,-56332.97,-16325.033
1216149.6469401594,-132235.48,-92863.734,-28551.31,-37403.484,-44359.66,-21140.828,-56328.492,-16325.929
1216149.6509401551,-132202.8,-92839.89,-28553.223,-37406.496,-44360.598,-21144.084,-56328.777,-16329.672
1216149.654940151,-132231.61,-92865.12,-28567.18,-37410.727,-44362.508,-21144.166,-56331.016,-16326.376
1216149.6589401467,-132287.97,-92906.984,-28574.057,-37412.68,-44367.473,-21142.213,-56337.61,-16325.847
1216149.6629401422,-132295.9,-92903.164,-28566.0,-37409.63,-44359.01,-21145.06,-56343.47,-16332.887
1216149.666940138,-132245.61,-92856.24,-28559.002,-37408.285,-44349.61,-21150.635,-56344.2,-16338.38
1216149.6709401337,-132207.11,-92824.18,-28556.846,-37408.69,-44357.625,-21155.152,-56343.996,-16341.391
1216149.6749401295,-132239.3,-92861.49,-28569.58,-37414.918,-44363.69,-21154.541,-56348.145,-16342.611
1216149.678940125,-132291.92,-92907.02,-28575.684,-37419.395,-44370.402,-21152.344,-56350.18,-16340.292
1216149.6829401208,-132295.83,-92908.05,-28571.656,-37418.418,-44364.258,-21154.256,-56352.418,-16341.757
1216149.6869401166,-132241.38,-92860.07,-28561.32,-37412.477,-44361.453,-21156.982,-56350.465,-16346.599
1216149.6909401123,-132204.34,-92829.15,-28559.814,-37416.26,-44360.92,-21159.22,-56346.68,-16346.925
1216149.6949401079,-132238.45,-92857.305,-28576.092,-37425.336,-44365.03,-21157.064,-56347.13,-16344.32
1216149.6989401036,-132286.58,-92902.06,-28577.271,-37429.242,-44381.145,-21153.035,-56349.12,-16338.542
1216149.7029400994,-132296.14,-92904.79,-28574.219,-37426.598,-44369.266,-21154.826,-56353.438,-16343.425
1216149.7069400952,-132240.94,-92859.54,-28568.238,-37423.91,-44358.97,-21159.465,-56354.414,-16352.702
1216149.710940091,-132198.48,-92831.75,-28568.076,-37425.05,-44363.73,-21162.762,-56351.973,-16354.005
1216149.7149400865,-132223.92,-92860.31,-28574.057,-37431.6,-44371.625,-21161.662,-56351.2,-16350.302
1216149.7189400822,-132270.72,-92897.305,-28575.115,-37434.977,-44379.56,-21160.523,-56357.098,-16355.47
1216149.722940078,-132274.95,-92901.29,-28567.668,-37432.008,-44376.1,-21162.598,-56356.895,-16361.247
1216149.7269400738,-132239.06,-92872.89,-28562.012,-37429.445,-44372.723,-21164.836,-56353.8,-16364.462
1216149.7309400693,-132209.77,-92842.29,-28565.756,-37433.637,-44374.676,-21164.592,-56348.84,-16363.16
1216149.734940065,-132241.62,-92863.734,-28578.41,-37442.832,-44384.44,-21160.645,-56345.785,-16351.808
1216149.7389400608,-132284.92,-92896.2,-28579.143,-37445.152,-44388.715,-21157.309,-56349.164,-16347.901
1216149.7429400566,-132283.28,-92895.76,-28570.068,-37442.383,-44388.797,-21157.39,-56352.703,-16345.297
1216149.7469400521,-132236.4,-92867.59,-28565.553,-37439.21,-44382.406,-21161.865,-56353.11,-16361.329
1216149.750940048,-132205.48,-92847.414,-28566.041,-37443.117,-44388.67,-21164.43,-56352.215,-16367.555
1216149.7549400437,-132238.08,-92872.68,-28581.707,-37451.863,-44394.207,-21164.062,-56356.04,-16365.602
1216149.7589400394,-132283.78,-92904.55,-28587.322,-37454.305,-44394.98,-21164.836,-56362.062,-16365.153
1216149.762940035,-132284.31,-92905.27,-28576.092,-37448.69,-44391.316,-21170.045,-56369.55,-16360.678
1216149.7669400307,-132240.77,-92869.47,-28565.105,-37445.477,-44386.72,-21176.31,-56368.9,-16358.033
1216149.7709400265,-132207.64,-92839.195,-28564.78,-37447.266,-44385.133,-21179.443,-56365.195,-16362.306
1216149.7749400223,-132241.05,-92870.65,-28581.787,-37454.062,-44394.29,-21175.984,-56367.27,-16370.402
1216149.778940018,-132295.58,-92914.02,-28589.234,-37457.926,-44398.805,-21174.275,-56373.617,-16367.88
1216149.7829400136,-132302.1,-92917.766,-28579.672,-37457.156,-44405.52,-21177.205,-56376.71,-16366.7
1216149.7869400093,-132262.53,-92881.88,-28575.115,-37454.47,-44393.883,-21181.682,-56374.676,-16377.279
1216149.790940005,-132230.19,-92853.195,-28578.29,-37458.742,-44398.4,-21183.025,-56371.258,-16384.156
1216149.7949400009,-132252.08,-92868.82,-28590.049,-37461.223,-44394.29,-21181.682,-56369.47,-16372.111
1216149.7989399964,-132294.16,-92896.85,-28593.303,-37464.684,-44405.684,-21178.346,-56371.867,-16368.571
1216149.8029399922,-132298.83,-92898.766,-28584.555,-37461.14,-44397.46,-21179.852,-56375.695,-16381.511
1216149.806939988,-132262.62,-92874.516,-28577.393,-37460.207,-44397.707,-21183.758,-56372.56,-16395.508
1216149.8109399837,-132226.73,-92848.06,-28578.613,-37464.03,-44400.105,-21187.215,-56373.535,-16399.09
1216149.8149399792,-132238.05,-92863.61,-28589.844,-37468.387,-44403.363,-21186.482,-56381.066,-16394.775
1216149.818939975,-132293.98,-92914.11,-28598.838,-37475.344,-44412.312,-21185.14,-56392.133,-16396.566
1216149.8229399708,-132302.33,-92918.664,-28593.1,-37472.902,-44415.49,-21187.256,-56397.79,-16398.682
1216149.8269399665,-132267.55,-92888.92,-28584.678,-37469.28,-44406.82,-21191.691,-56398.887,-16408.367
1216149.830939962,-132235.28,-92850.1,-28586.467,-37469.523,-44406.21,-21193.807,-56394.25,-16405.193
1216149.8349399578,-132251.02,-92872.97,-28595.826,-37473.633,-44415.285,-21192.342,-56398.195,-16403.076
1216149.8389399536,-132303.92,-92915.41,-28603.354,-37478.883,-44418.99,-21185.994,-56399.254,-16401.938
1216149.8429399494,-132315.72,-92915.125,-28599.244,-37476.523,-44427.492,-21183.064,-56393.066,-16394.898
1216149.8469399451,-132269.05,-92874.11,-28591.025,-37474.246,-44421.31,-21188.64,-56394.004,-16402.182
1216149.8509399407,-132226.56,-92845.55,-28592.814,-37477.254,-44416.953,-21192.912,-56393.19,-16410.482
1216149.8549399364,-132247.64,-92872.36,-28602.418,-37483.4,-44421.836,-21191.406,-56397.992,-16409.18
1216149.8589399322,-132302.4,-92918.664,-28611.533,-37488.61,-44436.727,-21185.426,-56395.1,-16394.166
1216149.862939928,-132312.9,-92919.03,-28600.342,-37485.598,-44431.805,-21185.873,-56392.906,-16369.426
1216149.8669399235,-132262.98,-92873.336,-28596.396,-37480.55,-44423.26,-21190.309,-56390.465,-16377.116
1216149.8709399193,-132223.8,-92848.06,-28597.738,-37482.668,-44421.55,-21193.686,-56394.41,-16414.104
1216149.874939915,-132232.88,-92857.99,-28602.988,-37486.125,-44432.21,-21192.83,-56395.836,-16415.486
1216149.8789399108,-132277.39,-92893.03,-28605.836,-37488.16,-44435.508,-21190.797,-56400.11,-16413.453
1216149.8829399063,-132301.19,-92912.234,-28602.459,-37489.055,-44432.457,-21191.244,-56397.746,-16392.049
1216149.886939902,-132275.16,-92888.59,-28603.924,-37489.055,-44426.11,-21196.371,-56394.816,-16396.566
1216149.8909398979,-132227.83,-92838.5,-28599.121,-37485.92,-44428.59,-21200.969,-56396.445,-16419.719
1216149.8949398936,-132239.6,-92845.336,-28608.684,-37488.12,-44431.926,-21199.016,-56398.848,-16416.992
1216149.8989398894,-132298.42,-92898.64,-28617.025,-37490.52,-44435.59,-21195.924,-56403.445,-16414.836
1216149.902939885,-132319.22,-92911.42,-28610.557,-37487.062,-44437.867,-21195.76,-56404.46,-16416.83
1216149.9069398807,-132280.69,-92872.03,-28603.395,-37483.36,-44434.207,-21200.44,-56406.09,-16423.178
1216149.9109398765,-132243.4,-92843.63,-28603.8,-37481.73,-44434.57,-21201.62,-56405.52,-16426.19
1216149.9149398722,-132265.8,-92857.305,-28614.137,-37485.758,-44436.605,-21198.365,-56402.793,-16419.068
1216149.9189398678,-132312.55,-92892.01,-28619.793,-37487.508,-44440.633,-21195.477,-56403.73,-16411.459
1216149.9229398635,-132320.03,-92890.42,-28616.13,-37482.504,-44436.605,-21196.533,-56406.7,-16411.012
1216149.9269398593,-132273.89,-92852.54,-28608.44,-37477.824,-44431.03,-21200.928,-56407.227,-16416.016
1216149.930939855,-132234.14,-92827.35,-28604.412,-37478.273,-44432.375,-21204.549,-56405.844,-16415.854
1216149.9349398506,-132266.12,-92853.36,-28616.74,-37484.215,-44431.97,-21201.336,-56407.84,-16415.04
1216149.9389398464,-132316.0,-92889.2,-28627.646,-37485.35,-44439.332,-21196.697,-56409.547,-16410.156
1216149.9429398421,-132322.27,-92892.21,-28623.902,-37483.074,-44437.34,-21199.586,-56416.992,-16418.986
1216149.946939838,-132287.08,-92864.46,-28621.95,-37481.57,-44432.496,-21204.387,-56418.785,-16431.723
1216149.9509398334,-132260.22,-92843.95,-28623.576,-37483.93,-44438.6,-21207.316,-56417.81,-16436.076
1216149.9549398292,-132282.06,-92853.48,-28636.598,-37486.043,-44442.63,-21204.957,-56415.12,-16431.152
1216149.958939825,-132327.92,-92884.61,-28638.998,-37487.02,-44444.38,-21203.41,-56419.23,-16429.158
1216149.9629398207,-132349.2,-92896.41,-28631.959,-37484.58,-44443.156,-21202.23,-56417.727,-16428.143
1216149.9669398165,-132319.83,-92871.75,-28625.164,-37480.715,-44438.844,-21206.707,-56417.117,-16430.664
1216149.970939812,-132277.8,-92836.19,-28618.979,-37479.656,-44447.676,-21212.078,-56416.504,-16433.105
1216149.9749398078,-132287.03,-92841.555,-28629.395,-37483.48,-44441.203,-21212.402,-56416.098,-16428.67
1216149.9789398036,-132337.77,-92877.77,-28630.656,-37485.434,-44448.812,-21208.13,-56414.188,-16420.613
1216149.9829397993,-132350.95,-92891.03,-28626.385,-37483.195,-44449.707,-21207.195,-56413.94,-16421.062
1216149.9869397948,-132314.73,-92862.51,-28622.844,-37482.79,-44441.0,-21208.455,-56410.484,-16425.537
1216149.9909397906,-132274.14,-92830.81,-28623.7,-37485.027,-44440.758,-21211.223,-56408.855,-16429.12
1216149.9949397864,-132291.52,-92845.91,-28631.553,-37491.05,-44450.523,-21209.352,-56410.484,-16429.24
1216149.9989397821,-132345.06,-92880.29,-28635.986,-37493.41,-44456.055,-21205.81,-56414.145,-16427.205
1216150.0029397777,-132356.86,-92884.4,-28631.43,-37487.55,-44448.73,-21208.049,-56421.266,-16434.652
1216150.0069397734,-132320.11,-92851.61,-28625.041,-37482.465,-44442.098,-21213.908,-56422.527,-16438.64
1216150.0109397692,-132283.58,-92828.414,-28625.123,-37485.15,-44444.906,-21216.879,-56420.37,-16448.69
1216150.014939765,-132305.14,-92848.266,-28635.621,-37491.05,-44449.465,-21216.309,-56424.805,-16448.854
1216150.0189397605,-132353.08,-92884.36,-28642.05,-37493.246,-44456.87,-21214.926,-56429.363,-16445.312
1216150.0229397563,-132369.31,-92896.61,-28636.312,-37492.066,-44454.754,-21216.92,-56434.53,-16446.004
1216150.026939752,-132330.58,-92858.97,-28629.72,-37491.336,-44449.586,-21222.006,-56434.207,-16449.666
1216150.0309397478,-132294.19,-92829.76,-28629.355,-37493.33,-44450.4,-21224.812,-56432.863,-16455.73
1216150.0349397436,-132319.02,-92856.61,-28642.62,-37499.27,-44455.977,-21222.25,-56433.434,-16459.31
1216150.038939739,-132368.3,-92894.49,-28648.805,-37502.402,-44461.914,-21218.385,-56434.492,-16452.678
1216150.0429397349,-132363.73,-92884.766,-28638.592,-37497.926,-44457.93,-21217.652,-56432.496,-16446.697
1216150.0469397306,-132320.64,-92851.56,-28629.111,-37492.434,-44446.574,-21220.012,-56428.754,-16447.43
1216150.0509397264,-132293.3,-92832.805,-28631.674,-37496.543,-44453.168,-21220.174,-56418.742,-16436.117
1216150.054939722,-132323.25,-92855.516,-28647.746,-37505.13,-44459.027,-21218.914,-56419.027,-16435.791
1216150.0589397177,-132367.31,-92887.66,-28652.629,-37505.984,-44458.7,-21217.732,-56425.99,-16454.346
1216150.0629397135,-132380.22,-92896.81,-28646.16,-37505.29,-44458.863,-21219.035,-56428.71,-16453.613
1216150.0669397092,-132351.44,-92868.82,-28645.02,-37504.56,-44457.645,-21223.592,-56425.78,-16446.656
1216150.0709397048,-132305.67,-92835.164,-28644.207,-37503.95,-44455.934,-21228.395,-56423.83,-16448.895
1216150.0749397005,-132314.98,-92844.65,-28646.404,-37505.86,-44463.094,-21228.963,-56427.41,-16448.486
1216150.0789396963,-132363.2,-92882.2,-28647.746,-37505.168,-44464.97,-21226.562,-56433.594,-16446.533
1216150.082939692,-132385.5,-92900.02,-28640.26,-37502.93,-44470.055,-21224.854,-56432.78,-16438.885
1216150.0869396878,-132351.23,-92866.01,-28636.719,-37501.26,-44460.37,-21229.004,-56430.95,-16439.697
1216150.0909396834,-132306.89,-92820.44,-28636.436,-37502.32,-44453.74,-21234.213,-56431.316,-16454.51
1216150.0949396791,-132318.28,-92837.89,-28648.113,-37512.047,-44466.797,-21229.695,-56428.47,-16454.225
1216150.098939675,-132367.84,-92879.195,-28652.344,-37515.83,-44474.53,-21221.762,-56428.305,-16446.86
1216150.1029396707,-132379.31,-92888.1,-28641.643,-37513.918,-44477.336,-21221.07,-56431.6,-16450.277
1216150.1069396662,-132340.58,-92852.99,-28635.01,-37510.38,-44467.45,-21227.092,-56436.32,-16460.896
1216150.110939662,-132303.23,-92822.555,-28634.686,-37510.336,-44467.938,-21230.672,-56435.02,-16461.549
1216150.1149396577,-132326.62,-92841.31,-28648.682,-37517.008,-44476.035,-21228.598,-56436.605,-16460.734
1216150.1189396535,-132374.16,-92873.78,-28649.252,-37519.492,-44478.027,-21226.482,-56444.664,-16464.64
1216150.122939649,-132383.75,-92878.18,-28644.736,-37517.742,-44467.285,-21226.277,-56447.39,-16461.508
1216150.1269396448,-132346.77,-92852.016,-28637.248,-37514.895,-44458.66,-21228.475,-56444.582,-16462.484
1216150.1309396406,-132309.33,-92827.76,-28638.428,-37518.312,-44465.78,-21229.736,-56440.88,-16462.77
1216150.1349396363,-132320.81,-92836.1,-28647.422,-37523.887,-44479.492,-21227.783,-56440.31,-16452.271
1216150.1389396319,-132376.14,-92877.98,-28653.809,-37526.652,-44484.703,-21224.324,-56443.77,-16444.58
1216150.1429396276,-132387.94,-92892.13,-28649.13,-37526.082,-44484.5,-21222.86,-56444.785,-16457.072
1216150.1469396234,-132350.42,-92860.68,-28644.736,-37523.844,-44482.06,-21225.627,-56440.51,-16463.258
1216150.1509396192,-132312.9,-92831.055,-28642.822,-37525.39,-44480.39,-21228.557,-56437.01,-16467.977
1216150.154939615,-132330.69,-92843.1,-28652.914,-37532.715,-44489.586,-21225.83,-56433.473,-16454.428
1216150.1589396105,-132389.4,-92889.125,-28660.727,-37536.5,-44500.53,-21219.97,-56431.766,-16452.068
1216150.1629396062,-132404.75,-92897.51,-28652.914,-37532.31,-44497.355,-21218.75,-56430.79,-16453.207
1216150.166939602,-132359.05,-92859.54,-28640.219,-37526.082,-44486.207,-21224.854,-56435.832,-16466.309
1216150.1709395978,-132327.44,-92840.984,-28642.822,-37528.523,-44489.098,-21227.824,-56435.387,-16468.385
1216150.1749395933,-132352.5,-92864.18,-28658.123,-37535.523,-44500.043,-21224.895,-56432.457,-16454.51
1216150.178939589,-132398.84,-92894.45,-28663.291,-37537.027,-44501.63,-21221.191,-56432.984,-16446.248
1216150.1829395848,-132414.97,-92893.4,-28659.832,-37534.426,-44496.95,-21222.82,-56438.03,-16446.736
1216150.1869395806,-132380.25,-92859.13,-28653.605,-37529.83,-44484.336,-21228.719,-56440.27,-16454.387
1216150.1909395761,-132345.83,-92837.37,-28653.809,-37532.797,-44486.453,-21231.404,-56439.375,-16457.887
1216150.194939572,-132355.31,-92848.31,-28656.7,-37535.973,-44490.6,-21230.145,-56439.617,-16456.584
1216150.1989395677,-132391.23,-92875.33,-28656.78,-37536.176,-44498.58,-21226.197,-56443.32,-16455.77
1216150.2029395634,-132400.6,-92884.04,-28654.623,-37532.594,-44495.402,-21227.865,-56446.74,-16454.59
1216150.206939559,-132367.11,-92857.016,-28647.543,-37527.63,-44485.637,-21232.545,-56451.05,-16464.803
1216150.2109395547,-132327.16,-92832.805,-28648.113,-37530.273,-44487.266,-21235.066,-56451.54,-16471.314
1216150.2149395505,-132343.22,-92848.59,-28657.268,-37537.516,-44500.734,-21233.602,-56454.797,-16470.094
1216150.2189395463,-132396.53,-92889.33,-28666.3,-37542.605,-44502.77,-21230.998,-56463.098,-16470.906
1216150.222939542,-132413.5,-92901.37,-28661.744,-37540.57,-44507.082,-21231.365,-56467.652,-16474.285
1216150.2269395376,-132369.92,-92865.805,-28652.508,-37536.297,-44499.066,-21235.352,-56467.043,-16483.113
1216150.2309395333,-132328.25,-92825.65,-28651.693,-37535.035,-44491.133,-21237.672,-56463.176,-16488.893
1216150.234939529,-132344.48,-92835.45,-28661.133,-37542.156,-44498.74,-21235.516,-56461.957,-16490.438
1216150.2389395249,-132402.39,-92875.94,-28672.568,-37547.08,-44505.86,-21230.307,-56461.55,-16487.305
1216150.2429395204,-132429.56,-92897.26,-28668.254,-37546.55,-44514.65,-21226.562,-56461.266,-16484.62
1216150.2469395162,-132395.8,-92871.75,-28661.865,-37543.99,-44511.23,-21229.615,-56459.598,-16492.92
1216150.250939512,-132352.38,-92842.49,-28663.25,-37543.99,-44500.41,-21233.033,-56455.242,-16495.281
1216150.2549395077,-132364.27,-92853.88,-28669.922,-37549.074,-44502.605,-21231.648,-56453.332,-16487.59
1216150.2589395032,-132405.44,-92888.35,-28672.934,-37551.92,-44508.953,-21226.97,-56452.273,-16472.941
1216150.262939499,-132425.78,-92904.3,-28670.898,-37551.188,-44508.098,-21227.662,-56457.93,-16470.297
1216150.2669394948,-132397.14,-92873.01,-28671.428,-37549.234,-44497.152,-21231.648,-56459.598,-16479.86
1216150.2709394905,-132353.56,-92836.76,-28668.213,-37548.055,-44493.855,-21234.62,-56453.453,-16482.098
1216150.274939486,-132363.16,-92846.48,-28672.404,-37551.434,-44500.246,-21233.154,-56451.867,-16479.695
1216150.2789394818,-132414.92,-92890.83,-28677.654,-37556.766,-44512.004,-21230.836,-56453.94,-16472.332
1216150.2829394776,-132443.16,-92914.72,-28670.41,-37556.64,-44512.168,-21230.021,-56452.8,-16466.188
1216150.2869394734,-132410.69,-92881.516,-28663.371,-37553.266,-44501.875,-21234.498,-56451.297,-16465.332
1216150.2909394691,-132362.39,-92843.836,-28659.385,-37552.37,-44499.84,-21237.428,-56451.297,-16470.988
1216150.2949394647,-132373.75,-92860.4,-28668.05,-37558.594,-44505.902,-21237.63,-56453.656,-16471.395
1216150.2989394604,-132429.97,-92904.016,-28679.852,-37564.984,-44510.582,-21234.945,-56458.824,-16466.676
1216150.3029394562,-132447.8,-92911.95,-28673.463,-37561.32,-44512.453,-21236.654,-56468.184,-16468.873
1216150.306939452,-132407.27,-92878.09,-28663.697,-37555.42,-44505.086,-21244.344,-56474.61,-16480.55
1216150.3109394475,-132364.14,-92841.19,-28659.14,-37555.582,-44497.152,-21248.738,-56472.008,-16483.236
1216150.3149394433,-132377.97,-92855.23,-28672.283,-37562.703,-44507.69,-21247.314,-56472.25,-16477.215
1216150.318939439,-132421.52,-92889.53,-28678.102,-37565.348,-44517.5,-21243.123,-56479.82,-16479.695
1216150.3229394348,-132435.52,-92893.72,-28672.04,-37562.418,-44514.445,-21240.52,-56482.87,-16478.475
1216150.3269394303,-132413.86,-92881.92,-28668.783,-37563.926,-44510.094,-21243.938,-56483.277,-16492.879
1216150.330939426,-132385.34,-92868.33,-28672.648,-37567.3,-44508.87,-21245.484,-56480.51,-16504.15
1216150.3349394219,-132396.45,-92874.8,-28682.943,-37571.453,-44515.465,-21244.914,-56480.676,-16510.377
1216150.3389394176,-132433.92,-92889.9,-28690.146,-37571.902,-44517.78,-21243.855,-56485.312,-16516.602
1216150.3429394134,-132454.31,-92903.81,-28682.943,-37569.336,-44516.277,-21245.77,-56490.562,-16521.404
1216150.346939409,-132430.02,-92885.87,-28679.037,-37566.324,-44510.418,-21250.57,-56488.04,-16522.299
1216150.3509394047,-132386.64,-92847.82,-28674.928,-37565.918,-44506.96,-21254.965,-56487.793,-16536.947
1216150.3549394005,-132393.69,-92854.05,-28680.99,-37572.145,-44511.152,-21255.127,-56489.543,-16532.512
1216150.3589393962,-132449.22,-92898.84,-28689.535,-37576.254,-44520.508,-21249.879,-56490.645,-16520.467
1216150.3629393918,-132479.17,-92924.4,-28687.379,-37574.79,-44522.3,-21248.738,-56490.156,-16512.898
1216150.3669393875,-132440.03,-92891.4,-28679.893,-37571.656,-44513.31,-21251.953,-56488.73,-16512.818
1216150.3709393833,-132387.12,-92847.945,-28678.184,-37570.438,-44503.62,-21254.965,-56483.848,-16512.207
1216150.374939379,-132389.78,-92852.74,-28686.89,-37574.953,-44508.79,-21253.338,-56480.754,-16509.969
1216150.3789393746,-132445.77,-92892.17,-28698.61,-37579.67,-44514.285,-21249.756,-56483.523,-16501.912
1216150.3829393703,-132472.1,-92908.164,-28693.604,-37577.76,-44514.04,-21249.838,-56487.754,-16497.273
1216150.386939366,-132439.66,-92880.05,-28682.617,-37573.406,-44506.31,-21253.541,-56487.184,-16496.176
1216150.3909393619,-132400.64,-92848.555,-28682.984,-37573.367,-44501.996,-21256.186,-56483.766,-16496.826
1216150.3949393574,-132407.72,-92855.19,-28689.129,-37578.574,-44507.324,-21254.842,-56483.48,-16493.775
1216150.3989393532,-132458.34,-92892.09,-28694.703,-37581.22,-44515.34,-21252.93,-56488.445,-16490.926
1216150.402939349,-132485.23,-92910.56,-28688.682,-37581.42,-44515.992,-21254.354,-56493.41,-16494.06
1216150.4069393447,-132456.95,-92895.47,-28683.229,-37581.543,-44514.527,-21259.441,-56494.184,-16499.146
1216150.4109393405,-132421.92,-92870.81,-28684.855,-37583.09,-44514.082,-21262.818,-56492.758,-16503.297
1216150.414939336,-132427.94,-92875.61,-28691.123,-37586.957,-44517.215,-21260.58,-56494.996,-16499.797
1216150.4189393318,-132469.16,-92910.484,-28696.941,-37591.39,-44523.6,-21258.22,-56504.19,-16515.137
1216150.4229393275,-132495.77,-92935.43,-28695.842,-37592.082,-44525.516,-21258.709,-56509.2,-16522.95
1216150.4269393233,-132470.3,-92915.57,-28689.697,-37588.992,-44515.586,-21260.213,-56506.39,-16538.127
1216150.4309393188,-132421.47,-92871.55,-28685.264,-37586.344,-44508.14,-21265.137,-56506.31,-16549.316
1216150.4349393146,-132427.45,-92865.16,-28694.053,-37591.188,-44510.133,-21265.26,-56506.51,-16545.98
1216150.4389393104,-132486.05,-92912.4,-28703.574,-37597.293,-44518.066,-21260.54,-56506.227,-16542.236
1216150.4429393061,-132518.39,-92939.5,-28703.33,-37596.926,-44520.1,-21258.3,-56508.14,-16545.29
1216150.4469393017,-132482.39,-92906.336,-28696.168,-37591.39,-44512.207,-21264.12,-56509.973,-16550.09
1216150.4509392974,-132430.88,-92869.34,-28690.268,-37589.97,-44507.773,-21268.963,-56507.57,-16547.201
1216150.4549392932,-132443.12,-92886.31,-28702.434,-37594.93,-44513.633,-21265.545,-56501.63,-16526.611
1216150.458939289,-132491.75,-92923.67,-28711.914,-37598.023,-44518.11,-21264.73,-56507.855,-16534.262
1216150.4629392845,-132503.67,-92922.734,-28705.078,-37593.06,-44510.176,-21269.084,-56517.824,-16542.521
1216150.4669392803,-132464.48,-92892.13,-28692.709,-37587.32,-44497.723,-21273.152,-56514.527,-16535.768
1216150.470939276,-132426.19,-92866.78,-28690.959,-37587.32,-44491.254,-21271.932,-56503.746,-16525.432
1216150.4749392718,-132427.73,-92866.87,-28696.738,-37588.746,-44492.473,-21267.09,-56500.125,-16514.324
1216150.4789392676,-132476.81,-92899.05,-28702.637,-37590.17,-44494.1,-21260.824,-56500.33,-16501.344
1216150.482939263,-132515.19,-92926.6,-28702.354,-37589.273,-44492.555,-21259.441,-56502.16,-16487.59
1216150.4869392589,-132484.5,-92897.18,-28693.32,-37583.824,-44483.156,-21263.307,-56506.023,-16513.184
1216150.4909392546,-132441.25,-92856.61,-28692.465,-37582.156,-44473.88,-21267.578,-56506.145,-16528.402
1216150.4949392504,-132457.23,-92865.766,-28703.086,-37586.63,-44474.49,-21267.254,-56506.51,-16521.281
1216150.498939246,-132504.81,-92903.28,-28707.44,-37589.355,-44479.086,-21265.91,-56510.664,-16522.46
1216150.5029392417,-132525.64,-92918.99,-28700.236,-37584.96,-44475.996,-21266.928,-56515.465,-16523.805
1216150.5069392375,-132497.48,-92894.86,-28693.523,-37579.715,-44467.207,-21269.49,-56514.855,-16529.053
1216150.5109392332,-132461.55,-92859.17,-28696.533,-37580.61,-44465.17,-21272.95,-56512.29,-16532.635
1216150.5149392288,-132466.23,-92852.87,-28705.445,-37583.66,-44466.434,-21274.17,-56514.16,-16530.438
1216150.5189392245,-132512.05,-92885.74,-28711.996,-37586.223,-44467.734,-21269.94,-56516.277,-16529.582
1216150.5229392203,-132542.33,-92906.17,-28708.74,-37584.72,-44466.594,-21266.44,-56516.93,-16531.25
1216150.526939216,-132514.78,-92880.7,-28699.992,-37580.324,-44459.676,-21269.287,-56519.613,-16545.94
1216150.5309392116,-132475.83,-92849.37,-28700.766,-37582.03,-44456.707,-21274.74,-56520.55,-16557.984
1216150.5349392074,-132477.95,-92853.64,-28710.613,-37587.08,-44462.445,-21275.31,-56522.42,-16560.547
1216150.5389392031,-132530.11,-92892.83,-28721.559,-37590.66,-44467.652,-21271.932,-56526.777,-16558.105
1216150.542939199,-132556.64,-92908.45,-28719.238,-37589.97,-44465.863,-21271.24,-56528.89,-16559.49
1216150.5469391947,-132518.31,-92884.81,-28707.52,-37586.63,-44456.586,-21275.105,-56528.363,-16560.832
1216150.5509391902,-132478.69,-92857.47,-28708.09,-37588.176,-44455.812,-21280.07,-56525.35,-16556.152
1216150.554939186,-132484.78,-92867.92,-28717.49,-37593.06,-44460.734,-21278.973,-56522.586,-16559.814
1216150.5589391817,-132528.89,-92902.305,-28726.36,-37597.086,-44468.223,-21277.02,-56527.223,-16560.223
1216150.5629391775,-132555.42,-92915.61,-28721.355,-37592.816,-44466.96,-21277.832,-56531.414,-16559.326
1216150.566939173,-132526.7,-92894.25,-28710.734,-37588.785,-44462.973,-21281.494,-56530.234,-16560.832
1216150.5709391688,-132485.19,-92865.08,-28709.434,-37587.527,-44464.766,-21284.059,-56525.88,-16553.143
1216150.5749391646,-132479.02,-92866.91,-28715.576,-37590.617,-44472.13,-21282.594,-56525.637,-16547.12
1216150.5789391603,-132519.73,-92899.74,-28723.918,-37594.44,-44477.99,-21281.291,-56529.785,-16548.504
1216150.5829391559,-132551.97,-92916.14,-28721.762,-37594.156,-44477.38,-21282.268,-56528.934,-16535.645
1216150.5869391516,-132530.36,-92897.75,-28712.566,-37592.367,-44471.965,-21284.832,-56525.758,-16540.203
1216150.5909391474,-132491.55,-92865.89,-28710.775,-37590.09,-44466.92,-21287.598,-56522.79,-16558.064
1216150.5949391432,-132488.69,-92864.46,-28719.605,-37591.51,-44472.25,-21287.15,-56521.61,-16556.64
1216150.598939139,-132539.34,-92900.39,-28730.186,-37593.305,-44478.395,-21283.691,-56523.52,-16543.986
1216150.6029391345,-132575.53,-92925.78,-28729.9,-37594.035,-44483.24,-21280.803,-56525.312,-16537.312
1216150.6069391302,-132555.02,-92909.1,-28721.844,-37591.797,-44480.797,-21281.453,-56525.11,-16544.88
1216150.610939126,-132508.62,-92876.38,-28718.182,-37585.938,-44475.996,-21285.768,-56524.133,-16557.576
1216150.6149391218,-132506.06,-92874.19,-28725.18,-37589.273,-44481.445,-21285.156,-56524.7,-16560.303
1216150.6189391173,-132552.12,-92905.93,-28734.62,-37593.875,-44489.22,-21281.697,-56528.484,-16562.744
1216150.622939113,-132582.36,-92936.08,-28733.195,-37592.816,-44494.387,-21282.512,-56533.49,-16568.197
1216150.6269391088,-132554.97,-92914.76,-28723.389,-37587.65,-44489.707,-21284.668,-56533.367,-16570.068
1216150.6309391046,-132508.95,-92881.06,-28719.238,-37586.754,-44487.875,-21286.418,-56530.195,-16575.115
1216150.6349391001,-132507.4,-92882.0,-28730.104,-37590.375,-44487.836,-21284.791,-56526.41,-16568.889
1216150.638939096,-132561.61,-92921.1,-28744.914,-37594.973,-44494.63,-21281.088,-56529.176,-16570.72
1216150.6429390917,-132596.11,-92942.47,-28746.299,-37591.637,-44497.926,-21278.973,-56531.945,-16571.615
1216150.6469390874,-132565.8,-92911.13,-28734.904,-37584.39,-44491.457,-21282.512,-56534.465,-16579.266
1216150.650939083,-132514.78,-92876.06,-28726.36,-37584.39,-44485.72,-21287.15,-56535.77,-16584.107
