timestamp,Fp1,Fp2,F3,Fz,F4,Cz,Pz,Oz
1216883.8381530412,-167982.31,-147946.1,-64062.094,-71398.48,-56451.906,-26648.846,-64076.215,-5588.3384
1216883.8421530367,-167983.81,-147942.55,-64068.28,-71403.93,-56513.957,-26647.014,-64075.277,-5584.88
1216883.8461530325,-167993.61,-147955.0,-64069.746,-71405.93,-56503.582,-26644.775,-64077.844,-5582.5195
1216883.8501530283,-167998.34,-147960.17,-64066.938,-71402.47,-56494.223,-26646.322,-64077.477,-5585.0425
1216883.854153024,-167993.38,-147961.34,-64061.117,-71399.7,-56482.992,-26648.926,-64076.176,-5584.554
1216883.8581530196,-167987.52,-147956.19,-64066.246,-71398.234,-56480.105,-26649.62,-64075.48,-5585.449
1216883.8621530153,-167988.33,-147956.6,-64072.43,-71403.57,-56481.406,-26647.096,-64074.832,-5578.6543
1216883.866153011,-167996.3,-147959.84,-64076.703,-71407.11,-56486.37,-26642.295,-64070.805,-5566.5283
1216883.8701530069,-167998.66,-147953.86,-64071.74,-71402.14,-56483.4,-26642.904,-64072.145,-5570.0684
1216883.8741530024,-167992.39,-147953.38,-64073.527,-71399.414,-56480.062,-26646.281,-64074.914,-5579.59
1216883.8781529982,-167984.7,-147956.9,-64071.94,-71402.63,-56480.51,-26648.643,-64076.418,-5586.1006
1216883.882152994,-167989.1,-147960.25,-64078.37,-71404.5,-56491.54,-26646.363,-64075.97,-5576.3755
1216883.8861529897,-167999.39,-147968.88,-64080.57,-71405.73,-56488.65,-26643.637,-64077.027,-5570.3535
1216883.8901529852,-168004.0,-147969.53,-64076.176,-71407.31,-56488.406,-26645.428,-64079.023,-5582.4385
1216883.894152981,-168005.7,-147969.77,-64076.38,-71407.02,-56493.613,-26650.066,-64081.87,-5588.501
1216883.8981529768,-168001.06,-147967.3,-64080.977,-71405.07,-56494.223,-26653.729,-64084.92,-5589.803
1216883.9021529725,-168005.25,-147968.6,-64087.895,-71409.305,-56497.07,-26651.938,-64089.4,-5601.115
1216883.9061529683,-168014.81,-147971.44,-64090.742,-71411.74,-56502.973,-26648.846,-64092.367,-5604.696
1216883.9101529638,-168009.73,-147969.12,-64081.83,-71406.21,-56499.23,-26647.666,-64086.996,-5593.7095
1216883.9141529596,-167998.34,-147960.73,-64074.504,-71403.12,-56491.17,-26649.17,-64083.293,-5590.454
1216883.9181529554,-167987.44,-147956.02,-64073.773,-71403.65,-56483.887,-26649.62,-64080.242,-5583.9844
1216883.9221529511,-167999.52,-147970.02,-64085.453,-71412.516,-56474.285,-26647.543,-64082.727,-5577.759
1216883.9261529467,-168010.38,-147978.6,-64089.03,-71416.34,-56459.92,-26645.672,-64083.742,-5569.336
1216883.9301529424,-168002.48,-147965.25,-64078.9,-71410.484,-56506.555,-26643.31,-64080.16,-5572.632
1216883.9341529382,-167997.89,-147954.34,-64072.715,-71403.69,-56489.3,-26648.398,-64085.492,-5588.4604
1216883.938152934,-167989.39,-147949.67,-64074.547,-71399.82,-56478.76,-26653.158,-64088.992,-5586.1006
1216883.9421529295,-167987.52,-147959.52,-64075.402,-71404.625,-56486.492,-26653.402,-64091.84,-5578.7354
1216883.9461529253,-167992.84,-147966.16,-64082.195,-71407.72,-56491.21,-26648.234,-64092.45,-5573.161
1216883.950152921,-167992.52,-147958.86,-64082.727,-71402.266,-56484.742,-26644.207,-64088.176,-5573.283
1216883.9541529168,-167987.95,-147962.66,-64072.758,-71401.125,-56484.824,-26646.24,-64083.336,-5571.452
1216883.9581529123,-167985.72,-147962.66,-64074.223,-71402.47,-56473.676,-26649.21,-64084.312,-5578.7354
1216883.962152908,-167988.73,-147961.8,-64080.242,-71406.74,-56482.504,-26644.004,-64081.707,-5568.7666
1216883.9661529039,-167995.08,-147968.47,-64082.316,-71408.37,-56484.457,-26638.836,-64078.86,-5560.791
1216883.9701528996,-167988.98,-147968.22,-64076.215,-71403.89,-56477.46,-26639.648,-64079.266,-5565.0635
1216883.9741528954,-167983.03,-147965.58,-64074.18,-71399.62,-56472.496,-26641.846,-64078.41,-5569.092
1216883.978152891,-167979.12,-147961.8,-64070.234,-71399.91,-56473.555,-26644.572,-64080.04,-5569.133
1216883.9821528867,-167989.7,-147975.83,-64083.336,-71405.93,-56476.645,-26644.736,-64085.168,-5576.2534
1216883.9861528825,-167995.4,-147982.02,-64085.656,-71406.82,-56491.17,-26640.666,-64083.09,-5570.801
1216883.9901528782,-167994.06,-147976.56,-64077.56,-71401.41,-56481.773,-26642.822,-64081.79,-5562.0117
1216883.9941528738,-167992.03,-147972.45,-64078.617,-71400.72,-56478.516,-26646.078,-64082.848,-5572.876
1216883.9981528695,-167980.72,-147957.64,-64073.652,-71398.6,-56477.05,-26646.363,-64085.043,-5579.997
1216884.0021528653,-167981.48,-147962.69,-64078.574,-71401.86,-56481.69,-26646.078,-64083.824,-5575.3174
1216884.006152861,-167989.14,-147972.1,-64083.5,-71405.03,-56481.12,-26642.742,-64083.09,-5559.652
1216884.0101528566,-167992.72,-147974.4,-64080.527,-71400.88,-56478.926,-26640.098,-64079.145,-5554.525
1216884.0141528524,-167983.23,-147965.45,-64070.68,-71397.55,-56479.574,-26645.793,-64079.55,-5559.082
1216884.0181528481,-167972.55,-147952.69,-64071.414,-71396.81,-56478.926,-26647.95,-64073.734,-5543.457
1216884.022152844,-167972.86,-147950.16,-64077.8,-71400.76,-56479.777,-26646.484,-64076.176,-5541.87
1216884.0261528394,-167985.39,-147961.11,-64083.906,-71407.43,-56486.656,-26643.23,-64078.086,-5540.3647
1216884.0301528352,-167985.44,-147961.47,-64080.895,-71400.84,-56483.727,-26643.148,-64082.156,-5553.5483
1216884.034152831,-167974.08,-147949.52,-64082.805,-71395.02,-56475.18,-26646.484,-64086.348,-5566.9355
1216884.0381528267,-167972.3,-147945.72,-64083.78,-71394.29,-56456.75,-26647.91,-64086.184,-5569.702
1216884.0421528225,-167976.86,-147945.19,-64084.15,-71401.25,-56479.332,-26645.387,-64084.965,-5564.7383
1216884.046152818,-167985.6,-147947.56,-64086.348,-71406.54,-56491.293,-26641.928,-64087.08,-5560.2217
1216884.0501528138,-167989.88,-147955.16,-64082.074,-71404.22,-56478.68,-26643.066,-64086.184,-5561.4014
1216884.0541528095,-167982.34,-147948.78,-64075.36,-71397.95,-56470.95,-26646.607,-64088.625,-5566.2437
1216884.0581528053,-167976.56,-147944.3,-64074.75,-71399.336,-56476.2,-26648.113,-64091.8,-5566.3657
1216884.0621528008,-167981.81,-147946.38,-64078.535,-71403.28,-56473.227,-26647.096,-64099.977,-5575.6836
1216884.0661527966,-167989.5,-147955.38,-64084.555,-71401.86,-56473.023,-26641.807,-64101.32,-5579.2646
1216884.0701527924,-167990.77,-147960.3,-64090.617,-71394.9,-56458.293,-26640.79,-64099.0,-5578.166
1216884.0741527881,-167980.23,-147942.02,-64084.84,-71389.98,-56468.67,-26644.695,-64096.723,-5570.1094
1216884.0781527837,-167977.34,-147937.38,-64077.844,-71391.69,-56471.805,-26647.91,-64095.746,-5572.347
1216884.0821527794,-167980.39,-147947.77,-64082.316,-71398.36,-56463.22,-26647.096,-64099.49,-5576.335
1216884.0861527752,-167989.1,-147952.64,-64084.027,-71404.79,-56474.45,-26641.928,-64099.406,-5571.859
1216884.090152771,-167988.53,-147951.83,-64078.207,-71397.26,-56471.273,-26638.104,-64093.02,-5559.123
1216884.0941527667,-167980.03,-147946.73,-64069.01,-71391.69,-56469.688,-26638.266,-64091.473,-5564.9414
1216884.0981527623,-167967.9,-147934.94,-64065.92,-71391.64,-56469.08,-26640.951,-64093.06,-5583.537
1216884.102152758,-167971.81,-147932.22,-64077.598,-71395.51,-56471.56,-26640.26,-64091.96,-5569.621
1216884.1061527538,-167984.88,-147945.19,-64079.918,-71399.3,-56472.656,-26636.639,-64092.492,-5562.907
1216884.1101527496,-167982.14,-147941.17,-64074.26,-71392.58,-56447.188,-26639.201,-64093.71,-5561.6865
1216884.114152745,-167969.56,-147929.69,-64066.082,-71385.99,-56467.57,-26643.107,-64091.676,-5557.6987
1216884.1181527409,-167964.44,-147926.8,-64063.64,-71387.62,-56457.36,-26646.037,-64095.055,-5562.5
1216884.1221527366,-167972.1,-147939.38,-64074.992,-71393.88,-56469.32,-26643.31,-64096.52,-5559.652
1216884.1261527324,-167985.6,-147952.19,-64085.004,-71397.99,-56476.2,-26638.428,-64095.176,-5549.1133
1216884.130152728,-167996.67,-147959.69,-64085.777,-71397.3,-56476.28,-26636.11,-64092.164,-5557.495
1216884.1341527237,-167979.58,-147941.12,-64075.727,-71389.41,-56467.043,-26639.404,-64089.97,-5555.583
1216884.1381527195,-167944.06,-147909.75,-64064.25,-71382.086,-56452.15,-26643.88,-64091.676,-5563.5986
1216884.1421527152,-167931.36,-147899.45,-64069.34,-71385.26,-56456.465,-26643.352,-64095.38,-5573.0796
1216884.1461527108,-167927.25,-147889.78,-64064.617,-71387.05,-56461.223,-26640.057,-64097.13,-5582.6416
1216884.1501527065,-167922.25,-147880.45,-64051.35,-71379.68,-56451.703,-26637.818,-64095.83,-5578.166
1216884.1541527023,-167903.08,-147865.94,-64044.477,-71375.0,-56449.26,-26639.893,-64093.305,-5573.039
1216884.158152698,-167905.72,-147877.48,-64053.633,-71378.664,-56443.727,-26641.766,-64093.793,-5570.028
1216884.1621526938,-167912.48,-147880.62,-64063.152,-71384.484,-56454.715,-26640.098,-64097.74,-5565.4297
1216884.1661526894,-167918.02,-147875.2,-64066.613,-71386.516,-56473.145,-26637.533,-64098.84,-5559.4077
1216884.1701526851,-167930.47,-147885.75,-64067.465,-71382.41,-56454.55,-26635.498,-64096.273,-5557.048
1216884.174152681,-167924.81,-147887.73,-64063.56,-71378.87,-56443.77,-26637.533,-64093.1,-5558.838
1216884.1781526767,-167918.75,-147883.75,-64065.88,-71377.85,-56441.367,-26640.707,-64090.496,-5555.2573
1216884.1821526722,-167921.55,-147881.84,-64073.285,-71385.99,-56452.8,-26637.248,-64090.21,-5549.6016
1216884.186152668,-167931.48,-147887.94,-64075.402,-71389.24,-56455.406,-26632.732,-64091.516,-5547.4043
1216884.1901526637,-167935.64,-147894.73,-64068.28,-71386.03,-56459.758,-26630.738,-64089.316,-5547.445
1216884.1941526595,-167933.52,-147895.47,-64064.902,-71382.81,-56451.99,-26633.22,-64090.008,-5551.6357
1216884.198152655,-167925.38,-147891.73,-64066.246,-71382.9,-56442.832,-26633.994,-64089.438,-5547.8926
1216884.2021526508,-167932.02,-147903.12,-64073.69,-71385.42,-56425.01,-26631.715,-64089.6,-5546.509
1216884.2061526466,-167934.0,-147895.6,-64071.94,-71384.28,-56459.92,-26630.127,-64088.83,-5548.4214
1216884.2101526423,-167934.66,-147895.03,-64071.414,-71381.72,-56449.26,-26630.006,-64085.37,-5548.0146
1216884.2141526379,-167929.33,-147903.61,-64065.88,-71377.85,-56436.32,-26633.586,-64084.15,-5552.246
1216884.2181526336,-167928.14,-147899.7,-64060.426,-71378.336,-56443.402,-26634.889,-64086.59,-5564.7383
1216884.2221526294,-167928.27,-147897.8,-64074.18,-71383.875,-56443.32,-26634.156,-64091.27,-5572.876
1216884.2261526252,-167933.72,-147900.56,-64074.18,-71385.42,-56448.45,-26631.43,-64088.992,-5560.3843
1216884.230152621,-167937.83,-147901.05,-64063.887,-71382.33,-56443.035,-26629.844,-64085.168,-5546.9565
1216884.2341526165,-167932.1,-147901.66,-64058.473,-71377.28,-56437.83,-26632.041,-64084.758,-5553.874
1216884.2381526122,-167927.5,-147896.98,-64061.242,-71379.234,-56438.56,-26634.115,-64083.742,-5561.035
1216884.242152608,-167934.38,-147899.86,-64066.125,-71385.336,-56431.64,-26634.238,-64085.734,-5565.023
1216884.2461526038,-167951.98,-147913.05,-64075.074,-71390.14,-56441.613,-26634.482,-64091.84,-5570.7603
1216884.2501525993,-167950.0,-147907.16,-64071.984,-71384.28,-56460.734,-26632.732,-64090.09,-5565.9995
1216884.254152595,-167946.9,-147908.7,-64066.855,-71380.29,-56443.727,-26635.621,-64091.84,-5563.6396
1216884.2581525908,-167938.08,-147904.55,-64068.81,-71381.11,-56440.31,-26637.33,-64090.7,-5564.5347
1216884.2621525866,-167937.7,-147900.06,-64074.465,-71385.17,-56439.74,-26633.994,-64089.97,-5562.297
1216884.2661525821,-167945.23,-147910.12,-64074.016,-71387.45,-56443.36,-26630.615,-64089.195,-5554.9727
1216884.270152578,-167947.44,-147913.73,-64067.26,-71380.74,-56439.496,-26628.053,-64081.3,-5538.005
1216884.2741525737,-167939.86,-147910.45,-64066.043,-71374.555,-56437.785,-26629.03,-64079.797,-5544.922
1216884.2781525694,-167931.2,-147903.33,-64067.465,-71374.48,-56435.426,-26629.559,-64081.098,-5551.229
1216884.2821525652,-167933.23,-147907.64,-64069.543,-71380.66,-56442.18,-26627.076,-64081.06,-5545.6953
1216884.2861525607,-167942.6,-147912.23,-64071.617,-71381.875,-56441.69,-26626.465,-64084.84,-5546.3057
1216884.2901525565,-167953.58,-147922.61,-64069.95,-71379.16,-56438.56,-26624.717,-64082.195,-5544.515
1216884.2941525523,-167948.73,-147913.73,-64063.4,-71374.06,-56417.97,-26627.686,-64079.023,-5540.4053
1216884.298152548,-167937.9,-147907.36,-64062.95,-71374.15,-56405.887,-26629.191,-64075.89,-5536.174
1216884.3021525436,-167933.27,-147905.69,-64068.08,-71378.99,-56432.05,-26628.094,-64076.62,-5531.5757
1216884.3061525393,-167942.55,-147917.12,-64073.164,-71383.51,-56439.09,-26624.473,-64076.254,-5522.827
1216884.310152535,-167947.27,-147921.31,-64070.64,-71379.72,-56426.84,-26622.152,-64072.633,-5518.962
1216884.3141525309,-167938.23,-147910.28,-64063.152,-71376.79,-56431.234,-26623.332,-64069.297,-5509.8066
1216884.3181525264,-167930.34,-147903.48,-64064.09,-71373.74,-56418.906,-26628.867,-64073.527,-5512.5327
1216884.3221525222,-167938.31,-147913.05,-64073.324,-71380.375,-56421.754,-26628.826,-64080.812,-5533.203
1216884.326152518,-167947.11,-147920.86,-64077.8,-71382.94,-56447.227,-26625.938,-64082.316,-5531.006
1216884.3301525137,-167947.97,-147921.06,-64067.996,-71374.39,-56434.004,-26625.855,-64081.26,-5525.92
1216884.3341525092,-167939.3,-147911.95,-64062.34,-71369.305,-56425.742,-26629.111,-64080.16,-5525.8384
1216884.338152505,-167935.19,-147906.3,-64064.74,-71370.12,-56424.316,-26631.227,-64080.934,-5531.7793
1216884.3421525008,-167940.44,-147913.02,-64071.7,-71380.984,-56432.05,-26627.482,-64080.977,-5538.33
1216884.3461524965,-167951.3,-147929.48,-64077.23,-71383.914,-56436.117,-26621.95,-64075.48,-5526.0825
1216884.3501524923,-167947.06,-147922.53,-64069.785,-71377.65,-56432.824,-26618.979,-64066.816,-5516.7236
1216884.3541524878,-167937.8,-147917.56,-64061.65,-71374.27,-56426.555,-26621.379,-64065.105,-5517.8633
1216884.3581524836,-167930.8,-147916.02,-64058.39,-71373.66,-56423.625,-26622.967,-64065.39,-5527.71
1216884.3621524794,-167937.1,-147923.5,-64066.125,-71380.086,-56428.754,-26621.379,-64064.82,-5522.217
1216884.3661524751,-167943.36,-147927.7,-64070.152,-71382.086,-56432.375,-26618.693,-64064.58,-5519.6533
1216884.3701524707,-167951.62,-147938.23,-64066.53,-71379.56,-56437.01,-26617.514,-64061.605,-5517.253
1216884.3741524664,-167947.36,-147941.45,-64057.54,-71377.65,-56436.605,-26618.613,-64057.008,-5507.772
1216884.3781524622,-167939.25,-147932.7,-64056.48,-71376.305,-56428.793,-26621.338,-64059.004,-5514.038
1216884.382152458,-167944.7,-147936.08,-64068.035,-71382.53,-56434.57,-26620.402,-64059.004,-5512.329
1216884.3861524535,-167960.86,-147947.27,-64078.207,-71387.414,-56436.445,-26616.863,-64056.48,-5505.941
1216884.3901524493,-167957.23,-147944.22,-64073.855,-71383.83,-56433.15,-26615.072,-64053.793,-5514.16
1216884.394152445,-167947.92,-147937.67,-64067.387,-71377.445,-56430.22,-26616.455,-64049.32,-5511.8003
1216884.3981524408,-167942.95,-147944.3,-64068.973,-71379.92,-56435.832,-26618.287,-64048.3,-5510.8237
1216884.4021524363,-167948.17,-147948.86,-64073.61,-71387.53,-56439.78,-26617.107,-64049.848,-5508.8706
1216884.406152432,-167960.5,-147953.2,-64077.92,-71388.266,-56422.16,-26615.234,-64049.766,-5504.8423
1216884.4101524279,-167967.58,-147957.73,-64076.133,-71383.34,-56418.297,-26614.87,-64047.73,-5506.4697
1216884.4141524236,-167956.19,-147946.42,-64068.566,-71378.91,-56442.547,-26615.44,-64044.56,-5511.76
1216884.4181524194,-167947.36,-147944.58,-64065.023,-71372.07,-56424.848,-26619.426,-64047.406,-5509.9287
1216884.422152415,-167949.6,-147950.08,-64068.688,-71374.8,-56428.793,-26617.107,-64045.25,-5494.8325
1216884.4261524107,-167954.27,-147955.58,-64071.414,-71377.41,-56427.777,-26615.44,-64047.61,-5500.4478
1216884.4301524065,-167949.39,-147954.14,-64062.625,-71373.414,-56420.574,-26613.852,-64046.348,-5508.9927
1216884.4341524022,-167948.81,-147948.94,-64059.086,-71369.51,-56402.754,-26616.943,-64045.414,-5505.6562
1216884.4381523977,-167937.88,-147929.36,-64054.484,-71367.15,-56430.22,-26619.14,-64042.24,-5497.8027
1216884.4421523935,-167936.56,-147931.52,-64062.582,-71371.83,-56431.562,-26617.432,-64043.01,-5491.1704
1216884.4461523893,-167943.28,-147933.92,-64064.293,-71375.0,-56425.62,-26611.613,-64041.3,-5485.311
1216884.450152385,-167945.03,-147936.05,-64058.188,-71370.12,-56413.13,-26610.557,-64041.75,-5484.294
1216884.4541523806,-167938.72,-147939.02,-64053.02,-71367.07,-56424.645,-26611.572,-64037.68,-5481.9746
1216884.4581523763,-167929.16,-147935.47,-64052.613,-71367.02,-56425.336,-26613.566,-64036.703,-5489.258
1216884.462152372,-167928.92,-147930.55,-64058.516,-71371.09,-56416.992,-26614.828,-64043.418,-5498.739
1216884.4661523679,-167935.27,-147929.86,-64061.527,-71372.03,-56421.387,-26609.945,-64042.074,-5495.8496
1216884.4701523634,-167940.97,-147935.62,-64055.543,-71368.086,-56420.453,-26606.283,-64038.047,-5492.6353
1216884.4741523592,-167931.77,-147931.11,-64048.344,-71362.47,-56416.344,-26607.098,-64036.418,-5494.8325
1216884.478152355,-167921.55,-147921.06,-64050.945,-71361.78,-56417.89,-26611.166,-64037.355,-5487.834
1216884.4821523507,-167921.55,-147920.38,-64057.78,-71366.414,-56414.918,-26612.102,-64041.586,-5486.328
1216884.4861523465,-167928.88,-147923.5,-64060.02,-71369.34,-56415.734,-26610.475,-64046.47,-5501.6685
1216884.490152342,-167921.47,-147914.31,-64053.59,-71363.28,-56416.87,-26609.498,-64045.82,-5506.7954
1216884.4941523378,-167910.12,-147907.47,-64049.32,-71357.914,-56415.977,-26609.54,-64042.645,-5501.75
1216884.4981523335,-167886.31,-147887.98,-64044.355,-71355.555,-56417.93,-26614.137,-64045.574,-5501.5464
1216884.5021523293,-167874.16,-147872.72,-64045.98,-71359.17,-56414.633,-26615.846,-64052.816,-5510.2134
1216884.5061523248,-167869.67,-147870.53,-64047.0,-71360.03,-56411.5,-26613.445,-64057.414,-5515.8286
1216884.5101523206,-167862.03,-147859.38,-64043.176,-71351.195,-56370.402,-26615.56,-64059.492,-5518.718
1216884.5141523164,-167841.36,-147834.31,-64032.676,-71346.516,-56418.742,-26618.125,-64057.945,-5519.206
1216884.5181523121,-167819.17,-147809.5,-64028.28,-71343.55,-56410.363,-26621.543,-64062.992,-5526.164
1216884.5221523077,-167801.39,-147787.97,-64028.08,-71343.18,-56405.926,-26620.932,-64066.367,-5525.1465
1216884.5261523034,-167795.45,-147768.89,-64026.45,-71343.02,-56413.82,-26618.002,-64069.38,-5523.1934
1216884.5301522992,-167779.9,-147756.6,-64023.6,-71341.555,-56406.414,-26617.96,-64070.56,-5523.5596
1216884.534152295,-167764.78,-147750.4,-64018.434,-71336.14,-56401.164,-26622.031,-64072.676,-5529.012
1216884.5381522907,-167753.55,-147743.78,-64017.01,-71336.836,-56398.684,-26628.094,-64075.277,-5535.848
1216884.5421522863,-167761.11,-147742.69,-64025.637,-71339.88,-56397.34,-26628.662,-64074.586,-5530.477
1216884.546152282,-167779.02,-147765.34,-64034.508,-71347.695,-56406.293,-26625.732,-64074.586,-5527.71
1216884.5501522778,-167785.89,-147781.75,-64031.21,-71348.92,-56403.08,-26624.553,-64073.57,-5533.7324
1216884.5541522736,-167775.36,-147777.14,-64020.387,-71341.516,-56406.375,-26623.535,-64065.188,-5522.217
1216884.558152269,-167776.25,-147781.98,-64019.25,-71340.21,-56406.25,-26623.008,-64061.605,-5520.2637
1216884.5621522649,-167786.83,-147791.19,-64028.65,-71346.93,-56408.69,-26622.559,-64065.227,-5524.0073
1216884.5661522606,-167796.55,-147804.66,-64033.0,-71348.63,-56410.85,-26621.787,-64070.438,-5526.042
1216884.5701522564,-167801.6,-147814.05,-64028.89,-71342.086,-56404.016,-26621.746,-64071.086,-5530.721
1216884.574152252,-167796.88,-147807.62,-64023.52,-71340.375,-56398.48,-26623.455,-64068.484,-5528.6055
1216884.5781522477,-167796.72,-147814.25,-64029.176,-71342.25,-56400.92,-26626.832,-64071.414,-5531.657
1216884.5821522435,-167808.36,-147833.5,-64036.906,-71348.88,-56409.26,-26623.74,-64071.902,-5528.3203
1216884.5861522392,-167819.22,-147838.19,-64041.02,-71350.836,-56417.727,-26620.158,-64073.977,-5526.2046
1216884.5901522348,-167828.66,-147843.72,-64039.188,-71347.62,-56406.7,-26617.717,-64073.0,-5518.8804
1216884.5941522305,-167828.62,-147849.53,-64030.234,-71345.18,-56405.316,-26619.385,-64069.46,-5519.043
1216884.5981522263,-167826.42,-147844.73,-64032.23,-71348.11,-56409.914,-26621.95,-64068.117,-5521.81
1216884.602152222,-167837.89,-147863.2,-64043.05,-71357.305,-56404.707,-26620.973,-64069.5,-5519.857
1216884.6061522178,-167852.34,-147884.56,-64051.8,-71357.914,-56380.293,-26619.629,-64067.387,-5509.481
1216884.6101522134,-167850.67,-147877.48,-64043.703,-71355.76,-56425.824,-26614.707,-64057.984,-5504.924
1216884.6141522091,-167849.66,-147877.03,-64038.74,-71349.2,-56413.86,-26615.723,-64054.973,-5504.6387
1216884.618152205,-167847.5,-147876.83,-64042.44,-71347.945,-56405.48,-26619.467,-64061.28,-5512.451
1216884.6221522007,-167858.77,-147887.83,-64051.35,-71356.695,-56413.94,-26617.84,-64064.82,-5509.9287
1216884.6261521962,-167870.98,-147899.1,-64056.234,-71360.07,-56413.37,-26614.502,-64067.508,-5509.2773
1216884.630152192,-167872.61,-147903.08,-64057.375,-71355.555,-56413.25,-26613.363,-64065.51,-5511.6377
1216884.6341521877,-167868.81,-147902.64,-64053.227,-71351.89,-56410.2,-26616.904,-64064.047,-5512.8174
1216884.6381521835,-167859.78,-147889.78,-64048.91,-71351.195,-56409.547,-26619.385,-64061.65,-5501.3022
1216884.642152179,-167868.73,-147902.67,-64053.508,-71358.12,-56421.67,-26618.49,-64065.023,-5501.058
1216884.6461521748,-167879.4,-147910.77,-64059.33,-71359.91,-56425.703,-26615.113,-64066.855,-5507.894
1216884.6501521706,-167883.6,-147913.05,-64056.6,-71358.08,-56415.367,-26611.492,-64064.74,-5507.365
1216884.6541521663,-167879.31,-147910.12,-64047.895,-71354.66,-56411.133,-26611.613,-64060.55,-5505.371
1216884.6581521619,-167870.05,-147909.22,-64047.406,-71352.375,-56405.97,-26614.951,-64061.73,-5510.295
1216884.6621521576,-167869.92,-147918.05,-64056.36,-71358.89,-56410.566,-26613.81,-64061.73,-5507.528
1216884.6661521534,-167877.53,-147918.88,-64059.004,-71359.945,-56408.082,-26612.346,-64065.92,-5511.7188
1216884.6701521492,-167882.08,-147918.27,-64057.66,-71357.914,-56410.89,-26611.898,-64064.74,-5497.3145
1216884.674152145,-167879.48,-147920.78,-64049.32,-71354.05,-56406.78,-26612.225,-64061.32,-5486.491
1216884.6781521405,-167874.11,-147915.38,-64051.598,-71353.195,-56400.473,-26612.793,-64063.273,-5499.2676
1216884.6821521362,-167872.48,-147910.86,-64056.562,-71356.77,-56401.98,-26612.998,-64069.418,-5518.1074
1216884.686152132,-167878.5,-147917.73,-64062.46,-71359.01,-56412.355,-26609.58,-64069.297,-5508.342
1216884.6901521278,-167881.31,-147932.3,-64057.945,-71356.77,-56410.93,-26607.545,-64064.902,-5495.7275
1216884.6941521233,-167873.42,-147922.94,-64047.61,-71350.14,-56394.004,-26610.84,-64065.227,-5497.64
1216884.698152119,-167864.02,-147912.97,-64044.312,-71346.56,-56396.566,-26614.219,-64064.984,-5493.8965
1216884.7021521148,-167863.81,-147913.25,-64054.406,-71353.4,-56404.094,-26614.828,-64065.88,-5492.7573
1216884.7061521106,-167870.73,-147915.45,-64053.508,-71355.875,-56405.48,-26611.857,-64068.2,-5499.9595
1216884.7101521061,-167874.19,-147911.47,-64045.695,-71352.83,-56408.125,-26610.393,-64065.797,-5501.058
1216884.714152102,-167863.81,-147901.86,-64047.203,-71348.15,-56408.367,-26611.98,-64064.945,-5495.565
1216884.7181520977,-167860.97,-147900.16,-64049.4,-71350.305,-56402.426,-26616.375,-64069.867,-5503.988
1216884.7221520934,-167864.06,-147903.4,-64052.125,-71358.12,-56409.387,-26617.148,-64073.285,-5503.4995
1216884.726152089,-167870.45,-147906.7,-64058.516,-71362.34,-56407.066,-26614.87,-64074.87,-5500.3257
1216884.7301520847,-167872.28,-147899.58,-64055.87,-71355.63,-56406.7,-26614.463,-64075.156,-5502.279
1216884.7341520805,-167860.03,-147885.02,-64047.61,-71348.76,-56389.12,-26617.148,-64078.617,-5508.586
1216884.7381520763,-167837.05,-147867.89,-64043.582,-71343.1,-56389.242,-26620.566,-64083.78,-5521.8506
1216884.742152072,-167826.62,-147849.33,-64051.92,-71347.21,-56409.344,-26621.299,-64086.71,-5523.153
1216884.7461520676,-167821.05,-147835.4,-64050.254,-71349.94,-56417.48,-26621.746,-64085.94,-5516.3984
1216884.7501520633,-167819.5,-147829.64,-64043.95,-71347.01,-56406.008,-26619.752,-64082.805,-5508.3823
1216884.754152059,-167807.38,-147813.28,-64037.395,-71343.836,-56397.543,-26620.158,-64079.348,-5501.628
1216884.7581520549,-167789.97,-147793.62,-64033.613,-71338.26,-56388.31,-26625.244,-64084.477,-5510.295
1216884.7621520504,-167768.28,-147768.39,-64030.723,-71336.875,-56389.527,-26628.5,-64095.137,-5529.46
1216884.7661520462,-167759.44,-147747.31,-64030.97,-71337.65,-56393.15,-26626.465,-64098.594,-5531.291
1216884.770152042,-167745.73,-147729.7,-64024.133,-71334.19,-56396.445,-26625.896,-64101.523,-5536.255
1216884.7741520377,-167720.83,-147704.75,-64014.527,-71328.01,-56384.727,-26627.809,-64099.57,-5532.593
1216884.7781520332,-167691.5,-147672.2,-64005.902,-71320.88,-56369.914,-26632.406,-64105.918,-5545.8984
1216884.782152029,-167673.02,-147653.69,-64007.734,-71321.58,-56379.355,-26634.97,-64111.777,-5556.5596
1216884.7861520248,-167664.31,-147638.39,-64008.098,-71319.87,-56391.97,-26634.889,-64114.383,-5556.0713
1216884.7901520205,-167659.6,-147623.95,-64004.355,-71315.47,-56380.902,-26634.36,-64116.457,-5557.9023
1216884.7941520163,-167641.48,-147605.67,-63994.793,-71307.25,-56373.78,-26636.271,-64116.58,-5557.129
1216884.7981520118,-167619.31,-147584.97,-63988.406,-71302.33,-56370.04,-26640.992,-64120.85,-5566.04
1216884.8021520076,-167609.5,-147571.05,-63991.945,-71308.07,-56375.285,-26640.057,-64121.707,-5561.198
1216884.8061520034,-167619.72,-147576.25,-63995.688,-71311.12,-56377.81,-26635.703,-64121.504,-5557.7803
1216884.8101519991,-167619.8,-147574.3,-63984.906,-71307.5,-56372.805,-26632.936,-64120.527,-5560.0586
1216884.8141519947,-167609.62,-147567.34,-63973.633,-71301.76,-56367.516,-26635.662,-64121.91,-5562.744
1216884.8181519904,-167606.17,-147565.36,-63982.586,-71301.64,-56362.184,-26641.318,-64122.195,-5561.6455
1216884.8221519862,-167612.75,-147564.86,-63991.133,-71308.07,-56368.938,-26643.434,-64130.09,-5564.453
1216884.826151982,-167624.36,-147575.16,-63995.73,-71313.64,-56377.24,-26640.586,-64131.066,-5559.2856
1216884.8301519775,-167637.1,-147590.1,-63996.22,-71313.16,-56379.76,-26638.062,-64128.137,-5548.95
1216884.8341519732,-167649.95,-147606.08,-64002.523,-71311.16,-56357.992,-26641.48,-64130.168,-5552.6533
1216884.838151969,-167650.19,-147612.44,-64003.297,-71312.336,-56380.293,-26642.416,-64127.89,-5551.3916
1216884.8421519648,-167661.17,-147630.33,-64009.117,-71315.88,-56371.137,-26640.91,-64130.496,-5558.065
1216884.8461519603,-167678.88,-147645.23,-64016.562,-71326.09,-56408.125,-26636.191,-64126.508,-5557.292
1216884.850151956,-167699.06,-147668.3,-64020.51,-71325.805,-56395.062,-26633.545,-64120.65,-5546.5903
1216884.8541519518,-167707.89,-147684.0,-64020.387,-71320.07,-56388.51,-26632.324,-64116.375,-5542.8467
1216884.8581519476,-167706.19,-147682.34,-64014.445,-71317.586,-56387.777,-26635.336,-64117.23,-5547.2007
1216884.8621519434,-167718.8,-147701.55,-64028.08,-71327.516,-56393.965,-26634.277,-64120.324,-5551.0664
1216884.866151939,-167738.12,-147722.95,-64041.3,-71334.19,-56399.496,-26629.883,-64119.957,-5546.224
1216884.8701519347,-167753.95,-147743.7,-64040.812,-71335.33,-56404.137,-26625.45,-64113.203,-5534.302
1216884.8741519304,-167761.11,-147752.53,-64033.45,-71331.87,-56391.156,-26627.727,-64110.15,-5526.693
1216884.8781519262,-167759.2,-147751.42,-64031.82,-71331.55,-56395.715,-26628.867,-64106.12,-5525.228
1216884.8821519217,-167762.42,-147760.9,-64039.227,-71336.55,-56401.45,-26627.361,-64107.016,-5532.3486
1216884.8861519175,-167777.6,-147779.27,-64044.23,-71342.2,-56408.45,-26623.576,-64107.016,-5528.768
1216884.8901519133,-167788.38,-147785.16,-64043.215,-71340.414,-56403.81,-26620.566,-64102.62,-5522.2983
1216884.894151909,-167792.86,-147787.97,-64043.05,-71338.14,-56395.715,-26621.46,-64098.43,-5520.427
1216884.8981519046,-167792.86,-147797.53,-64043.54,-71339.56,-56398.684,-26624.838,-64101.28,-5523.5596
1216884.9021519003,-167804.2,-147813.4,-64053.305,-71347.086,-56408.855,-26625.326,-64104.86,-5520.874
1216884.906151896,-167820.56,-147824.72,-64063.234,-71351.484,-56410.85,-26621.787,-64105.062,-5512.1665
1216884.9101518919,-167830.25,-147837.16,-64061.445,-71350.42,-56412.316,-26619.426,-64104.29,-5513.7534
1216884.9141518874,-167830.28,-147839.2,-64055.746,-71345.95,-56401.855,-26621.664,-64104.902,-5514.364
1216884.9181518832,-167821.94,-147837.4,-64053.02,-71344.28,-56398.438,-26623.984,-64103.56,-5521.8506
1216884.922151879,-167827.03,-147840.66,-64059.816,-71348.15,-56401.164,-26622.682,-64102.258,-5513.1836
1216884.9261518747,-167832.94,-147843.75,-64069.215,-71350.914,-56382.45,-26618.896,-64101.24,-5511.7188
1216884.9301518705,-167842.33,-147856.12,-64065.594,-71350.42,-56412.11,-26616.334,-64099.816,-5522.0137
1216884.934151866,-167846.11,-147868.4,-64056.97,-71345.95,-56405.316,-26618.246,-64097.94,-5521.322
1216884.9381518618,-167847.83,-147873.38,-64045.453,-71344.89,-56401.004,-26621.135,-64098.35,-5516.561
1216884.9421518575,-167848.6,-147872.61,-64051.598,-71350.51,-56405.48,-26619.752,-64097.25,-5511.841
1216884.9461518533,-167863.08,-147883.31,-64057.293,-71355.836,-56407.715,-26617.799,-64097.13,-5512.1665
1216884.9501518488,-167878.17,-147894.2,-64070.723,-71360.234,-56407.31,-26615.643,-64096.03,-5504.6387
1216884.9541518446,-167876.22,-147896.12,-64070.19,-71354.984,-56406.457,-26614.014,-64090.414,-5504.0283
1216884.9581518404,-167872.44,-147887.62,-64068.645,-71351.4,-56407.227,-26617.473,-64089.723,-5505.046
1216884.9621518361,-167870.77,-147886.8,-64073.734,-71354.62,-56407.92,-26616.09,-64089.926,-5508.789
1216884.9661518317,-167877.08,-147894.38,-64075.035,-71357.586,-56411.418,-26611.695,-64085.37,-5495.6465
1216884.9701518274,-167883.27,-147902.8,-64070.926,-71357.22,-56408.53,-26611.248,-64082.48,-5490.967
1216884.9741518232,-167881.06,-147899.25,-64068.24,-71352.79,-56406.82,-26612.63,-64080.285,-5493.856
1216884.978151819,-167878.06,-147897.39,-64066.203,-71352.17,-56401.652,-26613.404,-64082.277,-5496.867
1216884.9821518145,-167886.08,-147905.08,-64078.94,-71357.305,-56382.49,-26611.736,-64083.133,-5490.2754
1216884.9861518103,-167903.48,-147918.27,-64090.008,-71363.98,-56412.438,-26608.766,-64082.97,-5484.5786
1216884.990151806,-167909.88,-147920.22,-64082.36,-71362.39,-56426.555,-26607.748,-64084.8,-5486.206
1216884.9941518018,-167904.3,-147915.4,-64078.13,-71358.36,-56417.402,-26610.76,-64085.043,-5487.915
1216884.9981517976,-167900.69,-147913.98,-64078.695,-71356.445,-56412.316,-26614.625,-64086.996,-5497.3145
1216885.002151793,-167899.83,-147911.42,-64082.316,-71358.195,-56411.867,-26616.21,-64090.78,-5502.9707
1216885.0061517889,-167901.9,-147913.7,-64086.062,-71360.72,-56416.06,-26611.084,-64087.363,-5490.9263
1216885.0101517846,-167909.83,-147920.0,-64082.805,-71359.336,-56416.26,-26609.172,-64086.59,-5491.903
1216885.0141517804,-167905.56,-147920.1,-64078.207,-71353.516,-56405.52,-26609.945,-64083.215,-5482.463
1216885.018151776,-167901.66,-147919.16,-64079.67,-71354.25,-56395.508,-26611.492,-64082.035,-5487.834
1216885.0221517717,-167900.19,-147925.17,-64083.54,-71360.234,-56405.355,-26612.672,-64085.94,-5486.4097
1216885.0261517675,-167904.9,-147925.38,-64088.42,-71360.64,-56408.977,-26608.725,-64086.957,-5477.0103
1216885.0301517632,-167911.06,-147927.81,-64082.684,-71359.78,-56407.92,-26606.975,-64088.176,-5480.184
1216885.0341517588,-167907.27,-147924.69,-64073.855,-71355.96,-56403.363,-26608.154,-64089.03,-5494.344
1216885.0381517545,-167903.28,-147926.11,-64074.3,-71355.02,-56401.613,-26609.54,-64089.277,-5498.4946
1216885.0421517503,-167903.73,-147932.34,-64077.273,-71360.44,-56411.133,-26609.904,-64091.8,-5496.053
1216885.046151746,-167912.84,-147941.58,-64082.24,-71364.625,-56406.7,-26607.91,-64093.67,-5489.3394
1216885.0501517418,-167914.19,-147945.08,-64080.0,-71359.74,-56401.98,-26606.08,-64088.91,-5484.741
1216885.0541517374,-167903.73,-147939.3,-64074.586,-71352.83,-56374.758,-26608.154,-64086.145,-5487.3457
1216885.0581517331,-167893.28,-147924.81,-64070.477,-71352.09,-56403.605,-26609.498,-64081.75,-5481.527
1216885.062151729,-167894.25,-147928.88,-64075.36,-71354.125,-56395.715,-26610.148,-64084.637,-5479.492
1216885.0661517247,-167905.31,-147939.17,-64084.312,-71357.305,-56402.426,-26607.342,-64085.168,-5477.458
1216885.0701517202,-167917.89,-147944.62,-64088.625,-71358.484,-56405.97,-26604.492,-64082.727,-5475.708
1216885.074151716,-167915.48,-147941.08,-64077.64,-71355.51,-56403.89,-26607.707,-64084.758,-5478.719
1216885.0781517117,-167904.83,-147936.89,-64073.082,-71355.06,-56408.125,-26611.736,-64085.043,-5475.749
1216885.0821517075,-167906.78,-147942.31,-64078.86,-71358.4,-56394.98,-26612.63,-64088.91,-5477.661
1216885.086151703,-167910.69,-147939.05,-64081.18,-71363.98,-56421.836,-26606.65,-64080.203,-5457.1943
1216885.0901516988,-167910.12,-147933.31,-64079.023,-71355.555,-56402.47,-26604.248,-64076.785,-5449.585
1216885.0941516946,-167901.7,-147924.08,-64074.79,-71352.7,-56388.266,-26605.266,-64076.742,-5462.9316
1216885.0981516903,-167895.39,-147921.23,-64073.246,-71351.36,-56388.594,-26606.242,-64077.68,-5467.204
1216885.1021516859,-167898.23,-147926.11,-64081.668,-71357.1,-56394.94,-26604.045,-64078.74,-5464.559
1216885.1061516816,-167909.31,-147935.62,-64087.73,-71364.75,-56411.055,-26600.098,-64077.68,-5461.589
1216885.1101516774,-167913.45,-147936.89,-64084.027,-71363.85,-56419.273,-26599.244,-64076.297,-5460.49
1216885.1141516732,-167913.62,-147936.25,-64076.99,-71358.03,-56409.18,-26603.965,-64078.98,-5471.029
1216885.118151669,-167905.64,-147938.08,-64078.004,-71357.26,-56400.23,-26608.277,-64079.47,-5466.675
1216885.1221516645,-167901.78,-147939.22,-64082.316,-71358.484,-56398.156,-26608.848,-64079.836,-5460.2866
1216885.1261516602,-167903.61,-147936.16,-64086.062,-71357.586,-56397.95,-26605.998,-64079.227,-5465.251
1216885.130151656,-167904.22,-147934.98,-64084.477,-71355.15,-56398.234,-26604.168,-64079.062,-5464.9253
1216885.1341516518,-167901.1,-147933.8,-64081.18,-71351.195,-56389.69,-26606.771,-64078.695,-5471.639
1216885.1381516473,-167894.42,-147930.9,-64079.797,-71350.34,-56389.69,-26608.562,-64078.37,-5470.9067
1216885.142151643,-167893.97,-147934.38,-64084.15,-71354.984,-56396.934,-26606.895,-64079.957,-5468.099
1216885.1461516388,-167901.45,-147941.78,-64086.062,-71358.56,-56398.277,-26604.533,-64081.586,-5464.2334
1216885.1501516346,-167904.7,-147942.02,-64083.09,-71357.586,-56398.4,-26603.11,-64082.113,-5465.6577
1216885.1541516301,-167904.95,-147947.88,-64083.05,-71353.84,-56391.684,-26603.883,-64081.098,-5473.674
1216885.158151626,-167891.53,-147935.47,-64074.26,-71348.76,-56381.39,-26604.86,-64079.266,-5474.6094
1216885.1621516217,-167891.2,-147925.25,-64079.266,-71352.5,-56389.445,-26607.83,-64083.5,-5477.0103
1216885.1661516174,-167900.8,-147935.27,-64084.15,-71356.08,-56393.965,-26605.674,-64087.484,-5476.8066
1216885.170151613,-167906.17,-147946.5,-64082.766,-71352.17,-56392.215,-26603.232,-64085.98,-5477.4985
1216885.1741516087,-167905.72,-147945.52,-64077.11,-71348.23,-56393.68,-26602.174,-64078.047,-5471.029
1216885.1781516045,-167898.64,-147947.23,-64074.06,-71347.21,-56365.113,-26604.86,-64076.297,-5477.336
1216885.1821516003,-167900.06,-147947.64,-64082.035,-71352.17,-56365.887,-26605.877,-64076.336,-5479.289
1216885.186151596,-167905.72,-147940.03,-64080.934,-71357.055,-56410.2,-26599.691,-64069.258,-5471.4355
1216885.1901515916,-167916.55,-147950.0,-64085.33,-71357.625,-56406.535,-26595.379,-64064.617,-5467.8955
1216885.1941515873,-167918.7,-147954.34,-64084.11,-71357.75,-56401.246,-26598.43,-64063.07,-5460.124
1216885.198151583,-167909.22,-147949.6,-64081.3,-71357.99,-56399.05,-26599.977,-64057.254,-5448.812
1216885.2021515789,-167908.78,-147950.08,-64085.043,-71362.02,-56401.29,-26602.947,-64062.992,-5472.6562
1216885.2061515744,-167914.6,-147957.97,-64092.004,-71364.016,-56402.14,-26603.354,-64065.84,-5482.422
1216885.2101515702,-167920.9,-147964.28,-64091.15,-71361.86,-56400.516,-26601.562,-64063.195,-5476.4404
1216885.214151566,-167918.88,-147960.58,-64083.17,-71359.664,-56404.176,-26603.639,-64059.9,-5474.162
1216885.2181515617,-167912.08,-147952.64,-64079.387,-71356.65,-56395.715,-26605.998,-64057.17,-5471.965
1216885.2221515572,-167911.02,-147955.12,-64082.035,-71360.516,-56402.996,-26602.256,-64054.28,-5465.332
1216885.226151553,-167919.56,-147964.16,-64089.684,-71367.02,-56408.33,-26597.25,-64051.883,-5460.653
1216885.2301515487,-167924.03,-147971.89,-64088.79,-71367.31,-56407.594,-26594.97,-64050.906,-5461.5073
1216885.2341515445,-167916.47,-147970.06,-64081.06,-71358.805,-56400.637,-26598.797,-64053.387,-5460.1646
1216885.23815154,-167908.3,-147960.73,-64075.074,-71354.66,-56394.9,-26600.791,-64052.25,-5454.7935
1216885.2421515358,-167907.06,-147958.17,-64079.836,-71357.26,-56395.02,-26602.05,-64055.87,-5463.0537
1216885.2461515316,-167914.88,-147959.36,-64083.742,-71358.52,-56399.66,-26599.53,-64057.7,-5467.855
1216885.2501515273,-167920.7,-147961.11,-64081.547,-71358.56,-56398.766,-26596.314,-64054.73,-5456.299
1216885.254151523,-167914.11,-147959.23,-64076.094,-71354.25,-56395.55,-26594.402,-64047.285,-5447.754
1216885.2581515186,-167908.17,-147954.23,-64073.367,-71351.81,-56390.465,-26594.85,-64044.07,-5454.834
1216885.2621515144,-167906.14,-147951.3,-64075.074,-71354.49,-56388.184,-26593.059,-64042.402,-5449.6665
1216885.2661515102,-167909.02,-147954.6,-64078.9,-71355.836,-56384.93,-26586.955,-64036.137,-5434.204
1216885.270151506,-167912.31,-147954.75,-64079.062,-71352.42,-56369.793,-26584.678,-64035.035,-5433.838
1216885.2741515015,-167901.66,-147948.48,-64066.043,-71348.23,-56390.42,-26586.467,-64034.793,-5442.2607
1216885.2781514972,-167892.7,-147944.1,-64064.25,-71347.91,-56379.926,-26590.414,-64037.316,-5437.297
1216885.282151493,-167894.73,-147946.86,-64070.11,-71350.55,-56382.082,-26590.658,-64042.766,-5455.526
1216885.2861514888,-167899.78,-147954.14,-64074.668,-71354.66,-56384.074,-26589.275,-64046.55,-5449.26
1216885.2901514843,-167907.77,-147960.94,-64073.45,-71354.414,-56382.246,-26588.908,-64050.785,-5460.449
1216885.29415148,-167901.73,-147955.28,-64065.227,-71347.336,-56380.293,-26587.484,-64046.105,-5455.404
1216885.2981514758,-167893.31,-147942.75,-64062.258,-71343.836,-56378.867,-26589.438,-64043.01,-5446.6147
1216885.3021514716,-167898.2,-147952.56,-64069.46,-71348.555,-56363.977,-26589.967,-64045.37,-5444.377
1216885.3061514674,-167897.67,-147955.38,-64066.938,-71352.3,-56394.695,-26586.63,-64042.81,-5442.1797
1216885.310151463,-167902.19,-147958.02,-64069.5,-71351.81,-56394.695,-26585.572,-64044.72,-5453.3286
1216885.3141514587,-167905.11,-147961.34,-64068.77,-71350.99,-56394.53,-26587.525,-64046.67,-5454.59
1216885.3181514544,-167897.67,-147955.08,-64067.547,-71347.49,-56385.176,-26589.6,-64046.184,-5453.7354
1216885.3221514502,-167899.02,-147951.75,-64074.465,-71352.375,-56390.06,-26586.875,-64046.47,-5453.6543
1216885.3261514457,-167907.56,-147957.73,-64078.94,-71356.24,-56391.24,-26588.867,-64051.555,-5455.526
1216885.3301514415,-167912.44,-147971.08,-64076.297,-71352.09,-56389.367,-26587.402,-64050.863,-5456.7466
1216885.3341514373,-167908.4,-147969.16,-64073.527,-71349.53,-56385.54,-26587.77,-64046.51,-5448.934
1216885.338151433,-167900.77,-147957.4,-64070.438,-71347.01,-56379.965,-26590.943,-64045.086,-5453.532
1216885.3421514286,-167897.67,-147956.9,-64073.164,-71348.88,-56383.3,-26592.53,-64049.074,-5458.2114
1216885.3461514243,-167907.88,-147968.31,-64079.266,-71354.695,-56392.297,-26590.373,-64050.336,-5451.538
1216885.35015142,-167909.19,-147967.12,-64076.664,-71350.55,-56391.195,-26588.176,-64046.31,-5442.383
1216885.3541514159,-167903.48,-147963.14,-64069.746,-71346.48,-56389.73,-26590.332,-64044.68,-5441.5283
1216885.3581514114,-167897.6,-147959.89,-64068.89,-71345.91,-56384.848,-26593.14,-64044.64,-5447.2656
1216885.3621514072,-167898.03,-147963.02,-64076.176,-71350.99,-56385.05,-26591.797,-64045.492,-5445.1094
1216885.366151403,-167904.14,-147966.39,-64082.316,-71357.14,-56372.56,-26589.193,-64048.625,-5449.382
1216885.3701513987,-167904.83,-147964.61,-64079.023,-71358.12,-56393.965,-26588.908,-64047.61,-5452.474
1216885.3741513945,-167904.14,-147964.81,-64074.953,-71355.67,-56394.004,-26591.96,-64043.95,-5442.505
1216885.37815139,-167904.1,-147962.89,-64071.94,-71353.234,-56386.152,-26594.28,-64043.824,-5438.3545
1216885.3821513858,-167899.42,-147957.61,-64075.074,-71352.42,-56385.297,-26593.832,-64048.098,-5443.6035
1216885.3861513815,-167904.42,-147967.3,-64081.18,-71357.055,-56383.75,-26593.467,-64048.832,-5436.361
1216885.3901513773,-167912.61,-147981.48,-64083.742,-71360.03,-56388.594,-26594.402,-64050.742,-5441.732
1216885.3941513728,-167915.69,-147985.92,-64081.465,-71355.67,-56387.656,-26597.047,-64052.125,-5449.504
1216885.3981513686,-167914.27,-147982.47,-64079.67,-71355.555,-56386.56,-26599.082,-64050.17,-5446.8184
1216885.4021513644,-167909.02,-147972.3,-64084.477,-71359.414,-56382.855,-26600.342,-64051.8,-5444.458
1216885.4061513601,-167912.72,-147976.56,-64087.566,-71363.41,-56393.68,-26598.105,-64051.68,-5437.8257
1216885.4101513557,-167917.23,-147976.94,-64083.336,-71360.805,-56392.297,-26597.697,-64055.3,-5454.6714
1216885.4141513514,-167909.42,-147969.33,-64078.004,-71355.836,-56383.098,-26601.4,-64057.902,-5453.8574
1216885.4181513472,-167900.31,-147964.97,-64080.0,-71354.25,-56377.89,-26605.877,-64063.4,-5455.6885
1216885.422151343,-167899.62,-147973.72,-64084.555,-71359.54,-56389.445,-26606.283,-64066.816,-5457.3164
1216885.4261513385,-167909.42,-147982.83,-64089.316,-71363.41,-56392.863,-26603.965,-64069.99,-5462.4023
1216885.4301513343,-167919.77,-147984.34,-64091.473,-71364.38,-56397.668,-26600.018,-64064.66,-5452.881
1216885.43415133,-167918.17,-147982.42,-64085.33,-71358.56,-56389.242,-26600.22,-64058.066,-5445.516
1216885.4381513258,-167912.69,-147979.98,-64083.133,-71357.99,-56386.395,-26601.441,-64056.926,-5448.568
1216885.4421513216,-167909.95,-147987.23,-64087.973,-71361.78,-56398.805,-26600.22,-64057.984,-5450.4395
1216885.446151317,-167910.53,-147991.05,-64088.383,-71361.086,-56393.68,-26597.129,-64057.293,-5444.906
1216885.4501513129,-167919.23,-147989.55,-64089.03,-71360.35,-56392.17,-26595.012,-64057.05,-5442.0166
1216885.4541513086,-167918.17,-147994.31,-64084.312,-71357.71,-56387.902,-26595.867,-64052.695,-5435.1807
1216885.4581513044,-167910.97,-147991.17,-64082.316,-71354.78,-56380.414,-26598.35,-64053.02,-5439.331
1216885.4621513,-167916.62,-147994.72,-64092.855,-71359.46,-56388.023,-26598.674,-64057.457,-5444.702
1216885.4661512957,-167924.28,-147999.67,-64099.125,-71364.71,-56394.168,-26597.82,-64060.957,-5445.394
1216885.4701512915,-167928.03,-148002.45,-64099.082,-71363.24,-56395.996,-26594.482,-64057.496,-5440.145
1216885.4741512872,-167927.1,-148008.47,-64092.938,-71358.73,-56382.57,-26594.605,-64055.83,-5444.1733
1216885.4781512828,-167922.61,-148009.4,-64089.438,-71358.28,-56373.17,-26597.738,-64056.805,-5445.801
1216885.4821512785,-167912.77,-147995.81,-64093.63,-71362.06,-56403.32,-26598.756,-64057.78,-5450.9277
1216885.4861512743,-167918.78,-147993.86,-64098.15,-71363.61,-56398.074,-26597.617,-64060.914,-5444.9873
1216885.49015127,-167928.11,-148006.11,-64100.832,-71364.625,-56395.67,-26595.297,-64062.625,-5452.5557
1216885.4941512656,-167928.34,-148010.95,-64098.555,-71360.92,-56391.074,-26597.535,-64063.52,-5460.449
1216885.4981512614,-167923.75,-148004.11,-64097.047,-71357.99,-56389.406,-26601.197,-64064.375,-5458.74
1216885.5021512571,-167922.12,-148006.03,-64099.406,-71363.484,-56394.004,-26600.953,-64065.676,-5462.728
1216885.506151253,-167924.53,-148009.56,-64101.2,-71367.92,-56400.15,-26596.111,-64063.64,-5461.1816
1216885.5101512487,-167924.97,-148004.72,-64098.797,-71361.62,-56393.35,-26593.262,-64061.85,-5458.0894
1216885.5141512442,-167920.98,-148001.88,-64091.066,-71354.125,-56374.066,-26593.914,-64058.84,-5454.2236
1216885.51815124,-167913.73,-147999.03,-64090.414,-71351.81,-56384.484,-26596.64,-64058.11,-5454.061
1216885.5221512357,-167909.11,-147992.06,-64094.934,-71356.445,-56396.934,-26596.314,-64054.65,-5446.6963
1216885.5261512315,-167915.73,-147997.11,-64100.26,-71362.23,-56395.55,-26595.176,-64056.156,-5443.6035
1216885.530151227,-167921.88,-148001.6,-64102.62,-71363.28,-56390.668,-26593.467,-64057.62,-5446.737
1216885.5341512228,-167916.75,-147994.39,-64101.77,-71358.6,-56384.93,-26596.844,-64056.234,-5444.906
1216885.5381512186,-167909.83,-147994.14,-64095.83,-71354.82,-56384.035,-26599.57,-64060.754,-5454.6714
1216885.5421512143,-167904.55,-147992.69,-64093.957,-71355.35,-56391.97,-26600.342,-64063.273,-5457.1943
1216885.5461512099,-167917.08,-147998.3,-64102.258,-71363.37,-56393.92,-26598.145,-64065.676,-5454.3457
1216885.5501512056,-167928.34,-148002.0,-64106.49,-71367.19,-56391.887,-26595.947,-64062.543,-5449.0156
1216885.5541512014,-167926.64,-147999.23,-64099.895,-71358.73,-56390.832,-26595.459,-64054.61,-5438.68
1216885.5581511972,-167919.72,-147994.44,-64096.03,-71356.484,-56394.816,-26597.453,-64050.17,-5430.2573
1216885.562151193,-167914.47,-147994.84,-64098.43,-71359.336,-56384.973,-26597.697,-64053.227,-5444.7837
1216885.5661511885,-167914.84,-148002.16,-64101.727,-71363.164,-56389.324,-26593.71,-64055.258,-5440.267
1216885.5701511842,-167917.2,-148006.31,-64103.355,-71363.77,-56390.547,-26592.367,-64054.242,-5433.9194
1216885.57415118,-167915.2,-148000.81,-64102.055,-71360.35,-56380.293,-26593.182,-64053.715,-5435.954
1216885.5781511758,-167909.39,-147993.4,-64093.67,-71358.52,-56367.637,-26596.111,-64056.074,-5440.918
1216885.5821511713,-167912.81,-147999.64,-64095.094,-71363.32,-56379.76,-26597.78,-64058.88,-5438.192
1216885.586151167,-167917.97,-148004.72,-64103.395,-71367.31,-56398.97,-26596.273,-64061.117,-5435.71
1216885.5901511628,-167918.75,-148006.56,-64104.496,-71365.73,-56397.79,-26592.246,-64057.293,-5432.5767
1216885.5941511586,-167907.8,-148008.02,-64095.95,-71355.72,-56388.227,-26594.605,-64055.87,-5424.5605
1216885.5981511541,-167895.34,-148006.88,-64091.96,-71354.33,-56386.477,-26598.47,-64058.8,-5441.2437
1216885.60215115,-167889.66,-148004.64,-64096.234,-71357.95,-56389.934,-26597.291,-64059.125,-5437.866
1216885.6061511457,-167900.77,-148008.52,-64101.566,-71362.63,-56385.906,-26595.256,-64059.164,-5429.24
1216885.6101511414,-167910.53,-148015.95,-64103.273,-71363.08,-56387.574,-26589.396,-64056.723,-5429.1587
1216885.614151137,-167907.39,-148007.89,-64097.496,-71358.56,-56387.414,-26590.658,-64055.22,-5432.414
1216885.6181511327,-167900.16,-148004.64,-64095.46,-71356.85,-56383.79,-26595.256,-64060.223,-5443.4814
1216885.6221511285,-167899.05,-148011.44,-64098.676,-71360.19,-56386.965,-26596.152,-64064.25,-5441.5283
1216885.6261511242,-167898.4,-148013.19,-64102.62,-71361.414,-56381.473,-26595.459,-64068.89,-5440.023
1216885.63015112,-167901.98,-148012.33,-64103.844,-71359.91,-56382.773,-26593.994,-64068.89,-5433.838
1216885.6341511155,-167901.45,-147998.38,-64103.844,-71355.555,-56374.39,-26594.523,-64066.285,-5431.722
1216885.6381511113,-167893.84,-147995.28,-64099.0,-71353.35,-56366.496,-26596.762,-64066.49,-5435.5063
1216885.642151107,-167888.97,-147996.5,-64099.895,-71357.016,-56368.98,-26597.535,-64068.363,-5436.198
1216885.6461511028,-167898.16,-148004.16,-64105.96,-71361.25,-56367.92,-26596.844,-64069.99,-5427.2056
1216885.6501510984,-167904.22,-148006.72,-64104.37,-71359.945,-56399.984,-26594.076,-64068.32,-5429.0366
1216885.6541510941,-167903.45,-148009.73,-64099.69,-71354.82,-56383.832,-26596.64,-64068.727,-5440.2266
1216885.65815109,-167896.08,-148001.8,-64101.44,-71352.54,-56375.207,-26599.285,-64065.715,-5427.124
1216885.6621510857,-167896.78,-148007.48,-64109.133,-71356.484,-56374.066,-26600.018,-64068.32,-5432.6987
1216885.6661510812,-167906.17,-148012.38,-64109.906,-71361.37,-56383.18,-26598.35,-64074.953,-5445.1094
1216885.670151077,-167915.33,-148021.08,-64111.492,-71361.53,-56382.12,-26594.809,-64074.953,-5444.5396
1216885.6741510727,-167917.2,-148023.97,-64107.547,-71359.336,-56380.58,-26594.402,-64069.95,-5437.378
1216885.6781510685,-167906.62,-148016.69,-64103.68,-71356.37,-56382.69,-26596.477,-64069.418,-5442.383
1216885.682151064,-167898.08,-148013.52,-64102.62,-71358.484,-56379.113,-26597.78,-64072.758,-5447.673
1216885.6861510598,-167898.16,-148020.27,-64103.56,-71358.28,-56383.63,-26593.791,-64071.293,-5434.652
1216885.6901510556,-167901.86,-148019.3,-64102.664,-71353.234,-56382.61,-26590.414,-64067.59,-5423.0957
1216885.6941510513,-167899.45,-148013.84,-64103.965,-71349.2,-56372.113,-26591.432,-64065.84,-5423.5435
1216885.698151047,-167896.0,-148015.39,-64101.24,-71350.586,-56363.69,-26593.588,-64066.69,-5427.938
1216885.7021510426,-167895.19,-148021.61,-64104.168,-71353.72,-56371.543,-26592.45,-64068.44,-5430.949
1216885.7061510384,-167902.8,-148030.08,-64110.477,-71357.586,-56376.547,-26590.332,-64070.19,-5431.5596
1216885.7101510342,-167911.14,-148028.56,-64112.55,-71356.24,-56377.85,-26586.955,-64066.043,-5419.5967
1216885.71415103,-167907.92,-148020.44,-64106.69,-71349.9,-56371.3,-26588.543,-64063.97,-5421.631
1216885.7181510255,-167899.05,-148019.9,-64099.45,-71348.266,-56356.164,-26594.158,-64068.484,-5435.3438
1216885.7221510212,-167893.97,-148017.05,-64108.32,-71351.52,-56388.43,-26593.873,-64068.402,-5435.3438
1216885.726151017,-167896.12,-148015.22,-64115.93,-71355.875,-56382.164,-26591.432,-64067.668,-5425.9443
1216885.7301510128,-167903.94,-148015.22,-64110.76,-71356.0,-56377.523,-26589.031,-64064.74,-5414.144
1216885.7341510083,-167903.33,-148012.58,-64105.676,-71352.5,-56369.63,-26589.967,-64061.73,-5407.6743
1216885.738151004,-167896.73,-148007.2,-64098.96,-71350.38,-56365.074,-26594.076,-64067.14,-5430.176
1216885.7421509998,-167892.22,-148003.38,-64101.77,-71350.34,-56365.805,-26596.396,-64071.496,-5439.25
1216885.7461509956,-167898.33,-148004.61,-64103.07,-71353.92,-56370.77,-26595.135,-64071.047,-5429.7285
1216885.7501509914,-167899.14,-148004.56,-64102.95,-71351.73,-56367.637,-26591.229,-64066.41,-5420.451
1216885.754150987,-167896.98,-148008.72,-64102.055,-71347.695,-56360.516,-26592.773,-64066.33,-5421.509
1216885.7581509827,-167894.94,-148007.94,-64104.777,-71347.86,-56362.47,-26595.988,-64068.605,-5428.6704
1216885.7621509784,-167893.44,-148009.08,-64110.273,-71355.63,-56371.3,-26596.762,-64073.367,-5436.7676
1216885.7661509742,-167897.27,-148012.83,-64113.445,-71358.195,-56370.28,-26596.965,-64076.418,-5435.466
1216885.7701509697,-167903.69,-148019.86,-64112.918,-71358.28,-56373.984,-26593.385,-64073.285,-5426.595
1216885.7741509655,-167899.7,-148016.2,-64109.133,-71354.125,-56376.465,-26593.629,-64072.758,-5426.107
1216885.7781509613,-167892.95,-148015.02,-64104.047,-71354.74,-56372.52,-26595.135,-64071.74,-5432.6987
1216885.782150957,-167897.39,-148020.6,-64109.254,-71360.27,-56374.39,-26594.076,-64072.55,-5434.123
1216885.7861509526,-167906.66,-148028.53,-64118.777,-71363.04,-56383.098,-26591.594,-64070.273,-5423.503
1216885.7901509483,-167908.38,-148026.33,-64118.086,-71362.76,-56385.46,-26589.6,-64069.34,-5424.8047
1216885.794150944,-167908.1,-148024.98,-64113.04,-71358.03,-56375.367,-26590.129,-64068.566,-5423.991
1216885.7981509399,-167903.81,-148022.88,-64110.477,-71352.945,-56377.688,-26592.57,-64070.273,-5427.3276
1216885.8021509354,-167893.44,-148018.69,-64112.59,-71353.6,-56380.617,-26595.5,-64071.21,-5417.2363
1216885.8061509312,-167895.75,-148016.23,-64116.293,-71356.98,-56379.07,-26593.547,-64073.652,-5416.423
1216885.810150927,-167901.78,-148017.05,-64113.203,-71357.18,-56378.01,-26589.6,-64074.586,-5423.625
1216885.8141509227,-167902.8,-148017.34,-64107.426,-71352.016,-56375.695,-26591.229,-64074.832,-5435.669
1216885.8181509185,-167900.77,-148020.31,-64108.848,-71352.42,-56369.1,-26592.082,-64073.246,-5433.065
1216885.822150914,-167901.33,-148019.86,-64116.254,-71354.33,-56355.227,-26591.594,-64074.547,-5427.409
1216885.8261509098,-167897.5,-148012.17,-64116.496,-71356.94,-56392.05,-26586.223,-64072.473,-5418.376
1216885.8301509055,-167902.84,-148015.5,-64115.156,-71356.2,-56378.83,-26585.979,-64074.383,-5427.694
1216885.8341509013,-167899.1,-148010.7,-64107.707,-71348.88,-56375.977,-26587.322,-64073.246,-5433.3906
1216885.8381508968,-167894.5,-148002.48,-64106.082,-71346.56,-56375.734,-26589.396,-64071.453,-5425.7
1216885.8421508926,-167892.98,-148001.47,-64106.812,-71353.31,-56372.234,-26593.059,-64075.688,-5426.3105
1216885.8461508884,-167899.66,-148010.47,-64113.406,-71354.984,-56371.094,-26594.076,-64079.754,-5423.869
1216885.8501508841,-167906.25,-148019.78,-64117.312,-71352.54,-56376.914,-26591.838,-64078.656,-5420.329
1216885.8541508797,-167903.12,-148017.66,-64114.465,-71348.516,-56366.824,-26591.879,-64073.652,-5417.44
1216885.8581508754,-167895.88,-148012.58,-64111.777,-71345.95,-56356.61,-26594.605,-64072.96,-5427.287
1216885.8621508712,-167895.19,-148012.73,-64115.684,-71348.96,-56361.33,-26594.809,-64073.203,-5423.6655
1216885.866150867,-167899.42,-148012.5,-64116.418,-71353.72,-56362.47,-26593.506,-64075.48,-5423.95
1216885.8701508625,-167902.44,-148012.7,-64118.492,-71353.48,-56372.723,-26594.035,-64080.69,-5428.752
1216885.8741508583,-167899.62,-148010.62,-64114.26,-71348.31,-56374.31,-26595.541,-64082.727,-5426.677
1216885.878150854,-167898.2,-148007.05,-64113.566,-71347.29,-56367.883,-26598.35,-64086.223,-5430.339
1216885.8821508498,-167896.81,-148004.11,-64116.254,-71348.35,-56369.793,-26599.121,-64087.895,-5436.239
1216885.8861508456,-167901.78,-148010.1,-64122.562,-71353.555,-56367.473,-26595.623,-64086.836,-5432.821
1216885.890150841,-167908.12,-148018.72,-64118.734,-71357.67,-56373.617,-26594.2,-64085.53,-5433.5127
1216885.8941508369,-167907.64,-148016.16,-64117.92,-71352.09,-56369.71,-26595.012,-64080.203,-5425.659
1216885.8981508326,-167900.48,-148011.97,-64116.945,-71350.18,-56367.637,-26598.553,-64080.57,-5430.1353
1216885.9021508284,-167900.84,-148016.23,-64119.508,-71352.91,-56366.09,-26599.773,-64082.645,-5432.536
1216885.906150824,-167903.12,-148014.89,-64124.92,-71357.26,-56367.555,-26596.885,-64081.137,-5428.06
1216885.9101508197,-167910.33,-148019.9,-64126.344,-71358.03,-56369.387,-26592.164,-64076.785,-5418.5386
1216885.9141508155,-167906.34,-148019.05,-64117.11,-71351.65,-56367.598,-26592.57,-64072.594,-5410.6445
1216885.9181508112,-167896.58,-148007.28,-64110.312,-71347.945,-56357.87,-26596.965,-64072.918,-5416.7075
1216885.9221508068,-167896.98,-148010.1,-64116.293,-71351.766,-56348.27,-26600.668,-64078.047,-5426.3105
1216885.9261508025,-167895.44,-148008.62,-64120.85,-71355.35,-56384.44,-26598.553,-64075.766,-5419.1895
1216885.9301507983,-167906.86,-148017.34,-64126.957,-71357.42,-56375.9,-26593.547,-64074.586,-5413.574
1216885.934150794,-167910.89,-148024.9,-64122.277,-71355.76,-56370.73,-26592.285,-64069.906,-5408.651
1216885.9381507896,-167895.75,-148010.06,-64111.37,-71348.31,-56369.062,-26595.703,-64069.133,-5413.452
1216885.9421507854,-167894.73,-148008.52,-64116.496,-71350.99,-56364.746,-26597.78,-64077.477,-5428.874
1216885.9461507811,-167901.45,-148016.33,-64126.02,-71355.1,-56366.457,-26599.61,-64084.19,-5427.7754
1216885.950150777,-167905.77,-148014.86,-64123.293,-71353.07,-56364.22,-26599.285,-64086.062,-5424.0317
1216885.9541507727,-167900.06,-148010.02,-64114.543,-71346.36,-56367.312,-26600.139,-64082.887,-5424.3164
1216885.9581507682,-167893.11,-148011.36,-64110.355,-71343.18,-56363.12,-26600.994,-64078.617,-5417.3994
1216885.962150764,-167895.03,-148015.83,-64117.35,-71349.65,-56364.746,-26601.562,-64077.56,-5410.848
1216885.9661507597,-167898.33,-148016.77,-64124.676,-71353.805,-56369.14,-26597.453,-64075.36,-5406.4536
1216885.9701507555,-167909.34,-148025.89,-64128.582,-71355.51,-56354.047,-26594.158,-64075.766,-5407.5522
1216885.974150751,-167909.22,-148027.75,-64120.16,-71350.75,-56356.082,-26595.785,-64078.41,-5418.132
1216885.9781507468,-167894.33,-148016.0,-64115.684,-71348.19,-56371.707,-26598.064,-64078.453,-5428.6704
1216885.9821507426,-167890.47,-148013.97,-64119.145,-71351.08,-56366.17,-26600.912,-64080.934,-5426.2695
1216885.9861507383,-167894.05,-148010.3,-64125.043,-71351.56,-56364.055,-26599.365,-64081.707,-5419.8
1216885.9901507339,-167902.75,-148012.25,-64125.285,-71353.11,-56365.03,-26595.908,-64080.285,-5418.7827
1216885.9941507296,-167904.7,-148017.75,-64121.137,-71351.36,-56366.133,-26596.559,-64080.324,-5422.0786
1216885.9981507254,-167898.61,-148012.05,-64122.113,-71352.22,-56360.312,-26599.365,-64079.797,-5423.747
1216886.0021507211,-167898.23,-148007.58,-64128.867,-71353.03,-56360.76,-26600.424,-64082.562,-5427.7344
1216886.006150717,-167904.7,-148009.61,-64131.473,-71356.85,-56372.316,-26599.773,-64086.67,-5429.525
1216886.0101507124,-167907.39,-148016.28,-64130.496,-71356.85,-56368.45,-26596.111,-64081.668,-5417.9688
1216886.0141507082,-167905.64,-148024.02,-64124.88,-71354.17,-56365.766,-26595.541,-64076.742,-5405.6396
1216886.018150704,-167902.02,-148020.8,-64126.14,-71353.48,-56372.926,-26600.709,-64082.887,-5420.9395
1216886.0221506997,-167902.67,-148014.45,-64129.19,-71355.02,-56369.59,-26601.523,-64086.184,-5423.34
1216886.0261506953,-167908.4,-148015.83,-64136.11,-71357.14,-56375.977,-26597.78,-64087.2,-5423.869
1216886.030150691,-167912.61,-148021.53,-64137.617,-71356.484,-56375.49,-26595.135,-64085.613,-5416.911
1216886.0341506868,-167906.02,-148019.25,-64131.633,-71352.5,-56368.695,-26595.785,-64079.715,-5408.9355
1216886.0381506826,-167887.83,-148003.9,-64120.65,-71346.93,-56365.316,-26600.018,-64077.23,-5412.0283
1216886.042150678,-167879.28,-148001.55,-64122.316,-71348.516,-56366.945,-26603.027,-64078.86,-5414.2256
1216886.0461506739,-167885.98,-148007.25,-64127.523,-71351.24,-56369.67,-26603.436,-64079.55,-5410.97
1216886.0501506696,-167890.3,-148008.83,-64127.445,-71352.79,-56374.434,-26602.012,-64074.3,-5403.28
1216886.0541506654,-167887.25,-148000.86,-64121.543,-71348.88,-56363.49,-26602.256,-64072.918,-5406.006
1216886.058150661,-167877.48,-147995.69,-64113.812,-71346.31,-56362.55,-26603.8,-64064.82,-5398.6006
1216886.0621506567,-167872.61,-147993.17,-64118.53,-71348.23,-56356.855,-26606.812,-64061.65,-5385.7017
1216886.0661506525,-167875.17,-147998.17,-64122.723,-71353.4,-56366.7,-26604.98,-64056.723,-5374.756
1216886.0701506482,-167872.23,-147996.27,-64118.29,-71349.445,-56363.0,-26601.807,-64052.74,-5383.2603
1216886.074150644,-167865.48,-147984.05,-64107.79,-71341.8,-56357.098,-26600.424,-64043.418,-5374.634
1216886.0781506395,-167864.19,-147983.03,-64107.87,-71339.73,-56350.508,-26600.465,-64041.668,-5385.62
1216886.0821506353,-167862.44,-147979.1,-64109.254,-71340.414,-56348.758,-26602.621,-64050.254,-5409.5054
1216886.086150631,-167876.31,-147987.72,-64117.598,-71349.0,-56357.06,-26602.865,-64054.28,-5399.6177
1216886.0901506268,-167888.27,-148001.14,-64120.363,-71353.84,-56360.434,-26599.691,-64056.562,-5409.2207
1216886.0941506224,-167895.84,-148012.78,-64123.17,-71353.92,-56360.637,-26597.738,-64056.03,-5415.5684
1216886.0981506181,-167888.6,-148010.1,-64117.27,-71350.47,-56352.418,-26597.78,-64051.273,-5413.9
1216886.102150614,-167891.56,-148016.69,-64125.082,-71350.38,-56346.07,-26597.535,-64052.777,-5416.911
1216886.1061506097,-167893.6,-148019.25,-64127.445,-71353.4,-56381.96,-26594.443,-64052.29,-5411.255
1216886.1101506052,-167898.77,-148017.02,-64129.355,-71354.17,-56383.832,-26591.838,-64051.883,-5409.668
1216886.114150601,-167906.83,-148023.97,-64126.344,-71354.74,-56376.63,-26591.838,-64049.848,-5406.3315
1216886.1181505967,-167901.73,-148026.7,-64126.14,-71351.484,-56370.117,-26591.309,-64046.594,-5406.3315
1216886.1221505925,-167894.83,-148026.4,-64127.16,-71351.97,-56367.395,-26592.082,-64048.344,-5412.313
1216886.126150588,-167904.27,-148033.7,-64133.383,-71358.12,-56372.805,-26589.316,-64048.137,-5408.366
1216886.1301505838,-167910.81,-148036.55,-64136.234,-71361.37,-56376.914,-26585.45,-64045.74,-5404.907
1216886.1341505796,-167916.52,-148036.75,-64135.62,-71358.97,-56374.555,-26585.531,-64048.22,-5407.6743
1216886.1381505753,-167926.36,-148046.95,-64137.74,-71357.26,-56368.652,-26587.77,-64050.945,-5414.1035
1216886.142150571,-167921.52,-148041.6,-64139.324,-71358.484,-56369.59,-26588.99,-64049.848,-5403.2393
1216886.1461505666,-167923.14,-148041.1,-64144.613,-71360.6,-56369.062,-26588.95,-64052.9,-5414.3066
1216886.1501505624,-167923.62,-148043.1,-64144.047,-71358.28,-56368.41,-26586.549,-64049.113,-5409.9937
1216886.1541505582,-167920.78,-148041.88,-64139.773,-71353.31,-56363.08,-26586.996,-64042.562,-5392.7
1216886.158150554,-167909.19,-148029.75,-64133.465,-71350.14,-56367.11,-26587.77,-64041.63,-5399.292
1216886.1621505495,-167900.56,-148020.55,-64131.31,-71351.195,-56363.812,-26589.885,-64048.75,-5420.2476
1216886.1661505452,-167910.28,-148029.27,-64137.414,-71357.46,-56367.23,-26588.787,-64045.695,-5399.17
1216886.170150541,-167920.7,-148037.48,-64139.69,-71357.26,-56371.22,-26585.246,-64042.24,-5392.9443
1216886.1741505368,-167921.27,-148031.22,-64133.668,-71353.84,-56365.234,-26585.41,-64042.156,-5405.925
1216886.1781505323,-167914.19,-148030.77,-64128.99,-71351.08,-56354.13,-26589.111,-64042.035,-5409.017
1216886.182150528,-167917.61,-148035.56,-64131.96,-71353.234,-56361.37,-26589.152,-64041.87,-5407.5117
1216886.1861505238,-167923.95,-148036.02,-64137.21,-71356.94,-56364.3,-26586.59,-64044.76,-5415.8936
1216886.1901505196,-167916.34,-148024.98,-64130.293,-71353.27,-56357.18,-26583.416,-64039.43,-5403.5645
1216886.1941505151,-167913.9,-148026.78,-64126.71,-71349.57,-56351.28,-26584.27,-64037.64,-5402.4253
1216886.198150511,-167916.55,-148038.22,-64124.72,-71350.016,-56360.434,-26585.37,-64033.816,-5399.8213
1216886.2021505067,-167911.67,-148033.58,-64127.08,-71350.71,-56364.3,-26587.973,-64035.65,-5395.752
1216886.2061505024,-167914.67,-148033.2,-64135.094,-71353.4,-56362.47,-26587.89,-64036.215,-5390.9507
1216886.2101504982,-167921.72,-148041.02,-64139.73,-71353.44,-56354.86,-26586.02,-64035.484,-5387.2886
1216886.2141504937,-167919.6,-148039.11,-64133.75,-71349.33,-56328.207,-26586.549,-64033.45,-5386.5156
1216886.2181504895,-167911.22,-148030.92,-64130.09,-71348.76,-56363.61,-26587.77,-64030.926,-5387.655
1216886.2221504853,-167906.5,-148026.78,-64133.668,-71349.24,-56379.113,-26588.299,-64029.707,-5379.5576
1216886.226150481,-167914.56,-148035.73,-64139.977,-71352.016,-56368.777,-26588.46,-64035.605,-5382.528
1216886.2301504766,-167923.27,-148043.62,-64142.824,-71354.66,-56369.875,-26585.531,-64036.95,-5386.434
1216886.2341504723,-167927.05,-148049.56,-64141.48,-71353.64,-56369.266,-26585.531,-64036.418,-5388.835
1216886.238150468,-167918.5,-148041.52,-64138.836,-71351.56,-56364.83,-26587.77,-64037.723,-5401.9775
1216886.2421504639,-167913.05,-148033.28,-64141.32,-71353.03,-56367.516,-26591.717,-64038.984,-5401.7744
1216886.2461504594,-167915.81,-148035.56,-64146.85,-71355.836,-56373.09,-26592.57,-64044.965,-5400.35
1216886.2501504552,-167926.36,-148046.95,-64152.387,-71358.89,-56374.15,-26590.781,-64043.46,-5395.0605
1216886.254150451,-167931.28,-148049.36,-64151.125,-71358.766,-56373.254,-26592.57,-64041.79,-5394.613
1216886.2581504467,-167925.67,-148044.56,-64146.203,-71354.49,-56370.934,-26597.373,-64045.535,-5407.3896
1216886.2621504425,-167917.16,-148035.56,-64145.266,-71352.79,-56356.406,-26598.959,-64052.613,-5418.376
1216886.266150438,-167919.31,-148037.44,-64151.37,-71354.414,-56363.895,-26596.436,-64053.55,-5406.372
1216886.2701504338,-167922.69,-148036.06,-64149.824,-71351.97,-56367.555,-26594.482,-64050.58,-5394.9385
1216886.2741504295,-167922.94,-148042.44,-64146.16,-71349.2,-56369.71,-26593.14,-64048.953,-5410.075
1216886.2781504253,-167919.89,-148049.61,-64144.168,-71348.23,-56370.934,-26594.076,-64048.79,-5425.7407
1216886.2821504208,-167921.52,-148046.95,-64145.59,-71349.125,-56375.49,-26593.588,-64048.26,-5418.335
1216886.2861504166,-167929.66,-148057.7,-64150.555,-71356.57,-56373.945,-26592.693,-64051.066,-5416.301
1216886.2901504124,-167938.61,-148061.45,-64153.89,-71364.46,-56375.773,-26591.309,-64051.76,-5412.3945
1216886.2941504081,-167937.88,-148055.7,-64153.28,-71368.086,-56375.246,-26592.246,-64050.945,-5406.5757
1216886.2981504037,-167930.22,-148054.0,-64146.934,-71364.79,-56368.652,-26597.291,-64052.9,-5417.6436
1216886.3021503994,-167925.1,-148053.34,-64145.59,-71365.93,-56368.246,-26600.709,-64054.445,-5414.8765
1216886.3061503952,-167925.78,-148054.28,-64147.42,-71371.18,-56376.59,-26597.861,-64050.99,-5398.4785
1216886.310150391,-167927.4,-148058.23,-64145.266,-71371.91,-56377.93,-26597.535,-64055.746,-5407.4707
1216886.3141503865,-167929.28,-148063.36,-64143.965,-71369.266,-56373.984,-26595.338,-64052.207,-5400.0244
1216886.3181503823,-167926.23,-148063.2,-64139.977,-71367.27,-56370.73,-26594.809,-64047.895,-5396.159
1216886.322150378,-167918.38,-148053.14,-64140.707,-71369.39,-56364.055,-26595.785,-64051.35,-5401.8965
1216886.3261503738,-167921.6,-148051.03,-64147.79,-71372.56,-56364.3,-26594.482,-64050.703,-5395.0605
1216886.3301503696,-167924.28,-148054.0,-64148.316,-71370.98,-56361.047,-26592.246,-64049.32,-5392.0493
1216886.334150365,-167917.97,-148049.36,-64143.965,-71366.945,-56363.977,-26592.49,-64048.18,-5390.0557
1216886.3381503609,-167909.8,-148040.38,-64141.24,-71365.44,-56358.156,-26593.588,-64052.207,-5381.755
1216886.3421503566,-167902.67,-148034.11,-64144.047,-71366.5,-56363.49,-26594.646,-64061.32,-5384.6436
1216886.3461503524,-167906.25,-148043.5,-64147.625,-71368.57,-56363.65,-26595.094,-64067.953,-5385.62
1216886.350150348,-167907.19,-148041.22,-64146.977,-71366.82,-56359.01,-26592.49,-64067.832,-5378.988
1216886.3541503437,-167905.64,-148040.05,-64150.35,-71364.34,-56363.977,-26593.059,-64069.34,-5385.2134
1216886.3581503395,-167900.89,-148035.16,-64142.336,-71364.09,-56362.793,-26594.688,-64067.875,-5390.9507
1216886.3621503352,-167897.22,-148034.52,-64139.69,-71366.21,-56366.824,-26595.703,-64067.465,-5383.7485
1216886.3661503308,-167897.47,-148037.48,-64145.918,-71366.05,-56361.453,-26594.646,-64068.484,-5387.5327
1216886.3701503265,-167904.95,-148047.12,-64139.12,-71366.54,-56352.906,-26593.506,-64068.035,-5377.8076
1216886.3741503223,-167910.33,-148048.39,-64136.56,-71365.805,-56351.562,-26595.256,-64069.094,-5368.6934
1216886.378150318,-167904.88,-148043.3,-64139.69,-71359.414,-56338.176,-26596.885,-64067.1,-5381.6733
1216886.3821503136,-167897.6,-148033.2,-64138.594,-71359.5,-56365.805,-26595.582,-64062.95,-5375.0815
1216886.3861503094,-167899.55,-148041.06,-64144.656,-71363.77,-56359.703,-26594.076,-64062.992,-5373.983
1216886.3901503051,-167903.08,-148042.89,-64142.703,-71364.71,-56356.49,-26591.676,-64062.176,-5375.6514
1216886.3941503009,-167898.84,-148039.03,-64134.973,-71360.15,-56354.37,-26590.496,-64059.29,-5375.041
1216886.3981502966,-167890.95,-148024.62,-64134.117,-71354.25,-56353.516,-26593.873,-64058.758,-5380.0864
1216886.4021502922,-167891.77,-148026.38,-64139.895,-71358.03,-56356.49,-26597.373,-64063.355,-5376.872
1216886.406150288,-167900.97,-148034.72,-64144.86,-71365.97,-56360.637,-26596.559,-64065.15,-5376.831
1216886.4101502837,-167901.73,-148034.75,-64141.93,-71365.36,-56354.74,-26591.676,-64058.516,-5368.5303
1216886.4141502795,-167902.27,-148039.84,-64139.445,-71364.625,-56356.242,-26590.455,-64054.973,-5362.9966
1216886.418150275,-167894.98,-148038.02,-64137.004,-71362.39,-56354.94,-26593.14,-64055.992,-5371.46
1216886.4221502708,-167887.66,-148025.64,-64140.707,-71362.59,-56355.676,-26595.176,-64060.02,-5377.1973
1216886.4261502665,-167893.39,-148024.86,-64149.7,-71366.05,-56352.215,-26595.297,-64062.543,-5369.995
1216886.4301502623,-167901.05,-148032.67,-64154.22,-71369.47,-56358.562,-26592.979,-64064.78,-5376.2617
1216886.4341502578,-167897.02,-148026.33,-64146.242,-71365.4,-56355.797,-26590.82,-64058.84,-5370.3613
1216886.4381502536,-167897.7,-148033.94,-64143.15,-71362.836,-56341.797,-26593.467,-64058.39,-5366.8623
1216886.4421502494,-167894.17,-148031.66,-64145.1,-71363.12,-56351.688,-26594.809,-64059.938,-5365.804
1216886.4461502451,-167898.69,-148032.44,-64148.645,-71367.07,-56371.22,-26592.855,-64060.754,-5372.6807
1216886.4501502407,-167900.28,-148037.81,-64149.742,-71366.664,-56361.98,-26588.908,-64054.406,-5364.3394
1216886.4541502364,-167900.28,-148035.97,-64145.55,-71364.34,-56353.07,-26587.363,-64050.66,-5363.851
1216886.4581502322,-167895.8,-148028.66,-64143.23,-71360.516,-56352.785,-26590.82,-64051.72,-5362.834
1216886.462150228,-167896.08,-148034.72,-64146.28,-71363.81,-56352.664,-26593.71,-64054.12,-5357.91
1216886.4661502237,-167903.56,-148043.75,-64153.08,-71368.05,-56359.133,-26593.303,-64058.027,-5369.751
1216886.4701502193,-167908.66,-148049.89,-64152.836,-71367.02,-56340.293,-26592.652,-64059.492,-5373.983
1216886.474150215,-167903.81,-148040.94,-64148.234,-71363.0,-56363.445,-26590.7,-64054.324,-5370.158
1216886.4781502108,-167896.94,-148039.88,-64149.906,-71362.43,-56359.375,-26592.285,-64053.836,-5382.5684
1216886.4821502066,-167894.42,-148041.27,-64149.336,-71366.25,-56359.094,-26595.053,-64055.055,-5376.831
1216886.486150202,-167903.0,-148044.08,-64152.67,-71371.34,-56364.586,-26591.838,-64053.836,-5374.5117
1216886.4901501979,-167907.8,-148046.75,-64151.574,-71371.18,-56365.277,-26587.158,-64050.375,-5371.1753
1216886.4941501936,-167906.58,-148047.0,-64147.83,-71370.2,-56358.93,-26586.67,-64048.098,-5368.0015
1216886.4981501894,-167902.92,-148047.45,-64145.387,-71366.414,-56355.715,-26587.852,-64047.57,-5373.169
1216886.502150185,-167896.48,-148044.84,-64145.55,-71363.98,-56360.19,-26588.584,-64050.297,-5371.867
1216886.5061501807,-167896.33,-148045.25,-64152.305,-71367.88,-56352.824,-26587.89,-64052.41,-5373.413
1216886.5101501765,-167899.14,-148040.89,-64155.4,-71371.5,-56357.953,-26586.793,-64051.066,-5369.1
1216886.5141501722,-167899.42,-148033.4,-64153.2,-71366.05,-56352.38,-26586.387,-64048.625,-5363.851
1216886.518150168,-167897.75,-148034.42,-64153.812,-71362.875,-56348.633,-26589.396,-64049.93,-5373.861
1216886.5221501635,-167899.83,-148039.06,-64153.688,-71366.7,-56348.633,-26590.617,-64050.133,-5365.6416
1216886.5261501593,-167895.95,-148039.52,-64153.65,-71369.18,-56351.2,-26589.234,-64052.613,-5362.7524
1216886.530150155,-167895.03,-148038.9,-64155.766,-71369.95,-56357.668,-26586.752,-64050.5,-5362.5083
1216886.5341501508,-167897.3,-148036.7,-64149.21,-71365.484,-56352.582,-26587.078,-64049.93,-5361.003
1216886.5381501464,-167891.33,-148034.75,-64145.633,-71361.414,-56347.82,-26588.664,-64049.523,-5361.7354
1216886.5421501421,-167883.75,-148023.97,-64145.305,-71360.15,-56346.887,-26589.967,-64049.32,-5358.724
1216886.546150138,-167887.42,-148025.47,-64146.242,-71362.67,-56323.203,-26590.82,-64053.996,-5363.8105
1216886.5501501337,-167888.23,-148025.89,-64146.363,-71364.38,-56341.92,-26588.623,-64051.965,-5364.421
1216886.5541501292,-167886.61,-148023.48,-64143.68,-71362.67,-56354.414,-26586.305,-64041.953,-5344.6045
1216886.558150125,-167885.78,-148024.58,-64141.887,-71359.58,-56342.938,-26588.014,-64039.715,-5339.5186
1216886.5621501207,-167887.05,-148029.9,-64146.203,-71360.92,-56344.77,-26588.502,-64041.71,-5343.4653
1216886.5661501165,-167883.06,-148025.6,-64149.418,-71361.53,-56332.113,-26587.932,-64045.94,-5356.1606
1216886.570150112,-167891.94,-148032.27,-64154.22,-71363.41,-56339.887,-26585.002,-64046.105,-5351.4404
1216886.5741501078,-167897.19,-148031.58,-64150.27,-71362.8,-56343.02,-26584.799,-64045.695,-5350.586
1216886.5781501036,-167892.38,-148023.94,-64142.62,-71360.48,-56345.094,-26587.852,-64050.336,-5360.555
1216886.5821500993,-167886.16,-148023.64,-64145.1,-71361.94,-56351.2,-26589.234,-64050.945,-5358.2764
1216886.586150095,-167888.8,-148025.19,-64146.406,-71365.16,-56347.375,-26587.484,-64050.17,-5350.993
1216886.5901500906,-167891.28,-148023.52,-64150.883,-71364.51,-56343.63,-26584.434,-64043.906,-5344.116
1216886.5941500864,-167895.52,-148023.4,-64157.555,-71359.78,-56343.06,-26580.078,-64037.273,-5339.2744
1216886.5981500822,-167891.81,-148014.38,-64153.73,-71358.52,-56338.992,-26581.625,-64033.0,-5333.415
1216886.602150078,-167888.47,-148015.22,-64146.934,-71358.4,-56340.21,-26581.707,-64035.16,-5327.23
1216886.6061500735,-167895.11,-148022.83,-64151.125,-71364.99,-56348.43,-26583.049,-64041.06,-5337.2803
1216886.6101500692,-167905.31,-148033.2,-64157.88,-71367.76,-56351.484,-26583.416,-64046.348,-5346.151
1216886.614150065,-167900.92,-148032.67,-64154.3,-71362.76,-56348.51,-26582.805,-64043.906,-5343.5874
1216886.6181500608,-167892.9,-148027.88,-64151.45,-71359.625,-56345.785,-26583.822,-64041.547,-5347.0054
1216886.6221500563,-167886.44,-148019.38,-64151.652,-71362.19,-56344.77,-26584.107,-64041.586,-5342.285
1216886.626150052,-167883.19,-148010.3,-64151.86,-71361.33,-56340.09,-26583.62,-64046.715,-5345.1743
1216886.6301500478,-167887.58,-148021.28,-64152.305,-71362.23,-56345.215,-26580.893,-64045.617,-5341.838
1216886.6341500436,-167892.05,-148030.84,-64149.133,-71362.914,-56342.45,-26580.12,-64042.36,-5338.501
1216886.6381500391,-167886.89,-148023.81,-64145.145,-71362.8,-56324.992,-26582.44,-64041.18,-5344.116
1216886.642150035,-167889.05,-148023.84,-64152.508,-71363.77,-56338.83,-26583.334,-64043.664,-5341.675
1216886.6461500307,-167888.72,-148021.56,-64155.277,-71365.12,-56352.785,-26580.486,-64041.914,-5334.88
1216886.6501500264,-167889.58,-148027.14,-64155.887,-71366.01,-56347.58,-26579.143,-64041.344,-5330.648
1216886.6541500222,-167885.83,-148022.83,-64151.574,-71363.32,-56339.6,-26579.021,-64042.117,-5339.7217
1216886.6581500177,-167877.33,-148016.23,-64145.793,-71360.234,-56333.703,-26580.934,-64041.02,-5347.0054
1216886.6621500135,-167871.27,-148014.89,-64145.51,-71358.93,-56323.812,-26582.928,-64041.914,-5345.337
1216886.6661500093,-167872.52,-148014.89,-64150.395,-71363.28,-56329.51,-26581.055,-64038.168,-5332.1943
1216886.670150005,-167880.12,-148029.02,-64152.793,-71364.87,-56333.215,-26578.004,-64036.543,-5329.5493
1216886.6741500006,-167885.75,-148033.4,-64152.836,-71363.28,-56335.125,-26576.904,-64036.01,-5324.5444
1216886.6781499963,-167880.83,-148026.58,-64147.83,-71360.234,-56338.016,-26579.266,-64034.59,-5316.04
1216886.682149992,-167878.17,-148026.81,-64149.17,-71361.984,-56338.055,-26583.375,-64042.402,-5328.6543
1216886.6861499879,-167879.16,-148028.12,-64152.02,-71364.71,-56335.33,-26584.27,-64046.39,-5335.5713
1216886.6901499834,-167876.42,-148024.45,-64154.42,-71362.59,-56335.938,-26583.375,-64045.94,-5340.8613
1216886.6941499792,-167875.61,-148021.4,-64150.35,-71360.555,-56323.977,-26582.725,-64042.645,-5341.146
1216886.698149975,-167868.94,-148015.75,-64139.61,-71358.44,-56325.766,-26582.846,-64038.617,-5336.0596
1216886.7021499707,-167861.45,-148011.64,-64143.84,-71357.51,-56326.66,-26582.44,-64038.984,-5332.1943
1216886.7061499662,-167863.86,-148012.12,-64151.9,-71362.14,-56328.94,-26580.852,-64041.383,-5329.753
1216886.710149962,-167873.83,-148012.53,-64152.55,-71364.914,-56331.137,-26579.754,-64043.133,-5330.648
1216886.7141499578,-167875.9,-148014.38,-64147.87,-71363.81,-56325.32,-26576.783,-64040.61,-5324.707
1216886.7181499535,-167874.16,-148016.84,-64144.777,-71361.53,-56326.38,-26577.475,-64042.277,-5332.235
1216886.7221499493,-167872.48,-148015.95,-64149.254,-71361.734,-56324.75,-26581.87,-64050.66,-5348.1445
1216886.7261499448,-167872.64,-148020.64,-64155.844,-71364.22,-56330.363,-26582.398,-64051.72,-5348.2666
1216886.7301499406,-167880.86,-148033.28,-64159.71,-71366.62,-56318.93,-26580.445,-64050.133,-5338.176
1216886.7341499364,-167876.84,-148026.5,-64151.043,-71361.695,-56346.64,-26578.248,-64045.414,-5330.3223
1216886.7381499321,-167876.19,-148025.23,-64150.23,-71357.71,-56327.07,-26582.969,-64047.445,-5341.4307
1216886.7421499277,-167872.77,-148024.14,-64150.758,-71359.78,-56326.254,-26585.572,-64046.918,-5341.5527
1216886.7461499234,-167873.78,-148022.62,-64152.996,-71359.414,-56326.38,-26584.596,-64045.047,-5337.7686
1216886.7501499192,-167875.33,-148025.56,-64153.117,-71361.695,-56330.445,-26582.887,-64043.336,-5332.5605
1216886.754149915,-167877.81,-148022.55,-64152.67,-71358.85,-56331.26,-26581.625,-64040.49,-5324.2188
1216886.7581499105,-167874.52,-148017.66,-64149.7,-71354.74,-56325.24,-26583.537,-64037.03,-5318.6445
1216886.7621499063,-167870.25,-148018.16,-64151.33,-71356.04,-56330.773,-26586.223,-64038.74,-5325.277
1216886.766149902,-167868.78,-148015.8,-64154.137,-71359.375,-56326.99,-26585.084,-64039.758,-5323.7305
1216886.7701498978,-167876.31,-148024.34,-64156.17,-71363.81,-56334.15,-26583.416,-64041.02,-5321.533
1216886.7741498936,-167884.77,-148031.1,-64155.64,-71359.74,-56327.68,-26583.822,-64045.086,-5325.1143
1216886.778149889,-167878.7,-148015.75,-64149.375,-71356.65,-56328.574,-26584.88,-64047.406,-5339.6406
1216886.7821498848,-167872.16,-148014.53,-64148.766,-71356.695,-56330.812,-26585.043,-64045.047,-5335.49
1216886.7861498806,-167871.8,-148018.28,-64156.047,-71360.516,-56332.562,-26585.898,-64046.55,-5325.9688
1216886.7901498764,-167873.9,-148018.36,-64155.97,-71359.26,-56331.75,-26584.514,-64047.367,-5327.23
1216886.794149872,-167876.84,-148014.38,-64154.137,-71357.71,-56329.31,-26583.66,-64046.797,-5324.992
1216886.7981498677,-167874.11,-148009.4,-64153.812,-71353.805,-56330.895,-26586.264,-64050.457,-5336.589
1216886.8021498634,-167872.48,-148011.08,-64151.86,-71353.72,-56325.848,-26590.74,-64058.758,-5346.802
1216886.8061498592,-167871.42,-148017.55,-64151.492,-71356.734,-56322.39,-26590.17,-64062.543,-5348.9585
1216886.8101498547,-167875.2,-148019.98,-64152.793,-71356.24,-56320.438,-26585.572,-64061.16,-5347.534
1216886.8141498505,-167878.06,-148015.95,-64153.484,-71356.164,-56325.035,-26582.236,-64054.28,-5334.554
1216886.8181498463,-167874.27,-148015.6,-64152.508,-71355.47,-56300.54,-26585.287,-64052.168,-5330.77
1216886.822149842,-167869.72,-148012.25,-64155.52,-71356.04,-56320.56,-26587.443,-64053.918,-5335.124
1216886.8261498376,-167869.14,-148005.53,-64156.984,-71356.57,-56321.74,-26585.084,-64051.76,-5333.293
1216886.8301498333,-167870.28,-148004.4,-64155.234,-71354.74,-56319.746,-26582.602,-64050.17,-5337.3213
1216886.834149829,-167874.8,-148014.38,-64157.35,-71354.45,-56317.793,-26582.52,-64052.086,-5342.855
1216886.8381498249,-167872.11,-148012.1,-64157.84,-71354.05,-56315.797,-26584.025,-64051.15,-5336.1816
1216886.8421498206,-167872.97,-148011.8,-64161.055,-71357.625,-56322.594,-26582.928,-64046.957,-5324.87
1216886.8461498162,-167872.2,-148004.97,-64164.836,-71357.625,-56318.89,-26581.91,-64050.254,-5342.5703
1216886.850149812,-167873.55,-148004.92,-64165.082,-71356.734,-56314.17,-26578.451,-64049.48,-5335.653
1216886.8541498077,-167877.28,-148008.72,-64160.035,-71355.35,-56312.867,-26575.684,-64045.902,-5325.155
1216886.8581498035,-167873.22,-148008.88,-64153.605,-71351.195,-56314.58,-26577.637,-64044.64,-5328.003
1216886.862149799,-167865.44,-148011.44,-64152.67,-71350.75,-56315.676,-26581.584,-64049.32,-5328.166
1216886.8661497948,-167868.7,-148018.08,-64158.246,-71355.875,-56320.477,-26583.09,-64055.055,-5335.246
1216886.8701497905,-167875.66,-148022.02,-64162.477,-71359.13,-56323.652,-26580.934,-64054.73,-5339.966
1216886.8741497863,-167877.25,-148022.95,-64160.035,-71358.234,-56323.04,-26579.672,-64053.348,-5345.337
1216886.8781497818,-167866.86,-148012.33,-64156.82,-71353.03,-56320.56,-26582.072,-64049.6,-5338.379
1216886.8821497776,-167870.36,-148016.2,-64164.676,-71355.47,-56319.824,-26585.37,-64052.9,-5341.1055
1216886.8861497734,-167872.89,-148021.25,-64170.574,-71358.484,-56324.098,-26586.63,-64056.074,-5343.4653
1216886.8901497691,-167876.02,-148028.0,-64171.47,-71360.555,-56327.637,-26583.945,-64052.043,-5329.468
1216886.8941497647,-167883.14,-148035.03,-64171.43,-71359.625,-56328.37,-26581.828,-64048.383,-5319.0513
1216886.8981497604,-167880.5,-148033.38,-64168.5,-71355.39,-56327.19,-26583.334,-64049.156,-5336.263
1216886.9021497562,-167873.98,-148023.97,-64166.344,-71355.43,-56324.75,-26586.02,-64053.43,-5346.2324
1216886.906149752,-167861.7,-148011.16,-64161.418,-71356.04,-56314.453,-26587.607,-64056.723,-5341.797
1216886.9101497477,-167870.98,-148026.4,-64165.977,-71359.5,-56327.965,-26583.74,-64054.28,-5329.834
1216886.9141497433,-167880.12,-148034.22,-64171.633,-71361.53,-56345.625,-26580.445,-64051.883,-5332.3975
1216886.918149739,-167867.39,-148018.36,-64165.203,-71357.51,-56329.633,-26582.275,-64050.05,-5327.5146
1216886.9221497348,-167864.6,-148020.72,-64161.094,-71355.555,-56328.125,-26582.195,-64047.406,-5315.715
1216886.9261497306,-167860.97,-148023.16,-64164.797,-71356.08,-56326.01,-26583.293,-64052.125,-5340.6577
1216886.930149726,-167858.84,-148014.53,-64166.508,-71355.63,-56322.715,-26580.078,-64047.082,-5331.462
1216886.9341497219,-167862.03,-148016.2,-64163.168,-71355.19,-56320.883,-26578.37,-64037.844,-5315.4297
1216886.9381497176,-167857.52,-148014.0,-64156.254,-71353.35,-56318.32,-26579.51,-64030.887,-5306.5186
1216886.9421497134,-167858.73,-148013.06,-64159.305,-71354.82,-56314.984,-26580.69,-64031.945,-5317.7085
1216886.946149709,-167856.08,-148011.69,-64161.137,-71354.78,-56319.46,-26579.428,-64031.293,-5325.887
1216886.9501497047,-167863.73,-148014.53,-64164.594,-71353.84,-56321.777,-26579.346,-64031.254,-5325.0327
1216886.9541497005,-167870.73,-148018.28,-64162.844,-71353.84,-56325.035,-26578.33,-64028.324,-5319.377
1216886.9581496962,-167867.31,-148017.17,-64158.977,-71351.04,-56321.453,-26581.38,-64027.63,-5324.6665
1216886.9621496918,-167870.53,-148018.16,-64163.21,-71352.375,-56320.19,-26582.52,-64029.95,-5327.5146
1216886.9661496875,-167875.12,-148020.6,-64165.49,-71357.38,-56319.543,-26580.73,-64028.324,-5321.3706
1216886.9701496833,-167872.69,-148020.92,-64162.844,-71359.74,-56322.918,-26578.736,-64025.92,-5317.9526
1216886.974149679,-167876.6,-148025.89,-64160.402,-71359.21,-56325.117,-26578.33,-64023.4,-5320.272
1216886.9781496748,-167869.31,-148015.7,-64149.21,-71352.016,-56323.895,-26579.021,-64015.707,-5313.68
1216886.9821496704,-167862.03,-148011.19,-64145.387,-71351.32,-56319.582,-26579.143,-64014.773,-5315.837
1216886.9861496661,-167861.38,-148009.81,-64152.266,-71351.85,-56321.414,-26579.225,-64017.703,-5317.383
1216886.990149662,-167868.2,-148019.45,-64156.82,-71354.21,-56326.945,-26577.719,-64016.848,-5308.7974
1216886.9941496577,-167876.67,-148023.84,-64156.945,-71354.9,-56328.9,-26573.854,-64012.94,-5305.6235
1216886.9981496532,-167877.69,-148019.3,-64157.758,-71352.945,-56313.926,-26575.684,-64014.12,-5321.33
1216887.002149649,-167874.92,-148029.17,-64157.555,-71354.49,-56316.49,-26575.848,-64013.754,-5318.0747
1216887.0061496447,-167868.66,-148025.23,-64155.56,-71354.66,-56335.613,-26573.975,-64010.62,-5309.001
1216887.0101496405,-167869.39,-148021.12,-64158.164,-71351.81,-56325.81,-26574.342,-64013.55,-5311.361
1216887.014149636,-167874.03,-148021.61,-64159.387,-71352.13,-56325.562,-26572.55,-64011.234,-5305.1353
1216887.0181496318,-167870.94,-148020.64,-64152.387,-71351.484,-56324.26,-26571.412,-64006.39,-5302.287
1216887.0221496276,-167867.6,-148019.78,-64150.72,-71350.18,-56320.56,-26573.895,-64007.895,-5306.5596
1216887.0261496233,-167871.42,-148024.14,-64154.22,-71355.23,-56330.977,-26574.463,-64008.953,-5307.495
1216887.030149619,-167876.62,-148028.69,-64156.293,-71355.96,-56326.17,-26571.209,-64005.656,-5305.664
1216887.0341496146,-167877.45,-148023.31,-64154.504,-71351.65,-56315.96,-26570.312,-64001.02,-5290.8936
1216887.0381496104,-167874.19,-148026.73,-64151.043,-71347.945,-56314.332,-26569.785,-63997.48,-5293.254
1216887.0421496062,-167868.45,-148021.94,-64152.387,-71345.625,-56312.42,-26570.191,-63997.152,-5295.1255
1216887.046149602,-167863.81,-148015.6,-64154.016,-71349.41,-56318.44,-26569.092,-63999.92,-5298.706
1216887.0501495975,-167868.9,-148020.19,-64157.15,-71354.66,-56319.664,-26568.727,-64001.547,-5299.4795
1216887.0541495932,-167874.64,-148020.39,-64156.047,-71354.086,-56314.332,-26568.115,-63999.72,-5299.764
1216887.058149589,-167871.02,-148016.81,-64147.79,-71347.91,-56311.77,-26569.459,-63997.844,-5299.8457
1216887.0621495848,-167862.88,-148013.6,-64151.164,-71344.24,-56314.94,-26570.11,-63994.996,-5290.324
1216887.0661495803,-167863.45,-148019.53,-64156.17,-71348.15,-56317.59,-26571.25,-63998.09,-5298.34
1216887.070149576,-167862.23,-148013.52,-64158.49,-71348.43,-56316.855,-26569.256,-63999.39,-5300.049
1216887.0741495718,-167860.28,-148011.52,-64155.03,-71346.31,-56316.855,-26567.994,-63997.684,-5304.199
1216887.0781495676,-167856.48,-148012.73,-64151.164,-71345.18,-56310.875,-26571.209,-63996.625,-5306.3154
1216887.0821495631,-167857.92,-148015.7,-64153.934,-71347.21,-56312.42,-26574.383,-63999.27,-5297.3228
1216887.086149559,-167858.48,-148021.98,-64155.926,-71347.74,-56316.082,-26574.424,-64005.58,-5303.1416
1216887.0901495547,-167861.45,-148027.75,-64156.375,-71351.97,-56317.508,-26574.342,-64009.89,-5316.2437
1216887.0941495504,-167866.62,-148029.95,-64155.844,-71352.42,-56319.867,-26574.424,-64011.312,-5314.494
1216887.0981495462,-167867.64,-148026.38,-64153.688,-71347.54,-56311.16,-26574.992,-64009.645,-5309.9365
1216887.1021495417,-167860.23,-148022.22,-64154.95,-71345.79,-56290.734,-26575.195,-64012.94,-5318.6445
1216887.1061495375,-167857.75,-148018.84,-64156.742,-71348.15,-56320.477,-26574.383,-64017.582,-5331.909
1216887.1101495333,-167864.55,-148026.1,-64157.92,-71348.72,-56319.867,-26574.057,-64017.375,-5328.8574
1216887.114149529,-167870.69,-148035.53,-64156.66,-71349.57,-56311.973,-26574.098,-64014.977,-5321.3706
1216887.1181495246,-167873.66,-148036.88,-64156.09,-71349.2,-56304.08,-26575.604,-64012.332,-5323.12
1216887.1221495203,-167868.73,-148026.3,-64158.57,-71348.88,-56316.043,-26577.11,-64012.21,-5319.458
1216887.126149516,-167870.73,-148031.25,-64163.09,-71350.914,-56322.39,-26578.248,-64014.445,-5315.6333
1216887.1301495119,-167874.23,-148036.34,-64166.508,-71353.84,-56322.227,-26574.992,-64014.367,-5312.8257
1216887.1341495074,-167872.72,-148035.0,-64164.715,-71354.05,-56320.355,-26572.104,-64010.297,-5303.9146
1216887.1381495032,-167868.78,-148029.22,-64159.06,-71349.33,-56313.355,-26572.998,-64007.855,-5314.331
1216887.142149499,-167862.27,-148022.62,-64158.652,-71349.24,-56313.234,-26575.684,-64010.215,-5316.61
1216887.1461494947,-167862.23,-148026.61,-64164.51,-71352.09,-56318.035,-26577.354,-64013.105,-5312.0527
1216887.1501494902,-167867.89,-148033.17,-64169.395,-71354.33,-56319.95,-26576.336,-64009.645,-5297.6074
1216887.154149486,-167870.73,-148031.98,-64165.895,-71353.4,-56321.168,-26575.36,-64009.074,-5307.8613
1216887.1581494818,-167865.53,-148032.36,-64158.773,-71350.1,-56316.855,-26575.48,-64005.617,-5303.0195
1216887.1621494775,-167863.66,-148032.16,-64158.773,-71351.97,-56313.355,-26576.621,-64002.65,-5291.748
1216887.1661494733,-167859.98,-148029.67,-64162.03,-71351.56,-56314.863,-26576.621,-64005.902,-5299.764
1216887.1701494688,-167855.97,-148022.02,-64160.035,-71350.95,-56311.73,-26573.568,-64005.21,-5308.3906
1216887.1741494646,-167860.03,-148023.77,-64155.438,-71350.06,-56307.21,-26571.25,-64003.137,-5308.187
1216887.1781494603,-167858.56,-148028.89,-64159.914,-71347.945,-56311.2,-26571.656,-63999.188,-5302.49
1216887.182149456,-167855.72,-148024.05,-64161.95,-71348.35,-56312.46,-26573.895,-63998.78,-5296.0205
1216887.1861494516,-167855.19,-148021.53,-64160.44,-71350.67,-56314.78,-26576.01,-64003.543,-5302.694
1216887.1901494474,-167859.27,-148018.48,-64163.21,-71351.69,-56313.52,-26574.79,-64006.84,-5302.165
1216887.1941494432,-167863.28,-148020.39,-64160.65,-71350.67,-56309.9,-26571.738,-64003.91,-5297.241
1216887.198149439,-167859.17,-148022.55,-64159.184,-71348.23,-56311.445,-26574.627,-64003.785,-5296.3867
1216887.2021494345,-167857.55,-148019.1,-64161.137,-71348.72,-56307.617,-26574.545,-64001.875,-5285.5225
1216887.2061494302,-167854.9,-148013.23,-64160.65,-71350.836,-56302.246,-26572.959,-63999.594,-5273.7227
1216887.210149426,-167860.08,-148022.95,-64165.57,-71354.62,-56299.805,-26571.615,-64002.65,-5287.557
1216887.2141494218,-167867.08,-148025.92,-64170.29,-71352.055,-56292.24,-26570.354,-64004.76,-5288.452
1216887.2181494175,-167861.94,-148021.81,-64167.24,-71348.43,-56320.56,-26569.785,-64001.02,-5282.6743
1216887.222149413,-167858.2,-148019.5,-64167.36,-71350.38,-56304.08,-26572.633,-64005.902,-5290.609
1216887.2261494088,-167856.17,-148013.47,-64167.32,-71355.15,-56308.35,-26573.365,-64007.734,-5288.5337
1216887.2301494046,-167864.06,-148021.4,-64166.465,-71355.96,-56312.01,-26572.145,-64009.156,-5283.4883
1216887.2341494004,-167869.72,-148027.88,-64168.133,-71355.72,-56313.64,-26572.51,-64009.562,-5291.097
1216887.238149396,-167863.12,-148027.39,-64162.68,-71349.98,-56318.28,-26575.604,-64008.14,-5290.08
1216887.2421493917,-167862.06,-148026.1,-64166.953,-71347.945,-56313.195,-26578.94,-64009.848,-5285.8076
1216887.2461493874,-167862.55,-148023.94,-64167.44,-71351.4,-56311.28,-26579.63,-64012.98,-5287.2725
1216887.2501493832,-167868.86,-148025.31,-64172.12,-71353.35,-56309.695,-26575.684,-64011.07,-5285.8076
1216887.2541493787,-167864.62,-148022.34,-64169.07,-71352.22,-56309.53,-26570.395,-64005.984,-5287.1504
1216887.2581493745,-167859.67,-148026.9,-64167.36,-71348.63,-56306.48,-26571.738,-64002.89,-5284.0986
1216887.2621493703,-167861.7,-148027.02,-64171.633,-71349.53,-56307.617,-26575.156,-64007.652,-5288.371
1216887.266149366,-167865.4,-148026.53,-64174.113,-71351.36,-56309.98,-26576.416,-64013.062,-5293.132
1216887.2701493616,-167865.89,-148030.4,-64174.36,-71355.266,-56305.95,-26575.277,-64013.715,-5286.174
1216887.2741493573,-167870.73,-148032.72,-64173.344,-71355.15,-56302.613,-26573.04,-64009.89,-5277.5474
1216887.278149353,-167863.61,-148027.31,-64167.81,-71350.79,-56301.35,-26575.195,-64012.13,-5277.0186
1216887.2821493489,-167854.86,-148022.88,-64166.18,-71346.805,-56304.688,-26576.945,-64014.12,-5279.2563
1216887.2861493446,-167850.92,-148014.08,-64167.562,-71348.15,-56304.16,-26577.027,-64011.883,-5276.6523
1216887.2901493402,-167858.61,-148020.67,-64171.957,-71350.51,-56304.973,-26574.18,-64012.047,-5280.4365
1216887.294149336,-167860.08,-148019.98,-64168.05,-71349.164,-56309.57,-26574.748,-64010.62,-5275.5127
1216887.2981493317,-167852.3,-148008.67,-64164.39,-71343.75,-56295.94,-26577.027,-64006.715,-5268.799
1216887.3021493275,-167853.23,-148013.88,-64165.69,-71345.54,-56299.277,-26577.516,-64006.188,-5264.2417
1216887.306149323,-167854.7,-148015.62,-64165.082,-71348.8,-56299.156,-26576.05,-64006.676,-5259.6846
1216887.3101493188,-167860.19,-148025.6,-64171.754,-71354.33,-56281.58,-26574.79,-64014.73,-5275.8384
1216887.3141493145,-167862.44,-148033.98,-64175.418,-71360.64,-56323.406,-26570.598,-64011.027,-5271.037
1216887.3181493103,-167863.4,-148034.52,-64179.77,-71358.65,-56317.06,-26571.656,-64008.426,-5264.282
1216887.3221493058,-167862.27,-148032.88,-64181.234,-71355.555,-56310.387,-26573.936,-64011.598,-5269.5312
1216887.3261493016,-167862.44,-148033.45,-64180.707,-71356.484,-56314.17,-26576.213,-64014.855,-5276.4893
1216887.3301492974,-167866.14,-148034.52,-64183.188,-71357.42,-56315.84,-26576.986,-64017.215,-5273.3564
1216887.3341492931,-167869.39,-148031.9,-64181.766,-71356.57,-56319.133,-26576.133,-64014.445,-5267.619
1216887.3381492887,-167867.08,-148026.58,-64177.086,-71351.65,-56311.973,-26575.889,-64009.605,-5267.212
1216887.3421492844,-167857.55,-148023.23,-64171.754,-71348.11,-56302.33,-26576.416,-64010.99,-5268.718
1216887.3461492802,-167854.12,-148020.72,-64174.645,-71349.61,-56304.812,-26580.566,-64017.215,-5272.461
1216887.350149276,-167857.72,-148016.64,-64176.15,-71353.27,-56305.992,-26578.898,-64018.598,-5275.798
1216887.3541492717,-167862.06,-148029.1,-64178.793,-71357.67,-56305.625,-26574.504,-64016.277,-5271.81
1216887.3581492673,-167857.95,-148031.17,-64176.477,-71355.836,-56307.17,-26575.277,-64017.99,-5278.4834
1216887.362149263,-167850.11,-148027.39,-64176.637,-71354.62,-56309.855,-26576.457,-64018.598,-5273.6816
1216887.3661492588,-167852.75,-148029.67,-64180.992,-71355.06,-56308.88,-26578.29,-64023.074,-5271.4844
1216887.3701492546,-167848.88,-148022.9,-64181.113,-71353.92,-56306.64,-26576.701,-64021.61,-5264.5674
1216887.37414925,-167850.72,-148015.7,-64176.312,-71354.125,-56304.688,-26576.092,-64023.113,-5268.2295
1216887.3781492459,-167856.17,-148022.88,-64175.58,-71352.99,-56305.586,-26578.451,-64023.52,-5267.6597
1216887.3821492416,-167849.38,-148017.34,-64175.133,-71349.2,-56304.895,-26578.41,-64023.887,-5272.99
1216887.3861492374,-167850.42,-148013.75,-64177.453,-71351.81,-56308.8,-26577.678,-64021.977,-5269.857
1216887.390149233,-167857.14,-148022.7,-64180.87,-71355.19,-56310.266,-26573.771,-64014.855,-5257.528
1216887.3941492287,-167854.78,-148025.44,-64181.156,-71355.02,-56305.098,-26571.494,-64011.355,-5256.2256
1216887.3981492245,-167858.56,-148029.75,-64180.383,-71355.35,-56306.195,-26572.145,-64009.81,-5260.051
1216887.4021492202,-167859.14,-148025.8,-64181.234,-71353.44,-56305.543,-26573.486,-64009.77,-5253.4995
1216887.4061492158,-167855.88,-148027.19,-64183.516,-71355.39,-56309.98,-26573.527,-64010.703,-5246.6636
1216887.4101492115,-167861.94,-148028.86,-64185.14,-71358.484,-56314.453,-26572.877,-64015.75,-5262.2886
1216887.4141492073,-167867.8,-148035.53,-64187.42,-71359.01,-56297.082,-26572.021,-64017.17,-5266.8867
1216887.418149203,-167862.11,-148030.81,-64181.926,-71352.79,-56314.82,-26572.145,-64013.715,-5258.301
1216887.4221491988,-167854.98,-148026.61,-64179.527,-71349.37,-56322.062,-26572.43,-64010.62,-5250.936
1216887.4261491944,-167853.64,-148029.02,-64177.9,-71349.0,-56307.58,-26571.9,-64012.453,-5251.831
1216887.4301491901,-167853.61,-148027.72,-64181.277,-71353.07,-56305.79,-26571.818,-64014.04,-5243.0015
1216887.434149186,-167860.77,-148031.45,-64186.402,-71356.445,-56308.758,-26570.232,-64017.418,-5251.343
1216887.4381491817,-167865.23,-148033.66,-64184.246,-71355.06,-56310.1,-26570.15,-64015.344,-5250.0
1216887.4421491772,-167859.67,-148034.22,-64183.312,-71350.75,-56305.992,-26570.232,-64013.957,-5241.74
1216887.446149173,-167856.89,-148030.97,-64184.734,-71354.66,-56313.234,-26572.227,-64018.8,-5250.0
1216887.4501491687,-167857.55,-148029.6,-64185.832,-71351.73,-56308.35,-26572.307,-64025.516,-5261.963
1216887.4541491645,-167860.36,-148029.47,-64185.426,-71349.53,-56302.656,-26570.883,-64025.84,-5260.01
1216887.45814916,-167860.52,-148028.25,-64180.383,-71347.45,-56305.42,-26570.518,-64019.41,-5247.152
1216887.4621491558,-167856.73,-148026.5,-64173.383,-71348.35,-56316.69,-26574.139,-64020.875,-5249.756
1216887.4661491516,-167856.81,-148030.0,-64180.016,-71352.016,-56316.043,-26576.01,-64025.92,-5256.063
1216887.4701491473,-167859.78,-148035.86,-64186.363,-71354.86,-56311.89,-26573.936,-64026.938,-5258.1787
1216887.474149143,-167859.3,-148032.8,-64188.887,-71354.62,-56307.05,-26571.371,-64024.254,-5253.6216
1216887.4781491386,-167858.56,-148027.42,-64184.855,-71349.37,-56308.637,-26570.639,-64017.906,-5239.502
1216887.4821491344,-167852.3,-148017.25,-64182.008,-71348.72,-56298.06,-26569.133,-64013.51,-5233.6426
1216887.4861491302,-167848.6,-148016.28,-64184.855,-71348.43,-56299.562,-26567.832,-64014.773,-5240.7227
1216887.490149126,-167851.94,-148021.61,-64186.973,-71349.24,-56304.12,-26567.465,-64013.88,-5236.8574
1216887.4941491215,-167854.98,-148024.25,-64185.59,-71351.16,-56301.35,-26567.059,-64012.617,-5231.649
1216887.4981491172,-167856.12,-148025.11,-64183.598,-71348.35,-56300.133,-26566.895,-64008.75,-5226.4814
1216887.502149113,-167851.73,-148024.78,-64183.637,-71345.91,-56300.17,-26568.523,-64010.99,-5234.619
1216887.5061491088,-167847.05,-148019.94,-64180.46,-71347.49,-56298.34,-26567.303,-64009.24,-5229.045
1216887.5101491043,-167848.03,-148018.69,-64179.484,-71348.76,-56279.38,-26565.797,-64008.465,-5225.9116
1216887.5141491,-167853.64,-148019.3,-64182.17,-71347.695,-56283.773,-26564.576,-64010.99,-5233.8867
1216887.5181490958,-167852.42,-148011.97,-64182.008,-71344.56,-56308.84,-26564.982,-64010.785,-5229.167
1216887.5221490916,-167848.6,-148017.42,-64180.95,-71347.086,-56297.65,-26567.627,-64015.26,-5234.741
1216887.5261490871,-167845.9,-148020.95,-64182.66,-71348.266,-56294.23,-26568.36,-64020.47,-5240.316
1216887.530149083,-167843.19,-148017.17,-64186.28,-71348.516,-56292.848,-26567.832,-64019.25,-5239.2173
1216887.5341490787,-167845.5,-148016.28,-64183.598,-71349.445,-56293.38,-26567.588,-64017.5,-5236.9795
1216887.5381490744,-167845.42,-148014.58,-64179.527,-71344.36,-56288.008,-26568.36,-64015.344,-5236.0435
1216887.5421490702,-167840.17,-148011.44,-64179.934,-71344.36,-56290.855,-26570.924,-64018.312,-5236.491
1216887.5461490657,-167840.83,-148015.3,-64181.684,-71347.695,-56296.47,-26570.232,-64015.91,-5220.825
1216887.5501490615,-167846.84,-148018.28,-64188.97,-71349.57,-56302.613,-26569.988,-64020.266,-5233.114
1216887.5541490573,-167845.42,-148017.55,-64190.555,-71346.68,-56294.11,-26569.336,-64022.668,-5242.0654
1216887.558149053,-167844.69,-148019.53,-64188.6,-71345.83,-56292.402,-26568.768,-64018.8,-5243.408
1216887.5621490486,-167842.3,-148019.7,-64184.45,-71347.13,-56293.906,-26570.842,-64021.04,-5237.3047
1216887.5661490443,-167839.11,-148019.66,-64186.89,-71345.586,-56288.82,-26573.447,-64025.72,-5238.729
1216887.57014904,-167837.16,-148016.44,-64190.15,-71347.82,-56291.547,-26573.121,-64027.754,-5245.117
1216887.5741490358,-167839.28,-148015.27,-64189.375,-71350.95,-56297.04,-26572.104,-64026.98,-5245.1987
1216887.5781490314,-167838.22,-148009.77,-64185.266,-71345.42,-56290.324,-26570.924,-64021.12,-5237.6304
1216887.5821490271,-167840.05,-148007.66,-64187.297,-71345.87,-56300.293,-26571.818,-64020.67,-5232.788
1216887.586149023,-167841.06,-148014.0,-64191.125,-71343.914,-56299.24,-26573.121,-64022.504,-5229.37
1216887.5901490187,-167844.4,-148022.95,-64192.465,-71343.02,-56296.145,-26569.865,-64021.363,-5223.755
1216887.5941490142,-167840.75,-148017.25,-64189.535,-71342.45,-56290.324,-26567.547,-64020.715,-5226.5625
1216887.59814901,-167841.47,-148016.81,-64188.03,-71341.23,-56277.305,-26568.482,-64021.49,-5230.876
1216887.6021490057,-167839.16,-148017.22,-64188.316,-71340.3,-56262.086,-26573.08,-64025.84,-5235.7993
1216887.6061490015,-167835.9,-148013.92,-64190.51,-71341.02,-56286.62,-26574.016,-64027.508,-5240.194
1216887.6101489973,-167835.78,-148012.66,-64190.105,-71343.75,-56293.785,-26572.227,-64024.008,-5230.876
1216887.6141489928,-167841.47,-148018.11,-64190.92,-71346.805,-56293.176,-26571.697,-64023.684,-5229.167
1216887.6181489886,-167845.55,-148021.78,-64191.855,-71349.33,-56291.87,-26573.203,-64025.758,-5233.8057
1216887.6221489843,-167847.55,-148020.67,-64193.566,-71348.96,-56294.965,-26574.668,-64026.164,-5225.6675
1216887.62614898,-167841.36,-148020.11,-64193.566,-71348.266,-56298.75,-26573.73,-64026.98,-5227.173
1216887.6301489756,-167839.03,-148023.03,-64192.793,-71348.31,-56298.098,-26572.266,-64028.973,-5239.095
1216887.6341489714,-167841.97,-148021.94,-64192.426,-71348.15,-56292.2,-26569.418,-64025.395,-5233.5615
1216887.6381489672,-167835.86,-148015.5,-64183.72,-71343.79,-56287.234,-26567.1,-64016.684,-5225.586
1216887.642148963,-167830.28,-148016.61,-64186.73,-71342.49,-56282.35,-26568.768,-64019.74,-5243.6523
1216887.6461489585,-167832.48,-148020.95,-64191.734,-71347.05,-56281.984,-26570.273,-64021.445,-5237.142
1216887.6501489542,-167832.81,-148013.8,-64191.816,-71348.266,-56283.816,-26567.953,-64018.637,-5232.015
1216887.65414895,-167837.61,-148014.98,-64197.023,-71347.01,-56285.566,-26566.936,-64018.598,-5227.783
1216887.6581489458,-167843.27,-148018.52,-64197.023,-71345.38,-56291.344,-26567.832,-64018.637,-5228.76
1216887.6621489413,-167840.17,-148020.23,-64195.07,-71345.18,-56286.906,-26569.297,-64017.824,-5227.6206
1216887.666148937,-167836.67,-148014.81,-64197.062,-71345.46,-56290.57,-26572.836,-64021.65,-5231.079
1216887.6701489328,-167835.4,-148019.98,-64195.883,-71348.02,-56291.504,-26571.453,-64021.977,-5235.067
1216887.6741489286,-167837.69,-148029.06,-64194.176,-71348.15,-56295.453,-26569.336,-64020.918,-5230.6724
1216887.6781489244,-167833.7,-148027.22,-64188.355,-71342.94,-56286.258,-26568.645,-64018.11,-5223.8364
1216887.68214892,-167830.98,-148024.14,-64191.285,-71345.5,-56276.613,-26569.785,-64015.63,-5214.803
1216887.6861489157,-167831.27,-148012.45,-64192.914,-71347.01,-56278.04,-26570.8,-64020.836,-5222.534
1216887.6901489114,-167828.86,-148008.19,-64191.285,-71344.85,-56299.6,-26570.312,-64022.707,-5227.4985
1216887.6941489072,-167833.55,-148017.83,-64196.008,-71345.7,-56286.46,-26568.768,-64021.04,-5227.9463
1216887.6981489027,-167833.02,-148018.23,-64195.64,-71343.266,-56284.914,-26567.547,-64018.19,-5225.4233
1216887.7021488985,-167836.19,-148026.1,-64198.527,-71347.13,-56286.176,-26569.053,-64018.23,-5229.5737
1216887.7061488943,-167840.55,-148029.75,-64205.0,-71349.81,-56292.562,-26572.389,-64023.316,-5233.846
1216887.71014889,-167842.25,-148029.62,-64206.83,-71350.38,-56289.145,-26574.668,-64025.637,-5230.3877
1216887.7141488856,-167841.19,-148025.89,-64200.688,-71349.65,-56289.023,-26572.47,-64019.004,-5216.838
1216887.7181488813,-167839.97,-148023.23,-64196.21,-71346.195,-56285.645,-26573.447,-64016.97,-5220.2964
1216887.722148877,-167833.02,-148016.0,-64191.938,-71344.56,-56284.668,-26574.383,-64016.766,-5220.7847
1216887.7261488729,-167833.62,-148019.9,-64196.574,-71346.07,-56288.086,-26572.998,-64015.992,-5216.919
1216887.7301488686,-167833.78,-148023.23,-64200.156,-71348.15,-56294.19,-26575.48,-64019.656,-5219.4014
1216887.7341488642,-167836.47,-148027.6,-64203.86,-71349.98,-56286.746,-26575.195,-64022.625,-5228.475
1216887.73814886,-167843.6,-148030.64,-64205.57,-71351.36,-56285.24,-26575.807,-64023.48,-5221.639
1216887.7421488557,-167840.95,-148021.69,-64204.062,-71351.4,-56288.008,-26577.23,-64029.38,-5231.405
1216887.7461488515,-167837.89,-148019.33,-64207.4,-71350.016,-56281.21,-26576.621,-64034.875,-5244.629
1216887.750148847,-167840.95,-148018.6,-64206.3,-71348.8,-56287.598,-26575.156,-64031.09,-5235.84
1216887.7541488428,-167840.55,-148019.4,-64202.598,-71349.2,-56288.74,-26574.139,-64025.027,-5225.5454
1216887.7581488385,-167841.44,-148024.02,-64201.254,-71350.14,-56288.78,-26573.936,-64020.305,-5222.9004
1216887.7621488343,-167839.11,-148028.08,-64201.418,-71350.14,-56291.87,-26573.203,-64018.11,-5224.243
1216887.7661488298,-167833.3,-148023.94,-64195.965,-71347.54,-56286.297,-26573.04,-64019.41,-5229.6143
1216887.7701488256,-167834.92,-148022.8,-64197.227,-71349.445,-56290.0,-26572.104,-64018.516,-5231.242
1216887.7741488214,-167843.8,-148026.9,-64201.582,-71352.055,-56290.527,-26570.395,-64018.8,-5231.527
1216887.7781488171,-167850.39,-148028.61,-64199.71,-71350.875,-56281.66,-26571.818,-64018.637,-5230.1025
1216887.7821488127,-167853.36,-148037.11,-64204.348,-71350.75,-56274.496,-26573.324,-64019.86,-5237.3047
1216887.7861488084,-167845.9,-148034.02,-64205.363,-71350.67,-56306.848,-26573.447,-64018.84,-5236.6943
1216887.7901488042,-167850.19,-148039.72,-64206.83,-71352.22,-56304.895,-26573.283,-64018.516,-5240.682
1216887.7941488,-167855.52,-148047.45,-64205.57,-71352.83,-56302.777,-26571.615,-64017.457,-5237.956
1216887.7981487957,-167857.02,-148043.3,-64202.72,-71351.4,-56298.26,-26571.29,-64014.445,-5240.0312
1216887.8021487913,-167852.78,-148038.12,-64201.457,-71350.34,-56293.867,-26571.086,-64008.383,-5231.527
1216887.806148787,-167847.22,-148036.67,-64200.89,-71350.266,-56290.57,-26569.662,-64003.99,-5227.3765
1216887.8101487828,-167843.75,-148040.05,-64200.93,-71350.55,-56295.29,-26567.709,-63995.484,-5210.531
1216887.8141487786,-167839.31,-148029.95,-64196.453,-71346.195,-56285.77,-26563.682,-63988.895,-5203.6133
1216887.818148774,-167838.62,-148024.98,-64192.26,-71344.08,-56278.77,-26559.775,-63984.05,-5202.881
1216887.8221487699,-167832.28,-148023.77,-64190.758,-71339.73,-56266.48,-26558.635,-63981.164,-5194.6616
1216887.8261487656,-167826.1,-148023.23,-64185.63,-71337.65,-56270.02,-26559.367,-63984.254,-5208.415
1216887.8301487614,-167829.06,-148026.3,-64189.375,-71337.37,-56274.254,-26559.002,-63985.965,-5213.9487
1216887.834148757,-167831.92,-148028.2,-64191.57,-71335.62,-56275.8,-26558.432,-63984.824,-5212.2803
1216887.8381487527,-167828.02,-148025.69,-64187.625,-71331.625,-56278.402,-26556.479,-63980.957,-5208.496
1216887.8421487485,-167824.39,-148025.92,-64188.926,-71331.34,-56278.117,-26554.24,-63976.645,-5199.707
1216887.8461487442,-167820.48,-148024.45,-64186.445,-71330.65,-56270.508,-26551.922,-63973.227,-5198.6494
1216887.8501487398,-167824.22,-148028.45,-64186.973,-71333.91,-56268.066,-26549.969,-63970.625,-5197.0215
1216887.8541487355,-167826.78,-148027.64,-64186.242,-71336.14,-56268.15,-26546.754,-63968.344,-5197.225
1216887.8581487313,-167830.48,-148026.81,-64182.7,-71333.54,-56269.168,-26544.8,-63966.39,-5202.0264
1216887.862148727,-167828.58,-148024.38,-64180.79,-71332.4,-56253.176,-26546.104,-63968.184,-5205.4443
1216887.8661487228,-167826.7,-148022.9,-64184.043,-71331.38,-56261.477,-26549.56,-63973.676,-5211.548
1216887.8701487184,-167822.36,-148016.33,-64184.9,-71330.445,-56282.92,-26548.219,-63971.438,-5204.2646
1216887.8741487141,-167829.75,-148027.19,-64186.527,-71331.87,-56267.58,-26547.04,-63971.316,-5202.6367
1216887.87814871,-167825.36,-148022.42,-64176.19,-71329.8,-56267.785,-26546.713,-63965.008,-5189.8604
1216887.8821487057,-167822.52,-148018.8,-64176.066,-71329.23,-56267.215,-26547.201,-63966.15,-5194.5396
1216887.8861487012,-167823.28,-148018.56,-64179.65,-71328.49,-56267.297,-26547.893,-63966.516,-5194.377
1216887.890148697,-167824.8,-148016.64,-64182.902,-71330.69,-56270.836,-26548.34,-63967.938,-5204.5493
1216887.8941486927,-167826.58,-148024.66,-64181.03,-71332.28,-56271.16,-26545.492,-63966.96,-5204.2236
1216887.8981486885,-167827.16,-148026.0,-64174.277,-71329.914,-56264.285,-26544.76,-63966.105,-5195.2314
1216887.902148684,-167827.08,-148024.83,-64177.41,-71330.53,-56263.227,-26544.842,-63966.105,-5201.782
1216887.9061486798,-167831.8,-148028.36,-64184.938,-71332.84,-56266.766,-26548.545,-63972.168,-5210.002
1216887.9101486756,-167836.52,-148033.4,-64188.4,-71333.7,-56273.766,-26547.69,-63973.96,-5204.9155
1216887.9141486713,-167834.89,-148024.95,-64185.266,-71331.99,-56270.67,-26545.777,-63970.582,-5203.939
1216887.9181486669,-167832.64,-148022.42,-64182.62,-71328.33,-56264.203,-26547.16,-63969.973,-5205.4443
1216887.9221486626,-167834.31,-148023.16,-64184.695,-71332.03,-56268.19,-26551.678,-63970.91,-5206.0547
1216887.9261486584,-167833.83,-148025.16,-64187.38,-71336.71,-56269.29,-26554.729,-63974.977,-5209.6763
1216887.9301486542,-167836.23,-148032.64,-64189.496,-71337.93,-56274.414,-26553.996,-63973.633,-5206.787
1216887.93414865,-167840.25,-148030.89,-64193.77,-71338.91,-56272.098,-26553.143,-63972.74,-5211.833
1216887.9381486455,-167847.25,-148035.45,-64197.676,-71339.36,-56253.703,-26553.834,-63974.49,-5219.1978
1216887.9421486412,-167841.06,-148031.3,-64192.953,-71337.37,-56279.582,-26555.217,-63977.418,-5232.422
1216887.946148637,-167843.34,-148036.62,-64196.293,-71339.56,-56287.316,-26558.27,-63979.656,-5227.9463
1216887.9501486327,-167846.36,-148043.62,-64201.418,-71341.11,-56284.387,-26556.967,-63978.76,-5219.3604
1216887.9541486283,-167853.61,-148048.02,-64202.027,-71342.81,-56286.094,-26550.986,-63971.4,-5209.6763
1216887.958148624,-167856.28,-148041.75,-64199.668,-71342.125,-56288.332,-26553.184,-63971.64,-5209.7983
1216887.9621486198,-167846.56,-148033.33,-64196.535,-71339.234,-56282.84,-26560.264,-63979.574,-5225.586
1216887.9661486156,-167843.8,-148037.89,-64197.062,-71340.62,-56282.758,-26559.855,-63975.914,-5217.3667
1216887.970148611,-167847.78,-148037.4,-64200.81,-71343.95,-56275.434,-26559.043,-63972.332,-5212.362
1216887.9741486069,-167843.11,-148027.02,-64202.477,-71340.984,-56272.46,-26555.258,-63968.02,-5204.509
1216887.9781486026,-167848.8,-148031.45,-64202.965,-71342.45,-56279.176,-26555.543,-63967.164,-5198.934
1216887.9821485984,-167850.11,-148032.11,-64206.098,-71343.75,-56277.914,-26558.105,-63971.844,-5218.3027
1216887.9861485942,-167851.69,-148028.12,-64208.703,-71342.77,-56273.36,-26559.082,-63977.01,-5222.168
1216887.9901485897,-167856.81,-148027.6,-64213.746,-71344.56,-56273.848,-26556.723,-63974.977,-5210.124
1216887.9941485855,-167851.69,-148025.97,-64214.97,-71346.48,-56265.953,-26557.496,-63973.105,-5203.695
1216887.9981485812,-167850.02,-148022.34,-64213.383,-71340.78,-56265.707,-26558.066,-63972.82,-5207.7637
1216888.002148577,-167844.97,-148009.89,-64205.812,-71337.0,-56261.844,-26557.537,-63971.64,-5205.648
1216888.0061485725,-167843.39,-148004.92,-64201.785,-71336.02,-56255.496,-26557.902,-63970.703,-5201.091
1216888.0101485683,-167845.02,-148014.98,-64205.73,-71340.336,-56256.473,-26557.7,-63971.152,-5198.039
1216888.014148564,-167849.9,-148022.5,-64210.574,-71342.734,-56259.035,-26555.217,-63966.92,-5188.8022
1216888.0181485598,-167853.69,-148020.52,-64209.23,-71343.67,-56263.957,-26553.752,-63965.457,-5185.0586
1216888.0221485554,-167853.44,-148020.06,-64212.973,-71344.16,-56265.137,-26554.932,-63969.934,-5194.58
1216888.0261485511,-167853.56,-148022.67,-64213.625,-71345.38,-56266.24,-26556.357,-63973.27,-5197.51
1216888.030148547,-167858.16,-148023.36,-64217.492,-71346.805,-56264.16,-26557.578,-63975.508,-5196.208
1216888.0341485427,-167859.34,-148024.86,-64221.03,-71349.164,-56266.848,-26555.705,-63974.164,-5194.7837
1216888.0381485382,-167860.36,-148020.47,-64218.547,-71347.21,-56274.375,-26553.752,-63965.7,-5178.7925
1216888.042148534,-167856.28,-148022.1,-64213.625,-71344.2,-56270.59,-26554.24,-63963.258,-5180.013
1216888.0461485297,-167849.73,-148021.73,-64209.477,-71342.61,-56268.555,-26554.77,-63966.676,-5191.854
1216888.0501485255,-167848.56,-148015.34,-64206.383,-71343.51,-56266.156,-26556.316,-63969.16,-5187.622
1216888.0541485213,-167857.06,-148020.88,-64209.883,-71346.6,-56261.312,-26557.21,-63969.445,-5181.5596
1216888.0581485168,-167857.34,-148021.12,-64207.848,-71345.26,-56244.875,-26558.146,-63966.96,-5180.2573
1216888.0621485126,-167850.62,-148008.88,-64205.04,-71343.63,-56275.598,-26559.49,-63965.414,-5175.863
1216888.0661485083,-167853.08,-148016.73,-64209.312,-71345.54,-56267.336,-26562.094,-63968.957,-5172.689
1216888.070148504,-167857.1,-148021.33,-64217.207,-71348.02,-56272.95,-26562.176,-63970.746,-5172.7295
1216888.0741484996,-167850.62,-148009.0,-64213.91,-71345.26,-56259.44,-26561.443,-63970.094,-5186.2793
1216888.0781484954,-167850.55,-148005.83,-64209.92,-71343.55,-56254.76,-26560.303,-63963.79,-5174.927
1216888.0821484912,-167841.47,-148006.64,-64206.34,-71342.05,-56251.914,-26560.223,-63958.824,-5170.1255
1216888.086148487,-167835.98,-148006.8,-64200.848,-71342.695,-56252.89,-26560.547,-63959.027,-5175.863
1216888.0901484825,-167835.33,-148002.66,-64198.773,-71340.66,-56255.008,-26558.799,-63958.906,-5171.224
1216888.0941484782,-167837.73,-148003.06,-64202.027,-71340.17,-56254.805,-26557.578,-63958.375,-5173.0146
1216888.098148474,-167845.83,-148011.84,-64206.06,-71342.77,-56255.332,-26556.64,-63958.215,-5174.6826
1216888.1021484698,-167846.4,-148010.22,-64208.863,-71341.02,-56256.066,-26554.81,-63956.953,-5172.282
1216888.1061484653,-167842.73,-148004.64,-64209.84,-71342.77,-56251.63,-26556.64,-63960.41,-5177.4497
1216888.110148461,-167845.5,-148007.61,-64214.36,-71343.266,-56250.9,-26557.09,-63963.3,-5174.1133
1216888.1141484568,-167850.6,-148020.44,-64220.137,-71348.67,-56254.6,-26556.152,-63965.05,-5174.4795
1216888.1181484526,-167850.42,-148018.03,-64218.344,-71345.91,-56250.246,-26555.217,-63964.887,-5184.6924
1216888.1221484484,-167849.5,-148012.86,-64216.23,-71342.086,-56248.535,-26556.152,-63965.82,-5187.4595
1216888.126148444,-167854.02,-148015.95,-64219.242,-71346.234,-56256.715,-26558.96,-63969.363,-5192.749
1216888.1301484397,-167853.23,-148012.7,-64220.5,-71348.35,-56257.69,-26557.984,-63971.52,-5195.7197
1216888.1341484354,-167850.95,-148012.66,-64215.58,-71349.77,-56257.203,-26556.357,-63968.547,-5186.2793
1216888.1381484312,-167856.38,-148016.2,-64214.805,-71349.65,-56258.996,-26556.52,-63968.793,-5193.034
1216888.1421484267,-167857.75,-148017.45,-64217.246,-71347.375,-56264.445,-26558.758,-63970.582,-5194.458
1216888.1461484225,-167859.7,-148025.89,-64221.316,-71349.33,-56265.098,-26561.158,-63976.074,-5199.0156
1216888.1501484183,-167857.6,-148025.69,-64221.926,-71350.47,-56261.72,-26561.28,-63982.016,-5208.0894
1216888.154148414,-167857.14,-148022.22,-64221.844,-71353.44,-56262.13,-26558.594,-63978.598,-5199.341
1216888.1581484096,-167861.62,-148025.8,-64219.65,-71352.87,-56266.113,-26557.17,-63974.773,-5190.593
1216888.1621484053,-167857.55,-148025.23,-64222.453,-71350.266,-56259.81,-26559.45,-63978.234,-5207.479
1216888.166148401,-167853.31,-148024.78,-64219.688,-71348.47,-56260.742,-26560.385,-63975.75,-5201.4976
1216888.1701483969,-167854.62,-148022.62,-64222.293,-71349.77,-56260.742,-26559.45,-63973.023,-5195.15
1216888.1741483924,-167854.05,-148020.88,-64222.617,-71351.89,-56261.965,-26557.578,-63970.664,-5194.702
1216888.1781483882,-167857.06,-148024.58,-64217.98,-71352.336,-56269.29,-26557.455,-63968.26,-5188.2324
1216888.182148384,-167859.98,-148024.45,-64219.89,-71350.99,-56268.76,-26559.45,-63972.332,-5186.9307
1216888.1861483797,-167857.31,-148029.22,-64222.332,-71351.12,-56267.742,-26560.14,-63977.38,-5185.9946
1216888.1901483755,-167849.9,-148028.81,-64222.58,-71351.766,-56268.395,-26560.629,-63981.367,-5194.6616
1216888.194148371,-167849.61,-148023.97,-64223.676,-71353.07,-56267.785,-26560.1,-63983.4,-5196.737
1216888.1981483668,-167852.7,-148020.19,-64224.164,-71351.89,-56264.285,-26561.361,-63987.305,-5204.2236
1216888.2021483625,-167858.97,-148023.31,-64226.24,-71350.51,-56261.23,-26561.932,-63989.42,-5204.712
1216888.2061483583,-167853.77,-148023.31,-64223.637,-71351.16,-56268.637,-26563.72,-63988.28,-5190.796
1216888.2101483538,-167849.28,-148026.38,-64219.242,-71352.375,-56268.92,-26564.453,-63987.754,-5192.993
1216888.2141483496,-167854.1,-148026.58,-64220.543,-71352.22,-56265.016,-26564.82,-63988.73,-5190.1855
1216888.2181483454,-167861.38,-148033.12,-64224.45,-71353.31,-56252.08,-26565.309,-63989.34,-5192.546
1216888.2221483411,-167861.83,-148029.88,-64225.668,-71352.055,-56259.035,-26565.309,-63987.51,-5189.8604
1216888.2261483367,-167856.58,-148018.36,-64221.887,-71350.99,-56276.734,-26564.453,-63984.133,-5180.339
1216888.2301483324,-167856.61,-148020.67,-64218.832,-71349.9,-56266.93,-26564.78,-63986.535,-5187.5815
1216888.2341483282,-167866.86,-148037.69,-64229.414,-71355.305,-56272.18,-26563.682,-63984.418,-5185.3027
1216888.238148324,-167876.02,-148044.92,-64232.016,-71357.51,-56273.766,-26560.752,-63979.94,-5182.5767
1216888.2421483197,-167847.38,-148014.94,-64216.96,-71349.125,-56260.46,-26566.691,-63990.234,-5196.167
1216888.2461483153,-167831.27,-148008.83,-64214.6,-71348.63,-56256.88,-26569.174,-63992.8,-5198.9746
1216888.250148311,-167833.78,-148013.34,-64219.32,-71348.23,-56257.938,-26569.092,-63992.395,-5193.7666
1216888.2541483068,-167835.58,-148019.45,-64227.258,-71350.71,-56262.695,-26568.156,-63989.668,-5190.1855
1216888.2581483026,-167835.78,-148021.12,-64222.453,-71349.24,-56267.17,-26567.018,-63987.875,-5188.4766
1216888.262148298,-167827.08,-148023.0,-64214.723,-71350.914,-56269.004,-26567.344,-63991.09,-5197.795
1216888.2661482939,-167825.28,-148026.58,-64214.438,-71347.91,-56268.273,-26567.18,-63992.27,-5195.8823
1216888.2701482896,-167814.25,-148011.19,-64212.484,-71343.51,-56266.113,-26568.848,-63992.92,-5198.3237
1216888.2741482854,-167819.55,-148010.62,-64213.83,-71346.84,-56265.137,-26569.336,-63991.906,-5192.8306
1216888.278148281,-167830.28,-148017.45,-64215.902,-71348.23,-56268.68,-26567.018,-63987.55,-5183.879
1216888.2821482767,-167829.6,-148022.6,-64216.27,-71348.59,-56268.273,-26567.75,-63991.58,-5193.441
1216888.2861482725,-167825.81,-148016.73,-64213.016,-71345.79,-56261.027,-26568.768,-63994.508,-5192.1797
1216888.2901482682,-167827.89,-148016.81,-64215.617,-71346.805,-56257.812,-26569.621,-63994.793,-5183.635
1216888.2941482638,-167828.86,-148018.8,-64216.188,-71351.52,-56272.34,-26567.547,-63993.9,-5191.04
1216888.2981482595,-167831.47,-148019.45,-64217.29,-71350.71,-56272.83,-26565.512,-63990.93,-5189.6973
1216888.3021482553,-167834.52,-148030.97,-64216.758,-71348.02,-56269.98,-26567.953,-63995.04,-5190.552
1216888.306148251,-167836.88,-148038.17,-64216.473,-71349.53,-56271.61,-26570.518,-63999.105,-5192.0166
1216888.3101482468,-167836.31,-148037.44,-64220.95,-71352.87,-56279.91,-26570.924,-63996.38,-5186.035
1216888.3141482424,-167838.22,-148037.28,-64222.7,-71353.11,-56275.8,-26570.273,-63995.484,-5187.134
1216888.3181482381,-167834.6,-148030.77,-64218.914,-71347.45,-56267.824,-26568.482,-63993.734,-5189.2905
1216888.322148234,-167830.08,-148029.55,-64217.367,-71344.41,-56265.016,-26568.564,-63992.516,-5194.865
1216888.3261482297,-167829.44,-148031.58,-64217.777,-71344.04,-56263.715,-26570.068,-63990.723,-5185.018
1216888.3301482252,-167836.47,-148033.98,-64221.723,-71349.164,-56266.562,-26572.633,-63990.723,-5185.018
1216888.334148221,-167835.53,-148038.5,-64220.625,-71348.88,-56265.668,-26570.477,-63984.418,-5175.537
1216888.3381482167,-167836.88,-148039.19,-64219.89,-71345.87,-56259.035,-26565.227,-63976.2,-5152.4253
1216888.3421482125,-167838.22,-148034.52,-64218.305,-71346.805,-56259.645,-26567.262,-63982.504,-5172.689
1216888.346148208,-167840.3,-148033.28,-64217.492,-71346.516,-56264.61,-26567.344,-63984.01,-5175.049
1216888.3501482038,-167840.1,-148033.28,-64218.02,-71347.91,-56260.54,-26567.994,-63982.42,-5163.005
1216888.3541481995,-167842.3,-148039.77,-64221.723,-71350.14,-56264.12,-26566.936,-63981.49,-5155.4365
1216888.3581481953,-167841.69,-148039.44,-64220.707,-71351.6,-56265.832,-26565.47,-63976.93,-5155.1514
1216888.3621481908,-167834.48,-148033.17,-64219.81,-71348.43,-56260.867,-26566.123,-63978.273,-5158.1626
1216888.3661481866,-167834.92,-148037.81,-64219.89,-71347.25,-56257.652,-26567.75,-63979.453,-5155.111
1216888.3701481824,-167833.98,-148034.75,-64221.195,-71346.07,-56254.152,-26567.871,-63980.754,-5157.3896
1216888.3741481781,-167836.27,-148028.4,-64223.918,-71347.66,-56255.78,-26567.668,-63984.215,-5162.557
1216888.378148174,-167841.03,-148036.67,-64225.465,-71349.164,-56260.703,-26566.53,-63983.4,-5159.302
1216888.3821481694,-167846.64,-148049.56,-64227.094,-71352.22,-56267.375,-26567.424,-63986.816,-5160.36
1216888.3861481652,-167845.1,-148049.2,-64229.86,-71349.164,-56258.832,-26569.377,-63990.03,-5151.6113
1216888.390148161,-167842.94,-148047.45,-64231.0,-71350.22,-56257.082,-26570.518,-63996.22,-5164.8765
1216888.3941481567,-167841.8,-148047.73,-64228.438,-71350.34,-56276.734,-26569.988,-63997.64,-5174.5605
1216888.3981481523,-167846.23,-148051.6,-64226.523,-71348.836,-56264.082,-26569.906,-64000.41,-5172.8926
1216888.402148148,-167842.98,-148047.66,-64225.1,-71345.79,-56260.785,-26569.297,-63997.805,-5169.0674
1216888.4061481438,-167841.89,-148047.73,-64223.918,-71347.05,-56268.027,-26569.459,-63994.67,-5166.504
1216888.4101481396,-167846.0,-148054.77,-64225.344,-71351.08,-56265.016,-26568.441,-63992.555,-5155.0703
1216888.414148135,-167853.19,-148067.83,-64227.99,-71356.77,-56268.965,-26567.344,-63991.742,-5143.5957
1216888.4181481309,-167857.55,-148077.36,-64231.652,-71354.945,-56271.04,-26567.303,-63995.566,-5168.2944
1216888.4221481266,-167852.7,-148077.48,-64229.7,-71352.13,-56269.613,-26568.035,-63995.688,-5183.4717
1216888.4261481224,-167847.86,-148072.19,-64225.914,-71353.195,-56275.15,-26568.768,-63996.055,-5174.1943
1216888.4301481182,-167846.89,-148068.48,-64225.547,-71351.08,-56277.426,-26569.703,-63997.887,-5173.34
1216888.4341481137,-167849.38,-148063.48,-64228.07,-71350.914,-56271.324,-26567.75,-63995.65,-5171.4277
1216888.4381481095,-167852.27,-148066.86,-64227.258,-71351.4,-56273.234,-26565.023,-63991.21,-5159.546
1216888.4421481052,-167847.98,-148063.92,-64223.023,-71350.42,-56273.156,-26566.123,-63992.92,-5161.0923
1216888.446148101,-167848.44,-148070.11,-64224.938,-71350.586,-56270.715,-26567.018,-63997.887,-5173.7876
1216888.4501480965,-167847.62,-148082.84,-64228.07,-71349.734,-56268.35,-26566.57,-63995.934,-5170.736
1216888.4541480923,-167845.38,-148078.17,-64228.395,-71350.586,-56266.36,-26564.982,-63992.883,-5166.097
1216888.458148088,-167840.58,-148067.52,-64226.117,-71346.805,-56265.953,-26565.105,-63990.805,-5161.9062
1216888.4621480838,-167839.48,-148065.92,-64229.496,-71346.31,-56259.156,-26567.424,-63992.395,-5163.086
1216888.4661480794,-167839.97,-148062.02,-64231.406,-71347.62,-56257.324,-26569.418,-63995.77,-5167.9688
