timestamp,Fp1,Fp2,F3,Fz,F4,Cz,Pz,Oz
1312904.8113849913,-104458.7,-80901.53,-47169.56,-29853.639,-7416.9517,-35807.78,-58441.53,-1799.0723
1312904.8153849856,-104456.016,-80893.84,-47171.754,-29850.424,-7410.6445,-35814.86,-58444.867,-1799.0723
1312904.8193849802,-104450.65,-80887.74,-47168.66,-29846.07,-7405.2734,-35814.58,-58447.348,-1800.0082
1312904.8233849746,-104451.26,-80890.055,-47165.242,-29846.436,-7408.6104,-35809.41,-58448.938,-1803.6296
1312904.8273849692,-104457.97,-80896.445,-47166.707,-29848.715,-7414.592,-35804.402,-58449.87,-1811.3607
1312904.8313849638,-104464.195,-80900.27,-47171.633,-29850.912,-7415.731,-35806.723,-58450.562,-1815.1449
1312904.8353849582,-104466.555,-80901.29,-47173.992,-29851.36,-7415.08,-35814.25,-58451.5,-1816.2842
1312904.8393849528,-104465.82,-80900.59,-47175.742,-29849.65,-7413.2896,-35814.7,-58451.582,-1813.9242
1312904.8433849472,-104469.98,-80907.23,-47175.54,-29850.83,-7417.196,-35809.33,-58451.582,-1815.7552
1312904.8473849418,-104475.95,-80914.39,-47177.574,-29852.377,-7419.8,-35805.094,-58452.395,-1817.9525
1312904.8513849361,-104480.15,-80911.26,-47180.625,-29853.68,-7419.515,-35807.984,-58450.36,-1816.976
1312904.8553849307,-104479.21,-80902.39,-47182.332,-29850.059,-7414.836,-35812.418,-58445.64,-1805.7861
1312904.859384925,-104481.77,-80906.78,-47182.293,-29847.982,-7414.3066,-35811.89,-58441.406,-1796.1019
1312904.8633849197,-104489.625,-80911.54,-47183.27,-29849.285,-7418.9863,-35805.22,-58441.246,-1797.7295
1312904.867384914,-104495.69,-80911.7,-47184.816,-29850.098,-7420.288,-35800.336,-58443.035,-1806.5593
1312904.8713849087,-104501.38,-80911.3,-47188.965,-29852.05,-7418.335,-35803.996,-58443.36,-1806.4779
1312904.875384903,-104496.016,-80906.5,-47192.344,-29851.523,-7413.6963,-35811.035,-58442.02,-1803.8738
1312904.8793848976,-104490.52,-80898.6,-47191.734,-29848.797,-7410.238,-35810.875,-58438.07,-1794.1895
1312904.8833848923,-104495.734,-80904.99,-47191.855,-29852.783,-7414.144,-35804.934,-58437.34,-1788.4115
1312904.8873848866,-104498.945,-80911.91,-47192.832,-29856.445,-7417.806,-35801.23,-58438.844,-1791.6667
1312904.8913848812,-104499.96,-80909.51,-47196.535,-29854.615,-7414.673,-35803.875,-58439.902,-1800.6185
1312904.8953848756,-104498.78,-80904.26,-47199.06,-29851.4,-7412.1504,-35809.367,-58439.09,-1795.6543
1312904.8993848702,-104491.945,-80898.84,-47196.74,-29848.35,-7410.36,-35810.71,-58440.84,-1796.5088
1312904.9033848646,-104489.95,-80900.76,-47193.074,-29847.25,-7411.7026,-35803.996,-58437.38,-1793.457
1312904.9073848592,-104489.914,-80900.555,-47191.734,-29849.488,-7415.4053,-35801.395,-58438.355,-1800.0896
1312904.9113848535,-104493.21,-80901.98,-47196.74,-29850.424,-7416.1377,-35804.85,-58435.832,-1800.2523
1312904.9153848481,-104492.15,-80896.69,-47200.24,-29849.203,-7410.726,-35807.535,-58431.4,-1791.3818
1312904.9193848425,-104488.57,-80892.055,-47197.227,-29847.576,-7408.895,-35805.543,-58429.73,-1783.8949
1312904.923384837,-104487.305,-80897.79,-47195.395,-29849.244,-7414.144,-35799.684,-58429.242,-1784.2611
1312904.9273848315,-104501.18,-80907.31,-47198.73,-29853.477,-7420.4917,-35798.543,-58434.125,-1793.6605
1312904.931384826,-104509.32,-80905.4,-47205.49,-29855.021,-7420.085,-35803.836,-58437.91,-1801.8392
1312904.9353848207,-104502.41,-80897.3,-47203.94,-29852.012,-7416.26,-35806.6,-58431.52,-1794.3115
1312904.939384815,-104501.914,-80895.51,-47199.953,-29851.318,-7415.731,-35804.402,-58427.492,-1787.3129
1312904.9433848097,-104501.43,-80900.31,-47198.203,-29853.191,-7422.4854,-35798.18,-58428.387,-1791.9109
1312904.947384804,-104507.9,-80906.45,-47198.324,-29852.377,-7428.3447,-35794.92,-58428.062,-1794.515
1312904.9513847986,-104514.04,-80907.02,-47199.75,-29852.05,-7429.0366,-35796.145,-58425.945,-1796.5088
1312904.955384793,-104510.99,-80905.44,-47201.418,-29850.424,-7426.3916,-35802.652,-58424.316,-1793.864
1312904.9593847876,-104504.16,-80900.76,-47200.523,-29847.9,-7422.9736,-35802.695,-58423.22,-1792.4398
1312904.963384782,-104503.75,-80904.016,-47200.766,-29850.791,-7432.0884,-35798.42,-58425.742,-1796.1426
1312904.9673847766,-104515.75,-80914.19,-47205.977,-29856.08,-7442.993,-35793.54,-58424.93,-1798.3806
1312904.971384771,-104522.46,-80916.51,-47211.348,-29856.812,-7447.9575,-35797.28,-58426.72,-1803.3855
1312904.9753847655,-104522.14,-80913.984,-47215.535,-29855.104,-7449.4224,-35805.258,-58429.445,-1799.3572
1312904.97938476,-104522.83,-80910.41,-47215.332,-29852.05,-7452.0264,-35807.254,-58431.36,-1792.5212
1312904.9833847545,-104518.4,-80907.48,-47212.973,-29850.627,-7454.2646,-35802.574,-58433.594,-1798.7875
1312904.987384749,-104521.65,-80909.06,-47213.094,-29851.562,-7456.95,-35798.137,-58435.266,-1810.8724
1312904.9913847435,-104524.91,-80907.836,-47216.758,-29851.93,-7459.961,-35799.03,-58430.098,-1807.6986
1312904.995384738,-104519.62,-80905.07,-47217.043,-29850.139,-7457.723,-35800.742,-58423.75,-1797.9736
1312904.9993847325,-104524.7,-80908.53,-47215.902,-29849.53,-7458.008,-35800.58,-58422.69,-1798.2585
1312905.003384727,-104528.0,-80911.87,-47216.15,-29850.627,-7463.176,-35796.875,-58424.766,-1804.6469
1312905.0073847214,-104529.26,-80911.91,-47218.387,-29851.318,-7469.7266,-35794.23,-58426.19,-1805.9082
1312905.011384716,-104532.48,-80908.41,-47222.58,-29853.068,-7471.2324,-35797.203,-58423.992,-1801.8392
1312905.0153847104,-104527.96,-80904.91,-47223.145,-29851.4,-7468.3027,-35803.67,-58421.266,-1794.6371
1312905.019384705,-104522.055,-80901.45,-47221.152,-29849.895,-7466.512,-35802.574,-58416.914,-1789.7949
1312905.0233846994,-104520.76,-80898.12,-47219.24,-29849.406,-7466.5938,-35794.84,-58415.285,-1787.8826
1312905.027384694,-104522.26,-80899.54,-47219.81,-29852.174,-7472.6157,-35790.164,-58416.016,-1788.7777
1312905.0313846883,-104521.69,-80901.125,-47220.867,-29851.93,-7475.4233,-35794.434,-58415.49,-1791.9515
1312905.035384683,-104515.55,-80894.21,-47222.25,-29848.145,-7470.215,-35798.91,-58414.39,-1788.8998
1312905.0393846775,-104508.586,-80884.85,-47222.58,-29845.988,-7467.407,-35798.992,-58414.88,-1785.5225
1312905.043384672,-104511.03,-80880.984,-47221.234,-29845.826,-7469.32,-35792.81,-58416.344,-1785.9294
1312905.0473846665,-104514.57,-80885.58,-47221.395,-29847.047,-7470.378,-35790.977,-58418.867,-1794.3115
1312905.0513846609,-104512.375,-80881.836,-47223.27,-29846.844,-7471.4766,-35795.33,-58419.844,-1795.8984
1312905.0553846555,-104508.34,-80867.39,-47227.05,-29844.158,-7468.221,-35800.254,-58420.25,-1791.3818
1312905.0593846499,-104504.88,-80869.1,-47222.535,-29843.873,-7469.93,-35799.36,-58419.56,-1792.3584
1312905.0633846445,-104486.125,-80864.71,-47218.59,-29842.041,-7472.0054,-35792.887,-58420.168,-1795.4102
1312905.0673846388,-104470.586,-80841.19,-47216.35,-29839.844,-7470.093,-35791.016,-58422.49,-1803.4668
1312905.0713846334,-104455.81,-80818.73,-47220.5,-29837.402,-7468.7095,-35796.266,-58424.156,-1809.5297
1312905.0753846278,-104439.66,-80801.84,-47222.74,-29835.41,-7464.885,-35804.04,-58424.562,-1809.6924
1312905.0793846224,-104416.71,-80786.91,-47214.805,-29830.283,-7456.462,-35804.28,-58423.383,-1807.6172
1312905.083384617,-104404.38,-80772.34,-47212.605,-29830.16,-7457.5195,-35798.707,-58422.61,-1806.1931
1312905.0873846114,-104380.984,-80751.63,-47213.625,-29828.695,-7460.1646,-35798.543,-58431.195,-1827.4333
1312905.091384606,-104351.28,-80724.125,-47210.938,-29822.51,-7450.8467,-35806.07,-58442.14,-1846.9238
1312905.0953846003,-104313.48,-80692.51,-47206.3,-29816.082,-7443.7666,-35816.734,-58446.453,-1847.1273
1312905.099384595,-104276.57,-80660.89,-47202.965,-29811.24,-7438.0293,-35819.297,-58448.938,-1849.0398
1312905.1033845893,-104257.98,-80648.56,-47199.14,-29808.717,-7439.372,-35813.19,-58450.81,-1851.1556
1312905.107384584,-104223.06,-80614.95,-47197.31,-29805.34,-7435.018,-35816.49,-58466.27,-1885.4167
1312905.1113845783,-104185.75,-80577.805,-47198.652,-29799.766,-7424.764,-35823.203,-58472.78,-1898.4375
1312905.115384573,-104158.41,-80547.734,-47198.082,-29793.295,-7414.8765,-35829.633,-58476.727,-1902.0996
1312905.1193845673,-104126.266,-80522.14,-47192.832,-29786.662,-7410.7666,-35832.156,-58481.69,-1902.2217
1312905.1233845619,-104114.75,-80508.71,-47191.61,-29785.035,-7411.865,-35828.816,-58483.48,-1902.7507
1312905.1273845562,-104106.61,-80502.81,-47190.43,-29784.547,-7411.9873,-35827.477,-58487.184,-1905.8025
1312905.1313845508,-104087.53,-80482.42,-47192.63,-29782.35,-7406.82,-35834.676,-58495.16,-1916.9922
1312905.1353845454,-104077.35,-80468.8,-47195.19,-29779.217,-7400.472,-35839.6,-58496.258,-1919.4336
1312905.1393845398,-104062.14,-80448.98,-47193.28,-29776.367,-7399.0073,-35839.844,-58494.305,-1919.1895
1312905.1433845344,-104053.23,-80441.164,-47191.816,-29775.514,-7398.1934,-35833.008,-58492.758,-1920.9392
1312905.1473845288,-104050.13,-80433.88,-47195.926,-29776.611,-7396.7285,-35831.95,-58493.652,-1924.2758
1312905.1513845234,-104038.05,-80425.055,-47198.57,-29777.1,-7396.7285,-35836.47,-58494.754,-1927.6123
1312905.1553845177,-104038.336,-80416.42,-47201.05,-29773.723,-7391.805,-35840.25,-58492.8,-1930.5828
1312905.1593845123,-104032.59,-80410.04,-47202.434,-29772.625,-7387.573,-35840.7,-58491.945,-1934.2855
1312905.1633845067,-104026.695,-80396.89,-47203.29,-29771.16,-7383.2603,-35837.688,-58496.34,-1943.1967
1312905.1673845013,-104023.93,-80392.01,-47207.113,-29771.973,-7383.667,-35834.92,-58497.355,-1950.1547
1312905.1713844957,-104023.4,-80386.92,-47211.875,-29771.404,-7382.4463,-35837.566,-58495.812,-1943.3187
1312905.1753844903,-104018.234,-80376.836,-47214.97,-29769.328,-7377.8076,-35844.44,-58496.992,-1944.7429
1312905.1793844847,-104005.74,-80370.32,-47213.707,-29766.357,-7376.1396,-35845.418,-58497.152,-1946.574
1312905.1833844793,-104012.49,-80373.414,-47213.016,-29767.01,-7377.8076,-35838.543,-58496.22,-1950.3582
1312905.1873844739,-104011.805,-80362.875,-47215.332,-29767.213,-7375.4478,-35835.734,-58498.293,-1956.2988
1312905.1913844682,-104005.66,-80361.25,-47216.96,-29767.498,-7376.5464,-35839.03,-58496.38,-1951.9043
1312905.1953844628,-103998.17,-80353.88,-47216.758,-29763.754,-7373.291,-35847.74,-58500.082,-1957.8451
1312905.1993844572,-103989.22,-80335.25,-47213.38,-29758.668,-7366.618,-35850.504,-58505.293,-1968.6687
1312905.2033844518,-103981.445,-80330.2,-47209.555,-29756.227,-7363.8916,-35844.08,-58509.117,-1977.5798
1312905.2073844462,-103976.28,-80328.62,-47210.29,-29756.227,-7366.374,-35842.125,-58511.64,-1986.8978
1312905.2113844408,-103974.86,-80330.69,-47211.348,-29757.854,-7366.1704,-35845.46,-58509.562,-1986.5316
1312905.2153844351,-103972.21,-80328.33,-47212.445,-29756.227,-7364.7056,-35849.285,-58508.668,-1985.2295
1312905.2193844297,-103969.69,-80324.67,-47213.46,-29753.053,-7362.427,-35848.51,-58508.18,-1982.5033
1312905.223384424,-103964.56,-80317.79,-47211.836,-29752.197,-7361.5317,-35843.26,-58508.79,-1981.364
1312905.2273844187,-103968.1,-80320.03,-47212.566,-29755.047,-7361.491,-35844.2,-58511.72,-1988.6882
1312905.231384413,-103965.78,-80314.086,-47214.52,-29753.662,-7361.125,-35850.547,-58512.25,-1993.4082
1312905.2353844077,-103961.67,-80303.23,-47215.984,-29751.344,-7356.201,-35855.348,-58510.664,-1987.4675
1312905.2393844023,-103961.43,-80297.85,-47214.52,-29749.553,-7356.8115,-35854.168,-58510.094,-1983.4392
1312905.2433843967,-103963.87,-80300.984,-47214.07,-29753.053,-7357.91,-35849.773,-58512.656,-1994.2627
1312905.2473843913,-103970.83,-80306.36,-47218.875,-29755.615,-7356.771,-35848.27,-58514.977,-1995.2393
1312905.2513843856,-103969.98,-80308.48,-47225.508,-29755.168,-7355.1025,-35853.273,-58516.97,-2003.6215
1312905.2553843802,-103964.07,-80299.36,-47230.67,-29753.744,-7353.3125,-35858.6,-58514.65,-2001.5463
1312905.2593843746,-103950.56,-80286.016,-47227.703,-29750.244,-7349.935,-35856.812,-58510.582,-1991.2517
1312905.2633843692,-103947.31,-80281.78,-47223.88,-29749.188,-7349.4062,-35850.383,-58512.656,-1994.6697
1312905.2673843636,-103948.445,-80278.52,-47225.508,-29748.943,-7348.3076,-35848.633,-58513.957,-1996.7449
1312905.2713843582,-103952.805,-80280.84,-47228.273,-29749.879,-7347.3716,-35854.617,-58515.3,-2002.889
1312905.2753843525,-103949.51,-80277.95,-47226.81,-29747.275,-7343.221,-35861.613,-58516.48,-2004.5574
1312905.2793843471,-103948.37,-80274.375,-47223.758,-29745.117,-7341.8784,-35862.1,-58519.37,-2007.2836
1312905.2833843417,-103947.43,-80269.984,-47223.348,-29744.346,-7340.698,-35858.156,-58524.496,-2015.7472
1312905.287384336,-103951.13,-80270.67,-47226.24,-29745.85,-7343.3027,-35856.285,-58527.793,-2019.9789
1312905.2913843307,-103944.79,-80261.88,-47230.023,-29744.508,-7337.728,-35862.305,-58529.504,-2019.8976
1312905.295384325,-103946.01,-80263.1,-47231.527,-29743.205,-7334.3506,-35866.7,-58524.902,-2008.5857
1312905.2993843197,-103937.3,-80249.8,-47233.035,-29740.887,-7330.2817,-35867.35,-58520.875,-2001.8312
1312905.303384314,-103940.48,-80242.96,-47232.992,-29740.275,-7329.468,-35859.824,-58519.37,-2003.0519
1312905.3073843087,-103956.95,-80254.766,-47234.09,-29743.043,-7335.6934,-35855.594,-58517.824,-2004.6388
1312905.311384303,-103956.016,-80258.38,-47233.4,-29743.531,-7336.141,-35860.23,-58518.11,-2004.6388
1312905.3153842976,-103945.4,-80244.02,-47232.22,-29739.299,-7332.3975,-35863.61,-58516.195,-2003.7435
1312905.319384292,-103944.016,-80239.71,-47234.297,-29739.746,-7331.3804,-35863.08,-58515.832,-2003.0519
1312905.3233842866,-103944.7,-80244.875,-47234.62,-29744.102,-7334.7983,-35858.035,-58517.703,-2007.4056
1312905.327384281,-103940.59,-80239.51,-47237.43,-29745.525,-7337.606,-35856.977,-58519.613,-2009.7657
1312905.3313842756,-103952.6,-80243.695,-47242.312,-29743.693,-7338.176,-35860.434,-58518.516,-2004.0284
1312905.3353842702,-103951.09,-80233.445,-47242.92,-29740.072,-7332.1943,-35865.36,-58519.9,-2009.4808
1312905.3393842645,-103944.54,-80225.1,-47238.484,-29738.037,-7329.3867,-35864.83,-58520.836,-2014.0382
1312905.3433842591,-103945.516,-80221.766,-47236.086,-29738.69,-7332.1533,-35858.645,-58522.22,-2019.0837
1312905.3473842535,-103954.1,-80229.74,-47238.406,-29742.188,-7337.3213,-35853.07,-58517.336,-2017.7003
1312905.3513842481,-103958.3,-80236.58,-47242.066,-29744.305,-7340.0474,-35854.207,-58515.42,-2016.7644
1312905.3553842425,-103953.29,-80223.88,-47244.957,-29740.967,-7332.5195,-35858.6,-58514.49,-2013.9161
1312905.359384237,-103946.984,-80216.92,-47247.355,-29739.746,-7330.6885,-35857.625,-58516.48,-2017.4562
1312905.3633842315,-103955.484,-80231.77,-47249.473,-29741.904,-7337.4023,-35850.465,-58517.58,-2019.4093
1312905.367384226,-103965.945,-80231.57,-47254.723,-29745.117,-7341.024,-35848.43,-58519.86,-2025.2687
1312905.3713842204,-103963.664,-80225.67,-47256.105,-29743.49,-7339.1523,-35853.68,-58527.914,-2045.2474
1312905.375384215,-103949.99,-80210.57,-47254.07,-29738.322,-7330.3633,-35859.336,-58529.746,-2048.6248
1312905.3793842094,-103944.46,-80206.46,-47254.07,-29737.875,-7326.4976,-35856.285,-58524.824,-2040.0798
1312905.383384204,-103943.484,-80208.26,-47252.77,-29739.87,-7329.997,-35848.55,-58522.22,-2036.9467
1312905.3873841986,-103944.99,-80218.75,-47255.25,-29744.549,-7332.8047,-35843.508,-58518.84,-2030.5583
1312905.391384193,-103943.93,-80219.16,-47259.89,-29745.078,-7329.875,-35846.03,-58517.945,-2029.7039
1312905.3953841876,-103937.38,-80204.67,-47259.117,-29740.887,-7323.3237,-35849.0,-58516.97,-2026.7742
1312905.399384182,-103940.72,-80198.94,-47257.855,-29740.805,-7321.411,-35846.395,-58516.727,-2022.6644
1312905.4033841765,-103949.016,-80202.68,-47257.324,-29740.967,-7323.161,-35839.64,-58518.8,-2023.3562
1312905.407384171,-103950.89,-80209.15,-47256.758,-29742.92,-7326.2534,-35836.184,-58519.656,-2028.4425
1312905.4113841655,-103946.945,-80198.61,-47257.12,-29741.904,-7322.754,-35841.715,-58520.754,-2033.6508
1312905.41538416,-103940.88,-80186.12,-47259.402,-29739.502,-7315.715,-35846.805,-58520.348,-2033.1625
1312905.4193841545,-103947.72,-80194.22,-47259.562,-29740.357,-7316.2437,-35843.26,-58518.68,-2030.5177
1312905.4233841489,-103950.56,-80205.04,-47258.18,-29741.578,-7318.807,-35834.434,-58518.395,-2035.3597
1312905.4273841435,-103949.305,-80206.34,-47257.938,-29743.775,-7320.6787,-35832.887,-58518.555,-2037.3943
1312905.4313841378,-103939.01,-80197.31,-47260.133,-29744.14,-7318.0747,-35839.316,-58520.348,-2032.6742
1312905.4353841324,-103933.96,-80186.81,-47263.266,-29742.393,-7311.361,-35844.402,-58520.305,-2025.9603
1312905.439384127,-103932.3,-80182.336,-47263.43,-29741.252,-7309.001,-35843.02,-58517.215,-2018.1072
1312905.4433841214,-103933.84,-80183.516,-47263.387,-29743.49,-7310.262,-35839.6,-58521.445,-2028.4425
1312905.447384116,-103942.95,-80192.55,-47266.93,-29746.705,-7312.541,-35837.89,-58528.28,-2040.6088
1312905.4513841104,-103939.01,-80184.41,-47268.758,-29743.693,-7306.844,-35843.668,-58534.59,-2053.7517
1312905.455384105,-103944.46,-80184.695,-47270.43,-29741.416,-7303.508,-35848.96,-58534.508,-2050.6187
1312905.4593840993,-103935.305,-80169.76,-47268.395,-29738.934,-7300.293,-35846.438,-58532.188,-2044.5964
1312905.463384094,-103937.95,-80176.88,-47269.246,-29741.455,-7303.1006,-35839.6,-58532.023,-2048.5435
1312905.4673840883,-103955.98,-80192.55,-47272.79,-29745.24,-7308.838,-35835.33,-58529.137,-2048.8281
1312905.471384083,-103965.78,-80195.84,-47279.137,-29745.402,-7307.8613,-35840.414,-58529.46,-2048.1365
1312905.4753840773,-103957.6,-80188.48,-47280.316,-29744.59,-7305.664,-35845.664,-58529.176,-2040.6902
1312905.479384072,-103950.6,-80180.26,-47275.92,-29741.781,-7301.677,-35843.547,-58528.402,-2040.8937
1312905.4833840665,-103949.914,-80182.25,-47275.555,-29742.229,-7298.625,-35839.887,-58529.95,-2040.6902
1312905.4873840609,-103950.28,-80190.35,-47276.082,-29743.328,-7302.368,-35836.793,-58529.83,-2040.2833
1312905.4913840555,-103954.836,-80184.86,-47283.203,-29742.717,-7298.34,-35842.043,-58531.375,-2043.213
1312905.4953840498,-103946.66,-80174.85,-47287.355,-29741.375,-7292.6025,-35847.94,-58529.664,-2032.9183
1312905.4993840444,-103944.46,-80172.57,-47285.24,-29739.34,-7289.673,-35846.395,-58531.17,-2036.0109
1312905.5033840388,-103950.484,-80180.79,-47282.637,-29740.602,-7289.6323,-35840.902,-58535.156,-2050.2524
1312905.5073840334,-103952.72,-80186.2,-47284.305,-29743.287,-7292.5215,-35840.25,-58538.086,-2053.06
1312905.5113840278,-103951.99,-80181.16,-47287.03,-29743.896,-7292.5215,-35846.723,-58538.902,-2050.2524
1312905.5153840224,-103954.35,-80174.56,-47288.168,-29741.74,-7289.673,-35850.06,-58537.273,-2048.462
1312905.5193840167,-103960.66,-80176.07,-47288.37,-29741.049,-7288.2896,-35847.21,-58537.64,-2047.6075
1312905.5233840114,-103965.945,-80189.336,-47284.465,-29744.102,-7294.7593,-35841.96,-58538.496,-2045.8578
1312905.5273840057,-103961.67,-80188.64,-47284.71,-29745.443,-7300.578,-35841.105,-58538.7,-2049.5605
1312905.5313840003,-103955.33,-80174.4,-47288.656,-29743.164,-7294.5557,-35845.664,-58537.844,-2049.0317
1312905.535383995,-103951.79,-80168.625,-47290.45,-29739.502,-7287.069,-35849.773,-58533.613,-2044.3523
1312905.5393839893,-103948.04,-80162.44,-47289.633,-29736.98,-7284.302,-35847.332,-58527.832,-2031.4128
1312905.543383984,-103944.38,-80158.37,-47289.105,-29736.572,-7283.4067,-35840.047,-58527.305,-2029.6224
1312905.5473839783,-103945.48,-80161.586,-47290.12,-29738.201,-7285.5635,-35837.402,-58530.438,-2037.8419
1312905.5513839729,-103955.695,-80165.04,-47293.906,-29738.607,-7284.912,-35842.285,-58533.49,-2042.6433
1312905.5553839672,-103961.67,-80170.734,-47297.49,-29736.492,-7279.826,-35848.88,-58536.094,-2043.4164
1312905.5593839618,-103955.41,-80162.11,-47297.445,-29734.498,-7278.6865,-35849.12,-58536.418,-2042.5619
1312905.5633839562,-103961.63,-80168.016,-47298.992,-29737.346,-7281.4536,-35841.227,-58532.227,-2039.1439
1312905.5673839508,-103967.164,-80173.625,-47302.816,-29741.984,-7285.1973,-35839.273,-58529.992,-2040.8937
1312905.5713839452,-103965.3,-80165.9,-47304.65,-29741.13,-7282.756,-35845.01,-58531.17,-2043.8234
1312905.5753839398,-103952.97,-80156.336,-47302.492,-29736.898,-7278.076,-35848.39,-58528.85,-2036.1736
1312905.5793839341,-103959.11,-80169.27,-47303.1,-29736.125,-7278.89,-35845.055,-58524.133,-2024.4142
1312905.5833839288,-103957.36,-80166.305,-47302.492,-29736.451,-7281.047,-35839.48,-58524.008,-2026.9369
1312905.5873839234,-103966.15,-80171.63,-47303.55,-29737.754,-7282.756,-35837.89,-58528.605,-2040.1613
1312905.5913839177,-103969.04,-80168.664,-47305.746,-29737.672,-7281.169,-35843.426,-58532.555,-2049.0317
1312905.5953839123,-103967.25,-80165.61,-47308.797,-29735.88,-7277.181,-35848.55,-58532.88,-2050.3745
1312905.5993839067,-103971.4,-80167.52,-47308.92,-29735.434,-7278.8496,-35846.316,-58533.41,-2051.0662
1312905.6033839013,-103982.1,-80178.71,-47309.164,-29737.875,-7284.0986,-35839.234,-58532.066,-2048.0552
1312905.6073838957,-103977.945,-80169.516,-47309.004,-29739.055,-7284.709,-35838.707,-58533.977,-2051.8394
1312905.6113838903,-103970.38,-80163.21,-47308.72,-29737.428,-7281.25,-35844.85,-58534.426,-2056.3965
1312905.6153838846,-103960.695,-80155.32,-47305.83,-29732.178,-7273.926,-35848.105,-58533.0,-2052.0427
1312905.6193838792,-103966.02,-80160.52,-47304.2,-29731.65,-7275.798,-35845.176,-58529.46,-2043.5792
1312905.6233838736,-103966.07,-80158.53,-47302.45,-29732.83,-7279.012,-35841.84,-58534.1,-2049.8455
1312905.6273838682,-103964.6,-80156.17,-47302.125,-29732.463,-7280.355,-35840.332,-58534.953,-2058.065
1312905.6313838626,-103960.66,-80153.08,-47307.457,-29732.139,-7277.059,-35846.11,-58532.88,-2051.88
1312905.6353838572,-103967.086,-80154.38,-47310.184,-29730.186,-7273.8037,-35850.586,-58530.113,-2046.224
1312905.6393838518,-103972.984,-80164.35,-47309.652,-29731.283,-7275.228,-35847.984,-58528.402,-2045.8578
1312905.6433838462,-103975.55,-80162.516,-47312.99,-29733.766,-7279.0938,-35841.434,-58526.9,-2042.684
1312905.6473838408,-103969.73,-80161.336,-47314.496,-29734.05,-7280.721,-35840.7,-58530.152,-2050.2524
1312905.6513838351,-103969.41,-80159.914,-47314.82,-29733.277,-7277.0186,-35846.11,-58530.926,-2047.3226
1312905.6553838297,-103968.305,-80157.72,-47314.496,-29731.934,-7273.7227,-35852.336,-58530.48,-2045.1661
1312905.659383824,-103965.82,-80150.48,-47312.215,-29728.436,-7269.3687,-35849.04,-58528.81,-2042.6027
1312905.6633838187,-103968.266,-80158.04,-47311.484,-29729.371,-7273.8447,-35841.31,-58529.746,-2044.9626
1312905.667383813,-103976.08,-80165.04,-47313.355,-29731.486,-7279.297,-35839.926,-58532.473,-2055.0132
1312905.6713838077,-103983.24,-80165.53,-47316.855,-29730.51,-7275.635,-35846.723,-58534.508,-2062.0117
1312905.675383802,-103971.52,-80150.31,-47319.785,-29725.342,-7267.1714,-35853.844,-58540.812,-2070.5974
1312905.6793837966,-103976.32,-80157.23,-47323.977,-29725.383,-7268.3105,-35851.2,-58541.14,-2069.7837
1312905.683383791,-103990.234,-80171.02,-47324.707,-29728.8,-7275.228,-35845.38,-58542.48,-2077.6367
1312905.6873837856,-103983.24,-80162.4,-47323.773,-29729.045,-7279.46,-35843.668,-58547.527,-2082.9265
1312905.6913837802,-103969.0,-80149.375,-47321.7,-29726.238,-7276.7334,-35850.832,-58550.375,-2089.0708
1312905.6953837746,-103965.414,-80141.69,-47324.668,-29724.732,-7267.334,-35855.797,-58548.016,-2082.7637
1312905.6993837692,-103960.01,-80134.766,-47325.97,-29722.656,-7260.9053,-35851.89,-58539.918,-2063.7615
1312905.7033837636,-103960.94,-80142.58,-47324.87,-29724.447,-7264.079,-35843.18,-58528.81,-2043.5385
1312905.7073837582,-103967.94,-80142.3,-47329.67,-29726.93,-7266.1133,-35840.496,-58522.3,-2030.2736
1312905.7113837525,-103969.81,-80137.945,-47334.434,-29727.295,-7263.3467,-35845.34,-58520.875,-2025.0245
1312905.7153837471,-103957.805,-80129.72,-47333.66,-29723.959,-7260.498,-35849.45,-58519.492,-2025.1873
1312905.7193837415,-103965.01,-80135.375,-47331.3,-29722.738,-7260.7017,-35847.414,-58518.11,-2021.4437
1312905.723383736,-103974.49,-80137.05,-47331.18,-29725.75,-7267.4155,-35840.945,-58522.83,-2027.059
1312905.7273837305,-103972.62,-80140.67,-47331.383,-29725.506,-7268.718,-35842.082,-58528.08,-2035.7667
1312905.731383725,-103968.1,-80139.53,-47334.473,-29724.203,-7266.8457,-35849.49,-58530.234,-2040.1613
1312905.7353837197,-103968.34,-80139.65,-47335.41,-29723.797,-7262.329,-35855.387,-58529.91,-2037.0687
1312905.739383714,-103961.875,-80128.26,-47334.15,-29721.355,-7257.202,-35855.062,-58531.984,-2036.8246
1312905.7433837086,-103958.78,-80125.49,-47332.113,-29721.111,-7260.498,-35847.25,-58531.008,-2035.8888
1312905.747383703,-103981.0,-80145.1,-47336.1,-29727.05,-7267.9443,-35844.89,-58530.234,-2045.8578
1312905.7513836976,-103974.45,-80137.21,-47337.402,-29726.645,-7263.672,-35851.074,-58529.992,-2049.6013
1312905.755383692,-103967.25,-80130.05,-47335.41,-29722.373,-7258.586,-35853.965,-58525.96,-2049.398
1312905.7593836866,-103972.82,-80131.11,-47338.3,-29722.453,-7259.1553,-35851.117,-58527.996,-2052.1648
1312905.763383681,-103983.65,-80145.875,-47338.3,-29724.53,-7267.2935,-35843.426,-58532.15,-2064.087
1312905.7673836756,-103986.734,-80154.586,-47337.16,-29725.506,-7274.1294,-35841.96,-58533.164,-2074.829
1312905.77138367,-103987.02,-80156.336,-47339.234,-29725.22,-7273.8037,-35848.676,-58533.938,-2077.9216
1312905.7753836645,-103972.3,-80140.38,-47337.77,-29720.703,-7270.427,-35853.76,-58534.875,-2080.6072
1312905.779383659,-103971.52,-80137.62,-47336.305,-29717.693,-7267.741,-35851.48,-58533.69,-2076.294
1312905.7833836535,-103972.13,-80141.16,-47335.086,-29718.506,-7270.996,-35847.82,-58531.74,-2069.58
1312905.787383648,-103980.875,-80144.01,-47336.957,-29720.664,-7272.746,-35847.496,-58531.945,-2066.8132
1312905.7913836425,-103980.47,-80143.84,-47341.797,-29720.135,-7269.5312,-35854.453,-58533.164,-2066.8945
1312905.795383637,-103972.21,-80135.5,-47345.38,-29717.734,-7263.55,-35859.5,-58531.74,-2062.0117
1312905.7993836314,-103981.41,-80139.33,-47346.152,-29719.402,-7264.852,-35853.8,-58523.6,-2043.8234
1312905.803383626,-103987.305,-80145.836,-47347.09,-29724.895,-7270.508,-35846.152,-58520.266,-2044.4744
1312905.8073836204,-103990.805,-80151.86,-47349.082,-29724.082,-7273.3564,-35845.582,-58526.164,-2060.7097
1312905.811383615,-103993.984,-80150.31,-47351.44,-29721.152,-7272.1357,-35850.18,-58525.758,-2056.1523
1312905.8153836094,-103983.36,-80145.71,-47347.37,-29718.467,-7271.159,-35856.16,-58525.555,-2054.4841
1312905.819383604,-103978.6,-80142.055,-47343.793,-29716.514,-7269.206,-35856.65,-58529.625,-2054.4028
1312905.8233835984,-103969.98,-80137.49,-47341.39,-29716.635,-7270.915,-35852.418,-58536.215,-2061.8083
1312905.827383593,-103965.664,-80138.35,-47341.555,-29717.285,-7275.2686,-35853.312,-58541.71,-2073.812
1312905.8313835873,-103980.92,-80152.59,-47347.414,-29718.506,-7275.0244,-35857.953,-58538.414,-2064.0056
1312905.835383582,-103980.96,-80146.94,-47349.734,-29716.309,-7268.84,-35861.53,-58538.82,-2061.8083
1312905.8393835765,-103972.66,-80137.984,-47348.918,-29713.705,-7263.6313,-35858.805,-58537.234,-2061.1572
1312905.843383571,-103974.734,-80142.74,-47346.844,-29716.758,-7268.3516,-35852.457,-58534.75,-2055.8677
1312905.8473835655,-103976.484,-80146.57,-47345.418,-29717.938,-7273.8447,-35850.914,-58534.832,-2057.8613
1312905.8513835599,-103979.13,-80145.71,-47348.51,-29715.902,-7271.2812,-35855.387,-58535.402,-2059.2856
1312905.8553835545,-103975.55,-80136.15,-47350.465,-29713.908,-7263.835,-35858.93,-58530.234,-2047.1599
1312905.8593835488,-103970.91,-80135.83,-47349.69,-29712.078,-7263.3467,-35855.31,-58522.746,-2036.906
1312905.8633835434,-103976.484,-80139.94,-47350.71,-29713.705,-7267.4155,-35847.656,-58517.17,-2030.1107
1312905.8673835378,-103988.08,-80150.555,-47354.617,-29718.467,-7272.38,-35844.363,-58513.023,-2025.4314
1312905.8713835324,-103989.664,-80145.1,-47356.73,-29718.14,-7268.4326,-35848.023,-58510.297,-2024.9025
1312905.8753835268,-103991.91,-80140.875,-47358.766,-29715.21,-7263.916,-35850.18,-58506.39,-2019.4093
1312905.8793835214,-103985.6,-80138.59,-47354.902,-29712.484,-7260.9053,-35847.574,-58505.7,-2017.7816
1312905.8833835158,-103982.016,-80135.91,-47351.645,-29712.77,-7260.946,-35843.793,-58507.855,-2022.4203
1312905.8873835104,-103984.46,-80134.32,-47352.336,-29713.787,-7260.0913,-35844.484,-58510.46,-2029.5004
1312905.891383505,-103980.92,-80130.086,-47353.926,-29712.078,-7257.243,-35849.773,-58509.523,-2028.7273
1312905.8953834993,-103976.69,-80121.7,-47353.56,-29707.643,-7251.4243,-35853.516,-58511.598,-2029.7445
1312905.899383494,-103982.18,-80121.75,-47355.918,-29706.055,-7248.454,-35850.426,-58513.754,-2032.3488
1312905.9033834883,-103992.96,-80135.54,-47358.887,-29710.531,-7255.697,-35845.055,-58517.945,-2041.4633
1312905.907383483,-103999.59,-80141.93,-47361.492,-29714.316,-7260.8643,-35843.953,-58516.97,-2045.6544
1312905.9113834773,-104001.914,-80138.96,-47367.637,-29713.828,-7258.789,-35850.992,-58518.027,-2055.949
1312905.9153834719,-104001.67,-80132.164,-47367.96,-29711.264,-7256.1445,-35854.41,-58515.91,-2045.2882
1312905.9193834662,-103995.0,-80133.42,-47359.99,-29708.701,-7256.6733,-35852.01,-58514.61,-2043.864
1312905.9233834608,-103998.3,-80143.6,-47357.016,-29708.578,-7262.777,-35843.223,-58509.277,-2032.7556
1312905.9273834552,-103990.97,-80134.484,-47356.61,-29708.293,-7262.9805,-35842.0,-58510.094,-2036.0109
1312905.9313834498,-103989.1,-80126.23,-47359.5,-29706.055,-7257.9346,-35848.633,-58509.766,-2035.197
1312905.9353834444,-103981.734,-80119.19,-47359.133,-29702.842,-7254.598,-35851.688,-58506.066,-2025.5128
1312905.9393834388,-103985.84,-80122.93,-47358.113,-29702.23,-7254.5166,-35847.086,-58500.938,-2017.1713
1312905.9433834334,-103990.195,-80129.766,-47358.562,-29703.736,-7259.603,-35840.82,-58498.375,-2013.3058
1312905.9473834278,-104003.83,-80149.7,-47362.02,-29708.416,-7265.4624,-35838.42,-58495.73,-2013.7941
1312905.9513834224,-104002.0,-80144.33,-47362.754,-29706.91,-7261.7188,-35846.477,-58496.137,-2013.1023
1312905.9553834167,-103985.88,-80122.32,-47360.35,-29700.44,-7253.011,-35853.516,-58499.23,-2014.6486
1312905.9593834113,-103982.71,-80118.9,-47358.6,-29698.854,-7250.814,-35849.69,-58497.805,-2005.9816
1312905.9633834057,-103983.445,-80121.625,-47356.812,-29699.707,-7253.3774,-35842.285,-58494.184,-2000.0408
1312905.9673834003,-103990.28,-80126.38,-47357.953,-29702.068,-7256.714,-35840.66,-58490.03,-1999.1049
1312905.9713833947,-103999.23,-80127.81,-47363.16,-29702.76,-7254.72,-35846.723,-58488.934,-2003.7435
1312905.9753833893,-103999.31,-80130.66,-47363.65,-29701.172,-7251.2207,-35848.43,-58486.816,-2008.7484
1312905.9793833836,-103992.555,-80124.35,-47360.15,-29700.36,-7251.953,-35846.07,-58487.918,-2008.0974
1312905.9833833782,-103988.94,-80127.32,-47356.527,-29699.871,-7257.0396,-35841.39,-58490.074,-2008.7484
1312905.9873833728,-103993.695,-80127.93,-47358.156,-29702.068,-7261.6377,-35839.316,-58490.93,-2014.6486
1312905.9913833672,-103990.64,-80124.96,-47359.457,-29701.621,-7257.528,-35844.363,-58490.277,-2012.2885
1312905.9953833618,-103983.445,-80116.91,-47359.457,-29698.203,-7251.1396,-35848.227,-58488.12,-2008.7892
1312905.9993833562,-103979.58,-80111.78,-47359.297,-29696.33,-7248.983,-35845.5,-58487.51,-2008.3009
1312906.0033833508,-103980.76,-80114.87,-47361.29,-29698.283,-7252.6855,-35840.17,-58490.277,-2011.8816
1312906.0073833452,-103995.0,-80129.97,-47361.777,-29700.115,-7257.324,-35838.094,-58492.35,-2018.921
1312906.0113833398,-103996.75,-80127.41,-47364.016,-29698.975,-7255.9004,-35843.508,-58490.766,-2019.572
1312906.0153833341,-103992.03,-80116.664,-47364.18,-29696.127,-7251.2617,-35847.535,-58489.668,-2016.2761
1312906.0193833287,-103995.0,-80118.086,-47360.637,-29695.8,-7250.4883,-35844.484,-58488.324,-2013.2244
1312906.023383323,-103990.52,-80115.484,-47359.457,-29697.43,-7257.0396,-35840.008,-58491.293,-2018.1886
1312906.0273833177,-103995.2,-80119.266,-47361.816,-29698.447,-7258.3823,-35838.258,-58491.496,-2017.7816
1312906.031383312,-103999.31,-80118.57,-47366.457,-29699.463,-7257.7314,-35841.35,-58486.98,-2009.6843
1312906.0353833067,-104000.29,-80116.74,-47366.78,-29697.104,-7256.429,-35840.902,-58481.69,-2001.3021
1312906.0393833013,-104003.42,-80118.66,-47364.83,-29695.518,-7257.772,-35835.734,-58478.844,-1997.3959
1312906.0433832956,-104007.77,-80123.375,-47362.227,-29697.959,-7265.8286,-35828.125,-58478.68,-1996.1345
1312906.0473832902,-104001.95,-80116.62,-47362.43,-29698.61,-7267.2935,-35825.4,-58475.793,-1996.0938
1312906.0513832846,-104002.65,-80117.44,-47365.887,-29698.895,-7265.381,-35828.33,-58471.805,-1998.4539
1312906.0553832792,-104004.16,-80119.47,-47367.598,-29697.754,-7262.004,-35829.754,-58462.934,-1986.613
1312906.0593832736,-103996.055,-80113.445,-47363.973,-29697.389,-7259.6436,-35823.934,-58460.37,-1982.3406
1312906.0633832682,-103993.62,-80109.78,-47364.746,-29699.057,-7261.312,-35815.918,-58460.45,-1984.4158
1312906.0673832626,-104000.66,-80114.38,-47366.58,-29699.3,-7262.004,-35811.605,-58460.613,-1987.9558
1312906.0713832572,-104011.03,-80119.02,-47370.85,-29700.4,-7260.62,-35815.676,-58463.34,-1990.3972
1312906.0753832515,-104001.8,-80109.3,-47370.363,-29699.545,-7256.4697,-35821.29,-58465.457,-1984.4564
1312906.0793832461,-103996.83,-80105.02,-47366.254,-29697.918,-7256.958,-35817.426,-58466.88,-1984.375
1312906.0833832405,-104003.75,-80116.414,-47366.17,-29699.912,-7263.55,-35808.473,-58467.773,-1988.4847
1312906.087383235,-104003.3,-80117.27,-47367.11,-29701.742,-7265.3403,-35806.64,-58467.164,-1986.084
1312906.0913832297,-104000.125,-80111.984,-47368.695,-29700.074,-7259.074,-35812.137,-58470.215,-1997.1924
1312906.095383224,-103996.34,-80103.27,-47369.266,-29696.697,-7253.459,-35813.883,-58470.746,-1999.4711
1312906.0993832187,-103989.51,-80103.35,-47366.742,-29693.4,-7252.5635,-35806.234,-58467.9,-1990.0717
1312906.103383213,-103995.52,-80109.78,-47367.39,-29695.965,-7255.819,-35799.03,-58467.164,-1986.7351
1312906.1073832077,-104006.15,-80112.8,-47369.14,-29699.504,-7255.9814,-35797.69,-58467.773,-1993.571
1312906.111383202,-104008.836,-80109.5,-47372.64,-29699.016,-7251.872,-35802.164,-58468.957,-1998.3724
1312906.1153831966,-104007.9,-80111.01,-47373.008,-29697.754,-7250.814,-35804.688,-58466.96,-1993.2861
1312906.119383191,-104017.87,-80119.1,-47375.33,-29698.812,-7253.581,-35799.684,-58465.05,-1985.0261
1312906.1233831856,-104020.96,-80117.234,-47377.688,-29699.748,-7253.8657,-35792.523,-58462.445,-1977.3763
1312906.12738318,-104026.164,-80118.164,-47381.31,-29701.701,-7254.3135,-35792.074,-58458.293,-1972.7783
1312906.1313831746,-104034.34,-80120.85,-47385.54,-29703.207,-7252.8076,-35796.957,-58451.01,-1964.1927
1312906.135383169,-104038.945,-80127.24,-47386.11,-29702.312,-7251.3022,-35799.195,-58446.94,-1956.8279
1312906.1393831635,-104034.51,-80120.28,-47383.63,-29700.889,-7250.0,-35796.47,-58446.13,-1951.7822
1312906.1433831581,-104034.43,-80119.67,-47381.797,-29703.33,-7254.6387,-35791.06,-58447.188,-1948.9746
1312906.1473831525,-104036.42,-80133.34,-47380.78,-29705.527,-7259.3184,-35789.957,-58451.38,-1955.6478
1312906.151383147,-104041.06,-80132.94,-47382.652,-29702.557,-7258.0566,-35794.434,-58452.07,-1959.432
1312906.1553831415,-104026.53,-80113.37,-47383.098,-29697.674,-7250.7734,-35799.6,-58457.848,-1964.3962
1312906.159383136,-104024.414,-80112.39,-47381.51,-29697.104,-7250.5293,-35796.023,-58459.8,-1964.3962
1312906.1633831304,-104038.78,-80129.72,-47383.953,-29701.213,-7257.772,-35791.26,-58462.08,-1968.9535
1312906.167383125,-104036.42,-80130.54,-47383.383,-29701.172,-7259.074,-35789.55,-58464.64,-1976.8881
1312906.1713831194,-104028.61,-80118.414,-47383.953,-29699.139,-7254.5166,-35796.59,-58466.96,-1979.0447
1312906.175383114,-104016.24,-80104.58,-47383.098,-29696.006,-7249.634,-35802.37,-58472.168,-1983.5205
1312906.1793831084,-104019.125,-80107.586,-47382.203,-29694.621,-7251.6685,-35799.848,-58473.918,-1987.0199
1312906.183383103,-104022.18,-80116.46,-47381.023,-29695.72,-7256.307,-35792.523,-58472.74,-1986.8164
1312906.1873830976,-104023.484,-80122.766,-47383.383,-29698.936,-7260.5796,-35791.22,-58471.316,-1983.8867
1312906.191383092,-104027.14,-80117.84,-47387.74,-29699.79,-7255.8594,-35795.33,-58472.293,-1986.9385
1312906.1953830866,-104024.26,-80107.016,-47387.535,-29695.477,-7248.8203,-35798.42,-58472.94,-1989.4613
1312906.199383081,-104024.78,-80106.445,-47387.656,-29694.297,-7248.413,-35793.54,-58471.438,-1988.0371
1312906.2033830755,-104026.37,-80112.875,-47387.94,-29696.818,-7252.9297,-35785.973,-58470.42,-1994.9951
1312906.20738307,-104027.67,-80112.76,-47389.49,-29697.186,-7254.883,-35784.465,-58465.82,-1988.9324
1312906.2113830645,-104020.47,-80104.45,-47388.918,-29694.5,-7252.4824,-35790.04,-58458.78,-1975.7488
1312906.2153830589,-104016.28,-80101.08,-47388.31,-29691.855,-7248.047,-35793.297,-58453.332,-1957.4789
1312906.2193830535,-104020.15,-80107.26,-47385.094,-29692.018,-7249.634,-35788.13,-58447.715,-1940.8773
1312906.2233830479,-104027.47,-80115.69,-47383.586,-29695.395,-7254.7607,-35783.164,-58446.453,-1934.2449
1312906.2273830425,-104031.13,-80119.71,-47385.215,-29696.127,-7256.0225,-35781.82,-58447.55,-1939.5345
1312906.2313830368,-104021.734,-80112.23,-47386.395,-29694.5,-7251.5464,-35786.906,-58449.707,-1944.6615
1312906.2353830314,-104019.62,-80108.766,-47389.0,-29692.547,-7247.8027,-35792.195,-58452.11,-1947.6318
1312906.239383026,-104023.03,-80108.195,-47387.332,-29692.139,-7246.948,-35789.43,-58452.72,-1944.1326
1312906.2433830204,-104020.15,-80105.06,-47386.23,-29693.97,-7246.745,-35785.77,-58458.008,-1954.956
1312906.247383015,-104017.3,-80103.88,-47388.145,-29694.906,-7246.7856,-35788.13,-58461.793,-1963.908
1312906.2513830094,-104014.53,-80102.586,-47389.406,-29692.953,-7244.792,-35793.215,-58460.86,-1960.3271
1312906.255383004,-104022.055,-80111.25,-47392.863,-29691.244,-7244.8325,-35796.227,-58459.11,-1957.723
1312906.2593829983,-104029.26,-80117.8,-47392.457,-29691.244,-7246.7856,-35792.36,-58456.34,-1953.532
1312906.263382993,-104022.46,-80113.0,-47389.363,-29692.059,-7248.2505,-35785.688,-58453.74,-1950.5615
1312906.2673829873,-104018.48,-80103.44,-47391.562,-29692.059,-7246.7856,-35786.05,-58455.85,-1959.0658
1312906.271382982,-104021.57,-80108.6,-47395.47,-29691.895,-7244.9546,-35792.035,-58457.645,-1959.3914
1312906.2753829763,-104020.266,-80106.28,-47394.168,-29688.762,-7241.8623,-35792.44,-58455.242,-1954.2644
1312906.2793829709,-104017.3,-80096.766,-47389.49,-29686.117,-7240.072,-35788.656,-58452.11,-1947.3877
1312906.2833829653,-104021.69,-80104.33,-47390.016,-29688.762,-7246.582,-35782.84,-58446.496,-1939.9414
1312906.2873829599,-104025.07,-80110.48,-47394.453,-29693.36,-7250.6104,-35780.273,-58442.71,-1935.1807
1312906.2913829545,-104028.89,-80103.88,-47399.66,-29691.65,-7247.8843,-35784.668,-58438.355,-1928.3855
1312906.2953829488,-104033.734,-80103.234,-47402.793,-29689.82,-7244.3037,-35788.13,-58437.137,-1931.3558
1312906.2993829434,-104038.945,-80111.62,-47401.777,-29691.406,-7245.036,-35783.0,-58433.434,-1928.3447
1312906.3033829378,-104038.086,-80115.4,-47399.008,-29693.441,-7247.0703,-35776.246,-58428.67,-1923.8689
1312906.3073829324,-104027.75,-80101.08,-47398.97,-29691.65,-7244.3037,-35777.387,-58429.2,-1924.113
1312906.3113829268,-104028.0,-80099.445,-47399.21,-29687.582,-7239.502,-35785.484,-58431.848,-1923.1365
1312906.3153829214,-104031.21,-80096.195,-47398.36,-29683.025,-7234.741,-35787.56,-58430.46,-1916.3005
1312906.3193829157,-104031.21,-80097.086,-47396.445,-29683.473,-7237.468,-35783.895,-58431.97,-1913.6963
1312906.3233829103,-104033.94,-80105.76,-47397.543,-29687.785,-7245.5244,-35781.332,-58437.01,-1915.6088
1312906.3273829047,-104040.37,-80114.38,-47398.562,-29689.982,-7248.6167,-35779.99,-58438.152,-1919.1895
1312906.3313828993,-104037.97,-80112.06,-47402.06,-29690.959,-7247.8843,-35786.824,-58441.652,-1925.5779
1312906.3353828937,-104036.7,-80110.64,-47402.387,-29688.762,-7245.7275,-35792.117,-58444.582,-1932.5765
1312906.3393828883,-104035.93,-80109.13,-47396.77,-29686.729,-7244.1,-35786.176,-58441.613,-1929.5654
1312906.343382883,-104031.414,-80101.81,-47395.266,-29686.729,-7242.269,-35779.46,-58441.57,-1928.5482
1312906.3473828773,-104027.59,-80101.445,-47399.54,-29687.379,-7241.9844,-35781.09,-58446.086,-1936.7676
1312906.3513828719,-104030.12,-80099.66,-47404.38,-29686.85,-7236.8164,-35788.492,-58448.977,-1940.0635
1312906.3553828662,-104031.984,-80102.17,-47404.055,-29685.182,-7233.6836,-35790.73,-58448.164,-1933.3904
1312906.3593828608,-104032.31,-80101.766,-47400.35,-29682.902,-7234.5786,-35784.87,-58448.45,-1938.9242
1312906.3633828552,-104043.3,-80112.67,-47402.914,-29685.426,-7239.0547,-35776.33,-58442.26,-1935.0994
1312906.3673828498,-104053.305,-80113.41,-47409.383,-29688.72,-7241.903,-35774.05,-58436.16,-1922.3226
1312906.3713828442,-104053.63,-80109.83,-47414.023,-29687.46,-7236.9385,-35779.95,-58433.516,-1922.0785
1312906.3753828388,-104051.15,-80112.23,-47413.008,-29686.402,-7235.7993,-35783.734,-58429.688,-1916.097
1312906.3793828331,-104051.11,-80116.62,-47410.77,-29687.217,-7241.211,-35779.746,-58428.793,-1914.1846
1312906.3833828277,-104052.58,-80117.68,-47410.28,-29689.291,-7246.867,-35774.21,-58429.08,-1918.5791
1312906.3873828223,-104054.2,-80119.305,-47409.71,-29688.965,-7247.274,-35773.152,-58427.695,-1920.044
1312906.3913828167,-104053.43,-80114.99,-47414.715,-29684.855,-7240.967,-35780.56,-58428.836,-1915.446
1312906.3953828113,-104051.44,-80112.14,-47415.652,-29682.7,-7235.6772,-35785.36,-58429.65,-1917.1957
1312906.3993828057,-104048.83,-80110.96,-47412.19,-29683.188,-7235.3516,-35783.0,-58431.234,-1919.2709
1312906.4033828003,-104045.375,-80109.58,-47411.133,-29685.14,-7239.5835,-35779.01,-58431.152,-1916.748
1312906.4073827947,-104046.555,-80110.31,-47413.086,-29685.223,-7241.211,-35781.94,-58435.63,-1924.1943
1312906.4113827893,-104056.97,-80114.305,-47415.977,-29685.264,-7239.868,-35788.332,-58441.45,-1934.3262
1312906.4153827836,-104052.25,-80111.49,-47415.45,-29681.479,-7234.8633,-35790.082,-58441.367,-1929.5248
1312906.4193827782,-104045.9,-80110.96,-47413.453,-29679.322,-7236.369,-35786.906,-58440.43,-1923.991
1312906.4233827726,-104058.39,-80121.42,-47413.86,-29682.293,-7242.4727,-35780.56,-58441.203,-1935.7097
1312906.4273827672,-104065.92,-80130.01,-47415.285,-29685.264,-7245.158,-35780.438,-58441.938,-1943.1152
1312906.4313827616,-104059.49,-80125.086,-47419.273,-29683.066,-7240.2754,-35785.44,-58440.31,-1943.1152
1312906.4353827562,-104063.84,-80126.875,-47421.67,-29680.34,-7236.776,-35787.64,-58438.887,-1941.8945
1312906.4393827508,-104056.805,-80120.57,-47418.17,-29678.346,-7237.1826,-35784.71,-58439.047,-1944.6208
1312906.4433827451,-104047.49,-80118.66,-47414.188,-29678.467,-7241.8623,-35780.03,-58438.316,-1943.4001
1312906.4473827397,-104048.75,-80122.48,-47414.43,-29677.246,-7243.164,-35780.113,-58438.07,-1940.1855
1312906.451382734,-104053.266,-80117.15,-47416.953,-29675.781,-7237.915,-35787.395,-58437.22,-1928.9958
1312906.4553827287,-104044.92,-80110.92,-47413.086,-29672.283,-7233.3174,-35792.32,-58436.242,-1922.7703
1312906.459382723,-104039.76,-80106.28,-47411.055,-29670.371,-7232.0557,-35788.535,-58437.46,-1927.4496
1312906.4633827177,-104044.03,-80111.164,-47410.44,-29671.104,-7234.5786,-35783.734,-58439.617,-1931.2744
1312906.467382712,-104059.49,-80121.55,-47415.04,-29674.928,-7237.59,-35782.145,-58436.363,-1923.055
1312906.4713827067,-104060.06,-80121.95,-47418.785,-29674.969,-7238.2812,-35786.336,-58433.594,-1916.9922
1312906.475382701,-104057.26,-80113.2,-47422.12,-29673.137,-7236.5317,-35790.0,-58433.188,-1910.8887
1312906.4793826956,-104054.734,-80114.42,-47420.207,-29672.852,-7235.189,-35788.94,-58435.957,-1911.906
1312906.48338269,-104055.75,-80120.484,-47420.74,-29673.828,-7236.5317,-35784.344,-58438.684,-1915.2426
1312906.4873826846,-104056.07,-80117.48,-47421.43,-29674.643,-7236.45,-35786.297,-58440.227,-1921.7529
1312906.4913826792,-104062.14,-80119.39,-47423.34,-29673.178,-7231.4863,-35791.75,-58439.496,-1918.9047
1312906.4953826736,-104070.516,-80123.3,-47425.824,-29671.469,-7228.9634,-35793.582,-58436.28,-1912.9639
1312906.4993826682,-104065.19,-80122.805,-47424.316,-29671.104,-7230.2656,-35787.8,-58435.14,-1913.6963
1312906.5033826625,-104069.09,-80126.18,-47422.773,-29673.951,-7234.945,-35780.805,-58436.934,-1922.6888
1312906.5073826571,-104072.516,-80128.055,-47424.6,-29675.537,-7238.2,-35782.758,-58438.113,-1920.5322
1312906.5113826515,-104063.88,-80118.66,-47422.812,-29671.957,-7234.9043,-35789.145,-58435.996,-1912.557
1312906.5153826461,-104063.44,-80116.945,-47422.85,-29668.906,-7228.1494,-35793.945,-58437.867,-1923.991
1312906.5193826405,-104056.28,-80107.79,-47417.727,-29668.945,-7226.6035,-35791.098,-58441.0,-1931.8035
1312906.523382635,-104061.69,-80116.74,-47415.242,-29671.875,-7232.0967,-35783.652,-58444.582,-1941.8132
1312906.5273826295,-104069.3,-80122.36,-47418.582,-29673.79,-7233.236,-35784.383,-58446.086,-1943.4001
1312906.531382624,-104072.31,-80125.164,-47424.766,-29673.137,-7231.527,-35789.348,-58445.8,-1946.8588
1312906.5353826184,-104078.62,-80126.1,-47428.02,-29672.324,-7229.6553,-35793.582,-58447.266,-1944.7429
1312906.539382613,-104076.22,-80126.18,-47427.492,-29672.527,-7229.0854,-35790.242,-58446.82,-1941.5691
1312906.5433826076,-104070.44,-80116.46,-47426.68,-29671.875,-7230.51,-35784.383,-58443.035,-1940.6738
1312906.547382602,-104077.72,-80126.55,-47428.145,-29672.812,-7232.544,-35784.02,-58442.508,-1941.3656
1312906.5513825966,-104078.9,-80131.88,-47430.746,-29672.16,-7231.4863,-35788.74,-58439.617,-1932.8613
1312906.555382591,-104077.31,-80126.95,-47430.38,-29669.639,-7228.4346,-35791.87,-58437.34,-1928.1006
1312906.5593825856,-104081.79,-80128.016,-47428.02,-29669.678,-7230.713,-35784.63,-58430.95,-1914.6322
1312906.56338258,-104090.17,-80138.23,-47427.246,-29675.293,-7236.898,-35777.547,-58424.4,-1901.8148
1312906.5673825745,-104083.46,-80132.24,-47427.207,-29674.113,-7237.142,-35778.523,-58426.883,-1898.3154
1312906.571382569,-104082.805,-80128.42,-47430.543,-29671.672,-7233.9683,-35783.734,-58424.277,-1890.4216
1312906.5753825635,-104082.97,-80128.3,-47431.4,-29668.906,-7228.882,-35786.133,-58421.797,-1883.9519
1312906.579382558,-104082.6,-80127.98,-47430.504,-29668.498,-7226.8477,-35784.547,-58426.066,-1893.4326
1312906.5833825525,-104081.914,-80131.11,-47428.55,-29670.654,-7230.51,-35779.95,-58431.848,-1904.541
1312906.587382547,-104091.39,-80135.664,-47430.91,-29671.672,-7232.341,-35780.887,-58432.78,-1907.8369
1312906.5913825415,-104088.42,-80123.336,-47433.516,-29668.133,-7225.2607,-35785.93,-58431.562,-1903.4017
1312906.595382536,-104084.11,-80119.305,-47433.31,-29663.818,-7220.7847,-35788.82,-58431.766,-1905.8838
1312906.5993825304,-104093.836,-80125.57,-47432.254,-29663.86,-7222.0054,-35784.18,-58430.625,-1906.5756
1312906.603382525,-104100.99,-80128.42,-47430.098,-29662.518,-7222.046,-35778.16,-58432.742,-1915.0391
1312906.6073825194,-104099.04,-80126.38,-47430.258,-29662.436,-7223.796,-35778.523,-58433.066,-1919.4336
1312906.611382514,-104099.0,-80122.16,-47434.53,-29661.297,-7222.29,-35786.5,-58431.766,-1918.0095
1312906.6153825084,-104106.85,-80135.664,-47434.855,-29660.238,-7220.2964,-35788.13,-58426.477,-1902.0996
1312906.619382503,-104100.38,-80126.23,-47430.543,-29658.244,-7219.8486,-35784.305,-58429.73,-1908.7322
1312906.6233824973,-104105.11,-80130.21,-47429.566,-29660.85,-7226.0337,-35778.566,-58429.688,-1909.139
1312906.627382492,-104116.74,-80145.06,-47433.105,-29663.047,-7227.2544,-35779.297,-58430.95,-1916.8701
1312906.6313824863,-104109.78,-80135.664,-47434.9,-29661.053,-7222.9414,-35786.297,-58433.434,-1916.2598
1312906.635382481,-104101.85,-80126.79,-47435.914,-29657.838,-7219.686,-35790.527,-58433.188,-1917.033
1312906.6393824755,-104103.805,-80129.44,-47435.387,-29657.756,-7220.256,-35785.93,-58431.074,-1917.1957
1312906.64338247,-104115.4,-80140.46,-47436.484,-29659.506,-7223.1445,-35779.215,-58428.793,-1911.2549
1312906.6473824645,-104125.25,-80150.31,-47440.633,-29661.094,-7226.074,-35777.67,-58427.29,-1905.9246
1312906.6513824589,-104121.95,-80141.766,-47444.297,-29659.18,-7225.2197,-35783.977,-58425.66,-1902.3031
1312906.6553824535,-104114.79,-80137.21,-47441.45,-29656.088,-7222.1274,-35786.38,-58423.625,-1892.3748
1312906.6593824478,-104106.37,-80136.234,-47434.695,-29654.785,-7221.5986,-35783.734,-58422.61,-1888.9974
1312906.6633824424,-104111.58,-80137.29,-47432.375,-29657.064,-7226.278,-35779.99,-58424.727,-1891.9271
1312906.6673824368,-104116.414,-80142.87,-47433.758,-29656.82,-7228.2715,-35780.234,-58426.27,-1893.1478
1312906.6713824314,-104113.94,-80138.305,-47438.477,-29654.297,-7223.755,-35786.703,-58429.363,-1894.4906
1312906.6753824258,-104110.76,-80131.8,-47437.99,-29651.408,-7219.4014,-35789.88,-58432.457,-1898.2341
1312906.6793824204,-104113.65,-80132.29,-47435.184,-29653.402,-7221.5576,-35785.402,-58427.41,-1895.3044
1312906.6833824147,-104127.04,-80144.33,-47434.695,-29657.35,-7227.9463,-35775.96,-58421.633,-1884.847
1312906.6873824093,-104132.81,-80144.37,-47438.52,-29657.715,-7228.801,-35774.008,-58421.47,-1890.9099
1312906.691382404,-104143.555,-80152.63,-47444.133,-29658.773,-7230.754,-35778.688,-58421.797,-1892.863
1312906.6953823983,-104145.76,-80155.44,-47441.285,-29657.553,-7228.475,-35782.31,-58421.47,-1896.4437
1312906.699382393,-104144.05,-80155.97,-47437.055,-29657.023,-7229.167,-35778.65,-58422.73,-1906.9011
1312906.7033823873,-104144.17,-80154.83,-47438.926,-29659.14,-7233.4395,-35774.09,-58424.848,-1910.2377
1312906.707382382,-104144.984,-80159.47,-47444.094,-29660.238,-7233.5205,-35773.195,-58423.547,-1914.6322
1312906.7113823763,-104147.83,-80157.48,-47448.57,-29660.076,-7230.7944,-35777.59,-58419.273,-1908.0404
1312906.7153823709,-104151.94,-80156.91,-47448.324,-29659.791,-7227.458,-35776.41,-58410.2,-1898.6816
1312906.7193823652,-104148.234,-80145.19,-47445.027,-29657.635,-7225.505,-35770.305,-58404.38,-1886.9222
1312906.7233823598,-104154.3,-80149.13,-47443.402,-29660.4,-7231.201,-35765.34,-58401.574,-1880.5746
1312906.7273823542,-104159.305,-80159.95,-47447.31,-29663.168,-7237.8745,-35766.727,-58401.043,-1873.1283
1312906.7313823488,-104161.26,-80163.336,-47450.97,-29661.906,-7234.4565,-35770.71,-58399.742,-1866.0889
1312906.7353823432,-104152.06,-80155.11,-47453.086,-29659.629,-7228.0684,-35773.355,-58402.062,-1868.3676
1312906.7393823378,-104154.914,-80150.07,-47452.76,-29658.57,-7227.051,-35767.984,-58400.92,-1862.6709
1312906.7433823324,-104156.25,-80158.98,-47451.418,-29660.156,-7234.3345,-35763.1,-58403.484,-1867.4316
1312906.7473823268,-104163.66,-80162.72,-47453.574,-29662.15,-7236.8164,-35763.31,-58405.52,-1871.582
1312906.7513823214,-104171.72,-80160.41,-47455.73,-29661.5,-7230.632,-35768.8,-58405.4,-1869.0186
1312906.7553823157,-104161.75,-80150.19,-47451.785,-29657.797,-7226.7256,-35770.71,-58407.27,-1871.2158
1312906.7593823103,-104164.06,-80149.58,-47450.195,-29657.432,-7228.882,-35766.766,-58410.523,-1875.5697
1312906.7633823047,-104175.78,-80158.86,-47449.953,-29660.441,-7233.032,-35758.668,-58409.18,-1873.0469
1312906.7673822993,-104182.414,-80164.875,-47450.44,-29662.314,-7237.427,-35757.406,-58408.49,-1873.0876
1312906.7713822937,-104179.484,-80161.625,-47453.168,-29660.564,-7237.386,-35761.07,-58405.64,-1872.5586
1312906.7753822883,-104179.28,-80158.57,-47453.37,-29659.385,-7235.189,-35758.426,-58398.48,-1864.502
1312906.7793822826,-104185.67,-80165.61,-47451.703,-29661.418,-7236.369,-35750.082,-58397.707,-1872.8027
1312906.7833822772,-104195.44,-80176.31,-47449.42,-29665.691,-7243.286,-35740.52,-58397.79,-1874.2269
1312906.7873822716,-104197.96,-80177.414,-47451.01,-29665.65,-7242.839,-35740.234,-58402.062,-1883.9926
1312906.7913822662,-104197.35,-80177.984,-47453.25,-29663.738,-7240.5195,-35747.56,-58407.27,-1892.7002
1312906.7953822608,-104193.16,-80171.96,-47452.027,-29662.842,-7240.8857,-35745.934,-58404.992,-1889.8113
1312906.7993822552,-104194.18,-80179.08,-47451.66,-29663.412,-7244.0186,-35738.688,-58399.824,-1883.016
1312906.8033822498,-104194.42,-80180.26,-47450.074,-29664.592,-7246.745,-35730.31,-58393.598,-1878.6621
1312906.8073822442,-104195.4,-80179.04,-47453.37,-29667.562,-7245.7686,-35728.8,-58386.312,-1865.9261
1312906.8113822388,-104199.67,-80180.42,-47459.676,-29668.05,-7242.2285,-35730.918,-58376.184,-1849.7314
1312906.8153822331,-104195.11,-80171.23,-47458.58,-29665.121,-7237.3457,-35730.062,-58369.59,-1843.0176
1312906.8193822277,-104201.26,-80176.48,-47458.133,-29665.977,-7237.712,-35723.105,-58365.723,-1832.8451
1312906.823382222,-104202.03,-80180.42,-47459.598,-29669.312,-7240.1533,-35717.816,-58366.58,-1826.9857
1312906.8273822167,-104201.46,-80172.484,-47462.117,-29669.15,-7236.776,-35720.176,-58369.914,-1822.347
1312906.831382211,-104201.7,-80168.3,-47463.094,-29665.771,-7230.876,-35729.25,-58376.223,-1828.7761
1312906.8353822057,-104197.8,-80168.13,-47461.305,-29662.03,-7228.0273,-35731.61,-58376.953,-1827.6775
1312906.8393822003,-104183.88,-80154.664,-47457.52,-29659.465,-7226.7256,-35726.32,-58376.953,-1822.1029
1312906.8433821946,-104183.31,-80159.06,-47458.05,-29661.826,-7231.242,-35718.75,-58373.66,-1821.0043
1312906.8473821892,-104184.37,-80157.72,-47459.473,-29663.291,-7233.073,-35720.297,-58375.285,-1825.4395
1312906.8513821836,-104184.82,-80156.336,-47463.258,-29663.127,-7229.6553,-35728.477,-58378.46,-1828.0844
1312906.8553821782,-104188.27,-80150.72,-47467.164,-29661.541,-7228.0684,-35732.668,-58381.023,-1829.3865
1312906.8593821726,-104188.97,-80153.37,-47461.793,-29659.832,-7228.8413,-35725.668,-58381.633,-1828.3285
1312906.8633821672,-104190.555,-80156.05,-47458.254,-29662.314,-7232.91,-35720.38,-58385.46,-1845.0928
1312906.8673821616,-104195.234,-80156.78,-47459.395,-29663.86,-7235.881,-35723.105,-58389.895,-1858.8867
1312906.8713821562,-104192.14,-80153.08,-47462.812,-29661.5,-7234.8633,-35728.844,-58390.953,-1867.1062
1312906.8753821505,-104191.94,-80150.31,-47460.29,-29658.936,-7233.3174,-35730.918,-58391.887,-1871.4193
1312906.8793821451,-104190.31,-80155.4,-47457.52,-29660.727,-7236.003,-35724.12,-58391.4,-1865.5193
1312906.8833821395,-104189.01,-80161.38,-47458.254,-29664.348,-7238.851,-35719.85,-58393.312,-1867.2283
1312906.887382134,-104195.44,-80162.516,-47464.48,-29666.22,-7239.177,-35722.13,-58393.72,-1872.1111
1312906.8913821287,-104194.83,-80156.21,-47468.832,-29663.453,-7236.328,-35728.19,-58390.79,-1861.3281
1312906.895382123,-104185.23,-80145.63,-47468.914,-29659.668,-7231.079,-35731.285,-58386.56,-1848.4294
1312906.8993821177,-104193.445,-80154.664,-47470.83,-29660.482,-7233.3174,-35724.57,-58379.68,-1831.7058
1312906.903382112,-104201.336,-80159.23,-47471.844,-29664.145,-7235.433,-35718.02,-58378.99,-1829.7119
1312906.9073821066,-104198.57,-80151.62,-47470.99,-29663.33,-7233.114,-35721.68,-58382.203,-1835.083
1312906.911382101,-104192.51,-80147.18,-47471.56,-29661.418,-7228.2715,-35729.94,-58386.72,-1842.9363
1312906.9153820956,-104182.74,-80140.83,-47469.44,-29657.35,-7224.7725,-35730.633,-58383.465,-1832.3162
1312906.91938209,-104171.15,-80132.81,-47463.42,-29656.861,-7224.365,-35727.867,-58382.082,-1825.1953
1312906.9233820846,-104177.695,-80144.21,-47462.445,-29659.629,-7228.3936,-35723.836,-58381.188,-1822.6726
1312906.927382079,-104179.28,-80147.3,-47464.4,-29658.367,-7225.952,-35725.06,-58383.14,-1819.1732
1312906.9313820736,-104173.55,-80129.48,-47467.613,-29653.037,-7216.268,-35733.156,-58385.582,-1817.4642
1312906.935382068,-104178.23,-80129.516,-47467.855,-29651.287,-7212.972,-35734.824,-58381.31,-1810.7504
1312906.9393820625,-104174.766,-80133.875,-47465.09,-29651.938,-7217.326,-35727.297,-58376.26,-1809.7332
1312906.9433820571,-104183.8,-80139.2,-47466.594,-29655.6,-7224.4062,-35720.703,-58376.75,-1818.4001
1312906.9473820515,-104195.68,-80149.336,-47468.832,-29658.691,-7229.492,-35721.19,-58376.996,-1833.374
1312906.951382046,-104194.46,-80151.05,-47469.523,-29657.35,-7231.405,-35725.344,-58373.332,-1831.4617
1312906.9553820405,-104185.47,-80137.984,-47468.75,-29654.705,-7226.6846,-35725.87,-58372.355,-1829.7527
1312906.959382035,-104188.73,-80144.984,-47467.613,-29654.379,-7228.109,-35719.566,-58370.445,-1829.8748
1312906.9633820294,-104193.28,-80149.984,-47467.367,-29656.535,-7232.5034,-35714.64,-58369.02,-1834.7576
1312906.967382024,-104183.88,-80149.3,-47469.363,-29656.658,-7235.1074,-35714.07,-58366.254,-1834.5947
1312906.9713820184,-104180.99,-80144.86,-47471.76,-29655.111,-7233.2764,-35719.89,-58363.61,-1832.2347
1312906.975382013,-104176.4,-80135.87,-47469.566,-29652.955,-7230.184,-35721.926,-58361.047,-1823.8119
1312906.9793820074,-104179.89,-80136.03,-47469.85,-29653.158,-7229.37,-35716.797,-58358.48,-1820.5566
1312906.983382002,-104189.82,-80142.5,-47475.06,-29656.129,-7232.6255,-35712.934,-58356.895,-1817.7084
1312906.9873819964,-104191.86,-80142.58,-47479.695,-29656.943,-7234.05,-35716.105,-58357.504,-1813.029
1312906.991381991,-104192.75,-80140.055,-47485.273,-29655.438,-7229.248,-35722.7,-58357.586,-1802.002
1312906.9953819856,-104183.39,-80129.234,-47486.33,-29650.107,-7223.8364,-35725.87,-58361.86,-1801.6765
1312906.99938198,-104179.61,-80127.61,-47479.74,-29648.479,-7223.796,-35722.37,-58365.97,-1809.7738
1312907.0033819745,-104180.71,-80130.01,-47475.223,-29648.438,-7223.999,-35719.89,-58369.508,-1815.267
1312907.007381969,-104177.086,-80117.44,-47473.27,-29647.055,-7217.407,-35722.37,-58370.934,-1815.6332
1312907.0113819635,-104171.305,-80112.39,-47472.984,-29645.752,-7211.7515,-35729.332,-58371.664,-1808.1462
1312907.0153819579,-104171.02,-80115.234,-47471.6,-29643.271,-7210.8154,-35732.87,-58372.234,-1804.7689
1312907.0193819525,-104176.4,-80117.31,-47468.996,-29642.945,-7212.2397,-35726.766,-58374.188,-1807.3324
1312907.0233819468,-104179.24,-80119.875,-47467.164,-29645.875,-7215.2915,-35721.68,-58377.117,-1818.9291
1312907.0273819414,-104179.37,-80116.26,-47470.95,-29646.037,-7215.78,-35723.55,-58377.16,-1817.2607
1312907.0313819358,-104179.24,-80116.82,-47475.426,-29645.957,-7213.786,-35726.402,-58371.625,-1808.5531
1312907.0353819304,-104176.35,-80108.89,-47478.516,-29644.125,-7208.74,-35726.562,-58369.836,-1805.9896
1312907.039381925,-104186.61,-80123.25,-47477.133,-29645.713,-7213.0127,-35720.46,-58369.14,-1804.891
1312907.0433819194,-104195.4,-80129.07,-47477.582,-29649.008,-7219.1978,-35714.273,-58370.445,-1811.4014
1312907.047381914,-104198.164,-80132.695,-47477.95,-29650.635,-7225.2197,-35717.33,-58372.316,-1820.5566
1312907.0513819084,-104205.2,-80139.77,-47481.082,-29651.164,-7225.2197,-35721.598,-58370.28,-1820.9636
1312907.055381903,-104202.97,-80140.95,-47481.242,-29650.025,-7223.674,-35721.844,-58365.074,-1815.5111
1312907.0593818973,-104195.234,-80137.21,-47476.766,-29648.316,-7221.4355,-35717.043,-58363.0,-1819.0105
1312907.063381892,-104201.016,-80135.58,-47479.414,-29648.723,-7223.1855,-35711.957,-58358.81,-1811.7676
1312907.0673818863,-104213.99,-80147.18,-47485.027,-29650.514,-7224.365,-35713.34,-58351.074,-1798.5433
1312907.071381881,-104217.37,-80142.336,-47489.504,-29649.74,-7221.151,-35718.547,-58347.21,-1791.4226
1312907.0753818753,-104210.37,-80140.016,-47490.48,-29647.299,-7221.1104,-35720.99,-58347.94,-1789.1846
1312907.0793818699,-104200.69,-80133.836,-47487.508,-29645.143,-7221.1104,-35715.414,-58349.69,-1783.2031
1312907.0833818642,-104204.67,-80135.625,-47484.62,-29646.037,-7223.104,-35713.055,-58355.266,-1792.8875
1312907.0873818588,-104206.95,-80131.06,-47484.785,-29645.996,-7220.215,-35718.426,-58363.324,-1804.4841
1312907.0913818534,-104204.51,-80128.22,-47485.68,-29642.416,-7215.78,-35724.938,-58364.746,-1806.4373
1312907.0953818478,-104204.8,-80130.01,-47485.598,-29640.625,-7213.2163,-35727.418,-58365.277,-1809.1228
1312907.0993818424,-104199.875,-80126.71,-47481.855,-29639.812,-7214.5186,-35723.062,-58368.816,-1809.1635
1312907.1033818368,-104203.74,-80136.88,-47479.535,-29642.701,-7221.7207,-35719.645,-58373.414,-1814.5752
1312907.1073818314,-104207.766,-80135.58,-47480.227,-29642.783,-7222.453,-35724.324,-58378.95,-1825.1547
1312907.1113818258,-104200.28,-80127.41,-47482.87,-29637.9,-7216.4307,-35731.57,-58382.57,-1826.6195
1312907.1153818204,-104199.95,-80121.18,-47483.195,-29634.848,-7212.484,-35733.684,-58382.53,-1832.3568
1312907.1193818147,-104206.42,-80125.25,-47481.12,-29634.197,-7214.6406,-35728.395,-58382.246,-1834.8796
1312907.1233818093,-104210.86,-80133.22,-47480.918,-29636.475,-7219.7266,-35721.965,-58383.914,-1841.919
1312907.1273818037,-104215.05,-80135.7,-47484.01,-29640.463,-7223.226,-35724.61,-58382.812,-1843.7908
1312907.1313817983,-104215.5,-80132.04,-47489.34,-29640.26,-7220.5,-35731.242,-58381.594,-1838.4603
1312907.1353817927,-104224.734,-80132.33,-47491.66,-29636.76,-7215.2915,-35732.87,-58380.7,-1836.0189
1312907.1393817873,-104221.56,-80129.16,-47488.363,-29634.97,-7215.332,-35729.453,-58380.453,-1831.9092
1312907.1433817819,-104224.9,-80132.49,-47488.363,-29636.475,-7218.099,-35724.12,-58377.08,-1820.4753
1312907.1473817762,-104233.56,-80144.086,-47493.45,-29640.137,-7221.4355,-35725.586,-58372.64,-1811.6455
1312907.1513817708,-104229.17,-80136.48,-47493.45,-29638.225,-7215.9424,-35730.67,-58368.37,-1799.764
1312907.1553817652,-104226.52,-80129.766,-47492.92,-29634.766,-7210.368,-35732.26,-58364.83,-1790.6088
1312907.1593817598,-104231.49,-80134.81,-47492.39,-29637.574,-7212.2803,-35727.785,-58360.965,-1784.4238
1312907.1633817542,-104237.63,-80143.27,-47489.668,-29639.324,-7219.1978,-35723.31,-58362.266,-1783.2031
1312907.1673817488,-104242.03,-80141.484,-47489.707,-29638.104,-7219.93,-35725.383,-58360.07,-1783.5287
1312907.1713817432,-104234.99,-80131.72,-47494.957,-29634.074,-7211.1006,-35733.523,-58359.785,-1784.5459
1312907.1753817378,-104225.23,-80124.27,-47495.527,-29630.9,-7204.7935,-35736.125,-58359.418,-1784.8308
1312907.1793817321,-104222.05,-80121.99,-47491.496,-29630.412,-7207.2754,-35730.67,-58356.445,-1777.9135
1312907.1833817267,-104229.49,-80130.45,-47492.35,-29632.406,-7213.298,-35723.836,-58354.777,-1771.5251
1312907.187381721,-104236.33,-80134.445,-47495.85,-29632.53,-7213.8267,-35727.824,-58360.84,-1781.657
1312907.1913817157,-104225.95,-80116.945,-47495.363,-29629.273,-7205.3223,-35736.695,-58369.55,-1797.8516
1312907.1953817103,-104221.73,-80116.5,-47495.445,-29627.482,-7202.108,-35737.387,-58369.836,-1800.1302
1312907.1993817047,-104234.17,-80129.68,-47493.33,-29629.803,-7206.828,-35733.074,-58370.2,-1800.9847
1312907.2033816993,-104240.36,-80132.2,-47492.637,-29634.156,-7212.036,-35729.82,-58372.438,-1804.0771
1312907.2073816936,-104229.21,-80127.93,-47494.59,-29633.139,-7212.4023,-35731.69,-58370.73,-1801.6357
1312907.2113816882,-104233.56,-80131.72,-47495.363,-29628.215,-7207.235,-35735.15,-58365.113,-1797.1599
1312907.2153816826,-104217.695,-80114.51,-47493.33,-29623.047,-7198.0796,-35737.754,-58365.723,-1802.6531
1312907.2193816772,-104218.1,-80115.97,-47494.63,-29624.512,-7200.9688,-35731.16,-58365.195,-1804.6875
1312907.2233816716,-104233.766,-80127.04,-47498.82,-29629.191,-7206.462,-35725.953,-58364.22,-1809.1635
1312907.2273816662,-104235.64,-80128.26,-47504.56,-29629.762,-7207.3164,-35727.215,-58364.953,-1813.3953
1312907.2313816606,-104236.49,-80122.52,-47509.36,-29628.174,-7203.5728,-35732.3,-58361.453,-1812.7035
1312907.2353816552,-104238.0,-80118.98,-47511.844,-29629.03,-7203.369,-35733.93,-58356.73,-1803.833
1312907.2393816495,-104238.53,-80120.77,-47511.64,-29630.168,-7206.828,-35727.336,-58356.49,-1802.8158
1312907.2433816441,-104246.46,-80127.98,-47514.49,-29630.78,-7209.961,-35722.13,-58355.754,-1799.8047
1312907.2473816387,-104247.73,-80128.3,-47511.152,-29628.826,-7208.171,-35723.96,-58354.574,-1791.4633
1312907.251381633,-104235.4,-80120.12,-47508.016,-29626.709,-7204.875,-35732.504,-58353.965,-1778.3203
1312907.2553816277,-104236.375,-80119.875,-47507.45,-29625.205,-7203.8984,-35733.93,-58351.523,-1762.2478
1312907.259381622,-104229.54,-80112.875,-47502.484,-29623.008,-7201.335,-35729.9,-58352.703,-1763.4685
1312907.2633816167,-104228.4,-80116.54,-47500.082,-29624.146,-7207.927,-35725.63,-58351.402,-1768.4326
1312907.267381611,-104241.78,-80127.484,-47503.46,-29625.938,-7212.2803,-35726.2,-58350.305,-1770.3044
1312907.2713816056,-104240.64,-80116.984,-47506.188,-29622.355,-7206.218,-35734.09,-58354.94,-1771.6879
1312907.2753816,-104234.016,-80115.6,-47506.105,-29620.81,-7203.2065,-35734.66,-58350.996,-1760.4574
1312907.2793815946,-104242.516,-80121.34,-47507.49,-29623.088,-7208.9033,-35726.81,-58347.656,-1762.9395
1312907.283381589,-104254.6,-80133.305,-47508.914,-29627.238,-7213.0537,-35721.883,-58349.367,-1769.0837
1312907.2873815836,-104260.46,-80133.22,-47512.74,-29626.873,-7211.141,-35725.465,-58351.074,-1765.3809
1312907.2913815782,-104252.0,-80117.59,-47513.836,-29621.664,-7203.7764,-35732.707,-58352.38,-1763.9974
1312907.2953815726,-104254.234,-80118.9,-47514.49,-29618.613,-7202.8403,-35734.906,-58352.54,-1768.2699
1312907.2993815672,-104264.695,-80124.96,-47513.51,-29618.45,-7202.352,-35728.8,-58354.98,-1775.3906
1312907.3033815615,-104255.62,-80123.336,-47511.965,-29619.834,-7204.875,-35726.074,-58358.4,-1783.5287
1312907.3073815561,-104258.22,-80130.695,-47512.047,-29619.102,-7205.078,-35726.93,-58354.25,-1781.0873
1312907.3113815505,-104257.164,-80117.76,-47513.715,-29616.13,-7197.347,-35732.87,-58351.93,-1778.0355
1312907.315381545,-104255.25,-80113.69,-47513.715,-29614.422,-7192.0576,-35734.336,-58345.582,-1768.3513
1312907.3193815395,-104250.0,-80106.81,-47510.824,-29612.387,-7188.1514,-35726.645,-58342.125,-1764.3636
1312907.323381534,-104260.54,-80117.96,-47515.586,-29617.107,-7192.627,-35721.11,-58340.66,-1762.3699
1312907.3273815284,-104268.31,-80124.15,-47520.1,-29619.223,-7194.458,-35724.69,-58342.816,-1762.8582
1312907.331381523,-104268.84,-80119.23,-47523.074,-29615.479,-7188.6396,-35732.3,-58346.4,-1764.5264
1312907.3353815174,-104272.22,-80118.164,-47526.164,-29612.713,-7183.187,-35733.645,-58348.676,-1772.0134
1312907.339381512,-104267.74,-80116.7,-47522.016,-29610.557,-7185.0996,-35727.54,-58350.305,-1773.3154
1312907.3433815066,-104265.51,-80121.5,-47520.71,-29613.201,-7191.3657,-35722.13,-58351.93,-1780.599
1312907.347381501,-104276.695,-80118.66,-47525.96,-29616.74,-7191.8135,-35725.344,-58352.133,-1780.7617
1312907.3513814956,-104266.766,-80105.15,-47524.742,-29609.295,-7185.14,-35730.957,-58350.793,-1778.5645
1312907.35538149,-104260.3,-80105.47,-47523.152,-29606.324,-7181.844,-35733.316,-58349.69,-1775.0652
1312907.3593814846,-104269.78,-80117.59,-47523.684,-29609.254,-7185.14,-35727.906,-58347.332,-1766.3982
1312907.363381479,-104277.8,-80122.97,-47525.72,-29612.387,-7186.9307,-35722.7,-58345.99,-1756.5511
1312907.3673814735,-104269.984,-80115.12,-47526.938,-29612.305,-7186.157,-35726.605,-58345.703,-1755.9408
1312907.371381468,-104267.336,-80108.93,-47526.9,-29607.871,-7183.7974,-35732.34,-58344.605,-1756.5105
1312907.3753814625,-104271.41,-80112.71,-47527.71,-29608.725,-7182.9834,-35734.863,-58343.957,-1756.5511
1312907.3793814569,-104270.43,-80114.664,-47524.902,-29610.027,-7184.4077,-35729.74,-58347.047,-1764.5264
1312907.3833814515,-104274.984,-80116.664,-47519.816,-29609.13,-7189.5347,-35723.633,-58347.332,-1764.6892
1312907.3873814458,-104279.83,-80119.19,-47519.207,-29607.992,-7189.494,-35727.38,-58345.746,-1761.7595
1312907.3913814405,-104293.7,-80127.81,-47522.664,-29608.928,-7186.157,-35732.668,-58342.125,-1753.418
1312907.395381435,-104288.13,-80116.05,-47521.324,-29604.656,-7180.013,-35732.383,-58340.008,-1751.1394
1312907.3993814294,-104299.89,-80125.45,-47519.53,-29604.941,-7182.292,-35725.06,-58336.348,-1744.4255
1312907.403381424,-104295.01,-80125.94,-47520.47,-29606.568,-7187.785,-35721.19,-58333.66,-1741.862
1312907.4073814184,-104303.06,-80130.29,-47525.88,-29608.562,-7188.843,-35722.332,-58332.156,-1736.613
1312907.411381413,-104303.51,-80123.66,-47530.805,-29607.951,-7184.4893,-35728.027,-58330.12,-1730.835
1312907.4153814074,-104298.42,-80119.06,-47529.543,-29603.76,-7179.118,-35727.62,-58327.883,-1726.766
1312907.419381402,-104302.375,-80127.0,-47525.758,-29603.068,-7179.077,-35721.883,-58332.766,-1734.0496
1312907.4233813963,-104308.11,-80130.25,-47527.305,-29606.568,-7184.1636,-35720.297,-58340.7,-1752.3601
1312907.427381391,-104306.89,-80125.94,-47531.7,-29606.568,-7184.245,-35725.06,-58346.355,-1765.5029
1312907.4313813853,-104304.484,-80114.79,-47534.668,-29603.924,-7179.0366,-35732.504,-58350.18,-1773.5189
1312907.43538138,-104307.414,-80114.87,-47536.01,-29602.133,-7175.7407,-35733.805,-58349.367,-1774.3734
1312907.4393813743,-104321.984,-80126.266,-47539.145,-29606.65,-7179.891,-35727.133,-58345.42,-1772.7458
1312907.4433813689,-104335.164,-80143.35,-47543.01,-29611.695,-7187.866,-35719.32,-58338.46,-1766.0726
1312907.4473813635,-104348.72,-80154.016,-47548.625,-29614.137,-7189.2905,-35717.45,-58331.137,-1754.4353
1312907.4513813579,-104336.43,-80130.78,-47550.703,-29609.336,-7182.9834,-35723.633,-58329.1,-1747.2738
1312907.4553813525,-104326.13,-80117.88,-47546.918,-29604.168,-7178.0195,-35723.43,-58329.266,-1753.0111
1312907.4593813468,-104328.05,-80121.95,-47543.336,-29604.736,-7180.664,-35714.887,-58323.203,-1748.5759
1312907.4633813414,-104344.04,-80126.63,-47542.36,-29609.13,-7184.6924,-35708.414,-58317.793,-1738.1185
1312907.4673813358,-104344.32,-80129.516,-47545.207,-29610.068,-7182.373,-35707.926,-58315.676,-1729.6143
1312907.4713813304,-104335.086,-80119.51,-47546.55,-29606.854,-7175.1304,-35711.754,-58314.09,-1724.6094
1312907.4753813248,-104328.984,-80108.89,-47543.62,-29603.842,-7170.288,-35711.63,-58311.117,-1718.0583
1312907.4793813194,-104335.29,-80120.04,-47540.73,-29608.277,-7175.3745,-35704.957,-58309.082,-1711.8328
1312907.4833813137,-104335.125,-80122.52,-47538.13,-29611.777,-7180.339,-35699.016,-58306.848,-1710.7748
1312907.4873813083,-104342.49,-80129.234,-47540.45,-29613.525,-7184.774,-35697.266,-58301.35,-1706.2988
1312907.491381303,-104331.34,-80121.586,-47542.36,-29610.8,-7178.589,-35700.81,-58295.332,-1691.5283
1312907.4953812973,-104327.15,-80114.305,-47542.074,-29608.562,-7172.16,-35700.035,-58292.81,-1683.5938
1312907.499381292,-104328.17,-80115.56,-47537.273,-29607.627,-7169.5557,-35691.977,-58296.062,-1684.4482
1312907.5033812863,-104330.695,-80114.51,-47536.094,-29608.277,-7171.916,-35689.168,-58304.934,-1693.6849
1312907.507381281,-104323.9,-80109.625,-47537.965,-29607.586,-7170.044,-35694.336,-58312.42,-1701.5381
1312907.5113812753,-104331.95,-80120.0,-47542.195,-29607.627,-7170.573,-35700.727,-58316.49,-1707.723
1312907.5153812699,-104336.1,-80113.445,-47542.81,-29605.795,-7166.5854,-35700.6,-58319.867,-1711.4666
1312907.5193812642,-104335.984,-80109.336,-47542.36,-29606.283,-7166.219,-35693.605,-58321.21,-1718.9535
1312907.5233812588,-104342.9,-80116.7,-47543.945,-29608.236,-7169.6777,-35686.81,-58322.96,-1731.8523
1312907.5273812532,-104354.45,-80120.57,-47548.504,-29609.904,-7171.794,-35690.188,-58326.297,-1742.2283
1312907.5313812478,-104353.44,-80119.19,-47550.703,-29607.504,-7167.5215,-35693.117,-58326.906,-1744.4662
1312907.5353812422,-104366.46,-80130.58,-47552.86,-29609.13,-7166.0156,-35691.043,-58323.04,-1743.8965
1312907.5393812368,-104369.96,-80126.836,-47553.836,-29611.004,-7166.992,-35686.28,-58325.24,-1754.598
1312907.5433812314,-104367.11,-80127.85,-47553.508,-29612.875,-7171.4683,-35681.926,-58329.227,-1763.4685
1312907.5473812257,-104378.91,-80135.375,-47558.066,-29615.764,-7172.3228,-35683.92,-58327.19,-1757.9753
1312907.5513812203,-104373.945,-80128.22,-47559.082,-29612.266,-7167.0737,-35690.023,-58321.21,-1743.6523
1312907.5553812147,-104382.2,-80133.305,-47560.02,-29611.084,-7164.388,-35688.56,-58312.137,-1725.5453
1312907.5593812093,-104380.984,-80131.43,-47559.082,-29610.719,-7165.609,-35680.3,-58308.188,-1719.808
1312907.5633812037,-104387.66,-80142.78,-47560.996,-29614.34,-7171.1836,-35673.87,-58304.28,-1714.3148
1312907.5673811983,-104395.02,-80144.9,-47564.535,-29616.09,-7171.3057,-35675.09,-58295.535,-1701.9043
1312907.5713811927,-104403.73,-80140.016,-47567.996,-29613.525,-7166.0566,-35679.527,-58290.69,-1694.6208
1312907.5753811873,-104401.62,-80137.375,-47569.95,-29611.328,-7161.5806,-35679.527,-58290.527,-1689.616
1312907.5793811816,-104395.19,-80135.99,-47566.938,-29609.295,-7161.54,-35674.316,-58290.285,-1677.6123
1312907.5833811762,-104399.01,-80140.875,-47564.58,-29610.475,-7163.574,-35672.85,-58292.688,-1679.9316
1312907.5873811706,-104395.1,-80129.68,-47562.785,-29608.604,-7159.8716,-35678.71,-58298.504,-1683.309
1312907.5913811652,-104382.125,-80119.266,-47562.38,-29605.55,-7154.175,-35687.582,-58304.363,-1678.3041
1312907.5953811598,-104379.16,-80117.8,-47558.84,-29603.598,-7152.5474,-35686.727,-58300.54,-1672.933
1312907.5993811542,-104376.266,-80116.62,-47554.527,-29603.557,-7153.7275,-35678.266,-58298.098,-1669.1488
1312907.6033811488,-104384.24,-80127.2,-47555.625,-29606.568,-7156.9014,-35673.22,-58298.707,-1668.9453
1312907.6073811431,-104394.25,-80136.07,-47559.816,-29610.027,-7159.709,-35678.266,-58297.527,-1670.8578
1312907.6113811377,-104392.5,-80122.52,-47562.543,-29608.195,-7151.5303,-35686.117,-58299.113,-1678.2634
1312907.615381132,-104386.64,-80118.695,-47560.67,-29606.201,-7149.7397,-35685.59,-58300.05,-1680.3386
1312907.6193811267,-104395.63,-80123.54,-47558.066,-29606.527,-7151.123,-35680.176,-58301.637,-1685.2214
1312907.623381121,-104399.336,-80129.84,-47560.875,-29609.986,-7158.0405,-35677.777,-58305.664,-1693.5629
1312907.6273811157,-104399.09,-80135.46,-47564.74,-29610.963,-7161.621,-35681.805,-58310.1,-1704.2644
1312907.63138111,-104399.055,-80129.16,-47569.46,-29610.027,-7157.3896,-35686.89,-58311.16,-1705.892
1312907.6353811047,-104404.34,-80135.99,-47572.31,-29610.637,-7157.2676,-35685.793,-58304.895,-1691.8132
1312907.639381099,-104402.914,-80131.35,-47569.418,-29608.928,-7157.4707,-35679.812,-58304.566,-1691.04
1312907.6433810936,-104406.13,-80136.15,-47565.96,-29609.54,-7161.052,-35675.133,-58304.77,-1705.241
1312907.6473810882,-104413.414,-80138.51,-47568.156,-29611.004,-7162.435,-35677.86,-58303.145,-1713.8265
1312907.6513810826,-104403.04,-80121.22,-47568.727,-29605.592,-7155.5176,-35684.652,-58298.18,-1704.7933
1312907.6553810772,-104407.8,-80122.52,-47570.883,-29606.08,-7155.8433,-35683.15,-58294.027,-1695.8416
1312907.6593810716,-104418.91,-80137.05,-47570.19,-29609.05,-7161.377,-35672.977,-58287.56,-1683.5938
1312907.6633810662,-104419.44,-80137.9,-47571.13,-29610.963,-7165.4463,-35668.863,-58286.906,-1683.2275
1312907.6673810605,-104427.164,-80136.68,-47577.395,-29611.898,-7159.3833,-35674.113,-58287.438,-1684.6924
1312907.6713810551,-104421.63,-80126.02,-47579.51,-29609.254,-7150.35,-35681.152,-58287.52,-1670.5322
1312907.6753810495,-104416.1,-80125.41,-47574.586,-29606.771,-7149.7397,-35680.504,-58289.023,-1669.1895
1312907.679381044,-104421.875,-80134.6,-47569.867,-29606.283,-7153.9717,-35674.156,-58290.812,-1666.8295
1312907.6833810385,-104419.56,-80138.92,-47568.484,-29607.951,-7159.1797,-35672.445,-58294.07,-1666.1785
1312907.687381033,-104416.1,-80136.11,-47570.19,-29608.154,-7158.1626,-35677.33,-58296.715,-1665.1205
1312907.6913810277,-104414.15,-80127.12,-47574.098,-29605.266,-7150.879,-35683.15,-58295.332,-1663.4521
1312907.695381022,-104415.445,-80127.93,-47576.457,-29604.086,-7152.059,-35682.496,-58293.133,-1656.8604
1312907.6993810167,-104423.99,-80136.805,-47577.312,-29607.016,-7155.6396,-35676.11,-58292.562,-1647.8271
1312907.703381011,-104424.69,-80134.28,-47573.934,-29609.254,-7157.43,-35672.08,-58292.523,-1653.6865
1312907.7073810056,-104423.914,-80129.64,-47575.562,-29608.604,-7154.541,-35674.805,-58293.824,-1664.6729
1312907.711381,-104427.164,-80130.66,-47577.883,-29606.65,-7151.815,-35678.754,-58292.035,-1666.626
1312907.7153809946,-104432.26,-80130.21,-47577.965,-29604.9,-7147.4204,-35679.2,-58291.344,-1671.0613
1312907.719380989,-104426.19,-80126.586,-47573.082,-29603.557,-7147.1357,-35674.52,-58292.117,-1678.833
1312907.7233809836,-104425.336,-80130.17,-47572.266,-29605.469,-7153.3613,-35671.266,-58293.785,-1682.0883
1312907.727380978,-104427.25,-80133.22,-47578.74,-29608.604,-7156.006,-35676.23,-58297.285,-1682.4138
1312907.7313809725,-104437.14,-80132.9,-47584.23,-29607.422,-7153.524,-35680.016,-58293.457,-1678.3855
1312907.735380967,-104431.12,-80120.69,-47580.28,-29603.639,-7147.583,-35678.875,-58287.234,-1672.4854
1312907.7393809615,-104426.4,-80116.26,-47575.562,-29602.744,-7147.583,-35672.566,-58282.27,-1672.4447
1312907.7433809561,-104436.32,-80134.24,-47577.312,-29608.195,-7157.43,-35666.992,-58274.133,-1663.3708
1312907.7473809505,-104439.66,-80135.13,-47580.977,-29608.44,-7156.6978,-35667.727,-58267.254,-1657.7963
1312907.751380945,-104432.336,-80126.47,-47585.164,-29604.045,-7150.0654,-35674.848,-58265.18,-1656.0466
1312907.7553809395,-104434.45,-80126.875,-47586.14,-29602.824,-7146.81,-35675.21,-58264.527,-1651.6521
1312907.759380934,-104429.41,-80119.43,-47587.16,-29604.656,-7146.037,-35669.516,-58263.348,-1647.0947
1312907.7633809284,-104426.64,-80113.37,-47587.812,-29604.86,-7145.996,-35664.633,-58265.06,-1649.0886
1312907.767380923,-104442.914,-80121.79,-47590.617,-29604.168,-7143.84,-35670.125,-58269.33,-1655.9246
1312907.7713809174,-104451.055,-80120.52,-47593.875,-29603.027,-7140.5845,-35677.9,-58272.586,-1656.5756
1312907.775380912,-104445.27,-80120.0,-47590.293,-29601.28,-7142.7,-35678.47,-58271.445,-1647.2168
1312907.7793809064,-104433.44,-80117.8,-47581.504,-29601.807,-7146.444,-35672.977,-58272.95,-1654.6224
1312907.783380901,-104434.9,-80114.016,-47581.258,-29602.744,-7148.3154,-35667.562,-58275.72,-1658.1625
1312907.7873808953,-104431.28,-80110.234,-47582.684,-29600.994,-7151.042,-35671.227,-58277.266,-1661.9873
1312907.79138089,-104434.82,-80111.9,-47586.914,-29599.365,-7148.8853,-35677.9,-58277.426,-1665.8123
1312907.7953808845,-104437.26,-80114.09,-47587.73,-29597.656,-7145.752,-35677.53,-58274.54,-1659.0576
1312907.799380879,-104441.57,-80115.64,-47586.02,-29598.47,-7146.3623,-35672.0,-58278.527,-1669.9626
1312907.8033808735,-104447.19,-80119.55,-47588.46,-29601.482,-7148.8853,-35668.582,-58280.52,-1674.764
1312907.807380868,-104451.09,-80121.34,-47591.31,-29601.645,-7147.258,-35670.125,-58277.266,-1678.0193
1312907.8113808625,-104445.97,-80116.3,-47591.555,-29598.633,-7143.962,-35673.22,-58270.062,-1666.1785
1312907.8153808569,-104446.29,-80113.164,-47588.34,-29596.518,-7141.2354,-35672.406,-58266.848,-1655.1107
1312907.8193808515,-104451.99,-80119.8,-47587.242,-29597.82,-7143.636,-35664.47,-58260.38,-1642.9443
1312907.8233808458,-104458.58,-80128.13,-47586.305,-29599.65,-7147.38,-35658.938,-58255.984,-1634.5623
1312907.8273808404,-104469.2,-80129.516,-47592.33,-29600.262,-7145.427,-35663.902,-58256.715,-1639.7299
1312907.8313808348,-104470.3,-80130.086,-47599.12,-29599.365,-7142.5376,-35668.703,-58252.93,-1638.7533
1312907.8353808294,-104464.73,-80127.73,-47598.88,-29598.43,-7142.009,-35667.562,-58250.367,-1637.8988
1312907.8393808238,-104474.734,-80128.625,-47600.63,-29599.285,-7143.4736,-35661.297,-58246.625,-1634.725
1312907.8433808184,-104479.984,-80134.85,-47604.535,-29601.4,-7144.206,-35659.668,-58250.41,-1638.5498
1312907.847380813,-104482.38,-80133.67,-47607.91,-29601.889,-7142.1714,-35668.05,-58255.293,-1642.2119
1312907.8513808073,-104484.5,-80137.9,-47606.445,-29598.227,-7140.991,-35673.22,-58253.95,-1638.7533
1312907.855380802,-104477.586,-80122.805,-47601.562,-29595.135,-7137.8584,-35674.766,-58253.137,-1634.1146
1312907.8593807963,-104469.445,-80116.3,-47596.883,-29594.361,-7137.37,-35668.375,-58251.223,-1634.1553
1312907.863380791,-104471.4,-80123.78,-47594.24,-29596.232,-7142.8223,-35664.43,-58252.85,-1638.4685
1312907.8673807853,-104476.766,-80127.81,-47597.535,-29595.379,-7144.2466,-35667.074,-58252.2,-1638.5498
1312907.87138078,-104479.01,-80129.766,-47600.426,-29594.443,-7142.131,-35672.445,-58252.16,-1637.0037
1312907.8753807743,-104472.13,-80121.91,-47599.734,-29594.076,-7138.713,-35673.3,-58249.555,-1635.0912
1312907.8793807689,-104475.43,-80115.805,-47598.227,-29594.89,-7138.8755,-35667.93,-58247.03,-1634.9285
1312907.8833807632,-104477.42,-80119.47,-47595.867,-29593.547,-7141.0728,-35662.355,-58247.723,-1640.3809
1312907.8873807578,-104482.305,-80121.55,-47596.723,-29593.1,-7139.6484,-35666.098,-58250.816,-1643.2292
1312907.8913807522,-104488.85,-80124.39,-47599.45,-29591.838,-7136.1084,-35672.0,-58246.137,-1634.725
1312907.8953807468,-104483.484,-80117.11,-47598.27,-29590.088,-7133.423,-35669.637,-58238.566,-1623.8607
1312907.8993807414,-104482.95,-80123.74,-47598.145,-29592.285,-7138.387,-35661.05,-58230.51,-1616.0889
1312907.9033807358,-104495.08,-80134.28,-47600.383,-29597.047,-7143.799,-35656.656,-58226.973,-1614.3799
1312907.9073807304,-104500.25,-80129.766,-47605.55,-29596.64,-7142.212,-35659.953,-58223.555,-1606.0385
1312907.9113807247,-104490.484,-80120.69,-47607.586,-29594.238,-7137.9395,-35664.31,-58219.363,-1593.7094
1312907.9153807194,-104491.375,-80126.914,-47609.99,-29593.791,-7138.4277,-35664.062,-58217.125,-1585.0424
1312907.9193807137,-104489.99,-80129.44,-47609.297,-29594.2,-7143.4326,-35660.24,-58221.152,-1587.5652
1312907.9233807083,-104496.914,-80130.45,-47607.383,-29593.994,-7144.857,-35658.53,-58224.285,-1597.3715
1312907.9273807027,-104497.52,-80126.79,-47608.074,-29590.7,-7139.73,-35664.023,-58227.95,-1609.0496
1312907.9313806973,-104484.09,-80114.14,-47610.19,-29586.793,-7130.7373,-35672.812,-58232.465,-1610.2703
1312907.9353806917,-104488.04,-80117.96,-47607.06,-29586.182,-7129.598,-35673.22,-58229.82,-1601.3184
1312907.9393806863,-104483.85,-80121.91,-47604.37,-29586.549,-7132.406,-35667.277,-58230.957,-1602.5391
1312907.9433806809,-104482.914,-80118.82,-47602.906,-29587.24,-7133.1787,-35664.957,-58240.074,-1620.8496
1312907.9473806752,-104491.58,-80122.64,-47606.773,-29587.932,-7133.2197,-35671.145,-58245.117,-1636.6375
1312907.9513806698,-104481.41,-80114.09,-47607.344,-29583.457,-7127.7266,-35677.777,-58251.223,-1645.7927
1312907.9553806642,-104482.51,-80114.46,-47604.82,-29579.713,-7126.058,-35676.96,-58255.984,-1659.7087
1312907.9593806588,-104482.67,-80118.086,-47599.938,-29579.795,-7132.65,-35671.47,-58258.14,-1667.6025
1312907.9633806532,-104488.08,-80119.51,-47599.977,-29581.178,-7137.6143,-35668.215,-58257.49,-1664.1846
1312907.9673806478,-104491.055,-80120.12,-47606.324,-29583.334,-7138.3467,-35671.836,-58255.656,-1662.7605
1312907.9713806421,-104500.57,-80127.08,-47610.434,-29582.684,-7135.661,-35674.848,-58247.355,-1654.7852
1312907.9753806368,-104502.69,-80128.26,-47608.113,-29580.648,-7133.2197,-35671.227,-58239.098,-1634.847
1312907.9793806311,-104503.09,-80126.1,-47606.49,-29581.38,-7134.8877,-35662.516,-58232.504,-1626.4648
1312907.9833806257,-104505.82,-80125.77,-47605.836,-29583.701,-7138.1025,-35658.57,-58228.844,-1623.5352
1312907.98738062,-104510.79,-80127.65,-47611.777,-29584.393,-7140.747,-35662.56,-58225.71,-1620.5648
1312907.9913806147,-104509.484,-80123.336,-47612.062,-29581.178,-7136.1084,-35668.254,-58226.605,-1621.5007
1312907.9953806093,-104502.93,-80122.32,-47606.324,-29578.41,-7132.65,-35666.547,-58224.69,-1614.9496
1312907.9993806037,-104501.38,-80118.62,-47604.414,-29579.184,-7134.3994,-35659.953,-58220.867,-1605.184
1312908.0033805983,-104513.19,-80123.7,-47607.586,-29582.684,-7139.5674,-35655.6,-58220.34,-1611.9792
1312908.0073805926,-104520.1,-80125.41,-47611.86,-29584.514,-7136.6377,-35659.793,-58223.188,-1620.5242
1312908.0113805872,-104508.836,-80113.734,-47612.836,-29579.59,-7130.8594,-35665.812,-58223.88,-1612.915
1312908.0153805816,-104501.1,-80108.93,-47609.824,-29575.645,-7126.5464,-35665.652,-58224.12,-1611.084
1312908.0193805762,-104508.34,-80116.3,-47607.87,-29576.092,-7129.1914,-35663.25,-58228.68,-1615.0717
1312908.0233805706,-104509.766,-80118.125,-47607.06,-29577.516,-7131.999,-35661.176,-58233.684,-1620.931
1312908.0273805652,-104515.42,-80120.81,-47611.74,-29578.777,-7131.836,-35665.73,-58234.66,-1620.7683
1312908.0313805596,-104515.75,-80117.88,-47612.59,-29575.48,-7126.9126,-35671.266,-58233.32,-1617.0248
1312908.0353805542,-104507.33,-80106.164,-47609.133,-29571.33,-7120.8906,-35670.9,-58232.87,-1620.4834
1312908.0393805485,-104514.2,-80109.54,-47608.6,-29572.836,-7123.983,-35664.633,-58229.656,-1618.5303
1312908.0433805431,-104519.45,-80124.07,-47608.113,-29577.068,-7132.8535,-35659.465,-58229.29,-1621.9482
1312908.0473805377,-104525.68,-80128.09,-47609.05,-29577.23,-7132.202,-35661.38,-58228.64,-1624.7559
1312908.051380532,-104531.09,-80129.88,-47613.16,-29576.295,-7128.337,-35666.098,-58227.258,-1616.2517
1312908.0553805267,-104526.21,-80125.9,-47611.29,-29573.854,-7125.8955,-35665.367,-58229.047,-1618.2048
1312908.059380521,-104526.62,-80126.23,-47608.684,-29574.463,-7127.3604,-35661.785,-58234.62,-1633.3822
1312908.0633805157,-104538.05,-80139.734,-47610.555,-29576.172,-7135.5796,-35658.33,-58235.84,-1641.6016
1312908.06738051,-104544.6,-80140.51,-47615.48,-29576.295,-7136.8003,-35663.656,-58237.59,-1642.4154
1312908.0713805046,-104553.06,-80144.086,-47619.223,-29575.889,-7134.3184,-35668.54,-58234.54,-1633.3822
1312908.075380499,-104552.53,-80151.57,-47618.125,-29576.092,-7137.085,-35666.18,-58229.656,-1625.9766
1312908.0793804936,-104555.87,-80151.9,-47615.645,-29577.434,-7140.7065,-35659.668,-58231.406,-1625.2441
1312908.083380488,-104564.86,-80158.37,-47618.367,-29579.834,-7145.5894,-35658.12,-58231.164,-1625.0814
1312908.0873804826,-104574.71,-80163.54,-47622.64,-29579.713,-7143.3105,-35660.36,-58226.727,-1620.4834
1312908.091380477,-104576.99,-80160.89,-47626.18,-29576.092,-7135.376,-35663.656,-58220.867,-1613.1185
1312908.0953804716,-104563.03,-80154.3,-47622.195,-29571.574,-7133.138,-35661.5,-58219.08,-1599.6501
1312908.0993804662,-104564.7,-80158.0,-47616.62,-29571.574,-7137.9805,-35653.65,-58221.52,-1597.575
1312908.1033804605,-104572.72,-80167.56,-47617.027,-29574.83,-7144.084,-35651.125,-58224.49,-1601.766
1312908.1073804551,-104576.58,-80167.805,-47620.566,-29575.848,-7144.857,-35655.4,-58223.145,-1602.2949
1312908.1113804495,-104572.06,-80162.195,-47621.297,-29572.633,-7139.974,-35658.367,-58217.125,-1588.4197
1312908.115380444,-104566.086,-80166.305,-47619.55,-29571.412,-7137.8174,-35656.453,-58214.6,-1584.1472
1312908.1193804385,-104571.17,-80173.016,-47614.87,-29571.982,-7140.0557,-35650.31,-58215.13,-1592.448
1312908.123380433,-104577.48,-80178.51,-47615.645,-29573.324,-7143.84,-35647.867,-58219.363,-1597.9412
1312908.1273804274,-104586.51,-80183.19,-47618.855,-29574.342,-7146.5254,-35652.184,-58218.957,-1592.8955
1312908.131380422,-104590.58,-80178.67,-47621.91,-29573.65,-7143.0664,-35657.43,-58220.34,-1588.9893
1312908.1353804164,-104587.61,-80176.35,-47623.984,-29572.633,-7142.904,-35656.453,-58218.426,-1589.3962
1312908.139380411,-104592.734,-80184.164,-47620.973,-29572.918,-7147.6646,-35649.05,-58214.152,-1587.0361
1312908.1433804056,-104599.53,-80188.16,-47617.23,-29573.73,-7151.2046,-35645.59,-58215.984,-1592.1631
1312908.1473804,-104606.086,-80193.41,-47621.664,-29576.66,-7153.4424,-35650.39,-58215.902,-1599.8535
1312908.1513803946,-104611.695,-80199.99,-47623.008,-29576.295,-7154.704,-35656.21,-58216.31,-1602.5798
1312908.155380389,-104620.52,-80205.94,-47622.97,-29576.783,-7155.477,-35655.07,-58213.746,-1597.9412
1312908.1593803836,-104621.87,-80210.53,-47621.707,-29578.533,-7161.2144,-35648.48,-58210.938,-1594.6859
1312908.163380378,-104626.63,-80216.39,-47623.21,-29580.852,-7166.789,-35644.613,-58209.066,-1594.5638
1312908.1673803725,-104641.805,-80225.71,-47628.664,-29583.252,-7168.254,-35647.137,-58205.566,-1597.697
1312908.171380367,-104648.64,-80226.89,-47634.402,-29581.707,-7163.656,-35650.31,-58204.67,-1588.9893
1312908.1753803615,-104647.586,-80226.28,-47632.652,-29580.852,-7160.1157,-35647.625,-58205.566,-1582.3975
1312908.1793803559,-104649.5,-80229.74,-47627.93,-29581.096,-7163.9,-35640.707,-58205.73,-1575.114
1312908.1833803505,-104659.55,-80240.03,-47628.34,-29583.537,-7170.4917,-35635.17,-58201.867,-1568.5629
1312908.1873803448,-104665.695,-80241.984,-47631.105,-29585.287,-7170.085,-35638.348,-58202.11,-1568.156
1312908.1913803394,-104676.88,-80237.59,-47635.336,-29582.48,-7161.621,-35641.316,-58199.914,-1567.098
1312908.195380334,-104687.055,-80247.56,-47636.027,-29581.951,-7161.54,-35637.695,-58191.816,-1550.4965
1312908.1993803284,-104692.75,-80257.94,-47636.965,-29585.002,-7166.097,-35629.965,-58189.21,-1534.5867
1312908.203380323,-104704.02,-80268.39,-47641.24,-29589.805,-7169.922,-35623.617,-58190.88,-1532.0232
1312908.2073803174,-104716.39,-80274.91,-47647.137,-29592.367,-7170.4917,-35626.996,-58188.52,-1525.4314
1312908.211380312,-104720.13,-80271.37,-47648.805,-29591.717,-7165.487,-35633.79,-58188.56,-1529.5004
1312908.2153803064,-104722.54,-80270.51,-47645.305,-29590.414,-7165.6494,-35628.867,-58185.754,-1527.2625
1312908.219380301,-104730.516,-80281.74,-47645.305,-29593.262,-7171.2646,-35621.094,-58183.434,-1519.8162
1312908.2233802953,-104738.77,-80297.53,-47645.793,-29595.785,-7177.2056,-35619.996,-58190.637,-1534.0576
1312908.22738029,-104745.37,-80305.586,-47647.34,-29596.152,-7179.1587,-35625.367,-58198.324,-1541.2191
1312908.2313802843,-104751.266,-80304.65,-47649.008,-29593.588,-7176.3916,-35631.473,-58200.766,-1540.7308
1312908.235380279,-104759.766,-80311.0,-47646.04,-29592.57,-7178.467,-35630.656,-58200.727,-1544.4744
1312908.2393802733,-104768.44,-80316.41,-47644.207,-29593.994,-7179.8096,-35622.195,-58197.715,-1538.737
1312908.2433802679,-104778.81,-80328.734,-47643.516,-29598.877,-7185.669,-35615.766,-58193.32,-1529.9886
1312908.2473802625,-104787.16,-80339.93,-47646.61,-29599.488,-7189.087,-35619.67,-58190.96,-1533.5287
1312908.2513802568,-104781.17,-80337.77,-47645.836,-29597.82,-7186.727,-35626.1,-58193.2,-1537.7197
1312908.2553802514,-104780.73,-80341.72,-47644.41,-29598.389,-7189.1685,-35626.26,-58196.13,-1534.3425
1312908.2593802458,-104789.59,-80351.73,-47643.758,-29598.35,-7193.034,-35619.1,-58195.926,-1528.5645
1312908.2633802404,-104800.055,-80360.88,-47646.363,-29601.115,-7197.2656,-35617.312,-58195.76,-1526.4486
1312908.2673802348,-104800.055,-80359.664,-47650.92,-29600.791,-7195.6787,-35621.99,-58192.18,-1523.9666
1312908.2713802294,-104800.01,-80355.72,-47653.32,-29597.697,-7191.5693,-35625.246,-58188.113,-1515.6658
1312908.2753802238,-104802.9,-80356.81,-47653.566,-29598.838,-7188.3545,-35623.82,-58184.652,-1508.4636
1312908.2793802184,-104812.38,-80367.27,-47654.258,-29601.889,-7192.22,-35615.723,-58178.348,-1495.4021
1312908.2833802127,-104815.96,-80372.805,-47652.914,-29602.5,-7196.6147,-35611.33,-58177.816,-1490.5193
1312908.2873802073,-104816.695,-80372.88,-47652.832,-29601.523,-7197.0625,-35617.555,-58175.133,-1488.1592
1312908.2913802017,-104817.875,-80370.57,-47654.83,-29600.465,-7194.214,-35622.52,-58170.656,-1474.0804
1312908.2953801963,-104818.81,-80374.836,-47653.242,-29600.994,-7193.685,-35621.01,-58168.906,-1453.1658
1312908.299380191,-104827.805,-80383.51,-47650.72,-29603.232,-7197.347,-35614.91,-58166.26,-1445.5566
1312908.3033801853,-104833.375,-80388.59,-47650.88,-29606.162,-7201.213,-35611.53,-58167.2,-1449.3408
1312908.3073801799,-104840.05,-80392.055,-47656.008,-29604.98,-7199.9106,-35614.46,-58161.867,-1442.4236
1312908.3113801742,-104850.836,-80393.03,-47660.08,-29604.045,-7195.4756,-35617.434,-58156.496,-1430.5828
1312908.3153801688,-104852.91,-80394.94,-47659.14,-29603.557,-7197.2656,-35616.824,-58156.58,-1425.7812
1312908.3193801632,-104857.016,-80400.48,-47656.535,-29602.215,-7199.341,-35610.23,-58157.88,-1432.5359
1312908.3233801578,-104870.65,-80412.07,-47660.117,-29605.633,-7205.2817,-35608.074,-58157.715,-1434.2449
1312908.3273801522,-104875.66,-80412.84,-47663.902,-29605.998,-7203.2065,-35613.77,-58160.688,-1433.0648
1312908.3313801468,-104871.09,-80405.11,-47663.21,-29602.418,-7194.906,-35620.28,-58162.52,-1426.4324
1312908.3353801412,-104873.87,-80406.086,-47660.08,-29598.918,-7192.546,-35618.53,-58163.496,-1431.9255
1312908.3393801358,-104874.84,-80412.88,-47657.35,-29600.303,-7196.0044,-35612.348,-58167.2,-1441.5283
1312908.3433801304,-104879.44,-80416.99,-47659.344,-29604.574,-7199.951,-35609.703,-58166.71,-1442.7898
1312908.3473801247,-104887.49,-80420.17,-47664.062,-29605.836,-7200.0327,-35614.098,-58163.535,-1439.0056
1312908.3513801193,-104887.9,-80415.734,-47667.074,-29604.127,-7195.842,-35616.742,-58159.305,-1439.9822
1312908.3553801137,-104885.54,-80411.336,-47665.285,-29603.76,-7192.1387,-35612.47,-58156.09,-1441.4877
1312908.3593801083,-104886.64,-80411.42,-47663.617,-29602.906,-7191.5283,-35604.617,-58153.89,-1443.4814
1312908.3633801027,-104895.06,-80418.26,-47665.69,-29604.736,-7197.1846,-35601.645,-58152.832,-1447.2656
1312908.3673800973,-104896.484,-80418.46,-47667.074,-29603.639,-7199.504,-35607.625,-58155.6,-1451.1312
1312908.3713800916,-104891.445,-80416.38,-47665.406,-29601.523,-7198.8525,-35614.746,-58156.58,-1453.7354
1312908.3753800862,-104892.055,-80417.65,-47666.18,-29600.668,-7198.934,-35612.918,-58154.664,-1447.1436
1312908.3793800806,-104897.34,-80424.32,-47668.5,-29601.97,-7203.41,-35607.137,-58152.914,-1442.3422
1312908.3833800752,-104899.055,-80426.19,-47666.914,-29602.54,-7206.706,-35606.363,-58150.11,-1434.8959
1312908.3873800696,-104899.46,-80427.01,-47668.742,-29603.027,-7207.1533,-35610.965,-58144.37,-1424.8455
1312908.3913800642,-104899.375,-80422.484,-47669.11,-29600.18,-7204.4272,-35615.277,-58139.69,-1414.1439
1312908.3953800588,-104903.41,-80424.03,-47669.07,-29600.098,-7204.753,-35613.73,-58138.957,-1404.419
1312908.3993800532,-104910.61,-80430.18,-47667.97,-29601.686,-7210.327,-35605.184,-58134.848,-1397.8679
1312908.4033800478,-104910.56,-80432.5,-47664.51,-29602.295,-7216.146,-35602.457,-58132.69,-1397.9086
1312908.4073800421,-104904.75,-80428.19,-47662.395,-29600.383,-7214.7217,-35607.22,-58131.51,-1396.6472
1312908.4113800367,-104906.54,-80429.164,-47660.93,-29597.412,-7211.2227,-35610.72,-58126.59,-1387.0037
1312908.415380031,-104909.51,-80432.21,-47660.28,-29597.576,-7210.124,-35609.66,-58124.188,-1380.127
1312908.4193800257,-104912.4,-80435.8,-47659.668,-29599.326,-7212.3213,-35603.68,-58124.676,-1374.5525
1312908.42338002,-104916.47,-80441.53,-47664.145,-29602.092,-7214.7627,-35599.203,-58127.81,-1388.9974
1312908.4273800147,-104924.97,-80444.336,-47670.125,-29602.988,-7214.071,-35605.105,-58128.543,-1393.514
1312908.431380009,-104924.85,-80436.93,-47671.715,-29598.756,-7206.584,-35611.53,-58129.76,-1392.5781
1312908.4353800036,-104923.55,-80432.54,-47670.168,-29596.111,-7201.782,-35609.5,-58130.047,-1391.805
1312908.439379998,-104926.31,-80440.59,-47667.074,-29599.121,-7204.6714,-35602.094,-58126.875,-1389.8519
1312908.4433799926,-104929.98,-80450.12,-47667.93,-29601.727,-7209.0254,-35596.965,-58125.41,-1392.6595
1312908.4473799872,-104936.12,-80450.69,-47669.516,-29601.115,-7208.2114,-35599.895,-58123.13,-1397.1761
1312908.4513799816,-104937.09,-80445.92,-47673.098,-29598.512,-7202.1484,-35602.867,-58118.043,-1400.7162
1312908.4553799762,-104932.7,-80443.89,-47673.83,-29597.412,-7201.782,-35599.61,-58114.383,-1399.0072
1312908.4593799706,-104940.836,-80451.54,-47676.434,-29600.059,-7205.8105,-35592.41,-58113.0,-1400.3906
1312908.4633799652,-104948.57,-80456.26,-47680.992,-29601.4,-7208.171,-35588.664,-58113.242,-1406.5349
1312908.4673799595,-104951.42,-80454.47,-47686.035,-29601.318,-7207.1943,-35593.508,-58116.78,-1413.8184
1312908.4713799541,-104949.06,-80451.01,-47686.445,-29599.162,-7203.2065,-35599.61,-58117.758,-1410.4412
1312908.4753799485,-104948.2,-80448.33,-47684.816,-29597.209,-7201.294,-35597.21,-58117.23,-1411.9873
1312908.479379943,-104949.99,-80449.55,-47683.676,-29596.803,-7201.864,-35591.35,-58117.92,-1413.5336
1312908.4833799375,-104957.85,-80459.96,-47684.734,-29599.57,-7208.74,-35589.56,-58118.695,-1416.4633
1312908.487379932,-104962.32,-80462.52,-47686.65,-29600.627,-7209.554,-35594.484,-58118.45,-1417.8467
1312908.4913799264,-104961.63,-80458.01,-47687.5,-29598.43,-7205.77,-35600.223,-58117.598,-1414.9578
1312908.495379921,-104962.81,-80462.69,-47685.06,-29600.383,-7209.2695,-35600.344,-58112.184,-1400.1465
1312908.4993799157,-104966.88,-80470.055,-47681.805,-29602.377,-7214.0303,-35594.08,-58109.457,-1398.4375
1312908.50337991,-104970.55,-80478.195,-47684.33,-29605.754,-7218.3433,-35590.78,-58109.297,-1397.5424
1312908.5073799046,-104971.73,-80480.266,-47686.24,-29603.72,-7218.0586,-35596.19,-58106.324,-1388.143
1312908.511379899,-104969.04,-80476.73,-47686.77,-29599.732,-7213.2163,-35599.49,-58099.895,-1377.3601
1312908.5153798936,-104967.0,-80472.05,-47684.004,-29599.285,-7210.7344,-35596.438,-58097.09,-1373.698
1312908.519379888,-104971.32,-80477.42,-47679.484,-29601.28,-7215.251,-35589.316,-58095.95,-1370.1172
1312908.5233798826,-104973.43,-80481.41,-47677.734,-29601.238,-7219.442,-35586.914,-58097.09,-1375.9766
1312908.527379877,-104974.86,-80480.96,-47679.402,-29600.791,-7218.5874,-35592.203,-58097.414,-1379.5574
1312908.5313798715,-104976.56,-80475.55,-47679.28,-29597.373,-7210.9785,-35597.902,-58099.406,-1380.3711
1312908.535379866,-104981.65,-80475.95,-47678.062,-29594.89,-7209.31,-35597.496,-58099.367,-1383.0974
1312908.5393798605,-104989.664,-80482.95,-47676.35,-29597.535,-7214.7627,-35593.875,-58101.93,-1393.6768
1312908.5433798549,-104992.88,-80486.94,-47677.41,-29599.488,-7219.1978,-35592.49,-58104.82,-1399.3734
1312908.5473798495,-104995.484,-80488.94,-47680.83,-29598.145,-7218.1807,-35597.656,-58107.87,-1406.0059
1312908.551379844,-104992.516,-80483.16,-47683.758,-29595.582,-7212.972,-35604.332,-58108.887,-1407.6742
1312908.5553798384,-104989.26,-80478.68,-47683.72,-29594.361,-7212.2397,-35604.25,-58110.516,-1406.2094
1312908.559379833,-104989.95,-80486.53,-47681.844,-29595.379,-7215.9424,-35597.21,-58107.668,-1406.4128
1312908.5633798274,-105000.2,-80494.71,-47684.9,-29599.488,-7219.32,-35595.258,-58105.062,-1409.668
1312908.567379822,-105002.73,-80494.23,-47688.965,-29598.838,-7214.5186,-35598.676,-58099.49,-1402.2217
1312908.5713798164,-105000.086,-80490.28,-47691.895,-29596.03,-7209.5137,-35604.777,-58095.664,-1391.3574
1312908.575379811,-105000.66,-80488.12,-47693.035,-29596.191,-7209.717,-35603.312,-58094.2,-1387.6953
1312908.5793798054,-104997.93,-80485.72,-47688.152,-29595.826,-7211.263,-35599.285,-58097.047,-1402.9541
1312908.5833798,-105002.484,-80489.75,-47687.42,-29599.203,-7216.4717,-35595.34,-58092.734,-1398.4375
1312908.5873797943,-105010.26,-80494.71,-47688.68,-29599.61,-7216.96,-35598.43,-58082.848,-1381.7139
1312908.591379789,-105012.66,-80493.29,-47689.58,-29597.738,-7215.0474,-35605.105,-58079.51,-1371.1752
1312908.5953797835,-105008.18,-80492.39,-47685.996,-29596.64,-7214.315,-35604.453,-58077.844,-1363.7289
1312908.599379778,-105006.02,-80495.164,-47682.375,-29596.355,-7217.163,-35598.88,-58078.047,-1359.5378
1312908.6033797725,-105010.74,-80500.45,-47682.293,-29598.959,-7221.151,-35595.582,-58073.938,-1353.5564
1312908.6073797669,-105011.31,-80498.336,-47687.664,-29599.447,-7218.506,-35599.406,-58071.574,-1350.5453
1312908.6113797615,-105006.23,-80489.34,-47687.258,-29596.396,-7214.2334,-35602.582,-58069.46,-1347.2494
1312908.6153797559,-105002.32,-80484.5,-47684.125,-29593.588,-7211.7515,-35600.098,-58068.117,-1344.7673
1312908.6193797505,-105004.805,-80486.695,-47679.566,-29593.791,-7216.5938,-35594.363,-58069.215,-1349.6094
1312908.6233797448,-105005.54,-80487.71,-47677.246,-29596.924,-7221.151,-35592.734,-58072.39,-1355.1433
1312908.6273797394,-105011.31,-80494.95,-47679.402,-29598.023,-7219.2793,-35599.45,-58077.72,-1356.364
1312908.6313797338,-105016.52,-80494.51,-47678.875,-29595.338,-7213.745,-35602.5,-58077.56,-1354.0447
1312908.6353797284,-105011.766,-80490.28,-47675.742,-29591.797,-7211.7515,-35597.902,-58072.39,-1349.3246
1312908.6393797228,-105016.08,-80495.77,-47673.055,-29594.158,-7215.9834,-35590.863,-58073.164,-1363.6475
1312908.6433797174,-105021.53,-80500.37,-47676.19,-29595.012,-7219.157,-35587.402,-58078.82,-1376.3021
1312908.647379712,-105023.52,-80496.664,-47683.39,-29595.623,-7217.163,-35594.24,-58084.11,-1386.3933
1312908.6513797063,-105024.87,-80493.734,-47685.223,-29594.482,-7213.501,-35599.734,-58085.695,-1394.8162
1312908.655379701,-105028.73,-80496.26,-47684.45,-29593.955,-7215.332,-35596.965,-58082.03,-1388.5906
1312908.6593796953,-105034.95,-80508.875,-47684.043,-29595.988,-7221.273,-35589.03,-58078.86,-1390.5029
1312908.66337969,-105046.43,-80520.19,-47685.02,-29599.691,-7225.0977,-35584.555,-58077.07,-1393.3105
1312908.6673796843,-105047.77,-80516.52,-47686.688,-29598.715,-7222.86,-35588.95,-58073.45,-1388.5092
1312908.6713796789,-105039.88,-80507.98,-47685.914,-29593.588,-7217.285,-35593.14,-58068.727,-1388.7533
1312908.6753796733,-105033.164,-80504.31,-47681.766,-29591.92,-7216.4717,-35589.195,-58064.332,-1381.8359
1312908.6793796679,-105040.98,-80512.945,-47678.55,-29595.5,-7222.0054,-35582.52,-58062.01,-1376.9125
1312908.6833796622,-105048.42,-80519.695,-47677.98,-29597.576,-7226.3184,-35578.41,-58057.58,-1374.0234
1312908.6873796568,-105051.6,-80522.38,-47681.152,-29597.576,-7224.121,-35584.516,-58060.266,-1376.2615
1312908.6913796512,-105047.57,-80518.15,-47680.79,-29592.652,-7218.791,-35590.78,-58061.28,-1377.116
1312908.6953796458,-105043.586,-80513.76,-47678.305,-29591.105,-7217.163,-35587.242,-58060.59,-1374.3896
1312908.6993796404,-105041.875,-80513.8,-47677.53,-29591.838,-7218.7095,-35581.18,-58059.33,-1370.0359
1312908.7033796348,-105045.9,-80513.47,-47678.875,-29593.059,-7219.4824,-35578.37,-58057.254,-1369.3035
1312908.7073796294,-105049.93,-80515.22,-47683.516,-29592.611,-7217.733,-35582.074,-58052.207,-1360.3516
1312908.7113796237,-105046.875,-80507.81,-47684.57,-29590.414,-7212.077,-35586.832,-58049.24,-1353.2308
1312908.7153796183,-105043.055,-80502.32,-47678.793,-29588.055,-7209.6357,-35583.863,-58045.332,-1347.4121
1312908.7193796127,-105040.33,-80503.83,-47675.54,-29588.828,-7211.263,-35577.555,-58044.07,-1346.2322
1312908.7233796073,-105050.664,-80516.6,-47679.12,-29594.238,-7217.6514,-35573.895,-58045.535,-1350.3826
1312908.7273796017,-105059.66,-80520.47,-47683.35,-29593.262,-7216.6343,-35579.1,-58047.04,-1354.7363
1312908.7313795963,-105060.71,-80515.22,-47685.223,-29590.7,-7213.2163,-35584.96,-58044.56,-1350.9115
1312908.7353795907,-105059.94,-80512.74,-47683.555,-29588.867,-7210.531,-35584.15,-58047.363,-1361.1248
1312908.7393795853,-105065.68,-80516.52,-47683.555,-29590.7,-7213.542,-35576.254,-58048.18,-1366.74
1312908.7433795796,-105077.07,-80528.65,-47686.32,-29593.873,-7220.825,-35574.42,-58048.953,-1372.1924
1312908.7473795742,-105077.4,-80532.35,-47688.56,-29594.688,-7218.994,-35581.055,-58048.547,-1371.1752
1312908.7513795688,-105072.67,-80526.98,-47689.047,-29591.717,-7214.315,-35585.9,-58047.527,-1375.4883
1312908.7553795632,-105077.195,-80531.78,-47688.234,-29591.229,-7217.7734,-35582.766,-58048.26,-1384.6436
1312908.7593795578,-105081.22,-80536.055,-47685.547,-29591.105,-7222.2495,-35577.395,-58049.156,-1388.7533
1312908.7633795522,-105083.87,-80537.805,-47684.9,-29592.285,-7225.383,-35574.22,-58049.523,-1389.4043
1312908.7673795468,-105088.99,-80540.77,-47688.4,-29592.45,-7224.0806,-35579.266,-58047.363,-1390.0961
1312908.7713795411,-105090.78,-80536.26,-47689.293,-29589.805,-7219.0757,-35582.6,-58042.562,-1382.2836
1312908.7753795357,-105088.99,-80532.11,-47685.26,-29588.502,-7219.6045,-35580.28,-58037.805,-1373.6166
1312908.77937953,-105085.05,-80532.23,-47680.664,-29589.6,-7221.965,-35574.625,-58036.258,-1370.4021
1312908.7833795247,-105086.06,-80539.11,-47680.137,-29591.553,-7225.627,-35573.65,-58037.395,-1372.8435
1312908.787379519,-105090.13,-80541.79,-47681.52,-29591.553,-7226.4,-35579.348,-58036.418,-1371.6228
1312908.7913795137,-105083.17,-80535.04,-47681.355,-29587.525,-7222.86,-35584.188,-58037.03,-1375.7732
1312908.7953795083,-105078.375,-80531.78,-47679.2,-29585.043,-7220.4185,-35582.156,-58035.44,-1372.2332
1312908.7993795027,-105081.95,-80539.19,-47676.35,-29586.06,-7224.9756,-35575.645,-58032.15,-1367.8793
1312908.8033794973,-105084.72,-80540.77,-47673.18,-29587.363,-7229.8994,-35571.332,-58029.22,-1364.4207
1312908.8073794916,-105084.84,-80537.72,-47672.61,-29586.06,-7228.6377,-35574.992,-58027.266,-1366.2109
1312908.8113794862,-105082.56,-80533.086,-47674.645,-29584.514,-7225.179,-35578.777,-58022.3,-1363.6068
1312908.8153794806,-105081.46,-80535.41,-47673.098,-29584.637,-7224.9756,-35575.97,-58020.062,-1360.9213
1312908.8193794752,-105085.125,-80542.445,-47669.92,-29586.955,-7227.458,-35569.05,-58020.47,-1362.6709
1312908.8233794696,-105094.484,-80550.91,-47674.113,-29590.984,-7232.5034,-35566.938,-58018.15,-1362.9965
1312908.8273794642,-105096.234,-80546.76,-47679.484,-29590.293,-7231.2827,-35569.54,-58014.0,-1358.2357
1312908.8313794585,-105095.7,-80539.555,-47681.195,-29587.037,-7226.6035,-35572.715,-58009.402,-1354.4515
1312908.8353794531,-105098.39,-80539.59,-47680.46,-29586.834,-7226.4,-35570.312,-58008.426,-1353.597
1312908.8393794475,-105106.49,-80547.125,-47679.2,-29590.129,-7230.306,-35561.85,-58006.88,-1356.4453
1312908.843379442,-105112.63,-80554.445,-47680.42,-29591.96,-7234.782,-35557.09,-58004.926,-1355.5095
1312908.8473794367,-105116.74,-80554.28,-47684.043,-29590.414,-7233.9277,-35560.305,-58002.89,-1353.2715
1312908.851379431,-105112.59,-80549.16,-47681.562,-29586.549,-7229.492,-35565.473,-58003.582,-1351.9695
1312908.8553794257,-105100.586,-80539.59,-47675.457,-29583.701,-7224.4873,-35560.508,-58002.688,-1355.3467
1312908.85937942,-105101.52,-80538.414,-47677.734,-29586.914,-7226.7256,-35552.246,-58001.59,-1352.0916
1312908.8633794147,-105107.914,-80544.35,-47679.688,-29589.64,-7229.0854,-35546.633,-57998.617,-1350.4639
1312908.867379409,-105102.016,-80538.01,-47680.098,-29588.787,-7225.586,-35550.008,-57997.64,-1351.1963
1312908.8713794036,-105098.11,-80530.68,-47679.61,-29586.182,-7218.872,-35555.22,-57999.758,-1354.0447
1312908.875379398,-105094.98,-80525.15,-47676.96,-29583.781,-7216.3086,-35552.246,-58004.03,-1363.5662
1312908.8793793926,-105095.664,-80530.11,-47676.19,-29585.654,-7220.134,-35545.613,-58003.785,-1361.5316
1312908.883379387,-105102.74,-80534.586,-47677.9,-29588.258,-7223.633,-35541.79,-58002.81,-1366.4551
1312908.8873793816,-105101.56,-80533.04,-47680.42,-29587.688,-7222.4937,-35544.11,-57998.7,-1362.6709
1312908.891379376,-105096.805,-80528.85,-47681.03,-29585.898,-7221.4355,-35547.73,-58000.53,-1366.1296
1312908.8953793705,-105100.875,-80530.88,-47678.914,-29587.363,-7222.1274,-35543.254,-58000.938,-1365.8855
1312908.8993793651,-105107.266,-80536.38,-47675.17,-29590.049,-7227.702,-35534.71,-57998.617,-1362.3861
1312908.9033793595,-105109.7,-80539.47,-47673.3,-29590.82,-7230.184,-35532.473,-57996.582,-1359.9854
1312908.9073793541,-105112.8,-80541.34,-47675.62,-29591.717,-7229.37,-35538.29,-57994.14,-1356.4861
1312908.9113793485,-105111.62,-80542.445,-47677.168,-29592.326,-7228.882,-35539.957,-57990.848,-1349.6501
1312908.915379343,-105108.52,-80540.53,-47673.3,-29589.438,-7228.0684,-35533.61,-57988.324,-1348.4294
1312908.9193793375,-105114.99,-80547.0,-47674.195,-29593.344,-7230.9165,-35528.484,-57989.746,-1351.1556
1312908.923379332,-105121.71,-80554.164,-47675.457,-29596.72,-7236.654,-35526.246,-57985.434,-1348.1853
1312908.9273793264,-105129.48,-80554.85,-47678.71,-29597.332,-7236.898,-35528.566,-57977.664,-1339.3962
1312908.931379321,-105130.29,-80553.06,-47680.95,-29596.396,-7233.236,-35530.805,-57971.965,-1328.9388
1312908.9353793154,-105124.96,-80551.64,-47677.777,-29596.111,-7234.253,-35528.28,-57969.402,-1323.9746
1312908.93937931,-105127.57,-80556.6,-47675.824,-29597.941,-7235.962,-35523.766,-57972.535,-1328.2064
1312908.9433793044,-105132.0,-80559.57,-47677.613,-29597.861,-7237.834,-35521.688,-57973.31,-1335.6527
1312908.947379299,-105138.02,-80561.2,-47681.113,-29596.436,-7234.741,-35526.207,-57972.453,-1329.3865
1312908.9513792936,-105135.055,-80555.87,-47680.137,-29592.855,-7226.8066,-35531.293,-57975.098,-1330.4443
1312908.955379288,-105127.73,-80553.266,-47676.555,-29591.514,-7226.278,-35529.543,-57979.82,-1336.3445
1312908.9593792825,-105131.11,-80558.15,-47676.637,-29594.117,-7229.6143,-35524.13,-57981.0,-1336.9141
1312908.963379277,-105132.57,-80552.734,-47677.816,-29594.605,-7229.167,-35523.766,-57982.016,-1338.7451
1312908.9673792715,-105131.59,-80546.266,-47682.58,-29594.158,-7225.586,-35528.65,-57985.8,-1344.279
1312908.971379266,-105135.336,-80550.336,-47686.523,-29593.182,-7220.5,-35531.656,-57989.383,-1351.1963
1312908.9753792605,-105143.31,-80554.484,-47684.082,-29595.176,-7222.982,-35528.16,-57990.277,-1353.5564
1312908.9793792549,-105148.08,-80554.37,-47681.355,-29595.215,-7229.045,-35522.543,-57990.97,-1360.555
1312908.9833792495,-105154.3,-80560.06,-47682.496,-29597.25,-7233.114,-35522.38,-57993.816,-1373.0876
1312908.9873792438,-105154.3,-80562.13,-47684.246,-29597.656,-7232.015,-35529.91,-57996.34,-1371.6228
1312908.9913792384,-105149.54,-80560.55,-47684.652,-29593.791,-7230.876,-35534.832,-57994.02,-1366.0889
1312908.9953792328,-105149.5,-80563.93,-47682.742,-29595.297,-7232.137,-35531.863,-57990.805,-1359.4564
1312908.9993792274,-105151.05,-80565.266,-47679.812,-29595.867,-7233.602,-35524.332,-57989.543,-1361.084
1312909.003379222,-105162.16,-80570.6,-47683.39,-29598.838,-7237.1826,-35520.633,-57987.227,-1355.4281
1312909.0073792164,-105167.97,-80574.016,-47688.723,-29599.53,-7237.793,-35525.555,-57988.28,-1358.3984
1312909.011379211,-105168.42,-80573.53,-47690.31,-29596.111,-7233.9683,-35529.582,-57987.387,-1358.3578
1312909.0153792053,-105170.86,-80574.34,-47689.7,-29596.965,-7235.6772,-35525.27,-57984.99,-1354.0853
1312909.0193792,-105177.05,-80582.44,-47689.09,-29599.488,-7242.717,-35519.777,-57986.94,-1357.3406
1312909.0233791943,-105183.92,-80590.25,-47689.453,-29601.441,-7245.6465,-35519.168,-57988.65,-1357.5847
1312909.027379189,-105184.695,-80588.14,-47691.895,-29599.365,-7242.717,-35522.625,-57986.613,-1352.5798
1312909.0313791833,-105180.586,-80580.81,-47691.285,-29595.338,-7238.2,-35526.285,-57984.094,-1345.2963
1312909.035379178,-105176.84,-80577.88,-47688.438,-29594.158,-7236.8574,-35524.05,-57983.277,-1342.9769
1312909.0393791723,-105177.375,-80579.875,-47683.188,-29594.809,-7238.729,-35517.863,-57981.61,-1336.8734
1312909.0433791669,-105175.87,-80574.42,-47680.586,-29595.459,-7237.59,-35515.91,-57981.12,-1331.95
1312909.0473791615,-105174.12,-80567.586,-47681.64,-29593.75,-7231.242,-35520.59,-57978.07,-1332.601
1312909.0513791558,-105168.625,-80564.5,-47680.504,-29591.35,-7225.708,-35522.625,-57974.406,-1329.305
1312909.0553791504,-105164.43,-80562.586,-47676.516,-29589.805,-7225.4233,-35518.312,-57972.78,-1331.2175
1312909.0593791448,-105170.01,-80568.93,-47673.83,-29591.635,-7230.2656,-35511.395,-57971.477,-1334.3099
1312909.0633791394,-105174.234,-80576.74,-47673.668,-29592.938,-7233.236,-35509.684,-57967.082,-1334.3914
1312909.0673791338,-105170.62,-80571.78,-47674.4,-29591.473,-7230.6724,-35515.016,-57965.58,-1329.5085
1312909.0713791284,-105163.49,-80559.734,-47676.68,-29586.67,-7226.278,-35521.61,-57967.695,-1339.4775
1312909.0753791227,-105168.91,-80562.22,-47677.777,-29588.502,-7228.4346,-35517.215,-57964.152,-1333.5369
1312909.0793791173,-105175.625,-80574.95,-47674.684,-29589.193,-7233.9277,-35506.473,-57961.508,-1332.4789
1312909.0833791117,-105180.055,-80577.48,-47673.016,-29591.553,-7238.7695,-35503.62,-57961.71,-1335.612
1312909.0873791063,-105180.34,-80570.92,-47675.863,-29589.926,-7233.114,-35510.5,-57965.945,-1345.2963
1312909.0913791007,-105176.4,-80562.625,-47675.66,-29587.078,-7226.3184,-35515.83,-57970.46,-1350.9929
1312909.0953790953,-105174.52,-80558.96,-47675.66,-29586.426,-7226.2373,-35515.016,-57976.117,-1353.8005
1312909.09937909,-105175.17,-80562.016,-47672.49,-29587.402,-7232.137,-35509.605,-57977.176,-1353.2308
1312909.1033790843,-105175.83,-80561.77,-47670.37,-29587.566,-7233.724,-35507.12,-57975.426,-1361.7758
1312909.1073790789,-105171.96,-80557.945,-47672.61,-29586.793,-7230.51,-35512.125,-57976.035,-1359.904
1312909.1113790732,-105167.65,-80554.734,-47676.35,-29586.67,-7226.7256,-35517.293,-57972.25,-1346.9238
1312909.1153790678,-105167.4,-80552.125,-47674.727,-29586.264,-7226.6846,-35513.797,-57971.234,-1345.2963
1312909.1193790622,-105167.484,-80551.72,-47674.156,-29586.955,-7228.475,-35505.168,-57969.81,-1340.5355
1312909.1233790568,-105164.06,-80551.72,-47674.6,-29588.502,-7228.9634,-35503.824,-57971.887,-1349.7722
1312909.1273790512,-105162.11,-80548.26,-47677.086,-29587.24,-7226.6846,-35507.773,-57967.082,-1345.7845
1312909.1313790458,-105158.29,-80540.9,-47676.84,-29583.496,-7220.7847,-35510.01,-57963.504,-1338.4603
1312909.1353790401,-105155.07,-80536.7,-47673.91,-29582.56,-7218.3027,-35507.0,-57965.21,-1344.1162
1312909.1393790348,-105158.49,-80537.44,-47672.406,-29584.434,-7222.6157,-35499.715,-57967.246,-1350.2605
1312909.1433790291,-105164.266,-80542.16,-47673.22,-29586.508,-7225.627,-35494.71,-57962.12,-1349.2432
1312909.1473790237,-105169.31,-80543.664,-47677.98,-29586.955,-7224.7725,-35499.188,-57957.52,-1346.3542
1312909.1513790183,-105163.25,-80534.23,-47680.79,-29585.857,-7222.331,-35504.07,-57957.4,-1345.2556
1312909.1553790127,-105160.41,-80530.766,-47680.543,-29584.96,-7223.2666,-35498.863,-57955.85,-1343.4246
1312909.1593790073,-105156.62,-80528.61,-47679.73,-29585.613,-7224.284,-35492.312,-57955.85,-1345.866
1312909.1633790017,-105144.33,-80520.67,-47677.168,-29585.734,-7226.644,-35490.48,-57954.957,-1344.808
1312909.1673789963,-105129.64,-80509.766,-47678.266,-29583.701,-7222.1274,-35499.227,-57956.992,-1347.6156
1312909.1713789906,-105115.03,-80497.766,-47676.92,-29579.713,-7217.0005,-35508.26,-57961.184,-1351.766
1312909.1753789852,-105113.37,-80482.47,-47671.55,-29576.172,-7213.135,-35507.0,-57966.39,-1354.3701
1312909.1793789796,-105107.99,-80473.266,-47669.355,-29575.889,-7214.2334,-35504.8,-57973.31,-1363.4847
1312909.1833789742,-105094.24,-80472.984,-47672.203,-29575.645,-7213.542,-35505.86,-57979.535,-1370.28
1312909.1873789686,-105090.336,-80467.33,-47674.36,-29572.795,-7209.554,-35512.086,-57982.953,-1370.4021
1312909.1913789632,-105091.8,-80446.336,-47673.668,-29568.727,-7203.125,-35518.637,-57984.906,-1368.042
1312909.1953789575,-105081.055,-80431.36,-47668.215,-29565.674,-7198.3643,-35516.44,-57988.445,-1376.2207
1312909.1993789522,-105085.94,-80426.805,-47666.668,-29566.082,-7197.673,-35510.703,-57992.027,-1386.9629
1312909.2033789468,-105090.984,-80425.46,-47668.38,-29565.959,-7198.7305,-35510.17,-57993.652,-1387.0443
1312909.2073789411,-105088.95,-80415.81,-47671.918,-29562.826,-7193.8477,-35517.62,-57994.71,-1393.3105
1312909.2113789357,-105082.805,-80404.99,-47671.754,-29561.32,-7187.541,-35520.875,-57994.426,-1389.2416
1312909.21537893,-105075.16,-80401.05,-47670.29,-29561.809,-7187.134,-35519.86,-57998.945,-1394.8975
1312909.2193789247,-105078.62,-80404.46,-47667.727,-29560.914,-7190.715,-35513.875,-58001.508,-1404.0935
1312909.223378919,-105085.086,-80409.305,-47667.727,-29564.697,-7195.394,-35512.332,-57997.6,-1397.99
1312909.2273789137,-105088.586,-80408.37,-47671.43,-29564.25,-7193.6035,-35518.758,-57996.055,-1400.4314
1312909.231378908,-105072.39,-80398.234,-47670.492,-29558.717,-7186.971,-35521.402,-57992.676,-1392.5375
1312909.2353789026,-105057.21,-80390.99,-47667.48,-29557.049,-7185.3027,-35516.684,-57984.094,-1376.7498
1312909.239378897,-105056.12,-80393.234,-47665.57,-29559.002,-7188.2734,-35508.668,-57978.8,-1375.407
1312909.2433788916,-105069.13,-80402.06,-47665.855,-29562.338,-7196.33,-35508.098,-57973.715,-1373.1283
1312909.2473788862,-105073.695,-80403.12,-47668.336,-29561.85,-7198.7305,-35514.363,-57972.168,-1367.5537
1312909.2513788806,-105070.88,-80400.96,-47668.906,-29558.799,-7194.702,-35513.59,-57964.887,-1354.248
1312909.2553788752,-105067.51,-80396.445,-47668.05,-29559.002,-7193.3594,-35511.23,-57963.867,-1351.8474
1312909.2593788696,-105067.06,-80397.055,-47667.117,-29560.914,-7195.2314,-35505.902,-57964.074,-1352.9053
1312909.2633788642,-105075.52,-80405.93,-47670.125,-29563.559,-7200.6836,-35504.76,-57962.688,-1349.3246
1312909.2673788585,-105083.13,-80411.625,-47675.293,-29564.332,-7201.4976,-35510.336,-57960.246,-1341.8376
1312909.2713788531,-105089.07,-80415.98,-47676.473,-29563.396,-7200.4805,-35513.633,-57958.58,-1336.6699
1312909.2753788475,-105084.84,-80415.9,-47673.383,-29561.484,-7200.3584,-35510.703,-57961.793,-1343.1396
1312909.279378842,-105086.1,-80418.375,-47670.453,-29562.908,-7203.003,-35506.51,-57967.164,-1349.4873
1312909.2833788365,-105093.47,-80423.42,-47670.695,-29565.023,-7205.0376,-35508.098,-57975.426,-1370.7683
1312909.287378831,-105094.28,-80423.55,-47671.957,-29564.373,-7202.8403,-35515.79,-57982.344,-1389.5671
1312909.2913788254,-105092.125,-80417.69,-47671.55,-29558.96,-7194.824,-35520.062,-57986.004,-1392.0898
1312909.29537882,-105094.73,-80416.266,-47669.23,-29557.74,-7194.824,-35518.066,-57989.87,-1393.0258
1312909.2993788146,-105101.97,-80422.81,-47670.37,-29561.443,-7199.707,-35512.656,-57991.78,-1399.0072
1312909.303378809,-105110.88,-80430.14,-47674.727,-29565.39,-7203.6133,-35511.027,-57993.164,-1406.7383
1312909.3073788036,-105120.12,-80433.27,-47680.46,-29565.186,-7203.532,-35517.09,-57995.973,-1413.6963
1312909.311378798,-105125.9,-80433.72,-47683.594,-29562.135,-7200.073,-35520.914,-57995.566,-1417.7654
1312909.3153787926,-105137.49,-80439.13,-47683.027,-29561.89,-7198.934,-35515.42,-57993.33,-1417.155
1312909.319378787,-105149.91,-80447.06,-47679.89,-29563.273,-7203.8984,-35506.633,-57985.76,-1407.959
1312909.3233787816,-105154.016,-80451.664,-47680.707,-29564.414,-7206.706,-35503.664,-57979.21,-1398.9666
1312909.327378776,-105155.12,-80448.98,-47680.3,-29560.344,-7204.956,-35508.098,-57971.152,-1388.5498
1312909.3313787705,-105161.13,-80448.98,-47682.13,-29559.408,-7202.759,-35510.01,-57961.145,-1371.867
1312909.335378765,-105163.54,-80454.15,-47680.95,-29560.14,-7206.299,-35503.867,-57952.965,-1359.8633
1312909.3393787595,-105168.42,-80461.71,-47677.168,-29562.135,-7211.833,-35494.914,-57947.51,-1356.1605
1312909.3433787539,-105175.664,-80468.43,-47675.984,-29566.691,-7213.745,-35493.207,-57944.38,-1350.4639
1312909.3473787485,-105178.914,-80465.984,-47678.47,-29566.082,-7210.2866,-35499.15,-57944.746,-1350.1791
1312909.351378743,-105178.06,-80460.9,-47679.85,-29563.682,-7206.0547,-35501.87,-57942.87,-1351.3591
1312909.3553787374,-105180.42,-80461.51,-47678.914,-29565.309,-7205.6885,-35497.6,-57940.715,-1347.0459
1312909.359378732,-105186.98,-80466.88,-47677.29,-29566.367,-7207.8047,-35490.887,-57939.7,-1348.4294
1312909.3633787264,-105190.39,-80471.36,-47677.656,-29567.506,-7209.0254,-35488.973,-57936.89,-1343.8721
1312909.367378721,-105191.98,-80472.984,-47680.38,-29567.262,-7208.822,-35491.414,-57929.04,-1328.2064
1312909.3713787154,-105189.74,-80472.01,-47681.723,-29565.309,-7207.3164,-35494.63,-57930.258,-1334.1064
1312909.37537871,-105190.35,-80474.125,-47679.85,-29564.861,-7209.3506,-35491.7,-57934.367,-1347.9412
1312909.3793787044,-105193.81,-80479.78,-47677.695,-29567.424,-7213.786,-35487.145,-57936.688,-1354.6143
1312909.383378699,-105199.42,-80485.03,-47680.38,-29568.686,-7215.617,-35485.92,-57938.965,-1358.3171
1312909.3873786933,-105202.31,-80484.3,-47683.15,-29566.732,-7210.368,-35491.902,-57943.117,-1366.9841
1312909.391378688,-105200.445,-80478.56,-47684.855,-29565.227,-7204.4272,-35497.07,-57946.453,-1375.0814
1312909.3953786823,-105198.65,-80479.695,-47683.23,-29565.227,-7206.3804,-35494.63,-57949.586,-1381.0222
1312909.399378677,-105197.11,-80483.766,-47679.08,-29566.123,-7210.8564,-35486.734,-57951.945,-1393.7175
1312909.4033786715,-105203.945,-80488.445,-47682.375,-29568.523,-7215.332,-35486.37,-57952.273,-1402.059
1312909.4073786659,-105207.89,-80488.12,-47685.508,-29568.156,-7213.176,-35492.23,-57952.965,-1406.5756
1312909.4113786605,-105204.39,-80488.77,-47687.99,-29565.674,-7211.914,-35496.785,-57954.67,-1409.139
1312909.4153786548,-105210.49,-80494.47,-47688.477,-29567.018,-7211.8735,-35493.938,-57955.16,-1405.2734
1312909.4193786494,-105217.45,-80501.586,-47686.81,-29571.168,-7217.448,-35488.812,-57952.883,-1399.5361
1312909.4233786438,-105223.516,-80503.46,-47687.46,-29571.86,-7218.1807,-35487.348,-57947.797,-1389.6484
1312909.4273786384,-105227.945,-80502.89,-47691.12,-29569.988,-7215.251,-35492.8,-57945.598,-1389.2416
