timestamp,Fp1,Fp2,F3,Fz,F4,Cz,Pz,Oz
963384.2773468276,-91147.42,-104817.06,20698.201,-4141.7236,286.94662,-45860.555,-42666.22,-2673.0957
963384.2813468251,-91146.2,-104812.586,20720.744,-4112.2236,295.16602,-45860.35,-42668.99,-2678.7925
963384.2853468226,-91153.61,-104812.99,20705.281,-4132.121,286.6211,-45858.727,-42665.977,-2674.8047
963384.2893468201,-91171.02,-104828.45,20676.473,-4172.8516,274.57684,-45855.918,-42658.45,-2663.8591
963384.2933468176,-91178.914,-104835.86,20668.498,-4190.4707,273.112,-45857.016,-42655.56,-2652.6287
963384.297346815,-91182.09,-104838.18,20704.51,-4146.3623,282.1045,-45858.32,-42655.113,-2628.662
963384.3013468125,-91184.98,-104835.695,20723.227,-4113.4033,289.55078,-45855.227,-42652.67,-2616.2517
963384.30534681,-91188.56,-104837.734,20710.693,-4137.0444,285.4004,-45852.215,-42654.176,-2632.4463
963384.3093468075,-91205.28,-104859.3,20681.885,-4182.7393,269.53125,-45854.617,-42656.453,-2647.2168
963384.313346805,-91217.77,-104878.5,20668.092,-4206.0957,261.4746,-45854.98,-42656.09,-2640.747
963384.3173468026,-91225.266,-104884.12,20692.791,-4162.679,272.13544,-45849.977,-42656.047,-2634.4402
963384.3213468001,-91224.81,-104879.48,20719.035,-4129.8423,280.96518,-45848.348,-42653.28,-2623.5352
963384.3253467976,-91224.53,-104879.88,20709.066,-4147.339,280.4769,-45849.45,-42650.188,-2617.2283
963384.3293467951,-91235.11,-104894.375,20680.705,-4182.373,270.223,-45851.32,-42649.902,-2620.6462
963384.3333467926,-91248.3,-104910.0,20653.035,-4203.939,262.0036,-45849.652,-42648.234,-2625.692
963384.3373467901,-91246.3,-104911.42,20676.96,-4160.848,274.00717,-45843.305,-42644.45,-2616.0889
963384.3413467875,-91246.42,-104908.25,20708.62,-4133.2197,276.69272,-45841.39,-42642.906,-2611.6538
963384.345346785,-91253.95,-104911.336,20694.05,-4157.5117,264.8519,-45844.93,-42642.336,-2606.1606
963384.3493467825,-91266.28,-104927.086,20654.826,-4203.7354,250.97658,-45845.01,-42637.207,-2588.8267
963384.3533467801,-91279.664,-104946.375,20643.963,-4224.2026,247.02963,-45843.02,-42634.81,-2591.5527
963384.3573467776,-91280.234,-104945.516,20678.02,-4173.055,258.42285,-45844.727,-42646.973,-2616.862
963384.3613467751,-91274.05,-104938.52,20704.672,-4135.0913,268.10712,-45841.84,-42645.633,-2613.8103
963384.3653467726,-91276.9,-104940.76,20692.18,-4152.4253,266.8864,-45839.277,-42639.0,-2595.459
963384.3693467701,-91287.516,-104956.83,20655.965,-4198.4863,253.45866,-45839.887,-42635.336,-2582.3162
963384.3733467676,-91302.01,-104972.74,20629.314,-4224.8945,243.65234,-45838.707,-42640.75,-2598.3074
963384.3773467651,-91300.83,-104970.55,20652.547,-4182.0884,255.61525,-45839.926,-42648.562,-2606.1606
963384.3813467626,-91297.81,-104970.38,20683.309,-4149.211,262.73602,-45838.867,-42649.78,-2600.9521
963384.38534676,-91296.96,-104968.914,20675.984,-4164.3477,259.0332,-45837.484,-42643.883,-2589.4775
963384.3893467576,-91309.49,-104987.23,20645.264,-4206.0957,246.29721,-45838.707,-42639.04,-2581.3396
963384.3933467551,-91318.85,-105001.914,20621.746,-4218.913,244.05925,-45838.582,-42639.203,-2586.6294
963384.3973467526,-91320.4,-104996.5,20655.438,-4170.98,260.09116,-45835.734,-42638.47,-2578.003
963384.4013467501,-91319.79,-104987.836,20679.363,-4142.904,269.85678,-45834.395,-42634.93,-2575.5615
963384.4053467476,-91324.51,-104992.31,20664.062,-4168.579,261.1491,-45832.316,-42630.777,-2575.4395
963384.4093467451,-91335.21,-105008.67,20634.686,-4220.744,243.57097,-45833.7,-42625.49,-2571.8994
963384.4133467426,-91343.95,-105021.484,20614.828,-4245.036,236.32812,-45834.35,-42620.08,-2566.2842
963384.4173467401,-91341.68,-105017.83,20650.758,-4194.906,246.90756,-45830.445,-42614.42,-2554.5654
963384.4213467377,-91335.78,-105008.63,20678.67,-4156.006,251.3021,-45827.68,-42609.05,-2546.9565
963384.4253467352,-91330.24,-105004.73,20682.617,-4161.621,251.22072,-45830.363,-42612.633,-2546.6309
963384.4293467326,-91337.65,-105016.28,20657.309,-4202.1484,238.36264,-45830.69,-42610.312,-2542.155
963384.4333467301,-91348.266,-105027.63,20638.184,-4225.5454,233.52051,-45828.695,-42607.992,-2537.191
963384.4373467276,-91345.09,-105019.125,20658.936,-4184.8555,244.2627,-45828.33,-42607.992,-2523.6816
963384.4413467251,-91339.766,-105009.445,20682.82,-4160.034,254.10971,-45829.43,-42613.04,-2533.8542
963384.4453467226,-91341.8,-105012.66,20679.281,-4176.1885,251.79037,-45831.42,-42616.13,-2539.022
963384.4493467201,-91351.28,-105023.56,20641.236,-4218.994,243.28613,-45832.277,-42617.92,-2536.5806
963384.4533467176,-91358.6,-105033.45,20627.482,-4237.02,236.8164,-45832.805,-42625.0,-2543.335
963384.4573467151,-91353.234,-105036.87,20659.262,-4184.7334,244.54753,-45832.97,-42627.035,-2534.5054
963384.4613467127,-91344.08,-105023.4,20683.309,-4153.7275,257.20215,-45830.65,-42624.473,-2526.5708
963384.4653467102,-91345.46,-105021.24,20672.486,-4173.747,255.90007,-45829.67,-42620.73,-2522.8271
963384.4693467077,-91360.48,-105035.73,20640.178,-4226.2373,241.49577,-45830.16,-42616.293,-2518.0664
963384.4733467051,-91370.94,-105050.17,20626.344,-4245.809,235.55502,-45828.777,-42614.992,-2515.747
963384.4773467026,-91370.69,-105047.49,20654.623,-4190.552,246.7041,-45827.516,-42618.855,-2525.228
963384.4813467001,-91363.734,-105038.17,20675.578,-4155.6807,252.11589,-45827.8,-42622.965,-2527.71
963384.4853466976,-91359.336,-105037.195,20664.55,-4175.456,243.8558,-45827.11,-42617.96,-2523.519
963384.4893466951,-91365.4,-105047.41,20639.893,-4215.088,232.91016,-45826.582,-42616.496,-2522.7866
963384.4933466926,-91370.08,-105053.67,20619.629,-4234.172,233.80534,-45826.906,-42616.336,-2522.2576
963384.4973466902,-91366.984,-105049.234,20652.629,-4189.6567,248.7793,-45826.418,-42615.6,-2507.6091
963384.5013466877,-91366.21,-105041.51,20679.89,-4161.2144,258.21942,-45825.605,-42615.195,-2500.2441
963384.5053466852,-91368.414,-105039.88,20655.477,-4188.68,249.51172,-45826.785,-42616.414,-2510.62
963384.5093466827,-91380.17,-105053.47,20625.123,-4232.0557,236.8978,-45828.94,-42621.34,-2526.4893
963384.5133466802,-91390.22,-105064.91,20612.63,-4249.0234,231.1198,-45828.29,-42621.83,-2523.8445
963384.5173466776,-91396.12,-105070.44,20649.902,-4198.7715,236.53159,-45824.42,-42620.81,-2513.794
963384.5213466751,-91398.16,-105069.99,20677.572,-4161.4585,242.83855,-45822.227,-42618.164,-2503.0112
963384.5253466726,-91385.46,-105053.35,20670.33,-4172.0786,239.09506,-45823.652,-42618.45,-2507.894
963384.5293466701,-91383.836,-105049.73,20637.248,-4215.8203,234.09018,-45824.63,-42619.875,-2518.5955
963384.5333466677,-91397.99,-105067.43,20615.154,-4238.5254,223.95834,-45822.836,-42618.53,-2512.8174
963384.5373466652,-91397.625,-105063.32,20643.025,-4194.621,236.53159,-45820.883,-42618.855,-2503.418
963384.5413466627,-91390.34,-105054.0,20674.56,-4161.255,236.8164,-45820.19,-42618.855,-2497.4365
963384.5453466602,-91391.03,-105053.305,20673.137,-4178.2227,225.54526,-45820.883,-42617.8,-2499.349
963384.5493466577,-91397.99,-105062.5,20637.654,-4229.7363,221.92383,-45822.754,-42615.848,-2497.396
963384.5533466552,-91408.695,-105079.836,20610.352,-4255.9004,218.18034,-45824.547,-42619.305,-2501.3022
963384.5573466527,-91404.586,-105075.4,20640.057,-4203.125,229.93979,-45822.836,-42624.15,-2503.7437
963384.5613466501,-91400.44,-105068.36,20663.982,-4165.731,236.97917,-45822.188,-42624.637,-2499.227
963384.5653466476,-91401.66,-105062.09,20656.291,-4177.9785,235.75847,-45820.965,-42622.64,-2495.9717
963384.5693466451,-91405.32,-105065.88,20632.568,-4223.3076,226.15561,-45822.227,-42624.066,-2506.0222
963384.5733466427,-91410.08,-105070.4,20615.357,-4247.2334,223.79558,-45825.48,-42626.914,-2508.1787
963384.5773466402,-91407.555,-105064.05,20642.254,-4201.416,238.52539,-45823.203,-42629.11,-2501.1394
963384.5813466377,-91404.09,-105056.64,20667.074,-4177.409,242.91992,-45822.227,-42629.152,-2493.571
963384.5853466352,-91402.39,-105056.07,20659.303,-4192.5864,237.34538,-45822.676,-42628.5,-2497.1924
963384.5893466327,-91410.41,-105070.11,20631.227,-4231.9336,223.47006,-45823.895,-42626.18,-2499.4712
963384.5933466302,-91411.5,-105073.086,20620.646,-4249.227,220.66245,-45823.855,-42624.676,-2494.3035
963384.5973466277,-91401.53,-105060.19,20648.723,-4195.272,236.8571,-45824.016,-42627.32,-2485.7585
963384.6013466252,-91392.375,-105051.19,20668.742,-4157.715,247.23308,-45821.617,-42625.164,-2484.8633
963384.6053466226,-91393.516,-105049.89,20662.15,-4177.7344,249.67448,-45822.023,-42621.094,-2485.5957
963384.6093466202,-91401.82,-105062.3,20628.012,-4228.475,242.79785,-45824.14,-42619.47,-2487.02
963384.6133466177,-91407.555,-105074.1,20608.643,-4247.518,232.46257,-45824.42,-42617.758,-2480.4282
963384.6173466152,-91406.09,-105063.36,20641.766,-4198.8936,236.08398,-45823.69,-42621.543,-2478.9226
963384.6213466127,-91398.32,-105050.91,20667.236,-4165.5273,249.67448,-45824.344,-42624.105,-2466.3086
963384.6253466102,-91399.58,-105049.484,20650.555,-4188.3955,248.57585,-45826.99,-42623.13,-2458.2114
963384.6293466077,-91409.06,-105063.6,20620.32,-4228.231,235.35156,-45828.574,-42625.285,-2478.353
963384.6333466052,-91415.77,-105075.16,20605.998,-4243.408,229.32944,-45828.33,-42624.918,-2486.206
963384.6373466027,-91404.7,-105065.8,20631.023,-4192.749,240.64128,-45828.29,-42626.996,-2476.6033
963384.6413466003,-91394.21,-105054.89,20656.902,-4158.366,248.94206,-45826.785,-42625.57,-2468.2212
963384.6453465978,-91390.875,-105049.32,20652.791,-4172.5264,245.11719,-45825.848,-42618.207,-2454.1423
963384.6493465952,-91396.445,-105052.66,20620.443,-4221.029,239.17644,-45825.195,-42611.453,-2449.9106
963384.6533465927,-91408.29,-105066.9,20603.516,-4248.088,231.85222,-45824.016,-42611.246,-2454.1423
963384.6573465902,-91406.74,-105061.32,20642.904,-4200.8057,239.37988,-45822.43,-42614.098,-2456.7058
963384.6613465877,-91401.37,-105050.945,20672.242,-4165.1206,241.4144,-45819.95,-42612.55,-2453.247
963384.6653465852,-91401.45,-105050.09,20655.965,-4183.1055,237.38608,-45819.95,-42604.94,-2428.5076
963384.6693465827,-91410.484,-105062.7,20622.967,-4236.6133,228.67839,-45824.465,-42610.11,-2449.992
963384.6733465802,-91419.6,-105075.73,20604.412,-4253.988,223.18523,-45826.17,-42614.83,-2465.8203
963384.6773465778,-91411.74,-105068.65,20634.156,-4197.347,236.69434,-45824.22,-42611.98,-2444.743
963384.6813465753,-91403.164,-105058.59,20660.93,-4161.052,248.45378,-45823.285,-42610.35,-2430.3794
963384.6853465728,-91405.93,-105059.164,20647.584,-4180.3794,242.6351,-45823.855,-42611.246,-2432.2917
963384.6893465703,-91409.67,-105064.945,20619.1,-4224.6094,228.06804,-45824.42,-42611.9,-2437.1746
963384.6933465677,-91413.695,-105074.99,20605.916,-4246.0127,223.55144,-45824.75,-42613.688,-2442.871
963384.6973465652,-91405.97,-105062.7,20645.955,-4197.795,240.27507,-45823.61,-42616.945,-2442.7085
963384.7013465627,-91397.99,-105047.445,20679.363,-4168.6606,256.6325,-45823.164,-42616.293,-2435.9539
963384.7053465602,-91399.05,-105048.26,20668.904,-4196.8994,246.33789,-45823.164,-42612.348,-2436.3608
963384.7093465577,-91409.14,-105061.0,20633.26,-4240.0312,233.07292,-45823.0,-42611.574,-2431.9255
963384.7133465552,-91420.05,-105074.06,20618.652,-4250.936,225.7894,-45823.203,-42611.37,-2428.5483
963384.7173465528,-91411.7,-105065.59,20650.105,-4197.754,240.03093,-45820.273,-42612.55,-2420.695
963384.7213465503,-91403.77,-105056.234,20679.281,-4162.3535,254.76076,-45819.336,-42614.016,-2416.4634
963384.7253465478,-91403.445,-105056.28,20672.648,-4184.123,260.3353,-45821.37,-42617.23,-2432.7393
963384.7293465453,-91411.18,-105068.65,20632.771,-4234.375,248.25034,-45823.855,-42619.71,-2447.998
963384.7333465428,-91423.875,-105077.92,20599.162,-4260.62,229.77702,-45825.36,-42621.094,-2445.0278
963384.7373465402,-91420.33,-105072.59,20628.418,-4211.8735,239.78679,-45821.94,-42621.95,-2435.3843
963384.7413465377,-91414.15,-105066.164,20666.79,-4174.886,248.41309,-45819.582,-42617.434,-2421.2646
963384.7453465352,-91415.33,-105063.97,20657.146,-4193.2783,242.87924,-45818.523,-42613.363,-2426.6765
963384.7493465327,-91421.43,-105070.6,20622.396,-4237.142,232.82878,-45818.44,-42611.98,-2430.1353
963384.7533465303,-91430.51,-105079.836,20603.557,-4250.936,229.61426,-45819.703,-42614.707,-2439.901
963384.7573465278,-91429.57,-105077.64,20636.434,-4200.3174,246.01237,-45819.01,-42615.6,-2435.9539
963384.7613465253,-91418.54,-105066.164,20664.348,-4166.748,257.1208,-45821.29,-42618.043,-2430.0537
963384.7653465228,-91418.016,-105066.49,20657.797,-4186.361,248.53516,-45821.168,-42616.824,-2424.3572
963384.7693465203,-91425.414,-105079.59,20627.889,-4231.6895,232.05566,-45819.38,-42614.34,-2421.3462
963384.7733465178,-91432.17,-105091.31,20617.635,-4256.2666,226.44043,-45820.64,-42614.543,-2419.8813
963384.7773465153,-91430.71,-105088.625,20648.846,-4207.601,237.79297,-45818.688,-42616.863,-2424.3572
963384.7813465127,-91424.85,-105079.02,20669.719,-4176.1885,247.1517,-45819.094,-42613.484,-2415.6902
963384.7853465102,-91418.945,-105075.36,20654.867,-4199.1377,243.57097,-45821.13,-42618.082,-2417.2363
963384.7893465078,-91430.09,-105092.66,20614.543,-4247.3145,224.60938,-45822.633,-42621.176,-2425.7407
963384.7933465053,-91437.22,-105102.664,20600.83,-4260.295,220.98796,-45823.164,-42625.406,-2427.7344
963384.7973465028,-91433.19,-105092.82,20635.498,-4206.014,234.21225,-45821.047,-42626.223,-2418.0908
963384.8013465003,-91426.88,-105079.96,20665.324,-4166.667,243.24545,-45821.82,-42626.18,-2414.8357
963384.8053464978,-91424.65,-105076.016,20656.25,-4182.6987,242.51303,-45821.29,-42622.355,-2412.5977
963384.8093464953,-91433.39,-105087.2,20619.223,-4234.5786,232.3812,-45821.82,-42618.652,-2406.779
963384.8133464928,-91441.94,-105098.516,20599.488,-4257.9756,221.31348,-45823.0,-42623.94,-2418.7827
963384.8173464903,-91434.49,-105090.414,20628.703,-4210.9375,232.17773,-45820.64,-42623.496,-2411.621
963384.8213464878,-91420.945,-105078.45,20654.744,-4173.6655,245.0765,-45818.973,-42621.543,-2395.5078
963384.8253464852,-91416.67,-105077.195,20649.984,-4186.7676,243.89648,-45819.215,-42621.38,-2392.863
963384.8293464828,-91422.98,-105085.695,20627.361,-4233.358,240.43784,-45821.574,-42619.344,-2395.9148
963384.8333464803,-91426.15,-105090.78,20607.463,-4251.994,244.2627,-45821.98,-42621.258,-2410.9294
963384.8373464778,-91418.5,-105081.14,20633.953,-4201.579,255.45248,-45820.883,-42620.117,-2404.541
963384.8413464753,-91410.2,-105066.57,20661.297,-4167.562,264.72983,-45818.523,-42615.234,-2379.5166
963384.8453464728,-91411.7,-105065.516,20649.334,-4190.2266,260.37598,-45815.758,-42609.418,-2377.1973
963384.8493464703,-91420.414,-105076.79,20607.79,-4247.3145,249.67448,-45819.746,-42613.363,-2395.996
963384.8533464678,-91430.586,-105089.64,20585.775,-4269.7754,238.60678,-45821.98,-42616.78,-2392.212
963384.8573464653,-91431.766,-105090.91,20621.176,-4218.1396,245.5241,-45820.477,-42614.34,-2378.54
963384.8613464629,-91420.29,-105077.07,20655.926,-4181.1523,253.45866,-45816.895,-42613.61,-2373.4946
963384.8653464604,-91414.76,-105063.88,20656.088,-4195.3125,252.11589,-45816.69,-42615.4,-2387.1665
963384.8693464578,-91425.83,-105073.125,20626.18,-4240.56,241.82129,-45817.63,-42611.613,-2384.603
963384.8733464553,-91436.93,-105082.36,20608.074,-4258.6265,235.18881,-45818.44,-42608.93,-2376.6685
963384.8773464528,-91427.86,-105072.92,20644.654,-4206.6245,251.50554,-45816.61,-42612.348,-2381.8767
963384.8813464503,-91418.016,-105062.75,20675.945,-4169.963,260.05048,-45817.18,-42610.637,-2365.2344
963384.8853464478,-91419.516,-105064.86,20664.715,-4189.9824,250.08139,-45818.77,-42608.156,-2358.602
963384.8893464453,-91425.74,-105076.016,20634.521,-4238.363,238.8916,-45819.746,-42612.957,-2382.487
963384.8933464428,-91434.37,-105084.31,20616.7,-4257.121,233.80534,-45819.176,-42610.68,-2370.8904
963384.8973464404,-91431.32,-105075.97,20643.758,-4213.542,244.01855,-45814.13,-42612.348,-2370.687
963384.9013464379,-91426.6,-105066.53,20672.322,-4180.2573,249.75586,-45809.285,-42612.43,-2370.8904
963384.9053464354,-91422.81,-105066.695,20658.326,-4202.2705,250.8545,-45812.664,-42610.84,-2357.0557
963384.9093464329,-91431.07,-105078.695,20625.041,-4245.809,241.04819,-45815.96,-42609.09,-2347.168
963384.9133464303,-91436.04,-105084.88,20609.986,-4263.55,234.98535,-45816.082,-42611.777,-2366.618
963384.9173464278,-91432.58,-105077.11,20644.775,-4212.5244,245.68686,-45814.047,-42612.59,-2361.491
963384.9213464253,-91426.15,-105067.51,20680.258,-4179.7285,261.80014,-45811.81,-42607.586,-2341.3086
963384.9253464228,-91428.51,-105068.93,20675.252,-4196.045,261.71875,-45810.793,-42607.625,-2360.1482
963384.9293464203,-91439.5,-105078.62,20636.312,-4238.6475,249.55241,-45813.355,-42610.312,-2375.2441
963384.9333464178,-91446.375,-105089.03,20616.7,-4262.6143,241.53647,-45815.758,-42611.043,-2371.582
963384.9373464154,-91439.17,-105082.97,20650.676,-4219.32,249.06413,-45812.258,-42608.48,-2353.353
963384.9413464129,-91430.664,-105072.8,20664.021,-4191.2437,253.13315,-45810.67,-42605.145,-2337.199
963384.9453464104,-91430.09,-105071.62,20656.088,-4206.909,243.97787,-45812.42,-42604.94,-2344.0757
963384.9493464079,-91445.195,-105093.47,20629.639,-4248.6167,234.13086,-45813.03,-42605.55,-2355.3875
963384.9533464054,-91458.984,-105110.92,20610.31,-4264.4453,228.71909,-45814.168,-42608.24,-2357.4219
963384.9573464028,-91431.6,-105074.266,20651.287,-4209.4727,247.9655,-45817.832,-42617.27,-2364.9497
963384.9613464003,-91409.875,-105049.4,20683.146,-4175.049,260.7829,-45818.32,-42619.266,-2362.5083
963384.9653463978,-91421.72,-105060.305,20670.29,-4199.0967,249.10483,-45816.53,-42615.805,-2354.8584
963384.9693463953,-91420.78,-105063.48,20635.742,-4247.5996,239.99023,-45818.848,-42617.473,-2357.4626
963384.9733463929,-91420.695,-105066.695,20614.543,-4267.09,236.20605,-45819.38,-42619.67,-2359.375
963384.9773463904,-91417.484,-105065.48,20651.693,-4213.135,248.20964,-45819.05,-42620.934,-2354.4922
963384.9813463879,-91402.95,-105051.555,20679.281,-4172.119,263.30566,-45818.32,-42618.938,-2346.5984
963384.9853463854,-91398.28,-105046.96,20673.016,-4185.14,260.00977,-45815.105,-42610.555,-2337.8093
963384.9893463829,-91405.68,-105054.61,20649.373,-4233.358,246.33789,-45816.246,-42610.27,-2335.9783
963384.9933463804,-91420.17,-105068.73,20632.244,-4261.0273,237.38608,-45817.426,-42610.555,-2336.8328
963384.9973463779,-91417.93,-105064.7,20662.068,-4212.606,253.66212,-45813.926,-42609.906,-2333.4556
963385.0013463753,-91410.61,-105053.51,20688.03,-4178.63,266.64227,-45811.32,-42608.316,-2320.2312
963385.0053463728,-91412.805,-105054.0,20681.275,-4193.319,256.958,-45817.02,-42614.42,-2327.23
963385.0093463704,-91416.14,-105060.59,20650.473,-4236.003,248.61655,-45820.312,-42613.973,-2331.3804
963385.0133463679,-91420.49,-105068.36,20625.773,-4259.8877,242.2282,-45817.223,-42615.97,-2334.4727
963385.0173463654,-91417.6,-105059.25,20652.873,-4211.792,252.27866,-45814.375,-42616.13,-2328.4507
963385.0213463629,-91413.336,-105050.7,20677.613,-4181.7627,262.04428,-45814.902,-42617.555,-2338.9893
963385.0253463604,-91413.54,-105057.01,20668.865,-4206.9907,260.57944,-45817.344,-42619.1,-2354.6958
963385.0293463579,-91420.9,-105066.41,20643.84,-4248.088,244.79167,-45816.57,-42613.77,-2341.268
963385.0333463554,-91431.44,-105078.25,20629.314,-4266.439,238.68816,-45816.406,-42610.11,-2327.8403
963385.0373463529,-91423.75,-105075.93,20658.326,-4214.9253,252.19728,-45815.51,-42612.43,-2323.283
963385.0413463505,-91413.54,-105057.336,20689.209,-4174.4795,259.15527,-45814.58,-42614.91,-2330.6072
963385.0453463478,-91413.25,-105054.81,20691.895,-4189.2905,257.08008,-45811.934,-42608.195,-2328.3691
963385.0493463454,-91419.44,-105063.234,20660.93,-4238.5664,246.50066,-45811.727,-42607.22,-2334.2693
963385.0533463429,-91428.23,-105073.49,20634.236,-4263.2246,238.72885,-45811.484,-42609.58,-2341.6748
963385.0573463404,-91425.58,-105069.38,20663.615,-4223.5923,247.51791,-45813.805,-42612.223,-2329.5898
963385.0613463379,-91420.125,-105061.77,20693.889,-4186.157,256.46973,-45813.723,-42608.6,-2319.7837
963385.0653463354,-91417.28,-105059.086,20680.379,-4197.1846,258.50424,-45814.58,-42608.887,-2316.6099
963385.0693463329,-91426.44,-105069.22,20647.46,-4243.408,249.87793,-45815.31,-42608.523,-2319.0513
963385.0733463304,-91432.25,-105074.79,20628.582,-4261.1494,246.17514,-45816.164,-42607.91,-2313.9243
963385.077346328,-91428.39,-105068.12,20660.604,-4208.618,255.53386,-45811.85,-42605.55,-2302.409
963385.0813463255,-91419.4,-105058.02,20693.645,-4172.7705,258.95184,-45808.594,-42606.445,-2315.6333
963385.085346323,-91421.875,-105055.625,20686.076,-4194.0107,250.08139,-45809.695,-42606.527,-2315.918
963385.0893463204,-91431.766,-105069.26,20652.385,-4246.582,239.29851,-45812.703,-42605.184,-2307.373
963385.0933463179,-91437.09,-105080.53,20633.465,-4266.0728,235.02605,-45814.047,-42605.145,-2304.0771
963385.0973463154,-91433.02,-105070.64,20664.51,-4213.542,251.42416,-45812.83,-42608.523,-2298.2993
963385.1013463129,-91425.625,-105058.15,20682.537,-4175.985,265.09604,-45811.523,-42610.35,-2300.171
963385.1053463104,-91424.195,-105056.28,20673.055,-4184.8145,261.1491,-45812.34,-42612.55,-2310.8318
963385.1093463079,-91432.3,-105066.086,20644.857,-4225.9116,251.95314,-45814.168,-42618.164,-2326.1313
963385.1133463054,-91437.016,-105072.59,20624.959,-4247.8843,245.4834,-45812.664,-42618.98,-2323.527
963385.117346303,-91431.93,-105070.805,20656.209,-4204.509,257.0394,-45809.004,-42615.113,-2311.1167
963385.1213463005,-91422.04,-105059.77,20686.402,-4175.9443,264.0381,-45810.06,-42607.06,-2296.6716
963385.125346298,-91416.14,-105050.5,20683.838,-4190.389,261.1898,-45812.83,-42612.875,-2307.9834
963385.1293462955,-91427.86,-105059.734,20645.02,-4237.6304,250.4476,-45811.402,-42615.4,-2320.2312
963385.1333462929,-91439.45,-105075.93,20629.07,-4264.5264,242.43164,-45813.477,-42616.66,-2318.0747
963385.1373462904,-91435.8,-105070.68,20664.795,-4221.151,255.28972,-45813.477,-42616.008,-2309.2449
963385.1413462879,-91431.56,-105063.44,20681.682,-4193.7666,260.53876,-45812.137,-42615.277,-2301.6765
963385.1453462854,-91425.26,-105061.69,20677.898,-4205.078,258.87045,-45812.99,-42612.508,-2295.2068
963385.1493462829,-91430.75,-105067.43,20658.326,-4243.1235,253.05177,-45814.78,-42609.945,-2292.6025
963385.1533462805,-91434.695,-105073.9,20640.3,-4264.7705,249.14551,-45815.188,-42610.758,-2298.2585
963385.157346278,-91426.64,-105068.08,20672.363,-4214.966,263.1836,-45813.273,-42613.812,-2297.7703
963385.1613462755,-91422.28,-105062.91,20698.69,-4179.077,271.19955,-45814.453,-42614.83,-2293.335
963385.165346273,-91419.4,-105057.91,20693.523,-4190.918,263.87534,-45816.12,-42611.453,-2288.0454
963385.1693462705,-91423.22,-105061.164,20665.121,-4232.2593,256.75458,-45816.61,-42610.19,-2288.4521
963385.173346268,-91432.58,-105071.78,20638.104,-4259.074,246.09375,-45817.996,-42611.613,-2293.2537
963385.1773462654,-91428.1,-105063.32,20667.848,-4208.6997,258.01596,-45816.734,-42614.79,-2297.404
963385.1813462629,-91421.59,-105058.15,20692.383,-4181.844,260.2539,-45814.94,-42616.17,-2292.6433
963385.1853462604,-91420.945,-105059.37,20686.768,-4198.12,256.10352,-45814.168,-42612.875,-2283.081
963385.189346258,-91424.4,-105065.15,20659.953,-4242.961,245.68686,-45814.863,-42609.824,-2283.3252
963385.1933462555,-91431.73,-105074.71,20637.371,-4260.2134,242.06543,-45813.316,-42605.918,-2282.2673
963385.197346253,-91427.25,-105066.086,20663.209,-4215.902,257.1208,-45810.344,-42603.434,-2270.3452
963385.2013462505,-91420.45,-105058.07,20689.047,-4187.0527,264.4857,-45810.305,-42609.742,-2272.461
963385.205346248,-91422.61,-105062.22,20676.107,-4203.7354,262.81738,-45809.816,-42608.48,-2276.3672
963385.2093462455,-91432.17,-105076.375,20648.805,-4247.152,252.44142,-45810.47,-42607.504,-2280.1514
963385.213346243,-91440.59,-105089.195,20633.83,-4264.9336,244.58823,-45812.137,-42610.598,-2286.3364
963385.2173462405,-91432.82,-105072.31,20662.477,-4215.1694,254.76076,-45812.094,-42614.625,-2277.6287
963385.2213462379,-91424.4,-105061.08,20690.268,-4176.0664,258.78906,-45811.65,-42613.973,-2269.1245
963385.2253462354,-91421.8,-105062.18,20685.791,-4197.754,257.36493,-45811.2,-42610.027,-2265.503
963385.229346233,-91435.51,-105076.13,20651.57,-4250.407,244.30339,-45814.168,-42611.41,-2273.0713
963385.2333462305,-91444.54,-105084.6,20638.266,-4268.4736,236.8978,-45815.31,-42615.805,-2286.784
963385.237346228,-91436.61,-105074.06,20674.52,-4210.1646,256.6732,-45811.035,-42615.6,-2279.0122
963385.2413462255,-91429.53,-105061.52,20695.598,-4175.293,269.2871,-45810.63,-42616.008,-2272.583
963385.245346223,-91427.29,-105057.664,20688.803,-4191.5283,267.90366,-45810.832,-42613.08,-2262.7769
963385.2493462205,-91435.71,-105067.586,20662.883,-4238.5664,256.71387,-45812.625,-42613.73,-2264.445
963385.253346218,-91443.12,-105076.375,20638.348,-4264.364,250.12209,-45813.316,-42616.945,-2276.6929
963385.2573462155,-91439.74,-105071.336,20663.494,-4219.035,259.68427,-45811.89,-42618.938,-2285.4412
963385.261346213,-91434.53,-105060.47,20677.246,-4187.5815,270.5078,-45810.957,-42614.707,-2272.1763
963385.2653462104,-91435.63,-105057.58,20672.12,-4200.887,266.64227,-45815.676,-42620.73,-2278.3203
963385.269346208,-91438.195,-105063.44,20650.146,-4244.344,256.958,-45815.676,-42617.188,-2280.1514
963385.2733462055,-91441.61,-105070.195,20640.38,-4256.2666,256.1849,-45815.43,-42614.625,-2268.921
963385.277346203,-91435.51,-105064.17,20669.719,-4201.213,263.87534,-45812.99,-42615.52,-2266.561
963385.2813462005,-91431.07,-105055.42,20690.756,-4173.9097,270.1823,-45811.484,-42617.88,-2274.7803
963385.285346198,-91429.98,-105056.195,20682.781,-4194.336,261.75946,-45813.52,-42617.758,-2276.7334
963385.2893461955,-91435.02,-105066.164,20647.584,-4246.9077,246.29721,-45815.227,-42619.793,-2283.5288
963385.293346193,-91439.91,-105074.18,20620.973,-4265.5845,244.22202,-45815.555,-42617.758,-2272.8271
963385.2973461905,-91437.055,-105064.91,20657.39,-4210.124,261.27118,-45814.25,-42619.547,-2270.3452
963385.3013461881,-91427.05,-105049.805,20692.506,-4174.154,271.0368,-45813.68,-42620.402,-2273.8445
963385.3053461856,-91425.01,-105047.94,20683.105,-4190.918,267.00848,-45813.234,-42615.684,-2265.6658
963385.309346183,-91434.0,-105059.086,20650.188,-4240.0312,255.28972,-45814.902,-42616.05,-2270.874
963385.3133461805,-91441.49,-105073.57,20631.268,-4262.37,242.02475,-45816.082,-42618.492,-2271.566
963385.317346178,-91435.39,-105066.77,20661.215,-4213.745,250.12209,-45815.066,-42619.547,-2266.032
963385.3213461755,-91429.08,-105055.75,20690.959,-4185.8726,257.4056,-45814.414,-42619.59,-2265.7065
963385.325346173,-91427.94,-105052.734,20680.46,-4203.0845,256.6732,-45814.047,-42615.234,-2256.1035
963385.3293461705,-91433.96,-105060.19,20655.152,-4246.867,250.81381,-45816.406,-42618.652,-2257.243
963385.333346168,-91442.836,-105070.16,20636.312,-4264.364,247.5586,-45817.06,-42619.266,-2265.503
963385.3373461656,-91434.414,-105065.02,20666.748,-4203.3286,257.36493,-45815.188,-42618.367,-2267.7002
963385.3413461631,-91418.79,-105047.98,20691.082,-4172.445,270.34506,-45811.973,-42616.54,-2266.9272
963385.3453461606,-91413.54,-105041.06,20682.008,-4198.9746,273.39682,-45813.234,-42615.03,-2263.8347
963385.3493461581,-91422.164,-105050.54,20644.166,-4246.501,258.74838,-45815.31,-42611.86,-2259.8064
963385.3533461555,-91433.11,-105065.59,20617.31,-4267.9443,258.09735,-45812.703,-42608.562,-2255.534
963385.357346153,-91427.164,-105054.41,20649.049,-4213.257,274.6582,-45810.63,-42610.27,-2251.0173
963385.3613461505,-91414.96,-105037.6,20677.125,-4177.9785,283.4066,-45809.41,-42610.883,-2237.671
963385.365346148,-91416.47,-105035.69,20680.217,-4197.876,278.97137,-45810.59,-42610.555,-2239.3394
963385.3693461455,-91422.2,-105041.836,20650.35,-4244.629,265.82846,-45812.38,-42612.836,-2252.36
963385.373346143,-91434.2,-105059.86,20628.133,-4272.705,257.60907,-45811.035,-42610.84,-2244.4255
963385.3773461406,-91437.75,-105065.39,20663.371,-4232.666,262.28842,-45807.66,-42609.418,-2244.1814
963385.3813461381,-91434.164,-105058.44,20691.244,-4189.8193,267.86298,-45805.91,-42610.066,-2258.016
963385.3853461356,-91425.58,-105044.72,20682.008,-4198.161,271.76923,-45808.555,-42609.945,-2254.9644
963385.3893461331,-91422.28,-105043.83,20655.152,-4243.6523,264.0381,-45813.273,-42618.57,-2269.287
963385.3933461306,-91434.9,-105057.21,20635.336,-4264.6895,262.7767,-45813.273,-42617.27,-2261.7188
963385.397346128,-91429.69,-105047.49,20660.727,-4215.617,272.2575,-45813.68,-42620.934,-2258.8298
963385.4013461255,-91414.516,-105034.1,20696.371,-4179.4434,286.70248,-45812.95,-42620.2,-2253.3367
963385.405346123,-91421.39,-105041.67,20689.535,-4201.782,277.75067,-45811.2,-42615.03,-2243.327
963385.4093461205,-91432.58,-105053.59,20656.576,-4256.2256,256.91733,-45814.82,-42618.98,-2260.905
963385.4133461181,-91441.9,-105066.66,20629.965,-4278.524,253.41798,-45815.35,-42622.152,-2270.1824
963385.4173461156,-91441.33,-105064.01,20663.615,-4225.4233,268.18848,-45812.867,-42622.723,-2258.789
963385.4213461131,-91433.555,-105054.65,20695.965,-4191.3657,277.14032,-45812.094,-42621.785,-2248.413
963385.4253461106,-91429.81,-105050.7,20687.908,-4208.3335,271.8506,-45814.008,-42623.66,-2251.058
963385.4293461081,-91437.38,-105056.89,20651.775,-4249.227,261.71875,-45815.473,-42625.855,-2263.2651
963385.4333461056,-91448.61,-105065.92,20633.953,-4269.2466,257.93457,-45817.06,-42628.418,-2266.032
963385.4373461031,-91442.51,-105057.21,20669.027,-4221.273,271.15887,-45817.63,-42630.7,-2254.6387
963385.4413461005,-91435.51,-105045.21,20687.988,-4190.6333,276.00098,-45814.902,-42626.832,-2245.4429
963385.445346098,-91438.68,-105049.69,20678.143,-4214.2334,270.10092,-45816.367,-42624.594,-2246.1753
963385.4493460956,-91443.41,-105057.945,20652.182,-4255.249,258.3415,-45817.547,-42624.594,-2257.4058
963385.4533460931,-91452.4,-105070.64,20636.11,-4274.333,253.82487,-45817.793,-42623.78,-2259.603
963385.4573460906,-91449.016,-105065.39,20665.936,-4222.3716,266.4795,-45813.965,-42624.227,-2255.4932
963385.4613460881,-91439.45,-105053.63,20695.395,-4182.7393,278.27963,-45814.008,-42627.89,-2249.105
963385.4653460856,-91434.82,-105050.83,20694.459,-4199.382,273.4782,-45816.082,-42627.32,-2254.354
963385.4693460831,-91436.93,-105052.695,20661.58,-4246.867,259.9284,-45816.895,-42629.312,-2266.0728
963385.4733460806,-91443.36,-105064.66,20647.217,-4266.8867,257.32422,-45815.473,-42627.36,-2259.2368
963385.4773460781,-91436.08,-105059.45,20683.635,-4219.6045,272.2168,-45814.863,-42625.613,-2246.6636
963385.4813460757,-91428.34,-105047.695,20710.652,-4185.71,282.75555,-45814.496,-42625.53,-2247.7622
963385.485346073,-91431.73,-105045.21,20703.084,-4205.6885,275.0244,-45813.438,-42622.76,-2245.4429
963385.4893460706,-91438.97,-105056.56,20673.178,-4249.349,263.02084,-45814.863,-42625.285,-2261.027
963385.4933460681,-91449.75,-105068.445,20651.814,-4277.181,256.6732,-45816.734,-42626.1,-2259.8877
963385.4973460656,-91448.2,-105062.91,20667.4,-4234.294,268.9209,-45816.164,-42626.465,-2246.5415
963385.5013460631,-91436.69,-105053.51,20696.33,-4194.824,280.1107,-45815.105,-42624.39,-2224.7722
963385.5053460606,-91438.56,-105049.12,20697.145,-4209.961,274.57684,-45813.113,-42617.555,-2212.484
963385.5093460581,-91444.586,-105057.13,20663.29,-4250.8955,267.86298,-45816.816,-42622.52,-2244.3442
963385.5133460556,-91452.805,-105067.34,20649.578,-4267.741,264.68915,-45819.215,-42629.273,-2263.2651
963385.5173460532,-91444.79,-105057.62,20690.023,-4214.193,279.29688,-45817.547,-42633.504,-2256.5105
963385.5213460507,-91436.08,-105046.02,20713.094,-4184.123,285.97006,-45815.715,-42628.582,-2241.862
963385.5253460482,-91433.88,-105043.375,20696.818,-4205.3633,282.59277,-45816.69,-42625.203,-2237.2234
963385.5293460456,-91441.66,-105056.32,20658.895,-4256.3477,266.68295,-45816.082,-42623.047,-2243.327
963385.5333460431,-91450.484,-105067.95,20632.61,-4277.3438,260.57944,-45816.406,-42624.473,-2244.7104
963385.5373460406,-91447.836,-105062.09,20660.115,-4223.7144,272.6644,-45814.008,-42626.383,-2237.2234
963385.5413460381,-91445.195,-105052.375,20692.383,-4192.2607,279.58173,-45814.168,-42629.965,-2239.624
963385.5453460356,-91445.03,-105050.54,20687.623,-4206.014,274.292,-45816.12,-42630.047,-2243.449
963385.5493460331,-91447.35,-105055.95,20654.094,-4244.2627,265.13672,-45815.594,-42625.125,-2238.5662
963385.5533460306,-91456.71,-105070.97,20638.754,-4272.0137,260.82358,-45816.57,-42626.02,-2243.4897
963385.5573460282,-91451.664,-105065.8,20666.83,-4227.661,274.6989,-45816.406,-42629.03,-2237.1826
963385.5613460257,-91449.67,-105059.53,20688.436,-4200.277,277.34375,-45814.58,-42626.71,-2235.189
963385.5653460232,-91447.8,-105059.62,20686.2,-4212.8906,265.74707,-45815.188,-42624.96,-2241.2517
963385.5693460207,-91448.164,-105063.68,20656.941,-4255.3306,255.8187,-45813.273,-42618.492,-2228.6785
963385.5733460181,-91454.71,-105074.51,20644.531,-4274.292,250.4069,-45815.633,-42623.008,-2229.6143
963385.5773460156,-91443.85,-105063.64,20685.588,-4225.179,264.8519,-45814.168,-42626.383,-2237.793
963385.5813460131,-91436.0,-105051.84,20708.252,-4190.4297,279.54102,-45812.5,-42623.375,-2234.1716
963385.5853460106,-91438.03,-105052.05,20693.238,-4210.368,279.2562,-45812.91,-42619.875,-2226.4404
963385.5893460081,-91446.336,-105066.41,20656.982,-4260.62,268.2292,-45813.76,-42620.2,-2226.7253
963385.5933460057,-91453.05,-105075.12,20641.033,-4273.8853,269.49057,-45816.367,-42623.58,-2233.5205
963385.5973460032,-91448.734,-105068.81,20680.828,-4224.8535,279.78516,-45813.477,-42625.285,-2233.4392
963385.6013460007,-91439.375,-105052.49,20699.139,-4193.7666,286.86523,-45812.258,-42625.285,-2225.5046
963385.6053459982,-91436.0,-105046.23,20689.088,-4212.4023,282.1045,-45812.543,-42626.914,-2234.1309
963385.6093459957,-91445.97,-105065.555,20655.152,-4260.742,264.11948,-45812.137,-42625.938,-2236.1248
963385.6133459932,-91458.336,-105078.49,20630.006,-4287.4756,254.47592,-45814.82,-42626.1,-2238.4033
963385.6173459906,-91449.75,-105069.91,20665.447,-4237.956,268.5954,-45813.56,-42627.93,-2233.5613
963385.6213459881,-91434.57,-105053.1,20690.674,-4201.294,278.88998,-45813.234,-42629.03,-2225.6267
963385.6253459856,-91432.945,-105051.72,20681.396,-4217.7734,276.3672,-45813.805,-42629.19,-2232.0964
963385.6293459832,-91441.94,-105063.766,20649.252,-4261.9224,267.49677,-45816.406,-42632.12,-2245.2393
963385.6333459807,-91450.89,-105072.8,20642.172,-4277.466,263.9974,-45815.188,-42634.32,-2244.5884
963385.6373459782,-91449.266,-105067.1,20673.34,-4228.3936,275.43134,-45812.38,-42633.586,-2234.9448
963385.6413459757,-91438.4,-105057.82,20692.994,-4194.702,284.95282,-45813.6,-42636.883,-2239.38
963385.6453459732,-91441.29,-105062.14,20689.047,-4212.077,281.2907,-45816.816,-42637.492,-2243.8152
963385.6493459707,-91448.734,-105071.45,20650.39,-4267.0493,263.34637,-45819.824,-42634.24,-2229.0447
963385.6533459682,-91456.95,-105081.14,20628.906,-4288.4116,264.60776,-45818.402,-42630.25,-2223.999
963385.6573459657,-91449.34,-105073.24,20662.639,-4236.9795,279.05273,-45817.02,-42635.17,-2238.6475
963385.6613459631,-91440.23,-105059.98,20689.78,-4202.352,287.5163,-45818.117,-42638.59,-2244.7917
963385.6653459606,-91439.58,-105057.26,20681.396,-4212.5654,288.77768,-45819.46,-42635.05,-2238.444
963385.6693459582,-91449.51,-105068.36,20653.24,-4256.429,277.14032,-45822.51,-42633.953,-2237.142
963385.6733459557,-91458.58,-105078.82,20632.488,-4281.372,271.68784,-45823.61,-42635.457,-2234.375
963385.6773459532,-91452.234,-105072.02,20673.463,-4233.8057,287.4756,-45821.332,-42635.133,-2228.3936
963385.6813459507,-91446.086,-105063.56,20705.201,-4206.828,291.05634,-45816.61,-42628.5,-2219.4824
963385.6853459482,-91441.0,-105063.766,20697.877,-4223.0635,286.82455,-45816.0,-42623.66,-2215.21
963385.6893459457,-91446.01,-105070.234,20667.889,-4262.6953,276.52997,-45819.176,-42625.45,-2222.2087
963385.6933459432,-91453.21,-105073.49,20645.793,-4276.8965,271.56577,-45818.36,-42625.164,-2219.4824
963385.6973459407,-91447.06,-105065.27,20679.973,-4224.5283,279.7038,-45817.63,-42630.984,-2212.8906
963385.7013459383,-91439.984,-105055.016,20710.734,-4193.197,290.44598,-45818.24,-42630.617,-2217.6514
963385.7053459357,-91441.2,-105056.03,20704.998,-4213.9487,286.78387,-45818.2,-42631.023,-2226.237
963385.7093459332,-91441.29,-105067.586,20673.625,-4262.329,275.75684,-45816.938,-42629.438,-2216.5527
963385.7133459307,-91446.01,-105078.695,20657.064,-4283.366,268.43262,-45819.46,-42632.977,-2220.8252
963385.7173459282,-91444.13,-105068.85,20681.031,-4230.428,283.24384,-45818.93,-42631.105,-2222.453
963385.7213459257,-91434.086,-105057.21,20703.125,-4195.516,293.53842,-45814.168,-42623.863,-2204.956
963385.7253459232,-91434.29,-105058.02,20694.824,-4216.5527,289.8763,-45817.63,-42622.965,-2206.0547
963385.7293459207,-91442.266,-105064.74,20662.15,-4263.4277,278.72723,-45818.117,-42623.047,-2213.0942
963385.7333459182,-91453.414,-105077.805,20640.3,-4291.219,270.9554,-45819.297,-42623.453,-2207.5195
963385.7373459158,-91449.34,-105073.41,20671.387,-4239.787,279.3376,-45819.05,-42623.94,-2196.1265
963385.7413459133,-91435.23,-105055.586,20701.498,-4198.6084,294.23016,-45818.402,-42623.66,-2197.3472
963385.7453459108,-91429.445,-105046.875,20692.871,-4219.7676,293.13153,-45820.56,-42624.023,-2202.5146
963385.7493459082,-91434.49,-105058.11,20664.348,-4265.788,284.38315,-45821.492,-42624.918,-2198.7712
963385.7533459057,-91442.38,-105071.05,20649.455,-4280.6807,274.49545,-45817.953,-42620.08,-2192.9932
963385.7573459032,-91436.445,-105064.91,20682.7,-4232.015,287.9232,-45814.008,-42620.445,-2196.0857
963385.7613459007,-91428.96,-105051.64,20711.67,-4196.33,298.0957,-45811.566,-42618.164,-2194.6616
963385.7653458982,-91428.67,-105050.54,20708.943,-4214.3965,288.24872,-45813.844,-42612.754,-2180.1353
963385.7693458957,-91441.53,-105067.71,20678.223,-4268.3105,279.86655,-45814.902,-42613.77,-2186.849
963385.7733458932,-91444.99,-105071.945,20654.908,-4288.574,280.3955,-45816.977,-42619.06,-2198.8525
963385.7773458908,-91436.85,-105063.97,20683.594,-4235.6772,290.03906,-45814.375,-42620.363,-2195.4753
963385.7813458883,-91427.086,-105052.58,20719.564,-4197.551,297.6888,-45814.293,-42621.42,-2197.103
963385.7853458858,-91422.37,-105046.47,20720.338,-4209.554,302.04266,-45815.918,-42619.957,-2196.9402
963385.7893458833,-91427.125,-105052.734,20690.756,-4259.847,292.3991,-45813.56,-42618.082,-2192.9526
963385.7933458807,-91438.03,-105064.09,20664.51,-4284.7495,282.0638,-45813.6,-42620.89,-2192.8306
963385.7973458782,-91437.42,-105061.77,20682.293,-4237.59,290.52734,-45813.4,-42621.46,-2186.4014
963385.8013458757,-91433.48,-105057.05,20705.281,-4210.6934,295.81708,-45814.984,-42625.773,-2187.6628
963385.8053458732,-91434.98,-105052.9,20700.969,-4224.5283,295.3288,-45815.39,-42626.59,-2195.0684
963385.8093458707,-91439.17,-105062.99,20678.67,-4263.2246,280.4769,-45818.035,-42629.76,-2200.5615
963385.8133458683,-91444.74,-105066.695,20659.465,-4286.052,277.0996,-45818.727,-42627.81,-2196.696
963385.8173458658,-91436.24,-105059.57,20684.652,-4230.51,290.6494,-45816.406,-42626.344,-2185.9539
963385.8213458633,-91426.15,-105046.43,20719.441,-4190.023,301.7578,-45814.58,-42624.15,-2179.118
963385.8253458608,-91423.016,-105042.195,20712.361,-4206.665,298.29916,-45817.06,-42625.33,-2194.0918
963385.8293458583,-91434.695,-105056.195,20674.887,-4258.138,283.93555,-45817.344,-42622.844,-2190.5112
963385.8333458558,-91441.695,-105064.17,20659.832,-4280.7617,279.86655,-45814.25,-42618.938,-2178.4263
963385.8373458532,-91435.47,-105055.586,20694.988,-4232.544,296.06122,-45815.633,-42618.207,-2166.3413
963385.8413458507,-91430.71,-105046.266,20723.43,-4199.2188,301.473,-45814.168,-42620.402,-2175.0083
963385.8453458482,-91429.94,-105046.06,20711.385,-4211.792,294.75912,-45810.71,-42621.746,-2188.5986
963385.8493458458,-91441.37,-105060.39,20676.88,-4264.6484,286.2956,-45809.043,-42615.4,-2179.769
963385.8533458433,-91451.664,-105069.26,20654.744,-4293.2944,276.08237,-45809.773,-42611.53,-2169.8813
963385.8573458408,-91443.24,-105062.5,20686.727,-4236.369,293.2536,-45810.547,-42616.617,-2171.3867
963385.8613458383,-91434.94,-105051.555,20725.262,-4196.737,302.49023,-45811.363,-42621.746,-2182.7393
963385.8653458358,-91427.414,-105044.44,20721.314,-4210.1646,303.30405,-45810.793,-42619.996,-2179.1992
963385.8693458333,-91429.445,-105050.09,20694.54,-4252.2383,292.07358,-45808.637,-42614.055,-2171.875
963385.8733458308,-91433.15,-105059.414,20678.264,-4277.832,287.10938,-45807.984,-42613.688,-2177.9785
963385.8773458283,-91424.12,-105048.75,20700.807,-4230.428,303.1006,-45805.91,-42615.805,-2173.584
963385.8813458257,-91415.81,-105038.82,20729.004,-4196.086,308.95996,-45803.47,-42615.562,-2169.1895
963385.8853458232,-91415.94,-105038.82,20718.629,-4221.6797,300.82196,-45806.355,-42616.66,-2170.695
963385.8893458208,-91424.44,-105050.055,20687.459,-4260.295,288.737,-45808.96,-42617.23,-2172.4854
963385.8933458183,-91435.305,-105067.51,20667.156,-4277.5474,286.17352,-45811.2,-42618.695,-2175.4558
963385.8973458158,-91429.89,-105054.37,20703.898,-4232.5034,299.3164,-45810.547,-42621.707,-2171.0613
963385.9013458133,-91423.914,-105037.88,20731.04,-4197.673,306.47787,-45809.004,-42622.64,-2165.6902
963385.9053458108,-91425.664,-105039.11,20719.28,-4211.589,302.6937,-45808.473,-42621.746,-2169.5557
963385.9093458083,-91434.2,-105047.695,20690.023,-4253.337,291.2191,-45809.9,-42621.094,-2177.3682
963385.9133458058,-91441.41,-105058.02,20670.695,-4279.338,286.6618,-45813.152,-42625.816,-2178.1821
963385.9173458033,-91434.82,-105054.0,20700.115,-4237.427,300.74057,-45807.82,-42624.594,-2173.0144
963385.9213458009,-91432.21,-105054.57,20722.615,-4210.083,308.75653,-45805.79,-42621.91,-2161.0107
963385.9253457983,-91429.734,-105052.05,20716.879,-4221.802,300.57782,-45807.66,-42619.793,-2160.0342
963385.9293457958,-91431.195,-105054.2,20684.123,-4259.8066,296.59018,-45807.21,-42615.6,-2162.2722
963385.9333457933,-91437.664,-105062.34,20660.645,-4278.7275,284.6273,-45807.617,-42617.27,-2166.5447
963385.9373457908,-91428.836,-105052.05,20694.336,-4226.3184,295.16602,-45808.188,-42623.047,-2165.6494
963385.9413457883,-91421.836,-105039.96,20729.33,-4190.796,307.37305,-45809.207,-42621.91,-2159.9937
963385.9453457858,-91419.44,-105038.336,20724.041,-4210.205,303.42612,-45806.844,-42616.414,-2152.7915
963385.9493457833,-91428.51,-105054.41,20688.844,-4262.37,286.09213,-45803.67,-42615.64,-2155.5176
963385.9533457808,-91439.5,-105068.65,20665.121,-4288.9814,277.38446,-45803.266,-42616.09,-2164.3882
963385.9573457784,-91431.56,-105055.34,20699.178,-4237.9966,295.08466,-45804.61,-42615.64,-2156.4128
963385.9613457759,-91424.28,-105045.01,20730.021,-4204.875,301.26953,-45807.863,-42616.375,-2156.4536
963385.9653457734,-91427.414,-105042.85,20723.633,-4224.8945,293.6605,-45810.508,-42617.555,-2156.2095
963385.9693457708,-91435.39,-105056.64,20685.955,-4275.676,280.72104,-45809.57,-42615.805,-2156.1687
963385.9733457683,-91437.87,-105063.52,20665.121,-4293.6606,281.3314,-45808.676,-42617.8,-2156.657
963385.9773457658,-91429.445,-105051.76,20699.178,-4237.6304,300.6185,-45807.457,-42619.59,-2144.0024
963385.9813457633,-91420.66,-105037.73,20729.29,-4202.5146,316.6504,-45807.332,-42621.5,-2146.9727
963385.9853457608,-91414.63,-105028.73,20724.936,-4210.6934,313.63934,-45806.152,-42619.875,-2150.3093
963385.9893457583,-91420.414,-105038.91,20703.572,-4253.988,302.7751,-45806.6,-42617.676,-2157.7148
963385.9933457559,-91430.055,-105053.47,20682.74,-4281.8604,291.1784,-45805.543,-42615.195,-2148.3562
963385.9973457534,-91427.78,-105048.55,20707.684,-4236.6133,302.32748,-45802.492,-42611.453,-2131.7546
963386.0013457509,-91421.15,-105035.85,20735.23,-4205.9326,310.0993,-45801.27,-42610.395,-2134.481
963386.0053457484,-91424.28,-105040.29,20728.068,-4221.761,307.00684,-45801.84,-42612.305,-2144.5312
963386.0093457459,-91429.94,-105051.516,20695.354,-4265.2183,294.23016,-45803.184,-42612.957,-2155.8838
963386.0133457433,-91437.55,-105064.7,20673.951,-4284.302,287.10938,-45803.387,-42614.664,-2156.3315
963386.0173457408,-91431.52,-105057.91,20706.219,-4228.76,302.93784,-45800.58,-42612.184,-2143.7988
963386.0213457383,-91416.75,-105039.35,20731.854,-4192.668,312.82553,-45798.83,-42613.527,-2135.905
963386.0253457358,-91413.49,-105034.836,20717.977,-4210.897,311.56415,-45800.66,-42615.97,-2132.8533
963386.0293457333,-91428.67,-105049.69,20681.072,-4264.608,300.6999,-45801.027,-42613.484,-2134.074
963386.0333457309,-91443.73,-105068.0,20654.541,-4295.9395,285.8073,-45803.387,-42620.28,-2154.3784
963386.0373457284,-91440.11,-105061.0,20680.46,-4246.0938,299.07227,-45802.9,-42624.555,-2160.9702
963386.0413457259,-91427.086,-105047.57,20715.902,-4202.6367,312.66278,-45800.62,-42619.59,-2140.0554
963386.0453457234,-91428.02,-105052.9,20706.543,-4219.116,309.52963,-45799.684,-42616.54,-2133.8298
963386.0493457209,-91436.93,-105058.59,20682.861,-4259.3994,294.63705,-45801.84,-42619.47,-2139.3638
963386.0533457184,-91439.62,-105061.93,20660.523,-4281.9014,291.25977,-45802.9,-42617.88,-2134.318
963386.0573457158,-91436.61,-105060.67,20684.855,-4238.5664,307.1289,-45801.11,-42617.637,-2132.8533
963386.0613457133,-91433.68,-105050.09,20715.088,-4198.69,310.0179,-45800.863,-42621.83,-2141.0728
963386.0653457108,-91429.81,-105044.84,20703.084,-4211.426,308.431,-45800.945,-42619.06,-2131.8767
963386.0693457084,-91441.41,-105057.82,20670.533,-4263.5093,293.45703,-45801.84,-42617.758,-2138.3464
963386.0733457059,-91451.5,-105071.01,20652.791,-4288.005,285.8073,-45802.29,-42620.16,-2149.0073
963386.0773457034,-91448.49,-105068.98,20694.336,-4234.9854,295.45087,-45800.05,-42623.66,-2141.683
963386.0813457009,-91439.74,-105055.914,20721.15,-4198.934,304.60614,-45800.984,-42625.977,-2139.201
963386.0853456984,-91439.58,-105056.6,20711.793,-4224.5283,299.64194,-45801.312,-42622.316,-2136.6782
963386.0893456959,-91449.06,-105069.22,20678.914,-4276.164,290.77148,-45803.348,-42621.625,-2137.899
963386.0933456934,-91458.21,-105078.984,20656.453,-4287.7607,290.2832,-45805.098,-42622.844,-2142.212
963386.0973456909,-91451.3,-105069.46,20694.092,-4228.353,301.51367,-45803.305,-42623.13,-2134.4402
963386.1013456883,-91440.836,-105055.625,20720.582,-4196.859,309.48895,-45800.906,-42623.047,-2132.2837
963386.1053456858,-91441.45,-105058.11,20711.914,-4219.116,299.3164,-45803.305,-42625.69,-2146.9727
963386.1093456834,-91446.62,-105068.12,20683.838,-4259.359,287.8825,-45804.688,-42622.723,-2140.8691
963386.1133456809,-91454.43,-105078.01,20672.404,-4282.878,282.5114,-45805.34,-42623.58,-2138.7534
963386.1173456784,-91445.195,-105064.336,20706.422,-4229.5737,299.11298,-45803.348,-42622.965,-2130.8188
963386.1213456759,-91438.16,-105049.85,20733.48,-4193.2783,309.36688,-45801.11,-42620.73,-2126.3022
963386.1253456734,-91438.4,-105046.19,20724.691,-4216.838,306.72202,-45801.15,-42615.6,-2131.7954
963386.1293456709,-91449.51,-105061.24,20688.924,-4274.048,291.1784,-45806.316,-42621.707,-2140.1775
963386.1333456684,-91457.44,-105080.04,20663.982,-4296.672,286.09213,-45804.688,-42620.523,-2136.9224
963386.137345666,-91453.734,-105071.13,20697.877,-4243.9375,297.48535,-45800.742,-42616.945,-2127.8892
963386.1413456635,-91443.73,-105053.8,20725.465,-4202.1895,306.3558,-45799.195,-42615.805,-2117.7166
963386.1453456609,-91440.555,-105048.586,20724.65,-4216.1865,303.67026,-45800.54,-42616.54,-2120.158
963386.1493456584,-91451.09,-105062.016,20698.283,-4261.9224,288.53354,-45802.41,-42620.117,-2134.0332
963386.1533456559,-91463.5,-105073.0,20666.342,-4290.2427,280.0293,-45802.574,-42620.89,-2134.4402
963386.1573456534,-91466.19,-105074.34,20689.129,-4253.581,291.1784,-45801.066,-42623.535,-2133.1382
963386.1613456509,-91457.4,-105065.555,20718.506,-4215.78,306.3558,-45801.27,-42626.71,-2140.625
963386.1653456484,-91453.414,-105064.09,20714.64,-4225.3013,302.653,-45801.15,-42622.316,-2134.3994
963386.1693456459,-91460.82,-105077.35,20677.49,-4266.8867,285.0749,-45802.33,-42622.355,-2133.667
963386.1733456434,-91471.03,-105091.19,20660.441,-4285.075,285.7666,-45803.914,-42626.914,-2144.0024
963386.177345641,-91467.05,-105082.805,20695.15,-4237.142,295.77637,-45803.59,-42627.81,-2127.7263
963386.1813456385,-91453.9,-105063.93,20719.93,-4202.474,303.67026,-45804.527,-42631.266,-2126.994
963386.185345636,-91452.31,-105062.5,20714.803,-4220.459,298.0957,-45805.137,-42632.652,-2150.1465
963386.1893456334,-91459.516,-105069.74,20675.416,-4267.5376,288.61493,-45805.664,-42630.82,-2150.4722
963386.1933456309,-91467.33,-105078.21,20654.664,-4288.778,283.3252,-45804.688,-42628.664,-2140.1775
963386.1973456284,-91465.82,-105073.77,20689.25,-4234.9043,293.49774,-45802.777,-42627.688,-2128.3774
963386.2013456259,-91461.55,-105063.44,20705.73,-4202.5146,306.11166,-45801.92,-42625.45,-2119.5884
963386.2053456234,-91461.47,-105063.4,20699.098,-4226.7256,300.6185,-45803.793,-42623.7,-2117.1062
963386.2093456209,-91467.05,-105075.445,20673.219,-4272.0137,286.25488,-45803.914,-42622.4,-2118.6118
963386.2133456185,-91473.88,-105085.9,20654.135,-4295.532,279.1748,-45804.65,-42623.25,-2118.449
963386.217345616,-91469.69,-105089.234,20685.385,-4241.577,285.7666,-45802.938,-42625.977,-2120.4834
963386.2213456135,-91462.734,-105075.195,20717.244,-4196.452,304.80957,-45799.93,-42623.293,-2122.0703
963386.225345611,-91458.62,-105063.56,20708.334,-4210.775,307.9834,-45800.58,-42620.32,-2114.9902
963386.2293456085,-91464.32,-105071.984,20678.549,-4264.608,292.806,-45801.11,-42618.164,-2109.8633
963386.2333456059,-91475.875,-105082.16,20655.355,-4293.6606,285.23764,-45799.848,-42616.254,-2103.8413
963386.2373456034,-91474.04,-105083.91,20682.537,-4251.384,293.00946,-45798.22,-42617.39,-2108.8867
963386.2413456009,-91461.47,-105072.06,20715.455,-4211.3037,301.55438,-45799.727,-42624.188,-2118.6118
963386.2453455984,-91461.19,-105068.445,20705.69,-4224.569,296.38672,-45798.992,-42622.844,-2118.2048
963386.249345596,-91472.82,-105082.03,20674.602,-4271.5254,284.70868,-45799.316,-42624.35,-2122.8843
963386.2533455935,-91478.27,-105088.26,20654.135,-4293.2944,286.17352,-45800.215,-42621.094,-2116.211
963386.257345591,-91474.41,-105085.25,20690.064,-4239.543,298.1771,-45800.008,-42621.297,-2106.486
963386.2613455885,-91466.84,-105072.43,20712.81,-4204.3457,307.77997,-45799.93,-42619.547,-2095.581
963386.265345586,-91464.56,-105071.86,20709.637,-4223.552,303.9144,-45800.824,-42618.57,-2097.29
963386.2693455835,-91468.59,-105080.61,20674.48,-4275.472,291.1377,-45805.504,-42622.723,-2109.0496
963386.273345581,-91475.06,-105088.99,20655.762,-4298.584,285.31903,-45809.043,-42629.07,-2114.2578
963386.2773455784,-91471.234,-105079.63,20690.674,-4246.6636,291.78876,-45806.355,-42627.645,-2102.1323
963386.2813455759,-91464.89,-105068.41,20722.494,-4208.659,302.6123,-45802.086,-42623.94,-2092.855
963386.2853455734,-91464.73,-105061.41,20719.97,-4227.0103,304.52475,-45800.742,-42621.055,-2102.295
963386.289345571,-91467.29,-105066.2,20694.215,-4270.3857,292.11426,-45802.29,-42617.758,-2100.7896
963386.2933455685,-91475.06,-105078.82,20672.283,-4293.01,282.02313,-45802.656,-42621.746,-2102.9053
963386.297345566,-91471.84,-105077.48,20700.318,-4241.0483,296.4681,-45801.473,-42624.555,-2099.2432
963386.3013455635,-91460.45,-105058.92,20717.408,-4204.1426,314.33105,-45800.58,-42623.74,-2092.9363
963386.305345561,-91460.125,-105060.06,20711.182,-4225.342,305.41992,-45801.312,-42624.15,-2094.6045
963386.3093455585,-91465.82,-105066.66,20678.752,-4272.2983,293.29428,-45804.12,-42623.453,-2097.575
963386.313345556,-91473.06,-105070.516,20659.912,-4292.2773,286.82455,-45804.324,-42622.355,-2092.9363
963386.3173455535,-91465.7,-105065.35,20687.094,-4240.804,307.86133,-45801.473,-42623.453,-2094.3604
963386.3213455509,-91457.56,-105052.695,20713.623,-4209.6357,317.50488,-45799.805,-42622.113,-2093.872
963386.3253455485,-91458.91,-105054.08,20706.746,-4231.6084,307.73926,-45801.19,-42615.887,-2084.2285
963386.329345546,-91464.48,-105062.625,20678.387,-4268.27,298.0957,-45805.34,-42618.043,-2088.5825
963386.3333455435,-91469.81,-105069.336,20662.232,-4288.574,295.77637,-45806.316,-42621.176,-2092.163
963386.337345541,-91470.18,-105066.53,20694.744,-4241.8213,307.33237,-45803.754,-42620.85,-2082.8044
963386.3413455385,-91466.68,-105059.29,20722.088,-4202.352,319.74286,-45802.86,-42621.867,-2079.712
963386.345345536,-91456.99,-105049.12,20721.191,-4218.384,313.88348,-45807.66,-42629.64,-2086.8735
963386.3493455335,-91467.45,-105064.17,20685.385,-4269.613,298.42123,-45809.734,-42631.188,-2102.8647
963386.353345531,-91473.8,-105076.91,20661.744,-4297.241,293.2129,-45809.082,-42630.86,-2105.6724
963386.3573455286,-91467.37,-105068.93,20694.621,-4250.244,306.96616,-45807.945,-42628.906,-2088.9893
963386.3613455261,-91458.58,-105055.83,20724.53,-4210.4087,311.48276,-45808.27,-42630.777,-2091.6343
963386.3653455235,-91456.586,-105050.21,20719.523,-4227.051,306.55927,-45808.797,-42630.656,-2091.7156
963386.369345521,-91462.08,-105058.555,20693.4,-4272.4204,296.83432,-45809.004,-42629.273,-2092.2852
963386.3733455185,-91463.22,-105065.35,20674.764,-4290.731,290.44598,-45807.742,-42624.88,-2079.3052
963386.377345516,-91460.37,-105060.266,20714.52,-4238.851,306.11166,-45804.688,-42623.617,-2066.8132
963386.3813455135,-91453.9,-105050.46,20744.06,-4208.74,315.06348,-45802.777,-42627.402,-2084.6355
963386.385345511,-91449.875,-105048.305,20732.422,-4224.6504,310.70966,-45804.85,-42628.055,-2091.9597
963386.3893455085,-91460.25,-105064.09,20687.826,-4278.3203,300.6185,-45806.723,-42625.49,-2086.9548
963386.393345506,-91469.41,-105073.61,20676.393,-4306.5186,298.50262,-45809.207,-42631.88,-2094.686
963386.3973455036,-91465.375,-105063.44,20712.158,-4254.1914,313.63934,-45806.438,-42629.723,-2088.0942
963386.4013455011,-91461.19,-105056.6,20742.025,-4215.9424,321.04492,-45804.2,-42627.2,-2075.0327
963386.4053454986,-91455.33,-105053.875,20732.666,-4227.58,315.99936,-45802.86,-42622.926,-2069.9463
963386.409345496,-91461.8,-105057.336,20695.354,-4267.334,300.86264,-45802.53,-42625.0,-2081.6245
963386.4133454935,-91471.03,-105069.09,20673.87,-4291.667,293.09082,-45804.12,-42626.63,-2083.903
963386.417345491,-91462.57,-105061.445,20698.69,-4242.798,309.00067,-45803.914,-42625.0,-2077.3113
963386.4213454885,-91463.46,-105056.56,20718.791,-4209.3506,316.04004,-45799.766,-42623.047,-2074.5444
963386.425345486,-91477.91,-105068.32,20706.584,-4228.801,306.51855,-45798.42,-42624.066,-2081.543
963386.4293454835,-91459.39,-105056.195,20683.92,-4273.6816,301.96127,-45803.223,-42629.355,-2084.5542
963386.433345481,-91453.58,-105052.984,20673.137,-4293.0503,304.2806,-45805.098,-42632.45,-2089.5996
963386.4373454786,-91460.125,-105059.25,20711.71,-4249.634,313.51727,-45801.883,-42627.848,-2084.188
963386.4413454761,-91455.85,-105053.43,20730.348,-4219.32,325.84637,-45801.35,-42621.707,-2073.8525
963386.4453454736,-91440.11,-105037.11,20724.65,-4227.9053,328.00293,-45804.2,-42625.895,-2071.7773
963386.4493454711,-91447.11,-105046.39,20697.225,-4271.322,309.61102,-45804.812,-42623.535,-2066.2842
963386.4533454685,-91454.63,-105057.664,20679.646,-4295.614,295.6543,-45804.89,-42622.6,-2059.6519
963386.457345466,-91449.875,-105050.21,20711.996,-4239.421,309.44824,-45804.73,-42628.133,-2069.2546
963386.4613454635,-91441.695,-105039.02,20736.736,-4201.416,316.28418,-45806.03,-42631.227,-2086.7107
963386.465345461,-91439.05,-105032.19,20733.684,-4218.75,313.51727,-45806.97,-42625.773,-2074.829
963386.4693454586,-91445.516,-105037.64,20709.27,-4270.63,302.93784,-45804.812,-42620.81,-2066.2437
963386.4733454561,-91459.96,-105054.69,20681.193,-4303.182,298.29916,-45806.562,-42622.684,-2064.738
963386.4773454536,-91457.08,-105048.875,20706.055,-4251.75,311.7269,-45806.074,-42626.59,-2061.4014
963386.4813454511,-91445.27,-105041.95,20735.637,-4208.537,326.00912,-45803.426,-42624.473,-2052.1648
963386.4853454486,-91445.16,-105034.47,20735.434,-4223.8364,322.4284,-45804.16,-42621.5,-2042.6027
963386.4893454461,-91454.836,-105043.016,20706.625,-4271.4844,307.2917,-45805.707,-42625.0,-2055.2573
963386.4933454436,-91460.01,-105046.92,20686.238,-4291.219,303.9958,-45808.555,-42628.95,-2082.8044
963386.497345441,-91449.42,-105034.586,20721.111,-4236.491,321.8994,-45805.992,-42630.332,-2070.9229
963386.5013454385,-91442.63,-105021.445,20744.305,-4199.2188,330.5664,-45806.723,-42630.7,-2062.622
963386.505345436,-91444.79,-105018.68,20724.61,-4218.425,328.69467,-45806.97,-42626.547,-2060.791
963386.5093454336,-91457.766,-105033.82,20700.807,-4269.043,310.0179,-45805.098,-42624.43,-2063.5173
963386.5133454311,-91468.06,-105044.35,20685.994,-4298.9097,294.18945,-45803.793,-42622.52,-2062.3374
963386.5173454286,-91467.37,-105039.31,20715.088,-4252.6855,306.72202,-45800.62,-42620.08,-2051.4731
963386.5213454261,-91457.03,-105024.7,20737.143,-4213.745,320.27182,-45798.465,-42620.32,-2055.7456
963386.5253454236,-91456.79,-105023.97,20727.174,-4229.6553,316.6911,-45800.05,-42618.164,-2053.8738
963386.5293454211,-91461.96,-105034.914,20703.654,-4268.2295,312.74414,-45803.633,-42617.15,-2054.8096
963386.5333454186,-91470.3,-105045.45,20686.361,-4293.2944,305.9896,-45806.234,-42617.555,-2056.5186
963386.5373454161,-91467.82,-105038.74,20718.832,-4249.7153,317.50488,-45803.793,-42618.57,-2053.9146
963386.5413454135,-91456.22,-105028.164,20743.287,-4208.5776,326.86362,-45799.848,-42615.6,-2037.6791
963386.545345411,-91452.72,-105028.12,20737.06,-4223.3887,321.6146,-45802.695,-42615.805,-2044.5964
963386.5493454086,-91462.94,-105040.125,20704.51,-4272.746,309.85516,-45801.883,-42618.164,-2051.5544
963386.5533454061,-91461.47,-105044.31,20691.895,-4299.4385,306.3558,-45806.113,-42620.65,-2051.107
963386.5573454036,-91455.28,-105039.31,20722.82,-4257.121,321.167,-45804.973,-42621.91,-2048.706
963386.5613454011,-91454.555,-105036.09,20749.959,-4225.3013,324.01532,-45803.71,-42620.65,-2041.7482
963386.5653453986,-91450.6,-105039.47,20746.502,-4234.497,322.63184,-45804.402,-42620.2,-2040.5275
963386.5693453961,-91458.46,-105048.586,20704.469,-4273.641,314.45312,-45806.316,-42620.973,-2044.9626
963386.5733453936,-91464.32,-105053.39,20686.688,-4292.2363,309.2448,-45808.188,-42625.938,-2050.9849
963386.5773453912,-91457.805,-105044.07,20723.756,-4237.427,325.96844,-45806.6,-42628.62,-2052.1648
963386.5813453887,-91451.42,-105033.66,20747.803,-4203.5728,330.97333,-45806.438,-42628.867,-2051.1882
963386.5853453862,-91450.445,-105031.414,20740.398,-4225.5454,325.3581,-45806.074,-42628.46,-2053.5076
963386.5893453836,-91460.86,-105043.54,20704.102,-4276.245,313.88348,-45807.05,-42627.973,-2059.082
963386.5933453811,-91465.13,-105048.67,20681.6,-4296.0205,308.39032,-45807.293,-42628.133,-2055.0132
963386.5973453786,-91463.79,-105041.38,20718.873,-4244.873,319.86493,-45804.445,-42629.926,-2052.6123
963386.6013453761,-91454.59,-105032.555,20747.803,-4207.6416,331.4616,-45802.613,-42626.383,-2053.1821
963386.6053453736,-91451.13,-105028.85,20740.643,-4224.0806,331.33954,-45803.02,-42626.75,-2051.88
963386.6093453711,-91459.15,-105039.06,20717.205,-4267.131,314.98212,-45801.68,-42622.965,-2052.0835
963386.6133453686,-91464.69,-105048.42,20687.664,-4288.8184,308.18686,-45799.727,-42621.055,-2050.6187
963386.6173453662,-91459.03,-105039.63,20708.172,-4241.2925,319.25458,-45797.566,-42622.273,-2047.933
963386.6213453637,-91451.46,-105029.87,20734.822,-4210.449,328.40985,-45800.008,-42621.83,-2044.922
963386.6253453612,-91450.56,-105032.48,20730.225,-4234.8633,328.53192,-45800.54,-42621.785,-2043.8234
963386.6293453587,-91462.37,-105050.664,20700.969,-4277.0186,313.43588,-45803.062,-42623.984,-2044.9626
963386.6333453561,-91466.84,-105056.16,20682.129,-4297.8926,313.43588,-45803.59,-42623.13,-2036.0922
963386.6373453536,-91458.984,-105045.86,20716.756,-4252.523,328.81674,-45802.29,-42626.71,-2035.4818
963386.6413453511,-91450.08,-105031.58,20740.926,-4211.914,339.07065,-45800.254,-42626.344,-2040.7308
963386.6453453486,-91443.97,-105022.625,20733.807,-4221.0693,338.41962,-45802.246,-42624.96,-2041.1785
963386.6493453461,-91452.27,-105032.39,20702.719,-4265.259,325.56152,-45802.043,-42624.227,-2047.3226
963386.6533453437,-91463.46,-105046.02,20688.191,-4292.8877,314.86005,-45799.52,-42625.613,-2052.3276
963386.6573453412,-91458.83,-105048.47,20731.486,-4247.274,324.01532,-45798.75,-42632.977,-2049.1943
963386.6613453387,-91452.27,-105044.48,20753.541,-4211.711,329.14227,-45801.15,-42631.797,-2033.8949
963386.6653453362,-91451.26,-105039.72,20745.117,-4228.6787,324.4222,-45804.16,-42632.164,-2045.1661
963386.6693453337,-91461.836,-105046.35,20716.229,-4275.879,312.9476,-45803.508,-42632.45,-2054.8096
963386.6733453312,-91475.38,-105058.96,20695.516,-4302.0835,308.431,-45797.977,-42628.543,-2048.8281
963386.6773453286,-91474.37,-105054.734,20725.465,-4259.8877,318.80698,-45795.777,-42627.848,-2042.3585
963386.6813453261,-91455.33,-105036.38,20751.059,-4221.965,333.29266,-45798.42,-42631.023,-2037.8826
963386.6853453236,-91450.16,-105033.61,20745.158,-4229.818,336.3851,-45798.79,-42627.81,-2034.424
963386.6893453212,-91459.03,-105044.234,20708.863,-4275.35,325.39877,-45797.406,-42623.17,-2030.0294
963386.6933453187,-91466.516,-105054.164,20681.193,-4294.515,314.5752,-45797.527,-42625.895,-2042.7654
963386.6973453162,-91461.34,-105049.12,20714.764,-4246.867,327.39258,-45798.016,-42630.94,-2049.4385
963386.7013453137,-91452.4,-105035.77,20746.664,-4213.42,339.3148,-45797.69,-42629.03,-2040.8123
963386.7053453112,-91453.21,-105034.95,20738.607,-4231.9336,332.80438,-45797.812,-42625.734,-2041.382
963386.7093453087,-91462.32,-105047.81,20699.098,-4281.9014,318.56284,-45799.4,-42628.38,-2043.0095
963386.7133453062,-91472.05,-105061.08,20686.523,-4299.642,308.10547,-45799.805,-42631.676,-2046.1427
963386.7173453037,-91459.68,-105049.195,20712.24,-4247.966,325.2767,-45799.03,-42632.61,-2037.5978
963386.7213453011,-91450.08,-105038.54,20742.96,-4210.2866,334.92026,-45795.695,-42631.633,-2036.4177
963386.7253452986,-91453.05,-105039.68,20742.025,-4224.935,329.58984,-45795.574,-42628.95,-2035.3191
963386.7293452962,-91461.266,-105048.38,20715.658,-4274.048,320.27182,-45795.82,-42627.645,-2037.4757
963386.7333452937,-91469.61,-105054.04,20699.178,-4295.207,315.55176,-45795.086,-42622.113,-2021.7693
963386.7373452912,-91466.27,-105049.89,20734.09,-4245.7275,324.95117,-45792.848,-42622.56,-2019.6127
963386.7413452887,-91455.77,-105037.11,20752.889,-4208.944,335.77475,-45794.395,-42626.18,-2040.7716
963386.7453452862,-91461.55,-105040.53,20737.713,-4229.248,327.7995,-45797.0,-42625.45,-2040.6902
963386.7493452837,-91474.164,-105060.14,20703.166,-4283.081,315.34833,-45796.797,-42622.438,-2033.5287
963386.7533452812,-91478.234,-105065.76,20692.303,-4298.625,307.73926,-45798.75,-42626.426,-2036.906
963386.7573452787,-91467.77,-105057.87,20723.104,-4244.7104,323.12012,-45796.266,-42627.2,-2035.197
963386.7613452763,-91461.67,-105042.56,20759.725,-4202.108,335.612,-45793.867,-42627.973,-2031.5349
963386.7653452737,-91459.15,-105034.266,20758.992,-4214.1523,333.21127,-45793.945,-42623.74,-2025.879
963386.7693452712,-91469.04,-105044.48,20720.582,-4269.8164,317.70834,-45794.72,-42625.45,-2030.3142
963386.7733452687,-91479.125,-105056.03,20688.844,-4295.3696,311.93036,-45798.465,-42627.848,-2033.0812
963386.7773452662,-91476.56,-105050.09,20718.059,-4243.8154,324.4629,-45792.277,-42627.24,-2031.128
963386.7813452637,-91464.234,-105038.21,20746.053,-4208.049,334.3913,-45791.707,-42623.58,-2020.9554
963386.7853452612,-91458.74,-105034.586,20740.193,-4223.0635,330.7292,-45791.14,-42621.5,-2017.5375
963386.7893452587,-91466.43,-105042.4,20711.873,-4269.979,320.19043,-45790.773,-42614.383,-2013.7533
963386.7933452562,-91471.64,-105050.78,20693.4,-4296.0205,313.47656,-45791.668,-42614.258,-2014.6892
963386.7973452538,-91469.28,-105047.33,20722.453,-4251.872,322.3877,-45793.215,-42618.652,-2015.6251
963386.8013452513,-91459.59,-105039.35,20751.629,-4207.3975,334.7982,-45793.297,-42620.81,-2015.3402
963386.8053452488,-91453.58,-105034.1,20753.338,-4220.622,335.12372,-45794.355,-42622.6,-2012.9396
963386.8093452462,-91458.336,-105041.06,20722.006,-4267.9443,328.08432,-45792.81,-42616.414,-2010.254
963386.8133452437,-91471.234,-105053.43,20702.637,-4291.26,315.67383,-45792.195,-42618.57,-2014.8113
963386.8173452412,-91467.695,-105042.81,20732.666,-4238.729,322.63184,-45789.473,-42619.387,-2008.8298
963386.8213452387,-91459.72,-105031.17,20756.062,-4205.3633,331.58368,-45788.82,-42618.246,-2001.0173
963386.8253452362,-91456.34,-105028.52,20753.094,-4225.5454,331.21747,-45788.7,-42615.277,-1992.8793
963386.8293452337,-91462.445,-105038.05,20725.668,-4271.688,318.44077,-45792.32,-42616.05,-1997.3145
963386.8333452313,-91469.08,-105046.59,20698.854,-4290.8125,312.9476,-45792.81,-42621.42,-2013.4279
963386.8373452288,-91463.914,-105036.7,20725.383,-4240.6416,323.89325,-45789.633,-42623.332,-2009.9285
963386.8413452263,-91458.375,-105028.85,20755.738,-4205.8105,337.1582,-45789.43,-42625.855,-2012.3292
963386.8453452238,-91456.46,-105028.24,20744.264,-4223.9585,322.71323,-45791.586,-42626.87,-2021.3624
963386.8493452213,-91464.766,-105042.16,20703.166,-4277.995,307.25098,-45796.797,-42628.95,-2022.5831
963386.8533452187,-91472.74,-105052.05,20688.314,-4298.1367,307.94272,-45798.87,-42629.312,-2020.7113
963386.8573452162,-91468.02,-105052.984,20721.07,-4248.9424,320.14975,-45794.598,-42625.082,-2013.6312
963386.8613452137,-91460.66,-105043.586,20748.291,-4209.88,326.29395,-45792.93,-42626.305,-2000.9359
963386.8653452112,-91459.15,-105033.695,20748.7,-4216.146,324.21875,-45794.965,-42628.664,-2001.2208
963386.8693452087,-91462.69,-105037.6,20715.17,-4258.2603,318.07455,-45796.55,-42633.547,-2032.1859
963386.8733452063,-91463.18,-105041.14,20691.977,-4287.679,310.99448,-45797.977,-42631.594,-2030.599
963386.8773452038,-91460.125,-105032.72,20726.686,-4244.629,322.99805,-45797.324,-42627.93,-2006.8767
963386.8813452013,-91457.44,-105028.12,20741.21,-4218.3433,337.36166,-45796.31,-42626.344,-2008.016
963386.8853451988,-91455.125,-105027.96,20731.648,-4235.1484,335.04233,-45796.59,-42624.188,-2013.672
963386.8893451963,-91459.31,-105034.34,20712.037,-4266.805,327.2705,-45797.406,-42619.914,-2009.7657
963386.8933451938,-91466.31,-105042.28,20692.139,-4286.4585,319.25458,-45797.773,-42621.01,-2005.5746
963386.8973451912,-91466.23,-105037.4,20719.97,-4244.1,326.4974,-45796.43,-42624.84,-2008.1381
963386.9013451887,-91458.46,-105024.09,20744.426,-4205.8516,336.87338,-45795.9,-42626.1,-2010.1726
963386.9053451862,-91456.586,-105019.86,20739.99,-4219.035,337.36166,-45796.023,-42627.32,-2010.132
963386.9093451838,-91464.89,-105032.43,20709.107,-4266.1543,331.58368,-45795.125,-42623.535,-2011.3527
963386.9133451813,-91477.83,-105049.52,20679.81,-4302.6533,315.30762,-45796.918,-42623.414,-2012.2885
963386.9173451788,-91474.086,-105040.695,20708.74,-4254.0693,323.81186,-45795.37,-42621.297,-2006.1036
963386.9213451763,-91458.3,-105023.766,20748.291,-4213.257,330.7292,-45795.047,-42626.06,-2008.2195
963386.9253451738,-91456.586,-105021.41,20749.268,-4222.2495,327.47397,-45795.047,-42625.613,-2009.1146
963386.9293451713,-91468.266,-105034.06,20706.096,-4275.1465,317.0166,-45797.08,-42623.7,-2006.5105
963386.9333451688,-91478.72,-105051.64,20684.367,-4294.8813,313.23242,-45796.59,-42625.613,-2017.7816
963386.9373451663,-91479.21,-105049.52,20717.53,-4245.4834,321.6146,-45794.72,-42627.156,-2010.783
963386.9413451637,-91470.79,-105033.86,20752.076,-4209.432,331.58368,-45791.016,-42626.02,-2009.2775
963386.9453451612,-91463.914,-105026.33,20740.643,-4225.952,333.903,-45794.027,-42627.605,-2015.5844
963386.9493451588,-91474.45,-105033.57,20707.031,-4272.624,319.33594,-45796.59,-42629.76,-2025.2279
963386.9533451563,-91487.266,-105047.53,20685.467,-4305.1353,307.16962,-45796.875,-42628.824,-2023.8038
963386.9573451538,-91480.555,-105043.46,20722.615,-4257.8125,314.90073,-45794.844,-42628.01,-2013.8347
963386.9613451513,-91470.625,-105027.63,20750.326,-4216.7563,323.12012,-45792.766,-42628.418,-2009.7657
963386.9653451488,-91469.61,-105025.76,20747.926,-4228.475,318.7256,-45795.94,-42633.832,-2016.3168
963386.9693451463,-91474.49,-105032.68,20706.422,-4269.9385,314.49384,-45797.73,-42633.79,-2017.3341
963386.9733451438,-91476.89,-105042.97,20688.64,-4291.097,311.40137,-45797.773,-42637.29,-2023.8445
963386.9773451413,-91474.37,-105037.84,20720.947,-4251.0176,319.82422,-45796.266,-42637.207,-2020.9554
963386.9813451389,-91466.43,-105029.14,20740.805,-4217.733,332.96713,-45796.43,-42632.57,-2009.5216
963386.9853451363,-91464.52,-105032.63,20730.754,-4238.7695,329.67123,-45796.797,-42626.383,-2008.3009
963386.9893451338,-91471.4,-105045.49,20698.445,-4285.3193,319.58008,-45797.285,-42625.734,-2012.6547
963386.9933451313,-91482.625,-105059.94,20680.908,-4303.3447,309.7331,-45799.93,-42633.832,-2024.4548
963386.9973451288,-91480.15,-105054.41,20709.96,-4253.337,323.44565,-45798.543,-42637.613,-2023.3562
963387.0013451263,-91465.91,-105035.445,20736.207,-4211.0596,334.96094,-45797.08,-42636.56,-2016.4388
963387.0053451238,-91464.93,-105030.32,20738.445,-4225.5454,333.29266,-45795.332,-42629.64,-2013.0209
963387.0093451213,-91474.49,-105046.555,20711.264,-4277.588,321.28906,-45793.582,-42622.477,-2008.5043
963387.0133451188,-91475.875,-105054.37,20690.023,-4305.176,312.37793,-45793.703,-42621.055,-2005.8187
963387.0173451164,-91467.33,-105045.125,20714.682,-4257.772,323.93393,-45792.848,-42624.39,-1998.8201
963387.0213451139,-91461.19,-105035.36,20741.943,-4222.6973,338.25684,-45790.242,-42621.746,-1994.3035
963387.0253451114,-91457.89,-105033.33,20745.564,-4233.5205,333.65887,-45790.69,-42619.875,-2003.947
963387.0293451088,-91464.93,-105043.79,20714.844,-4280.0293,321.5739,-45795.94,-42622.723,-2007.365
963387.0333451063,-91480.19,-105059.37,20691.488,-4314.372,308.0241,-45795.98,-42621.297,-2010.0505
963387.0373451038,-91474.04,-105049.766,20725.627,-4261.6377,321.00424,-45794.355,-42623.863,-2014.6078
963387.0413451013,-91466.19,-105040.445,20753.5,-4220.622,333.12988,-45794.312,-42624.473,-2004.0284
963387.0453450988,-91466.07,-105039.555,20753.744,-4238.973,326.66016,-45797.285,-42626.59,-2006.2257
963387.0493450963,-91472.414,-105040.164,20725.709,-4278.198,316.93524,-45799.195,-42628.055,-2009.3588
963387.0533450939,-91479.945,-105053.06,20699.098,-4300.212,310.0586,-45797.445,-42625.203,-2003.9064
963387.0573450914,-91476.12,-105049.36,20727.295,-4252.8076,324.95117,-45793.297,-42624.96,-2004.598
963387.0613450889,-91469.04,-105037.88,20756.836,-4219.7676,337.84995,-45793.824,-42625.285,-2002.8484
963387.0653450864,-91472.82,-105036.22,20754.598,-4243.2456,329.0202,-45797.363,-42628.418,-2008.1381
963387.0693450839,-91481.0,-105043.016,20720.785,-4285.034,316.12143,-45798.586,-42626.305,-2006.6732
963387.0733450813,-91484.375,-105053.305,20699.504,-4308.0244,309.5703,-45799.645,-42629.152,-2009.6437
963387.0773450788,-91476.52,-105042.28,20723.633,-4262.5327,325.07324,-45798.18,-42632.12,-2003.7435
963387.0813450763,-91468.63,-105036.664,20756.592,-4221.965,332.84506,-45795.656,-42626.426,-1996.4193
963387.0853450738,-91468.59,-105037.93,20752.4,-4232.951,331.33954,-45795.492,-42625.69,-1998.7793
963387.0893450713,-91474.695,-105046.266,20718.1,-4279.826,321.94012,-45795.535,-42623.58,-1995.931
963387.0933450689,-91475.99,-105052.734,20695.598,-4304.891,320.7601,-45796.836,-42623.58,-2001.7498
963387.0973450664,-91470.46,-105048.586,20725.383,-4262.8584,331.99057,-45795.574,-42627.24,-2007.7312
963387.1013450639,-91466.43,-105038.91,20758.383,-4221.8833,337.44305,-45793.54,-42625.082,-1995.8496
963387.1053450614,-91467.164,-105035.24,20751.506,-4234.497,336.792,-45791.06,-42618.816,-1989.7461
963387.1093450589,-91479.66,-105046.15,20718.709,-4282.4707,324.8698,-45793.54,-42617.105,-1982.2998
963387.1133450564,-91486.086,-105052.49,20699.707,-4295.8984,314.04623,-45796.062,-42619.875,-1987.9965
963387.1173450538,-91477.016,-105050.13,20728.312,-4248.983,323.2829,-45797.203,-42629.03,-2007.3243
963387.1213450513,-91466.31,-105040.086,20755.697,-4211.792,335.40854,-45794.395,-42630.496,-2000.0814
963387.1253450488,-91462.37,-105030.97,20750.367,-4234.0903,335.69336,-45793.785,-42629.152,-2004.3947
963387.1293450464,-91473.15,-105043.22,20721.15,-4282.5117,325.31738,-45795.125,-42624.96,-1998.0469
963387.1333450439,-91483.766,-105057.21,20703.166,-4301.107,309.5703,-45796.062,-42622.76,-1990.6414
963387.1373450414,-91477.46,-105051.96,20738.566,-4253.418,324.21875,-45795.574,-42630.008,-1987.9965
963387.1413450389,-91471.64,-105042.36,20763.104,-4219.442,331.33954,-45796.062,-42637.168,-2004.7201
963387.1453450364,-91473.06,-105038.945,20751.668,-4237.3457,324.95117,-45797.49,-42637.492,-2016.3575
963387.1493450339,-91479.62,-105051.03,20707.44,-4286.174,312.33725,-45799.645,-42636.273,-2011.8002
963387.1533450314,-91489.305,-105067.266,20691.57,-4310.3438,305.01303,-45800.336,-42639.812,-2016.4388
963387.157345029,-91490.805,-105062.55,20726.033,-4260.498,318.60352,-45796.55,-42640.098,-2010.783
963387.1613450263,-91489.586,-105056.195,20751.18,-4227.0103,333.0892,-45794.883,-42635.906,-2002.0345
963387.1653450239,-91478.92,-105046.76,20747.273,-4239.0547,333.04852,-45795.98,-42633.75,-2000.9767
963387.1693450214,-91484.87,-105055.79,20720.541,-4283.6914,318.2373,-45800.17,-42637.125,-2013.3464
963387.1733450189,-91489.55,-105063.4,20698.812,-4305.583,308.14618,-45798.26,-42634.766,-2008.423
963387.1773450164,-91484.42,-105060.47,20733.643,-4259.6846,319.25458,-45794.434,-42633.426,-1997.9656
963387.1813450139,-91479.74,-105055.79,20756.47,-4227.58,328.24707,-45792.93,-42630.82,-1989.8275
963387.1853450114,-91484.26,-105057.664,20736.248,-4252.8486,319.82422,-45795.41,-42629.965,-1993.042
963387.1893450089,-91492.8,-105070.64,20708.172,-4292.3584,310.4655,-45796.633,-42631.39,-2003.4587
963387.1933450064,-91502.56,-105082.69,20682.902,-4312.541,307.53583,-45796.836,-42632.367,-2005.8595
963387.197345004,-91497.36,-105072.516,20714.682,-4262.126,319.37665,-45796.145,-42631.39,-1998.4131
963387.2013450015,-91485.76,-105063.234,20753.582,-4223.47,333.903,-45794.637,-42634.523,-1996.9482
963387.2053449989,-91489.914,-105064.336,20741.943,-4243.0015,325.43945,-45795.004,-42631.88,-1993.0828
963387.2093449964,-91497.56,-105073.0,20704.672,-4292.196,308.59375,-45796.348,-42630.574,-1996.7855
963387.2133449939,-91506.02,-105085.82,20675.049,-4322.673,302.2461,-45797.445,-42636.23,-2002.5636
963387.2173449914,-91500.695,-105082.12,20709.188,-4275.4316,313.27313,-45797.363,-42640.625,-2000.0814
963387.2213449889,-91490.234,-105068.65,20746.053,-4231.201,327.47397,-45796.47,-42641.562,-1997.7621
963387.2253449864,-91488.61,-105065.76,20747.234,-4245.2803,329.18295,-45798.26,-42641.074,-2003.1332
963387.2293449839,-91495.41,-105072.39,20721.436,-4283.7324,317.4642,-45800.62,-42643.598,-2009.2775
963387.2333449814,-91503.13,-105080.37,20694.133,-4307.373,309.04135,-45803.223,-42643.15,-2007.7312
963387.237344979,-91501.34,-105080.61,20726.93,-4262.9395,317.098,-45799.645,-42639.69,-2001.6277
963387.2413449765,-91494.305,-105073.29,20762.654,-4231.527,324.09668,-45795.574,-42638.43,-1996.7041
963387.245344974,-91491.09,-105066.734,20751.506,-4249.4307,319.86493,-45795.777,-42638.184,-1999.7559
963387.2493449714,-91496.75,-105079.43,20721.883,-4286.3364,313.8021,-45795.613,-42635.38,-1995.6869
963387.2533449689,-91503.664,-105087.04,20700.604,-4309.8145,306.3558,-45792.89,-42628.824,-1977.2136
963387.2573449664,-91497.27,-105082.08,20731.854,-4264.364,319.66147,-45788.617,-42625.816,-1966.4307
963387.2613449639,-91492.555,-105075.52,20752.889,-4230.9165,325.2767,-45790.04,-42626.914,-1966.7969
963387.2653449614,-91493.21,-105076.945,20741.7,-4256.592,318.92905,-45793.418,-42627.156,-1978.9633
963387.269344959,-91493.94,-105080.53,20717.285,-4295.736,310.54688,-45795.453,-42631.88,-1985.8398
963387.2733449565,-91503.54,-105090.414,20691.732,-4315.8774,300.5371,-45795.37,-42630.37,-1981.2826
963387.277344954,-91505.45,-105083.83,20717.0,-4268.0664,318.6849,-45791.87,-42630.656,-1978.3123
963387.2813449515,-91493.21,-105068.98,20744.264,-4230.9165,327.22983,-45792.32,-42635.785,-1985.1482
963387.285344949,-91488.125,-105065.88,20739.46,-4244.4663,328.61328,-45790.57,-42633.586,-1985.7585
963387.2893449465,-91496.83,-105074.836,20712.77,-4290.9346,318.3187,-45791.953,-42631.39,-1983.8054
963387.2933449439,-91508.22,-105089.84,20685.994,-4322.1436,308.7972,-45794.76,-42631.676,-1980.4688
963387.2973449414,-91506.8,-105088.34,20710.734,-4274.577,319.01044,-45793.297,-42630.37,-1971.0693
963387.3013449389,-91500.41,-105079.67,20741.7,-4234.9854,328.04364,-45793.457,-42629.395,-1966.1459
963387.3053449364,-91504.195,-105084.92,20737.143,-4252.4414,321.94012,-45795.613,-42628.95,-1965.3728
963387.309344934,-91507.04,-105092.57,20706.34,-4293.0503,309.2855,-45797.61,-42631.594,-1977.417
963387.3133449315,-91507.41,-105095.87,20696.941,-4312.7036,307.90204,-45794.883,-42635.38,-1993.7338
963387.317344929,-91496.625,-105083.91,20736.531,-4264.364,323.40497,-45791.06,-42635.5,-1987.9558
963387.3213449265,-91486.695,-105073.24,20757.977,-4229.0854,334.0251,-45790.69,-42632.527,-1976.5219
963387.325344924,-91487.51,-105074.305,20744.873,-4252.1567,326.66016,-45792.402,-42630.496,-1975.0977
963387.3293449215,-91496.46,-105089.195,20716.512,-4298.5435,310.0179,-45795.777,-42628.62,-1967.4072
963387.333344919,-91503.5,-105099.66,20702.107,-4318.929,307.16962,-45796.1,-42626.996,-1958.374
963387.3373449164,-91498.945,-105097.01,20732.422,-4264.852,324.70703,-45796.55,-42635.418,-1976.6439
963387.3413449139,-91488.61,-105083.055,20758.912,-4221.2324,336.18164,-45796.957,-42635.824,-1978.475
963387.3453449114,-91485.84,-105077.27,20744.67,-4239.868,331.0954,-45796.957,-42628.582,-1960.3271
963387.349344909,-91495.28,-105092.77,20714.07,-4288.005,319.29526,-45800.457,-42630.902,-1972.0867
963387.3533449065,-91503.79,-105099.086,20688.03,-4321.9404,312.62207,-45800.254,-42635.133,-1985.2295
963387.357344904,-91497.73,-105091.27,20716.268,-4277.588,326.70087,-45797.61,-42637.613,-1983.8054
963387.3613449015,-91486.086,-105077.15,20754.477,-4230.1025,340.4541,-45794.56,-42633.586,-1969.6045
963387.365344899,-91486.33,-105072.23,20748.332,-4240.4785,334.3099,-45791.098,-42629.926,-1967.448
963387.3693448965,-91495.24,-105082.85,20712.605,-4287.7607,320.19043,-45791.992,-42629.07,-1967.4886
963387.373344894,-91500.66,-105096.766,20695.271,-4315.8774,311.3607,-45794.92,-42626.1,-1960.2865
963387.3773448915,-91490.97,-105088.51,20731.771,-4261.9224,325.43945,-45797.0,-42631.348,-1962.972
963387.3813448889,-91479.58,-105072.96,20762.004,-4225.342,335.32715,-45795.777,-42632.49,-1970.2148
963387.3853448865,-91480.516,-105077.195,20756.268,-4251.872,330.85126,-45794.844,-42623.453,-1958.4554
963387.389344884,-91492.84,-105092.82,20719.361,-4301.3105,317.0166,-45795.453,-42621.34,-1952.5146
963387.3933448815,-91500.25,-105100.79,20691.041,-4322.51,310.0586,-45794.844,-42623.332,-1957.4382
963387.397344879,-91491.46,-105092.29,20717.367,-4272.38,326.70087,-45793.906,-42628.664,-1962.3617
963387.4013448765,-91481.04,-105078.984,20746.826,-4229.0854,337.44305,-45793.62,-42629.965,-1955.241
963387.405344874,-91478.84,-105075.73,20743.816,-4242.4316,333.41473,-45794.434,-42630.25,-1951.4568
963387.4093448715,-91484.7,-105082.4,20715.414,-4289.388,324.4629,-45794.395,-42628.258,-1948.6898
963387.413344869,-91489.75,-105086.71,20705.078,-4310.14,320.06836,-45794.027,-42623.984,-1943.6849
963387.4173448666,-91485.84,-105078.62,20735.596,-4262.1665,332.47885,-45794.15,-42625.33,-1943.4814
963387.4213448641,-91482.22,-105071.695,20756.877,-4229.126,338.4603,-45790.406,-42626.426,-1945.3939
963387.4253448615,-91480.1,-105075.73,20755.941,-4249.5527,330.15952,-45788.496,-42627.93,-1955.892
963387.429344859,-91490.6,-105085.49,20720.338,-4303.589,313.88348,-45793.01,-42626.383,-1958.1707
963387.4333448565,-91500.37,-105097.13,20697.795,-4325.3174,308.67514,-45793.418,-42627.035,-1952.3113
963387.437344854,-91496.83,-105089.36,20726.238,-4274.2515,320.3125,-45791.87,-42628.746,-1946.0857
963387.4413448515,-91489.016,-105076.09,20752.93,-4230.0215,330.7292,-45790.285,-42628.055,-1940.5518
963387.445344849,-91484.22,-105072.8,20757.771,-4238.7695,332.3161,-45789.633,-42626.426,-1945.0277
963387.4493448465,-91490.52,-105079.836,20731.934,-4285.6855,323.2422,-45790.855,-42627.523,-1955.3223
963387.453344844,-91498.945,-105090.58,20704.184,-4315.1855,316.48764,-45793.824,-42628.5,-1953.6947
963387.4573448416,-91495.52,-105083.91,20724.324,-4269.5723,328.2064,-45789.55,-42626.1,-1941.3656
963387.4613448391,-91491.3,-105078.29,20742.92,-4236.206,337.40234,-45789.88,-42626.1,-1930.8269
963387.4653448366,-91490.89,-105073.41,20742.432,-4249.227,337.76855,-45791.504,-42625.977,-1933.2683
963387.469344834,-91496.664,-105083.21,20714.479,-4290.4053,325.23602,-45794.312,-42629.152,-1944.5801
963387.4733448315,-91508.67,-105099.33,20694.906,-4317.8306,314.77866,-45795.25,-42628.215,-1942.3828
963387.477344829,-91506.96,-105100.38,20734.986,-4275.472,321.2077,-45794.355,-42632.04,-1941.5691
963387.4813448265,-91494.914,-105086.23,20763.062,-4233.114,330.7292,-45792.156,-42630.047,-1931.1523
963387.485344824,-91485.516,-105071.984,20756.512,-4243.5713,328.125,-45796.266,-42626.426,-1920.4509
963387.4893448215,-91502.93,-105087.57,20715.496,-4294.271,317.5456,-45798.18,-42625.285,-1915.0798
963387.493344819,-91514.77,-105105.06,20683.064,-4325.2363,313.55795,-45795.535,-42626.71,-1919.7592
963387.4973448166,-91509.56,-105099.33,20713.055,-4277.181,325.84637,-45788.94,-42628.867,-1914.8763
963387.5013448141,-91504.27,-105094.16,20747.193,-4242.839,331.0547,-45789.348,-42632.812,-1924.3572
963387.5053448116,-91507.66,-105093.55,20743.367,-4262.0444,321.73666,-45792.93,-42633.87,-1936.2793
963387.5093448091,-91512.78,-105097.7,20704.428,-4305.298,314.37177,-45795.125,-42633.953,-1940.0635
963387.5133448065,-91519.49,-105105.02,20683.35,-4323.283,309.6517,-45794.883,-42630.047,-1937.7441
963387.517344804,-91514.49,-105097.54,20711.59,-4278.1577,328.45053,-45796.387,-42636.434,-1929.4434
963387.5213448015,-91505.13,-105084.11,20736.004,-4239.0547,338.8672,-45791.504,-42631.51,-1913.737
963387.525344799,-91504.234,-105078.78,20730.225,-4251.18,333.74023,-45790.0,-42626.793,-1901.4486
963387.5293447966,-91515.914,-105094.69,20699.504,-4293.091,327.10776,-45795.168,-42631.88,-1925.3744
963387.5333447941,-91525.35,-105106.57,20673.055,-4320.923,318.19662,-45795.332,-42636.598,-1936.9304
963387.5373447916,-91525.35,-105105.76,20703.857,-4283.0,325.60223,-45794.23,-42637.207,-1924.1943
963387.5413447891,-91515.38,-105095.99,20739.584,-4243.2456,338.58237,-45794.355,-42636.477,-1923.3806
963387.5453447866,-91511.88,-105092.62,20741.62,-4254.476,330.52573,-45796.387,-42635.582,-1922.1599
963387.5493447841,-91520.76,-105099.29,20710.938,-4298.6655,316.48764,-45799.4,-42639.934,-1932.658
963387.5533447816,-91523.84,-105106.37,20683.635,-4313.1104,315.14487,-45798.34,-42633.992,-1917.9281
963387.557344779,-91521.77,-105101.12,20712.2,-4267.578,328.2064,-45793.336,-42628.5,-1913.5742
963387.5613447765,-91514.65,-105089.84,20743.164,-4233.5615,338.8672,-45791.914,-42622.926,-1901.8962
963387.565344774,-91515.586,-105090.414,20734.334,-4250.7324,335.5306,-45793.215,-42618.777,-1893.5547
963387.5693447716,-91526.33,-105107.67,20699.91,-4310.262,315.59247,-45795.125,-42619.184,-1900.4314
963387.5733447691,-91530.64,-105119.23,20684.57,-4333.3335,306.8441,-45794.56,-42613.484,-1887.085
963387.5773447666,-91521.89,-105110.72,20729.533,-4277.832,319.86493,-45792.97,-42611.656,-1880.6152
963387.5813447641,-91511.48,-105092.53,20764.934,-4241.8213,324.056,-45794.395,-42615.805,-1864.5834
963387.5853447616,-91509.04,-105089.27,20759.36,-4248.535,329.10156,-45796.875,-42616.13,-1860.7178
963387.5893447591,-91515.875,-105094.57,20719.035,-4293.376,325.6836,-45798.383,-42618.246,-1878.9877
963387.5933447566,-91527.1,-105108.97,20695.477,-4324.992,317.4642,-45796.59,-42621.34,-1891.3168
963387.5973447541,-91526.21,-105104.25,20729.207,-4275.106,328.73535,-45794.355,-42627.645,-1898.4375
963387.6013447515,-91522.83,-105093.305,20753.256,-4233.236,337.1582,-45793.01,-42626.668,-1883.1787
963387.605344749,-91516.6,-105094.2,20748.332,-4252.1973,328.4912,-45796.184,-42621.258,-1867.5537
963387.6093447466,-91521.33,-105105.43,20716.473,-4306.0303,315.59247,-45792.195,-42612.754,-1842.4886
963387.6133447441,-91529.5,-105116.78,20690.47,-4333.659,310.0179,-45793.62,-42616.457,-1854.6143
963387.6173447416,-91526.0,-105115.73,20717.488,-4289.2256,320.92285,-45799.316,-42627.117,-1874.2269
963387.6213447391,-91517.01,-105106.24,20741.943,-4257.1616,327.7995,-45799.52,-42639.773,-1912.7197
963387.6253447366,-91515.51,-105100.586,20733.602,-4265.3403,331.90918,-45801.19,-42643.066,-1917.7654
963387.6293447341,-91524.664,-105109.54,20700.887,-4306.234,321.08563,-45800.62,-42635.867,-1889.8519
963387.6333447316,-91529.3,-105115.85,20680.99,-4331.543,310.62827,-45800.984,-42637.98,-1906.6162
963387.6373447292,-91524.945,-105113.61,20709.148,-4283.122,324.66635,-45798.383,-42637.777,-1904.8666
963387.6413447267,-91514.125,-105097.17,20742.635,-4239.9497,331.8685,-45796.062,-42632.367,-1883.9926
963387.6453447241,-91508.67,-105091.84,20745.361,-4254.3135,325.3581,-45796.55,-42627.44,-1877.4414
963387.6493447216,-91513.39,-105097.91,20712.85,-4299.886,314.41245,-45796.67,-42621.746,-1868.9779
963387.6533447191,-91520.76,-105108.56,20686.2,-4329.997,316.12143,-45797.08,-42618.246,-1861.6943
963387.6573447166,-91521.33,-105100.06,20710.205,-4291.3413,323.40497,-45795.74,-42617.758,-1856.0791
963387.6613447141,-91517.984,-105089.27,20730.916,-4260.8237,326.86362,-45794.844,-42620.08,-1855.2246
963387.6653447116,-91515.586,-105085.734,20718.14,-4267.212,330.89194,-45794.273,-42617.637,-1843.9941
963387.6693447091,-91522.75,-105096.93,20683.432,-4311.198,319.01044,-45795.613,-42616.742,-1837.8093
963387.6733447067,-91526.66,-105112.35,20665.162,-4337.6875,313.27313,-45796.1,-42617.758,-1842.8955
963387.6773447042,-91521.57,-105103.68,20699.83,-4290.3647,329.14227,-45793.582,-42618.734,-1837.8093
963387.6813447017,-91512.45,-105086.96,20735.271,-4252.1567,337.07684,-45794.516,-42621.176,-1835.9783
963387.6853446992,-91509.484,-105083.984,20729.371,-4265.544,327.51465,-45796.31,-42621.42,-1840.9017
963387.6893446966,-91518.234,-105096.93,20698.527,-4317.098,307.04755,-45797.285,-42620.688,-1839.1927
963387.6933446941,-91522.305,-105107.1,20675.172,-4351.2373,299.64194,-45800.05,-42622.234,-1838.3383
963387.6973446916,-91518.19,-105102.46,20712.443,-4302.043,309.81445,-45802.043,-42628.543,-1838.5417
963387.7013446891,-91514.77,-105093.14,20744.955,-4260.5796,318.7256,-45803.387,-42634.035,-1842.8955
963387.7053446866,-91515.79,-105093.23,20736.898,-4274.455,321.167,-45806.234,-42638.43,-1851.9695
963387.7093446841,-91521.12,-105092.734,20703.857,-4312.5815,316.73178,-45806.438,-42637.777,-1841.5527
963387.7133446817,-91524.46,-105094.16,20680.705,-4335.5713,307.08823,-45808.27,-42641.93,-1846.8425
963387.7173446792,-91515.79,-105083.83,20702.637,-4289.592,321.77734,-45808.027,-42647.79,-1855.957
963387.7213446767,-91488.77,-105052.94,20735.434,-4246.0938,337.11752,-45808.72,-42648.562,-1861.084
963387.7253446742,-91485.11,-105045.01,20736.775,-4254.802,330.36298,-45809.613,-42642.984,-1852.6205
963387.7293446717,-91489.305,-105049.89,20699.463,-4302.4497,323.52704,-45814.656,-42649.293,-1869.0593
963387.7333446691,-91480.15,-105050.42,20679.158,-4331.0957,311.23862,-45817.793,-42653.973,-1869.4662
963387.7373446666,-91462.77,-105033.61,20713.623,-4283.122,321.81805,-45818.562,-42657.145,-1856.1199
963387.7413446641,-91440.23,-105007.9,20740.193,-4245.443,342.44794,-45819.297,-42658.652,-1851.5219
963387.7453446616,-91425.74,-104992.84,20734.578,-4255.8594,348.47006,-45822.023,-42659.953,-1849.406
963387.7493446592,-91417.85,-104987.875,20712.117,-4300.985,340.4948,-45825.44,-42662.516,-1857.2592
963387.7533446567,-91406.45,-104977.664,20697.55,-4319.743,337.48373,-45826.742,-42665.082,-1859.2937
963387.7573446542,-91386.766,-104956.22,20733.074,-4261.2305,352.62045,-45826.418,-42665.164,-1840.3728
963387.7613446517,-91365.03,-104928.02,20756.145,-4225.5454,368.28613,-45827.8,-42664.918,-1827.3926
963387.7653446492,-91342.2,-104900.35,20755.738,-4240.3975,368.4082,-45831.055,-42668.457,-1842.2852
963387.7693446467,-91325.484,-104885.26,20736.451,-4279.704,358.6019,-45833.7,-42671.062,-1860.3923
963387.7733446442,-91326.336,-104886.48,20704.184,-4306.6816,349.24316,-45835.246,-42672.445,-1848.5107
963387.7773446416,-91329.51,-104879.766,20727.215,-4264.7705,354.65497,-45833.21,-42674.48,-1851.115
963387.7813446391,-91319.22,-104859.375,20763.916,-4223.877,368.0013,-45833.66,-42675.418,-1850.2197
963387.7853446366,-91322.23,-104861.984,20753.053,-4244.9546,366.333,-45836.062,-42675.457,-1852.3763
963387.7893446342,-91331.875,-104876.34,20716.512,-4291.1377,355.46875,-45835.777,-42673.625,-1852.5798
963387.7933446317,-91344.98,-104890.79,20701.457,-4315.4297,348.06317,-45834.84,-42669.027,-1845.0928
963387.7973446292,-91346.766,-104891.73,20731.445,-4272.38,358.64258,-45830.977,-42666.832,-1829.7119
963387.8013446267,-91337.37,-104885.336,20769.002,-4229.696,368.36752,-45829.957,-42663.74,-1811.2386
963387.8053446242,-91348.35,-104903.41,20761.883,-4242.1064,362.22333,-45829.55,-42666.87,-1826.0498
963387.8093446217,-91360.84,-104917.4,20727.662,-4290.8125,342.65137,-45831.22,-42672.85,-1854.4109
963387.8133446192,-91366.91,-104923.95,20699.586,-4318.197,328.32846,-45833.17,-42671.67,-1844.7266
963387.8173446167,-91376.8,-104934.82,20722.412,-4280.3145,333.25195,-45829.793,-42665.895,-1826.6195
963387.8213446141,-91381.19,-104933.15,20750.041,-4243.205,343.4245,-45828.37,-42663.86,-1812.5
963387.8253446117,-91388.72,-104939.45,20741.09,-4255.249,346.92383,-45826.66,-42662.926,-1816.5691
963387.8293446092,-91401.37,-104952.195,20706.91,-4302.246,338.78583,-45826.863,-42661.176,-1821.1263
963387.8333446067,-91411.42,-104964.16,20690.35,-4324.1377,331.014,-45828.207,-42663.21,-1821.7367
963387.8373446042,-91410.32,-104964.93,20722.006,-4278.198,340.00653,-45825.156,-42664.957,-1817.7084
963387.8413446017,-91409.14,-104965.09,20748.78,-4244.0596,350.3418,-45822.023,-42660.973,-1807.6172
963387.8453445992,-91415.86,-104972.21,20742.27,-4261.841,344.84863,-45821.453,-42658.652,-1803.1414
963387.8493445967,-91429.85,-104990.97,20698.365,-4309.123,328.61328,-45823.527,-42658.45,-1810.2214
963387.8533445942,-91444.18,-105011.234,20672.607,-4338.0537,320.06836,-45821.617,-42650.516,-1791.4226
963387.8573445918,-91438.88,-105003.42,20711.834,-4293.9863,332.35678,-45820.56,-42652.875,-1784.7494
963387.8613445893,-91429.81,-104991.46,20747.518,-4251.506,348.2666,-45820.56,-42654.95,-1791.4633
963387.8653445867,-91433.555,-104995.57,20736.898,-4265.259,349.6501,-45818.848,-42650.188,-1793.2943
963387.8693445842,-91445.48,-105013.516,20703.166,-4311.076,336.26303,-45817.914,-42647.746,-1789.5101
963387.8733445817,-91459.555,-105029.09,20681.926,-4335.7344,324.38153,-45816.53,-42640.75,-1779.2969
963387.8773445792,-91459.15,-105028.24,20705.322,-4294.1084,337.5244,-45814.656,-42638.51,-1763.794
963387.8813445767,-91454.67,-105022.016,20737.549,-4249.1455,347.4935,-45814.58,-42638.59,-1758.7078
963387.8853445742,-91457.4,-105026.66,20736.207,-4259.2773,341.22723,-45814.902,-42635.01,-1758.0566
963387.8893445717,-91464.89,-105040.445,20702.922,-4306.2744,325.6836,-45816.53,-42633.18,-1761.3933
963387.8933445693,-91473.836,-105050.17,20681.805,-4338.9893,317.66766,-45815.758,-42631.062,-1767.2527
963387.8973445668,-91477.46,-105051.35,20717.488,-4302.938,328.00293,-45811.727,-42626.344,-1755.2084
963387.9013445643,-91473.836,-105044.44,20748.17,-4263.835,338.70444,-45809.695,-42625.855,-1757.0801
963387.9053445618,-91474.57,-105044.6,20743.734,-4277.0186,333.8623,-45810.1,-42621.34,-1747.5586
963387.9093445592,-91481.734,-105052.29,20704.387,-4319.4175,324.4629,-45811.16,-42620.2,-1743.8152
963387.9133445567,-91487.39,-105061.57,20685.67,-4336.589,319.33594,-45811.605,-42623.008,-1756.0222
963387.9173445542,-91482.83,-105056.16,20721.72,-4285.4004,330.93262,-45811.32,-42626.832,-1752.6449
963387.9213445517,-91481.61,-105052.01,20745.605,-4250.6514,339.19272,-45810.793,-42629.477,-1744.1814
963387.9253445492,-91484.83,-105056.12,20741.09,-4268.026,336.22235,-45811.89,-42630.047,-1745.9717
963387.9293445467,-91493.695,-105065.15,20711.67,-4320.842,326.2126,-45815.43,-42634.156,-1751.9531
963387.9333445443,-91502.445,-105080.24,20685.994,-4345.1743,315.14487,-45817.586,-42638.51,-1757.8939
963387.9373445418,-91501.34,-105073.29,20712.443,-4296.7124,326.9857,-45815.633,-42638.387,-1752.889
963387.9413445393,-91488.89,-105053.76,20747.885,-4250.5293,340.0879,-45811.2,-42631.797,-1735.0261
963387.9453445368,-91485.03,-105045.54,20744.182,-4257.6904,338.3789,-45810.793,-42630.29,-1734.4971
963387.9493445343,-91496.95,-105056.32,20704.06,-4310.832,327.88086,-45810.59,-42628.46,-1738.2812
963387.9533445317,-91508.875,-105069.95,20681.193,-4341.919,317.62695,-45811.24,-42626.953,-1738.0779
963387.9573445292,-91504.73,-105064.05,20717.041,-4289.6323,331.9499,-45808.15,-42625.977,-1730.5502
963387.9613445267,-91499.63,-105058.96,20742.31,-4254.232,345.62177,-45806.844,-42625.082,-1726.3184
963387.9653445242,-91502.98,-105059.45,20731.975,-4270.4673,345.37762,-45806.766,-42627.035,-1731.4861
963387.9693445218,-91513.15,-105069.18,20701.783,-4317.424,337.84995,-45809.613,-42626.63,-1728.2715
963387.9733445193,-91523.52,-105082.766,20680.176,-4346.924,328.53192,-45809.082,-42629.52,-1741.6586
963387.9773445168,-91521.164,-105081.75,20708.375,-4306.6,337.89062,-45807.58,-42630.7,-1743.2048
963387.9813445143,-91513.72,-105070.64,20746.379,-4263.672,351.9287,-45803.387,-42624.715,-1725.4639
963387.9853445118,-91509.32,-105062.95,20746.99,-4271.1997,351.80664,-45804.324,-42625.816,-1736.1248
963387.9893445093,-91515.055,-105070.48,20712.402,-4319.0107,336.0189,-45806.64,-42626.344,-1733.9275
963387.9933445068,-91520.555,-105079.23,20691.447,-4339.7217,324.66635,-45805.707,-42625.938,-1730.835
963387.9973445042,-91512.62,-105073.29,20726.074,-4286.9873,342.5293,-45805.137,-42627.117,-1724.9349
963388.0013445017,-91503.13,-105058.31,20747.479,-4251.4243,352.33563,-45804.61,-42625.285,-1712.972
963388.0053444993,-91506.8,-105057.26,20736.98,-4267.8223,347.0459,-45802.938,-42623.17,-1706.7871
963388.0093444968,-91516.12,-105072.06,20701.01,-4320.964,335.612,-45808.27,-42630.984,-1737.8337
963388.0133444943,-91519.29,-105083.09,20674.928,-4349.7314,326.2126,-45811.117,-42635.742,-1750.2849
963388.0173444918,-91514.98,-105075.445,20701.295,-4299.5605,336.95477,-45808.35,-42631.797,-1730.1433
963388.0213444893,-91509.16,-105062.055,20733.195,-4258.5044,347.20868,-45806.97,-42630.86,-1726.0742
963388.0253444868,-91505.49,-105054.734,20737.02,-4262.5327,349.4873,-45808.27,-42632.652,-1723.5922
963388.0293444843,-91510.664,-105064.336,20714.07,-4307.414,337.28027,-45806.6,-42630.13,-1720.5404
963388.0333444818,-91521.69,-105081.055,20690.35,-4341.0645,324.95117,-45805.586,-42626.223,-1717.2852
963388.0373444794,-91518.44,-105069.3,20714.723,-4296.3867,332.47885,-45806.03,-42626.63,-1716.919
963388.0413444767,-91511.4,-105058.516,20746.502,-4262.451,346.23212,-45804.527,-42626.18,-1719.4824
963388.0453444743,-91507.125,-105054.484,20745.2,-4274.7803,350.708,-45801.92,-42622.52,-1720.459
963388.0493444718,-91513.76,-105063.68,20710.816,-4317.5864,343.7907,-45803.184,-42621.01,-1719.3197
963388.0533444693,-91519.45,-105069.664,20691.041,-4340.617,339.92514,-45804.12,-42621.543,-1717.1631
963388.0573444668,-91512.01,-105061.93,20723.512,-4290.609,352.8646,-45801.883,-42620.363,-1711.6699
963388.0613444643,-91505.984,-105053.76,20754.559,-4249.675,361.0433,-45798.707,-42619.793,-1709.2693
963388.0653444618,-91504.97,-105049.805,20755.535,-4267.6597,353.7191,-45798.625,-42619.184,-1705.4851
963388.0693444593,-91513.836,-105064.58,20718.303,-4322.795,329.3457,-45799.03,-42616.457,-1697.225
963388.0733444568,-91518.68,-105078.29,20690.389,-4349.5283,320.55664,-45797.363,-42616.05,-1701.9857
963388.0773444544,-91510.7,-105073.61,20719.93,-4304.24,336.26303,-45794.72,-42618.29,-1703.3285
963388.0813444519,-91503.09,-105067.63,20749.47,-4265.0557,348.42938,-45793.094,-42615.6,-1691.4062
963388.0853444493,-91503.18,-105065.8,20739.137,-4275.0654,347.24936,-45795.125,-42609.824,-1687.3373
963388.0893444468,-91511.64,-105072.96,20698.895,-4321.8994,334.0251,-45796.957,-42607.707,-1696.9808
963388.0933444443,-91522.38,-105086.43,20673.992,-4357.9917,325.84637,-45797.285,-42605.67,-1692.8711
963388.0973444418,-91517.055,-105083.625,20704.143,-4311.3203,336.42578,-45798.055,-42608.766,-1685.2214
963388.1013444393,-91507.445,-105075.484,20739.422,-4268.636,346.59833,-45795.41,-42613.16,-1688.3138
963388.1053444368,-91507.9,-105075.36,20736.207,-4285.9297,341.63412,-45796.43,-42615.4,-1693.6035
963388.1093444343,-91518.03,-105089.12,20700.44,-4326.335,334.3099,-45799.03,-42615.684,-1697.876
963388.1133444319,-91523.69,-105097.54,20683.105,-4345.0117,332.60092,-45798.707,-42615.805,-1694.4174
963388.1173444294,-91520.43,-105090.09,20719.361,-4297.3228,341.3086,-45795.9,-42617.92,-1684.8552
963388.1213444269,-91510.87,-105080.24,20747.03,-4258.464,350.05698,-45794.434,-42618.652,-1683.2683
963388.1253444244,-91509.65,-105077.234,20733.277,-4272.9087,351.1963,-45796.836,-42618.98,-1686.4828
963388.1293444218,-91516.73,-105083.664,20696.209,-4328.7764,341.7562,-45801.11,-42620.934,-1693.156
963388.1333444193,-91525.68,-105095.95,20678.06,-4353.109,337.5244,-45801.68,-42623.13,-1697.4691
963388.1373444168,-91519.66,-105087.53,20709.229,-4300.09,355.7129,-45798.42,-42622.234,-1687.7849
963388.1413444143,-91511.805,-105079.51,20738.281,-4261.1084,364.86816,-45796.348,-42619.184,-1678.6703
963388.1453444118,-91507.04,-105078.49,20737.264,-4272.258,361.77573,-45797.324,-42617.105,-1676.8392
963388.1493444094,-91510.26,-105078.984,20705.893,-4316.203,348.38867,-45800.293,-42621.137,-1700.3174
963388.1533444069,-91520.71,-105091.84,20682.252,-4343.2617,335.2458,-45801.68,-42620.77,-1704.5492
963388.1573444044,-91514.37,-105083.17,20720.785,-4295.736,343.3431,-45800.906,-42618.367,-1690.9994
963388.1613444019,-91509.12,-105078.086,20745.973,-4263.265,351.52182,-45796.957,-42613.28,-1679.7283
963388.1653443994,-91511.92,-105077.68,20736.736,-4276.6113,353.43427,-45795.047,-42612.996,-1678.9551
963388.1693443969,-91519.21,-105089.07,20695.516,-4317.546,340.25067,-45797.324,-42615.234,-1680.5828
963388.1733443943,-91526.94,-105102.22,20668.783,-4340.8613,341.63412,-45798.992,-42618.855,-1680.8676
963388.1773443918,-91521.65,-105092.86,20700.318,-4290.2427,360.43295,-45800.62,-42622.926,-1682.6172
963388.1813443893,-91511.805,-105077.555,20733.521,-4251.2207,368.8558,-45802.37,-42623.332,-1681.4373
963388.1853443868,-91510.22,-105077.27,20726.848,-4269.613,364.58334,-45800.418,-42621.746,-1680.9896
963388.1893443844,-91518.19,-105091.02,20692.83,-4320.842,344.93002,-45801.883,-42623.17,-1682.3324
963388.1933443819,-91527.55,-105105.555,20670.818,-4347.8193,338.50098,-45802.574,-42622.965,-1678.2227
963388.1973443794,-91523.195,-105100.06,20707.44,-4295.4917,353.3122,-45800.863,-42625.082,-1681.7627
963388.2013443769,-91509.89,-105078.125,20742.84,-4248.413,363.5254,-45800.293,-42625.0,-1677.7344
963388.2053443744,-91505.984,-105073.0,20744.223,-4257.2837,360.47363,-45800.54,-42622.805,-1684.7332
963388.2093443719,-91516.65,-105084.234,20713.582,-4307.292,346.23212,-45802.33,-42620.28,-1686.2386
963388.2133443694,-91524.01,-105097.3,20685.223,-4338.542,334.83887,-45803.1,-42619.06,-1678.833
963388.2173443668,-91521.12,-105095.586,20708.252,-4301.229,346.47626,-45799.074,-42620.035,-1672.4447
963388.2213443643,-91510.3,-105083.21,20745.443,-4260.132,360.9619,-45796.918,-42618.855,-1663.1674
963388.2253443619,-91506.8,-105076.7,20742.025,-4271.81,361.40952,-45797.61,-42615.277,-1650.8789
963388.2293443594,-91514.734,-105088.26,20707.887,-4317.0166,357.70673,-45799.97,-42618.207,-1663.6556
963388.2333443569,-91525.02,-105103.27,20684.53,-4340.495,346.15073,-45801.883,-42624.797,-1684.0007
963388.2373443544,-91525.555,-105106.29,20714.885,-4294.8,353.7191,-45799.727,-42624.35,-1678.6296
963388.2413443519,-91509.24,-105081.34,20744.467,-4255.3306,372.27377,-45798.18,-42622.56,-1669.4744
963388.2453443494,-91492.44,-105060.51,20735.84,-4268.4736,373.94208,-45798.22,-42621.625,-1668.1316
963388.2493443469,-91506.96,-105081.26,20696.574,-4319.092,355.14325,-45800.78,-42622.234,-1674.113
963388.2533443444,-91515.38,-105090.21,20678.02,-4343.3027,340.37274,-45801.434,-42622.438,-1674.3164
963388.257344342,-91501.75,-105076.46,20715.658,-4292.3584,359.0495,-45799.93,-42623.17,-1666.7888
963388.2613443393,-91490.805,-105065.15,20752.809,-4248.657,371.3786,-45797.242,-42619.184,-1657.2266
963388.2653443369,-91495.08,-105067.43,20741.375,-4263.0615,363.15918,-45796.957,-42617.92,-1657.5928
963388.2693443344,-91512.05,-105081.016,20699.666,-4318.2783,351.1556,-45796.59,-42616.21,-1662.5164
963388.2733443319,-91520.39,-105087.94,20673.504,-4347.168,348.3073,-45796.387,-42615.6,-1661.4177
963388.2773443294,-91513.43,-105084.39,20698.527,-4305.664,357.66602,-45797.363,-42617.23,-1658.1218
963388.2813443269,-91505.414,-105075.195,20736.898,-4259.9287,367.51303,-45796.59,-42617.23,-1650.2686
963388.2853443244,-91501.95,-105073.65,20737.834,-4269.4907,361.36884,-45795.332,-42614.992,-1646.9727
963388.2893443219,-91509.97,-105086.39,20707.072,-4320.7603,346.51694,-45798.383,-42618.45,-1658.366
963388.2933443194,-91516.89,-105094.93,20684.45,-4344.4014,341.22723,-45798.465,-42620.035,-1659.9121
963388.297344317,-91509.12,-105083.17,20715.291,-4294.393,356.32324,-45796.1,-42621.137,-1648.641
963388.3013443145,-91500.086,-105071.66,20746.053,-4255.127,366.45508,-45797.49,-42627.2,-1656.0873
963388.3053443119,-91501.18,-105073.04,20735.84,-4272.1763,361.8978,-45796.875,-42627.523,-1664.7949
963388.3093443094,-91507.33,-105079.51,20702.352,-4317.8306,354.24805,-45795.777,-42623.332,-1659.5867
963388.3133443069,-91511.48,-105088.586,20683.92,-4343.994,350.30112,-45800.62,-42620.81,-1659.017
963388.3173443044,-91509.36,-105080.53,20714.07,-4297.567,360.51434,-45797.527,-42618.29,-1647.9492
963388.3213443019,-91502.41,-105067.63,20741.17,-4260.295,370.23926,-45792.605,-42618.98,-1631.9988
963388.3253442994,-91501.63,-105065.88,20737.305,-4274.211,365.9668,-45791.3,-42618.082,-1631.2256
963388.329344297,-91509.24,-105075.195,20704.469,-4325.0327,354.69565,-45795.332,-42622.4,-1655.3549
963388.3333442945,-91523.805,-105092.164,20677.246,-4356.3643,347.20868,-45798.75,-42625.816,-1661.2549
963388.337344292,-91524.62,-105087.57,20712.361,-4300.09,358.43915,-45797.16,-42623.13,-1648.8445
963388.3413442895,-91516.805,-105073.9,20748.455,-4255.6562,371.94824,-45795.492,-42618.652,-1634.8877
963388.345344287,-91514.24,-105067.63,20742.229,-4267.2935,371.62274,-45795.86,-42613.73,-1627.8484
963388.3493442844,-91524.414,-105079.96,20702.557,-4313.7207,360.92123,-45794.516,-42607.625,-1625.0814
963388.3533442819,-91530.805,-105085.9,20680.584,-4343.8315,353.1494,-45792.81,-42604.41,-1626.9531
963388.3573442794,-91523.56,-105082.766,20714.764,-4302.694,360.6771,-45790.45,-42608.316,-1637.0443
963388.3613442769,-91514.81,-105074.06,20740.805,-4273.2344,365.31577,-45789.594,-42608.48,-1630.4119
963388.3653442744,-91516.28,-105075.12,20739.584,-4282.308,360.14813,-45790.812,-42608.684,-1626.0173
963388.369344272,-91523.484,-105083.21,20710.084,-4320.923,350.13837,-45794.23,-42612.754,-1631.3477
963388.3733442695,-91531.21,-105093.14,20682.21,-4345.9473,345.62177,-45794.965,-42613.324,-1632.6091
963388.377344267,-91523.766,-105081.22,20707.805,-4295.8174,354.77704,-45793.254,-42613.85,-1626.6277
963388.3813442645,-91512.695,-105066.164,20732.992,-4256.958,364.4206,-45792.36,-42615.234,-1625.7324
963388.385344262,-91511.56,-105066.86,20732.178,-4271.0776,362.58954,-45790.977,-42614.34,-1622.518
963388.3893442595,-91517.78,-105080.94,20703.37,-4321.2485,349.1618,-45792.48,-42613.895,-1625.8545
963388.3933442569,-91526.45,-105094.37,20676.922,-4352.987,344.48242,-45792.48,-42615.562,-1632.7719
963388.3973442544,-91520.39,-105081.67,20712.281,-4302.49,363.44403,-45790.04,-42617.555,-1636.6781
963388.4013442519,-91513.39,-105071.86,20740.113,-4264.852,368.89648,-45787.883,-42616.496,-1632.0394
963388.4053442494,-91514.9,-105072.47,20735.516,-4279.582,360.6364,-45789.51,-42616.742,-1629.7201
963388.409344247,-91525.516,-105085.695,20703.857,-4327.6367,352.3763,-45792.48,-42620.688,-1641.805
963388.4133442445,-91533.164,-105097.984,20681.316,-4355.5503,350.0163,-45791.344,-42618.246,-1638.8754
963388.417344242,-91527.19,-105091.555,20715.984,-4305.2573,360.83984,-45789.145,-42616.457,-1629.7201
963388.4213442395,-91517.5,-105074.914,20744.264,-4260.2134,374.1455,-45789.31,-42616.09,-1619.5476
963388.425344237,-91511.35,-105067.43,20735.434,-4270.508,364.90887,-45791.26,-42616.742,-1626.831
963388.4293442345,-91518.27,-105077.27,20707.398,-4317.2607,345.21484,-45792.156,-42617.92,-1633.9926
963388.433344232,-91528.12,-105088.14,20682.861,-4348.348,339.92514,-45791.26,-42617.27,-1630.2084
963388.4373442294,-91525.555,-105084.31,20711.508,-4303.0195,356.68945,-45788.453,-42619.47,-1632.3242
963388.441344227,-91519.62,-105076.664,20746.379,-4266.1133,372.2331,-45788.37,-42618.777,-1630.8187
963388.4453442245,-91520.06,-105074.79,20737.752,-4281.6978,370.5648,-45788.332,-42612.957,-1622.5994
963388.449344222,-91527.875,-105085.53,20697.469,-4336.8735,356.56738,-45790.04,-42610.883,-1630.9001
963388.4533442195,-91535.89,-105100.38,20684.53,-4361.5723,348.55145,-45789.633,-42608.6,-1625.5697
963388.457344217,-91531.66,-105088.75,20719.727,-4313.6396,361.77573,-45787.52,-42611.37,-1625.0408
963388.4613442145,-91524.05,-105071.91,20746.502,-4269.45,375.48828,-45786.746,-42614.34,-1622.8842
963388.465344212,-91523.69,-105065.96,20743.084,-4282.5117,375.77313,-45788.25,-42614.42,-1621.7041
963388.4693442095,-91533.57,-105079.47,20713.95,-4326.457,364.7054,-45789.918,-42613.812,-1624.6338
963388.473344207,-91537.93,-105086.96,20692.424,-4347.738,355.06186,-45791.3,-42611.98,-1622.6807
963388.4773442046,-91530.4,-105083.26,20716.756,-4299.3164,361.65366,-45787.312,-42611.125,-1616.6586
963388.481344202,-91521.69,-105073.9,20744.14,-4259.5215,368.28613,-45784.996,-42611.33,-1623.4945
963388.4853441995,-91518.72,-105070.56,20740.193,-4279.419,368.0827,-45785.28,-42610.516,-1630.9001
963388.489344197,-91531.945,-105083.78,20704.51,-4336.9956,358.80536,-45788.82,-42612.957,-1628.7842
963388.4933441945,-91540.695,-105092.94,20678.63,-4361.328,349.44662,-45790.69,-42616.54,-1641.8865
963388.497344192,-91532.07,-105082.805,20712.77,-4308.716,362.3047,-45787.03,-42615.805,-1633.7078
963388.5013441895,-91526.125,-105076.91,20743.084,-4269.287,373.7793,-45788.656,-42616.254,-1622.9248
963388.505344187,-91523.28,-105073.445,20743.611,-4276.571,368.57098,-45791.383,-42615.438,-1620.4021
963388.5093441845,-91531.13,-105080.85,20718.1,-4321.289,357.58466,-45792.156,-42611.734,-1623.9014
963388.513344182,-91536.13,-105086.76,20700.195,-4348.999,353.35287,-45792.156,-42608.805,-1612.7523
963388.5173441796,-91528.73,-105078.9,20727.783,-4303.1006,366.08887,-45788.535,-42608.523,-1607.8695
963388.5213441771,-91523.73,-105069.26,20751.465,-4270.874,379.39453,-45788.535,-42610.434,-1617.391
963388.5253441745,-91524.82,-105068.73,20741.578,-4282.7964,382.20215,-45788.453,-42609.99,-1616.3738
963388.529344172,-91531.414,-105076.26,20709.352,-4325.399,375.48828,-45790.324,-42611.086,-1624.9187
963388.5333441695,-91541.34,-105086.305,20691.57,-4354.6143,361.65366,-45791.75,-42611.207,-1627.5228
963388.537344167,-91535.766,-105085.21,20723.389,-4303.63,371.94824,-45790.938,-42610.92,-1613.3627
963388.5413441645,-91523.484,-105075.81,20757.162,-4263.0615,375.12207,-45792.44,-42615.316,-1622.8842
963388.545344162,-91518.92,-105073.734,20757.895,-4276.245,374.10483,-45790.57,-42612.062,-1616.8213
963388.5493441595,-91528.41,-105075.89,20715.455,-4323.568,364.01367,-45791.344,-42611.207,-1614.2172
963388.5533441571,-91534.875,-105082.805,20687.297,-4352.58,356.56738,-45793.094,-42613.895,-1626.9531
963388.5573441546,-91532.96,-105079.43,20712.85,-4308.9194,369.50684,-45789.55,-42613.406,-1622.6807
963388.5613441521,-91524.58,-105069.83,20742.596,-4269.2466,385.09116,-45787.926,-42611.37,-1616.7806
963388.5653441496,-91520.35,-105066.49,20735.76,-4287.557,381.2663,-45788.37,-42610.066,-1619.1814
963388.569344147,-91527.34,-105077.766,20706.137,-4338.094,368.36752,-45792.035,-42608.684,-1615.682
963388.5733441445,-91535.69,-105085.414,20682.74,-4361.125,361.16537,-45791.79,-42607.87,-1612.5082
963388.577344142,-91530.234,-105074.95,20711.305,-4312.622,374.51172,-45788.535,-42609.01,-1604.6143
963388.5813441395,-91522.79,-105063.234,20748.82,-4269.5312,387.0036,-45788.332,-42612.754,-1610.7992
963388.585344137,-91518.234,-105061.61,20744.67,-4278.7275,381.2256,-45789.023,-42615.64,-1622.7621
963388.5893441346,-91523.73,-105068.16,20708.863,-4325.0327,372.9655,-45790.04,-42615.234,-1622.0297
963388.5933441321,-91533.98,-105075.16,20683.879,-4355.998,366.0482,-45790.652,-42614.176,-1621.5007
963388.5973441296,-91526.45,-105068.766,20715.252,-4307.495,376.91245,-45788.617,-42615.277,-1617.1469
963388.6013441271,-91512.62,-105054.85,20753.621,-4270.3047,388.67188,-45788.008,-42612.145,-1610.7992
963388.6053441246,-91507.695,-105056.195,20754.518,-4287.8013,381.83594,-45790.242,-42608.4,-1604.8992
963388.6093441221,-91512.984,-105065.88,20725.79,-4330.4854,372.2331,-45793.38,-42609.703,-1605.184
963388.6133441195,-91520.14,-105077.88,20694.947,-4352.9053,365.35645,-45795.37,-42610.598,-1605.7129
963388.617344117,-91517.09,-105074.47,20730.104,-4304.4844,370.5241,-45793.785,-42611.656,-1602.946
963388.6213441145,-91508.22,-105062.5,20765.625,-4264.038,379.47592,-45791.465,-42611.656,-1598.0225
963388.625344112,-91508.586,-105062.09,20754.354,-4273.6816,380.08627,-45790.242,-42608.766,-1595.2556
963388.6293441096,-91516.6,-105075.04,20724.244,-4319.9873,372.72137,-45790.57,-42607.06,-1592.1631
963388.6333441071,-91524.7,-105080.33,20699.627,-4349.6504,366.8213,-45791.668,-42606.363,-1591.0645
963388.6373441046,-91516.6,-105075.04,20730.062,-4305.461,380.57455,-45787.64,-42604.207,-1588.9893
963388.6413441021,-91508.71,-105067.75,20755.535,-4276.571,388.06152,-45786.95,-42603.027,-1592.2852
963388.6453440996,-91508.14,-105067.67,20752.4,-4290.6494,382.4056,-45790.04,-42604.574,-1596.0287
963388.6493440971,-91508.71,-105073.49,20725.83,-4330.2,380.28973,-45791.914,-42605.145,-1592.8549
963388.6533440946,-91513.72,-105083.78,20711.182,-4348.918,377.03452,-45792.48,-42605.836,-1594.0349
963388.657344092,-91508.18,-105079.43,20742.352,-4298.462,385.49805,-45789.062,-42604.25,-1580.7699
963388.6613440895,-91502.28,-105066.2,20771.24,-4261.3525,393.0664,-45785.08,-42606.242,-1588.1348
963388.665344087,-91507.24,-105066.9,20762.166,-4277.9136,391.0726,-45786.99,-42610.312,-1609.4564
963388.6693440846,-91513.92,-105074.55,20720.379,-4323.812,376.2207,-45789.754,-42609.945,-1605.7537
963388.6733440821,-91524.414,-105085.695,20694.012,-4349.8535,367.67578,-45792.035,-42612.67,-1608.0322
963388.6773440796,-91525.76,-105084.6,20721.803,-4304.6064,378.78418,-45790.285,-42616.945,-1605.184
963388.6813440771,-91516.28,-105074.625,20750.773,-4268.799,391.154,-45789.145,-42618.98,-1608.5613
963388.6853440746,-91511.88,-105073.49,20746.502,-4285.36,385.13184,-45791.06,-42619.387,-1619.5476
963388.6893440721,-91517.09,-105080.98,20712.402,-4332.357,370.4834,-45791.465,-42616.902,-1617.2689
963388.6933440696,-91523.805,-105089.16,20690.145,-4356.9746,366.69922,-45791.707,-42618.043,-1616.1703
963388.6973440672,-91517.01,-105085.29,20724.285,-4310.425,377.23798,-45790.49,-42618.695,-1611.9792
963388.7013440646,-91505.086,-105069.99,20756.795,-4269.0024,391.19467,-45789.836,-42618.695,-1604.9805
963388.7053440621,-91503.336,-105063.16,20760.01,-4276.571,393.79883,-45789.754,-42617.27,-1604.0039
963388.7093440596,-91512.086,-105070.72,20729.695,-4322.4287,386.23047,-45790.367,-42615.684,-1611.6943
963388.7133440571,-91527.39,-105087.53,20699.504,-4355.306,369.58823,-45790.895,-42618.98,-1616.9841
963388.7173440546,-91527.875,-105090.74,20726.766,-4312.5,367.47235,-45789.43,-42620.934,-1612.9965
963388.7213440521,-91521.89,-105077.195,20754.11,-4278.6055,379.1911,-45789.266,-42618.938,-1600.057
963388.7253440496,-91517.625,-105067.14,20750.652,-4288.778,381.30698,-45790.203,-42616.58,-1595.9066
963388.7293440471,-91520.02,-105075.65,20722.9,-4331.421,371.13446,-45792.89,-42618.695,-1603.4343
963388.7333440447,-91523.195,-105084.234,20696.697,-4351.644,362.10126,-45792.89,-42619.305,-1608.5205
963388.7373440422,-91513.63,-105075.766,20729.29,-4300.171,379.1504,-45789.88,-42614.176,-1591.7562
963388.7413440397,-91505.21,-105062.586,20759.848,-4267.5376,395.91473,-45786.785,-42608.684,-1583.9844
963388.7453440371,-91506.266,-105058.555,20749.756,-4282.5117,395.87402,-45786.01,-42606.363,-1580.8513
963388.7493440346,-91514.53,-105064.375,20709.514,-4335.8154,373.57587,-45789.145,-42608.277,-1592.7734
963388.7533440321,-91522.305,-105074.38,20690.35,-4363.8916,367.79785,-45790.855,-42612.59,-1607.1371
963388.7573440296,-91515.875,-105069.87,20730.104,-4309.001,381.02216,-45788.332,-42613.688,-1602.1322
963388.7613440271,-91505.82,-105055.016,20764.934,-4267.497,390.9912,-45787.19,-42615.684,-1603.5156
963388.7653440246,-91498.87,-105045.984,20769.979,-4276.8965,391.35742,-45789.88,-42618.164,-1605.306
963388.7693440221,-91501.63,-105056.12,20741.822,-4319.865,381.99872,-45792.562,-42618.98,-1608.724
963388.7733440197,-91507.0,-105065.555,20708.13,-4351.4404,373.4538,-45794.72,-42620.32,-1610.5957
963388.7773440172,-91499.59,-105060.63,20736.248,-4306.6,384.35873,-45792.117,-42619.426,-1602.6205
963388.7813440147,-91490.93,-105049.4,20766.398,-4265.3,403.4831,-45788.086,-42615.848,-1597.7783
963388.7853440122,-91485.68,-105041.95,20755.78,-4279.541,404.1748,-45788.414,-42609.78,-1592.3666
963388.7893440096,-91492.72,-105050.5,20726.807,-4329.0205,390.7064,-45789.023,-42605.67,-1586.5479
963388.7933440071,-91501.266,-105064.945,20707.234,-4355.713,381.6325,-45789.88,-42603.8,-1584.8389
963388.7973440046,-91496.95,-105056.89,20734.213,-4308.9194,395.83334,-45788.008,-42605.184,-1575.4802
963388.8013440021,-91489.83,-105050.13,20758.709,-4270.996,403.15756,-45787.438,-42605.633,-1572.0215
963388.8053439996,-91490.93,-105042.766,20755.086,-4279.541,400.9603,-45789.96,-42606.203,-1578.2878
963388.8093439972,-91498.87,-105049.195,20723.797,-4322.5913,388.95673,-45793.742,-42610.8,-1589.1113
963388.8133439947,-91513.19,-105067.875,20695.232,-4353.0273,382.93457,-45795.207,-42613.934,-1592.0818
963388.8173439922,-91510.26,-105063.56,20727.05,-4307.9023,394.20575,-45790.73,-42613.688,-1583.2927
963388.8213439897,-91501.1,-105049.08,20762.086,-4268.27,405.68036,-45788.453,-42611.734,-1583.6996
963388.8253439872,-91498.91,-105047.08,20758.992,-4278.3203,400.9603,-45787.844,-42607.625,-1586.9141
963388.8293439847,-91503.87,-105056.6,20727.215,-4318.034,388.10223,-45787.19,-42605.348,-1585.3679
963388.8333439821,-91510.17,-105067.18,20707.234,-4346.5986,381.38837,-45787.8,-42608.766,-1596.3542
963388.8373439796,-91507.66,-105065.88,20736.248,-4304.5654,395.38574,-45786.297,-42610.758,-1592.3666
963388.8413439771,-91503.38,-105057.05,20768.88,-4268.4326,401.16376,-45780.76,-42608.684,-1584.9609
963388.8453439747,-91505.29,-105061.24,20757.568,-4287.5977,389.28223,-45782.39,-42604.13,-1579.0609
963388.8493439722,-91516.08,-105072.88,20720.338,-4333.5776,379.47592,-45782.594,-42600.992,-1579.7527
963388.8533439697,-91525.84,-105079.59,20700.725,-4356.4453,379.80145,-45781.535,-42601.074,-1585.9375
963388.8573439672,-91521.445,-105075.73,20735.027,-4307.536,389.7705,-45779.91,-42601.688,-1576.6195
963388.8613439647,-91508.71,-105060.02,20766.154,-4260.376,403.60516,-45779.01,-42602.215,-1574.3408
963388.8653439622,-91505.91,-105056.32,20757.568,-4269.409,405.9245,-45780.195,-42599.57,-1576.1312
963388.8693439597,-91515.95,-105069.54,20720.256,-4322.1846,393.31055,-45780.316,-42592.652,-1579.2236
963388.8733439572,-91525.555,-105080.08,20689.25,-4352.702,380.9001,-45781.008,-42590.863,-1577.474
963388.8773439546,-91525.555,-105077.516,20709.92,-4314.4126,389.60776,-45778.32,-42592.57,-1563.1104
963388.8813439521,-91515.875,-105063.234,20744.223,-4272.217,400.71616,-45780.805,-42600.465,-1575.7244
963388.8853439497,-91513.836,-105058.02,20737.305,-4283.4473,396.64716,-45782.797,-42605.266,-1587.85
963388.8893439472,-91523.28,-105069.336,20701.254,-4330.8516,387.12567,-45784.14,-42607.87,-1589.6404
963388.8933439447,-91527.75,-105077.88,20685.059,-4349.365,382.64975,-45785.44,-42612.348,-1597.575
963388.8973439422,-91523.69,-105070.84,20711.71,-4300.212,390.86914,-45783.69,-42612.67,-1591.5935
963388.9013439397,-91512.984,-105061.12,20735.434,-4258.464,401.65204,-45782.555,-42609.215,-1582.6824
963388.9053439372,-91505.86,-105051.234,20729.695,-4275.676,399.21063,-45784.996,-42607.34,-1581.0547
963388.9093439347,-91512.17,-105053.914,20705.201,-4324.951,389.56708,-45786.746,-42609.418,-1591.0645
963388.9133439322,-91520.47,-105068.24,20684.773,-4348.552,381.5918,-45787.8,-42612.184,-1598.7957
963388.9173439298,-91516.766,-105065.516,20708.863,-4302.816,392.25262,-45784.1,-42614.383,-1591.6342
963388.9213439272,-91513.305,-105062.34,20733.602,-4271.4033,397.05405,-45781.25,-42614.42,-1584.1472
963388.9253439247,-91512.086,-105065.15,20729.004,-4282.308,392.82227,-45781.21,-42617.35,-1590.5355
963388.9293439222,-91518.234,-105076.46,20694.621,-4325.4395,382.20215,-45784.26,-42621.867,-1607.7474
963388.9333439197,-91530.56,-105089.69,20674.072,-4357.3,373.16895,-45784.75,-42623.78,-1610.3516
963388.9373439172,-91528.98,-105086.63,20713.094,-4310.9946,386.51532,-45782.594,-42624.066,-1604.0447
963388.9413439147,-91517.7,-105072.555,20747.723,-4267.456,401.97754,-45779.5,-42620.035,-1597.9004
963388.9453439122,-91514.33,-105069.83,20733.154,-4278.646,398.60028,-45781.332,-42615.926,-1596.4763
963388.9493439097,-91521.41,-105080.57,20698.445,-4327.474,386.39325,-45784.71,-42615.438,-1594.5232
963388.9533439073,-91531.375,-105094.85,20681.275,-4355.51,376.70898,-45785.2,-42614.707,-1591.6748
963388.9573439048,-91531.21,-105102.18,20712.85,-4316.5693,387.3291,-45781.58,-42614.383,-1587.3617
963388.9613439023,-91524.62,-105096.44,20745.646,-4278.3203,393.514,-45778.484,-42613.16,-1589.2334
963388.9653438997,-91521.37,-105090.74,20739.87,-4288.9,386.9222,-45776.9,-42610.72,-1590.21
963388.9693438972,-91527.75,-105097.78,20713.258,-4332.0312,376.38348,-45777.426,-42606.363,-1584.8389
963388.9733438947,-91536.91,-105109.83,20685.059,-4354.411,374.18622,-45777.266,-42605.31,-1583.2113
963388.9773438922,-91530.88,-105103.64,20713.094,-4306.8037,384.5622,-45774.58,-42602.785,-1574.992
963388.9813438897,-91521.77,-105091.39,20744.549,-4271.0776,396.07748,-45771.65,-42600.26,-1571.5332
963388.9853438872,-91521.164,-105089.484,20735.596,-4290.5273,394.61264,-45771.85,-42601.81,-1582.2754
963388.9893438848,-91526.734,-105100.14,20698.771,-4341.5938,382.64975,-45773.848,-42599.12,-1580.1595
963388.9933438823,-91534.836,-105111.45,20675.984,-4363.5664,375.4476,-45773.52,-42597.13,-1582.723
963388.9973438798,-91530.16,-105108.93,20711.06,-4315.1045,389.60776,-45773.277,-42602.133,-1588.623
963389.0013438773,-91517.945,-105088.26,20746.705,-4266.3574,403.7679,-45772.098,-42604.535,-1581.9906
963389.0053438748,-91512.125,-105076.91,20739.787,-4276.9775,398.39682,-45770.43,-42602.297,-1581.7871
963389.0093438722,-91521.69,-105088.38,20707.928,-4327.474,383.13803,-45771.65,-42599.938,-1583.4148
963389.0133438697,-91530.56,-105094.32,20687.42,-4353.1494,378.94696,-45776.207,-42599.734,-1572.5098
963389.0173438672,-91527.266,-105093.34,20722.576,-4307.6987,390.9912,-45777.957,-42602.176,-1563.3545
