timestamp,Fp1,Fp2,F3,Fz,F4,Cz,Pz,Oz
964093.1569041082,-110187.99,-111372.44,19746.135,-28059.043,8912.191,-50118.246,-54267.01,46685.223
964093.1609041058,-110185.06,-111370.24,19708.008,-28081.666,8896.444,-50115.03,-54258.098,46685.547
964093.1649041033,-110189.91,-111376.914,19702.107,-28084.31,8899.618,-50112.266,-54254.883,46694.54
964093.1689041008,-110190.07,-111376.51,19720.867,-28071.168,8910.36,-50109.742,-54253.83,46704.715
964093.1729040983,-110179.484,-111368.414,19755.574,-28046.713,8927.572,-50107.75,-54254.52,46700.684
964093.1769040958,-110171.31,-111363.08,19755.982,-28047.445,8930.624,-50107.18,-54253.785,46697.754
964093.1809040933,-110178.39,-111369.19,19709.188,-28075.889,8913.9,-50107.504,-54248.496,46695.438
964093.1849040908,-110188.766,-111379.93,19692.139,-28086.834,8911.459,-50107.504,-54247.844,46691.367
964093.1889040882,-110187.46,-111381.63,19723.674,-28071.982,8925.049,-50106.977,-54251.67,46690.023
964093.1929040857,-110181.766,-111376.266,19755.941,-28054.443,8931.682,-50105.227,-54255.008,46697.918
964093.1969040832,-110185.96,-111367.68,19749.268,-28056.602,8933.513,-50103.64,-54257.043,46692.223
964093.2009040808,-110182.58,-111370.734,19703.166,-28079.307,8937.663,-50104.047,-54256.676,46681.277
964093.2049040783,-110187.83,-111378.016,19699.83,-28082.56,8923.788,-50104.414,-54257.406,46675.58
964093.2089040758,-110192.51,-111384.16,19712.037,-28077.678,8920.207,-50105.633,-54256.633,46693.688
964093.2129040733,-110186.98,-111380.25,19742.879,-28062.256,8926.107,-50107.953,-54261.56,46697.188
964093.2169040708,-110186.57,-111377.89,19723.674,-28057.943,8928.955,-50107.625,-54263.39,46698.773
964093.2209040683,-110191.2,-111380.3,19684.773,-28079.672,8920.614,-50110.92,-54266.32,46671.957
964093.2249040658,-110191.66,-111384.65,19694.58,-28081.951,8915.976,-50112.387,-54267.945,46670.453
964093.2289040633,-110189.414,-111378.87,19734.822,-28065.47,8919.23,-50111.125,-54264.69,46689.453
964093.2329040607,-110187.87,-111376.59,19767.416,-28043.662,8919.434,-50110.637,-54262.777,46710.207
964093.2369040583,-110182.26,-111371.79,19761.883,-28047.73,8922.038,-50111.574,-54264.812,46706.098
964093.2409040558,-110179.61,-111369.34,19719.402,-28069.336,8918.579,-50111.043,-54264.527,46690.797
964093.2449040533,-110183.27,-111374.8,19708.904,-28080.078,8915.121,-50111.574,-54265.3,46684.246
964093.2489040508,-110184.164,-111377.73,19724.244,-28064.209,8925.659,-50111.29,-54268.19,46676.35
964093.2529040483,-110184.62,-111375.29,19752.605,-28040.324,8940.308,-50109.254,-54264.16,46695.395
964093.2569040458,-110187.34,-111377.2,19755.574,-28039.795,8936.728,-50107.465,-54261.11,46711.348
964093.2609040433,-110196.7,-111380.78,19713.99,-28066.977,8918.254,-50107.586,-54258.75,46704.957
964093.2649040408,-110204.06,-111391.16,19713.623,-28072.877,8913.615,-50107.707,-54259.484,46700.195
964093.2689040384,-110191.29,-111389.164,19731.69,-28061.076,8925.863,-50106.812,-54264.082,46687.46
964093.2729040359,-110184.33,-111381.555,19775.432,-28038.25,8933.838,-50103.355,-54261.355,46703.492
964093.2769040333,-110182.26,-111386.84,19767.293,-28043.783,8923.503,-50100.71,-54256.348,46718.1
964093.2809040308,-110189.984,-111389.2,19715.943,-28074.79,8916.464,-50100.71,-54255.332,46705.61
964093.2849040283,-110194.18,-111384.93,19707.195,-28082.154,8915.976,-50098.918,-54252.402,46708.62
964093.2889040258,-110191.77,-111381.59,19727.662,-28077.271,8921.143,-50096.316,-54244.875,46728.598
964093.2929040233,-110190.516,-111380.17,19749.39,-28058.96,8932.373,-50095.625,-54245.363,46739.137
964093.2969040208,-110189.54,-111384.97,19745.402,-28058.229,8932.617,-50096.19,-54251.793,46720.703
964093.3009040183,-110192.67,-111390.55,19713.582,-28082.805,8921.957,-50095.055,-54249.92,46701.05
964093.3049040159,-110194.79,-111395.39,19714.193,-28083.172,8915.935,-50095.38,-54249.797,46703.29
964093.3089040134,-110194.055,-111392.3,19740.764,-28061.89,8924.235,-50095.46,-54250.082,46715.617
964093.3129040109,-110189.87,-111385.336,19769.49,-28037.314,8935.303,-50097.414,-54252.89,46724.164
964093.3169040084,-110193.85,-111388.8,19759.686,-28036.541,8925.863,-50098.39,-54256.96,46718.67
964093.3209040058,-110191.33,-111395.35,19709.637,-28065.064,8916.87,-50101.24,-54260.867,46688.438
964093.3249040033,-110189.91,-111396.2,19708.943,-28072.186,8917.807,-50104.492,-54264.082,46673.953
964093.3289040008,-110193.69,-111395.8,19705.363,-28066.732,8919.882,-50105.348,-54266.24,46687.99
964093.3329039983,-110190.19,-111390.22,19732.992,-28053.834,8929.118,-50105.227,-54266.156,46713.707
964093.3369039958,-110188.234,-111392.46,19755.78,-28048.26,8925.212,-50104.13,-54265.098,46728.19
964093.3409039933,-110189.74,-111392.375,19707.275,-28074.586,8911.418,-50104.535,-54265.586,46701.824
964093.3449039909,-110196.7,-111394.58,19706.99,-28076.865,8912.109,-50104.617,-54267.336,46688.113
964093.3489039884,-110199.14,-111390.75,19735.76,-28057.496,8917.847,-50102.664,-54266.32,46702.637
964093.3529039859,-110195.27,-111390.875,19750.203,-28041.342,8929.81,-50099.855,-54265.547,46725.914
964093.3569039834,-110187.09,-111385.016,19747.844,-28046.957,8922.323,-50096.52,-54257.0,46740.645
964093.3609039809,-110199.42,-111398.97,19691.326,-28081.787,8911.174,-50094.566,-54252.08,46715.535
964093.3649039783,-110220.79,-111425.945,19676.066,-28092.246,8899.252,-50095.543,-54254.805,46698.242
964093.3689039758,-110215.3,-111413.05,19702.8,-28075.195,8912.558,-50095.83,-54259.277,46698.0
964093.3729039733,-110195.31,-111385.87,19750.244,-28050.213,8927.246,-50095.746,-54258.465,46721.76
964093.3769039708,-110188.07,-111380.5,19750.814,-28054.729,8925.497,-50092.816,-54255.984,46731.812
964093.3809039684,-110196.58,-111390.22,19716.105,-28076.416,8915.243,-50090.902,-54250.246,46723.43
964093.3849039659,-110203.49,-111389.65,19708.008,-28077.637,8916.626,-50090.984,-54249.39,46721.03
964093.3889039634,-110201.7,-111390.99,19711.346,-28064.861,8923.381,-50091.23,-54249.758,46730.266
964093.3929039609,-110197.72,-111395.02,19731.69,-28054.852,8929.892,-50090.535,-54247.56,46753.62
964093.3969039584,-110200.16,-111391.52,19735.637,-28064.047,8921.591,-50092.9,-54251.223,46739.504
964093.4009039559,-110205.85,-111394.78,19696.168,-28086.182,8917.725,-50096.316,-54258.63,46702.598
964093.4049039534,-110208.09,-111396.125,19694.012,-28085.979,8922.119,-50099.285,-54261.56,46705.49
964093.4089039508,-110210.21,-111398.36,19707.56,-28074.463,8934.001,-50100.75,-54263.47,46711.062
964093.4129039483,-110204.06,-111390.22,19732.666,-28049.195,8937.053,-50099.53,-54261.312,46731.895
964093.4169039459,-110205.125,-111384.12,19732.625,-28051.475,8930.38,-50099.734,-54259.562,46743.938
964093.4209039434,-110213.83,-111393.31,19692.953,-28076.213,8918.986,-50098.918,-54258.914,46717.246
964093.4249039409,-110214.69,-111396.53,19687.176,-28082.969,8920.532,-50099.57,-54262.13,46702.516
964093.4289039384,-110214.805,-111396.0,19708.62,-28075.195,8928.427,-50099.12,-54259.727,46724.246
964093.4329039359,-110211.14,-111386.88,19739.625,-28054.078,8940.796,-50100.14,-54258.098,46740.645
964093.4369039334,-110200.69,-111380.91,19747.682,-28051.107,8944.336,-50099.895,-54257.977,46734.945
964093.4409039309,-110207.766,-111387.78,19683.27,-28083.252,8932.17,-50100.75,-54260.582,46709.15
964093.4449039284,-110210.86,-111386.44,19675.252,-28090.861,8926.799,-50102.38,-54263.348,46696.13
964093.448903926,-110213.016,-111393.76,19692.506,-28084.514,8923.788,-50102.215,-54261.72,46706.22
964093.4529039233,-110215.05,-111391.24,19726.766,-28063.926,8929.484,-50099.652,-54259.605,46730.266
964093.4569039209,-110210.94,-111392.26,19728.963,-28061.564,8926.392,-50096.883,-54256.023,46738.527
964093.4609039184,-110209.19,-111396.57,19681.967,-28090.088,8911.418,-50094.605,-54251.1,46725.3
964093.4649039159,-110212.89,-111395.305,19692.098,-28087.322,8915.446,-50095.055,-54250.938,46719.65
964093.4689039134,-110208.42,-111391.85,19723.633,-28071.777,8925.578,-50094.28,-54248.66,46734.785
964093.4729039109,-110206.14,-111393.555,19753.377,-28056.316,8931.601,-50094.32,-54248.82,46739.137
964093.4769039084,-110209.234,-111397.75,19747.273,-28061.402,8927.246,-50094.89,-54250.938,46739.83
964093.4809039059,-110218.95,-111407.84,19681.316,-28100.139,8908.325,-50093.953,-54248.17,46727.99
964093.4849039034,-110228.84,-111417.28,19665.04,-28109.62,8905.64,-50094.24,-54248.78,46720.664
964093.488903901,-110228.88,-111418.5,19694.703,-28090.049,8909.018,-50095.297,-54255.047,46705.445
964093.4929038985,-110225.06,-111415.45,19720.906,-28066.65,8909.18,-50093.832,-54257.61,46713.016
964093.4969038959,-110225.06,-111415.086,19728.068,-28060.426,8912.313,-50092.816,-54256.555,46733.81
964093.5009038934,-110234.13,-111423.305,19677.287,-28092.205,8903.442,-50095.176,-54256.88,46719.2
964093.5049038909,-110237.06,-111429.04,19674.031,-28096.07,8902.141,-50100.586,-54265.383,46698.324
964093.5089038884,-110239.51,-111428.35,19697.348,-28074.545,8913.33,-50102.785,-54274.742,46683.72
964093.5129038859,-110241.26,-111425.336,19717.164,-28058.676,8922.038,-50102.54,-54275.15,46699.42
964093.5169038834,-110238.85,-111427.49,19723.918,-28064.006,8920.248,-50100.996,-54270.67,46713.707
964093.5209038809,-110244.43,-111435.39,19664.592,-28099.936,8906.413,-50102.46,-54267.703,46690.188
964093.5249038785,-110250.62,-111440.27,19654.867,-28106.568,8903.442,-50104.25,-54267.54,46686.402
964093.528903876,-110247.234,-111440.63,19693.848,-28086.02,8910.686,-50103.355,-54267.17,46692.87
964093.5329038735,-110241.375,-111429.69,19728.516,-28062.379,8917.847,-50103.07,-54268.68,46694.99
964093.536903871,-110241.87,-111417.36,19733.766,-28050.375,8916.26,-50101.44,-54267.05,46710.41
964093.5409038684,-110244.51,-111421.266,19690.674,-28075.928,8906.128,-50098.145,-54260.664,46706.465
964093.5449038659,-110237.836,-111424.73,19678.63,-28087.525,8905.722,-50099.043,-54260.742,46699.707
964093.5489038634,-110235.234,-111420.336,19710.408,-28073.365,8911.54,-50099.12,-54263.184,46698.69
964093.5529038609,-110229.984,-111419.92,19747.803,-28057.902,8923.91,-50096.926,-54258.914,46726.2
964093.5569038584,-110228.72,-111411.7,19757.61,-28061.85,8923.178,-50095.215,-54257.082,46728.8
964093.560903856,-110234.83,-111413.25,19709.799,-28091.309,8911.581,-50095.582,-54254.926,46711.754
964093.5649038535,-110237.35,-111422.33,19690.389,-28104.818,8915.649,-50097.78,-54256.918,46689.535
964093.568903851,-110241.055,-111428.266,19716.268,-28093.588,8916.667,-50098.51,-54258.508,46693.562
964093.5729038485,-110234.055,-111416.79,19758.627,-28069.5,8914.714,-50094.523,-54252.65,46727.582
964093.576903846,-110230.39,-111413.01,19750.814,-28070.924,8916.626,-50092.207,-54252.77,46723.797
964093.5809038435,-110233.52,-111417.08,19711.549,-28095.744,8910.441,-50093.875,-54254.844,46706.055
964093.5849038409,-110235.07,-111422.08,19711.71,-28094.443,8906.006,-50096.64,-54257.938,46702.8
964093.5889038384,-110236.45,-111420.74,19732.26,-28078.777,8895.834,-50095.094,-54256.676,46714.766
964093.5929038359,-110235.6,-111417.73,19763.957,-28060.264,8916.342,-50094.2,-54258.3,46720.418
964093.5969038334,-110235.68,-111418.625,19766.521,-28068.889,8915.649,-50094.89,-54255.13,46737.227
964093.600903831,-110239.34,-111423.305,19707.316,-28111.004,8899.74,-50095.543,-54258.26,46709.11
964093.6049038285,-110248.25,-111430.46,19698.04,-28115.44,8900.1875,-50097.58,-54262.98,46695.312
964093.608903826,-110247.484,-111432.09,19706.502,-28096.803,8907.715,-50098.555,-54269.25,46688.273
964093.6129038235,-110242.19,-111424.12,19738.281,-28069.541,8915.935,-50100.426,-54273.723,46686.605
964093.616903821,-110236.984,-111416.586,19743.164,-28061.28,8915.771,-50100.953,-54273.113,46694.46
964093.6209038185,-110229.58,-111418.945,19701.336,-28091.105,8908.122,-50102.215,-54269.41,46689.535
964093.624903816,-110235.35,-111423.51,19690.47,-28103.312,8899.374,-50100.87,-54267.297,46686.117
964093.6289038134,-110239.95,-111428.51,19704.713,-28100.465,8901.815,-50102.62,-54271.934,46681.97
964093.6329038109,-110239.75,-111425.13,19734.375,-28081.055,8908.651,-50103.312,-54272.137,46701.133
964093.6369038085,-110242.6,-111424.24,19749.023,-28077.23,8907.715,-50103.395,-54268.066,46717.043
964093.640903806,-110239.67,-111428.71,19705.12,-28098.553,8900.146,-50103.844,-54268.066,46693.484
964093.6449038035,-110243.58,-111429.41,19694.459,-28100.994,8901.896,-50103.312,-54267.66,46685.344
964093.648903801,-110242.72,-111425.984,19711.14,-28089.031,8907.797,-50101.484,-54270.266,46684.367
964093.6529037985,-110234.625,-111421.555,19742.555,-28076.133,8908.8545,-50100.668,-54269.043,46695.07
964093.656903796,-110232.305,-111418.3,19733.236,-28081.26,8908.936,-50099.773,-54263.31,46706.625
964093.6609037935,-110241.3,-111427.29,19688.559,-28106.854,8896.606,-50099.324,-54259.973,46700.97
964093.664903791,-110244.02,-111425.54,19683.96,-28107.383,8894.613,-50098.715,-54261.152,46694.746
964093.6689037886,-110240.234,-111424.52,19713.502,-28094.85,8902.751,-50100.02,-54261.926,46700.195
964093.672903786,-110235.27,-111418.586,19750.0,-28073.61,8908.081,-50100.098,-54262.98,46713.625
964093.6769037835,-110232.586,-111415.98,19752.686,-28076.945,8909.872,-50099.61,-54264.527,46718.06
964093.680903781,-110239.305,-111424.52,19686.238,-28109.416,8900.269,-50099.367,-54262.37,46707.52
964093.6849037785,-110245.08,-111432.17,19662.436,-28125.285,8886.108,-50101.36,-54266.36,46683.15
964093.688903776,-110246.016,-111435.02,19695.15,-28107.707,8896.403,-50102.785,-54274.414,46668.01
964093.6929037735,-110242.39,-111429.445,19745.32,-28075.848,8909.994,-50102.38,-54277.832,46688.887
964093.696903771,-110238.81,-111426.35,19751.1,-28071.533,8909.14,-50102.01,-54275.516,46698.164
964093.7009037685,-110244.67,-111428.39,19706.014,-28092.896,8909.018,-50100.098,-54270.715,46699.14
964093.704903766,-110253.99,-111434.164,19691.162,-28102.865,8904.989,-50100.426,-54270.633,46692.508
964093.7089037636,-110239.83,-111432.055,19703.004,-28090.049,8905.07,-50102.742,-54275.39,46681.277
964093.7129037611,-110234.54,-111425.664,19741.414,-28075.115,8912.924,-50103.19,-54274.742,46694.99
964093.7169037585,-110233.766,-111424.484,19749.227,-28077.963,8909.302,-50102.38,-54273.03,46697.348
964093.720903756,-110235.64,-111429.04,19713.705,-28102.783,8899.17,-50102.215,-54272.137,46689.168
964093.7249037535,-110238.2,-111427.94,19704.428,-28110.312,8896.118,-50102.418,-54269.777,46694.46
964093.728903751,-110238.04,-111431.12,19732.098,-28092.326,8907.1455,-50101.24,-54270.633,46692.832
964093.7329037485,-110235.195,-111426.07,19757.527,-28064.129,8918.579,-50099.367,-54270.1,46702.434
964093.736903746,-110234.336,-111424.6,19758.871,-28065.43,8915.976,-50100.953,-54268.883,46706.055
964093.7409037435,-110236.86,-111424.52,19698.61,-28095.094,8909.994,-50100.383,-54265.42,46693.035
964093.744903741,-110241.91,-111432.09,19672.893,-28116.049,8904.541,-50100.668,-54265.79,46686.77
964093.7489037386,-110243.984,-111432.82,19692.994,-28103.842,8908.488,-50103.027,-54266.36,46704.633
964093.7529037361,-110238.41,-111426.48,19738.934,-28076.133,8914.145,-50103.23,-54266.848,46718.914
964093.7569037336,-110230.8,-111420.9,19752.238,-28075.562,8913.696,-50102.824,-54270.957,46702.35
964093.760903731,-110235.766,-111424.73,19708.984,-28100.627,8898.886,-50103.19,-54270.305,46691.12
964093.7649037285,-110240.12,-111428.914,19703.533,-28103.395,8893.759,-50100.87,-54268.637,46693.36
964093.768903726,-110242.72,-111432.945,19724.773,-28088.299,8900.31,-50100.18,-54268.15,46700.277
964093.7729037235,-110243.21,-111427.21,19754.598,-28074.83,8912.069,-50100.586,-54268.92,46703.777
964093.776903721,-110239.625,-111423.625,19756.104,-28087.525,8910.4,-50101.81,-54270.793,46698.082
964093.7809037186,-110240.12,-111433.19,19710.287,-28109.904,8898.112,-50101.277,-54269.53,46691.367
964093.7849037161,-110240.36,-111432.74,19700.848,-28107.178,8898.031,-50100.465,-54271.16,46685.547
964093.7889037136,-110240.73,-111435.71,19727.906,-28095.582,8899.211,-50100.26,-54274.05,46680.79
964093.7929037111,-110247.89,-111432.414,19752.28,-28072.877,8912.598,-50098.39,-54271.406,46702.395
964093.7969037086,-110259.56,-111437.14,19748.617,-28074.219,8905.722,-50096.844,-54267.99,46709.92
964093.8009037061,-110249.84,-111438.07,19685.791,-28109.457,8895.468,-50099.61,-54268.15,46695.883
964093.8049037035,-110237.39,-111429.53,19683.105,-28113.281,8895.305,-50104.004,-54274.66,46679.812
964093.808903701,-110242.15,-111431.73,19730.998,-28087.607,8905.07,-50102.215,-54271.69,46690.88
964093.8129036985,-110241.945,-111430.305,19763.836,-28071.494,8913.9,-50100.79,-54269.98,46708.824
964093.816903696,-110241.664,-111434.125,19767.334,-28078.613,8906.372,-50099.082,-54267.254,46722.58
964093.8209036936,-110247.97,-111447.59,19716.35,-28109.498,8894.653,-50097.7,-54261.152,46712.117
964093.8249036911,-110248.25,-111452.31,19715.74,-28112.672,8896.647,-50098.39,-54261.477,46698.12
964093.8289036886,-110255.01,-111464.69,19743.611,-28097.412,8901.733,-50095.543,-54257.53,46715.945
964093.8329036861,-110247.12,-111453.45,19770.996,-28075.4,8903.239,-50093.06,-54257.69,46733.645
964093.8369036836,-110245.85,-111450.04,19761.883,-28078.695,8901.449,-50093.26,-54258.465,46735.027
964093.8409036811,-110254.4,-111462.484,19699.951,-28112.834,8885.824,-50093.953,-54255.82,46719.484
964093.8449036786,-110260.18,-111474.49,19698.283,-28113.16,8882.976,-50094.035,-54254.805,46715.21
964093.848903676,-110258.06,-111469.57,19730.021,-28089.396,8891.684,-50093.875,-54256.145,46722.25
964093.8529036735,-110252.89,-111458.87,19779.826,-28067.1,8899.292,-50092.855,-54257.0,46745.04
964093.856903671,-110248.78,-111458.625,19784.018,-28069.58,8900.595,-50091.51,-54255.74,46752.727
964093.8609036686,-110250.9,-111463.14,19727.662,-28099.936,8893.2295,-50090.457,-54256.105,46727.664
964093.8649036661,-110258.016,-111467.734,19700.969,-28111.125,8884.44,-50090.375,-54254.926,46716.27
964093.8689036636,-110262.945,-111472.5,19721.314,-28104.086,8887.085,-50090.7,-54256.43,46707.723
964093.8729036611,-110261.516,-111470.3,19773.805,-28088.664,8897.055,-50090.82,-54259.277,46715.82
964093.8769036586,-110261.805,-111471.6,19781.535,-28085.775,8895.671,-50089.56,-54255.656,46736.695
964093.8809036561,-110273.805,-111476.41,19728.271,-28108.277,8883.708,-50089.887,-54253.176,46723.715
964093.8849036536,-110273.12,-111475.47,19717.0,-28108.318,8882.976,-50089.723,-54253.055,46729.82
964093.8889036512,-110264.57,-111471.64,19741.578,-28092.611,8892.863,-50091.51,-54257.61,46713.504
964093.8929036485,-110259.445,-111468.8,19765.219,-28073.975,8901.327,-50093.06,-54260.703,46708.906
964093.8969036461,-110260.336,-111469.73,19762.94,-28078.574,8895.508,-50091.555,-54255.617,46730.39
964093.9009036436,-110264.04,-111471.84,19717.938,-28107.178,8888.794,-50091.15,-54252.363,46711.02
964093.9049036411,-110268.76,-111475.914,19704.021,-28119.467,8880.249,-50090.17,-54248.254,46704.023
964093.9089036386,-110270.67,-111479.54,19725.018,-28108.195,8885.173,-50090.21,-54246.707,46720.625
964093.9129036361,-110269.82,-111476.24,19758.871,-28089.764,8890.3,-50090.09,-54247.316,46733.81
964093.9169036336,-110269.125,-111474.86,19758.139,-28091.879,8884.807,-50087.527,-54244.67,46737.875
964093.9209036311,-110274.664,-111480.72,19691.895,-28125.488,8870.239,-50089.07,-54242.516,46719.65
964093.9249036286,-110280.6,-111488.98,19671.346,-28132.324,8867.432,-50089.4,-54245.28,46711.062
964093.9289036262,-110277.875,-111481.37,19707.113,-28108.44,8882.609,-50086.67,-54244.836,46731.61
964093.9329036237,-110269.53,-111470.625,19742.188,-28087.607,8894.694,-50084.23,-54244.836,46756.43
964093.9369036211,-110261.27,-111461.14,19756.512,-28084.025,8892.985,-50084.598,-54248.742,46741.742
964093.9409036186,-110259.89,-111465.945,19727.215,-28101.686,8882.406,-50085.41,-54249.434,46729.574
964093.9449036161,-110262.82,-111464.234,19720.135,-28110.475,8873.047,-50086.426,-54249.555,46719.117
964093.9489036136,-110263.76,-111460.29,19737.916,-28095.664,8882.8125,-50086.266,-54250.773,46727.01
964093.9529036111,-110261.16,-111456.67,19754.842,-28080.771,8893.026,-50086.996,-54250.164,46748.047
964093.9569036086,-110259.445,-111454.96,19749.594,-28092.693,8888.754,-50087.73,-54251.914,46745.04
964093.9609036061,-110264.734,-111459.234,19709.514,-28119.385,8877.401,-50088.22,-54251.547,46725.06
964093.9649036037,-110269.05,-111463.055,19701.986,-28126.059,8875.773,-50086.63,-54248.13,46731.12
964093.9689036012,-110267.22,-111464.4,19739.137,-28108.521,8878.54,-50085.086,-54248.13,46744.832
964093.9729035987,-110259.08,-111459.64,19782.023,-28080.363,8897.421,-50085.45,-54254.152,46743.004
964093.9769035962,-110250.45,-111453.984,19786.012,-28078.37,8906.372,-50085.33,-54253.418,46740.887
964093.9809035936,-110255.21,-111453.82,19726.318,-28110.107,8893.433,-50085.816,-54251.63,46719.688
964093.9849035911,-110266.36,-111464.84,19697.713,-28131.145,8885.946,-50086.67,-54253.137,46710.613
964093.9889035886,-110270.15,-111466.59,19729.533,-28116.822,8891.765,-50086.508,-54253.625,46720.906
964093.9929035861,-110265.75,-111456.14,19776.979,-28088.502,8901.611,-50086.305,-54253.5,46748.58
964093.9969035836,-110267.46,-111450.85,19763.387,-28091.514,8901.245,-50087.445,-54253.703,46757.164
964094.0009035812,-110271.94,-111455.94,19722.453,-28119.793,8881.389,-50087.77,-54253.625,46734.336
964094.0049035787,-110267.13,-111458.3,19692.018,-28125.123,8873.861,-50089.887,-54256.188,46727.254
964094.0089035762,-110260.26,-111451.5,19729.94,-28094.238,8884.929,-50090.414,-54259.277,46736.125
964094.0129035737,-110255.54,-111444.75,19781.982,-28064.617,8896.037,-50090.332,-54262.168,46743.45
964094.0169035712,-110255.375,-111442.71,19778.564,-28071.453,8914.0625,-50087.242,-54256.758,46752.605
964094.0209035687,-110257.94,-111444.016,19728.8,-28104.209,8909.546,-50086.305,-54250.33,46750.734
964094.0249035661,-110262.74,-111449.95,19704.143,-28116.416,8900.92,-50087.812,-54250.938,46735.8
964094.0289035636,-110262.414,-111450.97,19725.586,-28102.174,8901.327,-50087.566,-54255.82,46719.117
964094.0329035611,-110255.74,-111444.38,19763.875,-28078.574,8901.611,-50087.445,-54255.37,46739.34
964094.0369035586,-110255.62,-111438.48,19762.654,-28081.299,8909.872,-50087.973,-54253.703,46744.508
964094.0409035562,-110265.42,-111443.04,19697.918,-28117.229,8902.385,-50089.844,-54253.582,46729.004
964094.0449035537,-110275.48,-111458.09,19691.285,-28124.023,8893.555,-50090.17,-54253.746,46729.004
964094.0489035512,-110283.82,-111471.766,19723.756,-28106.69,8885.824,-50087.16,-54254.883,46734.457
964094.0529035487,-110269.45,-111451.54,19774.293,-28079.143,8897.705,-50087.484,-54254.844,46748.58
964094.0569035462,-110248.46,-111425.7,19785.28,-28072.592,8908.366,-50086.266,-54254.316,46754.07
964094.0609035437,-110254.27,-111433.234,19732.016,-28104.98,8897.746,-50085.125,-54250.285,46737.633
964094.0649035412,-110274.87,-111453.984,19701.863,-28118.734,8894.694,-50083.09,-54246.543,46728.76
964094.0689035386,-110276.33,-111456.016,19724.488,-28103.312,8904.501,-50083.09,-54245.445,46745.445
964094.0729035361,-110269.58,-111445.97,19766.357,-28089.152,8906.616,-50085.086,-54250.977,46757.12
964094.0769035337,-110272.914,-111444.42,19762.86,-28089.438,8904.419,-50085.492,-54254.438,46752.89
964094.0809035312,-110276.29,-111446.945,19719.158,-28114.87,8905.762,-50085.41,-54253.867,46735.066
964094.0849035287,-110279.09,-111448.695,19712.361,-28120.361,8906.413,-50085.816,-54254.273,46731.203
964094.0889035262,-110280.84,-111446.82,19746.541,-28100.465,8909.872,-50085.45,-54256.227,46738.934
964094.0929035237,-110277.47,-111445.805,19781.576,-28077.516,8917.929,-50084.516,-54255.86,46764.16
964094.0969035212,-110273.36,-111440.48,19772.096,-28081.543,8920.736,-50084.676,-54257.57,46762.492
964094.1009035187,-110284.914,-111446.74,19690.877,-28119.305,8903.239,-50086.348,-54257.977,46737.875
964094.1049035162,-110288.336,-111458.09,19674.602,-28133.627,8895.142,-50087.605,-54257.043,46735.68
964094.1089035138,-110278.484,-111456.71,19714.52,-28111.045,8898.642,-50087.934,-54253.906,46765.707
964094.1129035112,-110272.016,-111448.04,19759.686,-28083.781,8911.662,-50088.34,-54254.273,46781.21
964094.1169035087,-110270.76,-111444.79,19767.334,-28079.387,8915.976,-50088.46,-54262.74,46753.258
964094.1209035062,-110270.96,-111438.44,19723.186,-28100.424,8905.559,-50089.56,-54266.44,46723.96
964094.1249035037,-110269.45,-111438.48,19691.447,-28106.568,8900.92,-50090.21,-54263.266,46737.348
964094.1289035012,-110273.64,-111444.42,19711.264,-28092.082,8900.798,-50090.984,-54264.04,46739.992
964094.1329034987,-110267.3,-111438.48,19748.78,-28069.906,8915.8125,-50090.414,-54265.3,46744.59
964094.1369034962,-110264.98,-111437.87,19763.63,-28064.535,8917.236,-50090.58,-54260.99,46762.94
964094.1409034937,-110266.805,-111438.64,19717.855,-28095.867,8907.797,-50091.23,-54257.203,46747.234
964094.1449034913,-110270.43,-111440.27,19708.21,-28113.525,8903.239,-50090.984,-54256.51,46735.477
964094.1489034888,-110273.08,-111442.63,19732.178,-28097.697,8908.651,-50090.863,-54257.082,46745.445
964094.1529034863,-110268.6,-111437.22,19771.281,-28076.254,8922.241,-50090.09,-54256.43,46759.2
964094.1569034837,-110268.72,-111439.25,19769.002,-28085.205,8916.992,-50089.56,-54254.03,46766.887
964094.1609034812,-110271.9,-111444.87,19722.82,-28110.963,8902.141,-50090.82,-54254.355,46743.9
964094.1649034787,-110273.08,-111444.79,19710.775,-28112.549,8892.944,-50091.676,-54252.89,46735.23
964094.1689034762,-110270.875,-111440.68,19744.344,-28088.95,8901.408,-50091.023,-54252.32,46746.867
964094.1729034737,-110269.05,-111433.68,19789.592,-28064.006,8914.917,-50092.0,-54253.867,46755.293
964094.1769034712,-110269.695,-111435.8,19790.283,-28070.232,8920.736,-50092.734,-54252.484,46758.426
964094.1809034687,-110270.06,-111440.48,19723.633,-28100.059,8904.663,-50093.1,-54250.938,46745.973
964094.1849034663,-110277.76,-111450.04,19689.209,-28121.95,8898.967,-50094.484,-54252.973,46735.23
964094.1889034638,-110281.375,-111450.81,19720.215,-28111.816,8902.548,-50097.535,-54259.402,46731.12
964094.1929034613,-110276.82,-111443.12,19771.484,-28082.928,8909.953,-50097.535,-54260.824,46751.465
964094.1969034588,-110279.586,-111440.96,19767.293,-28082.357,8912.395,-50097.902,-54260.094,46763.145
964094.2009034562,-110269.66,-111444.22,19723.797,-28103.395,8905.111,-50098.023,-54260.418,46746.016
964094.2049034537,-110267.42,-111446.25,19716.064,-28108.195,8903.931,-50098.51,-54259.848,46738.934
964094.2089034512,-110266.12,-111443.12,19745.443,-28093.14,8913.127,-50099.938,-54262.168,46747.64
964094.2129034487,-110265.47,-111432.58,19773.193,-28075.889,8922.567,-50099.324,-54264.082,46765.098
964094.2169034462,-110267.336,-111435.02,19762.818,-28084.352,8908.529,-50100.953,-54264.445,46767.742
964094.2209034438,-110267.42,-111436.94,19720.623,-28110.719,8900.391,-50102.5,-54261.965,46751.59
964094.2249034413,-110273.28,-111442.55,19705.16,-28123.252,8891.846,-50105.51,-54267.254,46727.824
964094.2289034388,-110272.664,-111441.66,19735.23,-28105.348,8890.137,-50107.91,-54272.42,46730.754
964094.2329034363,-110266.04,-111430.51,19784.22,-28075.44,8902.792,-50104.207,-54270.062,46756.51
964094.2369034338,-110260.91,-111423.14,19779.988,-28078.98,8902.629,-50102.867,-54270.508,46748.78
964094.2409034313,-110270.266,-111427.125,19725.627,-28108.48,8892.66,-50102.01,-54268.434,46728.68
964094.2449034287,-110277.47,-111435.71,19710.816,-28121.094,8884.604,-50102.418,-54266.727,46725.383
964094.2489034262,-110277.8,-111435.67,19749.838,-28101.28,8890.259,-50101.645,-54263.918,46744.957
964094.2529034237,-110273.52,-111432.336,19776.814,-28079.795,8900.513,-50100.426,-54264.367,46757.57
964094.2569034213,-110270.51,-111432.055,19771.566,-28082.805,8906.454,-50099.895,-54267.254,46750.855
964094.2609034188,-110269.58,-111430.51,19715.82,-28108.928,8919.516,-50099.406,-54263.266,46738.406
964094.2649034163,-110272.95,-111434.82,19679.363,-28123.74,8918.579,-50100.465,-54262.13,46727.215
964094.2689034138,-110268.44,-111430.83,19711.02,-28106.771,8905.314,-50099.812,-54264.203,46727.01
964094.2729034113,-110269.82,-111424.16,19757.121,-28083.904,8889.689,-50099.57,-54266.4,46740.562
964094.2769034088,-110273.28,-111425.13,19755.494,-28089.885,8890.747,-50101.688,-54265.91,46754.19
964094.2809034063,-110267.625,-111430.75,19708.822,-28119.102,8891.684,-50103.027,-54268.516,46734.336
964094.2849034038,-110265.79,-111430.016,19690.594,-28130.82,8894.531,-50105.31,-54273.234,46705.895
964094.2889034012,-110269.945,-111431.56,19711.67,-28116.416,8903.972,-50105.715,-54273.36,46722.74
964094.2929033987,-110273.32,-111426.6,19754.803,-28094.035,8913.168,-50105.023,-54273.03,46752.44
964094.2969033963,-110266.28,-111420.375,19774.537,-28082.928,8913.9,-50105.145,-54272.42,46756.633
964094.3009033938,-110260.99,-111413.86,19729.9,-28107.26,8904.785,-50105.88,-54270.47,46737.305
964094.3049033913,-110265.38,-111416.71,19700.236,-28124.512,8891.4795,-50106.406,-54272.3,46721.76
964094.3089033888,-110277.59,-111423.586,19720.338,-28116.293,8890.829,-50107.91,-54274.17,46726.2
964094.3129033863,-110289.43,-111429.125,19746.785,-28102.906,8898.967,-50108.887,-54275.15,46739.055
964094.3169033838,-110277.19,-111425.83,19757.406,-28098.023,8905.233,-50110.477,-54276.9,46738.363
964094.3209033813,-110260.13,-111412.44,19716.635,-28117.025,8892.009,-50112.227,-54279.83,46722.74
964094.3249033788,-110272.305,-111415.86,19699.422,-28133.139,8887.451,-50112.875,-54279.91,46717.855
964094.3289033764,-110277.63,-111419.36,19724.732,-28117.84,8898.642,-50111.043,-54279.34,46730.594
964094.3329033738,-110264.125,-111406.984,19771.078,-28088.908,8905.681,-50109.297,-54282.758,46727.742
964094.3369033713,-110259.08,-111403.12,19792.36,-28079.346,8910.6045,-50108.887,-54281.293,46729.086
964094.3409033688,-110254.88,-111402.76,19731.893,-28108.562,8895.468,-50107.344,-54275.027,46731.895
964094.3449033663,-110263.39,-111412.11,19698.445,-28125.45,8875.651,-50107.42,-54274.375,46712.28
964094.3489033638,-110267.87,-111413.62,19728.027,-28110.434,8871.501,-50107.832,-54276.695,46715.945
964094.3529033613,-110264.125,-111409.59,19754.965,-28097.982,8878.906,-50108.277,-54278.117,46736.168
964094.3569033588,-110272.38,-111410.89,19750.691,-28099.041,8887.207,-50107.098,-54279.016,46742.312
964094.3609033563,-110274.01,-111418.7,19708.416,-28126.059,8879.517,-50107.098,-54276.246,46729.86
964094.3649033539,-110270.63,-111419.72,19695.15,-28134.441,8878.174,-50107.625,-54273.97,46725.18
964094.3689033514,-110268.48,-111416.47,19732.016,-28112.225,8887.004,-50105.754,-54274.863,46733.645
964094.3729033489,-110263.02,-111409.14,19768.922,-28086.549,8891.968,-50104.617,-54274.09,46758.75
964094.3769033463,-110255.82,-111405.12,19777.223,-28085.572,8885.62,-50104.86,-54272.34,46775.516
964094.3809033438,-110255.5,-111402.02,19745.361,-28115.805,8891.357,-50106.69,-54275.15,46737.633
964094.3849033413,-110260.79,-111402.55,19702.352,-28130.535,8898.56,-50109.5,-54280.234,46703.86
964094.3889033388,-110264.445,-111403.0,19721.965,-28117.555,8904.867,-50109.418,-54281.66,46713.992
964094.3929033363,-110266.69,-111402.8,19755.086,-28101.28,8914.429,-50108.684,-54282.473,46726.605
964094.3969033338,-110268.27,-111403.164,19761.395,-28102.05,8910.767,-50107.344,-54282.227,46735.477
964094.4009033313,-110268.6,-111405.12,19720.988,-28131.43,8895.915,-50108.195,-54280.152,46724.652
964094.4049033289,-110273.97,-111407.43,19674.398,-28147.014,8884.115,-50109.906,-54277.59,46718.67
964094.4089033264,-110273.97,-111406.58,19702.352,-28125.652,8891.562,-50109.906,-54276.98,46727.05
964094.4129033239,-110269.21,-111402.67,19765.463,-28093.832,8907.715,-50110.68,-54278.445,46747.887
964094.4169033214,-110264.94,-111395.63,19779.217,-28090.902,8908.488,-50109.906,-54274.863,46763.836
964094.4209033188,-110265.14,-111399.5,19725.709,-28124.676,8900.513,-50109.906,-54275.96,46725.75
964094.4249033163,-110270.35,-111407.64,19692.303,-28141.398,8892.578,-50111.86,-54277.47,46705.08
964094.4289033138,-110272.055,-111406.62,19720.256,-28137.248,8894.816,-50110.84,-54274.62,46722.25
964094.4329033113,-110265.06,-111400.19,19766.887,-28108.36,8904.907,-50109.336,-54272.22,46743.652
964094.4369033088,-110260.42,-111395.875,19774.129,-28100.83,8901.896,-50108.523,-54270.918,46749.92
964094.4409033064,-110260.09,-111394.33,19721.03,-28126.018,8891.684,-50109.5,-54269.25,46731.04
964094.4449033039,-110268.84,-111398.766,19704.428,-28139.08,8886.394,-50110.68,-54270.227,46721.152
964094.4489033014,-110268.31,-111401.414,19729.736,-28121.299,8887.167,-50108.81,-54272.258,46723.633
964094.4529032989,-110254.16,-111395.836,19763.916,-28102.662,8895.468,-50106.04,-54272.34,46745.04
964094.4569032964,-110251.75,-111393.88,19765.219,-28104.412,8894.328,-50105.51,-54273.113,46750.41
964094.4609032939,-110256.96,-111399.62,19703.29,-28137.656,8884.481,-50108.156,-54274.824,46720.83
964094.4649032913,-110260.99,-111401.01,19684.367,-28150.555,8880.331,-50109.133,-54274.984,46701.62
964094.4689032888,-110258.14,-111396.65,19726.197,-28129.965,8895.183,-50106.69,-54273.234,46720.297
964094.4729032863,-110256.39,-111392.625,19785.238,-28098.715,8911.255,-50106.445,-54275.758,46742.96
964094.4769032839,-110255.45,-111390.18,19805.217,-28095.664,8912.069,-50108.6,-54280.64,46741.54
964094.4809032814,-110262.9,-111396.65,19733.807,-28126.791,8900.473,-50109.336,-54282.92,46715.008
964094.4849032789,-110279.38,-111415.9,19691.285,-28145.834,8887.289,-50108.93,-54283.33,46700.684
964094.4889032764,-110292.93,-111428.47,19724.568,-28129.762,8888.225,-50107.42,-54279.016,46717.938
964094.4929032739,-110269.17,-111394.21,19777.955,-28098.633,8905.111,-50110.637,-54285.035,46731.934
964094.4969032714,-110241.3,-111366.87,19789.348,-28092.693,8911.255,-50112.55,-54289.105,46732.75
964094.5009032689,-110243.37,-111370.65,19724.53,-28124.756,8900.024,-50110.066,-54285.363,46711.184
964094.5049032664,-110244.266,-111362.43,19692.342,-28140.342,8896.118,-50111.777,-54287.52,46688.234
964094.5089032638,-110233.484,-111340.7,19720.541,-28125.57,8908.8545,-50115.234,-54295.82,46687.746
964094.5129032613,-110225.586,-111327.68,19757.121,-28104.004,8924.113,-50118.695,-54301.92,46700.605
964094.5169032589,-110218.8,-111322.8,19759.562,-28093.873,8923.91,-50119.387,-54302.816,46705.04
964094.5209032564,-110221.805,-111318.24,19703.166,-28113.77,8915.771,-50121.055,-54302.168,46693.035
964094.5249032539,-110220.42,-111317.18,19672.607,-28129.07,8908.936,-50123.047,-54304.934,46670.37
964094.5289032514,-110217.45,-111315.8,19721.314,-28110.719,8914.592,-50120.688,-54302.734,46688.723
964094.5329032489,-110214.195,-111311.41,19770.305,-28084.148,8923.584,-50119.062,-54298.953,46722.74
964094.5369032464,-110213.99,-111309.37,19769.328,-28084.434,8924.887,-50115.6,-54292.402,46746.543
964094.5409032439,-110217.57,-111313.805,19710.49,-28119.955,8914.958,-50116.945,-54293.05,46707.684
964094.5449032414,-110223.8,-111324.75,19677.328,-28147.502,8903.564,-50118.574,-54295.004,46677.695
964094.548903239,-110225.38,-111328.984,19710.002,-28126.832,8910.156,-50116.17,-54292.605,46698.934
964094.5529032364,-110221.12,-111322.19,19762.98,-28095.053,8925.578,-50113.65,-54293.703,46720.99
964094.5569032339,-110217.414,-111316.33,19773.682,-28093.506,8927.734,-50113.406,-54294.273,46724.69
964094.5609032314,-110218.95,-111321.375,19734.01,-28120.24,8910.441,-50114.707,-54292.035,46708.62
964094.5649032289,-110224.57,-111326.7,19689.982,-28134.238,8907.39,-50114.383,-54292.523,46687.055
964094.5689032264,-110224.66,-111321.17,19725.098,-28111.533,8918.498,-50114.383,-54296.754,46689.496
964094.5729032239,-110219.28,-111316.0,19772.584,-28093.67,8930.014,-50115.113,-54297.285,46706.91
964094.5769032214,-110215.26,-111315.555,19768.31,-28102.377,8932.536,-50113.61,-54293.703,46721.316
964094.580903219,-110219.04,-111324.266,19716.756,-28128.582,8922.282,-50112.715,-54289.39,46709.84
964094.5849032165,-110231.41,-111340.01,19692.424,-28143.596,8911.255,-50113.61,-54288.78,46696.902
964094.588903214,-110230.96,-111328.086,19734.54,-28116.293,8919.922,-50114.016,-54289.918,46707.52
964094.5929032115,-110220.42,-111321.29,19784.22,-28089.031,8929.77,-50113.566,-54288.496,46731.12
964094.5969032089,-110221.48,-111321.336,19776.855,-28092.002,8926.84,-50113.12,-54286.38,46734.17
964094.6009032064,-110220.83,-111321.86,19717.45,-28118.205,8911.54,-50112.387,-54282.434,46718.465
964094.6049032039,-110229.086,-111333.7,19679.078,-28138.104,8903.442,-50114.707,-54284.344,46695.965
964094.6089032014,-110228.6,-111335.695,19719.361,-28118.652,8910.156,-50117.72,-54289.758,46705.406
964094.6129031989,-110225.55,-111331.83,19766.072,-28094.443,8919.271,-50119.914,-54288.496,46735.35
964094.6169031964,-110223.63,-111328.17,19780.518,-28093.791,8919.271,-50119.957,-54288.82,46737.43
964094.620903194,-110228.36,-111334.19,19718.75,-28127.32,8907.471,-50121.664,-54293.38,46700.36
964094.6249031915,-110236.695,-111343.875,19679.402,-28152.14,8899.862,-50122.64,-54293.664,46689.7
964094.628903189,-110241.945,-111342.86,19702.84,-28145.184,8911.703,-50122.316,-54297.773,46689.047
964094.6329031865,-110238.33,-111335.375,19750.326,-28113.893,8923.462,-50121.22,-54296.715,46719.117
964094.636903184,-110232.14,-111328.82,19765.096,-28098.918,8919.108,-50118.367,-54293.38,46735.35
964094.6409031814,-110234.375,-111331.875,19719.402,-28125.53,8911.743,-50119.344,-54294.273,46699.992
964094.6449031789,-110236.66,-111333.664,19690.838,-28140.26,8914.958,-50118.45,-54289.348,46699.344
964094.6489031764,-110241.055,-111331.79,19737.143,-28120.89,8921.103,-50117.066,-54287.68,46716.555
964094.6529031739,-110229.13,-111325.97,19773.52,-28097.006,8922.485,-50116.54,-54288.37,46735.68
964094.6569031714,-110221.195,-111324.51,19766.643,-28100.465,8922.119,-50113.324,-54283.69,46747.97
964094.660903169,-110226.32,-111322.68,19705.607,-28142.09,8912.517,-50111.98,-54278.402,46734.785
964094.6649031665,-110234.13,-111328.45,19677.45,-28156.82,8907.064,-50113.566,-54279.785,46717.33
964094.668903164,-110234.54,-111333.78,19714.479,-28128.988,8911.621,-50114.79,-54283.53,46718.508
964094.6729031615,-110230.555,-111324.51,19756.512,-28100.342,8931.112,-50114.383,-54288.984,46729.74
964094.676903159,-110228.766,-111323.04,19778.24,-28092.611,8943.93,-50113.65,-54290.0,46740.52
964094.6809031565,-110234.016,-111329.305,19737.793,-28121.176,8922.119,-50116.54,-54294.598,46712.28
964094.6849031539,-110238.08,-111335.25,19696.127,-28139.69,8912.802,-50117.84,-54295.94,46695.926
964094.6889031514,-110236.66,-111334.31,19726.727,-28122.64,8918.905,-50118.652,-54298.098,46699.504
964094.6929031489,-110237.555,-111333.09,19766.033,-28107.666,8919.516,-50117.15,-54296.715,46719.484
964094.6969031465,-110256.92,-111348.27,19784.668,-28108.887,8913.493,-50116.375,-54294.68,46726.2
964094.700903144,-110266.24,-111355.266,19734.457,-28134.604,8906.169,-50115.234,-54291.87,46707.316
964094.7049031415,-110240.89,-111343.63,19709.92,-28141.562,8902.1,-50116.05,-54294.23,46702.477
964094.708903139,-110230.06,-111341.31,19759.033,-28115.44,8908.244,-50117.758,-54297.363,46711.14
964094.7129031365,-110236.66,-111345.7,19790.121,-28095.582,8913.086,-50118.207,-54294.273,46735.15
964094.716903134,-110252.32,-111357.47,19767.701,-28100.303,8911.703,-50116.945,-54288.453,46748.74
964094.7209031315,-110251.305,-111361.53,19710.246,-28135.05,8896.851,-50118.125,-54289.023,46716.637
964094.724903129,-110268.4,-111380.86,19686.646,-28154.95,8890.625,-50119.754,-54291.14,46698.12
964094.7289031264,-110270.67,-111388.02,19732.87,-28123.414,8901.733,-50119.996,-54292.89,46718.305
964094.732903124,-110271.445,-111383.836,19775.879,-28094.035,8910.278,-50118.695,-54293.54,46739.95
964094.7369031215,-110265.38,-111385.586,19770.264,-28098.35,8910.075,-50117.84,-54293.906,46740.234
964094.740903119,-110264.734,-111390.305,19723.268,-28133.953,8894.897,-50117.637,-54292.562,46716.676
964094.7449031165,-110275.68,-111399.87,19689.9,-28161.012,8888.916,-50117.637,-54292.89,46702.395
964094.748903114,-110276.45,-111403.89,19733.44,-28143.475,8894.206,-50116.414,-54294.395,46713.016
964094.7529031115,-110271.65,-111399.58,19788.982,-28110.637,8901.896,-50113.324,-54292.523,46738.363
964094.756903109,-110270.43,-111396.125,19785.197,-28115.684,8896.933,-50112.184,-54291.06,46745.2
964094.7609031065,-110271.37,-111395.35,19728.516,-28138.672,8888.876,-50111.207,-54288.656,46729.656
964094.764903104,-110274.055,-111399.984,19698.486,-28145.59,8883.789,-50111.043,-54289.31,46714.926
964094.7689031016,-110271.445,-111397.95,19736.572,-28120.361,8894.206,-50110.72,-54291.953,46716.637
964094.772903099,-110263.15,-111391.04,19782.146,-28092.002,8911.255,-50108.93,-54289.918,46748.496
964094.7769030965,-110260.625,-111390.38,19785.93,-28096.68,8904.338,-50107.832,-54288.74,46742.8
964094.780903094,-110266.97,-111400.92,19718.262,-28135.459,8896.2,-50111.125,-54294.92,46698.57
964094.7849030915,-110273.93,-111401.414,19692.586,-28152.914,8887.411,-50114.504,-54296.348,46692.63
964094.788903089,-110274.375,-111398.484,19740.113,-28126.018,8893.799,-50112.918,-54293.824,46713.625
964094.7929030865,-110269.414,-111391.766,19780.965,-28100.424,8904.501,-50109.906,-54289.836,46743.816
964094.796903084,-110264.61,-111385.87,19787.354,-28093.262,8901.408,-50107.465,-54282.227,46764.65
964094.8009030815,-110264.61,-111389.81,19736.328,-28118.816,8884.033,-50107.547,-54278.2,46742.188
964094.804903079,-110266.195,-111398.805,19696.574,-28141.277,8865.601,-50108.36,-54278.04,46718.875
964094.8089030766,-110267.13,-111400.03,19725.18,-28129.72,8877.401,-50105.594,-54273.805,46729.492
964094.8129030741,-110266.4,-111396.0,19766.277,-28113.078,8888.916,-50102.785,-54268.395,46751.547
964094.8169030715,-110270.35,-111397.664,19782.227,-28110.23,8891.968,-50102.01,-54264.527,46768.555
964094.820903069,-110274.62,-111402.34,19732.504,-28135.215,8882.528,-50100.87,-54262.047,46751.953
964094.8249030665,-110283.45,-111411.3,19685.873,-28152.752,8876.303,-50100.26,-54264.812,46721.64
964094.828903064,-110282.07,-111411.055,19733.684,-28129.559,8883.261,-50098.96,-54266.32,46734.66
964094.8329030615,-110272.664,-111396.164,19782.309,-28101.807,8888.266,-50097.168,-54266.81,46768.758
964094.836903059,-110274.54,-111393.195,19769.37,-28103.312,8888.103,-50098.797,-54266.44,46772.176
964094.8409030566,-110281.945,-111396.28,19707.887,-28130.982,8880.941,-50099.773,-54266.195,46749.434
964094.8449030541,-110283.86,-111408.25,19677.41,-28150.31,8871.623,-50102.094,-54269.37,46738.363
964094.8489030516,-110279.71,-111411.016,19707.967,-28133.79,8876.872,-50102.824,-54274.7,46740.316
964094.8529030491,-110276.37,-111403.28,19754.354,-28103.68,8896.159,-50101.24,-54276.367,46745.363
964094.8569030466,-110272.22,-111398.69,19762.492,-28104.168,8905.762,-50098.348,-54272.543,46759.766
964094.860903044,-110275.516,-111401.734,19713.014,-28142.986,8896.933,-50097.82,-54268.23,46751.1
964094.8649030415,-110283.66,-111413.58,19671.51,-28172.812,8891.643,-50100.14,-54269.53,46734.863
964094.868903039,-110284.836,-111418.26,19693.97,-28152.02,8890.422,-50101.605,-54276.33,46723.594
964094.8729030365,-110282.96,-111412.805,19753.133,-28114.543,8899.821,-50101.402,-54279.42,46754.477
964094.876903034,-110278.2,-111404.18,19753.662,-28112.957,8901.123,-50101.766,-54281.66,46761.23
964094.8809030316,-110277.06,-111410.16,19705.078,-28143.393,8897.136,-50102.62,-54282.27,46739.83
964094.8849030291,-110280.84,-111412.16,19684.041,-28156.738,8889.364,-50104.047,-54283.9,46722.332
964094.8889030266,-110277.39,-111408.125,19717.123,-28130.371,8897.502,-50104.004,-54286.664,46724.69
964094.8929030241,-110273.93,-111400.03,19761.598,-28106.854,8900.106,-50104.535,-54289.797,46739.83
964094.8969030216,-110276.37,-111399.945,19751.344,-28112.184,8892.416,-50103.926,-54289.676,46746.34
964094.9009030191,-110285.61,-111410.69,19675.13,-28146.12,8884.848,-50104.25,-54291.75,46718.1
964094.9049030165,-110289.96,-111415.45,19638.062,-28160.156,8885.417,-50104.13,-54292.48,46694.258
964094.908903014,-110286.26,-111411.38,19673.87,-28140.545,8891.928,-50105.47,-54294.598,46702.23
964094.9129030115,-110281.25,-111403.52,19719.32,-28119.02,8901.815,-50105.227,-54291.547,46729.574
964094.916903009,-110282.68,-111404.586,19731.08,-28113.69,8911.906,-50102.5,-54287.07,46751.223
964094.9209030066,-110290.81,-111406.414,19680.46,-28142.416,8900.513,-50102.99,-54290.246,46723.836
964094.9249030041,-110282.43,-111402.14,19643.27,-28159.75,8890.91,-50106.0,-54295.207,46699.992
964094.9289030016,-110277.06,-111399.62,19679.525,-28144.166,8896.77,-50107.465,-54297.65,46703.125
964094.9329029991,-110286.79,-111408.33,19724.406,-28129.559,8900.31,-50105.55,-54296.348,46721.395
964094.9369029966,-110292.41,-111414.35,19716.838,-28128.541,8900.432,-50103.273,-54290.855,46740.887
964094.9409029941,-110288.62,-111410.69,19660.686,-28153.32,8892.66,-50103.64,-54291.26,46718.996
964094.9449029916,-110292.61,-111408.45,19632.324,-28170.004,8885.783,-50104.902,-54291.87,46703.816
964094.948902989,-110289.88,-111403.445,19670.777,-28153.443,8892.944,-50104.617,-54294.23,46711.67
964094.9529029866,-110287.31,-111402.02,19728.924,-28120.322,8903.646,-50102.703,-54294.8,46735.066
964094.9569029841,-110290.164,-111397.26,19735.76,-28113.81,8909.709,-50102.824,-54292.97,46745.402
964094.9609029816,-110282.92,-111391.08,19678.264,-28146.973,8898.356,-50102.297,-54287.56,46734.58
964094.9649029791,-110282.84,-111395.555,19647.38,-28167.969,8884.115,-50101.605,-54284.71,46725.586
964094.9689029766,-110286.75,-111400.84,19675.984,-28145.875,8890.341,-50100.996,-54288.617,46724.164
964094.9729029741,-110284.38,-111397.83,19720.418,-28114.828,8898.356,-50101.562,-54292.074,46741.58
964094.9769029716,-110285.52,-111400.68,19733.033,-28113.12,8900.106,-50104.25,-54293.5,46747.4
964094.9809029691,-110289.59,-111408.82,19675.66,-28145.184,8894.775,-50105.47,-54291.18,46732.832
964094.9849029667,-110299.73,-111419.07,19614.34,-28174.154,8884.685,-50107.26,-54292.688,46706.098
964094.9889029642,-110300.46,-111423.055,19652.467,-28155.682,8894.165,-50107.383,-54294.92,46722.656
964094.9929029616,-110289.06,-111410.65,19719.89,-28115.316,8905.966,-50105.023,-54292.074,46751.344
964094.9969029591,-110282.516,-111403.164,19736.98,-28112.957,8912.191,-50104.617,-54290.203,46755.86
964095.0009029566,-110286.83,-111408.82,19683.309,-28146.973,8900.798,-50104.414,-54288.496,46737.184
964095.0049029541,-110288.74,-111408.9,19664.348,-28165.568,8895.305,-50104.086,-54290.12,46721.355
964095.0089029516,-110288.74,-111405.805,19707.684,-28140.219,8898.4375,-50101.402,-54290.324,46734.418
964095.0129029491,-110286.13,-111398.4,19744.629,-28117.107,8909.14,-50100.547,-54293.38,46749.92
964095.0169029466,-110281.664,-111388.8,19726.645,-28119.426,8912.15,-50101.117,-54293.254,46752.32
964095.0209029441,-110290.29,-111399.21,19666.3,-28157.838,8894.206,-50103.8,-54291.18,46736.453
964095.0249029417,-110292.65,-111404.79,19646.81,-28174.277,8884.888,-50105.957,-54296.266,46704.55
964095.0289029392,-110287.93,-111400.44,19699.79,-28149.455,8888.957,-50103.273,-54292.727,46720.5
964095.0329029367,-110279.75,-111389.61,19760.58,-28113.81,8908.041,-50102.01,-54288.37,46742.84
964095.0369029341,-110267.83,-111379.88,19779.908,-28107.992,8910.889,-50100.18,-54284.996,46755.94
964095.0409029316,-110269.53,-111383.016,19720.418,-28142.904,8896.647,-50099.45,-54283.49,46737.145
964095.0449029291,-110281.3,-111396.33,19674.398,-28169.395,8884.074,-50099.0,-54282.84,46718.344
964095.0489029266,-110286.664,-111396.85,19697.633,-28156.414,8890.381,-50100.14,-54284.1,46732.18
964095.0529029241,-110284.1,-111386.516,19744.02,-28125.0,8904.704,-50100.383,-54290.324,46744.387
964095.0569029216,-110279.586,-111381.11,19753.215,-28115.479,8905.314,-50100.586,-54293.99,46744.55
964095.0609029192,-110280.52,-111383.23,19702.719,-28148.846,8892.375,-50101.24,-54292.035,46730.797
964095.0649029167,-110279.18,-111385.586,19678.955,-28161.703,8890.015,-50101.277,-54289.88,46713.582
964095.0689029142,-110277.59,-111384.445,19712.81,-28138.916,8903.728,-50101.766,-54289.797,46736.98
964095.0729029117,-110282.27,-111382.61,19760.945,-28111.125,8906.372,-50100.06,-54290.164,46765.06
964095.0769029092,-110278.41,-111374.68,19772.502,-28108.887,8897.583,-50100.87,-54291.832,46761.23
964095.0809029066,-110270.266,-111374.64,19713.908,-28139.69,8889.567,-50103.72,-54295.777,46720.418
964095.0849029041,-110278.77,-111383.55,19672.69,-28164.756,8878.215,-50105.918,-54298.83,46699.14
964095.0889029016,-110280.93,-111384.36,19711.793,-28149.863,8891.887,-50106.242,-54301.883,46718.465
964095.0929028991,-110276.57,-111382.66,19769.41,-28122.764,8901.408,-50106.242,-54302.734,46747.887
964095.0969028967,-110276.125,-111376.305,19777.67,-28118.979,8891.032,-50105.266,-54301.027,46769.207
964095.1009028942,-110281.74,-111378.55,19694.05,-28154.867,8882.8125,-50106.527,-54303.633,46737.1
964095.1049028917,-110291.71,-111388.23,19647.137,-28182.293,8880.371,-50109.703,-54306.848,46700.523
964095.1089028892,-110290.57,-111386.88,19701.498,-28155.152,8890.747,-50108.48,-54303.996,46719.28
964095.1129028867,-110284.836,-111380.74,19752.605,-28123.088,8903.32,-50106.242,-54302.613,46742.92
964095.1169028842,-110280.32,-111377.41,19763.51,-28119.182,8910.238,-50106.16,-54300.5,46755.332
964095.1209028817,-110280.36,-111380.984,19722.615,-28143.19,8897.949,-50105.797,-54296.55,46756.188
964095.1249028791,-110282.516,-111380.58,19670.533,-28166.668,8885.783,-50107.18,-54299.805,46719.28
964095.1289028766,-110286.95,-111380.414,19704.06,-28149.7,8887.492,-50107.953,-54304.363,46708.457
964095.1329028741,-110282.43,-111375.086,19747.559,-28125.367,8892.131,-50106.285,-54302.53,46741.7
964095.1369028717,-110277.266,-111369.51,19756.918,-28127.605,8899.211,-50106.0,-54298.83,46764.977
964095.1409028692,-110278.04,-111375.164,19705.73,-28158.896,8889.323,-50104.453,-54291.426,46761.64
964095.1449028667,-110279.586,-111379.88,19664.227,-28174.277,8882.976,-50105.88,-54294.598,46725.87
964095.1489028642,-110281.78,-111374.39,19709.799,-28152.752,8892.822,-50107.547,-54302.004,46718.465
964095.1529028617,-110277.06,-111367.92,19783.244,-28114.666,8905.6,-50107.625,-54302.168,46752.727
964095.1569028592,-110272.79,-111361.45,19781.006,-28105.754,8895.427,-50107.586,-54301.8,46764.363
964095.1609028567,-110283.086,-111362.875,19712.443,-28139.69,8876.262,-50109.945,-54302.41,46740.723
964095.1649028542,-110283.86,-111374.64,19665.65,-28164.104,8872.966,-50110.11,-54303.47,46723.594
964095.1689028516,-110283.45,-111381.35,19692.22,-28150.84,8882.162,-50109.785,-54304.242,46725.79
964095.1729028492,-110280.766,-111376.51,19747.559,-28117.025,8899.496,-50109.906,-54303.02,46758.426
964095.1769028467,-110277.305,-111370.57,19755.412,-28117.514,8903.687,-50107.504,-54299.36,46769.168
964095.1809028442,-110279.34,-111377.73,19707.643,-28141.521,8893.474,-50107.91,-54298.26,46740.766
964095.1849028417,-110286.55,-111384.445,19664.186,-28162.518,8885.539,-50110.066,-54298.18,46726.562
964095.1889028392,-110285.12,-111382.86,19712.281,-28141.033,8895.183,-50107.344,-54298.383,46735.19
964095.1929028367,-110276.164,-111368.29,19776.326,-28108.807,8911.54,-50107.016,-54299.887,46757.895
964095.1969028342,-110272.18,-111364.83,19791.586,-28101.768,8905.64,-50105.797,-54297.65,46771.527
964095.2009028317,-110277.836,-111372.44,19726.645,-28138.184,8890.951,-50106.367,-54296.55,46751.26
964095.2049028293,-110285.16,-111381.19,19670.248,-28166.342,8890.219,-50108.113,-54298.625,46728.07
964095.2089028268,-110288.62,-111382.66,19702.678,-28149.375,8896.078,-50107.668,-54299.887,46743.816
964095.2129028242,-110283.77,-111370.53,19754.72,-28122.438,8897.949,-50106.773,-54301.27,46762.574
964095.2169028217,-110278.52,-111367.39,19768.107,-28120.973,8898.275,-50106.445,-54305.137,46748.945
964095.2209028192,-110287.48,-111378.22,19704.998,-28157.797,8883.057,-50106.773,-54302.695,46726.117
964095.2249028167,-110297.0,-111389.49,19661.174,-28187.135,8873.942,-50107.668,-54298.22,46720.34
964095.2289028142,-110297.53,-111395.76,19707.154,-28160.523,8884.399,-50108.277,-54301.434,46727.05
964095.2329028117,-110290.086,-111382.94,19767.742,-28129.355,8896.933,-50108.195,-54302.94,46751.832
964095.2369028092,-110285.41,-111373.74,19795.695,-28127.28,8896.037,-50105.55,-54303.47,46757.773
964095.2409028067,-110289.516,-111376.59,19752.97,-28150.676,8884.155,-50104.332,-54303.633,46733.44
964095.2449028043,-110291.99,-111382.41,19699.91,-28168.213,8871.704,-50104.332,-54303.348,46717.855
964095.2489028018,-110295.414,-111384.28,19718.629,-28153.729,8879.965,-50104.168,-54302.246,46732.91
964095.2529027993,-110291.63,-111377.41,19766.44,-28129.111,8900.065,-50102.62,-54300.5,46760.297
964095.2569027968,-110290.57,-111376.266,19764.568,-28134.93,8898.845,-50103.11,-54300.01,46761.883
964095.2609027942,-110295.54,-111381.88,19723.47,-28160.482,8888.632,-50104.168,-54298.953,46748.17
964095.2649027917,-110299.484,-111385.83,19690.674,-28179.281,8884.277,-50105.31,-54301.11,46722.008
964095.2689027892,-110296.67,-111383.1,19730.062,-28153.281,8890.463,-50105.145,-54302.94,46734.785
964095.2729027867,-110288.17,-111371.22,19785.32,-28115.684,8899.048,-50103.965,-54301.477,46761.56
964095.2769027842,-110282.11,-111368.33,19790.975,-28118.531,8903.524,-50104.13,-54302.94,46769.98
964095.2809027818,-110286.3,-111372.6,19727.254,-28150.27,8888.428,-50105.43,-54304.242,46745.484
964095.2849027793,-110297.33,-111379.07,19662.72,-28179.037,8876.872,-50106.73,-54301.027,46728.438
964095.2889027768,-110291.99,-111379.4,19695.557,-28158.611,8887.248,-50105.023,-54299.6,46741.78
964095.2929027743,-110285.73,-111370.28,19752.97,-28120.402,8901.408,-50103.965,-54305.383,46750.613
964095.2969027718,-110283.695,-111365.73,19768.107,-28114.422,8907.227,-50106.203,-54309.164,46752.566
964095.3009027693,-110287.31,-111370.2,19726.074,-28138.877,8894.287,-50107.992,-54306.562,46736.9
964095.3049027667,-110293.586,-111382.61,19694.295,-28160.564,8882.08,-50108.277,-54308.758,46708.008
964095.3089027642,-110292.195,-111381.35,19725.139,-28142.62,8888.794,-50108.562,-54311.363,46723.918
964095.3129027617,-110285.98,-111368.25,19772.38,-28114.055,8903.198,-50109.297,-54312.258,46746.746
964095.3169027593,-110282.15,-111363.9,19777.67,-28110.19,8902.019,-50105.633,-54308.555,46759.156
964095.3209027568,-110285.32,-111369.266,19727.092,-28139.934,8894.287,-50105.715,-54308.434,46736.816
964095.3249027543,-110296.39,-111382.086,19686.809,-28168.418,8880.656,-50105.67,-54306.64,46719.24
964095.3289027518,-110301.35,-111391.766,19725.586,-28150.473,8885.498,-50105.023,-54304.484,46730.348
964095.3329027493,-110289.88,-111375.29,19778.402,-28119.67,8897.055,-50105.145,-54305.586,46749.473
964095.3369027468,-110276.86,-111362.23,19770.143,-28119.223,8900.92,-50106.895,-54307.414,46755.78
964095.3409027443,-110291.18,-111377.93,19701.945,-28153.402,8887.37,-50108.887,-54309.004,46732.344
964095.3449027418,-110304.94,-111392.664,19676.066,-28173.625,8878.825,-50108.81,-54307.66,46712.89
964095.3489027392,-110305.18,-111390.06,19708.252,-28151.002,8885.051,-50107.504,-54308.8,46724.12
964095.3529027367,-110298.95,-111382.9,19772.46,-28116.293,8899.496,-50104.656,-54308.637,46750.9
964095.3569027343,-110294.03,-111378.38,19786.012,-28108.969,8896.729,-50102.824,-54307.008,46761.152
964095.3609027318,-110298.34,-111384.16,19722.535,-28142.254,8882.08,-50103.844,-54309.043,46734.742
964095.3649027293,-110310.875,-111392.055,19673.422,-28173.91,8870.81,-50106.285,-54310.184,46717.246
964095.3689027268,-110312.016,-111391.12,19693.4,-28164.186,8871.176,-50104.25,-54310.793,46720.055
964095.3729027243,-110307.82,-111385.18,19748.291,-28136.11,8887.573,-50101.562,-54310.67,46736.9
964095.3769027218,-110302.17,-111378.42,19776.611,-28126.262,8898.356,-50100.586,-54307.66,46758.87
964095.3809027193,-110297.734,-111382.29,19725.506,-28155.07,8889.608,-50100.426,-54303.266,46745.04
964095.3849027168,-110304.53,-111387.695,19680.95,-28170.818,8883.301,-50100.87,-54305.22,46720.418
964095.3889027144,-110304.125,-111386.88,19713.867,-28154.176,8894.9795,-50100.508,-54304.566,46741.17
964095.3929027118,-110298.42,-111377.93,19763.266,-28124.879,8902.914,-50100.06,-54307.824,46750.285
964095.3969027093,-110294.56,-111375.414,19766.846,-28122.6,8904.135,-50098.633,-54310.59,46753.094
964095.4009027068,-110299.6,-111375.25,19703.207,-28164.633,8886.475,-50098.555,-54305.46,46741.375
964095.4049027043,-110304.85,-111383.266,19668.54,-28188.438,8873.373,-50098.918,-54301.395,46729.695
964095.4089027018,-110306.52,-111386.4,19702.312,-28161.297,8879.477,-50098.51,-54300.99,46739.746
964095.4129026993,-110303.59,-111384.04,19763.104,-28131.186,8893.759,-50097.293,-54303.02,46749.066
964095.4169026968,-110297.125,-111379.56,19785.441,-28117.432,8898.275,-50097.58,-54307.7,46741.457
964095.4209026943,-110295.9,-111378.586,19722.25,-28146.525,8887.248,-50099.082,-54303.754,46732.79
964095.4249026919,-110302.53,-111383.71,19673.543,-28180.38,8876.587,-50101.645,-54304.566,46713.83
964095.4289026894,-110306.28,-111386.97,19703.41,-28165.936,8887.045,-50100.63,-54302.695,46726.645
964095.4329026869,-110305.42,-111386.07,19748.658,-28141.074,8899.78,-50099.812,-54301.598,46754.68
964095.4369026843,-110303.19,-111381.72,19768.148,-28133.383,8901.611,-50099.734,-54302.453,46762.94
964095.4409026818,-110306.08,-111384.484,19713.258,-28161.256,8891.928,-50099.855,-54301.883,46740.074
964095.4449026793,-110313.195,-111390.67,19666.668,-28187.379,8884.196,-50099.12,-54301.477,46723.066
964095.4489026768,-110309.94,-111385.99,19710.734,-28157.39,8897.827,-50097.82,-54302.656,46739.668
964095.4529026743,-110303.266,-111378.13,19770.06,-28119.914,8908.163,-50097.453,-54305.91,46762.656
964095.4569026718,-110299.03,-111372.03,19760.824,-28119.59,8902.954,-50098.43,-54305.22,46775.473
964095.4609026694,-110309.53,-111379.84,19707.316,-28149.7,8888.388,-50099.812,-54303.67,46756.594
964095.4649026669,-110311.52,-111394.734,19652.182,-28183.432,8879.924,-50100.14,-54304.65,46726.035
964095.4689026644,-110306.64,-111389.2,19693.482,-28167.156,8891.684,-50101.36,-54310.184,46722.58
964095.4729026619,-110302.25,-111378.34,19751.832,-28131.959,8905.192,-50099.69,-54307.617,46756.758
964095.4769026594,-110298.34,-111373.91,19756.592,-28126.709,8911.865,-50097.984,-54302.734,46774.21
964095.4809026568,-110301.27,-111379.03,19705.363,-28155.355,8904.094,-50096.883,-54300.254,46751.426
964095.4849026543,-110305.79,-111392.91,19672.527,-28174.357,8887.736,-50097.74,-54297.49,46737.633
964095.4889026518,-110307.375,-111389.125,19702.922,-28158.0,8890.015,-50098.715,-54300.17,46753.785
964095.4929026493,-110302.375,-111382.125,19772.299,-28126.791,8900.065,-50098.27,-54304.812,46763.51
964095.4969026468,-110301.4,-111383.51,19774.293,-28127.523,8898.071,-50097.008,-54304.812,46760.906
964095.5009026444,-110305.625,-111388.59,19693.482,-28163.574,8892.334,-50097.535,-54300.254,46745.32
964095.5049026419,-110312.5,-111398.69,19654.256,-28185.344,8884.237,-50097.21,-54298.953,46731.367
964095.5089026394,-110315.31,-111399.17,19697.021,-28162.314,8888.591,-50096.723,-54300.457,46743.938
964095.5129026369,-110313.805,-111398.08,19756.756,-28129.191,8899.089,-50094.973,-54298.668,46776.45
964095.5169026344,-110323.57,-111409.55,19768.393,-28125.164,8891.968,-50091.797,-54294.312,46781.78
964095.5209026319,-110327.4,-111406.09,19706.137,-28153.32,8880.819,-50092.977,-54295.535,46750.33
964095.5249026293,-110307.375,-111381.72,19657.879,-28182.455,8888.794,-50096.07,-54299.766,46739.504
964095.5289026268,-110301.96,-111374.72,19699.139,-28163.127,8899.333,-50097.293,-54303.02,46746.258
964095.5329026243,-110284.67,-111360.805,19750.285,-28136.312,8909.872,-50097.86,-54302.816,46764.242
964095.5369026219,-110268.76,-111344.37,19756.062,-28129.883,8914.592,-50098.188,-54304.73,46769.207
964095.5409026194,-110259.85,-111328.21,19722.047,-28154.46,8906.779,-50099.203,-54308.637,46744.266
964095.5449026169,-110260.586,-111327.805,19681.355,-28179.281,8904.948,-50100.465,-54310.996,46714.805
964095.5489026144,-110253.95,-111319.7,19705.525,-28156.576,8914.836,-50100.914,-54312.91,46729.13
964095.5529026119,-110241.945,-111302.125,19759.36,-28120.81,8931.274,-50100.344,-54315.758,46751.344
964095.5569026094,-110236.375,-111294.234,19778.117,-28116.21,8937.46,-50100.14,-54317.59,46755.82
964095.5609026069,-110235.48,-111295.086,19737.508,-28150.229,8917.196,-50100.14,-54317.465,46736.207
964095.5649026044,-110248.664,-111312.09,19693.562,-28171.266,8908.447,-50100.26,-54317.1,46718.184
964095.5689026018,-110248.375,-111316.57,19727.865,-28149.496,8917.318,-50100.18,-54318.08,46731.082
964095.5729025993,-110246.99,-111312.914,19776.408,-28123.82,8925.7,-50099.57,-54317.71,46757.527
964095.5769025969,-110246.625,-111307.414,19787.15,-28126.791,8925.456,-50099.324,-54314.74,46769.043
964095.5809025944,-110250.86,-111311.37,19733.562,-28155.844,8919.067,-50100.26,-54315.066,46750.53
964095.5849025919,-110262.45,-111320.4,19694.662,-28175.293,8910.971,-50100.383,-54313.56,46734.375
964095.5889025894,-110258.18,-111317.43,19731.16,-28149.455,8918.701,-50098.227,-54314.008,46747.4
964095.5929025869,-110250.86,-111312.55,19778.973,-28120.89,8930.217,-50099.246,-54322.023,46751.71
964095.5969025844,-110249.48,-111305.83,19808.39,-28107.91,8935.263,-50098.105,-54320.68,46758.992
964095.6009025819,-110249.39,-111308.44,19767.457,-28135.783,8932.373,-50095.46,-54313.316,46752.645
964095.6049025794,-110254.56,-111317.02,19721.03,-28163.086,8919.312,-50096.07,-54310.547,46743.938
964095.608902577,-110253.95,-111322.15,19757.406,-28145.713,8922.241,-50096.152,-54310.63,46755.574
964095.6129025744,-110251.51,-111316.49,19804.932,-28124.512,8930.705,-50098.145,-54311.77,46767.906
964095.6169025719,-110248.78,-111315.02,19817.18,-28116.943,8934.123,-50097.008,-54311.65,46780.03
964095.6209025694,-110250.66,-111314.17,19763.55,-28142.66,8925.863,-50096.234,-54306.723,46773.4
964095.6249025669,-110263.19,-111325.69,19729.248,-28161.418,8916.626,-50094.605,-54301.92,46761.395
964095.6289025644,-110263.11,-111325.24,19778.158,-28136.11,8927.206,-50092.652,-54302.453,46774.05
964095.6329025619,-110252.32,-111317.305,19832.195,-28107.992,8935.791,-50093.387,-54306.277,46785.81
964095.6369025594,-110250.49,-111314.54,19838.42,-28108.848,8935.71,-50091.31,-54303.508,46801.72
964095.640902557,-110258.875,-111319.016,19771.281,-28145.184,8919.271,-50091.188,-54303.67,46775.676
964095.6449025545,-110260.13,-111329.76,19729.656,-28172.04,8907.471,-50092.652,-54307.984,46741.09
964095.648902552,-110257.41,-111332.6,19776.043,-28147.014,8916.748,-50091.92,-54308.8,46764.934
964095.6529025495,-110248.91,-111317.18,19833.904,-28108.969,8934.286,-50090.7,-54310.06,46786.133
964095.6569025469,-110242.39,-111306.4,19862.184,-28098.797,8937.988,-50090.82,-54309.043,46803.996
964095.6609025444,-110240.36,-111302.58,19823.162,-28123.658,8926.107,-50091.066,-54305.098,46797.812
964095.6649025419,-110248.09,-111310.59,19761.395,-28157.797,8915.324,-50090.66,-54303.145,46775.676
964095.6689025394,-110251.34,-111313.32,19796.51,-28147.217,8920.004,-50090.58,-54303.47,46775.27
964095.6729025369,-110247.6,-111306.805,19854.695,-28118.084,8918.579,-50091.23,-54302.613,46801.516
964095.6769025344,-110242.76,-111302.53,19868.164,-28111.613,8928.874,-50092.207,-54300.99,46814.008
964095.680902532,-110242.15,-111307.87,19809.896,-28141.928,8910.849,-50092.773,-54301.68,46787.76
964095.6849025295,-110247.73,-111318.69,19750.326,-28169.19,8907.227,-50094.81,-54306.277,46751.75
964095.688902527,-110252.89,-111323.734,19768.922,-28151.49,8911.377,-50094.81,-54306.64,46763.47
964095.6929025245,-110253.75,-111319.625,19823.04,-28127.85,8923.544,-50093.223,-54306.64,46793.945
964095.696902522,-110254.68,-111316.695,19840.291,-28125.773,8930.99,-50092.816,-54308.312,46799.316
964095.7009025194,-110260.91,-111319.18,19790.691,-28146.201,8915.527,-50093.305,-54305.625,46786.95
964095.7049025169,-110254.766,-111324.42,19733.113,-28171.672,8909.465,-50092.855,-54302.492,46767.09
964095.7089025144,-110248.375,-111320.64,19764.852,-28153.932,8917.399,-50091.594,-54303.43,46773.4
964095.7129025119,-110244.914,-111315.35,19836.793,-28119.182,8929.443,-50089.355,-54301.395,46803.957
964095.7169025094,-110244.305,-111309.45,19848.47,-28108.195,8934.286,-50088.867,-54300.215,46809.45
964095.720902507,-110242.07,-111310.875,19786.215,-28136.395,8925.903,-50090.617,-54300.945,46787.234
964095.7249025045,-110247.32,-111320.68,19730.55,-28166.424,8920.776,-50092.45,-54300.215,46773.887
964095.728902502,-110251.75,-111316.49,19755.574,-28153.24,8927.043,-50091.84,-54300.09,46785.605
964095.7329024995,-110249.68,-111312.625,19822.592,-28120.2,8937.419,-50089.195,-54299.316,46813.965
964095.736902497,-110243.9,-111305.79,19850.994,-28105.469,8944.336,-50088.176,-54297.895,46823.164
964095.7409024945,-110242.72,-111307.58,19811.28,-28128.947,8935.019,-50088.664,-54296.957,46798.016
964095.7449024919,-110253.99,-111318.98,19774.943,-28148.682,8928.752,-50089.48,-54301.598,46758.26
964095.7489024894,-110271.484,-111334.4,19806.031,-28133.709,8930.054,-50088.543,-54305.504,46765.22
964095.752902487,-110252.41,-111318.32,19854.371,-28109.092,8937.5,-50090.902,-54309.492,46795.086
964095.7569024845,-110225.914,-111295.01,19867.39,-28108.033,8937.297,-50093.223,-54310.426,46793.62
964095.760902482,-110241.58,-111310.02,19815.715,-28140.098,8926.677,-50090.945,-54304.484,46783.082
964095.7649024795,-110261.516,-111331.18,19754.762,-28170.533,8917.399,-50089.766,-54299.156,46769.453
964095.768902477,-110268.92,-111334.03,19790.162,-28154.95,8924.032,-50089.766,-54299.6,46784.793
964095.7729024745,-110261.84,-111326.016,19845.826,-28125.53,8934.774,-50088.625,-54299.684,46812.91
964095.776902472,-110260.5,-111334.68,19855.957,-28118.043,8936.198,-50087.85,-54298.625,46810.02
964095.7809024695,-110259.93,-111341.35,19799.072,-28139.568,8922.567,-50086.223,-54295.207,46786.95
964095.784902467,-110269.29,-111348.02,19748.902,-28171.021,8904.46,-50084.676,-54289.836,46775.88
964095.7889024644,-110280.6,-111357.79,19771.24,-28160.441,8909.75,-50083.293,-54287.844,46788.902
964095.792902462,-110276.984,-111357.016,19822.062,-28133.79,8917.155,-50081.707,-54286.094,46815.555
964095.7969024595,-110276.695,-111354.78,19826.824,-28132.0,8916.83,-50079.184,-54282.88,46821.13
964095.800902457,-110275.96,-111361.984,19769.857,-28160.197,8908.813,-50080.934,-54281.7,46801.68
964095.8049024545,-110295.086,-111381.19,19715.617,-28193.197,8899.496,-50082.074,-54280.355,46782.39
964095.808902452,-110302.78,-111381.92,19736.492,-28181.396,8906.616,-50082.03,-54283.285,46791.63
964095.8129024495,-110295.414,-111376.51,19796.51,-28154.176,8920.37,-50082.93,-54286.867,46814.617
964095.816902447,-110292.24,-111377.52,19822.348,-28134.93,8926.352,-50079.184,-54285.44,46828.94
964095.8209024445,-110290.0,-111378.55,19771.607,-28161.133,8908.447,-50080.406,-54288.008,46805.867
964095.824902442,-110289.8,-111378.016,19734.13,-28184.246,8904.013,-50081.586,-54288.902,46790.164
964095.8289024396,-110292.81,-111376.8,19769.816,-28165.527,8912.802,-50081.055,-54289.43,46801.883
964095.832902437,-110286.75,-111367.03,19818.562,-28135.498,8931.193,-50080.73,-54290.855,46816.773
964095.8369024345,-110279.34,-111357.586,19831.219,-28127.93,8931.845,-50078.086,-54287.56,46822.266
964095.840902432,-110286.79,-111366.3,19762.654,-28170.127,8909.994,-50077.56,-54286.133,46797.934
964095.8449024295,-110299.36,-111378.625,19712.729,-28204.795,8902.954,-50081.258,-54289.918,46771.812
964095.848902427,-110300.664,-111379.03,19757.936,-28182.293,8913.046,-50082.4,-54293.38,46787.844
964095.8529024245,-110285.73,-111362.555,19807.984,-28152.344,8920.98,-50080.527,-54291.3,46817.465
964095.856902422,-110275.96,-111353.64,19825.684,-28137.574,8925.985,-50079.43,-54291.832,46820.19
964095.8609024195,-110277.266,-111363.9,19781.738,-28166.545,8917.236,-50079.43,-54288.293,46809.938
964095.8649024171,-110286.13,-111374.27,19733.195,-28201.58,8903.117,-50079.43,-54283.734,46791.22
964095.8689024146,-110290.164,-111372.32,19757.447,-28183.555,8907.39,-50079.305,-54283.125,46786.46
964095.8729024121,-110287.64,-111372.64,19788.453,-28156.17,8913.29,-50078.25,-54280.152,46808.676
964095.8769024095,-110285.16,-111367.234,19800.213,-28147.666,8914.226,-50076.05,-54277.832,46826.824
964095.880902407,-110288.13,-111369.67,19751.629,-28174.766,8904.257,-50073.527,-54272.87,46818.156
964095.8849024045,-110294.36,-111378.664,19711.59,-28203.613,8889.893,-50072.188,-54270.266,46797.65
964095.888902402,-110296.63,-111377.65,19749.39,-28176.963,8897.055,-50072.31,-54270.67,46808.35
964095.8929023995,-110293.54,-111370.53,19817.383,-28144.207,8908.529,-50070.312,-54270.43,46834.35
964095.896902397,-110287.97,-111363.57,19821.371,-28140.098,8909.546,-50067.586,-54270.793,46841.39
964095.9009023946,-110290.164,-111366.46,19754.68,-28173.707,8897.136,-50068.77,-54272.098,46816.773
964095.9049023921,-110300.17,-111379.97,19688.152,-28208.863,8883.545,-50071.98,-54276.164,46784.383
964095.9089023896,-110302.33,-111383.79,19730.062,-28187.297,8894.572,-50071.82,-54279.95,46795.98
964095.9129023871,-110297.125,-111375.53,19793.865,-28148.275,8915.771,-50071.086,-54281.58,46827.56
964095.9169023846,-110292.61,-111362.875,19813.355,-28133.383,8916.464,-50070.273,-54279.297,46845.867
964095.920902382,-110298.55,-111368.53,19764.73,-28168.986,8901.815,-50069.418,-54276.492,46836.1
964095.9249023795,-110303.914,-111376.18,19703.41,-28200.115,8882.446,-50071.168,-54280.64,46789.836
964095.928902377,-110301.27,-111372.16,19741.049,-28187.541,8877.523,-50072.715,-54289.31,46772.137
964095.9329023745,-110306.84,-111369.1,19792.807,-28164.104,8893.555,-50073.285,-54292.156,46797.12
964095.936902372,-110302.414,-111366.375,19810.67,-28148.479,8903.769,-50072.062,-54285.85,46830.324
964095.9409023696,-110304.53,-111376.836,19767.416,-28174.969,8900.269,-50071.047,-54279.746,46824.383
964095.9449023671,-110316.41,-111392.46,19722.209,-28199.424,8890.991,-50074.992,-54284.953,46785.89
964095.9489023646,-110288.13,-111363.77,19760.254,-28174.398,8908.8955,-50078.492,-54294.273,46781.94
964095.9529023621,-110270.35,-111340.414,19816.61,-28143.516,8926.921,-50078.453,-54298.668,46793.133
964095.9569023596,-110270.836,-111335.695,19820.842,-28140.707,8913.696,-50076.457,-54294.8,46811.08
964095.9609023571,-110269.86,-111337.57,19747.844,-28178.184,8899.374,-50078.207,-54292.24,46796.875
964095.9649023545,-110278.52,-111353.516,19696.656,-28207.113,8889.689,-50080.73,-54291.016,46779.34
964095.968902352,-110275.76,-111351.65,19750.652,-28181.193,8901.408,-50079.59,-54291.18,46793.457
964095.9729023495,-110270.06,-111342.94,19800.863,-28145.225,8916.708,-50080.406,-54291.18,46816.855
964095.976902347,-110268.97,-111340.664,19807.049,-28143.596,8914.551,-50080.16,-54291.504,46820.723
964095.9809023446,-110270.8,-111344.12,19756.023,-28173.463,8901.896,-50079.43,-54288.168,46803.59
964095.9849023421,-110280.56,-111352.7,19703.533,-28205.242,8896.118,-50078.98,-54285.93,46789.31
964095.9889023396,-110280.12,-111353.195,19744.426,-28182.21,8902.304,-50077.07,-54285.523,46806.277
964095.9929023371,-110274.414,-111347.82,19799.316,-28141.44,8907.309,-50075.93,-54284.75,46826.62
964095.9969023346,-110270.19,-111340.87,19824.666,-28141.033,8913.534,-50074.016,-54281.82,46831.18
964096.0009023321,-110274.984,-111348.15,19763.021,-28178.793,8898.071,-50075.074,-54278.65,46814.863
964096.0049023296,-110283.49,-111363.08,19692.139,-28218.223,8878.703,-50078.98,-54280.887,46790.61
964096.008902327,-110288.336,-111365.08,19727.01,-28195.273,8889.445,-50081.18,-54286.62,46802.695
964096.0129023246,-110287.93,-111355.555,19787.436,-28152.955,8905.6,-50078.9,-54286.785,46832.03
964096.0169023221,-110275.19,-111349.33,19802.328,-28146.201,8914.348,-50077.84,-54286.38,46830.566
964096.0209023196,-110277.34,-111350.47,19755.818,-28172.486,8910.563,-50077.598,-54285.44,46806.562
964096.0249023171,-110285.08,-111355.76,19695.68,-28200.318,8898.723,-50076.215,-54284.1,46787.56
964096.0289023146,-110288.984,-111358.28,19728.15,-28186.117,8899.821,-50075.156,-54285.035,46801.312
964096.0329023121,-110283.164,-111349.77,19786.5,-28150.107,8910.522,-50076.54,-54285.24,46825.277
964096.0369023096,-110278.08,-111349.086,19801.637,-28141.318,8911.54,-50078.047,-54288.7,46826.215
964096.0409023071,-110278.69,-111346.68,19751.1,-28172.852,8896.647,-50079.51,-54289.023,46800.703
964096.0449023047,-110288.74,-111358.73,19696.615,-28208.457,8876.465,-50081.79,-54291.14,46773.766
964096.0489023022,-110295.375,-111370.28,19730.957,-28196.25,8886.068,-50083.375,-54294.273,46777.426
964096.0529022996,-110287.07,-111362.96,19800.457,-28158.488,8896.933,-50084.395,-54294.68,46804.73
964096.0569022971,-110283.98,-111355.39,19807.861,-28147.38,8899.455,-50081.668,-54294.64,46809.734
964096.0609022946,-110288.945,-111360.234,19755.574,-28177.695,8886.027,-50081.746,-54292.848,46796.145
964096.0649022921,-110293.586,-111368.25,19714.723,-28205.771,8883.708,-50082.195,-54290.324,46791.26
964096.0689022896,-110288.13,-111366.54,19759.562,-28186.89,8895.915,-50079.836,-54291.426,46798.91
964096.0729022871,-110282.48,-111355.836,19807.252,-28152.182,8904.867,-50078.777,-54292.93,46818.28
964096.0769022846,-110278.2,-111347.01,19807.943,-28147.217,8910.563,-50078.98,-54293.5,46817.87
964096.0809022821,-110280.27,-111350.95,19745.85,-28180.096,8909.14,-50079.145,-54293.703,46787.152
964096.0849022797,-110288.58,-111360.97,19688.273,-28211.102,8891.154,-50079.793,-54292.645,46764.85
964096.0889022772,-110292.65,-111362.8,19735.352,-28187.42,8895.386,-50079.1,-54293.01,46779.785
964096.0929022747,-110295.414,-111355.43,19781.738,-28152.914,8911.377,-50077.35,-54295.492,46800.05
964096.0969022721,-110290.66,-111354.82,19788.006,-28149.578,8911.499,-50076.66,-54295.74,46809.652
964096.1009022696,-110285.484,-111354.54,19739.625,-28172.201,8899.658,-50075.887,-54291.71,46802.207
964096.1049022671,-110289.23,-111355.76,19687.215,-28195.15,8891.235,-50075.97,-54291.426,46777.266
964096.1089022646,-110289.23,-111357.67,19727.295,-28178.955,8894.694,-50076.742,-54293.254,46785.645
964096.1129022621,-110283.9,-111352.95,19781.982,-28152.305,8906.21,-50076.863,-54292.727,46812.38
964096.1169022596,-110283.86,-111354.82,19785.809,-28151.084,8907.39,-50077.395,-54295.492,46799.03
964096.1209022572,-110287.31,-111364.26,19743.45,-28176.514,8899.496,-50078.94,-54296.023,46779.707
964096.1249022547,-110295.375,-111368.01,19680.908,-28203.818,8890.015,-50079.715,-54290.938,46773.64
964096.1289022522,-110296.555,-111373.5,19719.238,-28187.744,8893.2295,-50080.895,-54293.703,46782.39
964096.1329022497,-110290.49,-111365.12,19792.074,-28147.055,8909.058,-50079.59,-54295.086,46806.887
964096.1369022472,-110283.086,-111348.23,19805.502,-28134.93,8917.196,-50078.086,-54296.43,46812.99
964096.1409022446,-110286.91,-111351.36,19741.781,-28171.062,8900.717,-50077.395,-54292.93,46800.09
964096.1449022421,-110294.44,-111361.82,19679.89,-28205.893,8886.435,-50079.875,-54292.645,46780.113
964096.1489022396,-110293.13,-111361.49,19714.885,-28186.076,8889.7705,-50080.324,-54297.285,46780.273
964096.1529022371,-110295.66,-111359.46,19771.729,-28148.967,8906.698,-50080.69,-54300.457,46797.69
964096.1569022347,-110303.555,-111357.99,19791.504,-28138.348,8913.534,-50078.695,-54298.992,46812.664
964096.1609022322,-110300.54,-111354.945,19742.432,-28171.104,8902.304,-50080.527,-54300.5,46792.402
964096.1649022297,-110291.1,-111356.65,19672.363,-28209.025,8888.021,-50081.83,-54297.242,46772.746
964096.1689022272,-110295.21,-111361.78,19703.29,-28199.139,8884.604,-50080.445,-54294.152,46789.105
964096.1729022247,-110285.52,-111355.266,19782.959,-28156.902,8904.379,-50078.086,-54291.87,46820.312
964096.1769022222,-110284.47,-111351.36,19800.252,-28145.225,8914.185,-50077.965,-54290.855,46828.656
964096.1809022197,-110281.21,-111350.63,19723.877,-28172.893,8907.1045,-50078.535,-54289.51,46810.914
964096.1849022171,-110285.2,-111359.17,19678.467,-28199.26,8893.799,-50079.633,-54291.504,46786.785
964096.1889022146,-110286.42,-111357.836,19715.414,-28180.87,8902.019,-50081.137,-54296.633,46791.953
964096.1929022121,-110280.36,-111349.66,19774.496,-28149.658,8916.464,-50080.934,-54294.64,46820.844
964096.1969022097,-110279.55,-111347.01,19782.715,-28146.852,8914.389,-50079.875,-54291.992,46825.848
964096.2009022072,-110282.64,-111355.67,19721.639,-28183.758,8902.182,-50081.543,-54294.027,46799.97
964096.2049022047,-110287.234,-111365.484,19673.584,-28209.473,8893.2295,-50081.87,-54293.62,46786.297
964096.2089022022,-110285.0,-111360.72,19713.582,-28190.35,8899.902,-50081.098,-54295.695,46796.184
964096.2129021997,-110280.89,-111352.42,19779.582,-28158.53,8914.348,-50078.98,-54296.918,46814.414
964096.2169021972,-110279.22,-111342.62,19807.455,-28144.41,8914.917,-50075.562,-54294.477,46834.598
964096.2209021947,-110284.305,-111343.914,19752.523,-28168.174,8906.982,-50075.44,-54295.25,46799.277
964096.2249021922,-110282.48,-111351.2,19687.135,-28196.615,8898.56,-50076.375,-54295.13,46768.23
964096.2289021896,-110276.66,-111346.93,19717.164,-28181.479,8901.693,-50076.906,-54295.617,46784.87
964096.2329021872,-110280.56,-111349.29,19772.055,-28162.762,8909.628,-50078.086,-54294.92,46817.547
964096.2369021847,-110278.98,-111347.54,19794.354,-28152.588,8914.836,-50076.742,-54293.906,46835.246
964096.2409021822,-110279.26,-111348.19,19761.271,-28176.025,8905.192,-50076.54,-54298.383,46792.523
964096.2449021797,-110285.65,-111358.195,19701.254,-28206.625,8892.985,-50077.07,-54299.035,46762.332
964096.2489021772,-110286.42,-111358.93,19724.977,-28185.955,8900.513,-50077.516,-54300.09,46781.863
964096.2529021747,-110280.4,-111350.914,19785.889,-28152.14,8915.854,-50079.305,-54303.508,46798.75
964096.2569021722,-110274.3,-111343.14,19800.701,-28144.898,8920.126,-50080.977,-54304.363,46807.21
964096.2609021697,-110279.79,-111346.4,19750.326,-28172.975,8910.686,-50081.586,-54303.875,46786.01
964096.2649021673,-110284.06,-111352.22,19701.62,-28202.8,8894.206,-50082.6,-54303.67,46757.406
964096.2689021648,-110287.16,-111353.88,19724.854,-28186.28,8900.676,-50082.848,-54305.016,46772.586
964096.2729021622,-110282.76,-111351.81,19779.42,-28159.262,8912.231,-50079.1,-54303.348,46802.125
964096.2769021597,-110279.625,-111351.2,19802.693,-28151.246,8918.62,-50076.133,-54299.805,46820.273
964096.2809021572,-110283.77,-111355.555,19741.13,-28185.182,8901.083,-50075.97,-54294.598,46809.855
964096.2849021547,-110293.13,-111370.32,19663.86,-28224.65,8880.127,-50075.727,-54291.832,46784.465
964096.2889021522,-110294.68,-111372.766,19704.225,-28202.557,8892.375,-50076.66,-54296.918,46791.22
964096.2929021497,-110293.74,-111364.95,19773.031,-28159.668,8913.534,-50077.883,-54306.195,46799.36
964096.2969021472,-110280.89,-111357.95,19793.621,-28148.072,8922.241,-50077.15,-54310.754,46804.2
964096.3009021448,-110275.92,-111358.32,19746.217,-28174.602,8907.878,-50077.8,-54307.17,46794.395
964096.3049021423,-110282.59,-111363.37,19685.385,-28205.934,8895.712,-50078.86,-54303.918,46769.94
964096.3089021398,-110282.68,-111362.35,19718.182,-28191.691,8905.884,-50078.004,-54303.754,46771.85
964096.3129021373,-110278.94,-111354.21,19765.545,-28161.906,8912.517,-50075.32,-54300.945,46803.836
964096.3169021347,-110277.47,-111352.7,19767.537,-28161.621,8910.767,-50072.918,-54295.82,46824.42
964096.3209021322,-110280.12,-111352.586,19719.809,-28190.105,8903.076,-50073.69,-54289.55,46815.594
964096.3249021297,-110284.95,-111359.13,19661.336,-28216.188,8892.375,-50074.26,-54289.062,46789.31
964096.3289021272,-110286.22,-111360.07,19707.316,-28192.547,8896.444,-50074.91,-54298.18,46770.55
964096.3329021247,-110281.414,-111355.15,19771.2,-28155.193,8909.79,-50075.44,-54305.87,46789.473
964096.3369021222,-110275.11,-111348.96,19782.715,-28148.072,8916.22,-50078.33,-54311.688,46797.773
964096.3409021198,-110279.75,-111352.5,19717.57,-28179.24,8902.548,-50080.812,-54313.438,46774.58
964096.3449021173,-110287.93,-111360.31,19644.451,-28223.43,8892.05,-50083.496,-54316.043,46748.13
964096.3489021148,-110292.445,-111364.18,19672.975,-28209.514,8901.733,-50084.27,-54315.88,46767.703
964096.3529021123,-110290.24,-111357.79,19731.486,-28173.91,8917.114,-50084.188,-54314.78,46799.93
964096.3569021098,-110290.04,-111352.74,19746.867,-28164.633,8917.155,-50084.598,-54314.414,46805.3
964096.3609021072,-110282.72,-111360.15,19707.031,-28191.447,8905.192,-50084.027,-54312.707,46771.77
964096.3649021047,-110289.555,-111371.914,19641.236,-28216.797,8901.733,-50084.395,-54311.363,46744.508
964096.3689021022,-110292.73,-111369.59,19659.912,-28201.295,8898.275,-50082.684,-54309.082,46758.383
964096.3729020997,-110293.46,-111365.195,19705.648,-28179.24,8904.704,-50080.0,-54307.7,46783.203
964096.3769020973,-110296.8,-111367.234,19701.824,-28180.217,8904.582,-50077.92,-54302.94,46793.5
964096.3809020948,-110300.01,-111371.586,19646.281,-28205.12,8896.2,-50078.613,-54300.742,46776.082
964096.3849020923,-110303.1,-111371.09,19598.43,-28226.074,8895.996,-50078.33,-54301.72,46743.9
964096.3889020898,-110298.016,-111368.58,19634.725,-28209.31,8903.28,-50077.883,-54302.9,46758.547
964096.3929020873,-110292.65,-111360.44,19686.2,-28178.223,8912.761,-50077.965,-54301.477,46790.242
964096.3969020848,-110294.766,-111356.98,19689.941,-28177.246,8911.825,-50079.062,-54302.86,46787.355
964096.4009020823,-110301.96,-111366.945,19623.332,-28218.67,8900.676,-50080.242,-54303.633,46755.94
964096.4049020797,-110310.63,-111378.664,19573.04,-28251.547,8885.051,-50079.633,-54299.887,46739.625
964096.4089020772,-110311.04,-111375.695,19605.633,-28231.65,8889.404,-50079.023,-54300.17,46752.32
964096.4129020747,-110304.65,-111365.44,19667.807,-28194.906,8905.6,-50076.05,-54297.57,46786.543
964096.4169020723,-110297.61,-111354.86,19683.35,-28181.52,8913.249,-50073.61,-54295.617,46797.934
964096.4209020698,-110302.375,-111359.3,19635.58,-28213.055,8896.933,-50074.26,-54297.406,46760.176
964096.4249020673,-110313.03,-111372.16,19572.592,-28253.053,8871.338,-50076.336,-54300.5,46727.95
964096.4289020648,-110310.875,-111379.234,19576.783,-28247.438,8879.843,-50079.062,-54305.22,46739.34
964096.4329020623,-110307.7,-111374.84,19636.557,-28204.795,8905.273,-50079.875,-54309.164,46765.953
964096.4369020598,-110300.09,-111367.88,19676.148,-28183.35,8914.226,-50079.062,-54311.81,46765.137
964096.4409020573,-110301.76,-111369.59,19623.455,-28207.643,8903.32,-50078.695,-54309.695,46746.664
964096.4449020548,-110306.97,-111376.71,19580.445,-28234.498,8891.032,-50079.43,-54306.234,46726.848
964096.4489020522,-110309.33,-111382.86,19609.54,-28213.664,8887.167,-50077.395,-54301.84,46744.875
964096.4529020498,-110307.54,-111376.63,19661.377,-28176.758,8899.577,-50074.63,-54298.18,46778.688
964096.4569020473,-110304.98,-111373.58,19685.75,-28166.992,8903.972,-50072.31,-54292.277,46802.246
964096.4609020448,-110295.984,-111371.016,19643.393,-28198.406,8899.292,-50073.285,-54289.348,46795.086
964096.4649020423,-110300.26,-111371.26,19607.707,-28223.105,8893.352,-50074.22,-54288.984,46776.98
964096.4689020398,-110302.58,-111371.22,19645.834,-28211.346,8903.85,-50074.87,-54292.848,46776.29
964096.4729020373,-110294.36,-111361.984,19723.023,-28174.398,8918.701,-50075.32,-54297.57,46801.11
964096.4769020348,-110293.42,-111359.055,19735.678,-28164.062,8924.4795,-50076.62,-54298.586,46813.52
964096.4809020323,-110293.625,-111360.64,19679.525,-28193.645,8917.44,-50077.8,-54296.105,46792.766
964096.4849020299,-110300.74,-111368.984,19627.4,-28217.855,8907.634,-50077.76,-54293.254,46769.574
964096.4889020274,-110303.39,-111373.78,19665.162,-28202.354,8916.057,-50077.883,-54293.336,46773.152
964096.4929020248,-110297.734,-111360.234,19720.297,-28170.818,8920.288,-50076.945,-54296.836,46797.324
964096.4969020223,-110300.336,-111353.64,19740.887,-28158.408,8914.348,-50075.766,-54298.22,46815.35
964096.5009020198,-110289.06,-111354.13,19694.783,-28185.547,8913.696,-50075.24,-54300.703,46796.715
964096.5049020173,-110292.97,-111361.01,19633.098,-28215.293,8914.226,-50075.277,-54300.336,46768.35
964096.5089020148,-110294.48,-111364.99,19678.67,-28197.674,8914.836,-50073.773,-54297.977,46787.07
964096.5129020123,-110287.03,-111355.02,19759.277,-28157.92,8926.636,-50071.574,-54296.387,46820.312
964096.5169020098,-110283.29,-111353.4,19784.791,-28147.422,8935.425,-50069.297,-54293.945,46833.66
964096.5209020074,-110289.06,-111362.8,19726.197,-28185.059,8915.649,-50070.68,-54293.05,46810.63
964096.5249020049,-110296.06,-111371.625,19681.844,-28209.88,8908.529,-50071.74,-54295.41,46784.668
964096.5289020024,-110297.53,-111367.805,19733.48,-28187.42,8916.179,-50072.88,-54298.707,46799.36
964096.5329019999,-110293.26,-111361.984,19799.398,-28148.275,8923.462,-50071.902,-54299.36,46832.645
964096.5369019973,-110287.88,-111353.4,19825.848,-28128.297,8926.88,-50072.43,-54298.91,46854.37
964096.5409019948,-110287.766,-111348.76,19785.32,-28159.709,8921.428,-50072.836,-54299.48,46821.535
964096.5449019923,-110291.55,-111351.16,19729.451,-28194.824,8904.46,-50070.844,-54296.836,46794.68
964096.5489019898,-110289.39,-111353.03,19753.5,-28180.014,8904.135,-50070.883,-54293.867,46815.51
964096.5529019873,-110284.59,-111352.016,19814.209,-28152.182,8913.29,-50070.234,-54289.51,46850.547
964096.5569019848,-110284.59,-111350.06,19851.238,-28137.695,8921.631,-50069.46,-54287.11,46865.03
964096.5609019824,-110282.02,-111349.86,19814.006,-28160.076,8910.645,-50071.004,-54285.08,46853.312
964096.5649019799,-110287.97,-111356.65,19763.592,-28193.32,8899.414,-50071.492,-54286.664,46826.824
964096.5689019774,-110292.65,-111358.93,19791.18,-28183.229,8909.058,-50072.348,-54293.703,46824.22
964096.5729019749,-110290.49,-111357.99,19850.994,-28148.234,8920.695,-50071.7,-54294.68,46852.664
964096.5769019724,-110283.57,-111348.88,19887.615,-28126.791,8925.944,-50071.74,-54293.785,46866.457
964096.5809019698,-110283.37,-111346.68,19847.82,-28157.268,8909.75,-50072.39,-54292.402,46850.426
964096.5849019673,-110296.39,-111360.35,19781.82,-28195.15,8901.123,-50071.168,-54287.477,46830.406
964096.5889019648,-110299.65,-111369.43,19782.47,-28189.861,8905.559,-50071.37,-54289.188,46832.684
964096.5929019623,-110287.97,-111364.016,19823.162,-28169.068,8914.022,-50072.145,-54294.8,46837.28
964096.5969019599,-110287.36,-111356.49,19835.49,-28160.035,8922.119,-50072.43,-54295.695,46841.15
964096.6009019574,-110294.84,-111361.25,19764.363,-28186.035,8912.72,-50070.883,-54292.605,46824.016
964096.6049019549,-110302.94,-111370.77,19696.004,-28223.838,8896.118,-50069.418,-54292.402,46786.746
964096.6089019524,-110307.17,-111374.19,19718.465,-28208.293,8895.996,-50070.355,-54296.31,46782.227
964096.6129019499,-110299.32,-111366.46,19778.564,-28173.178,8908.081,-50069.46,-54294.23,46816.45
964096.6169019474,-110297.0,-111359.83,19791.057,-28164.592,8909.587,-50067.223,-54287.68,46836.71
964096.6209019449,-110300.664,-111363.2,19724.854,-28197.836,8896.933,-50068.605,-54286.867,46814.13
964096.6249019423,-110305.34,-111375.29,19671.469,-28230.877,8886.027,-50069.824,-54287.883,46791.707
964096.6289019398,-110306.73,-111381.68,19695.15,-28216.758,8897.461,-50071.777,-54296.957,46773.438
964096.6329019374,-110299.805,-111370.41,19750.326,-28177.857,8917.888,-50071.656,-54297.773,46796.633
964096.6369019349,-110289.59,-111361.62,19761.557,-28169.395,8918.986,-50071.656,-54295.41,46809.043
964096.6409019324,-110292.195,-111369.71,19689.982,-28203.818,8906.698,-50070.312,-54292.074,46795.086
964096.6449019299,-110300.91,-111382.9,19642.375,-28231.975,8896.078,-50071.98,-54292.848,46774.617
964096.6489019274,-110299.445,-111382.94,19682.252,-28216.514,8904.907,-50074.707,-54297.0,46780.926
964096.6529019249,-110294.516,-111370.24,19741.984,-28177.775,8915.731,-50074.75,-54296.715,46811.2
964096.6569019224,-110290.0,-111361.086,19761.8,-28157.92,8924.398,-50075.645,-54296.47,46828.37
964096.6609019199,-110298.38,-111364.22,19717.205,-28186.564,8910.889,-50076.863,-54300.09,46793.66
964096.6649019175,-110304.53,-111375.25,19661.703,-28222.697,8892.66,-50076.66,-54299.36,46768.72
964096.6689019148,-110301.4,-111385.055,19691.326,-28210.49,8893.515,-50075.156,-54297.57,46784.914
964096.6729019124,-110301.44,-111379.16,19734.334,-28183.838,8905.07,-50073.69,-54296.387,46809.207
964096.6769019099,-110300.54,-111371.34,19739.055,-28176.148,8905.559,-50073.324,-54293.906,46822.918
964096.6809019074,-110300.5,-111372.07,19704.957,-28202.068,8897.421,-50072.105,-54286.582,46814.047
964096.6849019049,-110308.31,-111378.664,19646.363,-28241.578,8886.271,-50072.51,-54282.434,46793.297
964096.6889019024,-110307.87,-111377.81,19682.576,-28223.023,8895.508,-50073.082,-54286.62,46798.22
964096.6929018999,-110303.8,-111368.984,19756.104,-28172.73,8912.395,-50072.797,-54290.12,46827.598
964096.6969018974,-110296.06,-111358.52,19781.414,-28157.594,8913.778,-50074.016,-54295.535,46821.902
964096.700901895,-110299.16,-111360.516,19722.209,-28189.373,8891.806,-50073.773,-54294.19,46795.492
964096.7049018925,-110301.195,-111369.67,19653.117,-28223.797,8876.303,-50072.715,-54290.324,46771.61
964096.70890189,-110303.96,-111374.76,19676.148,-28218.75,8873.129,-50071.656,-54288.617,46787.11
964096.7129018874,-110304.04,-111369.06,19749.39,-28181.113,8896.811,-50070.844,-54290.12,46814.332
964096.7169018849,-110294.44,-111363.41,19787.72,-28163.615,8909.384,-50070.438,-54290.61,46826.094
964096.7209018824,-110300.26,-111361.45,19742.879,-28192.22,8903.483,-50068.605,-54288.617,46808.027
964096.7249018799,-110311.0,-111369.51,19692.871,-28220.176,8891.928,-50070.027,-54290.527,46784.793
964096.7289018774,-110304.61,-111365.234,19719.076,-28203.777,8888.306,-50070.965,-54290.895,46799.074
964096.7329018749,-110292.93,-111354.05,19772.096,-28169.312,8903.483,-50071.168,-54293.254,46819.5
964096.7369018724,-110289.68,-111351.04,19790.365,-28157.797,8911.011,-50070.027,-54294.516,46822.023
964096.74090187,-110296.516,-111350.586,19739.828,-28191.162,8897.014,-50071.25,-54291.547,46811.24
964096.7449018675,-110303.1,-111356.37,19689.291,-28224.488,8891.439,-50073.12,-54293.05,46778.934
964096.748901865,-110295.58,-111357.266,19725.018,-28209.922,8896.525,-50074.22,-54298.668,46779.297
964096.7529018625,-110289.15,-111352.586,19779.135,-28175.66,8899.78,-50074.465,-54300.58,46814.09
964096.7569018599,-110291.875,-111350.914,19798.748,-28166.953,8901.855,-50074.79,-54298.625,46822.55
964096.7609018574,-110295.86,-111351.69,19748.658,-28193.848,8901.489,-50075.48,-54296.348,46815.35
964096.7649018549,-110301.88,-111360.97,19677.246,-28225.586,8891.928,-50076.785,-54297.04,46795.207
964096.7689018524,-110300.336,-111353.84,19720.662,-28211.305,8896.24,-50077.273,-54299.44,46788.82
964096.7729018499,-110295.78,-111340.375,19796.916,-28171.348,8912.558,-50075.035,-54300.17,46811.08
964096.7769018475,-110289.63,-111333.5,19821.412,-28154.785,8914.429,-50071.492,-54296.957,46834.84
964096.780901845,-110289.88,-111339.766,19760.174,-28189.373,8899.089,-50074.18,-54296.47,46814.25
964096.7849018425,-110296.31,-111347.01,19692.627,-28229.98,8883.139,-50078.74,-54299.6,46787.68
964096.78890184,-110303.266,-111353.97,19706.951,-28224.0,8881.47,-50080.73,-54307.254,46782.188
964096.7929018375,-110298.71,-111352.336,19780.438,-28182.21,8898.112,-50080.812,-54314.047,46801.68
964096.796901835,-110298.22,-111348.76,19818.562,-28167.236,8905.151,-50080.61,-54312.5,46829.55
964096.8009018324,-110301.805,-111352.3,19776.164,-28198.324,8899.008,-50079.59,-54310.59,46800.703
964096.8049018299,-110308.92,-111359.016,19721.68,-28222.412,8894.775,-50078.74,-54308.35,46776.164
964096.8089018274,-110312.22,-111360.516,19742.27,-28204.51,8905.233,-50077.68,-54307.824,46781.293
964096.812901825,-110295.74,-111348.76,19805.543,-28166.748,8916.626,-50075.074,-54303.062,46814.293
964096.8169018225,-110288.29,-111343.55,19820.477,-28158.244,8913.615,-50072.676,-54299.113,46831.098
964096.82090182,-110293.625,-111350.75,19752.85,-28197.998,8897.746,-50074.18,-54298.34,46813.19
964096.8249018175,-110302.66,-111360.64,19698.406,-28229.412,8884.521,-50075.645,-54297.49,46793.785
964096.828901815,-110303.71,-111361.01,19718.018,-28212.402,8890.219,-50076.703,-54299.156,46797.85
964096.8329018125,-110297.81,-111361.86,19778.809,-28174.44,8902.1,-50077.35,-54303.223,46819.95
964096.83690181,-110289.63,-111351.24,19828.857,-28150.188,8916.911,-50076.906,-54307.21,46821.82
964096.8409018075,-110288.336,-111343.06,19790.73,-28179.078,8907.837,-50076.742,-54302.125,46812.91
964096.8449018049,-110291.305,-111346.88,19731.365,-28214.275,8896.811,-50075.36,-54297.406,46793.99
964096.8489018024,-110291.016,-111342.695,19759.969,-28199.707,8904.541,-50075.766,-54297.363,46803.754
964096.8529018,-110281.375,-111334.4,19830.77,-28166.139,8916.179,-50073.69,-54294.395,46844.523
964096.8569017975,-110273.6,-111329.59,19859.13,-28152.955,8922.079,-50073.164,-54296.633,46854.25
964096.860901795,-110274.83,-111332.766,19805.828,-28180.625,8910.075,-50074.14,-54297.57,46832.234
964096.8649017925,-110281.58,-111340.984,19747.07,-28213.46,8896.647,-50074.26,-54296.918,46803.67
964096.86890179,-110282.35,-111342.734,19768.555,-28203.492,8905.07,-50074.383,-54299.156,46806.355
964096.8729017875,-110275.84,-111332.766,19830.242,-28167.197,8917.277,-50074.06,-54300.293,46835.45
964096.876901785,-110273.4,-111330.695,19851.562,-28155.193,8923.584,-50075.035,-54301.27,46847.86
964096.8809017825,-110276.45,-111341.72,19810.629,-28189.658,8903.036,-50076.457,-54297.69,46832.113
964096.88490178,-110299.12,-111368.78,19750.53,-28222.697,8881.958,-50076.133,-54294.477,46811.85
964096.8889017774,-110305.42,-111363.2,19783.285,-28205.445,8894.043,-50077.76,-54297.242,46820.76
964096.892901775,-110273.89,-111318.24,19852.215,-28160.97,8923.95,-50083.863,-54306.723,46834.84
964096.8969017725,-110251.18,-111300.7,19868.164,-28145.834,8932.414,-50086.55,-54311.484,46836.184
964096.90090177,-110243.21,-111296.43,19832.316,-28166.871,8916.911,-50082.766,-54307.008,46822.633
964096.9049017675,-110239.1,-111291.875,19778.809,-28193.441,8904.745,-50081.098,-54301.637,46804.566
964096.908901765,-110239.1,-111292.445,19805.258,-28181.316,8908.407,-50080.242,-54300.863,46814.047
964096.9129017625,-110233.73,-111280.36,19864.46,-28152.02,8923.056,-50080.242,-54303.754,46835.98
964096.91690176,-110225.95,-111269.45,19889.04,-28143.027,8929.932,-50083.09,-54307.617,46843.67
964096.9209017575,-110223.27,-111270.59,19860.352,-28165.895,8921.631,-50083.742,-54308.473,46823.61
964096.9249017551,-110224.37,-111271.0,19803.182,-28194.947,8908.447,-50083.375,-54307.58,46798.83
964096.9289017526,-110226.24,-111271.28,19830.566,-28182.455,8917.399,-50083.863,-54310.996,46803.426
964096.93290175,-110226.04,-111267.375,19906.78,-28140.422,8934.082,-50081.504,-54312.42,46832.234
964096.9369017475,-110223.07,-111262.375,19934.855,-28123.047,8938.3545,-50080.69,-54311.89,46850.63
964096.940901745,-110227.09,-111268.97,19887.86,-28152.508,8925.131,-50081.055,-54308.84,46833.7
964096.9449017425,-110234.664,-111277.71,19825.766,-28186.402,8911.093,-50080.85,-54304.73,46810.305
964096.94890174,-110241.58,-111284.59,19840.658,-28180.38,8909.221,-50080.12,-54303.02,46819.62
964096.9529017375,-110237.06,-111280.44,19918.336,-28146.81,8918.091,-50079.67,-54305.098,46853.19
964096.956901735,-110235.27,-111272.34,19959.393,-28128.012,8925.009,-50078.41,-54305.79,46863.61
964096.9609017326,-110233.28,-111276.695,19891.398,-28166.3,8915.446,-50078.695,-54304.934,46836.71
964096.9649017301,-110231.164,-111278.164,19830.934,-28200.36,8912.964,-50079.227,-54302.043,46817.383
964096.9689017276,-110234.46,-111278.81,19855.713,-28179.77,8918.661,-50077.598,-54298.79,46834.188
964096.9729017251,-110226.89,-111271.2,19913.25,-28138.184,8927.165,-50077.477,-54298.953,46864.504
964096.9769017225,-110218.266,-111267.17,19936.238,-28125.53,8931.519,-50078.94,-54300.375,46871.664
964096.98090172,-110223.63,-111263.72,19878.012,-28155.396,8922.893,-50081.22,-54300.99,46845.34
964096.9849017175,-110232.99,-111273.44,19814.291,-28190.674,8911.377,-50083.7,-54300.78,46817.793
964096.988901715,-110239.75,-111282.19,19830.975,-28186.484,8911.703,-50086.266,-54303.754,46820.355
964096.9929017125,-110242.555,-111281.3,19881.104,-28160.117,8928.142,-50088.258,-54304.16,46846.68
964096.99690171,-110242.15,-111279.87,19903.484,-28141.846,8930.99,-50088.094,-54305.137,46849.773
964097.0009017076,-110244.59,-111287.6,19838.99,-28169.434,8916.016,-50085.695,-54302.086,46833.984
964097.0049017051,-110249.27,-111290.77,19776.775,-28209.31,8900.961,-50083.78,-54300.5,46815.227
964097.0089017026,-110251.95,-111288.05,19805.055,-28193.197,8913.33,-50083.496,-54305.098,46814.902
964097.0129017001,-110251.75,-111286.09,19867.188,-28153.809,8924.5205,-50081.137,-54307.66,46836.63
964097.0169016976,-110257.04,-111284.34,19887.736,-28146.078,8924.602,-50081.016,-54310.59,46839.97
964097.020901695,-110250.37,-111289.48,19829.184,-28181.396,8909.994,-50084.066,-54312.01,46818.156
964097.0249016925,-110260.336,-111297.98,19746.664,-28226.93,8891.073,-50087.16,-54313.926,46791.426
964097.02890169,-110266.85,-111302.695,19761.883,-28211.63,8899.048,-50086.348,-54317.26,46788.777
964097.0329016875,-110260.055,-111296.35,19844.523,-28165.61,8917.48,-50084.11,-54314.66,46823.49
964097.0369016851,-110253.664,-111287.195,19887.654,-28148.072,8922.852,-50081.055,-54307.824,46848.88
964097.0409016826,-110256.15,-111288.86,19834.432,-28176.27,8914.999,-50078.37,-54300.09,46843.75
964097.0449016801,-110263.31,-111300.42,19766.521,-28212.484,8904.663,-50077.312,-54296.227,46820.965
964097.0489016776,-110268.64,-111301.88,19775.188,-28199.545,8902.67,-50076.05,-54296.836,46810.47
964097.0529016751,-110262.45,-111295.74,19833.74,-28165.121,8911.215,-50075.32,-54298.79,46817.26
964097.0569016726,-110258.34,-111285.57,19855.266,-28161.094,8912.272,-50074.383,-54296.31,46835.695
964097.0609016701,-110262.13,-111287.07,19816.61,-28187.217,8905.681,-50074.87,-54295.453,46823.934
964097.0649016675,-110264.04,-111293.38,19762.533,-28214.6,8897.177,-50077.883,-54299.36,46791.87
964097.068901665,-110263.516,-111296.23,19777.426,-28197.795,8904.948,-50078.535,-54301.35,46796.1
964097.0729016626,-110253.75,-111293.26,19858.113,-28148.682,8926.352,-50077.598,-54298.87,46833.008
964097.0769016601,-110245.24,-111279.625,19885.662,-28134.482,8936.32,-50075.44,-54295.41,46848.797
964097.0809016576,-110246.664,-111280.234,19826.863,-28171.225,8920.004,-50076.375,-54293.297,46821.332
964097.0849016551,-110253.22,-111288.5,19770.428,-28210.205,8901.449,-50078.125,-54290.734,46801.92
964097.0889016526,-110255.086,-111288.82,19791.504,-28195.312,8903.605,-50078.94,-54291.14,46814.94
964097.0929016501,-110248.17,-111279.95,19856.08,-28161.459,8920.532,-50078.37,-54293.254,46843.387
964097.0969016476,-110242.555,-111274.09,19876.22,-28147.014,8925.7,-50079.715,-54293.38,46849.53
964097.1009016451,-110243.49,-111276.695,19820.027,-28176.719,8916.87,-50082.234,-54293.38,46829.387
964097.1049016427,-110250.164,-111286.016,19748.78,-28211.63,8905.478,-50083.945,-54292.848,46804.85
964097.10890164,-110262.82,-111296.19,19759.48,-28210.41,8903.524,-50085.043,-54294.92,46805.42
964097.1129016376,-110262.336,-111296.23,19813.559,-28176.393,8920.532,-50082.645,-54295.82,46832.562
964097.1169016351,-110265.51,-111300.5,19836.549,-28155.396,8925.822,-50080.12,-54293.824,46845.418
964097.1209016326,-110279.38,-111311.57,19788.9,-28183.635,8911.133,-50079.43,-54290.855,46814.984
964097.1249016301,-110255.45,-111299.32,19750.244,-28206.26,8906.779,-50082.562,-54293.99,46786.62
964097.1289016276,-110240.16,-111290.086,19784.75,-28189.82,8922.079,-50081.22,-54293.824,46804.65
964097.1329016251,-110253.83,-111298.71,19827.434,-28159.018,8929.77,-50076.742,-54286.95,46848.31
964097.1369016226,-110257.25,-111300.54,19854.33,-28151.531,8927.084,-50074.586,-54283.938,46864.22
964097.1409016202,-110269.53,-111319.46,19788.738,-28196.494,8905.966,-50074.016,-54283.652,46822.836
964097.1449016177,-110281.54,-111341.02,19713.135,-28234.986,8888.469,-50073.527,-54281.457,46801.19
964097.1489016152,-110287.11,-111351.484,19744.873,-28219.646,8897.543,-50070.273,-54278.89,46821.98
964097.1529016126,-110283.82,-111350.43,19822.713,-28182.537,8910.156,-50066.61,-54276.734,46855.105
964097.1569016101,-110283.45,-111346.48,19848.309,-28168.824,8912.272,-50067.098,-54276.367,46863.85
964097.1609016076,-110284.836,-111344.0,19800.293,-28192.994,8905.518,-50066.773,-54274.54,46850.383
964097.1649016051,-110287.93,-111350.55,19741.252,-28221.03,8894.328,-50069.094,-54276.207,46820.438
964097.1689016026,-110292.12,-111349.98,19757.936,-28207.56,8897.543,-50070.355,-54277.875,46824.383
964097.1729016001,-110289.59,-111345.5,19817.424,-28173.463,8910.971,-50070.027,-54277.02,46857.3
964097.1769015976,-110283.086,-111337.37,19841.756,-28163.574,8914.633,-50070.64,-54278.65,46863.973
964097.1809015952,-110286.75,-111337.445,19782.47,-28195.8,8908.0,-50071.29,-54279.42,46837.85
964097.1849015927,-110296.47,-111348.63,19708.62,-28231.445,8889.893,-50073.49,-54280.152,46810.996
964097.1889015902,-110299.65,-111355.31,19722.209,-28220.297,8894.613,-50075.32,-54284.996,46809.285
964097.1929015877,-110292.445,-111339.07,19807.17,-28177.451,8908.529,-50075.81,-54285.77,46844.605
964097.1969015851,-110288.01,-111334.516,19843.182,-28160.727,8912.272,-50075.97,-54286.297,46864.098
964097.2009015826,-110289.266,-111336.02,19792.889,-28184.855,8896.933,-50077.477,-54289.023,46848.473
964097.2049015801,-110299.28,-111341.19,19721.639,-28216.188,8872.803,-50079.918,-54291.14,46814.74
964097.2089015776,-110297.37,-111344.69,19741.414,-28205.607,8880.453,-50081.42,-54293.5,46811.77
964097.2129015751,-110282.68,-111335.33,19807.373,-28170.98,8902.548,-50079.023,-54291.75,46847.496
964097.2169015727,-110278.65,-111328.695,19832.805,-28161.621,8904.216,-50075.93,-54283.938,46884.44
964097.2209015702,-110279.99,-111332.28,19766.887,-28194.215,8901.896,-50074.504,-54277.14,46871.582
964097.2249015677,-110285.73,-111341.11,19692.912,-28231.242,8889.73,-50075.074,-54276.613,46817.793
964097.2289015652,-110293.945,-111349.125,19695.598,-28231.527,8889.12,-50076.66,-54281.457,46799.074
964097.2329015627,-110291.63,-111343.47,19769.166,-28191.855,8905.355,-50073.12,-54278.85,46832.684
964097.2369015602,-110286.75,-111336.1,19817.018,-28171.836,8913.452,-50071.047,-54273.03,46859.5
964097.2409015576,-110292.32,-111341.31,19759.36,-28201.092,8904.745,-50070.438,-54265.953,46851.035
964097.2449015551,-110297.53,-111348.07,19711.549,-28230.836,8894.043,-50068.117,-54262.535,46826.094
964097.2489015526,-110298.71,-111348.02,19728.312,-28220.379,8901.123,-50066.977,-54266.113,46829.387
964097.2529015501,-110298.055,-111343.1,19780.762,-28189.17,8925.212,-50066.773,-54270.387,46851.766
964097.2569015477,-110298.95,-111341.31,19794.922,-28173.91,8929.729,-50069.215,-54274.133,46859.297
964097.2609015452,-110302.78,-111344.89,19721.518,-28210.328,8907.634,-50072.062,-54272.992,46838.543
964097.2649015427,-110309.9,-111356.53,19667.807,-28244.06,8890.381,-50072.594,-54269.816,46821.74
964097.2689015402,-110312.79,-111358.24,19700.48,-28231.283,8888.225,-50073.69,-54272.91,46832.4
964097.2729015377,-110307.54,-111350.14,19770.996,-28191.488,8902.182,-50075.277,-54277.71,46863.16
964097.2769015352,-110296.8,-111335.82,19802.613,-28167.889,8919.719,-50073.73,-54277.957,46878.46
964097.2809015327,-110299.12,-111339.93,19751.953,-28197.998,8906.779,-50073.895,-54280.723,46849.938
964097.2849015301,-110309.125,-111350.43,19680.34,-28236.166,8874.838,-50075.074,-54281.82,46817.75
964097.2889015276,-110311.32,-111351.81,19689.373,-28230.062,8889.567,-50076.62,-54286.055,46823.082
964097.2929015252,-110310.875,-111350.51,19737.346,-28200.521,8906.006,-50077.965,-54290.324,46849.164
964097.2969015227,-110317.02,-111347.13,19770.467,-28183.92,8908.407,-50078.74,-54291.63,46865.36
964097.3009015202,-110305.914,-111349.77,19719.482,-28213.135,8903.158,-50078.86,-54292.035,46835.125
964097.3049015177,-110309.66,-111355.266,19657.918,-28244.385,8891.602,-50079.305,-54291.3,46807.17
964097.3089015152,-110312.14,-111354.945,19691.732,-28228.191,8897.502,-50078.41,-54290.45,46812.094
964097.3129015127,-110312.914,-111351.766,19760.662,-28189.25,8906.616,-50077.312,-54295.13,46832.766
964097.3169015102,-110316.77,-111355.836,19770.346,-28179.729,8907.023,-50078.453,-54297.65,46847.82
964097.3209015077,-110314.7,-111356.29,19695.639,-28224.691,8891.154,-50079.348,-54295.37,46818.24
964097.3249015053,-110299.484,-111338.18,19640.748,-28259.521,8883.586,-50081.258,-54295.37,46792.195
964097.3289015027,-110302.62,-111345.38,19668.254,-28245.932,8889.323,-50081.016,-54297.0,46800.375
964097.3329015002,-110301.27,-111340.375,19733.684,-28197.51,8900.879,-50079.387,-54298.383,46830.77
964097.3369014977,-110289.43,-111323.98,19772.908,-28177.572,8910.727,-50079.227,-54297.934,46847.535
964097.3409014952,-110288.13,-111326.22,19717.408,-28210.49,8903.687,-50077.56,-54293.418,46821.535
964097.3449014927,-110294.07,-111332.93,19639.404,-28248.78,8896.851,-50079.227,-54293.336,46791.504
964097.3489014902,-110304.53,-111344.08,19634.033,-28252.727,8897.909,-50080.85,-54295.617,46797.49
964097.3529014877,-110300.87,-111340.78,19705.16,-28212.281,8911.621,-50081.465,-54296.55,46832.766
964097.3569014852,-110299.03,-111333.54,19737.63,-28190.35,8915.609,-50081.016,-54294.844,46846.68
964097.3609014828,-110303.96,-111343.875,19672.16,-28225.18,8900.717,-50077.395,-54286.99,46847.496
964097.3649014803,-110309.05,-111349.66,19610.719,-28257.0,8887.207,-50079.43,-54293.703,46793.867
964097.3689014778,-110312.586,-111345.09,19621.217,-28243.37,8892.985,-50082.848,-54302.574,46777.1
964097.3729014752,-110311.445,-111337.445,19687.094,-28206.828,8913.168,-50081.42,-54302.574,46805.38
964097.3769014727,-110295.375,-111330.65,19714.967,-28195.354,8921.835,-50079.836,-54297.895,46827.027
964097.3809014702,-110294.195,-111336.8,19642.66,-28237.387,8908.813,-50079.754,-54292.156,46814.535
964097.3849014677,-110300.7,-111345.87,19583.66,-28268.719,8895.102,-50081.22,-54296.875,46773.562
964097.3889014652,-110303.51,-111346.84,19609.334,-28255.371,8900.432,-50082.36,-54301.19,46776.043
964097.3929014627,-110299.445,-111338.664,19684.979,-28206.87,8919.353,-50082.805,-54301.027,46821.86
964097.3969014602,-110293.83,-111332.445,19711.467,-28185.182,8928.671,-50081.137,-54299.684,46833.457
964097.4009014578,-110294.15,-111335.82,19648.275,-28222.738,8914.592,-50080.04,-54298.668,46799.195
964097.4049014553,-110300.78,-111349.86,19581.625,-28265.87,8896.525,-50080.77,-54295.535,46775.434
964097.4089014528,-110310.266,-111357.266,19594.32,-28265.992,8892.782,-50081.953,-54294.477,46787.273
964097.4129014503,-110309.53,-111353.84,19677.37,-28221.436,8910.034,-50079.305,-54293.457,46827.027
964097.4169014477,-110299.36,-111341.07,19713.42,-28195.273,8918.498,-50077.15,-54295.9,46837.28
964097.4209014452,-110302.78,-111342.29,19652.873,-28227.418,8901.855,-50077.15,-54295.535,46809.246
964097.4249014427,-110304.445,-111348.48,19604.615,-28252.809,8890.219,-50077.11,-54290.61,46794.395
964097.4289014402,-110306.28,-111350.71,19637.41,-28236.695,8895.752,-50076.703,-54287.52,46813.316
964097.4329014377,-110302.78,-111345.016,19720.623,-28197.307,8914.429,-50072.062,-54283.938,46860.68
964097.4369014353,-110293.83,-111340.26,19758.668,-28179.688,8921.753,-50070.07,-54283.652,46873.293
964097.4409014328,-110294.03,-111341.02,19709.799,-28208.334,8908.936,-50072.55,-54286.582,46832.234
964097.4449014303,-110298.75,-111338.625,19665.162,-28234.498,8892.578,-50072.676,-54287.273,46788.453
964097.4489014278,-110302.9,-111345.46,19694.133,-28226.645,8891.765,-50072.715,-54289.473,46800.703
964097.4529014253,-110301.195,-111343.836,19767.498,-28185.914,8909.465,-50071.25,-54290.61,46847.293
964097.4569014228,-110295.125,-111337.77,19805.908,-28164.348,8914.714,-50071.332,-54290.527,46866.58
964097.4609014202,-110286.75,-111335.53,19765.545,-28199.016,8899.78,-50073.0,-54289.348,46855.43
964097.4649014177,-110295.375,-111345.55,19687.297,-28245.688,8881.308,-50076.457,-54294.883,46817.832
964097.4689014152,-110298.51,-111346.32,19726.521,-28223.959,8882.487,-50080.04,-54300.824,46807.58
964097.4729014128,-110288.78,-111335.414,19819.783,-28177.246,8898.234,-50078.816,-54299.48,46847.94
964097.4769014103,-110283.98,-111325.81,19864.217,-28156.373,8908.447,-50077.07,-54294.92,46874.676
964097.4809014078,-110289.39,-111329.63,19825.398,-28183.92,8892.334,-50077.883,-54291.06,46863.12
964097.4849014053,-110297.734,-111335.82,19765.504,-28219.646,8893.799,-50078.74,-54292.074,46822.918
964097.4889014028,-110299.36,-111337.37,19792.645,-28207.969,8897.665,-50078.695,-54294.477,46829.55
964097.4929014003,-110294.68,-111336.1,19883.18,-28170.207,8901.042,-50080.934,-54299.805,46866.09
964097.4969013978,-110289.23,-111332.93,19928.508,-28150.27,8909.75,-50081.83,-54300.375,46890.625
964097.5009013953,-110292.12,-111335.49,19873.047,-28179.932,8899.496,-50081.42,-54297.363,46884.97
964097.5049013927,-110301.27,-111346.44,19809.896,-28214.479,8887.085,-50084.637,-54304.28,46830.08
964097.5089013902,-110303.63,-111351.2,19827.76,-28206.34,8890.137,-50086.508,-54311.605,46819.094
964097.5129013878,-110297.49,-111340.7,19901.979,-28166.668,8896.525,-50084.027,-54309.9,46857.06
964097.5169013853,-110289.59,-111335.53,19933.432,-28152.1,8901.53,-50083.945,-54308.96,46873.414
964097.5209013828,-110291.71,-111332.56,19879.639,-28192.424,8892.619,-50085.492,-54305.22,46856.445
964097.5249013803,-110302.01,-111342.695,19817.18,-28234.742,8884.115,-50084.066,-54303.1,46828.125
964097.5289013778,-110315.11,-111347.91,19836.59,-28222.291,8890.91,-50082.887,-54302.246,46835.164
964097.5329013753,-110305.22,-111344.12,19902.588,-28181.438,8906.128,-50079.43,-54298.18,46870.08
964097.5369013728,-110282.23,-111328.58,19942.709,-28158.0,8917.155,-50078.41,-54298.383,46885.785
964097.5409013703,-110273.52,-111319.18,19887.127,-28184.49,8909.668,-50081.625,-54299.36,46864.91
964097.5449013679,-110290.695,-111334.516,19808.105,-28227.377,8892.416,-50083.863,-54298.26,46836.59
964097.5489013653,-110296.836,-111341.02,19804.81,-28226.97,8890.503,-50084.676,-54300.01,46839.277
964097.5529013628,-110293.664,-111337.89,19857.83,-28199.627,8907.593,-50084.395,-54303.02,46865.195
964097.5569013603,-110291.47,-111339.69,19884.766,-28179.607,8905.07,-50086.55,-54308.758,46867.96
964097.5609013578,-110289.96,-111332.93,19836.59,-28196.574,8894.897,-50085.613,-54304.73,46851.523
964097.5649013553,-110294.07,-111336.71,19769.41,-28235.637,8878.581,-50084.8,-54297.324,46843.305
964097.5689013528,-110296.92,-111343.47,19784.994,-28231.04,8881.389,-50084.883,-54299.156,46840.535
964097.5729013503,-110290.86,-111337.85,19857.586,-28188.438,8894.694,-50085.41,-54304.484,46847.25
964097.5769013478,-110287.97,-111332.36,19878.865,-28175.09,8898.356,-50083.58,-54299.48,46875.33
964097.5809013454,-110291.18,-111338.51,19808.635,-28218.629,8883.627,-50083.58,-54296.754,46866.254
964097.5849013429,-110299.445,-111347.5,19750.447,-28254.477,8870.402,-50086.223,-54302.207,46822.676
964097.5889013404,-110303.15,-111351.36,19769.531,-28243.45,8875.041,-50087.688,-54305.543,46822.88
964097.5929013378,-110297.94,-111342.94,19839.193,-28199.463,8886.149,-50088.95,-54307.254,46861.695
964097.5969013353,-110293.87,-111337.94,19877.117,-28178.184,8892.416,-50088.582,-54306.805,46871.664
964097.6009013328,-110293.336,-111344.65,19821.533,-28204.387,8881.714,-50087.16,-54303.957,46857.547
964097.6049013303,-110300.984,-111346.48,19750.164,-28240.479,8865.316,-50087.16,-54305.707,46817.953
964097.6089013278,-110306.97,-111344.28,19763.104,-28239.178,8871.867,-50087.242,-54304.934,46820.19
964097.6129013253,-110302.78,-111336.914,19828.41,-28204.59,8888.754,-50084.188,-54305.46,46852.54
964097.6169013229,-110306.766,-111337.445,19841.676,-28194.012,8892.741,-50082.766,-54304.324,46862.1
964097.6209013204,-110304.69,-111342.86,19789.836,-28217.652,8883.911,-50083.457,-54301.23,46843.75
964097.6249013179,-110305.75,-111350.75,19742.473,-28250.041,8875.122,-50084.11,-54299.4,46820.027
964097.6289013154,-110313.4,-111356.49,19760.662,-28243.45,8870.483,-50084.92,-54300.5,46825.848
964097.6329013129,-110306.64,-111347.7,19847.047,-28190.553,8888.306,-50082.887,-54300.703,46858.848
964097.6369013103,-110299.12,-111338.75,19893.922,-28164.307,8895.793,-50080.977,-54299.684,46879.19
964097.6409013078,-110301.84,-111341.39,19826.01,-28202.678,8891.439,-50081.87,-54300.17,46852.254
964097.6449013053,-110312.055,-111351.61,19751.018,-28248.047,8883.261,-50083.09,-54297.16,46826.703
964097.6489013028,-110316.37,-111359.336,19759.156,-28248.21,8883.383,-50083.906,-54297.324,46829.754
964097.6529013003,-110316.53,-111351.445,19826.824,-28206.016,8896.24,-50082.44,-54299.36,46852.785
964097.6569012979,-110315.19,-111344.24,19864.705,-28181.438,8903.32,-50082.645,-54301.516,46866.414
964097.6609012954,-110318.89,-111346.52,19804.078,-28218.262,8885.254,-50082.195,-54297.85,46852.215
964097.6649012929,-110322.06,-111353.11,19745.646,-28250.244,8870.361,-50081.668,-54298.06,46818.645
964097.6689012904,-110323.164,-111355.8,19764.648,-28240.643,8876.669,-50083.824,-54304.934,46803.996
964097.6729012879,-110320.48,-111351.98,19827.107,-28204.916,8893.515,-50085.29,-54308.105,46841.594
964097.6769012854,-110319.46,-111348.92,19850.465,-28185.996,8897.339,-50085.734,-54310.14,46854.656
964097.6809012828,-110319.99,-111347.45,19798.748,-28218.223,8887.126,-50085.938,-54309.367,46821.82
964097.6849012803,-110322.68,-111356.94,19725.3,-28254.6,8872.152,-50085.492,-54304.934,46808.516
964097.6889012778,-110322.72,-111360.35,19737.264,-28245.2,8873.169,-50088.746,-54310.02,46801.8
964097.6929012754,-110322.31,-111349.25,19814.82,-28195.273,8890.707,-50088.38,-54315.555,46816.652
964097.6969012729,-110307.26,-111341.31,19838.299,-28178.59,8898.479,-50085.33,-54310.59,46845.95
964097.7009012704,-110310.67,-111354.54,19773.152,-28219.688,8886.108,-50084.72,-54305.098,46836.387
964097.7049012679,-110320.516,-111358.56,19706.787,-28260.254,8869.101,-50087.402,-54307.7,46802.125
964097.7089012654,-110323.49,-111358.93,19726.727,-28249.432,8875.285,-50087.65,-54311.242,46802.53
964097.7129012629,-110314.01,-111344.98,19803.63,-28203.086,8892.131,-50086.348,-54313.195,46833.418
964097.7169012604,-110305.14,-111337.2,19836.264,-28179.893,8899.984,-50085.41,-54312.01,46849.895
964097.7209012579,-110308.234,-111340.54,19795.94,-28212.852,8893.352,-50084.96,-54308.88,46832.52
964097.7249012553,-110311.89,-111344.0,19723.023,-28250.693,8883.586,-50086.914,-54309.246,46801.395
964097.7289012528,-110312.75,-111345.22,19747.03,-28237.713,8880.412,-50087.324,-54310.832,46809.613
964097.7329012504,-110304.445,-111339.195,19821.086,-28197.348,8894.165,-50086.67,-54313.234,46837.73
964097.7369012479,-110298.95,-111333.5,19846.03,-28182.822,8901.164,-50085.816,-54311.363,46850.953
964097.7409012454,-110301.96,-111338.34,19770.508,-28225.098,8891.235,-50085.45,-54308.96,46830.324
964097.7449012429,-110305.26,-111348.516,19699.951,-28261.11,8877.89,-50085.938,-54309.125,46806.52
964097.7489012404,-110308.59,-111352.7,19717.652,-28251.791,8876.587,-50085.9,-54309.734,46814.78
964097.7529012379,-110306.64,-111344.77,19803.223,-28207.072,8891.439,-50084.84,-54309.41,46857.098
964097.7569012354,-110296.875,-111331.625,19842.285,-28181.031,8902.222,-50086.223,-54311.934,46864.95
964097.760901233,-110295.375,-111327.234,19787.842,-28209.27,8883.505,-50088.746,-54313.926,46827.965
964097.7649012305,-110304.41,-111335.53,19726.318,-28249.553,8872.803,-50087.812,-54307.945,46813.965
964097.7689012279,-110305.625,-111340.13,19739.258,-28246.746,8881.674,-50088.22,-54307.7,46818.402
964097.7729012254,-110306.03,-111334.72,19795.574,-28210.125,8896.688,-50088.42,-54313.03,46834.676
964097.7769012229,-110298.586,-111329.59,19832.072,-28186.523,8900.391,-50086.305,-54311.16,46858.645
964097.7809012204,-110296.47,-111332.6,19781.332,-28217.45,8891.154,-50087.445,-54311.2,46831.18
964097.7849012179,-110303.19,-111344.484,19715.82,-28250.652,8875.082,-50088.137,-54309.164,46804.12
964097.7889012154,-110303.1,-111353.48,19739.137,-28235.88,8877.93,-50087.324,-54307.54,46820.598
964097.7929012129,-110299.73,-111340.54,19817.75,-28194.418,8895.02,-50088.91,-54307.17,46857.18
964097.7969012104,-110294.64,-111328.58,19850.586,-28176.352,8894.9795,-50089.355,-54309.082,46869.832
964097.800901208,-110293.5,-111329.555,19793.172,-28207.154,8886.882,-50090.78,-54308.96,46842.207
964097.8049012055,-110300.625,-111338.22,19717.488,-28247.64,8873.007,-50090.66,-54306.887,46820.598
964097.808901203,-110300.625,-111342.66,19725.79,-28241.943,8877.523,-50090.414,-54310.266,46821.004
964097.8129012004,-110294.56,-111337.41,19803.793,-28198.854,8894.409,-50092.207,-54316.285,46843.996
964097.8169011979,-110293.5,-111335.414,19830.404,-28183.758,8898.4375,-50091.594,-54317.465,46861.492
964097.8209011954,-110299.24,-111344.164,19763.51,-28222.412,8877.6045,-50091.188,-54316.734,46837.89
964097.8249011929,-110303.51,-111351.81,19712.24,-28256.268,8865.805,-50089.97,-54311.566,46820.477
964097.8289011904,-110306.195,-111356.57,19726.97,-28244.59,8874.35,-50089.03,-54315.43,46806.684
964097.8329011879,-110308.59,-111353.11,19804.12,-28199.219,8893.311,-50089.113,-54318.688,46828.777
964097.8369011855,-110300.7,-111342.05,19846.639,-28175.01,8900.717,-50087.402,-54316.125,46848.676
964097.840901183,-110294.68,-111340.336,19802.41,-28201.05,8887.695,-50087.117,-54311.16,46844.81
964097.8449011805,-110297.53,-111346.6,19725.586,-28241.7,8876.587,-50088.258,-54310.71,46816.246
964097.848901178,-110301.35,-111347.945,19733.195,-28241.008,8880.534,-50089.56,-54313.316,46812.38
964097.8529011755,-110297.65,-111342.0,19809.285,-28202.88,8896.851,-50089.52,-54313.195,46844.402
964097.8569011729,-110293.586,-111338.14,19832.072,-28190.35,8900.473,-50089.355,-54313.684,46859.58
964097.8609011704,-110298.55,-111342.125,19775.105,-28216.432,8891.276,-50087.934,-54309.652,46853.07
964097.8649011679,-110300.336,-111348.15,19721.03,-28245.688,8877.89,-50088.992,-54310.67,46819.297
964097.8689011654,-110295.05,-111349.37,19734.863,-28242.88,8879.761,-50092.816,-54316.285,46807.254
964097.872901163,-110290.04,-111337.24,19818.441,-28197.674,8898.601,-50091.758,-54315.227,46840.13
964097.8769011605,-110281.54,-111323.695,19859.66,-28175.945,8905.884,-50088.992,-54309.777,46870.89
964097.880901158,-110284.914,-111334.234,19800.252,-28211.305,8893.921,-50087.85,-54305.258,46852.867
964097.8849011555,-110294.68,-111340.21,19714.803,-28256.512,8872.722,-50089.844,-54307.984,46809.41
964097.888901153,-110302.62,-111345.42,19712.81,-28261.8,8868.286,-50091.105,-54311.566,46805.746
964097.8929011505,-110299.56,-111339.805,19793.01,-28217.855,8887.289,-50091.023,-54311.85,46850.098
964097.896901148,-110290.0,-111325.195,19840.332,-28186.402,8903.687,-50089.195,-54309.33,46875.652
964097.9009011454,-110293.46,-111328.01,19792.562,-28210.41,8902.1,-50088.664,-54303.508,46865.36
964097.9049011429,-110304.734,-111342.25,19708.984,-28257.162,8886.679,-50090.82,-54302.86,46836.062
964097.9089011404,-110309.62,-111348.23,19723.756,-28251.832,8886.882,-50089.805,-54305.176,46830.16
964097.912901138,-110303.51,-111338.87,19806.275,-28199.342,8898.031,-50087.363,-54307.05,46856.977
964097.9169011355,-110298.016,-111337.12,19849.0,-28175.172,8897.055,-50086.67,-54304.445,46881.758
964097.920901133,-110307.91,-111353.56,19780.193,-28210.816,8881.063,-50085.695,-54299.48,46867.066
964097.9249011305,-110309.45,-111351.0,19708.863,-28252.035,8873.129,-50086.508,-54301.434,46831.79
964097.928901128,-110287.805,-111325.28,19729.736,-28242.96,8887.817,-50090.332,-54303.996,46841.84
964097.9329011255,-110279.26,-111309.62,19807.984,-28198.73,8905.355,-50089.316,-54303.266,46884.93
