timestamp,Fp1,Fp2,F3,Fz,F4,Cz,Pz,Oz
970846.941560733,-24728.232,-19490.967,-23299.398,-18004.436,-1100.8301,-22810.791,-7877.1567,1115.3158
970846.9455607304,-24725.953,-19488.69,-23296.754,-18003.541,-1099.406,-22809.043,-7872.64,1115.4379
970846.9495607279,-24726.238,-19489.705,-23299.643,-18003.785,-1099.4873,-22808.105,-7868.327,1112.5896
970846.9535607253,-24727.377,-19491.863,-23303.264,-18003.826,-1100.4232,-22807.943,-7863.2,1117.6758
970846.9575607227,-24727.662,-19492.229,-23305.014,-18002.28,-1100.6267,-22807.455,-7858.6836,1121.1345
970846.9615607201,-24724.773,-19488.973,-23301.066,-18000.53,-1099.406,-22805.543,-7851.115,1128.7029
970846.9655607175,-24722.78,-19488.607,-23304.484,-17999.838,-1100.5046,-22805.664,-7842.041,1134.6436
970846.9695607149,-24724.285,-19491.822,-23309.408,-18000.936,-1103.6785,-22807.658,-7842.163,1129.8828
970846.9735607124,-24724.61,-19493.164,-23311.523,-18003.174,-1104.3295,-22808.105,-7842.6924,1120.9717
970846.9775607098,-24724.121,-19494.71,-23310.385,-18005.412,-1105.2246,-22808.432,-7842.5703,1121.1752
970846.9815607072,-24721.355,-19493.043,-23308.229,-18004.842,-1103.597,-22807.578,-7842.855,1124.3083
970846.9855607046,-24715.008,-19490.072,-23304.648,-18003.541,-1101.9287,-22808.146,-7845.337,1119.3848
970846.989560702,-24714.438,-19489.625,-23307.129,-18005.982,-1105.1433,-22810.71,-7849.6504,1114.0137
970846.9935606994,-24711.02,-19488.607,-23307.252,-18005.047,-1101.3591,-22809.896,-7847.412,1121.1345
970846.9975606969,-24706.992,-19485.475,-23304.607,-18003.582,-1096.4763,-22810.547,-7849.4062,1118.0013
970847.0015606943,-24699.383,-19482.178,-23299.805,-18000.855,-1092.7328,-22812.012,-7850.0166,1121.1345
970847.0055606917,-24695.273,-19480.348,-23296.795,-17999.35,-1091.4714,-22814.453,-7855.0215,1117.391
970847.0095606891,-24693.93,-19481.283,-23296.348,-17998.006,-1092.0004,-22817.953,-7861.654,1107.8289
970847.0135606865,-24695.8,-19485.434,-23294.8,-17997.885,-1093.2211,-22821.494,-7869.9546,1099.0804
970847.017560684,-24698.365,-19486.613,-23295.127,-17999.309,-1095.1335,-22824.424,-7877.3604,1093.7908
970847.0215606814,-24696.777,-19482.178,-23295.654,-17999.35,-1093.1396,-22822.674,-7875.6514,1102.4578
970847.0255606788,-24698.771,-19480.469,-23298.504,-18001.22,-1093.099,-22821.533,-7876.872,1103.5564
970847.0295606762,-24700.36,-19480.672,-23300.578,-18002.564,-1092.9769,-22820.598,-7881.2256,1098.5922
970847.0335606736,-24699.342,-19481.648,-23303.223,-18005.941,-1093.2211,-22822.959,-7882.8125,1093.099
970847.037560671,-24696.941,-19482.26,-23302.816,-18007.244,-1091.4714,-22823.527,-7881.1035,1097.9818
970847.0415606685,-24693.93,-19479.004,-23296.021,-18004.11,-1086.8734,-22821.25,-7876.628,1104.655
970847.0455606659,-24690.756,-19475.057,-23292.562,-18001.506,-1084.5134,-22819.541,-7874.4307,1108.9275
970847.0495606633,-24693.482,-19474.324,-23294.312,-18003.012,-1085.4086,-22819.662,-7874.2676,1106.9336
970847.0535606607,-24697.754,-19474.447,-23298.504,-18004.314,-1085.7748,-22819.865,-7873.21,1105.9978
970847.0575606581,-24699.871,-19474.854,-23301.27,-18005.209,-1086.0596,-22820.436,-7871.338,1103.9226
970847.0615606555,-24700.44,-19475.506,-23302.043,-18004.598,-1081.2988,-22819.133,-7868.2456,1102.6205
970847.065560653,-24701.416,-19477.377,-23303.672,-18005.656,-1081.1768,-22816.814,-7861.6943,1104.3701
970847.0695606504,-24703.492,-19479.412,-23305.055,-18007.977,-1084.6355,-22815.146,-7853.475,1107.8289
970847.0735606478,-24700.969,-19476.889,-23301.107,-18007.771,-1085.2865,-22812.785,-7848.0635,1104.4109
970847.0775606452,-24694.092,-19471.477,-23297.12,-18007.324,-1081.7058,-22812.582,-7842.733,1108.5205
970847.0815606426,-24688.273,-19467.938,-23291.586,-18003.785,-1076.823,-22810.955,-7837.6875,1119.0186
970847.08556064,-24686.688,-19463.787,-23288.941,-18000.814,-1073.7712,-22809.814,-7835.2866,1123.2097
970847.0895606375,-24685.02,-19460.37,-23288.656,-17999.879,-1072.4691,-22811.605,-7837.6465,1120.5242
970847.0935606349,-24686.361,-19461.752,-23290.08,-17999.47,-1073.4457,-22814.373,-7840.902,1114.8682
970847.0975606323,-24692.344,-19467.0,-23291.668,-18000.652,-1078.2471,-22816.936,-7845.7847,1112.9558
970847.1015606297,-24696.412,-19469.686,-23291.3,-18002.93,-1081.1768,-22818.564,-7848.5923,1116.2924
970847.1055606271,-24697.633,-19470.012,-23289.348,-18003.582,-1082.0312,-22817.668,-7851.115,1117.4724
970847.1095606246,-24697.186,-19471.924,-23290.324,-18003.377,-1083.6182,-22817.627,-7854.8994,1114.9496
970847.113560622,-24695.883,-19470.623,-23290.977,-18001.22,-1081.014,-22820.15,-7858.9683,1112.3455
970847.1175606194,-24694.297,-19464.479,-23287.518,-17999.512,-1076.0906,-22821.738,-7860.555,1112.1013
970847.1215606168,-24689.414,-19458.62,-23282.92,-17996.297,-1068.9697,-22820.883,-7858.9277,1121.7855
970847.1255606142,-24687.826,-19454.346,-23277.752,-17993.938,-1064.4939,-22820.15,-7858.6426,1128.1332
970847.1295606116,-24690.512,-19453.045,-23280.479,-17995.037,-1062.9883,-22822.43,-7866.6587,1117.6758
970847.1335606091,-24689.941,-19453.004,-23282.92,-17996.176,-1063.8021,-22822.633,-7871.6636,1111.6537
970847.1375606065,-24690.35,-19455.486,-23285.197,-17997.314,-1066.5283,-22823.73,-7875.4883,1110.7178
970847.1415606039,-24696.045,-19461.549,-23286.582,-17999.959,-1068.4814,-22823.936,-7877.889,1109.8633
970847.1455606013,-24698.162,-19461.914,-23288.453,-18000.773,-1069.8242,-22823.527,-7877.0347,1112.264
970847.1495605987,-24695.477,-19458.578,-23290.732,-18000.203,-1068.156,-22822.715,-7876.2207,1110.1074
970847.153560596,-24692.547,-19456.502,-23289.674,-18000.041,-1069.0105,-22822.43,-7872.1924,1111.5316
970847.1575605936,-24690.105,-19453.695,-23286.826,-18000.408,-1064.5345,-22819.865,-7862.9966,1119.873
970847.161560591,-24686.158,-19450.643,-23282.553,-17999.959,-1060.4248,-22816.53,-7855.306,1122.8435
970847.1655605884,-24685.14,-19448.201,-23284.385,-17999.553,-1059.9773,-22816.041,-7854.6553,1118.1234
970847.1695605858,-24688.6,-19450.848,-23285.117,-17998.088,-1063.3953,-22817.018,-7855.713,1111.3281
970847.1735605831,-24691.814,-19453.37,-23283.164,-17997.518,-1067.9525,-22816.732,-7857.463,1101.8474
970847.1775605805,-24696.615,-19457.56,-23283.326,-17999.512,-1070.8008,-22816.57,-7855.835,1098.3887
970847.181560578,-24699.586,-19460.125,-23288.33,-18001.059,-1072.7947,-22816.123,-7851.2373,1102.7426
970847.1855605755,-24702.8,-19463.99,-23293.092,-18002.4,-1073.934,-22818.97,-7856.242,1101.4812
970847.1895605728,-24701.945,-19461.264,-23294.23,-18000.977,-1071.7367,-22818.28,-7859.05,1101.0336
970847.1935605702,-24700.195,-19457.479,-23291.545,-18001.059,-1067.2607,-22815.797,-7854.8584,1105.0619
970847.1975605676,-24696.453,-19451.701,-23287.598,-18001.75,-1063.8835,-22813.803,-7848.877,1109.0496
970847.2015605652,-24694.053,-19450.725,-23286.338,-18002.605,-1063.68,-22810.914,-7842.2446,1120.6869
970847.2055605626,-24692.139,-19448.121,-23285.768,-18002.4,-1067.3828,-22811.688,-7841.838,1128.0518
970847.20956056,-24690.186,-19445.965,-23283.652,-18001.1,-1066.325,-22814.209,-7842.489,1130.9408
970847.2135605573,-24687.46,-19444.783,-23280.314,-18000.244,-1064.8193,-22815.797,-7841.4717,1134.3588
970847.2175605547,-24687.297,-19443.604,-23281.332,-18000.855,-1065.918,-22816.041,-7842.448,1138.794
970847.2215605521,-24686.2,-19439.291,-23281.902,-17998.494,-1065.4297,-22817.383,-7843.8315,1142.2933
970847.2255605496,-24684.896,-19436.564,-23280.723,-17995.158,-1065.918,-22817.912,-7849.8535,1130.9001
970847.229560547,-24683.879,-19437.5,-23280.479,-17995.932,-1065.918,-22820.477,-7857.341,1119.7103
970847.2335605444,-24679.648,-19432.252,-23279.582,-17995.525,-1062.5814,-22820.924,-7861.8164,1110.7585
970847.2375605418,-24677.695,-19430.014,-23276.652,-17995.646,-1062.2559,-22819.785,-7862.59,1113.973
970847.2415605392,-24675.457,-19430.95,-23273.764,-17996.785,-1060.9131,-22815.553,-7860.759,1120.0765
970847.2455605366,-24677.246,-19431.52,-23272.217,-17999.146,-1063.8835,-22814.902,-7861.491,1118.6523
970847.2495605341,-24676.963,-19430.787,-23274.21,-18001.629,-1064.4125,-22814.78,-7863.078,1115.4379
970847.2535605315,-24680.38,-19430.787,-23277.426,-18001.465,-1066.7318,-22815.594,-7864.0137,1115.031
970847.2575605289,-24684.49,-19431.844,-23281.861,-18001.424,-1066.6097,-22817.139,-7864.624,1117.9199
970847.2615605263,-24685.832,-19432.82,-23281.332,-18002.156,-1069.1732,-22816.814,-7862.549,1117.1875
970847.2655605237,-24687.379,-19434.367,-23280.193,-18003.377,-1071.3705,-22815.797,-7859.9854,1117.7166
970847.2695605211,-24688.477,-19433.432,-23279.705,-18004.232,-1069.7021,-22816.326,-7856.405,1115.4379
970847.2735605186,-24691.041,-19434.734,-23278.361,-18005.86,-1067.4642,-22815.023,-7849.365,1120.8496
970847.277560516,-24694.785,-19436.97,-23281.047,-18006.47,-1063.8835,-22813.355,-7842.6514,1125.9359
970847.2815605134,-24696.941,-19437.703,-23282.879,-18007.732,-1063.8021,-22813.762,-7837.484,1131.4697
970847.2855605108,-24699.586,-19439.535,-23285.156,-18007.244,-1064.4939,-22814.006,-7836.263,1129.9236
970847.2895605082,-24708.049,-19445.516,-23292.074,-18008.709,-1066.325,-22814.047,-7838.094,1126.058
970847.2935605056,-24712.281,-19448.242,-23293.701,-18010.133,-1067.8711,-22814.088,-7841.5527,1116.9841
970847.2975605031,-24712.607,-19449.098,-23295.777,-18009.115,-1070.8008,-22815.186,-7843.3433,1113.322
970847.3015605005,-24712.443,-19449.342,-23295.574,-18007.04,-1069.7836,-22815.227,-7842.977,1117.5945
970847.3055604979,-24717.693,-19452.475,-23295.777,-18007.283,-1071.6553,-22817.588,-7846.5576,1117.8793
970847.3095604953,-24717.773,-19453.613,-23294.354,-18007.04,-1070.7195,-22819.215,-7848.9585,1114.624
970847.3135604927,-24715.414,-19452.88,-23293.418,-18004.15,-1068.9697,-22818.686,-7849.6094,1107.3406
970847.3175604902,-24716.229,-19454.225,-23292.277,-18003.947,-1066.447,-22818.156,-7846.7207,1109.5378
970847.3215604876,-24715.984,-19453.695,-23290.61,-18004.191,-1065.6738,-22817.627,-7845.215,1118.3269
970847.325560485,-24720.541,-19457.764,-23292.197,-18003.744,-1070.1904,-22818.28,-7849.7725,1114.5427
970847.3295604824,-24725.303,-19462.646,-23292.562,-18003.297,-1077.1078,-22819.5,-7856.4863,1106.0385
970847.3335604798,-24727.947,-19462.85,-23291.383,-18003.338,-1077.9216,-22821.127,-7860.1484,1101.3184
970847.3375604772,-24730.713,-19462.973,-23295.127,-18003.012,-1074.6257,-22818.848,-7857.1777,1104.2074
970847.3415604747,-24731.61,-19462.932,-23296.143,-18003.418,-1076.3347,-22818.604,-7855.957,1105.184
970847.3455604721,-24732.219,-19465.535,-23298.422,-18003.988,-1079.7119,-22820.8,-7860.6772,1095.7031
970847.3495604695,-24734.904,-19468.67,-23304.973,-18004.15,-1081.8685,-22821.412,-7862.915,1093.099
970847.3535604669,-24736.695,-19469.482,-23304.404,-18004.639,-1078.2471,-22821.209,-7861.9795,1092.6107
970847.3575604643,-24736.777,-19468.385,-23297.607,-18005.006,-1076.6602,-22820.068,-7860.6772,1089.3148
970847.3615604617,-24737.428,-19468.832,-23296.184,-18004.965,-1076.2126,-22819.5,-7859.66,1093.7094
970847.3655604592,-24741.09,-19470.541,-23297.445,-18006.918,-1076.0498,-22819.662,-7860.311,1095.9473
970847.3695604566,-24741.416,-19473.145,-23297.568,-18007.365,-1077.6367,-22819.541,-7858.6836,1092.4886
970847.373560454,-24743.734,-19478.312,-23297.363,-18008.22,-1078.6133,-22818.36,-7856.4453,1095.0521
970847.3775604514,-24744.223,-19481.16,-23299.48,-18010.213,-1083.0486,-22818.156,-7854.94,1097.4529
970847.3815604488,-24742.27,-19479.86,-23294.842,-18009.156,-1084.3506,-22816.57,-7849.813,1104.655
970847.3855604462,-24742.676,-19478.842,-23297.324,-18008.912,-1081.8279,-22814.17,-7843.75,1112.5082
970847.3895604437,-24741.455,-19477.824,-23297.607,-18010.701,-1082.1127,-22812.664,-7840.129,1115.8041
970847.3935604411,-24743.084,-19477.703,-23295.736,-18012.736,-1082.8451,-22812.053,-7835.124,1125.407
970847.3975604385,-24744.752,-19477.703,-23296.021,-18013.672,-1082.9265,-22811.28,-7829.631,1133.7484
970847.4015604359,-24743.734,-19478.312,-23294.434,-18014.363,-1084.5134,-22809.734,-7826.294,1141.5609
970847.4055604333,-24743.938,-19483.521,-23292.848,-18014.975,-1085.8969,-22807.861,-7822.347,1146.8099
970847.4095604308,-24742.96,-19482.992,-23292.318,-18015.79,-1086.2631,-22807.658,-7821.4927,1146.3623
970847.4135604282,-24741.008,-19480.877,-23295.045,-18017.375,-1084.6355,-22807.252,-7820.7197,1146.6472
970847.4175604256,-24741.496,-19482.098,-23295.615,-18017.254,-1085.49,-22807.984,-7819.255,1147.7458
970847.421560423,-24739.055,-19479.086,-23293.01,-18016.113,-1084.9203,-22808.188,-7818.4004,1149.4548
970847.4255604204,-24738.16,-19478.924,-23290.08,-18017.049,-1085.3679,-22805.95,-7816.976,1153.4832
970847.4295604178,-24744.346,-19480.225,-23291.586,-18017.254,-1085.8154,-22805.014,-7817.79,1149.821
970847.4335604153,-24748.291,-19483.277,-23295.533,-18017.172,-1086.5479,-22805.746,-7819.9463,1149.6582
970847.4375604127,-24726.238,-19464.967,-23288.574,-18012.736,-1078.125,-22808.432,-7824.056,1149.3734
970847.4415604101,-24717.082,-19454.672,-23285.035,-18010.295,-1075.2361,-22810.1,-7826.823,1146.1589
970847.4455604075,-24724.285,-19462.037,-23289.389,-18012.695,-1076.9043,-22808.799,-7826.3755,1147.3389
970847.4495604049,-24723.35,-19461.834,-23293.133,-18013.592,-1077.0264,-22809.938,-7829.305,1142.2527
970847.4535604023,-24720.012,-19457.887,-23292.889,-18013.672,-1074.0154,-22810.67,-7829.5493,1140.9099
970847.4575603998,-24718.14,-19453.857,-23289.715,-18012.98,-1071.0857,-22811.32,-7826.335,1148.3154
970847.4615603972,-24714.6,-19448.201,-23290.488,-18011.434,-1070.0684,-22811.85,-7826.05,1146.3623
970847.4655603946,-24710.775,-19447.062,-23289.877,-18009.766,-1071.9402,-22812.785,-7826.6196,1141.6423
970847.469560392,-24706.666,-19443.156,-23285.361,-18007.568,-1071.7773,-22813.844,-7827.5146,1144.2871
970847.4735603894,-24698.162,-19433.758,-23284.873,-18006.104,-1068.3594,-22812.379,-7822.632,1148.1527
970847.4775603868,-24696.738,-19436.688,-23283.367,-18008.098,-1067.8711,-22812.338,-7817.22,1155.8431
970847.4815603843,-24693.848,-19436.035,-23280.967,-18008.3,-1067.3828,-22811.076,-7812.785,1158.366
970847.4855603817,-24691.326,-19434.814,-23278.117,-18006.512,-1068.3187,-22808.635,-7811.035,1158.2031
970847.4895603791,-24689.617,-19434.041,-23276.652,-18008.139,-1071.0043,-22809.082,-7813.558,1156.1687
970847.4935603765,-24692.059,-19435.71,-23279.785,-18009.686,-1069.0918,-22810.264,-7815.511,1154.8259
970847.4975603739,-24693.238,-19434.652,-23281.455,-18010.01,-1064.2904,-22810.67,-7812.622,1159.6273
970847.5015603714,-24691.203,-19430.705,-23281.25,-18008.26,-1062.3779,-22810.02,-7809.7334,1165.4867
970847.5055603688,-24695.068,-19433.473,-23283.977,-18009.197,-1066.0808,-22809.002,-7811.9307,1167.8875
970847.5095603662,-24695.557,-19437.785,-23285.889,-18011.8,-1069.8242,-22809.043,-7814.331,1168.2129
970847.5135603636,-24691.406,-19439.576,-23283.123,-18012.654,-1070.2312,-22809.611,-7813.843,1170.4509
970847.517560361,-24685.223,-19434.57,-23281.17,-18011.922,-1068.1152,-22809.002,-7814.372,1170.0847
970847.5215603583,-24683.799,-19432.658,-23282.023,-18013.998,-1065.7552,-22807.902,-7815.796,1173.5027
970847.5255603559,-24685.873,-19435.467,-23282.35,-18015.91,-1067.9525,-22808.555,-7818.319,1169.3523
970847.5295603533,-24688.273,-19437.215,-23285.93,-18017.416,-1070.1091,-22808.555,-7817.1387,1169.9626
970847.5335603507,-24688.396,-19438.355,-23286.338,-18019.49,-1071.3298,-22808.146,-7816.8135,1168.457
970847.537560348,-24691.244,-19441.61,-23287.598,-18021.852,-1074.7885,-22807.334,-7817.8306,1164.3881
970847.5415603454,-24695.8,-19444.133,-23291.912,-18021.484,-1075.6836,-22807.902,-7819.5396,1168.9861
970847.5455603428,-24699.424,-19447.062,-23290.244,-18019.857,-1075.1953,-22810.1,-7824.87,1163.8998
970847.5495603404,-24699.871,-19449.504,-23288.412,-18019.898,-1075.8871,-22811.809,-7828.6133,1158.1625
970847.5535603378,-24696.615,-19447.836,-23287.68,-18020.71,-1076.0498,-22812.176,-7828.532,1159.668
970847.5575603351,-24693.848,-19444.783,-23285.85,-18019.857,-1071.8181,-22812.217,-7825.9688,1158.8542
970847.5615603325,-24700.115,-19451.13,-23286.988,-18020.793,-1069.987,-22813.152,-7825.643,1159.017
970847.5655603299,-24701.824,-19453.695,-23285.238,-18019.654,-1068.2373,-22812.826,-7824.707,1163.1674
970847.5695603273,-24701.865,-19450.033,-23285.605,-18018.555,-1067.3422,-22813.273,-7826.294,1157.7148
970847.5735603248,-24711.549,-19454.51,-23288.615,-18021.16,-1069.5801,-22813.07,-7824.585,1157.5928
970847.5775603222,-24723.145,-19464.275,-23291.465,-18022.34,-1070.2312,-22812.705,-7822.5913,1161.0107
970847.5815603196,-24724.0,-19464.234,-23290.447,-18021.281,-1066.6504,-22811.564,-7820.516,1161.4584
970847.585560317,-24720.947,-19461.873,-23287.477,-18019.246,-1064.331,-22812.379,-7822.1436,1161.499
970847.5895603144,-24725.791,-19466.594,-23285.809,-18019.246,-1065.0228,-22813.193,-7823.446,1157.9183
970847.5935603118,-24731.324,-19469.89,-23283.652,-18020.428,-1064.331,-22814.78,-7821.086,1161.2957
970847.5975603093,-24737.63,-19477.58,-23280.926,-18022.502,-1062.5814,-22815.227,-7822.632,1152.9135
970847.6015603067,-24739.219,-19480.916,-23285.4,-18023.682,-1064.5345,-22813.559,-7824.5444,1157.5521
970847.6055603041,-24738.893,-19478.436,-23286.094,-18023.234,-1066.9353,-22813.152,-7825.521,1162.5977
970847.6095603015,-24734.863,-19473.756,-23284.668,-18022.176,-1067.5457,-22815.635,-7828.3286,1158.7728
970847.6135602989,-24737.387,-19476.197,-23285.4,-18023.805,-1066.8945,-22818.156,-7831.462,1152.3845
970847.6175602964,-24743.328,-19483.398,-23284.588,-18023.64,-1064.331,-22818.482,-7830.1597,1153.6052
970847.6215602938,-24747.234,-19485.23,-23282.188,-18022.055,-1059.9365,-22818.035,-7826.986,1154.5004
970847.6255602912,-24746.705,-19485.148,-23278.646,-18020.793,-1059.367,-22818.482,-7829.4272,1148.2748
970847.6295602886,-24747.844,-19487.996,-23281.088,-18022.055,-1060.669,-22819.174,-7828.532,1150.472
970847.633560286,-24750.244,-19493.043,-23280.559,-18023.031,-1061.4828,-22818.727,-7826.335,1153.1576
970847.6375602834,-24750.732,-19493.123,-23277.752,-18022.99,-1061.4828,-22818.564,-7823.8525,1160.2783
970847.6415602809,-24755.291,-19494.914,-23278.85,-18024.373,-1062.6628,-22819.377,-7822.8354,1163.0859
970847.6455602783,-24762.045,-19500.326,-23281.902,-18026.287,-1064.3718,-22819.256,-7821.2485,1169.1488
970847.6495602757,-24765.504,-19502.605,-23283.896,-18027.02,-1067.8711,-22820.232,-7822.917,1165.4867
970847.6535602731,-24764.893,-19502.768,-23282.227,-18026.814,-1069.4174,-22821.697,-7824.504,1161.0922
970847.6575602705,-24763.348,-19503.256,-23278.117,-18026.367,-1070.7195,-22823.08,-7825.4395,1155.3142
970847.6615602679,-24763.428,-19503.094,-23280.803,-18024.984,-1068.5629,-22820.312,-7823.6084,1157.7963
970847.6655602654,-24766.602,-19507.406,-23280.723,-18025.35,-1070.1091,-22820.312,-7823.812,1157.9998
970847.6695602628,-24773.275,-19513.225,-23280.967,-18027.996,-1075.5209,-22821.494,-7824.748,1156.5756
970847.6735602602,-24777.344,-19513.51,-23285.4,-18027.467,-1073.8933,-22820.477,-7824.992,1157.959
970847.6775602576,-24777.426,-19514.16,-23284.873,-18027.303,-1073.9746,-22823.936,-7830.078,1154.7445
970847.681560255,-24774.74,-19512.615,-23281.535,-18027.303,-1073.934,-22825.848,-7830.648,1152.0183
970847.6855602524,-24770.793,-19509.725,-23278.89,-18026.611,-1073.934,-22824.748,-7828.4507,1151.6927
970847.6895602499,-24768.922,-19509.848,-23277.264,-18027.223,-1075.5615,-22824.668,-7830.8105,1150.0652
970847.6935602473,-24770.06,-19510.336,-23278.402,-18027.059,-1076.2126,-22823.527,-7830.9736,1152.832
970847.6975602447,-24771.16,-19509.277,-23280.07,-18025.758,-1074.585,-22821.371,-7824.463,1166.5039
970847.7015602421,-24772.014,-19507.488,-23277.344,-18024.861,-1071.7773,-22818.197,-7818.4004,1176.2289
970847.7055602395,-24773.234,-19508.016,-23279.867,-18026.775,-1072.7947,-22818.848,-7821.045,1168.2537
970847.709560237,-24771.484,-19505.33,-23281.291,-18024.658,-1073.2422,-22819.988,-7825.155,1160.8074
970847.7135602344,-24772.096,-19505.047,-23281.21,-18024.658,-1077.0264,-22821.412,-7824.1377,1163.1674
970847.7175602318,-24775.066,-19510.906,-23281.088,-18026.979,-1079.1016,-22822.021,-7821.452,1163.3301
970847.7215602292,-24776.002,-19512.451,-23281.006,-18027.873,-1077.3113,-22821.615,-7819.2954,1164.3066
970847.7255602266,-24775.27,-19508.3,-23283.367,-18025.96,-1072.998,-22818.97,-7813.9243,1168.8232
970847.729560224,-24774.943,-19507.0,-23287.232,-18025.39,-1071.7367,-22818.97,-7812.866,1170.3289
970847.7335602215,-24775.39,-19507.771,-23288.453,-18026.611,-1070.5974,-22820.273,-7808.2686,1176.1475
970847.7375602189,-24776.979,-19508.504,-23288.209,-18028.076,-1068.0339,-22820.03,-7802.7344,1188.5173
970847.7415602163,-24773.602,-19505.535,-23288.25,-18027.1,-1068.4814,-22818.848,-7800.537,1194.5801
970847.7455602137,-24769.492,-19504.639,-23285.889,-18023.764,-1068.9291,-22819.703,-7801.9614,1193.156
970847.7495602111,-24769.572,-19503.865,-23284.18,-18022.137,-1071.1263,-22822.307,-7802.6123,1194.1732
970847.7535602085,-24768.434,-19503.703,-23280.885,-18022.299,-1075.9277,-22823.527,-7805.7456,1189.5345
970847.757560206,-24766.357,-19505.086,-23277.873,-18021.932,-1077.5554,-22822.47,-7804.8506,1196.0043
970847.7615602034,-24765.586,-19502.605,-23273.764,-18021.688,-1072.1843,-22819.58,-7801.1885,1204.834
970847.7655602008,-24764.73,-19499.268,-23275.92,-18020.508,-1069.2139,-22816.611,-7796.875,1211.2631
970847.7695601982,-24764.893,-19498.17,-23277.588,-18021.078,-1070.6381,-22815.959,-7795.8174,1213.1755
970847.7735601956,-24765.545,-19497.111,-23275.596,-18021.484,-1068.2373,-22814.902,-7794.7593,1210.5713
970847.777560193,-24763.225,-19495.484,-23273.682,-18020.63,-1067.5457,-22812.785,-7789.388,1214.5183
970847.7815601905,-24762.371,-19496.094,-23274.7,-18020.793,-1069.0105,-22811.646,-7787.557,1220.3369
970847.7855601879,-24761.557,-19496.176,-23274.578,-18019.572,-1067.5863,-22811.484,-7788.0454,1222.575
970847.7895601853,-24761.191,-19497.273,-23273.967,-18021.932,-1069.2546,-22812.867,-7791.382,1220.1335
970847.7935601827,-24758.953,-19496.623,-23273.56,-18023.357,-1070.3939,-22811.932,-7789.7544,1223.348
970847.7975601801,-24759.686,-19497.438,-23272.584,-18022.502,-1068.1967,-22809.652,-7786.54,1225.2197
970847.8015601776,-24759.686,-19495.89,-23271.729,-18022.299,-1063.5173,-22807.252,-7781.657,1234.782
970847.805560175,-24758.139,-19493.45,-23272.258,-18023.764,-1061.849,-22808.27,-7781.2095,1234.9854
970847.8095601724,-24761.719,-19494.793,-23274.902,-18024.455,-1064.1277,-22809.693,-7783.5693,1228.3123
970847.8135601698,-24763.348,-19501.018,-23277.182,-18026.164,-1065.7552,-22810.14,-7784.424,1222.9004
970847.8175601672,-24761.842,-19502.809,-23276.611,-18023.52,-1064.8193,-22809.326,-7784.017,1220.8252
970847.8215601646,-24760.824,-19500.488,-23276.938,-18021.607,-1064.9008,-22809.814,-7786.9873,1217.6514
970847.8255601621,-24764.404,-19500.611,-23278.484,-18020.916,-1065.8773,-22811.035,-7789.9985,1213.908
970847.8295601595,-24764.324,-19502.727,-23281.17,-18020.305,-1067.2607,-22811.729,-7792.8467,1206.4209
970847.8335601569,-24763.957,-19503.541,-23283.326,-18021.404,-1066.9353,-22812.135,-7793.823,1207.5603
970847.8375601543,-24765.79,-19502.4,-23283.977,-18022.217,-1067.2607,-22812.744,-7790.1206,1216.0645
970847.8415601517,-24765.951,-19502.727,-23282.756,-18023.316,-1068.6443,-22811.28,-7789.673,1222.2494
970847.845560149,-24768.352,-19505.982,-23279.664,-18022.95,-1070.6381,-22809.652,-7789.388,1226.8474
970847.8495601466,-24771.934,-19511.23,-23281.414,-18024.373,-1074.3408,-22811.076,-7793.5386,1222.6562
970847.853560144,-24770.875,-19509.074,-23280.967,-18025.066,-1074.1781,-22812.256,-7796.916,1216.0645
970847.8575601414,-24772.87,-19508.424,-23280.518,-18023.967,-1072.1029,-22812.135,-7797.811,1213.9893
970847.8615601388,-24778.32,-19513.225,-23280.518,-18023.764,-1074.2595,-22809.611,-7794.1895,1219.6859
970847.8655601362,-24769.736,-19508.016,-23276.531,-18021.688,-1072.4285,-22808.799,-7793.823,1225.4232
970847.8695601335,-24760.742,-19502.809,-23275.025,-18019.328,-1069.5801,-22810.182,-7798.625,1219.8486
970847.8735601311,-24760.05,-19501.506,-23272.38,-18018.475,-1070.516,-22810.873,-7799.8457,1219.3197
970847.8775601285,-24759.482,-19499.756,-23270.184,-18017.334,-1072.0623,-22809.938,-7798.0146,1219.4418
970847.8815601259,-24760.215,-19501.629,-23267.742,-18018.678,-1073.2422,-22810.02,-7797.241,1222.9412
970847.8855601232,-24764.365,-19504.965,-23268.393,-18019.207,-1074.585,-22809.531,-7799.6826,1219.1976
970847.8895601206,-24762.451,-19504.354,-23269.125,-18019.654,-1076.3754,-22810.955,-7803.7925,1211.3851
970847.8935601182,-24760.174,-19502.605,-23272.055,-18019.451,-1075.8057,-22812.988,-7803.833,1213.2976
970847.8975601156,-24760.092,-19502.156,-23268.31,-18017.822,-1074.1781,-22811.564,-7801.758,1216.7562
970847.901560113,-24764.283,-19502.645,-23266.44,-18018.434,-1072.6726,-22810.791,-7800.09,1218.6687
970847.9055601103,-24765.666,-19499.105,-23263.021,-18016.113,-1071.574,-22809.002,-7800.415,1222.575
970847.9095601077,-24758.953,-19494.996,-23260.254,-18014.607,-1068.9697,-22806.152,-7797.7295,1225.9929
970847.9135601051,-24762.818,-19495.32,-23262.98,-18016.398,-1068.7664,-22807.373,-7798.1367,1221.3542
970847.9175601027,-24761.68,-19494.14,-23264.201,-18017.01,-1066.976,-22809.855,-7800.985,1218.9941
970847.9215601,-24751.303,-19489.87,-23263.51,-18014.283,-1061.0352,-22811.932,-7801.0254,1218.9128
970847.9255600974,-24744.182,-19486.41,-23261.963,-18012.86,-1059.4076,-22811.768,-7800.3745,1225.2197
970847.9295600948,-24744.02,-19481.648,-23260.498,-18013.143,-1060.9945,-22810.629,-7799.968,1226.3591
970847.9335600922,-24753.053,-19484.254,-23259.766,-18014.16,-1061.6863,-22810.71,-7796.2646,1231.9336
970847.9375600896,-24754.355,-19486.207,-23261.475,-18014.607,-1063.0697,-22808.676,-7791.545,1240.9668
970847.9415600871,-24747.885,-19484.334,-23263.062,-18015.545,-1065.5518,-22809.123,-7794.6777,1229.5736
970847.9455600845,-24748.332,-19484.05,-23261.842,-18015.828,-1065.4297,-22809.002,-7793.7827,1233.4799
970847.9495600819,-24746.867,-19481.568,-23259.318,-18015.463,-1064.1683,-22805.746,-7788.371,1240.9668
970847.9535600793,-24745.973,-19481.242,-23259.074,-18015.584,-1065.1449,-22806.723,-7789.795,1237.9558
970847.9575600767,-24746.787,-19480.225,-23254.72,-18015.87,-1065.5925,-22808.39,-7792.0737,1233.8461
970847.9615600741,-24748.332,-19480.957,-23253.744,-18016.316,-1063.7207,-22807.293,-7789.266,1236.4095
970847.9655600716,-24752.117,-19481.16,-23257.08,-18015.625,-1064.9414,-22806.152,-7787.5166,1242.1875
970847.969560069,-24745.158,-19481.121,-23255.25,-18015.096,-1065.9994,-22807.293,-7788.452,1243.042
970847.9735600664,-24740.643,-19480.877,-23261.516,-18016.236,-1067.7898,-22809.408,-7790.283,1238.9324
970847.9775600638,-24740.887,-19480.225,-23260.986,-18016.236,-1065.7552,-22809.734,-7787.883,1243.8152
970847.9815600612,-24743.816,-19483.887,-23259.686,-18016.928,-1068.0746,-22810.467,-7785.1973,1248.9421
970847.9855600586,-24744.06,-19483.887,-23255.453,-18014.893,-1069.7836,-22810.791,-7783.0,1248.8201
970847.9895600561,-24747.967,-19485.76,-23257.936,-18016.521,-1071.6146,-22811.361,-7784.465,1248.3724
970847.9935600535,-24752.197,-19489.137,-23260.986,-18019.857,-1073.283,-22813.314,-7784.6274,1252.889
970847.9975600509,-24752.361,-19488.77,-23258.994,-18018.27,-1071.6553,-22812.256,-7780.1514,1258.4636
970848.0015600483,-24750.611,-19488.281,-23258.83,-18017.01,-1068.6035,-22810.832,-7778.402,1262.7361
970848.0055600457,-24751.953,-19488.363,-23257.936,-18018.393,-1069.4988,-22808.146,-7778.1577,1261.0677
970848.0095600432,-24755.982,-19489.625,-23259.686,-18020.143,-1075.114,-22809.205,-7780.233,1251.8718
970848.0135600406,-24757.162,-19488.281,-23262.9,-18018.678,-1073.8525,-22811.729,-7784.465,1244.5476
970848.017560038,-24758.057,-19489.299,-23261.924,-18018.23,-1071.6146,-22813.682,-7786.296,1239.2172
970848.0215600354,-24753.662,-19487.346,-23253.418,-18013.957,-1067.627,-22811.361,-7783.651,1238.9324
970848.0255600328,-24746.705,-19486.98,-23248.74,-18013.387,-1064.1277,-22809.855,-7781.657,1238.8916
970848.0295600302,-24746.99,-19486.654,-23251.629,-18015.137,-1066.04,-22810.508,-7780.6396,1241.6992
970848.0335600277,-24747.275,-19483.48,-23250.652,-18015.178,-1067.2201,-22810.914,-7780.599,1240.0717
970848.0375600251,-24746.135,-19480.428,-23251.14,-18015.91,-1065.7552,-22812.5,-7783.1626,1239.1357
970848.0415600225,-24744.223,-19479.492,-23252.117,-18015.828,-1065.5925,-22812.176,-7784.912,1240.0717
970848.0455600199,-24745.443,-19480.55,-23251.303,-18017.416,-1068.2781,-22812.338,-7788.127,1238.322
970848.0495600173,-24749.96,-19485.19,-23253.662,-18018.23,-1069.6208,-22814.941,-7793.62,1230.4281
970848.0535600147,-24751.953,-19489.625,-23256.797,-18018.719,-1073.4457,-22815.674,-7794.963,1224.8129
970848.0575600122,-24751.426,-19489.625,-23255.86,-18019.898,-1072.5505,-22814.129,-7795.451,1229.4109
970848.0615600096,-24751.1,-19492.514,-23253.623,-18017.822,-1069.7836,-22811.117,-7794.2305,1232.4219
970848.065560007,-24755.78,-19498.617,-23258.709,-18019.775,-1070.8416,-22811.484,-7791.667,1236.084
970848.0695600044,-24760.703,-19495.037,-23258.098,-18019.654,-1070.8822,-22814.209,-7790.4053,1235.9213
970848.0735600018,-24766.684,-19497.438,-23253.623,-18018.678,-1069.8242,-22815.797,-7793.742,1233.1951
970848.0775599992,-24757.53,-19503.744,-23255.576,-18020.06,-1064.738,-22814.861,-7795.532,1226.4812
970848.0815599967,-24753.867,-19490.113,-23255.453,-18020.508,-1065.3484,-22813.355,-7794.5557,1229.4922
970848.0855599941,-24752.28,-19484.416,-23255.25,-18021.729,-1065.5518,-22810.467,-7790.1206,1237.915
970848.0895599915,-24751.465,-19481.568,-23257.244,-18021.77,-1064.9008,-22810.71,-7791.3413,1235.1074
970848.0935599889,-24752.523,-19482.79,-23259.848,-18020.508,-1067.2607,-22811.646,-7791.219,1231.0385
970848.0975599863,-24752.85,-19485.555,-23262.656,-18022.502,-1068.7664,-22811.564,-7788.1675,1241.9027
970848.1015599838,-24750.285,-19483.236,-23259.441,-18022.217,-1068.8477,-22809.082,-7784.709,1251.3835
970848.1055599812,-24754.72,-19484.457,-23254.762,-18020.916,-1069.4988,-22810.223,-7786.9062,1247.64
970848.1095599786,-24754.314,-19486.451,-23252.441,-18019.287,-1069.7429,-22810.832,-7786.255,1244.873
970848.113559976,-24746.787,-19486.166,-23253.012,-18017.822,-1072.225,-22811.443,-7786.2144,1239.1765
970848.1175599734,-24742.107,-19485.637,-23253.174,-18019.043,-1071.4111,-22811.24,-7785.482,1245.0765
970848.1215599708,-24740.967,-19484.701,-23250.123,-18020.59,-1072.4285,-22809.246,-7787.1504,1248.5352
970848.1255599683,-24739.91,-19484.375,-23251.426,-18021.078,-1072.6318,-22809.979,-7788.33,1246.6228
970848.1295599657,-24740.031,-19486.816,-23250.408,-18020.467,-1069.9056,-22809.979,-7786.2144,1250.8953
970848.1335599631,-24744.06,-19488.322,-23251.303,-18021.729,-1071.0857,-22809.896,-7786.418,1250.2441
970848.1375599605,-24740.154,-19485.352,-23250.408,-18021.893,-1073.4863,-22809.123,-7786.418,1252.0752
970848.1415599579,-24734.13,-19480.795,-23247.031,-18019.328,-1073.5677,-22807.861,-7783.081,1261.5154
970848.1455599553,-24729.371,-19478.23,-23245.322,-18017.172,-1073.4863,-22806.234,-7781.7383,1261.3525
970848.1495599528,-24728.924,-19478.639,-23249.797,-18017.62,-1073.0388,-22806.723,-7781.616,1254.7607
970848.1535599502,-24729.574,-19479.615,-23248.984,-18019.857,-1072.225,-22805.34,-7777.588,1258.4636
970848.1575599476,-24730.348,-19480.633,-23246.867,-18022.95,-1074.8291,-22805.34,-7772.705,1265.2588
970848.161559945,-24734.213,-19484.05,-23240.928,-18023.64,-1072.6726,-22805.258,-7769.613,1273.2341
970848.1655599424,-24733.154,-19475.668,-23242.473,-18022.34,-1070.5974,-22803.143,-7769.165,1276.9775
970848.1695599398,-24729.248,-19469.686,-23246.217,-18022.625,-1067.5457,-22804.566,-7769.857,1273.2341
970848.1735599373,-24724.691,-19469.89,-23243.979,-18022.908,-1066.2842,-22804.404,-7769.3687,1270.874
970848.1775599347,-24718.67,-19468.14,-23238.69,-18022.625,-1066.2435,-22804.81,-7767.253,1274.9023
970848.1815599321,-24714.844,-19459.188,-23235.84,-18019.898,-1063.8835,-22804.2,-7762.492,1283.6101
970848.1855599295,-24714.316,-19457.072,-23235.19,-18018.148,-1062.1746,-22805.502,-7762.7363,1288.2894
970848.1895599269,-24714.111,-19456.219,-23233.725,-18016.521,-1059.3262,-22806.479,-7763.021,1290.1205
970848.1935599244,-24712.688,-19454.428,-23231.975,-18017.01,-1056.6406,-22807.293,-7764.1196,1290.6494
970848.1975599218,-24715.088,-19453.654,-23230.592,-18017.904,-1057.4545,-22805.746,-7765.5845,1288.1674
970848.2015599192,-24722.168,-19454.51,-23224.162,-18017.01,-1054.6875,-22807.129,-7770.4673,1280.3549
970848.2055599166,-24722.78,-19452.148,-23224.488,-18015.016,-1051.7172,-22810.67,-7773.8447,1279.5004
970848.209559914,-24719.932,-19454.998,-23230.633,-18014.73,-1053.1414,-22812.256,-7775.757,1270.5486
970848.2135599114,-24717.57,-19456.543,-23231.242,-18015.096,-1053.3447,-22812.582,-7775.635,1267.9851
970848.2175599089,-24711.549,-19458.375,-23232.057,-18015.504,-1052.124,-22811.32,-7774.3735,1269.6941
970848.2215599063,-24716.27,-19460.693,-23230.469,-18013.348,-1051.5544,-22812.297,-7775.228,1265.9506
970848.2255599037,-24719.32,-19457.154,-23227.295,-18012.615,-1052.6123,-22815.594,-7778.1577,1260.8236
970848.229559901,-24715.008,-19456.219,-23232.422,-18011.639,-1051.3916,-22814.291,-7780.5176,1259.2773
970848.2335598985,-24719.238,-19459.27,-23234.701,-18012.127,-1052.8972,-22811.28,-7779.5005,1262.4512
970848.2375598958,-24724.488,-19464.479,-23233.725,-18012.207,-1052.3275,-22810.67,-7777.1406,1259.8064
970848.2415598934,-24726.035,-19467.45,-23233.969,-18012.492,-1051.5951,-22812.46,-7779.989,1253.0925
970848.2455598908,-24723.674,-19462.158,-23233.277,-18010.01,-1050.3337,-22812.988,-7780.477,1261.1898
970848.2495598882,-24724.285,-19460.896,-23228.924,-18007.936,-1049.1943,-22815.797,-7786.662,1253.1738
970848.2535598855,-24727.662,-19460.084,-23227.377,-18005.941,-1047.8516,-22818.197,-7792.4805,1245.3207
970848.257559883,-24721.03,-19458.293,-23230.186,-18004.232,-1046.4275,-22819.824,-7798.0957,1238.0779
970848.2615598803,-24718.303,-19461.834,-23232.26,-18004.803,-1046.7123,-22821.29,-7801.351,1236.1248
970848.2655598779,-24719.523,-19455.73,-23234.62,-18005.006,-1049.4792,-22822.592,-7801.5137,1236.8978
970848.2695598752,-24723.674,-19455.12,-23232.3,-18006.633,-1053.1414,-22823.283,-7801.7173,1235.2295
970848.2735598726,-24727.865,-19456.178,-23232.422,-18008.871,-1053.0193,-22821.533,-7798.4214,1237.8337
970848.27755987,-24725.424,-19454.754,-23229.818,-18008.627,-1050.7812,-22818.93,-7794.841,1240.8041
970848.2815598674,-24730.877,-19452.557,-23228.639,-18006.836,-1048.5433,-22820.191,-7794.393,1241.7806
970848.2855598648,-24728.232,-19453.207,-23230.469,-18005.738,-1047.7703,-22821.127,-7796.0205,1238.1592
970848.2895598623,-24717.773,-19454.266,-23233.074,-18007.488,-1052.2054,-22821.045,-7795.2476,1240.6006
970848.2935598597,-24727.377,-19450.887,-23234.66,-18009.48,-1054.9724,-22821.086,-7794.6777,1241.6992
970848.2975598571,-24724.365,-19448.324,-23232.3,-18010.54,-1053.1414,-22817.912,-7788.778,1245.28
970848.3015598545,-24714.64,-19447.55,-23228.516,-18009.562,-1052.9379,-22816.691,-7783.081,1250.1221
970848.3055598519,-24711.346,-19447.877,-23225.871,-18009.115,-1054.8503,-22816.977,-7781.616,1252.9705
970848.3095598494,-24713.217,-19444.824,-23226.97,-18008.871,-1053.7109,-22817.344,-7782.2676,1253.0111
970848.3135598468,-24713.014,-19446.615,-23225.098,-18008.668,-1050.6592,-22817.383,-7782.064,1254.0691
970848.3175598442,-24709.107,-19448.65,-23223.105,-18008.424,-1047.6482,-22818.686,-7780.1514,1256.8767
970848.3215598416,-24713.787,-19439.168,-23226.28,-18011.963,-1050.9033,-22818.156,-7777.181,1265.3809
970848.325559839,-24716.27,-19438.191,-23232.707,-18015.504,-1055.8676,-22815.512,-7774.089,1268.0664
970848.3295598364,-24717.49,-19440.35,-23232.26,-18018.434,-1060.4248,-22813.193,-7772.6646,1268.3105
970848.3335598339,-24717.979,-19446.697,-23233.44,-18020.71,-1068.4001,-22811.605,-7770.9556,1271.8506
970848.3375598313,-24722.168,-19449.139,-23235.88,-18019.979,-1071.4519,-22812.379,-7771.8916,1270.6299
970848.3415598287,-24721.191,-19444.662,-23237.998,-18019.695,-1068.807,-22813.6,-7772.2983,1270.1416
970848.3455598261,-24720.908,-19444.295,-23237.957,-18020.71,-1067.3015,-22812.582,-7773.275,1271.3217
970848.3495598235,-24730.266,-19448.61,-23242.066,-18021.404,-1068.5629,-22809.693,-7774.8213,1267.456
970848.3535598209,-24737.672,-19453.94,-23244.508,-18023.52,-1071.6553,-22809.775,-7777.2627,1262.3699
970848.3575598184,-24736.98,-19456.014,-23240.684,-18023.846,-1068.0746,-22808.879,-7776.245,1264.4043
970848.3615598158,-24738.404,-19453.572,-23241.049,-18022.746,-1066.2435,-22808.879,-7774.699,1265.7064
970848.3655598132,-24743.49,-19450.643,-23242.637,-18024.861,-1069.1732,-22810.547,-7776.123,1266.805
970848.3695598106,-24738.525,-19447.592,-23240.643,-18024.373,-1070.0277,-22810.264,-7776.9775,1262.8988
970848.373559808,-24732.79,-19448.771,-23238.363,-18023.926,-1070.516,-22811.605,-7776.815,1261.1492
970848.3775598054,-24732.178,-19448.527,-23238.893,-18021.607,-1069.7429,-22811.523,-7775.635,1267.334
970848.3815598029,-24730.877,-19446.29,-23236.613,-18019.654,-1066.5283,-22813.152,-7776.001,1266.9271
970848.3855598003,-24729.98,-19445.68,-23234.295,-18018.514,-1063.8835,-22815.797,-7778.768,1263.8754
970848.3895597977,-24735.678,-19444.05,-23236.207,-18016.48,-1066.04,-22819.092,-7783.0,1255.4932
970848.3935597951,-24738.852,-19446.492,-23236.004,-18015.504,-1069.0105,-22821.29,-7783.7324,1256.8767
970848.3975597925,-24738.525,-19445.027,-23234.213,-18016.195,-1070.4346,-22822.227,-7787.5977,1256.6732
970848.40155979,-24738.322,-19444.865,-23235.516,-18015.79,-1068.0339,-22822.186,-7789.5103,1256.3477
970848.4055597874,-24737.225,-19447.918,-23238.525,-18015.545,-1071.2078,-22820.924,-7789.266,1257.487
970848.4095597848,-24737.59,-19454.713,-23239.543,-18016.195,-1074.056,-22821.818,-7791.0156,1251.5869
970848.4135597822,-24737.59,-19454.754,-23239.422,-18015.625,-1072.5505,-22823.324,-7795.288,1243.6523
970848.4175597796,-24735.76,-19443.36,-23235.84,-18012.451,-1068.6035,-22823.365,-7796.1836,1239.7869
970848.421559777,-24735.8,-19440.389,-23234.742,-18009.48,-1067.4236,-22821.209,-7788.9404,1249.7152
970848.4255597745,-24733.766,-19441.488,-23235.393,-18009.725,-1070.9229,-22821.006,-7785.8887,1256.4291
970848.4295597719,-24733.236,-19441.082,-23236.045,-18009.318,-1071.167,-22822.062,-7787.191,1253.9877
970848.4335597693,-24736.084,-19444.336,-23235.027,-18009.889,-1072.998,-22822.959,-7788.208,1249.5117
970848.4375597667,-24728.68,-19440.268,-23233.115,-18010.742,-1071.8588,-22821.127,-7786.174,1256.2256
970848.4415597641,-24729.248,-19438.152,-23233.44,-18013.428,-1072.2656,-22818.768,-7784.0986,1266.6016
970848.4455597615,-24732.342,-19443.562,-23238.607,-18016.846,-1074.3408,-22819.174,-7786.743,1258.8705
970848.449559759,-24733.36,-19444.418,-23239.625,-18016.846,-1074.4222,-22817.383,-7784.0986,1263.1836
970848.4535597564,-24735.678,-19437.215,-23239.096,-18016.195,-1069.865,-22816.65,-7780.4365,1272.9086
970848.4575597538,-24733.521,-19430.95,-23241.21,-18016.195,-1068.8884,-22816.0,-7777.2627,1274.6176
970848.4615597512,-24729.086,-19429.078,-23240.398,-18015.057,-1069.0918,-22815.512,-7774.7803,1276.6113
970848.4655597486,-24727.05,-19429.525,-23242.229,-18016.072,-1072.225,-22815.553,-7775.5537,1280.0293
970848.469559746,-24724.162,-19432.74,-23240.072,-18016.928,-1076.2533,-22816.203,-7779.785,1276.5707
970848.4735597435,-24723.553,-19437.785,-23234.986,-18017.01,-1079.3457,-22818.076,-7778.402,1279.1748
970848.4775597409,-24721.559,-19438.559,-23230.957,-18014.812,-1078.3285,-22817.871,-7778.28,1273.8851
970848.4815597383,-24722.697,-19438.436,-23231.895,-18015.707,-1079.1423,-22818.564,-7780.3955,1276.4486
970848.4855597357,-24723.674,-19437.42,-23233.318,-18016.398,-1076.6195,-22817.506,-7779.297,1281.8197
970848.4895597331,-24723.389,-19433.025,-23235.068,-18017.213,-1075.3988,-22816.162,-7778.076,1279.8259
970848.4935597306,-24724.814,-19431.479,-23237.998,-18017.66,-1074.056,-22817.059,-7777.2627,1279.4597
970848.497559728,-24724.57,-19432.008,-23235.76,-18017.66,-1068.5629,-22815.959,-7776.3267,1277.5066
970848.5015597254,-24721.965,-19430.176,-23235.557,-18016.357,-1066.6504,-22813.03,-7773.0713,1280.0701
970848.5055597228,-24720.785,-19429.158,-23233.725,-18014.771,-1067.7084,-22809.814,-7770.8335,1282.7148
970848.5095597202,-24722.861,-19431.926,-23233.521,-18015.016,-1070.9636,-22811.117,-7772.746,1278.9307
970848.5135597176,-24724.285,-19433.717,-23235.352,-18015.828,-1071.8994,-22811.361,-7772.9087,1276.5707
970848.5175597151,-24723.838,-19435.385,-23236.248,-18016.805,-1072.4691,-22812.541,-7776.571,1270.5892
970848.5215597125,-24725.262,-19439.982,-23235.148,-18016.928,-1073.7712,-22813.07,-7778.3613,1268.9617
970848.5255597099,-24726.645,-19444.459,-23233.684,-18016.398,-1075.114,-22811.688,-7779.419,1271.5251
970848.5295597073,-24727.744,-19441.406,-23235.312,-18014.893,-1072.6318,-22810.832,-7780.1924,1275.2686
970848.5335597047,-24725.139,-19435.182,-23236.777,-18015.137,-1070.5974,-22809.734,-7779.0938,1274.9431
970848.5375597021,-24721.559,-19429.607,-23235.23,-18015.91,-1067.5457,-22808.188,-7779.989,1270.3044
970848.5415596996,-24722.738,-19431.926,-23233.807,-18017.01,-1069.1732,-22809.002,-7780.5586,1271.6064
970848.545559697,-24726.441,-19434.652,-23235.963,-18016.072,-1069.6208,-22809.123,-7780.599,1275.1873
970848.5495596944,-24729.697,-19437.297,-23240.846,-18016.072,-1071.2484,-22809.002,-7778.28,1280.7617
970848.5535596918,-24725.994,-19438.436,-23240.602,-18016.521,-1070.8822,-22807.902,-7776.245,1276.7742
970848.5575596892,-24722.576,-19437.297,-23243.734,-18017.01,-1071.5332,-22807.781,-7777.385,1272.9492
970848.5615596866,-24719.605,-19435.71,-23240.113,-18015.584,-1071.5332,-22808.31,-7778.6055,1277.9135
970848.5655596841,-24724.488,-19435.506,-23239.096,-18014.12,-1071.8994,-22809.408,-7778.3203,1282.1045
970848.5695596815,-24729.697,-19437.256,-23243.37,-18014.648,-1074.6257,-22810.14,-7779.948,1277.5879
970848.5735596789,-24727.865,-19439.129,-23246.623,-18017.293,-1075.6023,-22810.629,-7782.5522,1280.3549
970848.5775596763,-24724.61,-19439.861,-23245.973,-18016.236,-1074.5037,-22811.361,-7783.773,1282.6742
970848.5815596737,-24722.82,-19440.227,-23244.629,-18014.812,-1072.1029,-22811.361,-7783.4883,1291.0564
970848.585559671,-24720.703,-19440.35,-23243.652,-18014.08,-1072.6726,-22811.523,-7782.959,1292.2363
970848.5895596686,-24720.297,-19440.877,-23244.223,-18013.307,-1072.347,-22810.832,-7782.6743,1292.0736
970848.593559666,-24724.082,-19437.379,-23243.652,-18012.574,-1069.7429,-22810.1,-7785.075,1286.8652
970848.5975596634,-24725.18,-19430.502,-23241.008,-18012.492,-1066.7725,-22810.426,-7787.2725,1281.2908
970848.6015596607,-24720.703,-19426.96,-23243.084,-18011.639,-1067.749,-22811.646,-7787.6387,1284.5459
970848.6055596581,-24707.928,-19424.316,-23240.764,-18010.254,-1065.5518,-22810.752,-7784.465,1289.6322
970848.6095596557,-24701.58,-19423.26,-23237.875,-18010.621,-1063.4359,-22810.914,-7783.0405,1288.6556
970848.613559653,-24703.451,-19424.764,-23237.754,-18011.15,-1064.9414,-22811.809,-7780.721,1285.0342
970848.6175596504,-24709.229,-19424.113,-23234.62,-18012.94,-1066.5691,-22811.605,-7777.303,1285.3597
970848.6215596478,-24711.387,-19423.666,-23234.701,-18013.998,-1065.7146,-22812.135,-7773.519,1290.8529
970848.6255596452,-24702.922,-19424.072,-23235.8,-18015.178,-1065.918,-22812.379,-7770.101,1293.1722
970848.6295596426,-24700.033,-19423.504,-23238.281,-18014.363,-1064.7787,-22812.705,-7768.392,1292.7246
970848.6335596401,-24700.604,-19425.537,-23242.637,-18014.486,-1064.4939,-22810.873,-7768.4326,1296.4681
970848.6375596375,-24702.434,-19426.229,-23241.334,-18016.398,-1063.8428,-22811.24,-7769.6533,1299.8455
970848.6415596349,-24700.033,-19420.857,-23237.793,-18015.137,-1063.8835,-22810.303,-7768.514,1302.7751
970848.6455596323,-24700.115,-19421.713,-23239.463,-18014.486,-1067.3422,-22810.426,-7770.223,1298.6654
970848.6495596297,-24699.463,-19425.334,-23240.723,-18015.707,-1072.4285,-22811.768,-7773.397,1294.7185
970848.6535596271,-24700.36,-19421.795,-23242.107,-18016.643,-1074.056,-22812.135,-7773.519,1297.3226
970848.6575596246,-24700.562,-19418.621,-23238.566,-18017.986,-1071.6553,-22810.182,-7767.6597,1300.6185
970848.661559622,-24695.598,-19419.475,-23234.742,-18016.725,-1065.1855,-22809.611,-7763.3057,1301.6357
970848.6655596194,-24689.982,-19417.44,-23231.895,-18016.48,-1066.8539,-22807.252,-7758.9927,1310.669
970848.6695596168,-24689.78,-19421.795,-23231.975,-18016.887,-1068.8477,-22806.357,-7756.714,1315.389
970848.6735596142,-24688.273,-19419.76,-23229.818,-18015.34,-1067.3015,-22808.594,-7758.8706,1313.6394
970848.6775596116,-24678.63,-19413.738,-23225.912,-18013.307,-1067.3422,-22810.385,-7761.0273,1309.9773
970848.6815596091,-24672.486,-19413.127,-23229.248,-18011.8,-1068.6035,-22810.791,-7760.5796,1311.198
970848.6855596065,-24671.836,-19413.941,-23229.045,-18012.207,-1071.9402,-22811.361,-7764.038,1306.2744
970848.6895596039,-24676.434,-19413.738,-23229.371,-18012.615,-1076.6195,-22812.785,-7766.683,1301.2695
970848.6935596013,-24677.37,-19411.5,-23229.533,-18012.777,-1073.4863,-22814.738,-7767.212,1303.182
970848.6975595987,-24674.113,-19408.285,-23225.383,-18012.898,-1068.2781,-22811.932,-7762.6953,1308.5938
970848.7015595962,-24675.781,-19407.715,-23224.326,-18013.836,-1067.9119,-22810.752,-7762.6953,1311.2793
970848.7055595936,-24673.625,-19408.53,-23222.697,-18013.795,-1067.6677,-22811.932,-7768.514,1311.0759
970848.709559591,-24670.045,-19409.506,-23221.64,-18014.771,-1068.5629,-22815.756,-7773.8853,1298.055
970848.7135595884,-24666.912,-19404.379,-23221.396,-18013.592,-1068.4408,-22814.576,-7772.9087,1295.9799
970848.7175595858,-24666.953,-19405.152,-23220.826,-18012.777,-1069.7836,-22814.291,-7768.026,1309.7332
970848.7215595832,-24668.457,-19406.494,-23217.855,-18013.266,-1070.2719,-22813.926,-7765.1777,1313.3138
970848.7255595807,-24666.424,-19402.955,-23215.7,-18012.533,-1065.4297,-22811.605,-7765.422,1312.0117
970848.7295595781,-24666.383,-19403.809,-23215.82,-18010.58,-1062.2966,-22811.768,-7764.7705,1309.6517
970848.7335595755,-24674.316,-19402.914,-23216.797,-18008.709,-1059.367,-22812.217,-7768.392,1304.0365
970848.7375595729,-24669.15,-19394.654,-23215.943,-18008.383,-1054.3213,-22812.012,-7768.799,1305.7048
970848.7415595703,-24658.285,-19397.176,-23216.229,-18008.504,-1054.6469,-22815.105,-7769.287,1307.7393
970848.7455595677,-24656.373,-19394.775,-23215.902,-18008.871,-1055.1758,-22817.832,-7767.456,1314.209
970848.7495595652,-24654.705,-19390.992,-23215.088,-18008.912,-1057.1289,-22816.041,-7766.8457,1311.5642
970848.7535595626,-24656.414,-19393.27,-23214.764,-18008.79,-1057.5765,-22812.867,-7763.1025,1315.9587
970848.75755956,-24660.4,-19393.352,-23215.373,-18011.23,-1056.8035,-22813.762,-7761.4746,1316.8945
970848.7615595574,-24658.691,-19386.434,-23210.002,-18011.395,-1054.6062,-22813.64,-7761.963,1316.2842
970848.7655595548,-24662.924,-19386.475,-23208.375,-18011.027,-1051.4324,-22811.768,-7762.37,1314.4531
970848.7695595522,-24664.674,-19388.104,-23212.402,-18009.48,-1051.2695,-22810.832,-7763.3057,1311.2793
970848.7735595497,-24660.523,-19388.672,-23215.902,-18010.621,-1053.6703,-22810.832,-7765.422,1309.8145
970848.7775595471,-24658.53,-19386.15,-23213.46,-18011.23,-1052.8564,-22811.646,-7765.788,1313.68
970848.7815595445,-24656.943,-19384.197,-23212.729,-18009.277,-1052.9379,-22812.053,-7766.683,1312.907
970848.7855595419,-24661.826,-19384.807,-23210.002,-18009.277,-1054.24,-22812.176,-7767.7,1309.9365
970848.7895595393,-24664.55,-19387.451,-23211.955,-18012.127,-1053.7517,-22812.582,-7768.2295,1306.3965
970848.7935595368,-24665.365,-19388.795,-23210.41,-18011.516,-1053.8738,-22813.03,-7765.788,1306.6814
970848.7975595342,-24661.541,-19384.236,-23210.084,-18007.895,-1054.362,-22816.447,-7768.677,1301.6357
970848.8015595316,-24656.658,-19378.012,-23215.129,-18006.47,-1054.3213,-22819.703,-7770.793,1304.4434
970848.805559529,-24659.18,-19375.203,-23212.646,-18006.43,-1052.8158,-22819.215,-7767.0493,1311.4828
970848.8095595264,-24659.791,-19373.78,-23208.984,-18006.348,-1051.6765,-22816.041,-7762.2886,1317.098
970848.8135595238,-24659.873,-19374.146,-23209.19,-18008.992,-1050.415,-22814.047,-7759.481,1321.9402
970848.8175595213,-24658.0,-19373.535,-23207.56,-18007.08,-1051.0254,-22812.785,-7759.237,1321.8994
970848.8215595187,-24659.018,-19371.867,-23202.963,-18007.854,-1048.6654,-22812.705,-7758.586,1320.0684
970848.8255595161,-24664.55,-19374.105,-23205.73,-18009.197,-1049.764,-22812.541,-7758.5044,1324.1375
970848.8295595135,-24665.08,-19372.885,-23209.31,-18007.812,-1048.1771,-22812.744,-7760.4575,1320.7195
970848.8335595109,-24666.586,-19373.414,-23209.678,-18007.08,-1045.2068,-22813.926,-7763.4688,1317.3422
970848.8375595083,-24660.727,-19374.553,-23207.684,-18006.756,-1047.3633,-22814.738,-7765.0146,1313.7207
970848.8415595058,-24657.676,-19374.756,-23204.102,-18006.674,-1050.4965,-22815.35,-7762.37,1315.5111
970848.8455595032,-24651.855,-19371.582,-23202.148,-18005.738,-1048.6248,-22814.658,-7760.01,1316.8945
970848.8495595006,-24653.688,-19374.35,-23206.828,-18007.977,-1051.2695,-22814.25,-7757.7314,1319.6208
970848.853559498,-24659.059,-19375.447,-23211.955,-18010.133,-1054.24,-22814.617,-7757.0396,1322.347
970848.8575594954,-24660.197,-19375.123,-23210.693,-18009.277,-1053.5076,-22815.35,-7759.6846,1320.3533
970848.8615594928,-24657.227,-19375.164,-23208.457,-18006.633,-1048.8689,-22815.47,-7760.661,1317.3015
970848.8655594903,-24662.314,-19377.156,-23208.375,-18006.877,-1050.0488,-22816.244,-7764.323,1314.0056
970848.8695594877,-24663.453,-19372.682,-23205.73,-18007.121,-1051.7172,-22817.506,-7767.4155,1304.0365
970848.8735594851,-24659.506,-19374.146,-23204.713,-18006.348,-1050.7,-22817.953,-7767.7817,1304.1586
970848.8775594825,-24658.732,-19372.314,-23205.893,-18006.512,-1048.4619,-22817.22,-7764.8115,1305.9896
970848.8815594799,-24656.861,-19369.996,-23206.055,-18006.023,-1048.584,-22815.309,-7762.004,1313.5173
970848.8855594773,-24657.512,-19368.287,-23207.725,-18004.883,-1047.6074,-22814.291,-7759.4404,1314.5345
970848.8895594748,-24657.512,-19369.1,-23209.066,-18005.818,-1045.8984,-22814.982,-7760.3354,1311.0759
970848.8935594722,-24657.594,-19368.775,-23208.049,-18006.145,-1043.9453,-22815.43,-7763.3057,1305.2979
970848.8975594696,-24658.447,-19366.334,-23205.73,-18005.209,-1042.4805,-22814.576,-7766.032,1292.9281
970848.901559467,-24654.582,-19366.17,-23205.04,-18004.03,-1045.4916,-22815.715,-7764.364,1291.626
970848.9055594644,-24652.996,-19365.682,-23204.795,-18003.906,-1047.2412,-22816.123,-7765.544,1297.5261
970848.9095594619,-24654.582,-19365.56,-23205.12,-18003.5,-1047.6074,-22815.635,-7765.1367,1300.0896
970848.9135594593,-24655.03,-19364.787,-23205.527,-18003.338,-1046.1833,-22817.059,-7766.317,1299.2758
970848.9175594567,-24651.979,-19363.81,-23206.666,-18002.117,-1043.1316,-22818.115,-7766.7646,1302.6531
970848.9215594541,-24652.1,-19364.178,-23207.357,-18001.385,-1045.0033,-22819.215,-7770.1416,1299.7234
970848.9255594515,-24655.518,-19367.514,-23206.299,-18001.588,-1044.3523,-22820.883,-7775.106,1295.8171
970848.9295594489,-24651.855,-19365.398,-23206.748,-18001.18,-1040.4053,-22821.045,-7776.4487,1290.4053
970848.9335594464,-24648.398,-19365.438,-23205.648,-18000.285,-1040.1205,-22821.086,-7775.635,1292.4805
970848.9375594438,-24650.432,-19366.62,-23207.072,-18000.936,-1039.9984,-22821.209,-7776.408,1292.7654
970848.9415594412,-24650.432,-19367.229,-23209.393,-18003.582,-1043.9453,-22822.227,-7776.4487,1295.6951
970848.9455594386,-24645.834,-19366.822,-23205.04,-18003.418,-1043.864,-22819.662,-7775.757,1303.833
970848.949559436,-24646.201,-19368.531,-23204.184,-18002.727,-1046.1019,-22820.191,-7779.8667,1296.9564
970848.9535594333,-24648.154,-19368.531,-23206.787,-18002.605,-1044.5557,-22821.818,-7782.715,1290.2426
970848.9575594309,-24649.21,-19368.693,-23205.322,-18000.732,-1041.3818,-22825.521,-7784.709,1288.208
970848.9615594283,-24650.92,-19368.367,-23204.021,-17999.188,-1038.0859,-22826.05,-7782.837,1297.0378
970848.9655594256,-24650.758,-19366.658,-23206.137,-17998.738,-1032.4707,-22823.771,-7778.3613,1296.8344
970848.969559423,-24652.588,-19367.717,-23206.422,-17997.803,-1033.6101,-22823.486,-7778.4424,1289.1846
970848.9735594204,-24651.611,-19366.13,-23204.998,-17995.443,-1035.075,-22823.242,-7778.524,1286.377
970848.9775594178,-24652.1,-19367.514,-23204.957,-17996.094,-1037.0281,-22822.592,-7778.6055,1290.446
970848.9815594153,-24648.56,-19366.13,-23202.148,-17994.914,-1038.1674,-22822.43,-7783.1626,1293.457
970848.9855594127,-24645.672,-19364.705,-23196.453,-17992.229,-1036.9873,-22824.545,-7788.574,1289.0219
970848.9895594101,-24646.893,-19369.71,-23195.762,-17990.154,-1036.1328,-22826.701,-7790.8125,1288.3708
970848.9935594075,-24644.695,-19367.92,-23198.365,-17988.729,-1032.959,-22828.533,-7791.911,1290.6088
970848.9975594049,-24644.816,-19361.94,-23197.918,-17988.934,-1029.2562,-22827.19,-7789.4697,1297.4447
970849.0015594024,-24646.201,-19364.502,-23196.656,-17990.193,-1031.9418,-22826.416,-7786.2144,1298.8689
970849.0055593998,-24648.234,-19365.643,-23198.812,-17992.514,-1033.7322,-22826.621,-7786.947,1298.4619
970849.0095593972,-24651.043,-19369.02,-23199.342,-17991.902,-1034.2611,-22826.498,-7787.2314,1294.9219
970849.0135593946,-24651.123,-19367.31,-23198.283,-17991.09,-1032.2266,-22825.645,-7787.1504,1290.7308
970849.017559392,-24651.084,-19365.723,-23200.318,-17990.764,-1029.419,-22826.295,-7787.1094,1290.6494
970849.0215593894,-24651.652,-19368.45,-23202.8,-17991.822,-1033.4473,-22828.736,-7788.2896,1293.2537
970849.0255593869,-24653.037,-19367.473,-23202.963,-17990.682,-1032.1859,-22826.377,-7784.587,1299.5605
970849.0295593843,-24656.088,-19367.352,-23203.857,-17994.06,-1033.6101,-22824.342,-7781.372,1301.1882
970849.0335593817,-24655.273,-19366.74,-23203.166,-17996.053,-1031.5756,-22824.219,-7781.3315,1298.3806
970849.0375593791,-24653.973,-19367.635,-23205.81,-17996.42,-1032.0638,-22822.795,-7779.0938,1301.1068
970849.0415593765,-24654.623,-19366.293,-23203.898,-17995.24,-1031.9824,-22821.738,-7777.059,1304.1992
970849.0455593739,-24657.35,-19367.352,-23203.98,-17996.379,-1033.5287,-22821.371,-7775.5537,1310.8724
970849.0495593714,-24660.197,-19370.402,-23205.934,-17999.146,-1036.4177,-22819.824,-7774.7397,1314.4939
970849.0535593688,-24660.686,-19372.03,-23205.73,-17999.309,-1039.1033,-22821.25,-7776.7744,1311.6863
970849.0575593662,-24657.594,-19369.385,-23205.201,-17998.7,-1035.9701,-22821.533,-7774.333,1311.4014
970849.0615593636,-24652.955,-19364.096,-23201.621,-17997.723,-1035.848,-22820.8,-7770.3857,1311.4014
970849.065559361,-24651.531,-19362.02,-23201.945,-17998.088,-1034.6273,-22819.703,-7764.486,1317.9932
970849.0695593584,-24652.264,-19360.23,-23203.777,-17997.885,-1031.779,-22819.459,-7762.7363,1322.876
970849.0735593559,-24654.217,-19359.578,-23203.898,-17997.6,-1030.1107,-22820.068,-7764.038,1320.8822
970849.0775593533,-24655.926,-19360.148,-23201.457,-17996.867,-1027.9135,-22821.127,-7762.6143,1316.7318
970849.0815593507,-24652.588,-19360.027,-23199.424,-17997.273,-1026.8555,-22821.697,-7763.1025,1321.2891
970849.0855593481,-24650.39,-19358.074,-23197.918,-17997.03,-1026.2859,-22821.453,-7763.835,1326.823
970849.0895593455,-24648.967,-19356.324,-23195.924,-17995.525,-1022.3796,-22819.377,-7761.068,1322.3877
970849.093559343,-24650.555,-19358.318,-23199.627,-17996.094,-1026.408,-22818.441,-7759.3184,1317.1794
970849.0975593404,-24652.832,-19361.572,-23200.074,-17998.332,-1030.1514,-22819.053,-7760.9053,1313.6394
970849.1015593378,-24655.438,-19362.752,-23203.613,-17999.512,-1030.9652,-22818.156,-7762.085,1311.7676
970849.1055593352,-24662.842,-19364.787,-23205.893,-17999.35,-1027.8728,-22816.53,-7765.4624,1313.4766
970849.1095593326,-24667.604,-19368.816,-23211.875,-17999.715,-1027.3845,-22817.018,-7767.9443,1310.1807
970849.11355933,-24660.4,-19364.666,-23208.252,-17999.715,-1027.9541,-22816.814,-7766.4795,1312.7035
970849.1175593275,-24650.229,-19356.73,-23201.58,-17997.762,-1025.9603,-22817.668,-7764.608,1317.4642
970849.1215593249,-24647.87,-19356.975,-23197.918,-17996.258,-1027.3031,-22816.488,-7762.451,1320.5974
970849.1255593223,-24647.95,-19359.986,-23194.377,-17995.361,-1029.3376,-22815.594,-7762.7363,1316.4062
970849.1295593197,-24646.77,-19359.254,-23193.076,-17995.076,-1026.408,-22816.203,-7765.9507,1311.7676
970849.1335593171,-24647.625,-19363.484,-23191.203,-17994.629,-1027.059,-22816.162,-7768.5547,1308.2275
970849.1375593145,-24644.125,-19362.996,-23193.97,-17992.229,-1029.5004,-22817.344,-7769.9385,1308.8379
970849.141559312,-24648.682,-19365.846,-23195.312,-17992.799,-1029.8259,-22818.035,-7769.409,1317.5049
970849.1455593094,-24644.328,-19364.99,-23196.86,-17992.635,-1028.4017,-22819.947,-7769.8164,1317.5457
970849.1495593068,-24643.19,-19366.09,-23196.697,-17993.611,-1031.5349,-22821.9,-7772.746,1312.5
970849.1535593042,-24642.172,-19368.979,-23194.174,-17993.693,-1032.5928,-22823.121,-7771.9727,1306.8035
970849.1575593016,-24640.625,-19369.467,-23193.93,-17992.635,-1032.1859,-22822.51,-7769.409,1309.8552
970849.161559299,-24638.307,-19368.45,-23190.674,-17989.787,-1032.2266,-22821.086,-7770.793,1311.8896
970849.1655592965,-24635.906,-19364.666,-23186.484,-17989.99,-1030.3955,-22821.494,-7772.258,1316.7318
970849.1695592939,-24634.441,-19364.299,-23186.932,-17991.62,-1029.7852,-22822.145,-7771.037,1325.8464
970849.1735592913,-24630.371,-19362.834,-23186.28,-17992.432,-1027.181,-22822.47,-7770.101,1319.0105
970849.1775592887,-24628.662,-19362.143,-23184.855,-17994.305,-1022.86786,-22824.219,-7769.7754,1317.4642
970849.1815592861,-24630.738,-19363.445,-23186.076,-17994.955,-1024.0072,-22825.195,-7768.514,1326.7009
970849.1855592836,-24634.318,-19365.52,-23187.217,-17996.176,-1027.71,-22823.162,-7766.8867,1333.8217
970849.189559281,-24641.195,-19369.06,-23193.115,-17999.715,-1033.6914,-22824.79,-7769.206,1334.1064
970849.1935592784,-24642.375,-19367.635,-23194.377,-17999.35,-1031.3721,-22824.992,-7770.508,1324.9105
970849.1975592758,-24640.625,-19365.887,-23189.17,-17996.908,-1031.4941,-22822.021,-7772.38,1321.3705
970849.2015592732,-24642.54,-19369.873,-23186.564,-17997.234,-1033.6914,-22820.273,-7773.397,1324.6664
970849.2055592706,-24645.102,-19374.023,-23192.424,-17998.291,-1036.0107,-22822.104,-7774.8213,1321.2484
970849.2095592681,-24643.027,-19372.396,-23193.197,-17999.268,-1035.9294,-22822.348,-7773.926,1318.4001
970849.2135592655,-24643.84,-19375.285,-23192.953,-18001.14,-1035.5225,-22821.412,-7772.38,1321.0449
970849.2175592629,-24644.004,-19382.691,-23189.494,-18001.18,-1033.1625,-22820.477,-7769.0024,1324.2188
970849.2215592603,-24644.287,-19378.988,-23192.018,-18000.855,-1033.488,-22820.395,-7764.6895,1327.3113
970849.2255592577,-24643.596,-19373.902,-23194.012,-17999.838,-1034.2611,-22819.824,-7763.5093,1331.543
970849.2295592551,-24643.107,-19375.082,-23196.982,-18001.14,-1038.1674,-22821.412,-7765.0557,1330.892
970849.2335592526,-24646.078,-19375.53,-23196.697,-17999.797,-1038.2488,-22821.738,-7764.4453,1327.5554
970849.23755925,-24643.393,-19373.82,-23193.809,-17998.17,-1037.3535,-22820.232,-7758.9927,1331.9092
970849.2415592474,-24637.29,-19370.85,-23189.697,-17997.682,-1035.197,-22820.395,-7751.7905,1340.0472
970849.2455592448,-24636.15,-19370.85,-23187.623,-17996.502,-1033.9763,-22819.865,-7746.46,1349.1211
970849.2495592422,-24636.068,-19371.135,-23186.361,-17996.053,-1031.8604,-22819.174,-7744.7104,1350.5859
970849.2535592396,-24635.295,-19367.514,-23187.908,-17995.646,-1026.8555,-22819.906,-7743.9375,1351.8474
970849.2575592371,-24640.26,-19369.426,-23190.268,-17996.297,-1027.7507,-22820.477,-7743.5303,1355.3875
970849.2615592345,-24647.258,-19374.432,-23192.1,-17999.309,-1028.6865,-22820.436,-7745.7275,1355.6722
970849.2655592319,-24651.043,-19377.564,-23194.418,-18001.668,-1030.5583,-22821.209,-7745.158,1354.533
970849.2695592293,-24651.652,-19379.72,-23195.273,-18003.906,-1031.9824,-22822.104,-7743.3677,1356.2826
970849.2735592267,-24651.287,-19380.453,-23194.621,-18002.768,-1031.7383,-22820.883,-7742.7573,1359.0088
970849.277559224,-24649.7,-19378.744,-23194.459,-18000.936,-1030.9246,-22821.168,-7744.7104,1351.4404
970849.2815592216,-24647.584,-19376.709,-23193.848,-18000.326,-1030.599,-22820.68,-7744.507,1349.9349
970849.285559219,-24650.229,-19376.344,-23194.947,-18001.75,-1028.8086,-22820.639,-7744.1406,1353.5564
970849.2895592164,-24653.443,-19377.809,-23193.645,-18003.053,-1028.8086,-22822.227,-7746.338,1353.8818
970849.2935592138,-24650.39,-19374.635,-23194.5,-18002.076,-1027.7914,-22822.186,-7746.338,1350.3011
970849.2975592111,-24650.92,-19372.723,-23193.889,-18000.123,-1026.9775,-22821.168,-7746.379,1344.4011
970849.3015592087,-24648.193,-19373.455,-23192.262,-17999.92,-1027.181,-22821.006,-7745.1987,1345.866
970849.305559206,-24643.027,-19370.076,-23190.635,-17998.332,-1025.7162,-22819.824,-7744.751,1351.0336
970849.3095592035,-24641.48,-19367.514,-23188.518,-17997.193,-1023.1527,-22817.953,-7744.1406,1351.766
970849.3135592008,-24641.195,-19364.584,-23192.018,-17997.314,-1023.9665,-22816.773,-7746.948,1347.4935
970849.3175591982,-24639.812,-19361.492,-23191.691,-17996.541,-1023.1527,-22816.447,-7748.3726,1345.5404
970849.3215591956,-24637.98,-19361.654,-23189.738,-17995.89,-1019.40924,-22815.715,-7745.3613,1353.597
970849.3255591932,-24635.906,-19358.562,-23186.932,-17995.076,-1016.27606,-22816.406,-7745.4023,1353.3936
970849.3295591905,-24637.004,-19355.957,-23187.379,-17995.158,-1017.212,-22817.588,-7746.0127,1348.3887
970849.333559188,-24638.713,-19354.29,-23186.729,-17993.816,-1015.3402,-22817.383,-7747.64,1346.5576
970849.3375591853,-24636.312,-19352.254,-23184.979,-17991.537,-1013.83466,-22817.627,-7746.826,1349.8129
970849.3415591827,-24636.883,-19354.29,-23181.846,-17992.107,-1014.6078,-22817.344,-7745.6055,1357.0964
970849.3455591801,-24635.377,-19353.191,-23181.56,-17992.84,-1015.1774,-22815.105,-7744.548,1358.7646
970849.3495591776,-24637.492,-19352.986,-23183.676,-17994.305,-1018.7582,-22816.162,-7747.4775,1352.7426
970849.353559175,-24638.307,-19353.883,-23182.861,-17994.67,-1021.36237,-22817.424,-7748.291,1352.2543
970849.3575591724,-24639.771,-19353.191,-23178.834,-17994.06,-1018.71747,-22816.123,-7746.338,1357.5033
970849.3615591698,-24640.79,-19351.97,-23179.484,-17993.002,-1017.61884,-22816.162,-7741.9844,1362.8337
970849.3655591672,-24635.986,-19349.895,-23180.34,-17992.066,-1017.4154,-22815.309,-7737.59,1361.9385
970849.3695591646,-24635.865,-19351.238,-23181.602,-17993.123,-1018.9616,-22815.959,-7740.0312,1361.084
970849.3735591621,-24635.703,-19351.115,-23180.99,-17992.799,-1015.6657,-22818.035,-7744.8325,1354.533
970849.3775591595,-24631.268,-19347.412,-23181.234,-17990.438,-1012.65466,-22819.418,-7746.1753,1350.0164
970849.3815591569,-24630.494,-19344.32,-23179.932,-17988.322,-1011.7188,-22818.97,-7745.321,1356.0385
970849.3855591543,-24628.215,-19342.773,-23177.94,-17986.531,-1009.0739,-22817.953,-7743.612,1359.4564
970849.3895591517,-24626.588,-19341.064,-23176.23,-17985.19,-1008.13806,-22815.918,-7743.164,1363.0779
970849.3935591492,-24624.879,-19335.857,-23171.266,-17985.434,-1007.5684,-22815.715,-7743.5303,1359.5378
970849.3975591466,-24622.885,-19331.828,-23172.486,-17986.287,-1009.84705,-22816.814,-7745.443,1355.3875
970849.401559144,-24621.664,-19331.258,-23171.062,-17986.898,-1010.4574,-22816.406,-7744.5884,1358.3171
970849.4055591414,-24625.0,-19331.951,-23172.201,-17987.59,-1008.62634,-22816.041,-7744.0186,1361.4095
970849.4095591388,-24628.379,-19333.74,-23172.934,-17988.729,-1007.6498,-22817.871,-7745.443,1356.242
970849.4135591362,-24628.379,-19335.084,-23172.648,-17988.77,-1006.4698,-22818.523,-7746.338,1349.9349
970849.4175591337,-24627.97,-19335.002,-23174.195,-17987.63,-1003.78424,-22817.547,-7742.0654,1356.9336
970849.4215591311,-24627.238,-19334.352,-23175.254,-17988.201,-1006.7546,-22817.832,-7741.455,1358.1136
970849.4255591285,-24628.135,-19336.385,-23175.537,-17988.24,-1010.57947,-22817.832,-7741.089,1358.8054
970849.4295591259,-24629.15,-19338.787,-23174.969,-17987.63,-1011.43396,-22818.848,-7742.6353,1354.4109
970849.4335591233,-24630.982,-19340.617,-23173.504,-17986.207,-1011.92224,-22818.768,-7740.9263,1353.1088
970849.4375591207,-24629.883,-19337.158,-23169.963,-17982.137,-1011.2305,-22819.377,-7739.502,1354.0039
970849.4415591182,-24627.035,-19331.502,-23170.777,-17980.916,-1010.4167,-22822.998,-7741.6587,1355.6316
970849.4455591156,-24628.988,-19334.555,-23170.127,-17981.404,-1010.4574,-22823.568,-7742.6353,1355.9978
970849.449559113,-24628.053,-19333.13,-23171.348,-17982.586,-1010.4574,-22823.324,-7744.1,1352.6205
970849.4535591104,-24623.861,-19325.398,-23173.26,-17980.389,-1005.9001,-22824.18,-7745.6465,1354.2888
970849.4575591078,-24621.135,-19322.836,-23170.777,-17976.807,-998.6572,-22823.854,-7743.164,1353.5564
970849.4615591052,-24620.932,-19320.436,-23168.498,-17976.93,-998.3317,-22823.771,-7744.222,1354.126
970849.4655591027,-24624.268,-19317.139,-23170.654,-17977.295,-997.2738,-22822.674,-7743.612,1355.7943
970849.4695591001,-24623.008,-19316.854,-23171.713,-17976.93,-997.15173,-22821.982,-7744.1,1354.1667
970849.4735590975,-24621.95,-19317.586,-23171.062,-17976.848,-998.37244,-22825.074,-7747.1924,1349.7314
970849.4775590949,-24620.24,-19312.744,-23172.363,-17975.262,-996.94824,-22824.463,-7747.2334,1348.226
970849.4815590923,-24621.176,-19312.582,-23172.812,-17975.627,-997.80273,-22822.021,-7743.5713,1358.6426
970849.4855590898,-24624.879,-19317.994,-23174.44,-17975.953,-998.6166,-22821.533,-7741.577,1363.2
970849.4895590872,-24629.559,-19321.168,-23174.684,-17978.475,-1001.0987,-22823.283,-7743.408,1357.4219
970849.4935590846,-24628.174,-19322.795,-23175.416,-17982.098,-1006.59186,-22824.627,-7745.565,1354.2074
970849.497559082,-24628.297,-19322.713,-23172.445,-17981.324,-1006.02216,-22821.941,-7741.455,1359.9854
970849.5015590794,-24625.205,-19321.615,-23170.777,-17979.29,-1005.127,-22819.58,-7738.4033,1362.7117
970849.5055590768,-24624.594,-19322.55,-23173.79,-17977.947,-1006.9987,-22820.191,-7739.502,1363.0371
970849.5095590743,-24624.594,-19322.713,-23174.725,-17977.783,-1006.51044,-22822.021,-7743.083,1356.242
970849.5135590717,-24619.59,-19321.209,-23173.178,-17976.562,-1003.6622,-22822.47,-7747.966,1345.7845
970849.5175590691,-24616.252,-19316.977,-23169.719,-17974.65,-1000.5697,-22823.771,-7748.0063,1352.4578
970849.5215590665,-24616.781,-19316.977,-23170.615,-17974.53,-1000.44763,-22824.707,-7746.4194,1364.8682
970849.5255590639,-24618.734,-19322.877,-23170.615,-17974.53,-1002.56354,-22825.766,-7749.0645,1363.851
970849.5295590613,-24618.734,-19327.475,-23169.922,-17975.22,-1002.3194,-22826.092,-7751.506,1358.1543
970849.5335590588,-24626.303,-19327.352,-23172.568,-17977.824,-1007.44635,-22827.678,-7758.138,1348.877
970849.5375590562,-24625.53,-19328.207,-23175.254,-17978.68,-1010.57947,-22826.824,-7757.9346,1349.8943
970849.5415590536,-24623.861,-19330.893,-23174.805,-17979.29,-1014.2823,-22826.54,-7757.2837,1350.3826
970849.545559051,-24623.047,-19329.266,-23172.771,-17978.475,-1015.90985,-22825.195,-7754.2725,1348.226
970849.5495590484,-24623.373,-19328.654,-23173.38,-17977.01,-1015.09607,-22824.26,-7749.1865,1356.9744
970849.5535590458,-24622.967,-19327.596,-23176.84,-17977.459,-1012.736,-22822.55,-7747.1113,1358.2357
970849.5575590433,-24620.81,-19326.863,-23176.107,-17976.156,-1011.10846,-22822.674,-7745.687,1356.9744
970849.5615590407,-24623.576,-19328.166,-23174.928,-17976.238,-1008.7891,-22823.65,-7743.2456,1363.1592
970849.5655590381,-24626.832,-19329.875,-23176.31,-17976.97,-1007.5277,-22823.04,-7743.5713,1363.4441
970849.5695590355,-24629.559,-19329.59,-23178.06,-17977.336,-1006.7139,-22823.406,-7747.6807,1354.6143
970849.5735590329,-24630.656,-19326.66,-23182.74,-17978.68,-1003.4587,-22822.266,-7744.914,1360.7178
970849.5775590303,-24631.023,-19327.963,-23182.74,-17978.963,-1004.6794,-22821.9,-7740.967,1373.3724
970849.5815590278,-24629.07,-19327.068,-23182.21,-17978.354,-1006.22565,-22822.715,-7738.4033,1381.1035
970849.5855590252,-24627.158,-19324.951,-23179.607,-17977.295,-1006.7139,-22822.959,-7738.7695,1386.6375
970849.5895590226,-24626.426,-19325.928,-23175.457,-17978.191,-1007.9753,-22822.754,-7742.961,1382.5684
970849.59355902,-24624.594,-19326.295,-23172.16,-17978.68,-1012.0443,-22822.104,-7744.8325,1377.116
970849.5975590174,-24627.117,-19328.857,-23170.615,-17978.719,-1016.80505,-22822.47,-7749.471,1364.4207
970849.6015590149,-24632.244,-19335.287,-23171.592,-17980.51,-1020.62994,-22824.79,-7753.7437,1361.2875
970849.6055590123,-24638.672,-19340.252,-23175.457,-17981.283,-1021.28094,-22826.986,-7756.9175,1360.4736
970849.6095590097,-24642.742,-19343.018,-23180.87,-17983.236,-1019.24646,-22829.184,-7759.603,1357.8695
970849.6135590071,-24643.84,-19343.709,-23181.031,-17983.357,-1014.89264,-22828.736,-7762.777,1353.4343
970849.6175590045,-24646.852,-19341.92,-23178.508,-17981.648,-1010.90497,-22824.748,-7759.4404,1354.4515
970849.6215590019,-24649.984,-19345.541,-23179.12,-17983.074,-1011.2305,-22822.227,-7756.2256,1356.4453
970849.6255589994,-24650.555,-19349.244,-23182.334,-17985.922,-1013.46844,-22820.598,-7751.628,1357.5847
970849.6295589968,-24653.361,-19351.686,-23186.688,-17988.525,-1014.36365,-22820.477,-7748.576,1362.142
970849.6335589942,-24655.111,-19350.22,-23189.17,-17988.934,-1013.2243,-22820.68,-7744.914,1364.2172
970849.6375589916,-24653.24,-19349.0,-23186.32,-17987.793,-1012.45123,-22820.312,-7740.438,1361.8164
970849.641558989,-24650.758,-19349.0,-23179.648,-17986.531,-1015.0147,-22818.523,-7733.3984,1368.3269
970849.6455589863,-24650.025,-19351.482,-23176.922,-17986.084,-1016.47955,-22818.115,-7730.591,1371.2972
970849.6495589839,-24649.375,-19351.686,-23174.602,-17985.84,-1018.3106,-22816.0,-7727.783,1372.5994
970849.6535589813,-24645.06,-19345.582,-23176.352,-17985.23,-1016.9271,-22815.35,-7729.167,1372.3959
970849.6575589787,-24642.66,-19344.035,-23180.584,-17985.475,-1017.7816,-22816.814,-7732.7476,1371.989
970849.661558976,-24645.916,-19346.395,-23182.74,-17984.783,-1018.4327,-22817.547,-7731.9336,1372.4365
970849.6655589734,-24649.62,-19346.965,-23183.717,-17984.254,-1019.57196,-22816.855,-7731.079,1370.7275
970849.6695589708,-24651.611,-19347.047,-23182.578,-17986.043,-1020.91473,-22817.018,-7735.3516,1365.1531
970849.6735589684,-24649.414,-19345.256,-23179.893,-17984.66,-1018.92096,-22816.53,-7734.05,1368.0828
970849.6775589657,-24651.855,-19343.344,-23183.025,-17983.48,-1015.62506,-22815.227,-7729.7363,1380.5746
970849.6815589631,-24650.758,-19342.285,-23184.043,-17982.098,-1013.5905,-22814.82,-7726.7256,1387.2478
970849.6855589605,-24646.69,-19341.717,-23183.758,-17981.527,-1013.265,-22814.982,-7726.4,1390.3402
970849.6895589579,-24647.096,-19340.535,-23188.559,-17981.242,-1011.59674,-22814.738,-7725.383,1390.0146
970849.6935589554,-24646.69,-19339.803,-23193.238,-17981.527,-1011.06775,-22817.139,-7725.708,1393.0664
970849.6975589528,-24645.225,-19337.85,-23198.975,-17979.371,-1009.88776,-22819.703,-7728.6377,1390.2996
970849.7015589502,-24649.09,-19335.979,-23194.621,-17976.686,-1006.7139,-22821.209,-7732.0967,1383.9926
970849.7055589476,-24651.246,-19338.746,-23191.855,-17976.521,-1006.9987,-22821.941,-7733.236,1385.8236
970849.709558945,-24652.344,-19340.902,-23189.25,-17977.215,-1009.9284,-22821.533,-7734.253,1380.8187
970849.7135589424,-24652.832,-19343.547,-23187.705,-17977.703,-1014.6485,-22820.518,-7735.881,1377.1973
970849.7175589399,-24650.96,-19344.686,-23185.059,-17977.336,-1015.09607,-22820.8,-7735.5146,1379.3132
970849.7215589373,-24647.584,-19341.553,-23177.734,-17974.365,-1011.02704,-22821.209,-7731.9336,1383.7078
970849.7255589347,-24646.484,-19340.047,-23175.13,-17974.977,-1007.487,-22821.33,-7731.9336,1386.1898
970849.7295589321,-24649.537,-19340.576,-23175.13,-17975.342,-1004.84216,-22821.412,-7730.1436,1385.4167
970849.7335589295,-24652.385,-19344.727,-23181.031,-17976.848,-1006.55115,-22821.29,-7727.2544,1386.0677
970849.7375589269,-24654.42,-19346.07,-23182.658,-17978.76,-1008.7891,-22821.29,-7729.5737,1376.3021
970849.7415589244,-24659.709,-19349.121,-23180.908,-17979.615,-1010.8236,-22822.348,-7731.6895,1371.7855
970849.7455589218,-24664.55,-19355.754,-23186.85,-17983.277,-1014.5671,-22822.55,-7731.5674,1375.2035
970849.7495589192,-24665.0,-19357.586,-23189.332,-17983.766,-1015.4623,-22821.818,-7730.062,1376.058
970849.7535589166,-24661.338,-19353.516,-23187.744,-17982.83,-1011.96295,-22820.477,-7729.004,1374.5525
970849.757558914,-24655.803,-19348.959,-23185.752,-17980.713,-1011.02704,-22817.832,-7725.708,1380.7781
970849.7615589114,-24652.508,-19346.803,-23184.896,-17980.389,-1009.84705,-22815.47,-7723.348,1386.6375
970849.7655589089,-24650.635,-19346.559,-23187.012,-17982.342,-1008.1788,-22817.344,-7722.7783,1385.0912
970849.7695589063,-24650.432,-19348.592,-23188.438,-17984.09,-1009.2367,-22818.645,-7722.8193,1386.9222
970849.7735589037,-24653.809,-19350.953,-23189.697,-17987.225,-1012.8988,-22819.297,-7724.7725,1387.1664
970849.7775589011,-24657.268,-19352.498,-23190.268,-17988.852,-1015.7064,-22819.785,-7724.6094,1388.8754
970849.7815588985,-24660.809,-19354.086,-23192.22,-17991.008,-1016.8864,-22820.598,-7725.993,1387.085
970849.785558896,-24657.512,-19352.824,-23195.598,-17991.414,-1016.5609,-22820.273,-7729.37,1385.0098
970849.7895588934,-24654.46,-19352.336,-23197.836,-17990.357,-1012.32916,-22820.191,-7731.0386,1381.5918
970849.7935588908,-24651.816,-19351.441,-23197.186,-17991.17,-1010.4167,-22821.574,-7734.2124,1375.6918
970849.7975588882,-24649.334,-19349.854,-23197.998,-17989.666,-1009.48083,-22822.715,-7736.654,1374.6746
970849.8015588856,-24651.123,-19349.488,-23200.36,-17989.666,-1009.0739,-22822.633,-7735.84,1378.2146
970849.805558883,-24654.582,-19353.11,-23198.04,-17991.496,-1010.90497,-22821.9,-7735.433,1383.2195
970849.8095588805,-24656.535,-19353.11,-23200.115,-17992.107,-1010.37604,-22819.174,-7735.5146,1378.9062
970849.8135588779,-24654.705,-19354.412,-23200.156,-17994.629,-1013.7533,-22820.15,-7738.8105,1369.4662
970849.8175588753,-24652.71,-19353.11,-23201.133,-17992.92,-1014.68915,-22823.283,-7741.4146,1365.1531
970849.8215588727,-24649.049,-19351.521,-23195.965,-17989.87,-1013.50916,-22823.162,-7740.0312,1366.862
970849.8255588701,-24651.328,-19354.94,-23194.215,-17991.781,-1017.9037,-22824.139,-7737.6304,1370.158
970849.8295588675,-24651.123,-19353.312,-23195.965,-17992.717,-1015.25885,-22823.73,-7733.602,1371.5414
970849.833558865,-24647.99,-19352.742,-23194.336,-17993.855,-1015.4623,-22823.691,-7731.9746,1377.4008
970849.8375588624,-24646.404,-19356.568,-23191.611,-17993.164,-1014.72986,-22822.43,-7729.6143,1383.5857
970849.8415588598,-24647.137,-19361.207,-23192.832,-17994.752,-1015.2995,-22821.29,-7727.9463,1382.9753
970849.8455588572,-24647.258,-19358.725,-23189.494,-17995.076,-1012.45123,-22820.762,-7724.284,1390.9912
970849.8495588546,-24642.62,-19352.498,-23188.64,-17995.076,-1010.4167,-22823.65,-7725.708,1383.5449
970849.853558852,-24641.887,-19357.951,-23189.291,-17993.775,-1011.06775,-22821.656,-7725.0977,1381.5918
970849.8575588495,-24643.637,-19378.012,-23189.697,-17993.246,-1010.9457,-22820.598,-7726.7256,1383.0974
970849.8615588469,-24642.09,-19381.633,-23187.908,-17991.984,-1008.3415,-22819.785,-7723.7144,1393.3105
970849.8655588443,-24643.027,-19380.818,-23190.268,-17991.537,-1006.87665,-22819.215,-7722.1274,1396.2402
970849.8695588417,-24643.922,-19379.762,-23193.156,-17991.09,-1005.9408,-22819.58,-7720.866,1396.5658
970849.8735588391,-24637.533,-19372.193,-23187.785,-17989.055,-1001.058,-22820.598,-7722.738,1392.863
970849.8775588365,-24635.54,-19367.635,-23184.408,-17986.736,-997.7621,-22819.988,-7722.9004,1393.3513
970849.881558834,-24637.94,-19369.549,-23186.646,-17988.037,-997.51794,-22819.703,-7720.256,1397.0947
970849.8855588314,-24638.713,-19371.826,-23184.652,-17987.834,-997.5993,-22818.36,-7722.087,1392.8223
970849.8895588288,-24642.498,-19375.082,-23187.012,-17988.729,-999.6338,-22820.273,-7724.243,1389.8926
970849.8935588262,-24640.79,-19371.46,-23188.559,-17987.02,-998.90137,-22822.104,-7722.453,1394.5312
970849.8975588236,-24639.324,-19368.734,-23188.396,-17984.945,-997.3959,-22823.324,-7722.86,1392.456
970849.9015588211,-24639.121,-19369.182,-23184.896,-17983.846,-998.25037,-22825.725,-7726.766,1387.3699
970849.9055588185,-24642.742,-19371.297,-23184.855,-17985.23,-998.4945,-22826.01,-7726.9287,1388.5906
970849.9095588159,-24643.555,-19371.135,-23185.71,-17987.346,-998.8607,-22825.562,-7728.9634,1384.8064
970849.9135588133,-24645.549,-19371.379,-23184.45,-17989.258,-997.84344,-22826.213,-7729.533,1383.3008
970849.9175588107,-24644.125,-19370.688,-23182.943,-17988.77,-996.09375,-22825.521,-7730.957,1373.291
970849.9215588081,-24642.66,-19371.135,-23184.814,-17988.363,-993.36755,-22824.668,-7730.062,1371.4193
970849.9255588056,-24641.766,-19371.379,-23186.32,-17988.363,-992.63513,-22823.283,-7728.0273,1378.3367
970849.929558803,-24640.87,-19371.379,-23185.873,-17987.916,-994.3034,-22823.936,-7730.998,1373.5352
970849.9335588004,-24636.598,-19369.1,-23184.246,-17985.76,-990.35645,-22823.854,-7730.754,1371.1345
970849.9375587978,-24635.05,-19367.229,-23181.193,-17984.701,-987.0199,-22824.342,-7727.539,1379.3132
970849.9415587952,-24635.377,-19364.584,-23179.404,-17984.863,-986.04333,-22822.51,-7722.087,1387.492
970849.9455587926,-24633.465,-19362.102,-23178.793,-17985.799,-988.1185,-22825.766,-7723.755,1386.1898
970849.9495587901,-24634.97,-19364.91,-23174.236,-17987.834,-990.2344,-22828.451,-7727.4985,1382.8125
970849.9535587875,-24633.262,-19364.014,-23176.107,-17987.508,-990.6413,-22828.613,-7731.3643,1378.1738
970849.9575587849,-24631.633,-19362.184,-23175.293,-17985.027,-989.0544,-22830.16,-7734.4565,1375.6918
970849.9615587823,-24633.383,-19363.12,-23175.293,-17983.928,-987.79297,-22830.852,-7734.3345,1381.7953
970849.9655587797,-24632.568,-19365.072,-23176.475,-17983.643,-985.51434,-22829.307,-7733.9277,1385.2539
970849.969558777,-24630.494,-19364.828,-23174.033,-17984.01,-982.62537,-22828.736,-7734.619,1384.4402
970849.9735587746,-24631.43,-19362.549,-23175.375,-17984.295,-985.5957,-22829.957,-7737.386,1375.4883
970849.977558772,-24629.436,-19360.393,-23172.486,-17983.725,-988.28125,-22829.957,-7738.159,1373.7793
970849.9815587694,-24628.379,-19360.88,-23169.598,-17984.457,-987.3454,-22830.242,-7736.6943,1378.7435
970849.9855587668,-24628.541,-19363.445,-23172.12,-17984.904,-987.63025,-22831.055,-7737.671,1378.8656
970849.9895587642,-24628.256,-19363.24,-23170.29,-17984.457,-990.72266,-22833.74,-7740.438,1380.249
970849.9935587617,-24625.814,-19360.719,-23168.092,-17982.219,-990.88544,-22833.252,-7741.2925,1377.4822
970849.9975587591,-24625.082,-19360.434,-23167.36,-17981.201,-991.08887,-22830.566,-7735.2705,1382.2836
970850.0015587565,-24626.426,-19361.775,-23166.953,-17982.057,-991.0482,-22827.068,-7729.126,1385.9457
970850.0055587539,-24628.174,-19364.705,-23170.777,-17984.742,-994.6696,-22826.092,-7730.754,1378.3773
970850.0095587512,-24630.127,-19368.043,-23173.828,-17986.287,-995.3207,-22825.156,-7731.5674,1380.127
970850.0135587486,-24632.162,-19369.14,-23174.316,-17987.63,-995.3207,-22827.434,-7735.189,1373.4131
970850.0175587462,-24633.424,-19370.281,-23175.13,-17988.484,-994.4255,-22829.021,-7738.3223,1367.4724
970850.0215587436,-24633.018,-19371.258,-23173.38,-17986.898,-996.45996,-22828.33,-7735.2705,1375.7324
970850.025558741,-24635.54,-19372.844,-23174.48,-17986.94,-994.7917,-22828.33,-7736.247,1379.0283
970850.0295587383,-24640.504,-19376.75,-23179.566,-17989.299,-995.1172,-22828.166,-7738.5254,1376.4648
970850.0335587357,-24642.498,-19378.621,-23182.943,-17990.113,-994.6696,-22830.16,-7740.316,1374.8373
970850.0375587331,-24643.596,-19378.621,-23181.316,-17990.764,-995.27997,-22831.26,-7739.258,1371.8262
970850.0415587306,-24643.23,-19380.656,-23174.928,-17990.805,-997.9655,-22829.795,-7734.253,1378.2552
970850.045558728,-24643.719,-19383.992,-23175.049,-17991.822,-1002.1159,-22828.654,-7729.533,1382.5277
970850.0495587254,-24644.125,-19382.691,-23177.654,-17992.92,-1003.78424,-22827.027,-7728.2715,1381.9174
970850.0535587228,-24642.213,-19381.877,-23176.596,-17992.635,-1005.127,-22826.05,-7727.458,1387.9802
970850.0575587202,-24641.807,-19382.895,-23178.793,-17992.31,-1005.28973,-22827.19,-7728.8413,1384.3181
970850.0615587176,-24645.549,-19385.01,-23182.373,-17995.117,-1006.02216,-22828.41,-7727.458,1388.0209
970850.0655587151,-24648.479,-19385.213,-23183.879,-17996.094,-1006.4291,-22829.469,-7728.719,1389.8926
970850.0695587125,-24652.14,-19388.469,-23184.123,-17998.738,-1008.1788,-22830.283,-7731.6895,1385.8643
970850.0735587099,-24652.264,-19389.812,-23184.57,-18000.0,-1007.93463,-22829.062,-7731.5674,1384.074
970850.0775587073,-24649.7,-19389.73,-23179.688,-17998.494,-1005.4932,-22827.719,-7731.771,1381.2664
970850.0815587047,-24648.602,-19388.875,-23177.49,-17998.617,-1004.2725,-22826.66,-7730.1025,1386.3119
970850.0855587022,-24646.729,-19387.166,-23178.59,-17998.535,-1002.6856,-22826.416,-7727.295,1391.8457
970850.0895586996,-24645.225,-19386.068,-23178.549,-17998.535,-1002.1566,-22827.271,-7724.243,1390.4216
970850.093558697,-24646.973,-19388.266,-23178.834,-17999.188,-1005.28973,-22827.393,-7723.5107,1392.2527
970850.0975586944,-24650.799,-19392.66,-23179.24,-18001.18,-1008.7484,-22828.125,-7725.7896,1389.8926
970850.1015586918,-24649.21,-19389.404,-23182.049,-18001.506,-1009.7657,-22830.322,-7731.4863,1386.556
970850.1055586892,-24645.875,-19384.197,-23182.617,-17999.512,-1011.6781,-22832.969,-7736.4097,1385.376
970850.1095586867,-24648.398,-19387.574,-23184.043,-18000.447,-1010.8643,-22834.678,-7739.746,1379.8828
970850.1135586841,-24649.334,-19387.41,-23185.303,-17999.756,-1010.9864,-22833.904,-7741.9844,1376.0986
970850.1175586815,-24645.508,-19386.068,-23182.008,-17996.502,-1006.91736,-22832.398,-7739.7056,1378.825
970850.1215586789,-24641.807,-19382.04,-23181.438,-17995.443,-1003.62146,-22831.016,-7734.253,1388.265
970850.1255586763,-24643.475,-19383.098,-23181.357,-17997.803,-1003.62146,-22829.957,-7731.3643,1391.8457
970850.1295586737,-24643.719,-19383.83,-23181.723,-17999.553,-1001.7904,-22829.55,-7729.9805,1396.6472
970850.1335586712,-24643.76,-19382.568,-23182.74,-17999.512,-1001.87177,-22830.242,-7728.76,1394.165
970850.1375586686,-24641.846,-19381.918,-23181.357,-17998.738,-1004.15045,-22830.771,-7729.6553,1390.4216
970850.141558666,-24637.94,-19380.86,-23180.299,-17997.64,-1004.2725,-22832.275,-7732.666,1382.6091
970850.1455586634,-24635.947,-19379.72,-23179.363,-17997.07,-1004.2318,-22832.52,-7733.3984,1380.5339
970850.1495586608,-24633.75,-19377.482,-23177.979,-17997.396,-1002.03455,-22833.578,-7732.2593,1386.4746
970850.1535586582,-24633.545,-19376.994,-23180.46,-17998.17,-1000.9766,-22834.758,-7732.666,1386.8408
970850.1575586557,-24631.389,-19375.244,-23179.81,-17996.094,-996.5007,-22835.693,-7735.555,1382.365
970850.1615586531,-24626.953,-19372.64,-23177.207,-17994.629,-994.91376,-22836.996,-7737.0605,1383.016
970850.1655586505,-24628.297,-19370.158,-23178.672,-17994.14,-992.79785,-22838.908,-7740.1533,1379.6387
970850.1695586479,-24630.047,-19371.094,-23178.387,-17993.123,-992.6758,-22836.67,-7738.485,1378.7435
970850.1735586453,-24629.68,-19370.688,-23178.264,-17992.432,-991.29236,-22831.463,-7737.1826,1378.7029
970850.1775586427,-24629.07,-19371.258,-23178.467,-17993.45,-994.4662,-22830.566,-7739.9497,1378.0111
970850.1815586402,-24628.094,-19373.414,-23177.451,-17994.508,-997.5993,-22830.04,-7739.868,1379.6387
970850.1855586376,-24630.291,-19377.93,-23182.293,-17996.826,-1000.6104,-22831.992,-7739.543,1380.7781
970850.189558635,-24632.203,-19381.47,-23184.287,-17998.21,-1001.0173,-22832.113,-7739.0137,1380.7373
970850.1935586324,-24630.209,-19381.756,-23182.008,-17998.373,-1004.8829,-22831.992,-7737.3047,1381.1849
970850.1975586298,-24628.867,-19379.03,-23179.973,-17995.85,-1004.2318,-22833.13,-7736.206,1380.8594
970850.2015586273,-24627.97,-19378.826,-23178.428,-17993.855,-1004.51666,-22834.107,-7734.945,1381.4291
970850.2055586247,-24625.773,-19377.727,-23175.742,-17992.92,-1006.02216,-22832.928,-7731.9336,1386.8002
970850.2095586221,-24625.732,-19378.215,-23175.701,-17995.361,-1005.73737,-22834.96,-7732.91,1382.6904
970850.2135586195,-24622.967,-19377.035,-23178.387,-17994.385,-1004.7201,-22834.31,-7729.3296,1388.8347
970850.2175586169,-24618.816,-19373.535,-23176.19,-17992.514,-1003.4587,-22833.334,-7724.691,1399.6176
970850.2215586143,-24619.508,-19374.92,-23177.207,-17992.025,-1000.12213,-22834.025,-7722.209,1403.4424
970850.2255586118,-24619.223,-19377.97,-23179.688,-17992.514,-996.8669,-22834.922,-7722.209,1401.7742
970850.2295586092,-24622.479,-19380.738,-23183.758,-17994.793,-1001.18005,-22837.037,-7723.5107,1402.9949
970850.2335586066,-24621.95,-19378.621,-23183.635,-17994.832,-1004.80145,-22839.355,-7727.214,1395.1416
970850.237558604,-24617.555,-19376.262,-23181.926,-17993.775,-1005.8187,-22838.99,-7724.6094,1396.3217
970850.2415586014,-24613.201,-19376.1,-23179.607,-17993.734,-1004.2725,-22836.305,-7720.9883,1399.7396
970850.2455585988,-24610.719,-19376.385,-23179.2,-17993.205,-1003.4587,-22833.293,-7717.5293,1404.2969
970850.2495585963,-24607.016,-19373.617,-23178.549,-17992.635,-999.6745,-22832.602,-7719.157,1402.2625
970850.2535585937,-24604.656,-19373.332,-23180.38,-17993.123,-999.10486,-22833.172,-7723.674,1396.0775
970850.2575585911,-24603.354,-19373.82,-23181.52,-17993.49,-1001.13934,-22834.88,-7729.533,1390.5437
970850.2615585885,-24605.469,-19376.912,-23183.432,-17995.037,-1001.54626,-22836.467,-7731.3643,1389.8113
970850.2655585859,-24605.795,-19382.08,-23189.209,-17995.973,-1005.85944,-22838.217,-7734.8228,1389.6078
970850.2695585833,-24604.941,-19383.992,-23188.559,-17996.582,-1005.16766,-22837.932,-7735.881,1384.1146
970850.2735585808,-24601.889,-19381.389,-23185.303,-17994.508,-1001.3835,-22838.584,-7734.4565,1379.1912
970850.2775585782,-24596.844,-19378.826,-23183.758,-17995.037,-1001.0173,-22840.414,-7734.009,1382.2429
970850.2815585756,-24592.082,-19377.889,-23182.008,-17994.02,-1002.3194,-22838.217,-7731.8525,1388.916
970850.285558573,-24590.129,-19379.924,-23181.602,-17993.367,-1004.1911,-22836.752,-7732.015,1390.8285
970850.2895585704,-24584.148,-19375.814,-23182.21,-17992.596,-1003.58075,-22837.363,-7732.585,1388.5092
970850.2935585679,-24580.04,-19372.723,-23180.625,-17992.676,-1004.10974,-22837.973,-7732.341,1388.5906
970850.2975585653,-24578.898,-19373.373,-23180.908,-17993.979,-1006.55115,-22840.576,-7734.945,1387.2885
970850.3015585627,-24572.592,-19369.467,-23177.695,-17991.375,-1002.40076,-22838.705,-7734.172,1393.4326
970850.3055585601,-24567.22,-19365.438,-23175.09,-17988.973,-1003.3773,-22839.682,-7736.328,1387.7767
970850.3095585575,-24564.617,-19364.87,-23174.846,-17992.025,-1008.66705,-22844.117,-7742.269,1381.8359
970850.3135585549,-24558.473,-19359.457,-23174.236,-17990.764,-1005.5339,-22843.223,-7741.6587,1383.9519
970850.3175585524,-24549.44,-19350.545,-23171.348,-17987.957,-1000.6104,-22841.188,-7739.2173,1388.1836
970850.3215585498,-24538.047,-19343.018,-23167.36,-17984.578,-997.5993,-22839.967,-7735.6367,1397.583
970850.3255585472,-24531.006,-19338.543,-23163.78,-17982.422,-995.44275,-22838.299,-7731.8115,1402.0183
970850.3295585446,-24529.297,-19338.338,-23163.371,-17983.562,-997.5993,-22838.014,-7732.9917,1396.1182
970850.333558542,-24529.99,-19341.023,-23165.324,-17984.05,-1001.4242,-22838.055,-7736.898,1388.9974
970850.3375585394,-24535.809,-19346.436,-23169.639,-17985.516,-1005.4118,-22840.332,-7736.1655,1387.3699
970850.3415585369,-24532.432,-19342.938,-23170.166,-17986.41,-1004.9235,-22840.576,-7737.468,1388.4685
970850.3455585343,-24526.938,-19336.182,-23170.533,-17986.816,-1002.9704,-22842.082,-7744.426,1380.249
970850.3495585317,-24524.537,-19336.102,-23171.836,-17986.695,-1000.6918,-22842.164,-7746.053,1379.2318
970850.353558529,-24516.807,-19329.713,-23170.004,-17983.684,-995.1172,-22841.838,-7746.6636,1380.7781
970850.3575585264,-24505.82,-19317.953,-23164.756,-17979.695,-986.8978,-22840.82,-7746.338,1382.4056
970850.3615585238,-24501.426,-19314.656,-23158.896,-17978.11,-983.3578,-22838.828,-7743.083,1387.085
970850.3655585214,-24496.055,-19312.135,-23157.959,-17978.516,-983.5612,-22838.543,-7739.502,1396.1182
970850.3695585188,-24489.096,-19306.193,-23162.598,-17979.412,-981.40466,-22841.064,-7744.5884,1389.1195
970850.3735585161,-24485.557,-19299.56,-23164.023,-17978.312,-981.2826,-22843.385,-7748.3726,1384.725
970850.3775585135,-24484.457,-19297.566,-23161.785,-17977.336,-979.0853,-22844.238,-7749.105,1383.3008
970850.3815585109,-24484.336,-19297.81,-23159.953,-17977.215,-976.9287,-22844.523,-7746.257,1387.085
970850.3855585085,-24480.674,-19297.566,-23157.797,-17978.11,-978.6784,-22846.64,-7749.4307,1379.9642
970850.3895585058,-24470.785,-19292.562,-23154.664,-17977.254,-977.946,-22846.64,-7752.645,1376.3835
970850.3935585032,-24461.955,-19286.053,-23149.252,-17972.576,-974.4873,-22845.338,-7749.756,1377.6855
970850.3975585006,-24456.422,-19280.314,-23147.096,-17968.709,-969.52313,-22844.768,-7746.704,1383.9111
970850.401558498,-24450.807,-19276.246,-23147.666,-17967.855,-964.9658,-22844.97,-7745.2393,1389.323
970850.4055584954,-24450.645,-19273.885,-23149.17,-17968.465,-962.1582,-22843.223,-7741.5366,1395.5892
970850.409558493,-24453.125,-19271.81,-23151.531,-17969.646,-959.9203,-22843.588,-7741.6587,1394.4092
970850.4135584903,-24453.207,-19271.404,-23148.887,-17971.355,-960.36786,-22845.297,-7745.809,1385.0098
970850.4175584877,-24455.078,-19275.879,-23149.578,-17971.883,-961.5072,-22846.965,-7749.2676,1377.2787
970850.4215584851,-24454.795,-19277.832,-23150.879,-17970.623,-960.53064,-22847.861,-7749.878,1376.831
970850.4255584825,-24458.701,-19282.918,-23153.361,-17971.232,-963.29755,-22848.959,-7752.8486,1373.8607
970850.4295584799,-24464.844,-19290.691,-23155.479,-17974.244,-968.13965,-22849.895,-7753.7437,1373.1283
970850.4335584774,-24466.594,-19291.504,-23155.682,-17974.812,-966.8783,-22847.617,-7748.2505,1380.2898
970850.4375584748,-24465.781,-19291.342,-23157.105,-17975.139,-967.2445,-22845.459,-7743.6934,1386.556
970850.4415584722,-24470.744,-19294.516,-23160.645,-17976.441,-968.7907,-22844.28,-7740.5195,1388.8754
970850.4455584696,-24471.803,-19294.842,-23157.838,-17975.953,-965.5355,-22842.855,-7739.909,1383.4229
970850.449558467,-24470.256,-19297.363,-23155.559,-17976.36,-964.8031,-22842.285,-7741.2925,1386.0271
970850.4535584644,-24474.121,-19301.84,-23160.4,-17977.05,-966.43066,-22844.158,-7744.5884,1382.6498
970850.4575584619,-24475.262,-19302.45,-23161.418,-17977.865,-971.11005,-22847.982,-7750.4478,1373.9421
970850.4615584593,-24478.436,-19306.275,-23161.744,-17979.615,-971.9238,-22850.791,-7754.7607,1374.3083
970850.4655584567,-24485.8,-19311.89,-23164.47,-17982.26,-972.2087,-22851.441,-7755.9004,1377.6042
970850.4695584541,-24488.037,-19313.64,-23164.674,-17983.236,-969.88934,-22849.65,-7755.697,1376.7904
970850.4735584515,-24489.38,-19315.877,-23164.918,-17985.678,-969.3197,-22848.715,-7753.703,1376.0986
970850.477558449,-24489.096,-19317.75,-23164.145,-17985.271,-969.1162,-22844.97,-7749.7153,1376.3021
970850.4815584464,-24488.607,-19318.482,-23165.447,-17984.54,-967.6921,-22842.205,-7743.205,1385.1726
970850.4855584438,-24489.014,-19319.58,-23161.988,-17986.613,-972.33075,-22840.537,-7736.4097,1394.2058
970850.4895584412,-24489.951,-19320.76,-23161.053,-17987.305,-975.7894,-22839.844,-7735.555,1392.741
970850.4935584386,-24492.96,-19325.725,-23164.512,-17988.322,-978.3529,-22841.553,-7738.729,1384.6436
970850.497558436,-24496.42,-19333.863,-23164.756,-17989.014,-980.7943,-22842.693,-7740.5195,1381.7546
970850.5015584335,-24505.371,-19343.059,-23165.527,-17991.902,-984.9447,-22844.482,-7740.4785,1384.6029
970850.5055584309,-24511.924,-19344.646,-23167.725,-17993.693,-987.8744,-22842.938,-7738.2812,1384.2367
970850.5095584283,-24510.783,-19343.709,-23167.645,-17995.24,-988.1999,-22840.658,-7736.369,1385.4167
970850.5135584257,-24506.877,-19342.082,-23170.248,-17994.508,-987.63025,-22840.21,-7734.497,1389.323
970850.5175584231,-24502.686,-19337.646,-23168.377,-17992.432,-983.1543,-22839.844,-7733.8057,1392.7816
970850.5215584205,-24500.611,-19334.637,-23162.924,-17990.398,-980.7943,-22838.99,-7731.12,1394.7754
970850.525558418,-24501.426,-19336.629,-23160.156,-17992.635,-981.68945,-22838.217,-7729.7363,1393.7582
970850.5295584154,-24503.5,-19339.926,-23160.4,-17994.549,-982.58466,-22840.293,-7731.6895,1392.2527
970850.5335584128,-24505.78,-19342.938,-23163.697,-17996.582,-985.18884,-22841.717,-7734.3345,1386.0677
970850.5375584102,-24509.562,-19345.541,-23164.715,-17996.785,-985.7585,-22842.773,-7735.6367,1382.7719
970850.5415584076,-24514.648,-19350.098,-23169.312,-17998.332,-988.8916,-22843.873,-7737.142,1379.6794
970850.545558405,-24516.807,-19351.441,-23169.598,-17997.438,-987.99646,-22843.1,-7737.712,1380.3304
970850.5495584025,-24516.562,-19350.586,-23169.19,-17996.258,-982.91016,-22843.467,-7735.881,1385.6609
970850.5535583999,-24515.057,-19349.244,-23169.639,-17993.531,-977.21356,-22844.727,-7734.66,1387.6547
970850.5575583973,-24512.94,-19345.174,-23166.545,-17991.008,-973.348,-22845.135,-7733.6836,1382.7719
970850.5615583947,-24509.441,-19342.488,-23162.924,-17989.666,-971.80176,-22843.67,-7730.1025,1382.1615
970850.5655583921,-24512.168,-19343.914,-23167.766,-17989.502,-972.37146,-22841.676,-7727.092,1389.1195
970850.5695583895,-24515.422,-19344.441,-23169.19,-17990.479,-972.2494,-22842.082,-7727.824,1389.6892
970850.573558387,-24521.12,-19349.162,-23172.73,-17993.611,-976.15564,-22846.559,-7734.538,1380.8187
970850.5775583844,-24521.934,-19348.836,-23169.598,-17993.652,-975.5046,-22849.0,-7735.4736,1382.2429
970850.5815583818,-24520.713,-19347.576,-23169.842,-17993.367,-975.09766,-22850.018,-7735.7993,1386.9222
970850.5855583792,-24520.916,-19347.535,-23169.516,-17991.496,-974.36523,-22850.627,-7735.6772,1390.9506
970850.5895583766,-24520.305,-19346.273,-23167.889,-17989.99,-968.8721,-22849.203,-7734.294,1394.9789
970850.5935583741,-24514.61,-19340.658,-23162.477,-17988.566,-965.8203,-22845.176,-7728.2715,1400.1058
970850.5975583715,-24510.54,-19338.094,-23159.465,-17987.508,-964.8031,-22841.758,-7720.1743,1412.6791
970850.6015583689,-24506.104,-19336.264,-23158.244,-17987.346,-965.33203,-22838.623,-7714.966,1422.1599
970850.6055583663,-24506.389,-19336.834,-23160.156,-17988.893,-968.5873,-22839.111,-7715.2915,1421.0205
970850.6095583637,-24513.184,-19344.158,-23161.988,-17991.578,-970.62177,-22843.14,-7721.3135,1411.377
970850.6135583611,-24515.219,-19347.697,-23164.959,-17991.822,-973.6735,-22848.959,-7731.649,1398.1934
970850.6175583586,-24515.545,-19351.521,-23164.062,-17990.154,-974.4873,-22852.295,-7737.5083,1390.5029
970850.621558356,-24518.107,-19352.865,-23166.139,-17990.887,-976.1149,-22851.807,-7736.776,1393.7582
970850.6255583534,-24522.137,-19353.068,-23168.986,-17992.84,-981.68945,-22850.22,-7732.341,1403.8494
970850.6295583508,-24526.367,-19354.004,-23171.428,-17995.117,-985.5957,-22850.506,-7732.3,1395.223
970850.6335583482,-24527.14,-19354.29,-23170.94,-17997.273,-984.9447,-22849.406,-7731.771,1387.4512
970850.6375583456,-24521.729,-19352.703,-23168.701,-17998.006,-983.6833,-22848.064,-7726.522,1395.101
970850.6415583431,-24514.527,-19351.318,-23163.412,-17996.664,-982.54395,-22846.477,-7722.1274,1397.7458
970850.6455583405,-24511.598,-19347.941,-23164.186,-17997.234,-976.84735,-22845.338,-7722.087,1398.8445
970850.6495583379,-24514.365,-19350.545,-23167.604,-17997.03,-974.6094,-22845.094,-7723.0225,1399.3328
970850.6535583353,-24517.904,-19354.207,-23168.418,-17995.85,-978.8005,-22845.459,-7725.2197,1394.2058
970850.6575583327,-24517.701,-19353.354,-23169.11,-17995.158,-976.80664,-22846.885,-7730.306,1385.7422
970850.6615583301,-24520.549,-19356.445,-23172.283,-17997.193,-979.8991,-22849.895,-7733.8057,1387.0037
970850.6655583276,-24523.682,-19358.807,-23173.096,-17995.688,-981.2012,-22849.488,-7735.555,1389.8113
970850.669558325,-24525.39,-19359.498,-23175.863,-17994.264,-979.77704,-22849.406,-7738.078,1387.2885
970850.6735583224,-24523.846,-19360.799,-23176.88,-17994.182,-979.1667,-22850.22,-7737.9966,1389.7705
970850.6775583198,-24522.95,-19358.766,-23174.398,-17995.809,-979.2074,-22850.668,-7734.66,1391.7644
970850.6815583172,-24516.846,-19354.004,-23168.945,-17993.896,-977.01013,-22847.209,-7730.2656,1393.3513
970850.6855583147,-24511.271,-19348.592,-23168.092,-17991.74,-973.9584,-22843.303,-7724.7725,1403.9714
970850.6895583121,-24507.406,-19342.693,-23162.477,-17990.154,-970.3776,-22842.367,-7724.162,1405.0701
970850.6935583095,-24503.459,-19338.908,-23162.191,-17987.508,-969.279,-22841.838,-7725.383,1406.2908
970850.6975583069,-24503.623,-19340.7,-23159.75,-17987.305,-968.99414,-22842.57,-7727.295,1410.0342
970850.7015583043,-24510.254,-19344.361,-23161.053,-17987.916,-970.0928,-22844.238,-7730.4688,1417.684
970850.7055583016,-24511.557,-19348.592,-23163.209,-17988.973,-972.37146,-22846.6,-7733.5205,1423.5027
970850.7095582992,-24511.557,-19350.262,-23166.057,-17992.514,-974.5687,-22848.186,-7738.5664,1418.4978
970850.7135582966,-24515.3,-19352.133,-23171.55,-17994.06,-978.3529,-22849.854,-7743.7744,1407.6742
970850.717558294,-24516.44,-19351.889,-23172.283,-17994.305,-977.8239,-22849.488,-7744.3037,1398.3154
970850.7215582913,-24513.592,-19349.203,-23170.248,-17992.31,-976.237,-22848.674,-7740.7227,1405.6804
970850.7255582887,-24514.854,-19350.83,-23168.986,-17992.514,-976.6032,-22847.738,-7736.084,1411.906
970850.7295582861,-24513.225,-19351.482,-23164.959,-17992.31,-976.3998,-22846.355,-7733.3984,1406.9824
970850.7335582837,-24511.516,-19349.406,-23162.598,-17990.805,-975.8301,-22847.006,-7732.6255,1406.6976
970850.737558281,-24508.098,-19346.477,-23159.668,-17990.398,-978.59705,-22848.633,-7734.131,1407.1453
970850.7415582784,-24505.25,-19345.541,-23157.959,-17990.234,-980.306,-22848.838,-7733.9683,1407.6335
970850.7455582758,-24505.291,-19350.668,-23158.936,-17989.787,-978.7191,-22848.227,-7730.713,1411.906
970850.7495582732,-24510.133,-19357.137,-23162.273,-17992.39,-978.39355,-22849.285,-7728.1904,1415.8529
970850.7535582706,-24506.756,-19346.15,-23163.453,-17991.252,-972.2494,-22847.861,-7726.9287,1417.9281
970850.7575582681,-24500.732,-19335.531,-23160.97,-17989.91,-972.00525,-22847.453,-7725.871,1417.3584
970850.7615582655,-24500.896,-19339.07,-23160.85,-17991.984,-977.53906,-22848.674,-7725.9116,1420.1254
970850.7655582629,-24502.85,-19342.693,-23165.65,-17994.264,-979.98047,-22849.121,-7730.591,1417.6433
970850.7695582603,-24498.17,-19336.426,-23164.918,-17991.17,-975.3825,-22850.018,-7734.66,1413.5336
970850.7735582577,-24490.56,-19327.678,-23159.018,-17988.648,-970.4997,-22850.262,-7734.8633,1413.737
970850.7775582552,-24487.346,-19324.545,-23156.414,-17986.816,-970.21484,-22848.35,-7731.893,1414.1439
970850.7815582526,-24486.492,-19324.545,-23156.21,-17986.084,-970.4997,-22848.674,-7729.8584,1413.737
970850.78555825,-24486.736,-19322.348,-23159.424,-17986.775,-968.9128,-22849.082,-7727.1323,1421.7937
970850.7895582474,-24487.875,-19323.771,-23163.047,-17988.648,-968.70935,-22848.674,-7722.3716,1431.8441
970850.7935582448,-24493.205,-19328.166,-23165.04,-17990.398,-968.3838,-22846.965,-7717.448,1444.987
970850.7975582422,-24492.676,-19333.049,-23160.156,-17990.56,-969.3197,-22847.738,-7719.157,1444.865
970850.8015582397,-24493.164,-19328.98,-23161.5,-17991.984,-971.0287,-22849.773,-7720.825,1448.934
970850.8055582371,-24494.305,-19329.875,-23165.283,-17993.45,-972.1273,-22851.074,-7718.75,1455.241
970850.8095582345,-24496.014,-19331.219,-23166.424,-17993.45,-974.6908,-22851.36,-7719.116,1456.7465
970850.8135582319,-24495.89,-19330.607,-23167.197,-17992.146,-972.5749,-22853.395,-7725.2197,1444.3767
970850.8175582293,-24496.502,-19330.078,-23165.854,-17989.217,-971.43555,-22852.215,-7727.9053,1437.907
970850.8215582267,-24496.543,-19327.84,-23164.47,-17987.02,-966.8783,-22850.953,-7726.7256,1440.9994
970850.8255582242,-24491.66,-19325.398,-23163.535,-17987.102,-965.00653,-22851.848,-7726.644,1440.9994
970850.8295582216,-24491.74,-19324.098,-23165.568,-17986.328,-965.73895,-22851.115,-7724.8535,1440.267
970850.833558219,-24493.49,-19322.021,-23170.736,-17986.736,-965.77966,-22849.691,-7726.3594,1431.6406
970850.8375582164,-24495.484,-19324.26,-23172.16,-17988.24,-967.9769,-22851.848,-7729.94,1424.4385
970850.8415582138,-24497.314,-19328.898,-23172.893,-17989.91,-969.40106,-22853.232,-7731.2827,1427.7344
970850.8455582112,-24498.7,-19332.52,-23171.348,-17989.746,-970.0114,-22854.29,-7730.3877,1432.8207
970850.8495582087,-24499.146,-19330.73,-23170.615,-17990.682,-967.28516,-22854.86,-7732.3813,1429.4027
970850.8535582061,-24497.234,-19328.41,-23168.01,-17988.893,-964.51825,-22853.191,-7730.4688,1431.5186
970850.8575582035,-24495.402,-19327.027,-23162.191,-17986.492,-965.9424,-22851.93,-7726.1963,1437.7441
970850.8615582009,-24497.314,-19328.207,-23162.436,-17986.004,-968.2617,-22851.115,-7721.924,1444.8242
970850.8655581983,-24501.262,-19332.846,-23164.592,-17987.102,-971.43555,-22849.936,-7723.674,1442.0166
970850.8695581957,-24502.605,-19335.938,-23165.936,-17987.59,-974.5687,-22851.807,-7729.167,1427.8972
970850.8735581932,-24500.652,-19337.402,-23167.807,-17986.451,-974.6094,-22853.516,-7734.253,1418.7012
970850.8775581906,-24497.844,-19336.385,-23164.023,-17986.695,-971.3949,-22852.824,-7734.2124,1425.4965
970850.881558188,-24495.117,-19332.643,-23164.918,-17987.02,-969.9707,-22852.092,-7732.3813,1432.8207
970850.8855581854,-24494.508,-19333.62,-23165.65,-17987.793,-971.5983,-22851.4,-7728.882,1435.5062
970850.8895581828,-24495.484,-19334.31,-23165.447,-17988.934,-968.0176,-22850.342,-7725.2607,1437.6221
970850.8935581803,-24497.111,-19332.316,-23169.883,-17988.24,-967.77344,-22848.918,-7722.9414,1444.4174
970850.8975581777,-24500.205,-19333.7,-23166.668,-17986.043,-965.73895,-22847.738,-7719.6455,1449.5443
970850.9015581751,-24498.535,-19338.746,-23168.621,-17986.94,-965.9831,-22847.373,-7715.7393,1455.6885
970850.9055581725,-24500.45,-19341.512,-23173.504,-17986.613,-965.77966,-22848.838,-7716.797,1456.2582
970850.9095581699,-24500.408,-19339.967,-23170.166,-17984.822,-965.5762,-22847.332,-7717.163,1456.8685
970850.9135581673,-24496.623,-19337.322,-23168.824,-17982.666,-965.00653,-22848.023,-7719.1978,1447.6726
970850.9175581648,-24496.502,-19334.432,-23169.678,-17981.445,-963.98926,-22847.168,-7718.1396,1449.3816
970850.9215581622,-24499.432,-19336.467,-23170.86,-17984.295,-967.3666,-22847.047,-7716.838,1454.7527
970850.9255581596,-24502.197,-19340.496,-23172.283,-17985.596,-967.5293,-22847.941,-7716.4717,1451.2533
970850.929558157,-24500.45,-19338.135,-23169.8,-17984.375,-967.1631,-22847.412,-7714.071,1454.7119
970850.9335581544,-24495.24,-19332.846,-23169.475,-17983.154,-965.20996,-22845.5,-7713.4604,1454.4271
970850.9375581518,-24489.828,-19330.322,-23169.11,-17983.562,-965.4541,-22841.92,-7706.584,1461.0596
970850.9415581493,-24488.201,-19328.41,-23166.098,-17984.498,-964.681,-22838.867,-7701.172,1473.6328
970850.9455581467,-24486.98,-19328.492,-23168.01,-17986.328,-960.612,-22837.484,-7700.0327,1474.3246
970850.9495581441,-24485.557,-19329.06,-23171.469,-17990.479,-961.9955,-22839.438,-7699.1377,1475.708
970850.9535581415,-24484.498,-19326.742,-23170.41,-17989.096,-958.5368,-22838.705,-7699.504,1469.2383
970850.9575581389,-24483.48,-19324.992,-23169.598,-17988.12,-957.2754,-22839.152,-7700.0327,1473.4701
970850.9615581363,-24486.451,-19326.375,-23170.736,-17988.648,-956.7871,-22841.229,-7700.7246,1477.5391
970850.9655581338,-24491.7,-19328.248,-23168.457,-17988.445,-954.95605,-22843.547,-7703.044,1476.0742
970850.9695581312,-24496.746,-19330.77,-23169.395,-17989.99,-955.44434,-22845.459,-7704.4272,1477.1729
970850.9735581286,-24496.746,-19332.928,-23170.41,-17988.404,-956.70575,-22845.541,-7703.6543,1476.9695
970850.977558126,-24495.688,-19331.014,-23168.213,-17987.264,-955.6478,-22844.932,-7702.881,1473.3887
970850.9815581234,-24494.385,-19332.234,-23166.22,-17987.346,-956.17676,-22846.436,-7703.41,1474.2432
970850.9855581209,-24495.361,-19334.066,-23166.383,-17988.24,-956.2988,-22849.041,-7705.3223,1474.2025
970850.9895581183,-24495.81,-19334.514,-23167.36,-17989.055,-955.81055,-22852.459,-7708.171,1471.5984
970850.9935581157,-24495.525,-19334.473,-23167.236,-17989.38,-953.2064,-22853.557,-7712.3213,1460.612
970850.9975581131,-24498.658,-19339.07,-23168.377,-17990.072,-950.8871,-22850.994,-7705.119,1462.1582
970851.0015581105,-24504.965,-19345.256,-23169.557,-17992.717,-954.30505,-22849.488,-7698.9746,1467.4072
970851.0055581079,-24499.635,-19343.426,-23165.732,-17995.688,-956.8278,-22847.25,-7695.0684,1472.5342
970851.0095581054,-24488.078,-19337.078,-23162.518,-17994.873,-955.2409,-22846.72,-7694.0513,1473.5515
970851.0135581028,-24490.643,-19344.32,-23164.227,-17994.344,-954.7526,-22845.215,-7692.0576,1476.1963
970851.0175581002,-24494.67,-19344.197,-23162.07,-17996.176,-955.52576,-22845.42,-7692.8306,1476.0742
970851.0215580976,-24495.2,-19343.14,-23164.715,-17996.99,-957.3161,-22845.867,-7690.8774,1482.015
970851.025558095,-24492.596,-19343.547,-23168.336,-17997.559,-957.60095,-22847.168,-7693.6445,1481.2012
970851.0295580924,-24492.473,-19344.564,-23167.969,-17998.414,-959.51337,-22849.041,-7698.2017,1470.1742
970851.0335580899,-24496.746,-19346.232,-23170.654,-17999.188,-962.97205,-22849.895,-7700.277,1466.919
970851.0375580873,-24496.826,-19346.559,-23171.143,-17997.559,-964.0707,-22853.191,-7705.8516,1465.6982
970851.0415580847,-24493.693,-19342.326,-23168.457,-17994.467,-962.80927,-22855.795,-7708.293,1469.157
970851.045558082,-24496.42,-19342.285,-23168.986,-17993.246,-959.63544,-22858.766,-7713.379,1468.5873
970851.0495580795,-24493.857,-19341.064,-23167.686,-17991.09,-954.5492,-22860.19,-7714.315,1469.6859
970851.0535580768,-24490.072,-19338.379,-23163.371,-17989.096,-950.8871,-22862.549,-7717.041,1469.0349
970851.0575580744,-24489.87,-19336.67,-23161.785,-17988.852,-949.38153,-22863.893,-7716.5527,1471.8018
970851.0615580718,-24491.74,-19336.385,-23161.621,-17988.69,-948.73047,-22861.98,-7713.8267,1474.8535
970851.0655580692,-24491.62,-19334.637,-23159.873,-17985.637,-947.63184,-22857.951,-7711.0596,1481.0791
970851.0695580665,-24494.467,-19337.932,-23160.156,-17987.508,-951.1719,-22859.375,-7714.5996,1474.6501
970851.073558064,-24496.99,-19342.45,-23165.65,-17989.95,-955.6885,-22863.242,-7720.744,1467.7734
970851.0775580615,-24496.014,-19345.135,-23167.686,-17990.438,-954.26434,-22863.322,-7718.994,1469.4418
970851.0815580589,-24500.205,-19347.127,-23166.668,-17991.414,-952.7588,-22862.184,-7716.716,1470.1742
970851.0855580562,-24502.238,-19345.785,-23167.645,-17991.984,-952.51465,-22862.469,-7720.0117,1467.041
970851.0895580536,-24499.268,-19343.629,-23165.936,-17992.596,-951.945,-22862.51,-7722.8193,1457.2754
970851.093558051,-24500.0,-19343.953,-23165.977,-17992.758,-953.3285,-22864.34,-7724.284,1448.4863
970851.0975580484,-24499.553,-19345.5,-23164.836,-17992.596,-953.2471,-22865.52,-7725.383,1451.9451
970851.101558046,-24495.037,-19340.82,-23164.633,-17990.846,-950.07324,-22863.566,-7724.691,1457.8451
970851.1055580433,-24491.822,-19338.055,-23162.15,-17988.445,-950.11395,-22861.613,-7722.982,1456.1361
970851.1095580407,-24493.164,-19339.764,-23161.621,-17990.56,-951.70087,-22862.102,-7723.0225,1460.7341
970851.1135580381,-24492.188,-19337.117,-23162.477,-17991.822,-949.9512,-22862.63,-7723.7144,1464.559
970851.1175580355,-24487.998,-19332.764,-23160.482,-17989.46,-948.03876,-22862.305,-7722.9004,1460.5306
970851.1215580329,-24486.94,-19332.44,-23159.303,-17987.225,-948.2829,-22862.549,-7720.4185,1468.5873
970851.1255580304,-24487.916,-19330.607,-23158.773,-17986.207,-947.30634,-22864.543,-7718.7095,1471.1508
970851.1295580278,-24485.068,-19328.328,-23158.611,-17987.713,-942.1387,-22864.787,-7713.9893,1474.3246
970851.1335580252,-24482.871,-19326.986,-23158.855,-17988.77,-942.2201,-22863.525,-7708.415,1479.533
970851.1375580226,-24481.934,-19323.08,-23158.53,-17987.63,-941.44696,-22862.51,-7703.6133,1484.8226
970851.14155802,-24485.76,-19324.627,-23159.873,-17988.322,-940.4297,-22861.492,-7701.986,1485.1888
970851.1455580174,-24485.434,-19325.684,-23161.377,-17989.99,-942.34216,-22860.352,-7704.0205,1478.2715
970851.1495580149,-24489.014,-19327.23,-23163.86,-17990.072,-943.15594,-22859.701,-7706.014,1475.6674
970851.1535580123,-24488.77,-19327.557,-23163.371,-17987.916,-942.30145,-22861.004,-7707.6826,1474.3652
970851.1575580097,-24486.98,-19325.48,-23158.164,-17986.043,-942.2201,-22864.625,-7711.7515,1466.7156
970851.1615580071,-24485.637,-19323.934,-23153.402,-17984.54,-940.3076,-22864.137,-7712.077,1464.5996
970851.1655580045,-24483.766,-19324.586,-23154.541,-17983.562,-943.6442,-22860.84,-7709.4727,1470.1742
970851.1695580019,-24479.941,-19327.922,-23154.582,-17984.01,-946.3298,-22861.98,-7710.246,1468.3838
970851.1735579994,-24477.295,-19325.195,-23152.996,-17983.154,-948.7712,-22861.572,-7710.5713,1469.8486
970851.1775579968,-24477.744,-19319.988,-23157.635,-17983.154,-945.76013,-22863.037,-7713.7046,1467.041
970851.1815579942,-24479.98,-19320.395,-23159.262,-17983.074,-945.63806,-22863.525,-7715.332,1467.5701
970851.1855579916,-24479.656,-19320.271,-23158.57,-17983.318,-943.6035,-22863.363,-7718.913,1463.8265
970851.189557989,-24478.965,-19321.98,-23157.47,-17982.666,-939.738,-22863.607,-7720.825,1460.2458
970851.1935579865,-24480.795,-19323.69,-23156.291,-17983.277,-940.3483,-22866.172,-7721.3135,1459.3506
970851.1975579839,-24482.3,-19323.162,-23152.467,-17982.666,-944.33594,-22865.479,-7719.2383,1462.5244
970851.2015579813,-24478.68,-19324.83,-23149.375,-17979.33,-945.1091,-22863.81,-7716.7563,1466.7969
970851.2055579787,-24479.656,-19325.48,-23149.62,-17979.492,-944.1732,-22863.445,-7716.675,1463.7451
970851.2095579761,-24483.848,-19328.533,-23150.473,-17983.357,-945.3939,-22863.525,-7718.872,1463.8672
970851.2135579735,-24483.643,-19327.88,-23151.287,-17984.254,-946.12634,-22864.055,-7720.825,1464.0707
970851.217557971,-24484.05,-19326.986,-23151.693,-17983.643,-944.05115,-22863.852,-7719.564,1466.7156
970851.2215579684,-24484.783,-19328.166,-23154.135,-17985.76,-943.48145,-22863.73,-7718.1396,1469.0756
970851.2255579658,-24487.957,-19330.16,-23156.7,-17986.613,-943.68494,-22863.934,-7717.6924,1465.8203
970851.2295579632,-24489.707,-19327.88,-23159.588,-17986.816,-942.0166,-22862.834,-7716.8784,1466.9597
970851.2335579606,-24487.06,-19325.807,-23161.053,-17985.555,-942.0573,-22862.672,-7716.4307,1462.972
970851.237557958,-24486.492,-19327.557,-23159.1,-17986.084,-941.2028,-22862.184,-7712.362,1467.1224
970851.2415579555,-24492.555,-19331.014,-23157.715,-17988.24,-941.12146,-22860.19,-7709.717,1475.7488
970851.2455579529,-24492.88,-19331.543,-23159.344,-17987.957,-942.5863,-22860.352,-7708.7812,1479.533
970851.2495579503,-24489.299,-19330.893,-23164.959,-17987.996,-944.74286,-22861.207,-7711.1006,1471.7205
970851.2535579477,-24488.363,-19329.916,-23162.924,-17987.102,-944.90564,-22863.322,-7716.675,1457.9265
970851.2575579451,-24488.893,-19329.713,-23162.03,-17984.701,-944.8649,-22865.723,-7722.8193,1449.9105
970851.2615579425,-24487.63,-19329.143,-23159.953,-17983.969,-944.78357,-22866.496,-7725.5454,1451.7822
970851.26555794,-24486.816,-19327.107,-23156.7,-17981.61,-941.1621,-22864.625,-7722.7783,1455.2002
970851.2695579374,-24487.549,-19327.068,-23153.89,-17982.178,-939.00555,-22865.275,-7721.639,1458.6996
970851.2735579348,-24485.557,-19325.887,-23151.043,-17980.55,-940.8366,-22863.893,-7722.86,1460.612
970851.2775579322,-24486.533,-19323.201,-23151.938,-17979.695,-940.4297,-22863.486,-7721.395,1464.8031
970851.2815579296,-24485.719,-19324.504,-23150.84,-17980.672,-943.11523,-22864.463,-7721.4766,1466.268
970851.2855579271,-24482.098,-19326.13,-23150.27,-17982.422,-946.28906,-22864.625,-7723.552,1457.601
970851.2895579245,-24479.412,-19326.05,-23149.7,-17984.172,-946.08563,-22864.463,-7722.738,1457.6416
970851.2935579219,-24480.348,-19324.91,-23151.816,-17983.44,-944.37665,-22864.87,-7724.813,1455.892
970851.2975579193,-24477.783,-19320.557,-23148.723,-17980.795,-944.2953,-22865.764,-7723.0225,1453.5726
970851.3015579167,-24475.547,-19321.697,-23145.469,-17979.168,-944.1732,-22863.445,-7715.698,1462.4838
970851.3055579141,-24477.174,-19323.61,-23148.438,-17979.9,-945.06836,-22863.322,-7715.698,1463.9486
970851.3095579116,-24481.568,-19324.178,-23157.635,-17981.121,-943.84766,-22864.299,-7719.564,1462.1582
970851.313557909,-24485.475,-19328.41,-23160.889,-17982.951,-945.23114,-22865.723,-7722.3716,1459.0658
970851.3175579064,-24486.37,-19330.322,-23159.832,-17985.596,-947.9574,-22865.154,-7722.6157,1458.9031
970851.3215579038,-24485.107,-19329.998,-23156.373,-17986.084,-948.3236,-22864.219,-7718.4653,1464.3555
970851.3255579012,-24480.186,-19329.102,-23152.305,-17985.148,-950.07324,-22863.77,-7716.2275,1469.3604
970851.3295578986,-24475.139,-19328.125,-23152.629,-17985.31,-948.52704,-22863.404,-7717.6924,1468.099
970851.3335578961,-24472.373,-19325.848,-23151.896,-17984.62,-950.765,-22864.746,-7718.791,1467.3259
970851.3375578935,-24470.053,-19326.416,-23149.863,-17982.422,-951.9043,-22865.56,-7715.007,1473.7549
970851.3415578909,-24466.635,-19322.186,-23148.926,-17980.795,-947.18427,-22864.34,-7712.362,1478.9226
970851.3455578883,-24467.814,-19321.9,-23151.611,-17982.342,-946.3298,-22863.975,-7715.332,1477.5391
970851.3495578857,-24469.85,-19323.08,-23153.24,-17983.48,-949.0967,-22864.828,-7716.716,1471.5984
970851.3535578831,-24469.158,-19320.395,-23151.611,-17983.807,-947.1029,-22865.643,-7716.675,1465.2507
970851.3575578806,-24469.238,-19322.592,-23150.107,-17982.87,-948.2422,-22864.99,-7713.176,1469.1976
970851.361557878,-24466.635,-19324.586,-23148.479,-17981.893,-948.52704,-22864.666,-7711.2227,1469.9707
970851.3655578754,-24468.385,-19327.678,-23150.107,-17984.986,-951.33466,-22866.496,-7713.867,1471.639
970851.3695578728,-24469.932,-19328.328,-23154.46,-17986.613,-954.5085,-22866.375,-7715.698,1476.0336
970851.3735578702,-24468.262,-19328.248,-23155.355,-17985.393,-956.0954,-22865.643,-7716.797,1469.9707
970851.3775578677,-24467.734,-19328.084,-23157.512,-17984.863,-953.45056,-22865.52,-7714.5996,1472.4529
970851.3815578651,-24462.646,-19321.533,-23154.99,-17984.822,-951.6195,-22866.416,-7714.315,1478.3936
970851.3855578625,-24461.63,-19319.092,-23152.793,-17983.846,-949.8698,-22866.375,-7715.007,1483.3171
970851.3895578599,-24459.637,-19318.238,-23149.17,-17982.504,-944.987,-22867.31,-7718.791,1481.3232
970851.3935578573,-24455.445,-19314.129,-23148.398,-17982.504,-944.37665,-22868.246,-7725.708,1473.7142
970851.3975578547,-24451.172,-19310.303,-23147.666,-17980.633,-948.4457,-22869.102,-7729.6553,1466.8376
970851.4015578522,-24449.83,-19307.943,-23145.875,-17979.045,-946.3298,-22867.92,-7733.236,1460.5306
970851.4055578496,-24449.83,-19306.926,-23144.613,-17978.557,-944.2546,-22867.393,-7732.3,1465.21
970851.409557847,-24446.006,-19303.426,-23142.986,-17977.662,-942.99316,-22867.27,-7730.9165,1469.8486
970851.4135578444,-24441.162,-19301.96,-23144.775,-17976.848,-941.12146,-22869.14,-7732.422,1465.3728
970851.4175578417,-24437.908,-19300.416,-23143.393,-17975.668,-941.77246,-22870.605,-7730.876,1465.6982
970851.4215578391,-24433.717,-19300.701,-23137.98,-17977.215,-944.78357,-22868.572,-7726.888,1468.3838
970851.4255578367,-24433.635,-19302.572,-23136.191,-17980.145,-948.6491,-22868.816,-7727.9463,1469.2383
970851.429557834,-24433.473,-19301.473,-23138.51,-17981.16,-950.64294,-22870.2,-7731.527,1469.6045
970851.4335578314,-24434.896,-19305.787,-23142.498,-17980.389,-954.4678,-22870.89,-7733.032,1470.3777
970851.4375578288,-24431.926,-19304.281,-23142.783,-17980.592,-957.07196,-22870.443,-7733.724,1466.7969
970851.4415578262,-24422.324,-19292.48,-23139.445,-17978.963,-954.95605,-22869.305,-7732.422,1466.6342
970851.4455578236,-24414.145,-19283.855,-23136.23,-17977.54,-949.6664,-22868.49,-7731.7305,1464.8438
970851.4495578211,-24410.117,-19281.414,-23133.871,-17977.58,-942.749,-22868.328,-7731.079,1456.665
970851.4535578185,-24403.85,-19273.846,-23134.645,-17976.277,-941.44696,-22870.443,-7737.712,1438.68
970851.457557816,-24392.986,-19263.062,-23131.674,-17971.965,-938.15106,-22870.2,-7738.485,1437.9476
970851.4615578133,-24384.074,-19254.314,-23128.623,-17970.338,-936.93036,-22869.629,-7736.0435,1444.6615
970851.4655578107,-24383.668,-19250.041,-23126.303,-17971.844,-937.3779,-22871.705,-7736.9795,1446.8994
970851.4695578081,-24383.586,-19248.129,-23124.676,-17972.535,-937.78485,-22873.21,-7737.59,1446.4519
970851.4735578056,-24381.877,-19247.803,-23127.809,-17972.615,-938.15106,-22874.188,-7741.252,1442.7084
970851.477557803,-24378.582,-19246.176,-23130.168,-17970.947,-937.0117,-22872.967,-7739.909,1445.9229
970851.4815578004,-24370.81,-19240.764,-23129.15,-17968.994,-936.03516,-22870.973,-7735.84,1449.6257
970851.4855577978,-24366.904,-19239.258,-23129.965,-17970.867,-937.45935,-22871.867,-7737.5083,1448.934
970851.4895577952,-24363.893,-19235.027,-23132.488,-17971.477,-936.6455,-22871.705,-7736.654,1451.7416
970851.4935577927,-24359.986,-19227.336,-23131.877,-17970.418,-935.2214,-22871.867,-7735.1484,1445.2719
970851.4975577901,-24355.592,-19221.518,-23128.623,-17968.1,-932.2103,-22873.373,-7739.0547,1432.2103
970851.5015577875,-24355.55,-19220.906,-23127.85,-17967.773,-931.9662,-22875.408,-7739.868,1430.6234
970851.5055577849,-24358.521,-19224.0,-23126.262,-17968.547,-932.45447,-22874.512,-7737.712,1437.0117
970851.5095577823,-24358.684,-19223.104,-23127.117,-17969.32,-932.4951,-22874.268,-7742.3506,1434.4482
970851.5135577797,-24361.816,-19225.098,-23134.686,-17971.436,-934.48895,-22876.14,-7747.0703,1428.0599
970851.5175577772,-24363.281,-19227.498,-23136.924,-17971.232,-935.9131,-22878.094,-7748.3726,1427.9785
970851.5215577746,-24365.764,-19230.877,-23132.936,-17970.947,-937.25586,-22876.303,-7747.1924,1430.2166
970851.525557772,-24365.56,-19232.707,-23129.232,-17971.191,-935.2214,-22876.059,-7745.036,1435.9131
970851.5295577694,-24362.672,-19229.086,-23131.186,-17968.588,-932.41376,-22874.594,-7738.6885,1446.7773
970851.5335577668,-24359.783,-19224.732,-23127.605,-17965.943,-931.8441,-22872.479,-7733.2764,1451.7822
970851.5375577642,-24357.992,-19223.756,-23125.693,-17966.879,-932.6172,-22872.6,-7732.585,1449.1781
970851.5415577617,-24360.719,-19224.568,-23125.652,-17968.709,-932.00684,-22870.973,-7728.475,1453.8982
970851.5455577591,-24367.432,-19227.986,-23130.86,-17970.256,-933.30896,-22870.77,-7729.7773,1450.643
970851.5495577565,-24368.693,-19231.201,-23133.709,-17970.418,-931.55927,-22872.764,-7736.7354,1440.9587
970851.5535577539,-24370.158,-19234.742,-23133.83,-17969.402,-929.5248,-22874.023,-7739.7056,1441.8539
970851.5575577513,-24374.188,-19238.037,-23132.08,-17969.85,-928.833,-22873.984,-7739.868,1445.0277
970851.5615577487,-24376.262,-19241.375,-23130.371,-17970.582,-926.9206,-22874.105,-7739.299,1443.4001
970851.5655577462,-24375.896,-19240.56,-23128.826,-17970.053,-926.71716,-22873.658,-7739.421,1444.1326
970851.5695577436,-24372.314,-19238.607,-23126.22,-17968.059,-922.0785,-22872.07,-7738.485,1446.4926
970851.573557741,-24366.74,-19234.863,-23123.984,-17966.96,-921.79364,-22871.664,-7738.7695,1446.4111
970851.5775577384,-24361.736,-19230.428,-23121.379,-17966.838,-919.1488,-22872.111,-7742.391,1443.2373
970851.5815577358,-24363.69,-19232.625,-23123.617,-17968.588,-920.5322,-22871.543,-7744.3037,1447.1843
970851.5855577333,-24367.92,-19237.875,-23128.338,-17971.518,-922.97363,-22871.787,-7746.053,1445.3125
970851.5895577307,-24374.39,-19242.473,-23128.135,-17974.895,-921.9157,-22871.95,-7748.861,1435.1807
970851.5935577281,-24378.053,-19247.234,-23128.662,-17976.115,-928.05994,-22873.373,-7751.75,1427.6937
