timestamp,Fp1,Fp2,F3,Fz,F4,Cz,Pz,Oz
965454.668514139,-74493.695,-55340.17,8603.638,-7303.711,8096.273,-35664.145,23742.96,50121.867
965454.6725141355,-74510.87,-55389.367,8601.237,-7302.5312,8088.5015,-35665.57,23733.154,50092.246
965454.676514132,-74518.88,-55420.617,8600.464,-7300.171,8087.0366,-35664.957,23732.422,50077.027
965454.6805141283,-74510.17,-55394.29,8602.458,-7301.799,8094.1167,-35665.773,23738.934,50093.547
965454.6845141248,-74493.29,-55344.32,8605.0625,-7302.694,8101.9697,-35666.06,23741.62,50111.9
965454.6885141212,-74497.97,-55351.402,8603.923,-7301.7173,8097.901,-35665.285,23741.008,50110.027
965454.6925141177,-74515.95,-55400.473,8599.609,-7300.985,8091.96,-35665.242,23736.816,50085.004
965454.6965141142,-74529.625,-55431.277,8592.448,-7300.3745,8090.0474,-35666.18,23733.398,50073.242
965454.7005141105,-74519.05,-55400.555,8593.1,-7302.6533,8097.0464,-35664.348,23741.904,50092.33
965454.704514107,-74505.74,-55350.832,8596.029,-7304.8506,8101.929,-35663.86,23748.943,50115.97
965454.7085141034,-74510.78,-55361.207,8596.151,-7305.0537,8095.3374,-35664.43,23743.857,50109.58
965454.7125140999,-74525.19,-55409.14,8593.466,-7302.6123,8087.6875,-35665.164,23735.76,50086.223
965454.7165140962,-74537.84,-55436.08,8589.763,-7301.758,8083.7407,-35666.75,23734.092,50069.297
965454.7205140927,-74530.07,-55408.285,8588.298,-7304.4844,8089.2744,-35667.684,23739.38,50080.0
965454.7245140892,-74511.555,-55351.32,8591.35,-7306.478,8097.3716,-35667.605,23741.008,50102.703
965454.7285140856,-74515.18,-55350.18,8591.024,-7305.664,8090.821,-35668.17,23733.969,50099.203
965454.7325140821,-74531.375,-55398.723,8588.42,-7303.9146,8079.2646,-35668.54,23725.424,50073.445
965454.7365140785,-74539.76,-55430.95,8584.595,-7304.5654,8073.2427,-35670.004,23721.273,50051.92
965454.7405140749,-74528.98,-55398.848,8589.03,-7303.955,8081.1772,-35669.92,23727.459,50061.445
965454.7445140714,-74511.68,-55346.19,8593.628,-7303.2637,8086.141,-35670.047,23731.121,50091.797
965454.7485140678,-74514.53,-55357.75,8591.797,-7302.8975,8080.241,-35672.04,23723.47,50090.293
965454.7525140642,-74531.086,-55408.41,8587.565,-7302.409,8071.086,-35672.08,23719.117,50071.86
965454.7565140607,-74537.68,-55431.766,8585.327,-7300.6187,8070.191,-35670.94,23720.256,50056.887
965454.7605140571,-74526.82,-55397.707,8586.792,-7303.2637,8077.8813,-35670.41,23725.912,50072.062
965454.7645140536,-74510.46,-55347.58,8591.391,-7305.664,8084.432,-35669.395,23729.371,50092.49
965454.76851405,-74514.125,-55357.016,8592.529,-7303.3447,8081.584,-35669.312,23724.488,50088.867
965454.7725140464,-74532.23,-55409.06,8589.396,-7302.49,8069.8247,-35670.25,23720.053,50069.418
965454.7765140429,-74540.04,-55433.312,8587.973,-7300.3745,8069.8247,-35669.395,23719.402,50061.16
965454.7805140393,-74524.09,-55396.973,8591.35,-7300.7407,8080.689,-35668.215,23727.295,50078.94
965454.7845140358,-74508.14,-55348.35,8598.471,-7302.8975,8086.7515,-35667.766,23732.586,50100.914
965454.7885140321,-74512.49,-55351.81,8597.25,-7303.996,8083.0083,-35667.727,23725.871,50096.316
965454.7925140286,-74530.31,-55400.84,8591.472,-7302.6123,8075.196,-35667.684,23719.523,50072.43
965454.7965140251,-74540.81,-55438.56,8586.467,-7303.63,8068.848,-35666.383,23719.117,50054.89
965454.8005140215,-74529.99,-55405.355,8586.264,-7305.949,8073.609,-35665.527,23726.848,50073.242
965454.8045140179,-74514.734,-55353.76,8589.396,-7306.3965,8080.0786,-35665.57,23734.01,50099.0
965454.8085140144,-74515.586,-55361.74,8589.315,-7304.769,8076.7417,-35665.285,23727.947,50094.44
965454.8125140108,-74529.664,-55412.805,8588.542,-7302.3276,8067.8716,-35666.26,23719.85,50067.71
965454.8165140073,-74541.51,-55433.8,8586.02,-7301.2695,8063.599,-35665.57,23719.809,50056.03
965454.8205140037,-74530.48,-55402.266,8586.548,-7303.63,8067.546,-35665.61,23726.97,50076.05
965454.8245140001,-74513.51,-55353.027,8593.303,-7304.4434,8072.225,-35666.953,23729.168,50098.473
965454.8285139966,-74516.97,-55359.703,8595.093,-7302.6533,8068.8887,-35668.5,23721.518,50090.457
965454.832513993,-74536.91,-55413.7,8590.332,-7302.938,8062.7036,-35670.125,23711.67,50066.69
965454.8365139895,-74546.555,-55443.566,8589.4375,-7302.694,8055.8677,-35668.906,23713.99,50056.4
965454.8405139858,-74534.18,-55409.59,8590.576,-7304.0366,8062.5815,-35669.516,23720.664,50070.07
965454.8445139823,-74517.26,-55358.93,8593.832,-7305.339,8067.4644,-35669.637,23723.918,50092.695
965454.8485139788,-74517.055,-55361.25,8595.541,-7303.06,8063.07,-35667.684,23720.053,50085.613
965454.8525139752,-74532.11,-55410.32,8591.553,-7301.595,8054.281,-35668.297,23712.078,50057.78
965454.8565139717,-74543.83,-55442.953,8586.874,-7302.368,8049.7236,-35669.23,23710.898,50054.61
965454.860513968,-74534.75,-55411.133,8588.786,-7303.2227,8057.6987,-35669.68,23716.594,50068.89
965454.8645139645,-74518.64,-55357.14,8592.529,-7303.3447,8064.779,-35670.656,23718.832,50083.05
965454.868513961,-74519.414,-55362.387,8593.628,-7301.0664,8061.483,-35671.754,23715.293,50081.992
965454.8725139574,-74537.234,-55413.047,8590.373,-7298.828,8053.6704,-35672.49,23710.979,50062.582
965454.8765139538,-74544.07,-55441.53,8589.315,-7297.6484,8050.4966,-35672.85,23710.084,50050.66
965454.8805139503,-74530.195,-55406.414,8592.773,-7298.706,8058.35,-35673.465,23716.758,50068.117
965454.8845139467,-74514.98,-55357.668,8596.843,-7300.09,8063.884,-35674.93,23716.229,50089.195
965454.8885139432,-74517.375,-55369.305,8596.191,-7300.212,8055.9087,-35673.707,23712.12,50086.266
965454.8925139396,-74533.77,-55422.16,8594.076,-7297.7295,8048.096,-35672.08,23708.457,50060.02
965454.896513936,-74541.1,-55448.367,8591.879,-7295.9395,8049.154,-35672.566,23714.234,50059.164
965454.9005139325,-74526.25,-55408.285,8596.273,-7294.963,8058.553,-35671.715,23724.488,50088.176
965454.9045139289,-74506.72,-55352.746,8601.604,-7296.3057,8064.779,-35672.16,23725.75,50106.324
965454.9085139254,-74509.97,-55362.918,8598.959,-7295.044,8062.2153,-35672.527,23717.002,50086.062
965454.9125139217,-74527.67,-55417.36,8591.635,-7295.3696,8051.636,-35674.645,23709.066,50055.3
965454.9165139182,-74538.45,-55444.99,8589.641,-7294.271,8047.5264,-35674.277,23705.975,50040.69
965454.9205139147,-74524.664,-55411.703,8593.71,-7294.1895,8053.9556,-35673.79,23713.746,50059.734
965454.9245139111,-74507.695,-55359.094,8598.349,-7296.997,8059.2046,-35673.91,23719.482,50084.15
965454.9285139076,-74507.81,-55362.633,8598.063,-7295.6953,8054.932,-35675.54,23713.258,50075.195
965454.932513904,-74525.02,-55406.66,8595.988,-7293.9863,8048.0146,-35675.824,23705.73,50049.316
965454.9365139004,-74533.57,-55432.254,8594.279,-7291.9517,8046.5903,-35674.684,23706.951,50039.062
965454.9405138969,-74518.11,-55399.05,8598.1045,-7292.7656,8051.5547,-35674.074,23718.344,50058.555
965454.9445138933,-74501.914,-55350.63,8605.185,-7293.0503,8058.106,-35672.61,23727.906,50090.7
965454.9485138897,-74503.46,-55355.51,8606.853,-7291.219,8053.7114,-35670.574,23726.441,50095.055
965454.9525138861,-74519.05,-55401.777,8603.964,-7289.0625,8046.672,-35670.125,23722.25,50075.32
965454.9565138826,-74524.945,-55429.77,8602.214,-7286.8247,8047.0786,-35668.703,23722.697,50065.84
965454.9605138791,-74513.92,-55393.027,8601.726,-7289.714,8053.63,-35668.01,23727.865,50076.336
965454.9645138755,-74496.95,-55339.6,8605.591,-7290.9346,8057.4956,-35666.06,23732.748,50101.848
965454.9685138719,-74501.914,-55351.32,8605.103,-7292.318,8048.7876,-35667.156,23727.174,50095.46
965454.9725138684,-74522.46,-55406.332,8599.365,-7292.033,8038.371,-35668.582,23716.473,50063.316
965454.9765138648,-74533.29,-55436.688,8595.012,-7291.1377,8035.8076,-35668.297,23716.432,50049.195
965454.9805138613,-74520.14,-55395.59,8596.477,-7292.7246,8044.271,-35667.277,23725.424,50068.074
965454.9845138576,-74502.2,-55344.77,8600.139,-7293.742,8050.2935,-35666.832,23731.406,50090.375
965454.9885138541,-74503.54,-55350.63,8600.342,-7293.091,8043.5386,-35666.63,23727.295,50085.125
965454.9925138506,-74518.48,-55399.133,8597.046,-7291.9517,8035.645,-35667.605,23720.459,50065.633
965454.996513847,-74529.09,-55428.996,8594.687,-7291.748,8033.692,-35668.785,23720.459,50054.363
965455.0005138435,-74517.375,-55395.184,8598.755,-7294.149,8040.202,-35668.66,23731.121,50072.266
965455.0045138398,-74503.42,-55348.145,8602.051,-7294.8813,8044.19,-35669.8,23732.178,50089.766
965455.0085138363,-74506.15,-55358.848,8603.027,-7293.498,8039.307,-35668.582,23727.459,50083.17
965455.0125138328,-74521.734,-55404.46,8597.168,-7293.742,8030.518,-35669.19,23722.088,50058.188
965455.0165138292,-74535.195,-55431.723,8592.978,-7293.132,8027.5884,-35668.5,23722.168,50050.215
965455.0205138256,-74524.17,-55398.03,8594.076,-7294.1084,8033.4067,-35669.395,23729.574,50070.64
965455.024513822,-74509.97,-55349.977,8598.063,-7295.207,8037.883,-35670.207,23735.271,50090.617
965455.0285138185,-74515.42,-55356.69,8595.297,-7295.4917,8030.8433,-35670.453,23729.9,50083.66
965455.032513815,-74533.57,-55406.7,8588.298,-7294.5557,8019.8164,-35669.637,23723.918,50061.117
965455.0365138113,-74541.99,-55438.844,8586.467,-7293.335,8014.0386,-35668.703,23722.576,50043.254
965455.0405138078,-74533.61,-55407.797,8586.589,-7295.6953,8016.9272,-35669.395,23726.97,50056.195
965455.0445138043,-74521.24,-55363.406,8588.989,-7297.6074,8022.6646,-35669.434,23731.486,50080.934
965455.0485138007,-74527.02,-55373.496,8587.402,-7297.4043,8017.8228,-35670.29,23727.174,50077.19
965455.0525137972,-74543.74,-55422.363,8585.449,-7295.4917,8007.1616,-35668.99,23720.459,50044.434
965455.0565137935,-74554.28,-55453.86,8585.775,-7293.091,8006.348,-35666.992,23723.064,50037.395
965455.06051379,-74543.74,-55427.41,8587.81,-7295.41,8011.1494,-35668.418,23731.73,50055.625
965455.0645137865,-74529.3,-55381.227,8590.536,-7299.398,8013.591,-35671.145,23734.904,50077.35
965455.0685137829,-74534.43,-55388.145,8590.332,-7299.4795,8008.342,-35670.74,23728.271,50070.64
965455.0725137793,-74552.125,-55437.91,8586.996,-7298.625,7995.0767,-35669.598,23724.082,50053.426
965455.0765137757,-74562.13,-55466.676,8582.683,-7298.1367,7993.408,-35669.56,23723.309,50040.45
965455.0805137722,-74549.08,-55428.062,8583.171,-7299.6826,8002.0757,-35668.863,23731.975,50056.562
965455.0845137687,-74533.2,-55375.855,8587.199,-7300.537,8007.365,-35669.027,23736.084,50081.707
965455.0885137651,-74538.49,-55386.926,8585.775,-7299.52,8002.3604,-35670.656,23730.51,50072.594
965455.0925137615,-74552.49,-55437.785,8585.124,-7296.3057,7995.9717,-35671.227,23726.523,50052.043
965455.096513758,-74563.64,-55465.984,8583.212,-7295.7764,7991.9844,-35671.266,23725.465,50044.516
965455.1005137544,-74554.04,-55434.816,8583.293,-7298.0957,7998.9424,-35670.33,23730.957,50061.445
965455.1045137509,-74534.06,-55385.99,8588.461,-7299.8457,8006.9175,-35670.047,23735.393,50080.04
965455.1085137472,-74534.95,-55392.54,8589.193,-7298.869,8003.4995,-35669.312,23729.086,50071.94
965455.1125137437,-74549.08,-55437.95,8584.555,-7297.038,7997.8027,-35669.434,23722.291,50055.91
965455.1165137402,-74558.11,-55464.6,8581.259,-7296.4683,7998.9424,-35668.375,23725.098,50053.1
965455.1205137366,-74548.51,-55430.055,8584.839,-7297.3228,8007.1616,-35667.277,23732.463,50069.5
965455.1245137331,-74534.79,-55385.867,8589.722,-7297.5264,8016.317,-35666.87,23734.295,50085.938
965455.1285137294,-74541.305,-55398.926,8589.519,-7298.259,8014.0386,-35667.277,23729.492,50077.72
965455.1325137259,-74556.56,-55444.582,8582.764,-7296.916,8009.3184,-35667.81,23724.285,50054.402
965455.1365137224,-74561.445,-55468.63,8580.363,-7296.7124,8010.7427,-35666.344,23723.877,50050.62
965455.1405137188,-74548.016,-55432.496,8582.275,-7296.631,8021.8916,-35664.633,23732.342,50073.445
965455.1445137152,-74533.86,-55383.06,8585.368,-7297.2007,8028.565,-35664.105,23738.73,50097.496
965455.1485137116,-74536.22,-55391.113,8586.467,-7296.794,8025.35,-35663.414,23734.092,50095.664
965455.1525137081,-74551.84,-55440.758,8585.368,-7295.736,8020.549,-35663.29,23727.256,50071.82
965455.1565137046,-74560.02,-55464.03,8584.351,-7295.207,8020.264,-35662.926,23726.848,50065.27
965455.160513701,-74545.62,-55428.223,8586.67,-7296.631,8026.7744,-35663.29,23732.057,50078.777
965455.1645136974,-74526.0,-55373.17,8594.32,-7296.0205,8035.238,-35661.5,23735.271,50097.25
965455.1685136938,-74531.58,-55380.656,8595.297,-7295.7764,8033.2036,-35662.07,23729.492,50093.75
965455.1725136903,-74550.13,-55431.438,8591.757,-7294.5557,8029.1753,-35662.395,23722.291,50072.676
965455.1765136868,-74558.88,-55462.85,8591.675,-7292.684,8029.2563,-35661.664,23721.68,50060.793
965455.1805136831,-74547.33,-55430.34,8594.6045,-7294.0674,8037.0283,-35661.336,23730.43,50083.824
965455.1845136796,-74530.31,-55374.637,8598.145,-7296.1836,8043.8643,-35661.215,23735.352,50106.0
965455.188513676,-74531.62,-55384.277,8599.04,-7295.532,8041.1787,-35659.832,23732.748,50101.562
965455.1925136725,-74544.44,-55435.67,8595.744,-7292.3584,8037.9644,-35658.203,23728.354,50076.54
965455.196513669,-74553.67,-55462.2,8593.994,-7290.4053,8033.4883,-35658.61,23729.412,50065.84
965455.2005136653,-74542.65,-55423.707,8596.069,-7291.626,8041.5854,-35660.035,23734.783,50082.234
965455.2045136618,-74526.0,-55375.125,8600.22,-7292.4805,8049.9272,-35660.156,23736.37,50103.72
965455.2085136583,-74533.24,-55384.89,8598.349,-7291.7075,8047.6484,-35661.54,23727.256,50099.043
965455.2125136547,-74553.19,-55433.23,8593.75,-7291.545,8038.2896,-35662.438,23717.367,50077.434
965455.2165136511,-74559.41,-55457.848,8593.14,-7288.9,8036.8247,-35660.562,23718.629,50070.07
965455.2205136475,-74543.74,-55422.61,8598.308,-7290.4053,8043.7827,-35659.465,23726.156,50086.914
965455.224513644,-74528.28,-55375.043,8603.231,-7291.9517,8050.09,-35660.2,23727.133,50103.8
965455.2285136405,-74534.016,-55380.94,8601.889,-7291.545,8045.777,-35661.46,23717.611,50095.38
965455.2325136368,-74549.4,-55429.77,8598.593,-7289.4287,8038.941,-35661.215,23709.922,50073.61
965455.2365136333,-74556.73,-55456.34,8596.029,-7288.2896,8036.662,-35660.77,23710.857,50059.855
965455.2405136297,-74548.38,-55416.504,8598.022,-7289.917,8043.3354,-35660.605,23718.426,50074.383
965455.2445136262,-74531.54,-55370.527,8602.621,-7290.8125,8049.7236,-35660.156,23723.186,50098.633
965455.2485136227,-74536.3,-55383.465,8603.516,-7289.144,8047.73,-35660.645,23717.082,50087.402
965455.252513619,-74550.01,-55435.63,8599.976,-7286.54,8045.2886,-35660.44,23713.543,50067.426
965455.2565136155,-74558.84,-55470.34,8598.593,-7285.1562,8040.324,-35658.816,23718.223,50059.41
965455.260513612,-74547.28,-55430.46,8599.936,-7288.127,8046.9976,-35658.652,23727.336,50079.918
965455.2645136084,-74526.94,-55369.55,8605.591,-7288.5337,8053.6704,-35657.918,23730.754,50105.594
965455.2685136048,-74531.54,-55373.21,8605.51,-7287.4756,8048.8286,-35658.12,23723.918,50092.33
965455.2725136012,-74548.26,-55418.906,8600.505,-7287.2314,8038.778,-35659.465,23717.123,50071.574
965455.2765135977,-74554.73,-55446.94,8598.755,-7286.5806,8035.604,-35658.57,23716.27,50061.402
965455.2805135942,-74539.96,-55411.055,8601.726,-7287.557,8041.7485,-35658.367,23722.941,50080.12
965455.2845135906,-74525.31,-55362.227,8603.3125,-7289.9985,8045.98,-35658.734,23725.627,50100.832
965455.288513587,-74530.84,-55381.27,8602.417,-7289.795,8040.894,-35657.918,23720.338,50090.945
965455.2925135834,-74550.414,-55438.805,8599.121,-7288.371,8031.9014,-35659.668,23710.572,50059.246
965455.2965135799,-74562.54,-55469.2,8595.5,-7288.615,8027.222,-35661.258,23706.992,50046.145
965455.3005135764,-74549.44,-55434.004,8596.558,-7289.673,8033.366,-35661.95,23717.408,50069.01
965455.3045135727,-74533.45,-55381.43,8600.342,-7291.911,8037.11,-35661.094,23724.203,50088.258
965455.3085135692,-74541.1,-55397.383,8600.952,-7292.6436,8029.704,-35660.727,23721.314,50079.918
965455.3125135656,-74557.45,-55449.3,8597.29,-7292.196,8021.485,-35661.867,23716.676,50051.15
965455.3165135621,-74563.97,-55474.895,8594.564,-7290.4053,8022.502,-35659.668,23720.5,50048.543
965455.3205135586,-74553.14,-55437.664,8593.466,-7291.423,8028.89,-35661.664,23725.547,50076.66
965455.3245135549,-74534.99,-55380.656,8597.616,-7291.3413,8034.831,-35661.176,23728.15,50089.355
965455.3285135514,-74540.61,-55390.098,8600.302,-7290.4463,8030.355,-35660.2,23725.506,50079.918
965455.3325135479,-74559.734,-55445.11,8596.721,-7290.1206,8018.514,-35660.523,23720.256,50059.98
965455.3365135443,-74567.51,-55477.05,8595.012,-7288.6963,8017.5786,-35660.402,23722.697,50052.41
965455.3405135407,-74553.71,-55440.797,8598.186,-7289.592,8025.6353,-35660.688,23731.406,50070.438
965455.3445135371,-74540.125,-55392.824,8600.017,-7291.4634,8032.471,-35660.973,23736.695,50088.992
965455.3485135336,-74547.61,-55401.043,8599.081,-7291.626,8028.8496,-35659.586,23735.068,50083.742
965455.3525135301,-74563.27,-55447.348,8594.238,-7289.836,8020.671,-35659.953,23727.947,50065.555
965455.3565135265,-74573.53,-55482.18,8590.454,-7289.9985,8017.2124,-35662.07,23726.848,50050.254
965455.3605135229,-74564.86,-55449.914,8590.861,-7290.7715,8024.211,-35661.867,23736.98,50067.63
965455.3645135193,-74552.57,-55402.062,8592.692,-7291.8296,8031.2505,-35662.234,23742.31,50081.625
965455.3685135158,-74554.85,-55414.836,8593.059,-7291.545,8026.164,-35663.21,23736.328,50067.465
965455.3725135123,-74572.59,-55471.355,8588.257,-7289.5103,8017.619,-35662.516,23730.836,50044.844
965455.3765135086,-74583.13,-55506.31,8587.036,-7288.9404,8013.835,-35660.77,23732.422,50036.133
965455.3805135051,-74574.83,-55473.88,8588.176,-7290.609,8019.0024,-35660.156,23742.676,50058.96
965455.3845135015,-74557.21,-55425.863,8592.692,-7292.033,8024.9434,-35660.117,23747.559,50078.574
965455.388513498,-74560.55,-55434.492,8594.116,-7289.917,8023.3564,-35661.297,23741.334,50067.223
965455.3925134945,-74576.17,-55479.617,8589.519,-7287.4756,8017.945,-35661.46,23732.83,50043.945
965455.3965134908,-74585.66,-55505.453,8585.287,-7289.1846,8014.8115,-35660.523,23734.66,50039.473
965455.4005134873,-74573.53,-55468.508,8585.653,-7291.87,8021.8916,-35660.156,23743.125,50057.293
965455.4045134838,-74559.29,-55417.277,8587.932,-7293.213,8025.0654,-35660.848,23743.572,50069.215
965455.4085134802,-74559.37,-55419.152,8588.786,-7290.6904,8019.1655,-35661.215,23737.346,50055.504
965455.4125134766,-74575.56,-55466.516,8583.74,-7290.1206,8011.19,-35662.64,23730.713,50027.266
965455.416513473,-74585.125,-55496.664,8581.096,-7290.202,8010.1323,-35664.715,23729.818,50021.08
965455.4205134695,-74573.04,-55462.04,8582.4795,-7291.504,8016.5205,-35664.918,23737.957,50042.89
965455.424513466,-74557.13,-55409.1,8586.304,-7293.742,8020.223,-35664.43,23743.938,50060.547
965455.4285134623,-74562.99,-55416.914,8585.287,-7293.8643,8015.3813,-35663.535,23741.822,50062.01
965455.4325134588,-74580.445,-55464.152,8581.218,-7293.0503,8008.016,-35662.723,23737.305,50039.31
965455.4365134552,-74587.445,-55488.0,8578.898,-7293.498,8006.8364,-35661.5,23738.16,50027.71
965455.4405134517,-74573.125,-55455.895,8580.16,-7295.858,8011.434,-35661.664,23746.543,50051.27
965455.4445134482,-74557.13,-55409.71,8584.758,-7296.224,8015.2593,-35660.973,23750.45,50069.38
965455.4485134445,-74562.664,-55427.98,8585.449,-7295.166,8009.074,-35662.598,23744.71,50055.38
965455.452513441,-74580.98,-55480.023,8581.34,-7293.9453,8001.0176,-35663.414,23736.654,50031.496
965455.4565134374,-74590.21,-55501.75,8579.306,-7294.5557,7997.762,-35664.676,23732.992,50019.246
965455.4605134339,-74574.83,-55457.93,8582.805,-7295.451,8003.459,-35663.7,23741.09,50035.688
965455.4645134303,-74555.22,-55399.133,8587.891,-7296.224,8006.999,-35662.598,23747.152,50062.5
965455.4685134267,-74557.74,-55407.188,8586.264,-7296.7124,8003.703,-35662.723,23743.857,50067.383
965455.4725134232,-74574.55,-55460.168,8581.706,-7294.271,7996.582,-35662.11,23739.258,50045.94
965455.4765134196,-74584.96,-55492.516,8579.143,-7293.457,7994.5884,-35661.582,23740.44,50029.625
965455.4805134161,-74570.44,-55457.6,8581.381,-7294.271,8003.6626,-35662.355,23749.717,50049.97
965455.4845134125,-74553.51,-55404.543,8585.043,-7294.7593,8009.156,-35662.19,23755.656,50078.37
965455.4885134089,-74553.71,-55413.008,8587.443,-7292.8877,8003.459,-35662.477,23751.791,50075.605
965455.4925134054,-74568.28,-55459.11,8584.88,-7289.917,7997.8438,-35664.676,23740.479,50038.496
965455.4965134019,-74578.82,-55486.125,8580.974,-7289.6323,7994.751,-35665.812,23735.8,50020.67
965455.5005133982,-74568.195,-55449.668,8582.316,-7292.2363,8001.8315,-35664.918,23742.799,50042.562
965455.5045133947,-74554.164,-55399.414,8587.402,-7293.457,8003.0522,-35663.535,23748.78,50066.246
965455.5085133911,-74557.91,-55412.152,8587.402,-7292.7246,7997.274,-35665.12,23744.06,50058.35
965455.5125133876,-74570.64,-55460.086,8585.287,-7290.9346,7991.252,-35663.7,23740.967,50039.797
965455.5165133841,-74579.1,-55486.74,8581.665,-7291.0156,7989.624,-35660.973,23744.467,50039.227
965455.5205133804,-74569.945,-55455.203,8582.113,-7293.9453,7996.5415,-35660.484,23753.785,50062.38
965455.5245133769,-74557.13,-55408.41,8584.839,-7296.794,8000.285,-35661.746,23755.535,50073.69
965455.5285133733,-74557.945,-55413.7,8586.589,-7293.0503,7996.704,-35661.215,23753.785,50070.844
965455.5325133698,-74573.24,-55455.08,8582.438,-7290.5273,7992.391,-35660.77,23749.023,50052.33
965455.5365133662,-74582.766,-55484.05,8578.491,-7290.6904,7990.8857,-35661.95,23746.379,50029.01
965455.5405133626,-74574.55,-55455.445,8577.881,-7294.4746,7993.6523,-35662.11,23752.197,50041.504
965455.5445133591,-74555.42,-55410.156,8581.706,-7295.736,7994.1,-35661.99,23756.43,50065.758
965455.5485133555,-74560.34,-55419.8,8580.893,-7295.329,7989.8276,-35662.926,23750.53,50059.57
965455.552513352,-74578.9,-55467.57,8578.735,-7294.3525,7982.5034,-35662.312,23744.793,50036.62
965455.5565133484,-74588.3,-55490.562,8576.132,-7294.393,7980.184,-35662.19,23743.938,50023.97
965455.5605133448,-74577.88,-55454.51,8575.358,-7297.445,7985.4736,-35661.5,23754.15,50040.527
965455.5645133413,-74562.22,-55401.9,8578.817,-7298.2993,7991.089,-35659.02,23762.656,50065.27
965455.5685133378,-74564.66,-55406.78,8581.055,-7296.875,7989.258,-35658.12,23756.959,50060.1
965455.5725133341,-74578.78,-55455.445,8580.648,-7293.823,7981.079,-35658.61,23750.652,50042.402
965455.5765133306,-74585.37,-55480.754,8579.997,-7291.992,7978.719,-35659.75,23751.506,50033.203
965455.580513327,-74571.82,-55446.25,8580.526,-7292.1553,7988.078,-35660.93,23758.465,50049.97
965455.5845133235,-74556.93,-55401.41,8584.433,-7293.9453,7990.3564,-35662.312,23758.709,50066.69
965455.58851332,-74560.1,-55406.984,8583.74,-7292.3994,7985.9214,-35661.703,23753.297,50063.805
965455.5925133163,-74577.4,-55458.05,8579.509,-7290.08,7976.8477,-35660.89,23747.682,50039.062
965455.5965133128,-74585.66,-55486.086,8576.172,-7290.039,7972.087,-35661.258,23746.502,50026.246
965455.6005133092,-74574.26,-55450.684,8578.695,-7290.609,7979.0854,-35661.582,23753.215,50039.96
965455.6045133057,-74561.16,-55402.875,8584.921,-7291.1377,7983.6426,-35661.215,23757.732,50058.434
965455.608513302,-74564.45,-55412.56,8586.02,-7290.4053,7978.0684,-35661.62,23753.662,50054.363
965455.6125132985,-74576.58,-55458.05,8581.462,-7288.7373,7971.965,-35662.273,23746.299,50038.21
965455.616513295,-74581.26,-55481.406,8578.451,-7288.249,7971.517,-35662.477,23746.705,50026.855
965455.6205132914,-74567.51,-55444.297,8580.2,-7288.6963,7977.7427,-35663.21,23753.012,50038.25
965455.6245132879,-74552.37,-55393.84,8585.653,-7288.0454,7983.3984,-35663.7,23755.006,50061.65
965455.6285132843,-74553.8,-55401.043,8586.996,-7286.54,7979.045,-35662.19,23751.791,50058.027
965455.6325132807,-74570.195,-55451.785,8584.311,-7286.743,7969.7266,-35662.312,23746.787,50030.926
965455.6365132772,-74579.8,-55481.04,8581.503,-7286.377,7966.146,-35662.395,23744.873,50023.766
965455.6405132737,-74570.766,-55450.035,8581.625,-7287.679,7970.5405,-35662.926,23754.111,50044.72
965455.64451327,-74555.87,-55403.28,8584.066,-7290.324,7975.586,-35662.516,23760.092,50067.793
965455.6485132665,-74560.23,-55410.93,8583.618,-7289.551,7968.547,-35662.312,23754.803,50059.33
965455.6525132629,-74578.25,-55461.67,8580.7705,-7287.9233,7961.426,-35663.086,23748.617,50035.93
965455.6565132594,-74586.34,-55486.086,8580.241,-7286.377,7961.263,-35662.516,23749.023,50027.793
965455.6605132557,-74573.61,-55447.227,8581.869,-7288.4116,7969.116,-35662.516,23755.982,50044.92
965455.6645132522,-74558.02,-55398.277,8584.677,-7288.6963,7973.1855,-35662.8,23759.727,50065.676
965455.6685132487,-74558.76,-55408.977,8585.9375,-7286.947,7970.703,-35662.395,23755.006,50059.855
965455.6725132451,-74576.625,-55460.656,8583.008,-7286.0107,7963.4604,-35661.785,23746.908,50037.438
965455.6765132416,-74583.5,-55486.94,8581.015,-7284.912,7960.9785,-35662.355,23744.426,50020.062
965455.680513238,-74576.3,-55459.027,8581.462,-7288.005,7964.1113,-35663.004,23751.465,50037.68
965455.6845132344,-74565.47,-55414.473,8587.28,-7289.3066,7970.622,-35662.11,23757.568,50059.367
965455.6885132309,-74569.7,-55427.695,8586.182,-7288.9,7966.5938,-35661.05,23753.135,50047.527
965455.6925132273,-74587.28,-55481.406,8580.7705,-7288.371,7961.548,-35661.46,23747.967,50026.855
965455.6965132237,-74595.625,-55509.523,8578.451,-7288.2896,7962.4023,-35661.01,23748.984,50019.777
965455.7005132202,-74585.086,-55476.973,8580.974,-7288.086,7971.517,-35662.07,23756.186,50040.61
965455.7045132166,-74569.055,-55431.074,8583.13,-7288.8594,7981.6895,-35662.723,23757.488,50061.28
965455.7085132131,-74573.33,-55440.35,8583.496,-7287.0283,7980.713,-35662.598,23750.164,50047.85
965455.7125132096,-74591.19,-55487.957,8580.444,-7285.4414,7972.0054,-35661.906,23744.549,50019.29
965455.7165132059,-74603.555,-55516.6,8575.806,-7286.418,7973.633,-35663.13,23746.258,50011.72
965455.7205132024,-74590.984,-55480.51,8577.515,-7287.679,7986.003,-35662.68,23755.006,50030.887
965455.7245131988,-74576.7,-55431.97,8582.194,-7289.7544,7993.612,-35662.516,23761.475,50055.22
965455.7285131953,-74579.02,-55438.805,8582.397,-7288.493,7990.7637,-35662.19,23759.807,50057.332
965455.7325131916,-74592.98,-55483.074,8578.329,-7287.2725,7986.9385,-35662.477,23750.488,50028.363
965455.7365131881,-74603.27,-55510.54,8574.748,-7286.54,7986.2876,-35664.266,23746.99,50014.57
965455.7405131846,-74591.92,-55477.746,8577.515,-7288.086,7992.391,-35665.04,23753.338,50028.934
965455.744513181,-74577.48,-55430.22,8581.177,-7290.609,7999.919,-35664.754,23756.227,50046.918
965455.7485131775,-74581.51,-55441.33,8581.177,-7289.266,7997.5586,-35664.227,23753.623,50040.73
965455.7525131739,-74597.414,-55489.79,8576.66,-7287.0283,7991.211,-35664.957,23748.902,50017.78
965455.7565131703,-74607.914,-55515.832,8574.138,-7286.621,7990.194,-35664.918,23750.45,50009.48
965455.7605131668,-74596.36,-55478.19,8575.277,-7288.371,7996.623,-35663.902,23759.156,50025.35
965455.7645131632,-74578.49,-55428.875,8580.444,-7289.917,7999.5933,-35664.754,23761.191,50041.383
965455.7685131596,-74583.54,-55439.535,8580.16,-7288.1675,7998.088,-35664.957,23757.041,50039.023
965455.7725131561,-74601.484,-55493.086,8577.189,-7287.435,7991.903,-35665.04,23750.45,50014.49
965455.7765131525,-74605.8,-55515.137,8574.992,-7286.255,7989.1357,-35665.977,23748.74,50009.074
965455.780513149,-74593.305,-55475.832,8575.644,-7287.6387,7995.8496,-35666.344,23754.395,50032.27
965455.7845131455,-74578.62,-55426.72,8577.841,-7289.592,8002.808,-35666.79,23755.615,50050.293
965455.7885131418,-74579.23,-55429.324,8578.247,-7288.452,7998.7793,-35666.79,23747.396,50031.21
965455.7925131383,-74593.55,-55476.562,8575.155,-7287.883,7990.682,-35667.766,23741.375,50010.703
965455.7965131347,-74602.74,-55507.406,8573.324,-7287.069,7989.0137,-35668.336,23740.275,50001.465
965455.8005131312,-74592.37,-55471.234,8575.725,-7288.249,7996.053,-35666.016,23752.93,50023.316
965455.8045131275,-74579.63,-55421.836,8578.003,-7289.917,8002.686,-35664.145,23757.773,50046.957
965455.808513124,-74581.51,-55430.586,8578.125,-7288.656,8001.4653,-35665.934,23751.791,50039.836
965455.8125131205,-74595.91,-55482.63,8575.195,-7287.6387,7994.2627,-35667.277,23746.705,50014.69
965455.8165131169,-74603.31,-55505.496,8573.446,-7287.7197,7994.7104,-35665.203,23749.756,50007.12
965455.8205131134,-74590.25,-55466.797,8575.766,-7289.673,7999.105,-35666.63,23756.553,50022.83
965455.8245131098,-74575.6,-55421.387,8580.078,-7290.5273,8003.4995,-35667.156,23761.271,50044.56
965455.8285131062,-74576.87,-55424.44,8583.334,-7289.1035,7997.3555,-35666.14,23757.977,50040.49
965455.8325131027,-74591.59,-55470.137,8581.462,-7286.174,7989.258,-35666.14,23749.553,50008.79
965455.8365130991,-74601.97,-55506.066,8577.515,-7286.743,7985.4736,-35666.75,23746.502,49994.55
965455.8405130955,-74588.3,-55474.082,8581.462,-7287.3945,7991.1704,-35667.605,23754.559,50014.406
965455.844513092,-74575.85,-55427.94,8583.659,-7289.1035,7995.9717,-35666.344,23761.76,50038.453
965455.8485130884,-74580.65,-55439.13,8583.008,-7288.656,7992.92,-35665.04,23759.521,50038.168
965455.8525130849,-74597.54,-55486.695,8577.963,-7287.435,7985.6772,-35666.91,23750.45,50015.22
965455.8565130812,-74606.695,-55512.207,8574.423,-7287.0283,7983.48,-35667.195,23748.78,50001.387
965455.8605130777,-74595.74,-55468.832,8576.294,-7287.883,7991.374,-35667.074,23754.111,50017.54
965455.8645130742,-74580.61,-55419.8,8580.038,-7288.8594,7997.762,-35667.195,23755.576,50032.84
965455.8685130706,-74585.82,-55439.25,8578.573,-7288.086,7992.5947,-35666.06,23750.938,50026.613
965455.8725130671,-74606.08,-55494.957,8571.859,-7288.656,7983.236,-35667.562,23742.717,50005.86
965455.8765130634,-74618.86,-55526.9,8567.017,-7288.0454,7978.1904,-35668.99,23740.44,49986.29
965455.8805130599,-74607.55,-55491.17,8568.726,-7289.551,7981.893,-35668.62,23746.379,49996.094
965455.8845130564,-74594.73,-55449.22,8572.754,-7290.3647,7988.2,-35668.336,23750.977,50020.387
965455.8885130528,-74599.65,-55458.66,8573.649,-7289.8765,7983.6836,-35667.156,23751.182,50016.887
965455.8925130492,-74612.39,-55493.125,8570.272,-7289.714,7973.3887,-35667.074,23746.299,49995.77
965455.8965130456,-74621.55,-55516.848,8568.359,-7289.266,7971.7207,-35667.277,23744.549,49984.297
965455.9005130421,-74608.16,-55481.406,8572.632,-7288.9,7978.5566,-35668.094,23748.861,49998.984
965455.9045130386,-74590.984,-55433.188,8578.329,-7288.9,7984.253,-35667.887,23751.67,50022.586
965455.908513035,-74595.95,-55446.21,8577.475,-7289.551,7978.5566,-35667.605,23746.46,50016.6
965455.9125130314,-74612.266,-55495.85,8572.429,-7288.6963,7970.378,-35668.945,23738.525,49987.508
965455.9165130279,-74622.84,-55523.234,8569.784,-7288.371,7965.251,-35671.145,23736.94,49972.21
965455.9205130243,-74614.55,-55486.29,8569.662,-7290.039,7973.47,-35671.062,23745.402,49998.82
965455.9245130208,-74600.836,-55439.617,8573.324,-7290.487,7978.923,-35669.19,23751.344,50021.895
965455.9285130171,-74601.81,-55446.74,8573.975,-7289.1035,7975.2607,-35667.887,23749.35,50014.285
965455.9325130136,-74618.414,-55489.543,8570.517,-7288.249,7970.337,-35668.17,23740.031,49986.207
965455.9365130101,-74629.36,-55511.312,8568.359,-7287.4756,7967.204,-35667.848,23740.113,49981.12
965455.9405130065,-74612.59,-55469.85,8571.615,-7288.208,7974.6504,-35666.344,23749.717,50000.855
965455.944513003,-74593.836,-55424.766,8578.044,-7287.964,7981.405,-35664.918,23754.273,50017.58
965455.9485129993,-74597.74,-55436.402,8577.148,-7288.452,7979.126,-35664.88,23750.57,50013.184
965455.9525129958,-74615.73,-55480.43,8574.219,-7286.784,7973.1855,-35665.652,23744.467,49993.45
965455.9565129923,-74623.5,-55503.83,8570.598,-7285.848,7972.982,-35666.832,23741.62,49983.24
965455.9605129887,-74608.85,-55465.09,8570.883,-7287.0283,7976.5625,-35668.133,23748.129,50009.688
965455.9645129851,-74592.86,-55417.24,8575.928,-7288.8184,7981.2827,-35667.605,23752.93,50033.938
965455.9685129815,-74594.484,-55424.24,8577.719,-7289.1846,7975.749,-35667.766,23749.594,50030.4
965455.972512978,-74607.1,-55469.035,8574.87,-7288.4116,7968.669,-35667.035,23743.652,50005.617
965455.9765129745,-74616.3,-55499.39,8570.639,-7289.1846,7962.5654,-35667.684,23738.81,49985.637
965455.980512971,-74610.03,-55477.95,8572.021,-7290.9346,7964.3965,-35668.05,23743.164,50001.18
965455.9845129673,-74594.16,-55440.84,8578.532,-7290.08,7968.994,-35668.133,23743.652,50014.934
965455.9885129638,-74605.06,-55459.84,8576.294,-7289.1035,7964.5996,-35668.62,23738.934,50005.086
965455.9925129602,-74626.914,-55515.18,8570.883,-7288.0454,7957.479,-35669.312,23734.213,49985.066
965455.9965129567,-74634.52,-55546.105,8569.214,-7286.255,7955.6074,-35669.8,23733.562,49972.37
965456.000512953,-74624.76,-55510.703,8570.15,-7287.435,7962.036,-35670.94,23739.258,49979.414
965456.0045129495,-74609.87,-55466.066,8572.917,-7289.0625,7965.9424,-35671.47,23737.59,49992.555
965456.008512946,-74614.3,-55481.04,8572.632,-7288.208,7961.3853,-35672.324,23732.545,49982.26
965456.0125129424,-74632.0,-55531.58,8567.871,-7286.54,7954.2646,-35672.73,23727.133,49962.08
965456.0165129389,-74643.96,-55559.125,8565.063,-7285.4414,7949.7886,-35673.465,23727.256,49952.434
965456.0205129352,-74636.195,-55533.816,8567.383,-7285.4004,7955.648,-35672.69,23736.451,49973.188
965456.0245129317,-74621.13,-55490.684,8571.33,-7284.953,7958.74,-35670.574,23741.984,49993.207
965456.0285129282,-74623.5,-55499.434,8572.958,-7284.546,7952.3115,-35669.84,23736.004,49982.22
965456.0325129246,-74641.08,-55548.953,8569.906,-7283.2847,7945.15,-35669.598,23730.592,49958.945
965456.036512921,-74652.266,-55578.207,8566.977,-7283.4883,7940.715,-35671.062,23727.824,49942.547
965456.0405129174,-74643.48,-55545.207,8568.441,-7284.017,7946.6147,-35673.055,23734.092,49959.473
965456.0445129139,-74630.375,-55502.727,8570.598,-7285.5225,7951.6196,-35674.52,23737.916,49979.902
965456.0485129104,-74632.125,-55508.63,8571.696,-7283.6914,7949.056,-35674.48,23733.44,49973.594
965456.0525129067,-74643.19,-55544.273,8570.272,-7281.006,7943.8477,-35674.36,23728.965,49959.883
965456.0565129032,-74646.57,-55562.83,8567.953,-7281.942,7940.593,-35673.3,23730.51,49950.074
965456.0605128997,-74636.48,-55526.9,8569.174,-7283.6104,7945.1094,-35671.387,23739.219,49966.023
965456.0645128961,-74623.7,-55479.98,8573.039,-7284.3833,7950.155,-35668.62,23747.193,49995.402
965456.0685128926,-74625.94,-55490.848,8573.853,-7285.5635,7942.871,-35668.703,23743.531,49993.246
965456.0725128889,-74640.18,-55537.19,8571.005,-7283.6914,7935.6284,-35667.97,23739.055,49968.508
965456.0765128854,-74647.95,-55561.2,8567.424,-7282.593,7934.8555,-35667.887,23736.94,49949.465
965456.0805128819,-74636.195,-55521.973,8567.383,-7284.912,7936.5645,-35669.72,23745.078,49969.2
965456.0845128783,-74622.88,-55474.734,8570.3125,-7286.54,7941.284,-35670.535,23747.314,49994.223
965456.0885128747,-74626.75,-55486.29,8568.97,-7285.36,7938.3955,-35671.633,23737.59,49978.152
965456.0925128711,-74641.484,-55534.547,8563.843,-7283.9766,7926.7173,-35671.59,23730.592,49953.777
965456.0965128676,-74647.75,-55555.3,8563.192,-7281.8604,7925.9443,-35669.598,23735.148,49951.5
965456.1005128641,-74633.47,-55511.477,8566.61,-7283.895,7935.0996,-35669.516,23745.037,49971.355
965456.1045128605,-74614.83,-55456.3,8571.208,-7286.54,7940.023,-35668.457,23750.773,49997.113
965456.1085128569,-74615.32,-55456.953,8571.127,-7287.069,7934.9365,-35668.418,23748.252,49998.21
965456.1125128533,-74629.07,-55500.164,8565.796,-7286.255,7927.6123,-35668.336,23744.223,49983.562
965456.1165128498,-74636.64,-55523.156,8561.768,-7285.482,7926.5547,-35668.457,23743.613,49977.297
965456.1205128463,-74626.266,-55488.04,8563.07,-7286.865,7932.048,-35667.684,23751.344,49997.56
965456.1245128426,-74616.3,-55446.25,8566.203,-7289.4697,7935.3843,-35667.848,23752.768,50013.797
965456.1285128391,-74621.016,-55459.434,8564.616,-7288.656,7931.112,-35670.41,23745.484,50005.168
965456.1325128356,-74638.1,-55502.28,8560.141,-7288.452,7923.34,-35672.04,23736.654,49973.918
965456.136512832,-74647.18,-55523.645,8557.983,-7288.452,7922.241,-35671.754,23735.352,49960.043
965456.1405128285,-74635.375,-55490.316,8561.035,-7289.266,7924.8457,-35670.816,23743.205,49981.812
965456.1445128248,-74617.96,-55444.215,8565.186,-7290.975,7928.0195,-35669.027,23745.484,50000.53
965456.1485128213,-74619.95,-55454.55,8565.918,-7289.795,7923.625,-35667.562,23743.125,49998.902
965456.1525128178,-74634.69,-55502.93,8562.216,-7288.493,7914.592,-35666.465,23737.266,49974.895
965456.1565128142,-74642.78,-55531.21,8560.629,-7286.418,7911.9062,-35666.383,23736.695,49961.387
965456.1605128106,-74637.53,-55499.15,8560.669,-7288.6963,7917.562,-35666.953,23743.693,49975.14
965456.164512807,-74622.27,-55455.69,8564.372,-7290.487,7919.963,-35666.63,23744.06,49987.918
965456.1685128035,-74629.805,-55470.625,8563.559,-7291.3413,7914.266,-35666.586,23736.328,49977.664
965456.1725128,-74646.08,-55516.113,8559.937,-7290.283,7906.006,-35666.547,23731.201,49959.066
965456.1765127964,-74652.75,-55537.316,8557.17,-7289.592,7900.35,-35666.992,23731.812,49951.62
965456.1805127928,-74643.19,-55508.26,8558.269,-7290.609,7903.89,-35667.48,23739.787,49964.438
965456.1845127892,-74632.57,-55471.113,8562.541,-7292.1553,7909.2207,-35669.312,23738.525,49978.07
965456.1885127857,-74639.37,-55484.99,8562.297,-7292.6436,7903.524,-35671.348,23732.627,49969.77
965456.1925127822,-74656.17,-55530.07,8558.105,-7292.1143,7895.0195,-35671.754,23725.912,49955.08
965456.1965127785,-74663.25,-55554.08,8556.356,-7291.9517,7892.09,-35670.9,23727.133,49943.77
965456.200512775,-74649.5,-55515.91,8558.146,-7292.1143,7896.9727,-35670.86,23734.092,49961.793
965456.2045127715,-74639.04,-55473.88,8558.92,-7293.9453,7898.8853,-35671.875,23736.41,49977.5
965456.2085127679,-74641.195,-55483.156,8561.442,-7292.44,7895.549,-35671.47,23733.154,49968.832
965456.2125127644,-74651.37,-55521.16,8558.879,-7288.615,7893.718,-35670.94,23725.18,49953.777
965456.2165127607,-74659.51,-55546.184,8554.81,-7288.086,7890.544,-35671.633,23723.309,49942.793
965456.2205127572,-74647.26,-55515.383,8557.78,-7290.1206,7894.206,-35670.9,23732.139,49960.652
965456.2245127537,-74634.24,-55474.406,8560.832,-7291.911,7897.746,-35670.816,23734.742,49978.598
965456.2285127501,-74636.72,-55480.715,8562.622,-7290.4463,7895.752,-35669.56,23728.842,49967.53
965456.2325127465,-74648.16,-55522.34,8562.256,-7287.679,7890.2183,-35668.094,23723.186,49949.383
965456.2365127429,-74656.375,-55547.65,8560.222,-7287.4756,7885.539,-35669.395,23719.523,49941.57
965456.2405127394,-74646.81,-55515.016,8559.001,-7289.714,7890.0557,-35671.227,23724.814,49953.492
965456.2445127359,-74633.47,-55475.26,8562.46,-7290.8936,7892.375,-35669.965,23731.242,49979.777
965456.2485127323,-74633.266,-55481.855,8564.982,-7289.4697,7888.021,-35668.824,23730.186,49976.562
965456.2525127287,-74647.14,-55522.707,8561.6455,-7288.9404,7883.3823,-35668.418,23726.768,49958.7
965456.2565127251,-74651.125,-55541.547,8560.344,-7289.0625,7883.8706,-35667.766,23728.76,49953.9
965456.2605127216,-74636.11,-55499.473,8562.948,-7288.493,7894.6943,-35667.32,23737.06,49976.484
965456.2645127181,-74624.68,-55460.246,8564.047,-7291.382,7897.949,-35666.465,23741.822,50001.832
965456.2685127144,-74628.83,-55465.457,8565.1045,-7290.2427,7895.9556,-35663.902,23740.195,50004.723
965456.2725127109,-74643.19,-55509.32,8561.728,-7288.9814,7891.8457,-35664.227,23733.643,49982.22
965456.2765127074,-74653.69,-55538.332,8556.804,-7289.3066,7893.3516,-35663.74,23732.342,49969.65
965456.2805127038,-74644.66,-55505.168,8558.105,-7291.992,7899.9434,-35664.47,23737.021,49976.727
965456.2845127002,-74630.17,-55462.688,8560.954,-7291.992,7907.43,-35663.535,23736.533,49983.887
965456.2885126966,-74631.19,-55469.16,8560.791,-7290.731,7908.366,-35664.062,23731.04,49973.105
965456.2925126931,-74645.02,-55503.95,8557.292,-7290.975,7904.582,-35664.957,23725.303,49957.316
965456.2965126896,-74649.09,-55521.934,8556.274,-7289.2256,7905.0293,-35664.633,23726.93,49951.703
965456.300512686,-74638.51,-55494.71,8558.594,-7289.3066,7914.551,-35664.754,23737.469,49977.785
965456.3045126824,-74622.4,-55456.3,8565.1455,-7289.9985,7924.0317,-35663.902,23740.805,50000.33
965456.3085126788,-74627.12,-55469.16,8567.587,-7289.3066,7922.689,-35665.285,23736.084,49994.062
965456.3125126753,-74643.68,-55513.797,8566.406,-7286.9062,7917.4805,-35665.04,23729.697,49971.723
965456.3165126718,-74652.55,-55536.258,8563.477,-7287.557,7916.5854,-35664.797,23730.51,49960.98
965456.3205126681,-74643.516,-55504.152,8564.535,-7290.202,7922.241,-35663.617,23737.957,49973.51
965456.3245126646,-74628.945,-55460.086,8570.028,-7289.9985,7929.8096,-35663.004,23743.613,49988.73
965456.328512661,-74630.05,-55469.81,8571.005,-7288.249,7929.118,-35664.754,23739.502,49985.68
965456.3325126575,-74645.43,-55517.17,8566.936,-7287.9233,7922.689,-35665.367,23733.562,49966.84
965456.336512654,-74652.67,-55541.75,8564.25,-7286.0923,7921.346,-35665.445,23733.236,49956.707
965456.3405126503,-74645.34,-55516.727,8566.04,-7287.1504,7926.88,-35665.934,23737.834,49971.6
965456.3445126468,-74636.4,-55483.44,8569.377,-7288.8594,7930.7456,-35668.254,23735.76,49981.855
965456.3485126432,-74640.625,-55502.117,8569.214,-7287.557,7927.7344,-35668.824,23730.998,49972.293
965456.3525126397,-74659.51,-55550.78,8563.681,-7287.557,7919.6777,-35667.074,23727.865,49953.004
965456.3565126361,-74668.625,-55577.15,8560.629,-7287.313,7915.3647,-35667.4,23727.703,49944.38
965456.3605126325,-74662.44,-55554.242,8561.931,-7287.964,7919.271,-35667.4,23736.857,49960.37
965456.364512629,-74651.25,-55517.906,8566.081,-7288.493,7924.642,-35666.832,23739.178,49967.164
965456.3685126255,-74653.36,-55526.086,8566.569,-7288.0454,7922.038,-35667.605,23731.406,49955.363
965456.3725126219,-74666.38,-55567.06,8565.063,-7286.662,7913.5337,-35668.703,23728.395,49944.01
965456.3765126183,-74672.484,-55588.91,8563.273,-7285.5225,7913.574,-35668.215,23727.988,49931.97
965456.3805126147,-74662.72,-55554.16,8563.07,-7287.069,7920.41,-35668.5,23732.871,49946.7
965456.3845126112,-74649.54,-55505.902,8566.081,-7287.2314,7927.409,-35670.125,23734.58,49965.457
965456.3885126077,-74646.28,-55507.977,8568.726,-7284.546,7926.2695,-35670.125,23731.04,49962.934
965456.392512604,-74659.99,-55550.17,8566.732,-7283.244,7919.963,-35671.67,23727.133,49947.266
965456.3965126005,-74670.375,-55574.18,8562.988,-7282.186,7920.3696,-35670.695,23728.15,49941.855
965456.4005125969,-74659.99,-55538.008,8564.819,-7282.959,7927.4497,-35671.51,23733.36,49958.17
965456.4045125934,-74646.484,-55495.363,8569.214,-7285.034,7931.4375,-35670.86,23736.533,49973.43
965456.4085125899,-74649.82,-55501.223,8567.221,-7286.174,7927.7754,-35672.28,23729.98,49960.613
965456.4125125862,-74663.125,-55538.086,8564.169,-7283.8545,7922.16,-35671.145,23723.268,49943.973
965456.4165125827,-74671.266,-55563.805,8562.175,-7283.651,7919.515,-35671.51,23724.936,49933.676
965456.4205125791,-74662.516,-55537.56,8563.681,-7284.546,7925.0083,-35669.11,23735.516,49948.164
965456.4245125756,-74651.734,-55501.75,8564.819,-7286.7026,7926.1475,-35669.027,23737.51,49966.594
965456.428512572,-74656.336,-55512.207,8566.772,-7285.5225,7924.3164,-35670.656,23732.992,49961.47
965456.4325125684,-74668.664,-55551.8,8565.593,-7283.2847,7922.5264,-35670.41,23728.76,49944.297
965456.4365125649,-74674.805,-55571.984,8563.192,-7284.1797,7919.7593,-35669.92,23728.557,49935.14
965456.4405125614,-74665.53,-55538.86,8564.128,-7286.8247,7920.8174,-35670.33,23736.004,49955.77
965456.4445125578,-74652.875,-55497.316,8565.593,-7287.0283,7927.8975,-35670.125,23738.12,49966.473
965456.4485125542,-74654.586,-55504.883,8567.424,-7285.1562,7924.52,-35670.816,23731.121,49957.36
965456.4525125506,-74665.2,-55542.97,8565.756,-7282.715,7917.44,-35671.1,23724.121,49939.13
965456.4565125471,-74673.625,-55562.582,8562.175,-7281.942,7914.958,-35670.777,23722.656,49925.17
965456.4605125436,-74662.72,-55531.25,8561.972,-7282.837,7921.0615,-35668.418,23731.445,49945.844
965456.4645125399,-74652.14,-55489.098,8564.982,-7284.0576,7923.625,-35668.5,23735.434,49968.832
965456.4685125364,-74654.95,-55497.723,8565.227,-7282.7964,7920.451,-35668.133,23733.521,49966.188
965456.4725125328,-74666.79,-55538.332,8564.209,-7280.5176,7916.911,-35666.75,23732.463,49951.215
965456.4765125293,-74676.68,-55560.71,8561.198,-7279.541,7915.202,-35666.668,23732.91,49939.656
965456.4805125257,-74668.055,-55531.414,8563.518,-7281.8604,7918.742,-35666.26,23740.275,49953.574
965456.4845125221,-74651.45,-55489.18,8567.139,-7282.308,7920.858,-35667.117,23741.537,49971.76
965456.4885125186,-74653.41,-55495.402,8567.668,-7280.9653,7916.9517,-35667.074,23736.207,49962.89
965456.492512515,-74667.89,-55535.523,8563.232,-7280.3145,7910.848,-35666.87,23730.713,49943.605
965456.4965125115,-74675.46,-55554.85,8560.059,-7280.4365,7909.343,-35667.605,23729.533,49938.805
965456.5005125079,-74666.42,-55528.32,8560.629,-7283.1626,7911.133,-35668.297,23736.777,49955.977
965456.5045125043,-74651.57,-55488.977,8566.0,-7283.0405,7913.615,-35670.004,23739.666,49969.035
965456.5085125008,-74650.39,-55492.312,8569.662,-7280.3145,7913.8184,-35669.598,23735.148,49960.9
965456.5125124973,-74665.81,-55536.543,8566.447,-7279.216,7905.1924,-35670.047,23729.9,49944.258
965456.5165124936,-74675.21,-55562.094,8563.599,-7279.582,7901.937,-35671.67,23728.842,49937.867
965456.5205124901,-74664.63,-55528.242,8565.593,-7279.948,7906.942,-35672.73,23734.783,49949.06
965456.5245124865,-74654.22,-55489.953,8566.813,-7281.3315,7910.075,-35672.0,23738.893,49968.14
965456.528512483,-74661.016,-55500.57,8565.186,-7282.3486,7906.8604,-35671.754,23734.904,49958.863
965456.5325124795,-74672.164,-55539.31,8561.728,-7281.82,7902.1406,-35669.434,23731.365,49945.477
965456.5365124758,-74677.984,-55563.965,8560.263,-7281.25,7898.4785,-35668.99,23731.61,49936.445
965456.5405124723,-74667.6,-55533.734,8563.3955,-7283.203,7902.7915,-35671.184,23733.074,49948.082
965456.5445124687,-74656.91,-55490.97,8564.819,-7285.6445,7906.535,-35672.566,23732.707,49960.734
965456.5485124652,-74663.29,-55501.914,8565.227,-7283.366,7901.9775,-35672.61,23727.906,49953.777
965456.5525124616,-74675.055,-55542.44,8563.3955,-7281.8604,7895.0605,-35672.527,23720.459,49929.688
965456.556512458,-74682.375,-55565.39,8561.728,-7281.9824,7894.8975,-35673.22,23719.238,49920.207
965456.5605124545,-74672.81,-55533.938,8562.541,-7283.203,7901.3267,-35675.21,23724.326,49940.31
965456.564512451,-74659.875,-55489.383,8566.284,-7283.4067,7906.616,-35674.48,23727.133,49953.125
965456.5685124474,-74663.375,-55494.062,8565.39,-7282.756,7905.6396,-35673.42,23725.262,49947.023
965456.5725124438,-74675.17,-55529.504,8561.85,-7281.82,7900.8384,-35672.69,23719.076,49937.95
965456.5765124402,-74682.62,-55552.86,8559.164,-7281.82,7896.8916,-35671.43,23721.273,49936.65
965456.5805124367,-74669.6,-55520.227,8561.32,-7283.895,7901.367,-35672.16,23726.686,49947.145
965456.5845124332,-74657.555,-55477.54,8563.681,-7284.668,7907.959,-35672.69,23729.045,49961.55
965456.5885124295,-74658.695,-55485.68,8561.931,-7284.6274,7904.3784,-35671.67,23724.041,49956.016
965456.592512426,-74670.49,-55524.58,8561.564,-7282.2266,7897.0947,-35671.184,23719.2,49938.438
965456.5965124224,-74677.45,-55546.105,8561.361,-7281.5757,7891.7646,-35672.445,23721.07,49931.074
965456.6005124189,-74670.78,-55529.34,8563.273,-7283.6914,7894.0024,-35672.28,23728.76,49942.18
965456.6045124154,-74666.38,-55513.754,8565.43,-7283.9766,7895.4673,-35672.0,23730.51,49951.5
965456.6085124117,-74678.39,-55539.836,8562.134,-7283.081,7888.5093,-35672.363,23723.389,49936.81
965456.6125124082,-74697.31,-55589.766,8556.804,-7281.535,7881.5107,-35672.73,23717.57,49913.574
965456.6165124046,-74703.66,-55614.258,8556.682,-7279.419,7879.476,-35671.387,23718.71,49904.137
965456.6205124011,-74695.234,-55589.844,8558.472,-7281.657,7880.168,-35670.816,23726.604,49911.258
965456.6245123975,-74687.5,-55562.707,8560.344,-7282.3486,7881.307,-35669.72,23729.209,49927.004
965456.6285123939,-74696.62,-55584.35,8558.024,-7281.9824,7876.75,-35669.883,23723.838,49920.37
965456.6325123904,-74719.16,-55645.633,8555.339,-7280.7617,7868.205,-35668.99,23719.809,49896.77
965456.6365123868,-74734.09,-55687.664,8551.596,-7280.4365,7864.0137,-35668.62,23718.629,49877.44
965456.6405123833,-74727.74,-55668.785,8551.433,-7280.721,7866.13,-35668.906,23726.36,49886.965
965456.6445123797,-74719.16,-55639.527,8552.043,-7281.372,7868.612,-35668.05,23730.186,49898.234
965456.6485123761,-74721.73,-55652.14,8550.985,-7280.4365,7864.5835,-35667.4,23722.25,49881.023
965456.6525123726,-74733.766,-55684.613,8547.079,-7278.3613,7858.3174,-35669.35,23712.973,49859.99
965456.656512369,-74738.98,-55693.36,8545.004,-7277.303,7859.5786,-35670.004,23713.623,49854.332
965456.6605123654,-74725.016,-55651.855,8548.3,-7278.524,7864.5835,-35670.25,23722.494,49876.465
965456.6645123619,-74707.805,-55595.785,8552.897,-7279.826,7871.216,-35670.816,23727.012,49900.758
965456.6685123583,-74706.1,-55585.574,8553.305,-7279.3784,7870.443,-35670.86,23724.244,49907.39
965456.6725123548,-74713.75,-55607.75,8550.578,-7278.402,7866.577,-35670.047,23720.947,49898.234
965456.6765123511,-74714.27,-55614.668,8546.591,-7277.385,7865.1123,-35670.125,23720.947,49885.62
965456.6805123476,-74702.68,-55576.133,8545.126,-7280.721,7867.961,-35670.613,23730.592,49903.934
965456.6845123441,-74692.51,-55536.95,8546.062,-7283.325,7871.9077,-35671.715,23732.016,49921.348
965456.6885123405,-74695.516,-55539.473,8545.248,-7282.593,7868.734,-35671.023,23726.686,49914.754
965456.692512337,-74705.98,-55568.727,8541.301,-7282.5117,7860.5957,-35671.754,23721.965,49901.246
965456.6965123334,-74710.164,-55585.816,8538.656,-7283.0405,7856.4453,-35671.023,23723.43,49897.016
965456.7005123298,-74699.055,-55555.91,8541.382,-7284.587,7860.555,-35670.816,23727.174,49910.688
965456.7045123263,-74692.51,-55537.07,8543.417,-7285.1562,7859.945,-35670.41,23725.953,49916.75
965456.7085123227,-74697.8,-55559.043,8543.945,-7284.3833,7850.7896,-35670.695,23722.129,49904.95
965456.7125123191,-74707.12,-55587.12,8545.451,-7281.494,7848.918,-35670.656,23720.297,49897.137
965456.7165123156,-74712.28,-55593.547,8541.708,-7282.837,7848.0635,-35669.516,23723.594,49900.637
965456.720512312,-74695.805,-55538.008,8542.196,-7285.4414,7855.5503,-35668.17,23732.627,49930.707
965456.7245123085,-74677.29,-55481.082,8544.841,-7286.8247,7861.898,-35669.84,23734.254,49954.184
965456.728512305,-74678.305,-55483.848,8545.044,-7284.5054,7860.4736,-35670.125,23727.336,49950.074
965456.7325123013,-74690.23,-55526.938,8542.236,-7282.6743,7855.1436,-35669.11,23719.32,49927.37
965456.7365122978,-74696.21,-55552.004,8541.708,-7282.6743,7852.702,-35668.375,23718.994,49911.543
965456.7405122942,-74684.25,-55520.715,8546.103,-7283.081,7855.1025,-35668.785,23726.36,49934.816
965456.7445122907,-74672.0,-55483.4,8549.398,-7284.912,7855.713,-35670.492,23726.523,49951.66
965456.748512287,-74678.06,-55493.98,8545.898,-7284.912,7850.3013,-35672.49,23718.994,49940.84
965456.7525122835,-74694.79,-55537.477,8541.26,-7284.0986,7841.4307,-35670.41,23713.379,49921.59
965456.75651228,-74701.984,-55559.613,8539.836,-7284.0986,7837.1177,-35669.72,23713.299,49910.44
965456.7605122764,-74693.36,-55533.0,8541.098,-7286.662,7839.966,-35670.613,23717.367,49923.22
965456.7645122729,-74681.234,-55492.15,8544.922,-7288.086,7841.96,-35671.47,23718.467,49934.45
965456.7685122692,-74679.77,-55498.21,8547.079,-7285.8887,7840.0474,-35670.25,23715.373,49939.7
965456.7725122657,-74695.4,-55548.137,8544.556,-7283.6914,7833.5776,-35670.207,23711.387,49924.03
965456.7765122622,-74704.02,-55579.59,8541.301,-7284.017,7828.003,-35671.633,23708.049,49908.0
965456.7805122586,-74691.86,-55547.65,8546.184,-7283.9766,7834.188,-35671.875,23715.373,49920.86
965456.784512255,-74679.85,-55507.977,8548.706,-7284.343,7838.257,-35672.08,23717.123,49937.91
965456.7885122515,-74683.15,-55518.19,8548.34,-7282.308,7834.2285,-35670.535,23712.81,49935.508
965456.7925122479,-74698.81,-55561.16,8546.835,-7280.3145,7826.3755,-35669.637,23707.805,49911.258
965456.7965122444,-74706.55,-55582.52,8545.37,-7280.233,7822.551,-35668.945,23705.975,49898.766
965456.8005122409,-74694.74,-55545.617,8546.184,-7282.1455,7827.474,-35669.434,23712.12,49919.23
965456.8045122372,-74682.17,-55502.035,8548.747,-7281.9824,7831.462,-35668.418,23716.635,49937.5
965456.8085122337,-74684.49,-55516.81,8549.683,-7281.4536,7827.6367,-35668.17,23713.502,49930.176
965456.8125122301,-74697.8,-55561.81,8544.597,-7280.233,7817.2607,-35668.785,23706.828,49914.31
965456.8165122266,-74710.086,-55592.125,8540.08,-7280.5586,7812.419,-35668.742,23707.602,49905.844
965456.8205122229,-74697.43,-55557.375,8542.807,-7281.657,7818.8477,-35669.23,23716.96,49924.24
965456.8245122194,-74683.59,-55517.01,8546.103,-7283.651,7819.9873,-35668.66,23719.402,49938.6
965456.8285122159,-74690.76,-55527.957,8546.306,-7283.203,7815.389,-35669.23,23711.752,49926.27
965456.8325122123,-74706.625,-55570.64,8546.062,-7280.7617,7808.635,-35668.824,23706.38,49908.613
965456.8365122088,-74713.016,-55594.28,8545.044,-7280.0293,7806.3154,-35668.418,23707.316,49899.414
965456.8405122051,-74700.89,-55557.21,8547.323,-7282.308,7807.617,-35668.297,23716.025,49916.383
965456.8445122016,-74687.664,-55515.42,8552.287,-7283.366,7811.605,-35667.81,23719.238,49940.023
965456.8485121981,-74689.66,-55524.414,8551.758,-7282.593,7810.9946,-35666.383,23715.537,49930.137
965456.8525121945,-74704.51,-55567.383,8548.625,-7280.6396,7804.9316,-35668.05,23708.74,49911.906
965456.8565121909,-74708.945,-55588.867,8549.072,-7277.059,7806.7627,-35667.36,23708.496,49909.02
965456.8605121874,-74695.88,-55553.02,8550.537,-7278.7275,7815.3076,-35666.26,23716.35,49929.363
965456.8645121838,-74681.56,-55508.586,8552.775,-7279.704,7819.336,-35665.445,23717.611,49946.453
965456.8685121803,-74685.95,-55523.234,8551.718,-7280.5176,7813.7617,-35665.934,23711.305,49937.703
965456.8725121767,-74700.6,-55573.203,8548.34,-7280.0293,7807.3325,-35666.14,23705.363,49921.43
965456.8765121731,-74709.68,-55598.066,8546.672,-7279.8667,7807.658,-35666.016,23706.016,49911.258
965456.8805121696,-74697.92,-55561.77,8548.544,-7282.1045,7815.023,-35664.957,23715.902,49935.184
965456.884512166,-74686.28,-55517.336,8547.812,-7284.1797,7818.034,-35663.98,23718.262,49954.793
965456.8885121625,-74689.91,-55524.863,8547.648,-7284.3833,7817.546,-35663.332,23711.387,49942.668
965456.8925121588,-74701.375,-55567.547,8544.76,-7282.3486,7814.575,-35664.348,23704.387,49915.45
965456.8965121553,-74706.26,-55590.457,8543.335,-7281.7383,7816.6504,-35662.883,23704.795,49901.492
965456.9005121518,-74697.35,-55555.625,8544.556,-7282.9185,7827.108,-35662.56,23714.967,49922.16
965456.9045121482,-74687.95,-55519.168,8549.765,-7284.302,7832.601,-35662.19,23720.541,49937.5
965456.9085121446,-74690.48,-55524.375,8553.589,-7282.0234,7831.8687,-35660.156,23720.256,49938.805
965456.912512141,-74697.67,-55561.605,8554.159,-7278.524,7829.875,-35659.75,23718.71,49933.31
965456.9165121375,-74706.1,-55593.832,8551.311,-7279.907,7830.5664,-35660.523,23715.74,49927.816
965456.920512134,-74693.195,-55554.16,8553.711,-7281.657,7839.7627,-35661.582,23718.994,49946.21
965456.9245121304,-74675.83,-55508.098,8556.479,-7282.5522,7848.5923,-35661.5,23720.256,49963.3
965456.9285121268,-74682.09,-55520.875,8555.339,-7281.7383,7847.2495,-35662.19,23714.52,49952.273
965456.9325121233,-74698.37,-55565.96,8552.002,-7281.3315,7840.5356,-35662.312,23706.707,49929.445
965456.9365121197,-74709.11,-55592.285,8549.5205,-7282.4707,7839.5996,-35661.582,23704.143,49915.04
965456.9405121162,-74697.43,-55561.688,8553.386,-7283.8545,7846.517,-35661.5,23712.646,49937.664
965456.9445121125,-74684.086,-55519.74,8557.048,-7285.3193,7852.1323,-35661.5,23716.39,49956.258
965456.948512109,-74690.59,-55533.613,8555.827,-7285.4414,7848.47,-35663.047,23711.508,49939.008
965456.9525121055,-74711.266,-55587.363,8551.066,-7284.017,7840.4136,-35663.453,23706.951,49917.156
965456.9565121019,-74718.1,-55616.66,8551.066,-7281.128,7844.8896,-35660.645,23709.514,49904.867
965456.9605120984,-74708.3,-55586.754,8554.403,-7281.128,7851.9287,-35659.06,23716.594,49921.348
965456.9645120947,-74698.445,-55546.55,8557.983,-7282.837,7851.9287,-35658.652,23722.982,49945.598
965456.9685120912,-74704.875,-55564.453,8556.926,-7280.3145,7849.121,-35657.43,23717.896,49937.625
965456.9725120877,-74721.36,-55614.258,8553.996,-7278.076,7841.838,-35659.02,23708.375,49907.88
965456.9765120841,-74728.56,-55644.004,8554.443,-7275.4316,7840.332,-35660.402,23708.008,49898.03
965456.9805120805,-74717.086,-55616.824,8556.112,-7276.7744,7848.0225,-35661.664,23713.096,49908.125
965456.984512077,-74708.336,-55575.684,8557.251,-7279.338,7852.3765,-35661.418,23713.217,49916.707
965456.9885120734,-74714.44,-55584.92,8553.996,-7279.5005,7848.877,-35661.176,23709.066,49908.895
965456.9925120699,-74731.0,-55631.066,8548.503,-7278.117,7842.1226,-35661.176,23706.504,49890.586
965456.9965120663,-74737.43,-55651.695,8545.898,-7278.6055,7839.071,-35662.56,23706.219,49882.652
965457.0005120627,-74726.08,-55612.227,8548.056,-7280.925,7845.2964,-35661.54,23713.623,49903.523
965457.0045120592,-74712.37,-55571.047,8551.921,-7280.599,7850.708,-35661.582,23716.594,49921.715
965457.0085120556,-74715.25,-55582.6,8551.555,-7280.111,7845.2964,-35665.812,23709.434,49917.195
965457.0125120521,-74730.19,-55624.35,8550.049,-7277.588,7838.2163,-35666.18,23699.627,49887.453
965457.0165120484,-74738.41,-55649.984,8548.991,-7276.286,7836.263,-35667.645,23698.324,49873.25
965457.0205120449,-74725.836,-55612.754,8551.147,-7279.1343,7842.407,-35668.703,23706.584,49890.3
965457.0245120414,-74712.37,-55566.33,8555.258,-7280.9653,7844.8896,-35666.098,23709.84,49906.453
965457.0285120378,-74717.37,-55575.645,8552.49,-7280.7617,7843.0586,-35668.05,23701.092,49891.48
965457.0325120343,-74730.59,-55614.83,8550.537,-7277.7915,7834.6357,-35668.01,23692.059,49868.816
965457.0365120306,-74740.234,-55641.523,8546.672,-7278.4834,7829.9155,-35667.605,23690.553,49856.812
965457.0405120271,-74731.41,-55610.516,8548.422,-7281.2095,7837.2397,-35667.684,23695.639,49873.21
965457.0445120236,-74718.914,-55565.637,8550.781,-7283.0,7841.4307,-35666.91,23698.771,49892.54
965457.04851202,-74724.49,-55574.992,8549.276,-7281.7793,7837.6875,-35668.582,23692.791,49888.062
965457.0525120164,-74740.97,-55622.926,8543.945,-7282.308,7827.8403,-35671.633,23681.846,49862.227
965457.0565120128,-74748.7,-55647.34,8539.389,-7281.25,7822.754,-35671.633,23681.56,49852.215
965457.0605120093,-74734.26,-55609.297,8541.098,-7282.7964,7830.1597,-35670.37,23690.39,49868.29
965457.0645120058,-74717.82,-55563.316,8545.085,-7284.424,7836.141,-35669.637,23697.674,49888.51
965457.0685120022,-74722.58,-55568.89,8543.823,-7284.2207,7831.8687,-35670.535,23695.273,49890.83
965457.0725119986,-74738.164,-55613.934,8539.551,-7281.616,7824.7886,-35670.535,23691.895,49874.51
965457.076511995,-74743.53,-55638.062,8538.127,-7280.7617,7825.0327,-35671.55,23693.686,49865.36
965457.0805119915,-74727.336,-55599.977,8542.766,-7280.925,7831.787,-35670.535,23700.074,49883.75
965457.084511988,-74712.2,-55548.504,8546.916,-7281.128,7832.3164,-35670.125,23703.045,49905.477
965457.0885119843,-74716.31,-55554.566,8545.695,-7279.948,7829.59,-35670.9,23694.377,49898.6
965457.0925119808,-74728.11,-55600.02,8542.766,-7279.419,7821.737,-35671.387,23685.547,49873.58
965457.0965119773,-74735.805,-55632.203,8543.173,-7279.297,7815.959,-35671.227,23685.832,49863.04
965457.1005119737,-74725.586,-55596.273,8542.807,-7281.372,7820.0684,-35671.633,23693.197,49883.344
965457.1045119701,-74711.47,-55555.46,8545.898,-7281.7793,7825.0327,-35672.0,23697.389,49905.965
965457.1085119665,-74712.94,-55565.84,8548.422,-7280.3955,7822.8354,-35672.49,23694.785,49904.176
965457.112511963,-74725.79,-55605.47,8547.201,-7279.012,7817.627,-35671.715,23692.059,49884.81
965457.1165119595,-74727.54,-55624.88,8546.306,-7278.402,7815.959,-35672.203,23688.926,49869.344
965457.1205119559,-74718.95,-55589.64,8546.672,-7279.826,7821.1265,-35670.9,23696.574,49888.754
965457.1245119523,-74704.875,-55547.57,8549.4795,-7281.047,7824.748,-35669.15,23703.248,49910.93
965457.1285119487,-74704.96,-55559.777,8549.765,-7279.0938,7821.6963,-35670.492,23697.715,49900.066
965457.1325119452,-74723.76,-55602.664,8545.695,-7277.466,7814.779,-35671.227,23690.756,49873.78
965457.1365119417,-74736.01,-55625.938,8541.342,-7278.8086,7810.5063,-35671.754,23688.273,49859.785
965457.140511938,-74724.77,-55591.23,8542.44,-7280.5176,7816.6914,-35672.49,23692.059,49878.867
965457.1445119345,-74711.266,-55547.363,8543.783,-7282.878,7819.458,-35672.895,23693.523,49898.152
965457.148511931,-74717.2,-55559.53,8542.44,-7282.5522,7815.511,-35672.445,23687.744,49889.65
965457.1525119274,-74732.305,-55606.367,8540.609,-7281.3315,7805.0947,-35673.055,23680.299,49863.73
965457.1565119239,-74737.1,-55628.094,8541.098,-7279.46,7803.955,-35671.305,23682.496,49857.992
965457.1605119202,-74728.03,-55589.355,8542.807,-7281.3315,7811.035,-35669.516,23691.285,49878.62
965457.1645119167,-74713.7,-55548.383,8545.573,-7284.0576,7814.7383,-35670.94,23692.1,49896.08
965457.1685119132,-74715.01,-55557.824,8545.248,-7283.7324,7811.035,-35671.55,23687.744,49892.293
965457.1725119096,-74725.305,-55598.105,8544.963,-7279.907,7805.786,-35669.637,23683.92,49874.27
965457.176511906,-74730.19,-55615.805,8542.847,-7279.704,7803.3857,-35669.92,23684.855,49869.344
965457.1805119024,-74710.695,-55569.664,8545.858,-7279.3784,7813.4766,-35668.5,23696.9,49904.91
965457.1845118989,-74700.805,-55536.055,8546.306,-7280.5586,7817.749,-35670.33,23697.348,49919.273
965457.1885118954,-74713.46,-55561.08,8543.417,-7281.494,7812.9478,-35671.918,23690.43,49901.164
965457.1925118918,-74727.46,-55608.727,8541.22,-7280.0293,7805.298,-35670.207,23688.396,49888.836
965457.1965118882,-74736.21,-55629.76,8539.47,-7280.925,7798.991,-35668.824,23690.268,49883.344
965457.2005118846,-74721.64,-55587.242,8542.807,-7282.2676,7804.199,-35668.05,23699.18,49901.043
965457.2045118811,-74707.44,-55541.63,8547.567,-7284.3833,7810.832,-35668.375,23700.521,49909.02
965457.2085118776,-74713.586,-55557.17,8545.898,-7284.465,7805.298,-35666.832,23694.785,49900.84
965457.2125118739,-74725.71,-55607.3,8544.719,-7281.7383,7796.346,-35665.406,23688.273,49884.89
965457.2165118704,-74735.88,-55637.414,8541.87,-7280.1924,7790.487,-35667.4,23683.879,49866.54
965457.2205118668,-74727.945,-55603.477,8541.626,-7281.169,7797.3633,-35668.297,23688.193,49878.258
965457.2245118633,-74717.0,-55561.73,8546.713,-7283.6914,7801.758,-35668.336,23692.22,49898.438
965457.2285118598,-74722.45,-55569.746,8547.485,-7284.302,7798.34,-35667.44,23688.477,49899.54
965457.2325118561,-74734.375,-55608.277,8544.067,-7282.715,7790.7715,-35667.605,23684.287,49881.145
965457.2365118526,-74741.05,-55628.5,8541.301,-7282.593,7787.883,-35666.016,23688.232,49873.008
965457.240511849,-74726.56,-55591.31,8543.457,-7284.709,7794.7593,-35666.79,23696.006,49894.246
965457.2445118455,-74712.41,-55544.516,8548.218,-7284.831,7800.415,-35666.75,23698.447,49911.336
965457.2485118419,-74718.43,-55559.246,8549.724,-7284.1797,7793.213,-35666.668,23692.668,49904.83
965457.2525118383,-74732.42,-55609.742,8548.422,-7281.942,7782.756,-35665.855,23686.158,49883.426
965457.2565118348,-74744.34,-55642.54,8545.207,-7280.721,7781.2095,-35667.074,23685.059,49871.137
965457.2605118313,-74736.164,-55611.004,8546.387,-7282.6743,7785.7666,-35668.215,23693.156,49886.23
965457.2645118277,-74720.99,-55563.4,8550.7,-7282.4707,7789.6323,-35668.094,23696.371,49903.73
965457.2685118241,-74725.38,-55571.535,8550.456,-7282.1455,7784.668,-35669.027,23689.535,49894.043
965457.2725118205,-74738.2,-55616.496,8547.038,-7279.216,7777.71,-35669.637,23682.943,49874.88
965457.276511817,-74741.414,-55639.855,8546.997,-7275.5537,7776.042,-35668.336,23682.781,49869.426
965457.2805118135,-74733.445,-55607.79,8547.485,-7278.117,7779.175,-35669.92,23688.193,49885.418
965457.2845118098,-74722.62,-55571.047,8549.154,-7280.1924,7782.5522,-35671.184,23688.193,49900.105
965457.2885118063,-74727.016,-55585.492,8548.056,-7279.5005,7778.6055,-35671.387,23680.299,49887.047
965457.2925118027,-74745.73,-55631.39,8542.685,-7278.7275,7767.375,-35671.43,23676.596,49870.402
965457.2965117992,-74757.57,-55655.438,8538.29,-7278.7275,7761.963,-35672.04,23673.748,49862.793
965457.3005117956,-74744.34,-55621.38,8538.696,-7280.599,7768.718,-35672.0,23679.852,49873.902
965457.304511792,-74731.734,-55579.43,8542.277,-7282.0234,7775.676,-35672.363,23683.92,49891.684
965457.3085117885,-74739.75,-55589.277,8541.098,-7283.529,7767.212,-35672.242,23679.16,49885.824
965457.312511785,-74756.47,-55637.86,8534.912,-7281.9824,7757.7314,-35672.406,23671.266,49862.184
965457.3165117814,-74763.8,-55666.26,8531.901,-7281.82,7754.354,-35672.895,23671.51,49848.758
965457.3205117778,-74753.99,-55629.152,8535.034,-7283.651,7761.556,-35672.977,23678.71,49866.17
965457.3245117742,-74743.66,-55587.61,8537.313,-7284.587,7763.1836,-35672.363,23677.734,49877.688
965457.3285117707,-74745.445,-55598.43,8537.924,-7283.651,7756.999,-35672.28,23669.8,49867.434
965457.3325117672,-74764.484,-55652.02,8534.221,-7281.3315,7748.861,-35672.363,23664.145,49845.176
965457.3365117635,-74783.04,-55700.402,8529.013,-7280.9653,7747.3145,-35672.61,23663.535,49828.777
965457.34051176,-74780.52,-55685.71,8528.158,-7281.616,7753.54,-35672.61,23671.795,49846.883
965457.3445117564,-74773.32,-55649.05,8529.338,-7282.3486,7755.9814,-35670.656,23680.746,49868.33
965457.3485117529,-74777.47,-55661.5,8527.06,-7282.186,7751.0986,-35670.41,23676.678,49863.484
965457.3525117494,-74791.625,-55705.527,8523.153,-7279.704,7744.548,-35670.535,23669.922,49834.23
965457.3565117457,-74796.92,-55723.023,8520.061,-7277.751,7741.5366,-35671.184,23667.115,49814.21
965457.3605117422,-74784.14,-55680.176,8520.752,-7279.663,7746.623,-35672.445,23671.795,49828.74
965457.3645117386,-74769.45,-55625.49,8523.56,-7279.948,7753.3774,-35671.59,23674.684,49844.523
965457.3685117351,-74770.305,-55628.46,8522.787,-7279.704,7749.471,-35673.707,23667.277,49832.48
965457.3725117315,-74783.61,-55667.2,8519.125,-7278.524,7744.4663,-35676.312,23658.488,49815.96
965457.3765117279,-74789.72,-55684.492,8516.684,-7277.588,7742.391,-35675.496,23662.559,49817.26
965457.3805117244,-74773.6,-55642.17,8520.468,-7278.4834,7748.8203,-35674.48,23671.795,49841.88
965457.3845117209,-74755.82,-55589.684,8525.635,-7277.7915,7756.063,-35672.61,23675.049,49861.574
965457.3885117173,-74758.79,-55596.19,8524.455,-7277.9136,7751.6685,-35672.895,23670.615,49854.168
965457.3925117137,-74774.3,-55638.43,8521.362,-7278.28,7741.618,-35672.69,23668.133,49840.617
965457.3965117101,-74780.44,-55657.227,8518.433,-7276.7744,7740.2754,-35672.49,23668.336,49835.246
965457.4005117066,-74765.1,-55612.348,8521.037,-7278.4834,7747.2334,-35672.324,23677.125,49855.594
965457.4045117031,-74749.8,-55565.473,8524.008,-7278.524,7752.0347,-35670.86,23681.723,49874.92
965457.4085116994,-74759.4,-55588.625,8521.647,-7277.2217,7742.8794,-35670.74,23673.545,49864.34
965457.4125116959,-74776.29,-55643.516,8518.107,-7276.9775,7735.0264,-35671.305,23666.912,49833.09
965457.4165116923,-74780.84,-55658.69,8516.968,-7276.123,7734.66,-35670.86,23673.057,49829.754
965457.4205116888,-74760.7,-55601.562,8521.2,-7277.5474,7746.0938,-35670.207,23686.688,49868.9
965457.4245116853,-74740.766,-55545.9,8525.92,-7279.1343,7751.384,-35669.637,23694.256,49899.824
965457.4285116816,-74736.45,-55545.41,8529.216,-7277.954,7751.0986,-35669.637,23689.332,49889.57
965457.4325116781,-74747.27,-55582.727,8528.972,-7275.635,7744.751,-35668.17,23685.303,49871.176
965457.4365116745,-74754.68,-55605.836,8527.954,-7274.8213,7744.792,-35667.48,23684.814,49861.29
965457.440511671,-74741.7,-55570.844,8530.966,-7277.629,7745.2803,-35666.707,23692.75,49883.426
965457.4445116674,-74729.25,-55533.33,8533.488,-7278.5645,7750.041,-35664.88,23696.738,49902.63
965457.4485116638,-74737.914,-55554.08,8531.454,-7279.1343,7744.507,-35665.367,23690.47,49896.85
965457.4525116603,-74755.74,-55607.465,8527.466,-7278.0356,7734.741,-35665.773,23684.775,49876.223
965457.4565116568,-74762.58,-55635.742,8525.635,-7276.3267,7732.544,-35666.098,23684.57,49866.984
965457.4605116532,-74750.05,-55603.234,8527.182,-7277.507,7737.142,-35667.4,23689.617,49882.082
965457.4645116496,-74736.94,-55562.42,8530.966,-7280.0703,7739.0137,-35667.117,23690.553,49896.895
965457.468511646,-74738.0,-55572.145,8532.1455,-7277.995,7735.5146,-35665.367,23687.053,49891.645
965457.4725116425,-74753.87,-55620.566,8529.867,-7276.937,7722.534,-35664.145,23684.531,49872.6
965457.476511639,-74765.305,-55653.527,8526.815,-7276.9775,7721.1104,-35664.715,23685.955,49870.973
965457.4805116353,-74758.06,-55622.316,8525.595,-7279.907,7723.633,-35665.324,23690.797,49886.64
965457.4845116318,-74749.836,-55585.086,8527.019,-7282.186,7727.336,-35664.957,23690.715,49900.8
965457.4885116282,-74751.14,-55594.566,8528.972,-7280.4365,7723.918,-35666.63,23681.275,49883.63
965457.4925116247,-74767.21,-55639.203,8525.229,-7278.524,7716.919,-35667.684,23675.701,49862.02
965457.4965116212,-74775.31,-55663.82,8521.037,-7277.954,7716.39,-35667.605,23676.393,49853.395
965457.5005116175,-74761.92,-55628.34,8523.356,-7279.989,7724.6504,-35667.97,23685.752,49872.273
965457.504511614,-74747.36,-55585.613,8528.483,-7279.704,7733.114,-35667.074,23692.303,49896.363
965457.5085116104,-74752.24,-55598.066,8526.53,-7279.663,7729.411,-35666.91,23687.867,49890.586
965457.5125116069,-74767.09,-55643.35,8524.536,-7277.751,7722.4937,-35665.977,23684.408,49866.375
965457.5165116033,-74771.61,-55666.06,8525.31,-7277.303,7726.074,-35665.652,23682.617,49856.69
965457.5205115997,-74758.34,-55622.766,8527.344,-7277.5474,7736.125,-35664.55,23691.285,49879.07
965457.5245115962,-74747.6,-55579.266,8529.379,-7281.372,7741.089,-35663.902,23692.668,49887.453
965457.5285115927,-74753.87,-55590.13,8526.449,-7282.1455,7741.5366,-35664.062,23687.705,49887.656
965457.532511589,-74765.75,-55634.44,8524.496,-7279.2563,7739.909,-35661.703,23687.217,49877.688
965457.5365115855,-74777.55,-55664.227,8521.688,-7280.0293,7740.5195,-35662.027,23687.908,49867.72
965457.5405115819,-74763.76,-55626.184,8526.123,-7281.128,7751.5464,-35662.477,23694.256,49879.03
965457.5445115784,-74749.63,-55584.555,8531.332,-7281.372,7756.4697,-35662.477,23697.227,49899.254
965457.5485115749,-74753.625,-55597.656,8532.309,-7281.7793,7753.337,-35662.516,23691.53,49894.94
965457.5525115712,-74768.555,-55648.277,8530.803,-7279.216,7746.745,-35662.273,23687.053,49870.16
965457.5565115677,-74774.336,-55674.074,8528.483,-7277.9136,7746.826,-35661.5,23688.926,49857.3
965457.5605115641,-74760.055,-55636.72,8529.989,-7280.111,7752.645,-35663.004,23692.871,49876.344
965457.5645115606,-74749.68,-55596.19,8530.314,-7282.6743,7755.819,-35663.74,23692.344,49893.23
965457.568511557,-74755.49,-55605.633,8528.483,-7283.366,7751.4243,-35663.7,23690.594,49884.117
965457.5725115534,-74768.72,-55650.88,8527.1,-7280.8433,7745.1987,-35664.754,23683.676,49857.465
965457.5765115499,-74777.18,-55681.64,8526.855,-7280.3145,7742.4727,-35664.754,23683.188,49849.977
965457.5805115463,-74768.31,-55647.22,8527.344,-7284.261,7748.9014,-35664.55,23690.918,49872.152
965457.5845115428,-74752.85,-55597.496,8530.722,-7285.848,7754.232,-35665.652,23692.994,49886.844
965457.5885115392,-74755.49,-55604.37,8532.1045,-7282.7964,7755.0864,-35665.04,23686.646,49878.34
965457.5925115356,-74769.66,-55652.914,8531.413,-7280.5176,7748.2505,-35666.18,23679.281,49856.812
965457.5965115321,-74775.76,-55676.84,8530.64,-7280.111,7748.169,-35666.953,23678.955,49851.44
965457.6005115286,-74764.77,-55644.492,8532.1455,-7281.291,7755.5747,-35667.81,23688.193,49868.367
965457.6045115249,-74751.63,-55602.664,8535.278,-7281.942,7760.946,-35668.336,23690.35,49884.688
965457.6085115214,-74753.3,-55606.324,8536.459,-7280.477,7756.836,-35669.68,23681.072,49870.934
965457.6125115178,-74766.65,-55651.9,8536.255,-7277.6694,7750.2036,-35669.312,23672.852,49851.035
965457.6165115143,-74772.914,-55670.086,8536.662,-7274.984,7750.366,-35668.17,23672.568,49841.434
965457.6205115108,-74762.66,-55633.586,8537.842,-7279.663,7756.7954,-35667.887,23680.99,49858.848
965457.6245115071,-74754.68,-55601.688,8538.168,-7283.4883,7759.1147,-35668.742,23683.758,49879.64
965457.6285115036,-74756.266,-55612.266,8539.633,-7281.372,7755.249,-35667.887,23679.12,49871.34
965457.6325115,-74769.25,-55655.195,8537.476,-7277.9136,7749.1865,-35666.992,23673.951,49848.023
965457.6365114965,-74777.875,-55683.15,8534.79,-7278.4424,7747.8438,-35668.01,23675.13,49838.016
965457.6405114928,-74767.46,-55644.004,8536.703,-7280.721,7750.7734,-35668.418,23684.938,49864.625
965457.6445114893,-74755.21,-55600.14,8540.731,-7283.0,7755.5747,-35666.992,23687.053,49882.895
965457.6485114858,-74759.08,-55612.062,8542.033,-7281.9824,7750.936,-35665.12,23682.373,49868.53
965457.6525114822,-74774.09,-55657.105,8539.755,-7280.4365,7742.4727,-35663.86,23678.71,49848.023
965457.6565114787,-74786.5,-55685.1,8538.208,-7280.925,7738.1187,-35665.445,23678.549,49835.613
965457.660511475,-74775.02,-55654.094,8541.098,-7280.8433,7747.2334,-35665.934,23685.426,49847.168
965457.6645114715,-74758.75,-55613.69,8544.963,-7282.3896,7752.1973,-35666.79,23688.803,49867.312
965457.668511468,-74762.33,-55621.22,8545.736,-7281.169,7747.396,-35667.277,23682.822,49855.55
965457.6725114645,-74778.2,-55671.875,8544.271,-7278.28,7738.8105,-35668.906,23674.928,49829.836
965457.6765114608,-74784.914,-55700.035,8543.539,-7277.9136,7736.206,-35668.906,23673.178,49821.7
965457.6805114573,-74772.79,-55675.17,8544.271,-7279.0938,7739.787,-35668.418,23678.955,49839.4
965457.6845114537,-74761.31,-55635.703,8545.288,-7281.9014,7742.717,-35670.125,23678.264,49849.49
965457.6885114502,-74766.484,-55644.613,8543.457,-7280.0293,7739.746,-35672.04,23673.951,49839.113
965457.6925114467,-74785.69,-55695.438,8539.673,-7279.012,7732.463,-35673.465,23667.645,49817.832
965457.696511443,-74795.695,-55720.99,8538.534,-7277.6694,7729.7773,-35673.055,23667.441,49806.152
965457.7005114395,-74785.04,-55679.12,8539.673,-7279.1343,7733.8057,-35673.18,23675.09,49822.145
965457.7045114359,-74773.97,-55635.01,8542.358,-7278.6055,7738.9326,-35675.17,23676.107,49840.742
965457.7085114324,-74774.01,-55642.54,8543.457,-7275.8384,7736.5723,-35675.496,23672.445,49832.195
965457.7125114287,-74786.26,-55686.28,8539.877,-7274.089,7730.3877,-35676.027,23668.457,49818.89
965457.7165114252,-74794.88,-55709.758,8536.906,-7273.6816,7729.94,-35676.188,23669.719,49809.734
965457.7205114217,-74783.695,-55669.68,8535.808,-7276.164,7736.2876,-35675.457,23678.02,49828.25
965457.7245114181,-74771.89,-55629.926,8538.33,-7276.4893,7737.59,-35675.984,23677.695,49846.64
965457.7285114145,-74778.85,-55646.324,8539.307,-7277.588,7730.754,-35676.96,23670.492,49841.15
965457.732511411,-74797.164,-55697.188,8536.743,-7276.571,7724.6504,-35676.8,23665.895,49817.71
965457.7365114074,-74805.055,-55722.617,8534.872,-7276.693,7723.1445,-35676.96,23664.268,49803.836
965457.7405114039,-74789.516,-55681.195,8539.389,-7277.995,7728.5156,-35676.96,23673.3,49825.523
965457.7445114003,-74776.164,-55636.395,8542.521,-7279.948,7732.8696,-35675.7,23676.393,49847.984
965457.7485113967,-74783.2,-55647.383,8540.283,-7278.5645,7727.539,-35675.418,23670.533,49836.387
965457.7525113932,-74795.05,-55697.105,8536.418,-7276.286,7720.093,-35676.72,23661.215,49804.445
965457.7565113896,-74804.85,-55724.57,8532.512,-7276.6523,7718.994,-35678.59,23660.4,49790.12
965457.7605113861,-74792.32,-55682.66,8533.041,-7277.4253,7725.993,-35677.29,23670.695,49819.01
965457.7645113824,-74777.836,-55632.855,8536.703,-7278.6055,7731.8525,-35675.742,23676.84,49837.08
965457.7685113789,-74780.52,-55641.645,8538.615,-7278.524,7729.004,-35676.598,23672.404,49829.348
965457.7725113754,-74798.34,-55692.14,8536.621,-7277.588,7716.716,-35676.598,23666.748,49807.375
965457.7765113718,-74804.69,-55717.45,8537.028,-7275.106,7714.315,-35676.15,23670.166,49805.504
965457.7805113683,-74789.516,-55678.184,8538.981,-7276.7744,7724.447,-35676.15,23680.176,49824.992
965457.7845113646,-74778.69,-55631.348,8539.917,-7278.4834,7729.8584,-35676.84,23682.74,49845.055
965457.7885113611,-74785.41,-55643.027,8540.243,-7276.8555,7722.087,-35676.883,23674.766,49832.277
965457.7925113576,-74802.125,-55692.996,8535.6045,-7276.4893,7712.4434,-35677.574,23668.906,49816.53
965457.796511354,-74808.84,-55713.664,8533.163,-7276.8555,7708.496,-35677.45,23669.11,49804.73
965457.8005113504,-74794.44,-55674.523,8534.587,-7278.3613,7712.5654,-35676.395,23677.002,49821.29
965457.8045113469,-74782.15,-55636.027,8536.296,-7280.111,7717.977,-35676.516,23680.664,49840.945
965457.8085113433,-74785.08,-55647.098,8537.395,-7277.3438,7715.9424,-35675.906,23677.41,49835.938
965457.8125113398,-74798.71,-55691.613,8536.296,-7275.228,7710.083,-35676.15,23672.527,49818.484
965457.8165113362,-74806.56,-55715.375,8535.278,-7273.641,7707.357,-35678.1,23672.771,49811.934
965457.8205113326,-74789.92,-55670.656,8538.778,-7275.757,7711.914,-35679.812,23679.729,49832.03
965457.8245113291,-74774.25,-55626.914,8539.755,-7277.629,7717.285,-35680.3,23681.072,49849.285
965457.8285113255,-74781.86,-55636.883,8538.086,-7276.5303,7713.867,-35680.094,23672.445,49827.027
965457.832511322,-74799.52,-55684.652,8533.651,-7277.3438,7704.631,-35680.3,23665.162,49805.46
965457.8365113183,-74806.07,-55710.53,8530.803,-7276.3267,7702.8403,-35678.63,23668.662,49798.79
965457.8405113148,-74793.13,-55672.082,8532.797,-7276.6113,7710.002,-35676.312,23681.234,49819.297
965457.8445113113,-74781.05,-55629.355,8536.133,-7276.164,7713.135,-35674.52,23684.814,49847.37
965457.8485113077,-74785.93,-55645.266,8536.093,-7276.2046,7706.014,-35675.824,23677.41,49839.64
965457.8525113042,-74800.91,-55692.426,8534.302,-7275.35,7697.3066,-35677.125,23669.19,49816.246
965457.8565113005,-74809.86,-55715.293,8531.372,-7274.658,7694.0107,-35676.96,23669.678,49808.92
965457.860511297,-74795.29,-55674.645,8533.488,-7276.9775,7702.9624,-35677.574,23679.281,49829.633
965457.8645112935,-74778.32,-55628.906,8536.906,-7277.059,7709.9204,-35676.84,23682.21,49846.152
965457.8685112899,-74783.164,-55643.76,8536.093,-7277.9136,7702.759,-35678.47,23674.684,49836.266
965457.8725112863,-74799.56,-55689.58,8535.93,-7276.286,7695.028,-35676.92,23670.086,49816.45
965457.8765112828,-74805.71,-55710.734,8536.459,-7273.5596,7693.2373,-35675.008,23671.021,49811.445
965457.8805112792,-74794.27,-55673.83,8537.964,-7275.472,7700.1143,-35676.23,23676.963,49826.906
965457.8845112757,-74782.63,-55625.246,8541.83,-7277.507,7701.335,-35675.008,23678.834,49845.625
965457.8885112721,-74782.836,-55635.01,8543.864,-7276.7744,7696.6147,-35673.055,23675.13,49840.293
965457.8925112685,-74795.49,-55680.625,8542.521,-7274.658,7690.3076,-35671.67,23670.615,49816.164
965457.896511265,-74805.09,-55711.793,8538.859,-7274.7397,7684.367,-35671.55,23670.818,49809.004
965457.9005112614,-74794.35,-55677.53,8539.755,-7277.303,7688.314,-35672.12,23678.875,49833.457
965457.9045112579,-74781.05,-55630.86,8543.945,-7278.7275,7692.302,-35672.977,23681.072,49845.785
965457.9085112542,-74786.54,-55643.72,8542.236,-7277.629,7685.018,-35675.21,23674.44,49829.633
965457.9125112507,-74802.62,-55691.773,8539.592,-7275.635,7676.3916,-35675.7,23669.271,49809.125
965457.9165112472,-74811.98,-55717.613,8536.54,-7275.594,7673.828,-35675.336,23668.174,49800.336
965457.9205112436,-74799.69,-55679.16,8537.231,-7277.832,7683.0244,-35675.906,23672.607,49820.926
965457.92451124,-74787.16,-55638.715,8537.68,-7279.5005,7684.448,-35676.676,23672.445,49836.754
965457.9285112364,-74791.95,-55652.02,8535.319,-7279.216,7680.42,-35675.293,23671.225,49832.4
965457.9325112329,-74808.64,-55695.965,8533.8545,-7277.873,7671.0205,-35674.645,23667.521,49810.547
965457.9365112294,-74813.27,-55723.023,8535.319,-7276.0825,7667.2363,-35675.742,23667.115,49798.91
965457.9405112258,-74795.58,-55680.383,8539.145,-7276.286,7677.8975,-35675.78,23672.852,49812.99
965457.9445112222,-74782.88,-55631.39,8542.847,-7278.3613,7681.722,-35673.504,23675.986,49829.184
965457.9485112187,-74788.78,-55639.934,8542.807,-7278.076,7673.9097,-35674.6,23672.363,49827.56
965457.9525112151,-74804.57,-55686.566,8539.47,-7275.5537,7666.748,-35674.97,23665.203,49808.39
965457.9565112116,-74810.875,-55718.59,8537.15,-7274.414,7660.7666,-35675.906,23662.273,49795.695
965457.9605112079,-74798.18,-55677.086,8541.626,-7275.92,7667.44,-35674.195,23669.883,49816.816
965457.9645112044,-74787.84,-55634.24,8542.521,-7278.7275,7672.241,-35673.87,23674.766,49839.07
965457.9685112009,-74795.125,-55650.88,8541.708,-7278.6055,7666.1787,-35674.766,23670.695,49836.348
965457.9725111973,-74812.83,-55699.016,8537.802,-7277.2627,7658.5693,-35674.48,23665.244,49815.96
965457.9765111938,-74820.03,-55721.438,8533.366,-7277.466,7656.006,-35673.953,23664.795,49803.71
965457.9805111901,-74803.14,-55675.418,8536.418,-7278.6055,7663.9,-35674.723,23671.754,49823.855
965457.9845111866,-74787.16,-55625.285,8541.545,-7279.012,7669.7188,-35675.457,23673.79,49842.855
965457.9885111831,-74788.05,-55632.69,8544.108,-7277.2217,7666.382,-35675.133,23667.848,49835.86
965457.9925111795,-74800.91,-55676.72,8544.516,-7274.9023,7658.651,-35674.234,23663.33,49819.05
965457.9965111759,-74804.734,-55696.047,8545.654,-7275.0654,7654.1343,-35674.887,23663.818,49812.094
965458.0005111723,-74784.1,-55648.074,8552.328,-7275.3096,7663.8184,-35674.723,23671.998,49832.074
965458.0045111688,-74773.234,-55601.28,8556.234,-7276.4893,7667.684,-35675.008,23674.195,49848.105
965458.0085111653,-74783.04,-55625.45,8555.054,-7274.7803,7664.714,-35675.336,23666.627,49834.637
965458.0125111617,-74806.07,-55694.867,8548.503,-7273.6006,7654.419,-35676.84,23657.676,49804.89
965458.0165111581,-74821.9,-55737.062,8544.475,-7273.2344,7646.9727,-35677.492,23655.152,49785.32
965458.0205111546,-74811.69,-55702.8,8543.62,-7275.0244,7654.5005,-35676.35,23664.104,49800.906
965458.024511151,-74801.07,-55659.344,8543.905,-7275.8384,7659.2207,-35675.7,23667.033,49817.547
965458.0285111475,-74806.195,-55674.156,8542.888,-7274.211,7654.419,-35674.645,23662.232,49809.33
965458.0325111438,-74820.56,-55723.918,8540.324,-7271.688,7645.508,-35673.586,23658.367,49789.676
965458.0365111403,-74830.65,-55751.387,8537.231,-7271.9727,7641.6016,-35675.21,23657.92,49777.344
965458.0405111368,-74814.945,-55711.348,8539.389,-7272.502,7649.2515,-35674.887,23665.895,49800.742
965458.0445111332,-74799.766,-55663.82,8542.888,-7273.763,7655.599,-35673.953,23667.604,49819.05
965458.0485111297,-74805.38,-55677.695,8540.731,-7273.6006,7649.4956,-35674.074,23662.965,49807.902
965458.052511126,-74819.83,-55722.332,8539.267,-7270.1416,7639.282,-35673.543,23659.424,49789.145
965458.0565111225,-74828.17,-55746.016,8535.971,-7269.735,7636.556,-35674.52,23662.03,49782.676
965458.060511119,-74814.01,-55704.31,8535.4,-7273.3154,7644.2466,-35675.17,23670.166,49804.85
965458.0645111154,-74800.01,-55656.17,8538.534,-7273.926,7650.5127,-35673.586,23673.625,49827.76
965458.0685111118,-74804.734,-55667.24,8540.121,-7272.0137,7645.223,-35672.324,23667.969,49820.926
965458.0725111082,-74821.086,-55717.57,8535.971,-7269.328,7637.6953,-35673.22,23657.39,49785.117
965458.0765111047,-74831.75,-55746.543,8532.715,-7268.921,7634.5215,-35675.09,23654.379,49771.85
965458.0805111012,-74821.66,-55705.934,8533.163,-7272.583,7639.852,-35674.074,23664.43,49799.113
965458.0845110976,-74808.96,-55662.316,8535.034,-7274.414,7644.5723,-35673.91,23669.678,49820.11
965458.088511094,-74813.52,-55675.375,8533.732,-7273.2344,7639.201,-35673.668,23663.086,49808.105
965458.0925110904,-74828.62,-55723.43,8529.785,-7273.0713,7628.4995,-35674.723,23652.793,49782.023
965458.0965110869,-74838.914,-55747.844,8525.757,-7273.519,7624.105,-35674.52,23653.932,49780.477
965458.1005110834,-74824.34,-55702.434,8526.978,-7274.658,7632.894,-35673.22,23665.04,49806.355
965458.1045110797,-74806.4,-55653.445,8529.379,-7276.571,7639.974,-35672.85,23670.41,49829.348
965458.1085110762,-74812.75,-55669.312,8528.361,-7275.757,7636.4746,-35673.34,23665.203,49820.395
965458.1125110727,-74826.74,-55712.65,8525.595,-7273.3154,7631.1035,-35672.85,23659.059,49799.93
965458.1165110691,-74832.36,-55738.77,8524.455,-7271.3623,7630.7783,-35671.633,23661.053,49792.32
965458.1205110656,-74821.01,-55701.38,8527.304,-7273.8447,7638.5093,-35672.65,23667.562,49810.344
965458.1245110619,-74806.32,-55651.695,8530.925,-7275.7163,7642.456,-35672.16,23671.021,49824.87
965458.1285110584,-74808.19,-55667.605,8530.559,-7274.3735,7637.004,-35672.0,23665.895,49818.074
965458.1325110549,-74825.32,-55720.297,8526.611,-7272.583,7629.598,-35672.895,23659.75,49798.22
965458.1365110513,-74834.07,-55742.27,8522.909,-7271.7695,7629.72,-35673.79,23657.35,49783.33
965458.1405110477,-74817.22,-55699.504,8525.635,-7272.5425,7641.805,-35675.05,23662.436,49798.75
965458.1445110441,-74805.99,-55658.33,8529.541,-7273.1934,7650.594,-35672.77,23666.016,49820.355
965458.1485110406,-74812.87,-55675.54,8527.182,-7274.0073,7646.322,-35672.895,23659.465,49808.516
965458.1525110371,-74828.21,-55729.21,8524.333,-7273.031,7641.6016,-35674.234,23651.896,49783.855
965458.1565110334,-74836.71,-55753.543,8522.909,-7271.688,7642.5376,-35673.42,23651.084,49769.98
965458.1605110299,-74821.945,-55705.242,8525.31,-7272.746,7652.507,-35673.586,23660.035,49793.418
965458.1645110263,-74809.05,-55659.59,8527.222,-7273.641,7661.0923,-35673.79,23662.842,49813.19
965458.1685110228,-74815.96,-55673.625,8525.717,-7275.1465,7656.291,-35673.91,23658.691,49807.008
965458.1725110193,-74833.01,-55724.043,8521.118,-7274.089,7648.8447,-35673.992,23649.17,49787.312
965458.1765110156,-74842.82,-55752.605,8518.352,-7273.6006,7647.868,-35674.887,23646.934,49769.125
965458.1805110121,-74828.78,-55709.883,8520.264,-7275.3906,7656.9014,-35675.7,23657.47,49790.49
965458.1845110086,-74815.92,-55662.438,8525.106,-7274.536,7664.917,-35675.7,23660.523,49808.516
965458.188511005,-74823.164,-55677.734,8525.473,-7273.0713,7661.662,-35677.734,23652.873,49803.59
965458.1925110014,-74839.64,-55729.453,8521.77,-7272.7866,7654.0527,-35677.938,23648.602,49786.906
965458.1965109978,-74847.13,-55754.6,8517.904,-7273.3154,7654.297,-35677.246,23646.77,49774.336
965458.2005109943,-74831.71,-55711.02,8520.59,-7273.967,7665.4463,-35677.41,23654.014,49792.44
965458.2045109908,-74814.54,-55659.793,8523.234,-7275.0244,7670.0034,-35677.37,23658.691,49811.81
965458.2085109872,-74819.09,-55669.07,8523.682,-7274.048,7665.324,-35675.293,23656.332,49809.9
965458.2125109836,-74834.31,-55720.01,8522.299,-7272.6646,7658.366,-35675.133,23650.352,49786.582
965458.21651098,-74842.77,-55748.09,8519.531,-7272.705,7657.43,-35676.676,23649.17,49765.18
965458.2205109765,-74828.45,-55706.87,8522.665,-7272.99,7662.964,-35676.637,23658.488,49784.06
965458.224510973,-74812.91,-55660.89,8528.605,-7274.6177,7667.1553,-35675.863,23662.639,49810.63
965458.2285109693,-74815.555,-55672.0,8529.216,-7272.705,7667.0737,-35675.824,23655.762,49805.625
965458.2325109658,-74831.79,-55721.477,8526.245,-7269.409,7658.6104,-35676.11,23647.787,49777.184
965458.2365109622,-74840.375,-55751.305,8523.479,-7267.619,7655.3955,-35675.008,23648.438,49767.58
965458.2405109587,-74827.03,-55715.09,8525.92,-7270.7114,7662.3945,-35675.54,23656.373,49791.832
965458.2445109552,-74813.195,-55671.55,8528.28,-7273.153,7664.022,-35676.27,23657.838,49809.125
965458.2485109515,-74822.31,-55686.523,8526.9375,-7272.9087,7658.4473,-35675.7,23653.2,49795.777
965458.252510948,-74842.164,-55740.44,8523.682,-7272.949,7649.8213,-35676.92,23647.014,49773.113
965458.2565109445,-74849.29,-55767.99,8522.787,-7271.4844,7649.4956,-35675.496,23648.234,49767.824
965458.2605109409,-74833.664,-55724.45,8526.042,-7271.566,7658.4473,-35674.48,23656.455,49788.777
965458.2645109373,-74820.516,-55675.945,8529.297,-7273.4785,7664.3066,-35675.984,23656.373,49801.066
965458.2685109337,-74826.09,-55688.965,8530.6,-7271.6064,7659.831,-35675.008,23650.229,49789.836
965458.2725109302,-74845.016,-55742.027,8524.13,-7271.4844,7647.9087,-35675.09,23644.328,49764.977
965458.2765109267,-74851.97,-55767.457,8521.933,-7271.1997,7647.624,-35673.34,23647.299,49759.523
965458.2805109231,-74836.14,-55725.832,8524.496,-7273.7227,7657.2676,-35671.754,23660.809,49794.19
965458.2845109195,-74823.9,-55680.137,8527.222,-7275.4316,7662.1094,-35672.61,23663.412,49814.293
965458.2885109159,-74829.02,-55695.68,8526.571,-7274.333,7654.7446,-35674.316,23654.176,49798.625
965458.2925109124,-74845.09,-55746.83,8522.421,-7271.444,7648.5596,-35673.79,23651.855,49782.023
965458.2965109089,-74855.43,-55775.637,8519.206,-7271.8916,7644.287,-35672.934,23654.094,49774.457
965458.3005109052,-74841.84,-55729.617,8522.421,-7274.658,7652.751,-35672.04,23663.656,49797.445
965458.3045109017,-74826.91,-55681.195,8526.286,-7276.0825,7660.2783,-35672.08,23667.93,49821.086
965458.3085108981,-74831.664,-55695.723,8526.978,-7274.862,7654.6226,-35671.023,23663.291,49809.164
965458.3125108946,-74849.695,-55747.48,8524.496,-7273.4785,7642.456,-35671.145,23655.03,49779.094
965458.3165108911,-74859.46,-55777.508,8522.624,-7273.0713,7637.9805,-35671.43,23653.77,49766.562
965458.3205108874,-74848.516,-55739.707,8525.513,-7275.8384,7643.1074,-35672.242,23661.215,49788.37
965458.3245108839,-74835.086,-55696.37,8530.111,-7277.385,7642.6597,-35672.61,23660.605,49804.73
965458.3285108804,-74836.875,-55702.68,8530.029,-7274.6177,7641.5205,-35671.227,23654.826,49797.285
965458.3325108768,-74853.97,-55751.387,8526.205,-7272.99,7631.2666,-35673.18,23648.113,49772.664
965458.3365108732,-74866.375,-55785.44,8523.112,-7273.1934,7625.7734,-35674.93,23645.713,49756.797
965458.3405108696,-74851.85,-55741.7,8524.618,-7275.0654,7633.423,-35675.133,23654.582,49772.176
965458.3445108661,-74837.73,-55694.543,8527.019,-7277.059,7638.1025,-35675.09,23656.047,49790.45
965458.3485108626,-74842.57,-55712.28,8526.978,-7275.676,7633.1787,-35673.258,23650.758,49791.426
965458.3525108589,-74859.42,-55761.844,8521.24,-7275.757,7623.9014,-35675.66,23642.01,49762.9
965458.3565108554,-74869.14,-55788.78,8516.276,-7276.042,7620.565,-35678.305,23636.639,49740.848
965458.3605108518,-74856.125,-55747.355,8517.294,-7277.71,7628.9062,-35676.758,23643.31,49769.33
965458.3645108483,-74843.836,-55701.867,8519.816,-7280.721,7632.324,-35677.98,23644.98,49788.25
965458.3685108448,-74848.72,-55715.863,8520.956,-7279.338,7627.767,-35678.59,23637.86,49773.195
965458.3725108411,-74865.36,-55766.156,8520.956,-7276.164,7619.5884,-35677.86,23634.521,49756.836
965458.3765108376,-74872.93,-55792.277,8521.159,-7275.2686,7619.8325,-35677.53,23636.436,49753.094
965458.380510834,-74855.92,-55747.48,8523.723,-7275.635,7630.5747,-35677.492,23644.37,49771.242
965458.3845108305,-74843.51,-55703.777,8527.06,-7277.385,7633.0977,-35676.11,23647.34,49789.96
965458.3885108269,-74849.125,-55716.434,8524.821,-7277.5474,7628.174,-35676.11,23641.195,49781.25
965458.3925108233,-74866.01,-55765.586,8519.491,-7276.367,7618.083,-35675.62,23634.604,49760.99
965458.3965108198,-74873.17,-55790.49,8517.985,-7275.3096,7615.1123,-35674.36,23636.395,49757.49
965458.4005108163,-74856.65,-55748.945,8521.24,-7277.6694,7621.6636,-35674.723,23644.654,49776.734
965458.4045108127,-74846.68,-55707.156,8521.484,-7280.599,7624.8374,-35674.195,23647.705,49792.81
965458.4085108091,-74852.79,-55719.81,8519.816,-7278.9307,7623.657,-35675.293,23640.91,49784.508
965458.4125108055,-74867.59,-55768.68,8518.311,-7276.2046,7616.4146,-35675.742,23634.36,49760.5
965458.416510802,-74873.09,-55796.227,8517.456,-7275.35,7613.9326,-35674.887,23636.639,49754.355
965458.4205107985,-74857.055,-55751.875,8520.061,-7277.385,7622.396,-35673.22,23646.404,49778.402
965458.4245107948,-74846.48,-55705.16,8522.583,-7279.2563,7624.227,-35674.562,23646.363,49798.79
965458.4285107913,-74853.07,-55717.613,8522.461,-7278.076,7618.0015,-35673.383,23639.648,49789.227
965458.4325107877,-74871.5,-55769.574,8518.474,-7277.385,7608.5205,-35673.504,23634.889,49768.72
965458.4365107842,-74880.82,-55792.074,8516.4795,-7276.9775,7605.957,-35674.4,23634.36,49759.402
965458.4405107807,-74860.92,-55745.77,8519.369,-7278.28,7617.4316,-35676.516,23640.38,49783.203
965458.444510777,-74843.305,-55699.75,8524.821,-7279.216,7619.5884,-35677.695,23640.83,49802.777
965458.4485107735,-74852.13,-55716.39,8524.17,-7278.7275,7613.2812,-35675.54,23636.557,49799.074
965458.45251077,-74871.91,-55770.957,8518.352,-7277.873,7604.126,-35674.6,23629.03,49768.19
965458.4565107664,-74881.47,-55801.27,8515.097,-7276.8965,7600.5454,-35677.043,23623.291,49743.777
965458.4605107628,-74866.82,-55758.3,8518.474,-7277.71,7607.829,-35679.08,23628.988,49767.906
965458.4645107592,-74851.52,-55710.37,8522.665,-7278.7275,7614.299,-35677.816,23632.895,49792.32
965458.4685107557,-74853.766,-55718.184,8523.967,-7276.0825,7612.834,-35675.824,23630.494,49789.96
965458.4725107522,-74871.91,-55774.21,8520.427,-7274.333,7603.719,-35676.395,23625.53,49767.215
965458.4765107486,-74882.086,-55807.78,8519.328,-7273.2344,7600.0977,-35677.652,23622.234,49749.797
965458.480510745,-74865.4,-55764.0,8524.211,-7272.583,7607.463,-35675.863,23633.545,49773.64
965458.4845107414,-74847.82,-55714.152,8529.785,-7272.0947,7612.3457,-35673.79,23640.342,49795.492
965458.4885107379,-74853.4,-55726.117,8530.029,-7273.2344,7606.8525,-35675.496,23634.033,49791.914
965458.4925107344,-74868.05,-55772.586,8526.367,-7272.502,7600.6675,-35676.11,23627.564,49769.043
965458.4965107307,-74873.54,-55795.695,8525.229,-7270.5894,7598.918,-35675.54,23627.564,49762.047
965458.5005107272,-74856.125,-55751.508,8526.652,-7271.8916,7606.2827,-35674.195,23635.174,49783.203
965458.5045107236,-74843.43,-55710.45,8527.588,-7274.7397,7609.66,-35673.465,23637.818,49799.97
965458.5085107201,-74849.9,-55726.81,8526.53,-7275.0654,7601.4,-35672.445,23633.3,49790.57
965458.5125107166,-74865.44,-55775.312,8524.333,-7272.5425,7591.5938,-35671.145,23629.518,49767.66
965458.5165107129,-74874.92,-55805.383,8524.252,-7271.159,7588.9487,-35672.445,23629.518,49760.215
965458.5205107094,-74860.07,-55759.688,8526.693,-7273.7227,7596.2324,-35672.65,23639.445,49785.117
965458.5245107058,-74841.84,-55710.816,8529.989,-7274.6177,7601.888,-35671.715,23644.775,49807.617
965458.5285107023,-74850.51,-55723.51,8527.832,-7273.6006,7594.5234,-35672.566,23637.533,49798.055
965458.5325106987,-74871.55,-55772.34,8520.834,-7274.4956,7584.9204,-35670.777,23631.715,49778.117
965458.5365106951,-74880.21,-55797.0,8518.188,-7274.414,7582.235,-35668.703,23632.365,49770.1
965458.5405106916,-74862.59,-55753.785,8520.671,-7274.414,7591.5527,-35669.23,23641.113,49794.027
965458.544510688,-74848.88,-55708.984,8524.496,-7275.35,7595.581,-35670.125,23641.074,49809.33
965458.5485106844,-74859.58,-55732.06,8524.008,-7274.862,7591.0645,-35669.395,23634.441,49795.613
965458.5525106809,-74879.805,-55784.547,8519.247,-7273.8037,7582.235,-35669.395,23628.297,49769.453
965458.5565106773,-74885.3,-55808.555,8515.91,-7273.763,7576.4976,-35670.125,23627.117,49757.895
965458.5605106738,-74870.12,-55762.168,8516.643,-7275.676,7583.944,-35668.785,23636.436,49779.582
965458.5645106703,-74861.21,-55717.125,8517.131,-7278.5645,7587.85,-35669.19,23639.08,49794.637
965458.5685106666,-74863.81,-55727.582,8518.677,-7275.8384,7582.9673,-35668.62,23633.75,49787.11
965458.5725106631,-74879.6,-55779.91,8517.172,-7272.624,7576.091,-35667.645,23628.297,49765.91
965458.5765106595,-74893.03,-55816.0,8513.428,-7273.6006,7570.801,-35669.35,23627.402,49764.363
965458.580510656,-74876.55,-55769.29,8517.05,-7273.7227,7579.061,-35669.395,23638.389,49793.133
965458.5845106523,-74860.68,-55723.145,8522.461,-7274.333,7584.2695,-35669.15,23641.643,49812.703
965458.5885106488,-74863.28,-55735.11,8522.421,-7272.5425,7579.712,-35669.273,23634.197,49802.168
965458.5925106453,-74880.54,-55788.94,8517.416,-7270.874,7569.4175,-35670.25,23625.0,49774.496
965458.5965106417,-74892.01,-55813.76,8514.201,-7269.613,7565.959,-35670.25,23624.105,49765.79
965458.6005106382,-74873.01,-55765.26,8517.212,-7270.7114,7573.934,-35671.266,23633.953,49788.656
965458.6045106346,-74859.5,-55720.5,8521.281,-7272.0947,7578.3286,-35671.023,23637.207,49808.39
965458.608510631,-74865.89,-55735.76,8521.647,-7271.6064,7573.7715,-35671.023,23632.732,49804.324
965458.6125106275,-74878.3,-55782.555,8520.386,-7269.165,7566.976,-35670.125,23629.314,49779.297
965458.616510624,-74884.97,-55804.406,8517.985,-7268.718,7564.453,-35668.375,23631.633,49765.992
965458.6205106203,-74869.305,-55760.582,8518.393,-7271.037,7571.167,-35668.375,23637.615,49785.973
965458.6245106168,-74856.734,-55716.31,8520.264,-7273.1123,7574.0967,-35669.434,23634.766,49798.18
965458.6285106132,-74862.71,-55731.69,8518.188,-7273.2344,7565.3076,-35669.8,23628.867,49790.69
965458.6325106097,-74881.31,-55787.844,8514.16,-7272.1357,7557.414,-35669.312,23624.309,49765.79
965458.6365106062,-74892.91,-55816.816,8511.679,-7272.1763,7553.955,-35670.453,23622.6,49758.26
965458.6405106025,-74880.05,-55774.496,8510.702,-7275.1875,7562.8257,-35671.348,23627.361,49779.5
965458.644510599,-74870.2,-55733.36,8511.108,-7278.28,7566.976,-35673.707,23624.92,49790.773
965458.6485105954,-74877.484,-55745.688,8510.01,-7278.4834,7557.0884,-35675.336,23617.96,49780.273
965458.6525105919,-74892.13,-55794.11,8507.895,-7276.367,7549.52,-35676.312,23612.875,49762.047
965458.6565105882,-74899.945,-55822.43,8504.802,-7275.757,7546.7124,-35678.184,23609.945,49748.78
965458.6605105847,-74880.01,-55774.62,8509.033,-7276.164,7554.9727,-35677.652,23617.676,49771.65
965458.6645105812,-74860.4,-55727.703,8517.944,-7274.536,7558.3496,-35675.375,23623.576,49794.76
965458.6685105776,-74866.414,-55743.777,8517.212,-7274.1294,7551.5137,-35674.93,23618.49,49784.75
965458.6725105741,-74882.2,-55791.547,8513.876,-7272.624,7543.9863,-35675.824,23611.695,49762.617
965458.6765105705,-74891.12,-55818.688,8510.458,-7271.444,7541.423,-35677.37,23612.021,49755.617
965458.6805105669,-74876.43,-55773.926,8511.923,-7273.031,7551.229,-35678.59,23618.125,49775.637
965458.6845105634,-74862.8,-55728.56,8516.684,-7273.2344,7555.786,-35678.426,23617.473,49792.727
965458.6885105598,-74870.57,-55745.16,8516.357,-7272.1357,7547.4043,-35679.242,23608.44,49774.293
965458.6925105562,-74885.375,-55793.01,8512.004,-7271.81,7537.6387,-35679.688,23600.871,49752.89
965458.6965105527,-74895.14,-55818.523,8507.446,-7271.3623,7533.9355,-35679.08,23602.256,49745.04
965458.7005105491,-74881.35,-55775.8,8512.085,-7273.3154,7539.714,-35677.246,23612.998,49765.586
965458.7045105456,-74866.5,-55733.93,8515.381,-7275.635,7540.609,-35677.164,23614.666,49785.156
965458.708510542,-74868.45,-55745.89,8514.934,-7273.967,7537.4756,-35676.72,23609.336,49777.754
965458.7125105384,-74882.445,-55801.23,8512.736,-7272.4204,7529.7446,-35676.473,23604.492,49752.117
965458.7165105349,-74889.2,-55829.184,8511.19,-7271.2812,7528.198,-35675.54,23609.13,49745.08
965458.7205105313,-74874.8,-55783.773,8512.736,-7272.9087,7536.743,-35676.027,23617.514,49765.668
965458.7245105278,-74862.555,-55737.957,8516.073,-7274.3735,7542.9688,-35676.027,23621.908,49779.785
965458.7285105241,-74867.84,-55747.113,8513.306,-7272.746,7541.0566,-35675.863,23618.125,49772.664
965458.7325105206,-74885.42,-55797.12,8509.074,-7272.5425,7532.5117,-35676.637,23612.184,49750.49
965458.7365105171,-74895.836,-55832.113,8506.308,-7274.536,7529.175,-35677.734,23611.898,49737.957
965458.7405105135,-74883.38,-55792.645,8509.521,-7275.594,7536.3364,-35678.55,23620.24,49759.562
965458.74451051,-74865.766,-55746.504,8513.55,-7273.397,7546.2646,-35677.246,23624.35,49782.227
965458.7485105064,-74870.37,-55761.027,8512.248,-7273.6006,7542.8877,-35677.33,23620.402,49771.04
965458.7525105028,-74888.06,-55813.03,8506.796,-7274.699,7536.296,-35678.55,23613.281,49750.285
965458.7565104993,-74892.664,-55832.684,8506.958,-7272.705,7539.8765,-35676.8,23614.543,49743.29
965458.7605104957,-74876.586,-55786.418,8511.719,-7272.0137,7553.6704,-35677.33,23623.414,49765.83
965458.7645104921,-74863.04,-55738.895,8514.16,-7272.6646,7565.023,-35678.062,23626.873,49791.586
965458.7685104886,-74864.99,-55748.496,8517.375,-7270.7114,7565.2266,-35677.207,23624.635,49787.438
965458.772510485,-74875.81,-55796.184,8517.416,-7267.5376,7561.6865,-35676.066,23621.46,49763.31
965458.7765104815,-74884.36,-55822.88,8513.55,-7267.9443,7562.7036,-35675.54,23623.373,49754.152
965458.7805104778,-74870.0,-55773.97,8516.643,-7270.345,7572.673,-35673.87,23634.604,49780.805
965458.7845104743,-74856.81,-55729.414,8519.775,-7271.24,7580.3223,-35673.34,23637.33,49803.266
965458.7885104708,-74864.79,-55748.254,8517.7,-7270.63,7577.3115,-35673.87,23630.209,49791.914
965458.7925104672,-74884.69,-55798.79,8514.323,-7269.165,7570.638,-35673.098,23624.717,49766.074
965458.7965104637,-74896.53,-55824.832,8511.801,-7269.6533,7568.441,-35673.383,23624.309,49750.938
965458.80051046,-74880.414,-55784.426,8513.306,-7271.9727,7578.288,-35673.707,23632.568,49767.254
965458.8045104565,-74865.97,-55737.875,8515.463,-7274.7397,7583.7812,-35674.684,23633.994,49790.203
965458.808510453,-74870.0,-55751.06,8516.4795,-7273.1934,7580.8516,-35673.465,23629.803,49779.094
965458.8125104494,-74886.35,-55803.836,8513.347,-7272.38,7570.8823,-35673.992,23623.658,49754.477
965458.8165104458,-74895.39,-55831.34,8510.742,-7270.4673,7568.4004,-35675.7,23622.52,49746.055
965458.8205104423,-74879.516,-55787.234,8512.004,-7270.996,7579.061,-35675.78,23634.645,49776.57
965458.8245104387,-74866.62,-55739.098,8514.975,-7272.868,7584.554,-35674.684,23638.957,49793.01
965458.8285104352,-74870.57,-55750.855,8514.934,-7272.868,7580.9326,-35675.008,23631.553,49779.785
965458.8325104316,-74888.555,-55805.46,8510.783,-7272.0137,7571.1265,-35676.23,23623.291,49751.02
965458.836510428,-74896.164,-55832.48,8509.237,-7270.8335,7567.4644,-35677.086,23625.244,49742.15
965458.8405104245,-74883.95,-55788.13,8511.923,-7272.9087,7576.213,-35676.84,23639.201,49776.367
965458.8445104209,-74868.25,-55742.188,8516.968,-7273.3564,7581.7466,-35675.906,23642.498,49792.81
965458.8485104174,-74871.055,-55753.5,8517.294,-7271.5254,7579.875,-35676.35,23632.732,49780.477
965458.8525104137,-74889.0,-55803.793,8514.364,-7269.0024,7572.795,-35676.8,23624.797,49753.176
965458.8565104102,-74897.83,-55829.633,8511.597,-7268.5957,7569.0107,-35676.96,23624.268,49744.1
965458.8605104067,-74879.31,-55780.6,8514.975,-7269.3687,7577.1895,-35676.434,23633.953,49773.562
965458.8645104031,-74865.97,-55736.37,8517.375,-7271.159,7582.6826,-35676.188,23638.348,49790.12
965458.8685103996,-74872.73,-55754.19,8516.154,-7270.4673,7577.3926,-35675.824,23633.586,49784.87
965458.872510396,-74894.086,-55807.902,8512.939,-7268.921,7569.2954,-35675.54,23627.727,49761.883
965458.8765103924,-74901.94,-55835.41,8511.394,-7269.735,7565.2266,-35676.23,23628.703,49752.523
965458.8805103889,-74884.484,-55790.49,8515.585,-7269.3687,7571.737,-35676.637,23638.592,49775.23
965458.8845103853,-74873.945,-55743.29,8519.043,-7270.0605,7576.457,-35677.652,23640.38,49789.797
965458.8885103817,-74878.13,-55752.32,8517.782,-7269.5723,7575.8467,-35676.434,23637.656,49782.715
965458.8925103782,-74891.03,-55799.36,8514.689,-7266.805,7570.3125,-35674.277,23633.586,49763.836
965458.8965103746,-74902.06,-55828.207,8510.864,-7267.375,7566.3657,-35675.58,23632.732,49749.023
965458.9005103711,-74888.67,-55788.414,8511.475,-7270.671,7572.1846,-35675.945,23638.428,49764.324
965458.9045103675,-74878.5,-55748.375,8512.695,-7273.3154,7576.6196,-35675.008,23641.398,49779.34
965458.9085103639,-74886.92,-55766.97,8510.417,-7273.397,7570.3125,-35674.97,23637.412,49772.3
965458.9125103604,-74905.88,-55817.426,8504.639,-7272.827,7560.0586,-35674.4,23633.383,49749.105
965458.9165103568,-74914.67,-55842.492,8501.303,-7273.1934,7557.6987,-35675.418,23633.139,49735.883
965458.9205103533,-74901.086,-55797.406,8501.831,-7275.757,7564.8604,-35675.09,23643.434,49758.26
965458.9245103496,-74890.1,-55758.14,8503.581,-7277.873,7568.7256,-35675.984,23642.986,49774.496
965458.9285103461,-74893.96,-55773.6,8505.981,-7274.455,7564.209,-35676.434,23635.092,49759.688
965458.9325103426,-74908.125,-55823.812,8503.662,-7272.7866,7554.403,-35678.55,23626.385,49734.254
965458.936510339,-74915.2,-55850.344,8501.587,-7273.6816,7548.625,-35679.73,23627.197,49729.453
965458.9405103355,-74901.49,-55803.918,8504.883,-7274.984,7553.5483,-35678.836,23638.307,49753.01
965458.9445103318,-74890.46,-55762.492,8505.412,-7277.5474,7556.0303,-35679.688,23638.145,49766.562
965458.9485103283,-74894.37,-55777.062,8505.9,-7277.2627,7550.3745,-35681.355,23628.867,49755.82
965458.9525103248,-74912.234,-55828.9,8504.069,-7274.414,7542.3584,-35680.055,23623.373,49735.555
965458.9565103212,-74923.34,-55857.79,8500.488,-7274.089,7539.144,-35679.117,23625.123,49724.773
965458.9605103176,-74909.99,-55814.414,8503.256,-7276.7744,7545.532,-35679.2,23635.174,49751.465
965458.964510314,-74892.13,-55767.742,8508.911,-7276.164,7551.1475,-35677.734,23638.428,49768.598
965458.9685103105,-74895.1,-55781.375,8510.702,-7274.2515,7547.16,-35677.777,23632.53,49758.63
965458.972510307,-74913.375,-55830.16,8506.226,-7272.4204,7539.917,-35678.266,23628.256,49738.12
965458.9765103033,-74922.24,-55852.297,8502.849,-7270.549,7538.33,-35678.02,23629.72,49727.867
965458.9805102998,-74905.93,-55805.992,8504.395,-7272.99,7543.6606,-35678.062,23636.68,49745.445
965458.9845102963,-74894.25,-55762.777,8505.9,-7274.0073,7547.0786,-35677.777,23639.445,49765.3
965458.9885102927,-74900.76,-55779.582,8506.104,-7272.339,7544.149,-35677.37,23635.498,49758.914
965458.9925102892,-74922.85,-55833.375,8500.61,-7271.7285,7537.069,-35677.492,23628.988,49734.418
965458.9965102855,-74932.17,-55858.97,8495.605,-7271.8916,7533.325,-35678.184,23626.588,49721.273
965459.000510282,-74916.22,-55811.035,8497.641,-7274.7397,7538.371,-35678.47,23636.68,49744.184
965459.0045102785,-74899.17,-55767.133,8503.012,-7275.594,7545.451,-35676.84,23639.73,49764.934
965459.0085102749,-74899.13,-55782.555,8503.988,-7274.455,7539.2256,-35677.53,23632.895,49755.21
965459.0125102713,-74916.22,-55834.555,8502.075,-7273.4375,7531.535,-35678.305,23626.67,49734.742
965459.0165102677,-74927.25,-55862.793,8499.105,-7273.641,7530.5176,-35679.973,23622.844,49719.484
965459.0205102642,-74914.47,-55819.867,8501.384,-7275.3096,7537.069,-35681.64,23631.959,49739.383
965459.0245102607,-74903.16,-55777.47,8505.209,-7276.8965,7540.6904,-35681.234,23635.947,49760.215
965459.0285102571,-74906.91,-55789.473,8504.11,-7276.245,7535.97,-35681.234,23629.68,49753.867
965459.0325102535,-74921.8,-55843.02,8498.088,-7275.228,7526.0825,-35681.03,23622.803,49728.68
965459.03651025,-74932.45,-55871.95,8494.629,-7274.414,7522.9087,-35681.234,23621.176,49718.14
965459.0405102464,-74917.97,-55826.62,8498.291,-7275.35,7532.2266,-35679.973,23630.006,49742.39
965459.0445102429,-74905.97,-55782.35,8500.407,-7278.198,7536.947,-35679.73,23633.139,49760.906
965459.0485102392,-74913.336,-55798.016,8497.559,-7277.995,7531.128,-35679.08,23628.988,49750.57
965459.0525102357,-74931.805,-55850.87,8493.368,-7276.7744,7520.996,-35679.08,23626.465,49733.24
965459.0565102322,-74937.625,-55875.33,8492.717,-7275.879,7515.9507,-35678.508,23628.5,49729.902
965459.0605102286,-74920.01,-55829.023,8499.309,-7276.571,7524.333,-35677.41,23638.55,49759.848
965459.0645102251,-74904.95,-55782.637,8504.517,-7276.7744,7530.7617,-35677.37,23641.846,49779.055
965459.0685102214,-74910.766,-55797.203,8503.662,-7275.9604,7525.676,-35677.652,23635.174,49767.824
965459.0725102179,-74927.66,-55848.227,8500.529,-7275.228,7517.497,-35678.875,23626.873,49739.504
965459.0765102144,-74937.7,-55877.363,8497.396,-7275.4316,7515.5845,-35678.875,23625.855,49727.418
965459.0805102108,-74921.555,-55830.977,8498.983,-7278.076,7525.4316,-35680.504,23631.104,49744.02
965459.0845102072,-74907.516,-55786.746,8502.441,-7278.8086,7529.2563,-35681.805,23632.53,49758.75
965459.0885102036,-74913.17,-55801.15,8503.418,-7277.2627,7521.932,-35681.64,23628.906,49751.71
965459.0925102001,-74930.38,-55853.234,8501.425,-7276.001,7512.248,-35681.316,23624.797,49732.547
965459.0965101966,-74939.91,-55881.594,8496.42,-7275.676,7509.3184,-35681.07,23626.75,49719.363
965459.100510193,-74923.875,-55831.87,8497.803,-7276.9775,7517.6597,-35679.688,23638.225,49744.266
965459.1045101894,-74908.61,-55783.285,8503.947,-7275.92,7522.705,-35677.086,23640.666,49768.066
965459.1085101858,-74913.49,-55799.93,8503.134,-7275.472,7515.666,-35677.938,23634.033,49753.297
965459.1125101823,-74931.27,-55853.234,8496.135,-7275.594,7507.08,-35679.484,23626.506,49725.3
965459.1165101788,-74940.15,-55878.625,8494.426,-7275.0244,7504.232,-35680.582,23625.732,49714.887
965459.1205101751,-74923.79,-55830.65,8496.338,-7276.6523,7511.0273,-35681.805,23634.36,49741.58
965459.1245101716,-74913.17,-55786.906,8498.779,-7278.402,7511.3936,-35682.17,23636.639,49754.76
965459.128510168,-74920.78,-55805.176,8497.925,-7277.588,7506.307,-35681.355,23633.424,49749.105
965459.1325101645,-74935.1,-55850.586,8494.182,-7274.455,7501.994,-35679.28,23626.22,49726.156
965459.136510161,-74941.77,-55877.363,8490.438,-7274.699,7499.105,-35679.28,23626.791,49718.26
965459.1405101573,-74927.94,-55833.215,8492.839,-7276.164,7505.005,-35678.957,23634.807,49741.008
965459.1445101538,-74913.21,-55781.535,8496.542,-7275.9604,7511.841,-35676.188,23638.145,49760.824
965459.1485101503,-74913.414,-55794.027,8498.82,-7274.862,7504.883,-35675.824,23631.145,49749.31
965459.1525101467,-74932.13,-55849.773,8494.304,-7274.2515,7493.4897,-35677.574,23623.129,49723.758
965459.1565101431,-74942.18,-55878.867,8491.333,-7274.211,7489.99,-35677.777,23621.99,49712.566
965459.1605101395,-74926.84,-55834.15,8493.286,-7274.455,7500.936,-35677.574,23631.309,49736.37
965459.164510136,-74914.19,-55792.523,8495.443,-7275.9604,7505.371,-35678.836,23633.545,49756.105
965459.1685101325,-74919.35,-55804.688,8496.013,-7275.4316,7499.756,-35679.77,23627.197,49748.66
965459.1725101288,-74934.164,-55853.11,8493.246,-7275.0244,7489.543,-35682.13,23617.92,49718.06
965459.1765101253,-74940.48,-55883.547,8492.554,-7274.1294,7483.236,-35681.926,23618.125,49706.016
965459.1805101217,-74922.24,-55837.527,8497.478,-7275.0244,7492.513,-35678.63,23632.773,49744.387
965459.1845101182,-74907.836,-55790.855,8500.814,-7276.4487,7496.257,-35678.71,23636.842,49769.125
965459.1885101147,-74916.47,-55807.457,8498.21,-7274.699,7489.909,-35679.2,23626.914,49753.867
965459.192510111,-74937.664,-55864.3,8494.711,-7272.949,7478.597,-35681.64,23616.172,49724.164
965459.1965101075,-74949.47,-55888.918,8492.392,-7272.6646,7477.1323,-35683.15,23615.316,49704.266
965459.200510104,-74933.68,-55839.97,8495.321,-7273.926,7486.45,-35683.066,23621.623,49722.74
965459.2045101004,-74920.33,-55800.09,8498.861,-7276.0825,7487.915,-35684.082,23621.338,49737.508
965459.2085100968,-74925.336,-55815.066,8498.576,-7274.862,7484.172,-35683.31,23616.863,49728.516
965459.2125100932,-74942.266,-55864.3,8494.101,-7272.7866,7477.214,-35682.66,23615.031,49714.277
965459.2165100897,-74949.1,-55887.004,8492.88,-7271.7695,7473.0225,-35681.113,23617.637,49706.465
965459.2205100862,-74928.47,-55835.33,8496.948,-7273.6006,7478.1904,-35680.22,23628.053,49725.18
965459.2245100826,-74914.11,-55790.367,8499.797,-7275.3096,7481.6895,-35680.094,23633.139,49748.293
965459.228510079,-74921.06,-55809.207,8498.901,-7274.536,7478.882,-35679.117,23631.309,49747.844
965459.2325100754,-74938.16,-55860.8,8497.233,-7272.7866,7472.575,-35679.117,23628.094,49725.996
965459.2365100719,-74945.36,-55885.38,8495.28,-7272.1357,7467.489,-35680.83,23629.07,49715.047
965459.2405100684,-74928.63,-55832.48,8497.274,-7272.827,7477.458,-35681.844,23635.215,49738.203
965459.2445100647,-74916.34,-55793.01,8500.285,-7274.048,7481.527,-35679.934,23634.645,49745.934
965459.2485100612,-74922.85,-55814.74,8497.355,-7275.757,7471.151,-35678.63,23627.238,49732.465
965459.2525100576,-74943.52,-55867.598,8491.943,-7275.7163,7457.235,-35677.98,23621.379,49708.21
965459.2565100541,-74957.89,-55896.08,8487.997,-7276.6523,7451.9453,-35679.28,23620.078,49696.94
965459.2605100506,-74940.23,-55850.63,8492.065,-7277.181,7461.3447,-35677.37,23627.686,49720.95
965459.2645100469,-74925.7,-55808.88,8494.182,-7278.7275,7463.379,-35677.695,23628.541,49739.137
965459.2685100434,-74931.4,-55824.668,8493.49,-7277.2217,7458.6997,-35678.754,23621.379,49727.336
965459.2725100399,-74951.22,-55871.664,8488.811,-7274.0073,7451.6196,-35680.094,23614.137,49706.22
965459.2765100363,-74957.08,-55895.145,8486.654,-7272.868,7450.277,-35679.566,23614.014,49699.668
965459.2805100327,-74937.7,-55848.676,8491.089,-7276.5303,7458.3335,-35678.305,23624.635,49718.71
965459.2845100291,-74925.3,-55807.293,8495.605,-7279.012,7457.479,-35678.387,23627.361,49735.23
965459.2885100256,-74930.3,-55823.527,8495.85,-7277.507,7453.2065,-35678.55,23623.17,49725.508
965459.2925100221,-74946.695,-55869.836,8491.496,-7274.9434,7444.7837,-35679.566,23619.102,49704.305
965459.2965100185,-74954.914,-55889.934,8490.601,-7272.99,7443.319,-35679.484,23619.549,49693.973
965459.3005100149,-74937.22,-55842.41,8495.117,-7272.9087,7451.335,-35678.387,23629.191,49716.72
965459.3045100113,-74923.95,-55802.37,8498.169,-7275.2686,7452.23,-35679.28,23629.559,49731.61
965459.3085100078,-74927.01,-55811.73,8500.244,-7272.9087,7447.3877,-35678.996,23624.594,49724.082
965459.3125100043,-74942.875,-55863.406,8498.861,-7268.84,7441.4473,-35679.605,23620.729,49708.984
965459.3165100006,-74953.984,-55892.5,8493.53,-7269.0024,7438.558,-35680.625,23617.31,49699.63
965459.3205099971,-74937.99,-55850.586,8495.605,-7271.9727,7447.0215,-35681.926,23624.105,49719.688
965459.3245099935,-74921.305,-55804.688,8500.122,-7271.8506,7450.8057,-35681.6,23625.326,49737.715
965459.32850999,-74926.07,-55818.2,8498.332,-7270.793,7444.7837,-35682.293,23617.229,49725.996
965459.3325099865,-74943.89,-55868.29,8493.896,-7269.328,7437.663,-35682.21,23611.166,49698.934
965459.3365099828,-74952.68,-55894.656,8491.659,-7269.043,7435.832,-35684.207,23608.969,49687.094
965459.3405099793,-74938.36,-55847.58,8495.036,-7269.9385,7444.824,-35684.082,23618.613,49711.387
965459.3445099758,-74924.97,-55802.86,8498.861,-7270.9556,7452.8403,-35683.27,23621.95,49731.977
965459.3485099722,-74930.18,-55817.547,8497.355,-7270.3857,7447.632,-35683.434,23618.693,49725.953
965459.3525099686,-74948.164,-55866.78,8492.88,-7269.5723,7443.7256,-35683.555,23612.834,49704.47
965459.356509965,-74957.234,-55888.43,8488.2,-7270.9556,7444.1733,-35684.246,23611.004,49689.293
965459.3605099615,-74939.29,-55841.637,8491.333,-7272.7866,7454.2236,-35682.375,23620.158,49708.984
965459.364509958,-74925.21,-55800.133,8495.769,-7273.031,7461.3853,-35681.6,23623.332,49725.586
965459.3685099544,-74933.76,-55817.63,8495.321,-7272.99,7457.845,-35681.113,23619.549,49721.64
965459.3725099508,-74951.22,-55870.117,8489.543,-7270.793,7454.2646,-35680.46,23613.16,49700.645
965459.3765099472,-74958.74,-55898.52,8487.631,-7270.0605,7455.6074,-35681.887,23612.305,49685.957
965459.3805099437,-74942.18,-55850.586,8492.758,-7271.81,7466.8784,-35681.926,23623.78,49706.953
965459.3845099402,-74928.34,-55806.36,8496.216,-7272.38,7475.342,-35678.957,23628.906,49728.598
965459.3885099365,-74933.84,-55821.453,8495.28,-7271.4844,7472.4937,-35678.062,23622.682,49719.973
965459.392509933,-74947.96,-55869.426,8495.605,-7269.8164,7468.221,-35676.312,23618.775,49696.617
965459.3965099294,-74959.555,-55896.895,8493.774,-7270.752,7465.78,-35676.027,23621.135,49692.305
965459.4005099259,-74944.91,-55852.54,8497.641,-7273.3154,7476.5625,-35676.637,23630.127,49715.09
965459.4045099223,-74929.04,-55807.58,8500.773,-7272.99,7481.201,-35676.35,23630.738,49733.44
965459.4085099187,-74932.945,-55821.574,8500.204,-7270.3857,7478.6377,-35676.027,23625.0,49723.594
965459.4125099152,-74950.195,-55877.035,8495.443,-7269.9385,7471.0693,-35677.125,23618.613,49701.336
965459.4165099117,-74960.53,-55905.316,8493.205,-7270.5894,7469.6455,-35678.266,23618.938,49687.867
965459.4205099081,-74945.27,-55856.04,8495.646,-7270.996,7481.2827,-35678.793,23625.0,49706.3
965459.4245099045,-74930.26,-55812.5,8500.285,-7270.8335,7488.5664,-35680.83,23625.408,49725.06
965459.4285099009,-74935.875,-55831.953,8499.878,-7270.915,7484.172,-35682.293,23619.06,49716.555
965459.4325098974,-74954.76,-55886.19,8496.094,-7269.1245,7475.749,-35681.805,23614.707,49691.203
965459.4365098939,-74960.695,-55909.75,8495.81,-7267.131,7474.569,-35681.4,23616.781,49682.78
965459.4405098902,-74942.79,-55861.453,8498.129,-7269.4907,7482.951,-35680.42,23626.873,49711.348
965459.4445098867,-74930.71,-55813.56,8501.059,-7271.4033,7492.717,-35679.117,23627.89,49727.418
965459.4485098831,-74938.36,-55827.23,8500.61,-7270.752,7486.898,-35680.83,23622.031,49717.695
965459.4525098796,-74955.61,-55875.816,8496.867,-7268.921,7477.58,-35680.38,23615.643,49693.81
965459.4565098761,-74962.0,-55898.887,8495.077,-7268.718,7476.9287,-35679.688,23616.21,49680.42
965459.4605098724,-74946.375,-55854.29,8496.216,-7269.735,7486.369,-35680.707,23623.21,49698.0
965459.4645098689,-74936.77,-55815.39,8497.641,-7271.688,7488.2,-35683.797,23619.426,49708.54
965459.4685098653,-74946.945,-55836.47,8494.955,-7272.2983,7480.754,-35684.977,23611.41,49696.37
965459.4725098618,-74969.04,-55891.4,8489.34,-7271.81,7472.6973,-35684.695,23606.283,49677.004
965459.4765098582,-74980.15,-55918.99,8484.131,-7273.7227,7466.3086,-35686.2,23604.045,49662.438
965459.4805098546,-74962.85,-55873.78,8489.38,-7274.333,7473.5923,-35684.695,23612.793,49682.332
965459.4845098511,-74943.24,-55828.695,8497.763,-7273.1123,7479.126,-35682.66,23616.172,49704.387
965459.4885098475,-74948.41,-55842.004,8497.437,-7272.339,7474.7314,-35682.13,23609.375,49692.098
965459.492509844,-74967.695,-55891.035,8492.839,-7271.6064,7465.8613,-35684.164,23601.727,49666.87
965459.4965098404,-74978.92,-55917.727,8489.746,-7272.0947,7461.2227,-35686.035,23600.098,49654.867
965459.5005098368,-74964.36,-55872.07,8492.1875,-7273.6816,7469.442,-35685.387,23608.48,49677.246
965459.5045098333,-74953.58,-55832.52,8494.955,-7274.333,7474.447,-35687.094,23609.092,49689.863
965459.5085098298,-74959.48,-55850.793,8493.49,-7274.9434,7468.9536,-35687.176,23603.76,49680.664
965459.5125098261,-74974.94,-55904.016,8487.875,-7275.2686,7458.13,-35687.99,23598.594,49656.008
965459.5165098226,-74985.31,-55929.934,8483.847,-7275.1465,7452.759,-35688.395,23597.535,49640.098
965459.520509819,-74969.81,-55878.176,8486.45,-7275.9604,7460.653,-35688.355,23606.934,49665.57
965459.5245098155,-74956.664,-55835.734,8490.561,-7276.3267,7466.3496,-35688.152,23610.434,49686.24
965459.528509812,-74962.04,-55853.19,8491.171,-7275.9604,7459.961,-35690.39,23604.574,49679.242
965459.5325098083,-74976.195,-55901.855,8489.34,-7273.4375,7453.8574,-35689.74,23599.61,49658.613
965459.5365098048,-74985.6,-55924.48,8488.444,-7272.7866,7451.091,-35689.94,23599.57,49645.633
965459.5405098012,-74970.18,-55877.77,8490.194,-7274.048,7458.822,-35689.13,23608.848,49668.54
965459.5445097977,-74956.75,-55832.887,8493.49,-7275.228,7462.85,-35688.477,23613.322,49689.496
965459.548509794,-74963.016,-55846.965,8493.896,-7274.7803,7457.723,-35689.168,23608.318,49682.254
965459.5525097905,-74979.01,-55895.266,8495.077,-7271.0776,7450.521,-35690.145,23601.482,49658.938
965459.556509787,-74985.07,-55920.332,8494.589,-7270.1826,7449.382,-35688.64,23604.086,49647.258
965459.5605097834,-74966.27,-55871.543,8495.402,-7273.7227,7459.1064,-35689.535,23613.525,49668.742
965459.5645097799,-74949.83,-55826.785,8499.105,-7275.35,7462.728,-35689.293,23619.223,49695.844
965459.5685097763,-74956.305,-55844.32,8498.739,-7272.624,7460.0425,-35689.047,23614.299,49697.594
965459.5725097727,-74972.49,-55895.754,8493.327,-7270.996,7449.0156,-35690.145,23605.51,49670.004
965459.5765097692,-74980.72,-55916.3,8490.316,-7270.1826,7445.801,-35689.37,23607.098,49663.656
965459.5805097657,-74967.86,-55871.055,8494.141,-7272.461,7452.3926,-35686.566,23620.729,49701.094
965459.584509762,-74957.73,-55831.668,8496.826,-7276.001,7456.6245,-35686.605,23622.479,49713.91
965459.5885097585,-74963.87,-55847.332,8495.158,-7275.1465,7451.9453,-35687.297,23613.363,49688.926
965459.5925097549,-74978.766,-55895.836,8490.561,-7272.7866,7445.1094,-35686.727,23604.98,49662.64
