timestamp,Fp1,Fp2,F3,Fz,F4,Cz,Pz,Oz
1227549.1186107518,-109717.0,-109145.19,-2133.3823,-32081.545,-52582.44,-55177.086,-33378.133,50500.816
1227549.122610749,-109799.52,-109225.71,-2161.9468,-32115.031,-52623.863,-55237.43,-33457.48,50419.637
1227549.1266107461,-109745.164,-109170.375,-2137.6953,-32083.578,-52595.906,-55201.38,-33409.465,50478.027
1227549.1306107433,-109643.234,-109066.25,-2096.0288,-32034.262,-52538.7,-55120.973,-33301.92,50598.715
1227549.1346107405,-109633.1,-109054.81,-2092.163,-32032.309,-52519.574,-55105.88,-33280.56,50625.0
1227549.1386107376,-109732.14,-109150.72,-2130.4119,-32078.818,-52589.07,-55174.035,-33371.01,50506.676
1227549.1426107346,-109807.58,-109220.87,-2162.5977,-32111.045,-52629.965,-55233.727,-33449.016,50411.01
1227549.1466107317,-109754.6,-109166.18,-2140.1367,-32082.113,-52612.387,-55201.457,-33410.2,50463.42
1227549.150610729,-109644.414,-109057.7,-2095.8252,-32032.756,-52562.83,-55119.996,-33305.094,50589.113
1227549.154610726,-109634.16,-109052.984,-2091.7563,-32032.268,-52538.74,-55106.324,-33285.727,50608.97
1227549.1586107232,-109742.07,-109159.38,-2133.7078,-32085.287,-52586.63,-55179.73,-33375.49,50508.14
1227549.1626107204,-109816.25,-109231.33,-2161.7026,-32118.287,-52631.918,-55236.9,-33451.17,50422.12
1227549.1666107175,-109759.28,-109173.586,-2131.7139,-32085.816,-52607.586,-55197.39,-33410.688,50467.57
1227549.1706107147,-109644.086,-109065.92,-2094.4011,-32033.45,-52543.906,-55119.47,-33307.78,50586.67
1227549.1746107119,-109628.46,-109058.19,-2095.0928,-32033.53,-52529.99,-55109.62,-33289.957,50608.24
1227549.178610709,-109730.88,-109157.68,-2137.0037,-32086.223,-52576.17,-55185.832,-33387.86,50492.598
1227549.1826107062,-109801.11,-109221.36,-2156.0466,-32113.283,-52596.316,-55241.863,-33461.387,50411.133
1227549.1866107034,-109744.43,-109159.59,-2127.0347,-32077.719,-52578.98,-55204.633,-33412.64,50467.695
1227549.1906107005,-109636.27,-109054.65,-2091.3086,-32029.094,-52534.02,-55124.797,-33305.094,50597.008
1227549.1946106977,-109625.0,-109046.02,-2091.4307,-32030.926,-52526.41,-55108.684,-33287.64,50611.207
1227549.1986106948,-109726.24,-109147.664,-2132.2021,-32084.475,-52582.195,-55181.152,-33378.5,50505.496
1227549.202610692,-109796.8,-109218.47,-2156.3315,-32116.008,-52632.895,-55237.227,-33447.062,50433.105
1227549.2066106892,-109743.414,-109163.5,-2134.9692,-32086.387,-52617.637,-55197.43,-33401.613,50493.086
1227549.2106106863,-109632.77,-109054.484,-2090.0066,-32034.182,-52555.098,-55116.863,-33298.016,50609.5
1227549.2146106835,-109621.42,-109043.26,-2087.199,-32034.018,-52542.81,-55108.93,-33282.797,50622.316
1227549.2186106807,-109723.555,-109142.91,-2129.2725,-32085.002,-52605.348,-55179.73,-33373.332,50521.61
1227549.2226106778,-109796.19,-109216.48,-2159.5054,-32118.531,-52643.395,-55238.203,-33448.57,50439.496
1227549.226610675,-109733.24,-109157.84,-2130.8188,-32084.19,-52603.477,-55201.336,-33400.96,50500.203
1227549.2306106722,-109629.07,-109056.484,-2085.8154,-32033.244,-52544.76,-55120.402,-33302.164,50615.887
1227549.2346106693,-109628.664,-109053.305,-2091.5527,-32038.494,-52536.62,-55109.215,-33291.75,50629.273
1227549.2386106665,-109731.125,-109150.88,-2137.9395,-32089.072,-52596.234,-55186.688,-33389.73,50513.184
1227549.2426106636,-109798.47,-109213.51,-2159.1797,-32114.422,-52644.695,-55242.555,-33465.21,50423.953
1227549.2466106608,-109737.19,-109149.664,-2134.2773,-32082.766,-52616.17,-55204.062,-33420.37,50477.742
1227549.250610658,-109633.836,-109047.94,-2098.755,-32036.541,-52557.66,-55127.402,-33320.07,50586.223
1227549.2546106551,-109625.53,-109042.484,-2098.877,-32036.744,-52545.9,-55117.637,-33303.754,50604.74
1227549.2586106523,-109723.35,-109140.67,-2136.7188,-32086.875,-52596.316,-55190.715,-33392.945,50505.94
1227549.2626106495,-109792.195,-109210.086,-2155.07,-32115.602,-52631.473,-55244.996,-33464.6,50426.516
1227549.2666106466,-109729.58,-109151.05,-2123.2505,-32078.898,-52600.383,-55201.38,-33410.32,50491.66
1227549.2706106438,-109622.97,-109046.59,-2087.7686,-32029.867,-52548.26,-55119.875,-33305.707,50615.234
1227549.274610641,-109627.85,-109049.08,-2088.4604,-32035.158,-52543.254,-55113.406,-33296.43,50615.52
1227549.278610638,-109729.17,-109147.016,-2130.0864,-32084.922,-52593.914,-55186.85,-33386.19,50509.277
1227549.2826106353,-109800.5,-109217.0,-2158.9763,-32117.393,-52635.703,-55242.598,-33459.516,50429.688
1227549.2866106322,-109735.48,-109154.26,-2137.6953,-32085.287,-52607.3,-55201.094,-33411.46,50495.73
1227549.2906106294,-109628.13,-109051.195,-2095.9067,-32035.32,-52540.324,-55121.42,-33304.934,50615.926
1227549.2946106265,-109623.664,-109047.24,-2095.0115,-32038.453,-52507.812,-55116.21,-33290.57,50628.62
1227549.2986106237,-109729.54,-109147.79,-2137.329,-32090.008,-52573.61,-55190.188,-33386.434,50513.875
1227549.3026106209,-109802.414,-109214.12,-2160.4004,-32120.443,-52647.176,-55241.906,-33460.367,50435.06
1227549.306610618,-109736.9,-109148.28,-2130.371,-32083.986,-52614.504,-55199.18,-33407.96,50503.785
1227549.3106106152,-109630.86,-109047.61,-2093.628,-32036.215,-52548.543,-55123.742,-33309.125,50623.617
1227549.3146106123,-109626.914,-109046.39,-2096.1914,-32040.568,-52539.88,-55119.71,-33300.336,50636.152
1227549.3186106095,-109724.41,-109145.266,-2133.545,-32089.52,-52594.65,-55193.523,-33393.395,50522.3
1227549.3226106067,-109790.2,-109211.51,-2150.8384,-32117.84,-52629.438,-55251.184,-33466.758,50435.14
1227549.3266106038,-109722.45,-109148.44,-2129.0283,-32085.207,-52597.453,-55214.723,-33418.703,50496.176
1227549.330610601,-109607.42,-109036.336,-2085.1238,-32030.64,-52551.8,-55131.105,-33308.105,50623.82
1227549.3346105982,-109599.9,-109027.39,-2082.7637,-32029.46,-52544.72,-55121.83,-33291.3,50644.004
1227549.3386105953,-109698.734,-109125.414,-2121.3787,-32079.55,-52582.4,-55197.918,-33388.387,50531.008
1227549.3426105925,-109768.35,-109189.7,-2156.0466,-32114.625,-52619.184,-55253.746,-33461.754,50446.7
1227549.3466105897,-109700.89,-109124.64,-2130.4932,-32078.533,-52598.188,-55207.766,-33408.938,50508.383
1227549.3506105868,-109594.12,-109017.22,-2092.326,-32029.338,-52536.99,-55122.316,-33300.457,50624.637
1227549.354610584,-109600.06,-109014.734,-2096.3542,-32034.426,-52536.703,-55113.49,-33283.0,50639.934
1227549.3586105811,-109705.33,-109112.836,-2137.8174,-32085.898,-52591.84,-55185.1,-33372.152,50543.945
1227549.3626105783,-109771.41,-109175.17,-2162.1501,-32112.998,-52635.99,-55236.29,-33442.223,50473.51
1227549.3666105755,-109708.54,-109116.17,-2136.19,-32078.533,-52608.645,-55192.426,-33386.477,50537.68
1227549.3706105726,-109609.26,-109019.17,-2098.6328,-32033.611,-52549.48,-55115.03,-33287.883,50648.723
1227549.3746105698,-109617.6,-109021.85,-2105.6316,-32041.424,-52549.684,-55112.387,-33284.18,50647.42
1227549.378610567,-109722.74,-109124.11,-2153.1577,-32091.229,-52616.945,-55187.055,-33382.57,50534.02
1227549.3826105641,-109794.84,-109191.734,-2177.2056,-32119.102,-52656.535,-55242.066,-33458.902,50449.06
1227549.3866105613,-109744.47,-109140.586,-2156.6162,-32090.7,-52615.848,-55204.715,-33410.28,50508.223
1227549.3906105584,-109642.83,-109042.52,-2119.1814,-32041.668,-52557.82,-55126.996,-33309.695,50619.67
1227549.3946105556,-109640.79,-109044.64,-2121.7856,-32046.145,-52555.504,-55121.34,-33304.65,50615.36
1227549.3986105528,-109747.07,-109149.46,-2164.4695,-32098.756,-52607.87,-55195.965,-33402.02,50499.39
1227549.40261055,-109819.38,-109222.09,-2192.2607,-32129.396,-52646.61,-55248.332,-33471.03,50425.54
1227549.406610547,-109769.45,-109168.87,-2172.2007,-32095.176,-52619.47,-55205.363,-33412.516,50495.445
1227549.4106105443,-109669.92,-109068.56,-2132.5278,-32045.98,-52555.055,-55125.613,-33306.277,50620.242
1227549.4146105414,-109640.266,-109048.51,-2122.5994,-32045.168,-52540.57,-55119.63,-33297.445,50631.227
1227549.4186105386,-109740.6,-109146.77,-2166.0156,-32101.28,-52620.117,-55203.98,-33406.74,50508.79
1227549.4226105358,-109803.96,-109211.67,-2189.2498,-32128.947,-52657.84,-55255.7,-33476.81,50439.414
1227549.426610533,-109727.22,-109142.22,-2157.064,-32090.09,-52614.95,-55211.426,-33424.684,50503.5
1227549.4306105298,-109619.555,-109043.91,-2115.316,-32042.645,-52558.96,-55133.914,-33320.395,50614.46
1227549.434610527,-109618.01,-109046.23,-2115.153,-32051.271,-52562.42,-55131.51,-33309.816,50620.688
1227549.4386105242,-109726.12,-109153.81,-2157.959,-32104.656,-52619.14,-55203.41,-33400.92,50515.137
1227549.4426105213,-109796.266,-109226.36,-2181.3152,-32132.773,-52659.71,-55256.96,-33470.215,50429.973
1227549.4466105185,-109728.31,-109156.87,-2156.4941,-32095.297,-52632.812,-55213.91,-33417.4,50501.06
1227549.4506105157,-109623.7,-109054.445,-2118.2048,-32045.451,-52574.832,-55132.734,-33315.51,50619.67
1227549.4546105128,-109632.0,-109065.59,-2118.1235,-32050.863,-52575.36,-55126.344,-33307.742,50624.594
1227549.45861051,-109740.28,-109169.27,-2155.5583,-32104.168,-52635.824,-55203.98,-33407.918,50510.582
1227549.4626105072,-109811.12,-109237.51,-2182.6987,-32133.098,-52676.637,-55259.035,-33479.453,50433.676
1227549.4666105043,-109743.086,-109167.61,-2155.233,-32094.729,-52641.805,-55214.438,-33422.08,50505.37
1227549.4706105015,-109639.98,-109065.43,-2114.9902,-32046.633,-52580.445,-55135.5,-33320.477,50622.4
1227549.4746104986,-109646.53,-109074.99,-2117.92,-32053.184,-52571.086,-55132.203,-33312.055,50621.543
1227549.4786104958,-109753.055,-109179.98,-2160.8887,-32106.447,-52632.285,-55209.96,-33414.348,50511.72
1227549.482610493,-109813.68,-109236.25,-2179.8096,-32133.22,-52669.11,-55260.582,-33486.043,50440.633
1227549.4866104901,-109742.39,-109165.086,-2153.768,-32093.629,-52635.664,-55210.86,-33428.836,50507.652
1227549.4906104873,-109634.16,-109058.31,-2112.4675,-32041.383,-52572.51,-55131.88,-33323.527,50620.484
1227549.4946104845,-109640.42,-109063.68,-2111.084,-32051.963,-52566.652,-55135.54,-33320.395,50620.363
1227549.4986104816,-109745.37,-109164.72,-2162.7197,-32106.406,-52625.49,-55212.2,-33416.91,50505.78
1227549.5026104788,-109811.52,-109229.58,-2185.0994,-32131.023,-52665.203,-55258.996,-33483.113,50430.22
1227549.506610476,-109744.96,-109162.11,-2161.6619,-32093.629,-52630.984,-55214.562,-33426.555,50501.344
1227549.510610473,-109636.27,-109054.41,-2116.9841,-32043.174,-52568.645,-55136.72,-33316.57,50631.145
1227549.5146104703,-109645.15,-109063.805,-2116.4146,-32050.09,-52570.027,-55137.37,-33312.83,50629.152
1227549.5186104674,-109754.88,-109170.49,-2158.6914,-32102.906,-52629.64,-55212.324,-33407.633,50515.18
1227549.5226104646,-109814.82,-109239.99,-2180.8677,-32129.518,-52669.312,-55260.336,-33472.74,50447.227
1227549.5266104618,-109742.15,-109165.695,-2155.2734,-32091.92,-52632.895,-55212.16,-33414.715,50528.363
1227549.530610459,-109645.555,-109064.58,-2118.8965,-32046.877,-52573.082,-55134.402,-33316.855,50633.75
1227549.534610456,-109659.38,-109079.96,-2124.5933,-32058.432,-52572.957,-55134.562,-33316.12,50625.367
1227549.5386104533,-109765.1,-109186.12,-2166.7075,-32109.742,-52634.36,-55208.336,-33407.227,50515.668
1227549.5426104504,-109820.84,-109245.24,-2188.5173,-32136.354,-52668.215,-55259.523,-33474.12,50441.33
1227549.5466104476,-109744.47,-109168.91,-2152.3845,-32094.361,-52631.676,-55211.67,-33419.598,50503.746
1227549.5506104447,-109636.48,-109064.375,-2108.602,-32043.906,-52572.062,-55133.14,-33316.203,50627.24
1227549.554610442,-109649.7,-109077.4,-2118.5303,-32056.275,-52571.7,-55134.24,-33312.38,50633.06
1227549.558610439,-109755.984,-109181.08,-2157.959,-32110.271,-52633.953,-55210.246,-33406.82,50529.094
1227549.5626104362,-109811.69,-109237.305,-2175.9849,-32135.459,-52673.22,-55255.984,-33468.1,50465.008
1227549.5666104334,-109739.914,-109163.086,-2145.0603,-32094.973,-52639.0,-55206.87,-33404.83,50538.656
1227549.5706104306,-109635.38,-109059.05,-2104.533,-32048.26,-52564.656,-55128.055,-33302.777,50651.29
1227549.5746104275,-109644.695,-109067.14,-2110.189,-32056.072,-52552.938,-55126.793,-33298.18,50646.77
1227549.5786104247,-109760.336,-109173.99,-2154.0122,-32109.621,-52622.684,-55205.85,-33398.438,50526.855
1227549.5826104218,-109819.91,-109232.95,-2175.6187,-32135.05,-52667.605,-55257.812,-33463.91,50459.23
1227549.586610419,-109743.9,-109166.016,-2143.4734,-32094.28,-52632.203,-55208.496,-33400.23,50537.68
1227549.5906104161,-109643.11,-109067.1,-2105.7537,-32046.633,-52571.25,-55131.43,-33302.98,50652.914
1227549.5946104133,-109650.27,-109074.14,-2111.1655,-32055.299,-52570.355,-55133.14,-33301.637,50650.473
1227549.5986104105,-109753.42,-109178.8,-2151.53,-32108.645,-52621.707,-55212.61,-33401.773,50530.76
1227549.6026104076,-109810.55,-109234.17,-2166.7888,-32131.918,-52660.566,-55260.01,-33462.605,50469.688
1227549.6066104048,-109734.09,-109152.71,-2141.3982,-32090.822,-52609.05,-55209.555,-33398.6,50552.492
1227549.610610402,-109632.25,-109049.24,-2104.9805,-32045.248,-52548.586,-55129.883,-33296.67,50669.477
1227549.6146103991,-109637.21,-109061.04,-2103.8818,-32052.94,-52547.203,-55132.324,-33298.258,50662.355
1227549.6186103963,-109747.32,-109169.11,-2148.5596,-32109.092,-52617.066,-55218.14,-33408.285,50540.527
1227549.6226103934,-109791.51,-109213.99,-2165.853,-32130.941,-52634.97,-55265.22,-33472.37,50474.45
1227549.6266103906,-109708.13,-109139.65,-2134.6843,-32089.113,-52612.1,-55212.484,-33409.87,50554.566
1227549.6306103878,-109607.42,-109042.04,-2098.9177,-32043.336,-52563.844,-55136.152,-33310.02,50674.156
1227549.634610385,-109595.26,-109025.31,-2099.1619,-32048.422,-52562.625,-55140.22,-33313.152,50661.38
1227549.638610382,-109674.03,-109097.3,-2138.7126,-32097.209,-52613.566,-55223.96,-33422.406,50524.13
1227549.6426103793,-109729.695,-109144.17,-2162.8013,-32123.455,-52648.074,-55275.27,-33489.016,50443.89
1227549.6466103764,-109648.12,-109063.03,-2132.365,-32081.951,-52604.25,-55227.01,-33428.184,50521.61
1227549.6506103736,-109538.62,-108959.6,-2093.5059,-32033.367,-52547.16,-55151.164,-33332.074,50623.66
1227549.6546103708,-109551.15,-108970.586,-2107.3813,-32046.225,-52548.055,-55156.535,-33338.504,50613.85
1227549.658610368,-109657.76,-109072.06,-2149.4956,-32099.814,-52604.25,-55235.8,-33442.14,50494.062
1227549.662610365,-109707.6,-109117.88,-2168.0908,-32120.322,-52634.89,-55279.95,-33502.035,50433.594
1227549.6666103622,-109640.99,-109048.266,-2139.5671,-32080.16,-52589.805,-55227.094,-33435.832,50512.41
1227549.6706103594,-109541.016,-108951.54,-2101.8066,-32034.588,-52531.58,-55146.85,-33330.04,50630.332
1227549.6746103566,-109559.29,-108969.77,-2106.8115,-32048.586,-52536.99,-55153.65,-33333.133,50626.26
1227549.6786103537,-109673.914,-109087.0,-2147.7866,-32102.541,-52595.543,-55230.188,-33429.605,50516.684
1227549.682610351,-109728.97,-109140.47,-2166.9922,-32124.758,-52629.883,-55274.58,-33488.65,50454.754
1227549.686610348,-109653.445,-109068.16,-2138.4277,-32083.172,-52590.535,-55221.887,-33420.25,50537.477
1227549.6906103452,-109549.93,-108973.07,-2092.8142,-32035.035,-52540.938,-55144.816,-33321.29,50654.664
1227549.6946103424,-109572.96,-108994.34,-2100.83,-32048.38,-52547.566,-55149.375,-33325.684,50645.996
1227549.6986103395,-109693.12,-109109.99,-2149.821,-32103.273,-52610.15,-55228.438,-33422.28,50536.824
1227549.7026103367,-109744.47,-109158.9,-2165.6902,-32127.361,-52644.004,-55272.83,-33479.86,50476.117
1227549.7066103339,-109671.15,-109083.01,-2131.4697,-32086.793,-52600.465,-55217.285,-33408.246,50557.21
1227549.710610331,-109580.65,-108992.11,-2094.9707,-32038.127,-52533.406,-55137.902,-33302.37,50675.703
1227549.714610328,-109605.67,-109017.42,-2102.2136,-32050.01,-52547.85,-55144.695,-33311.81,50659.1
1227549.7186103251,-109718.266,-109130.01,-2149.414,-32104.777,-52604.414,-55227.746,-33417.81,50531.535
1227549.7226103223,-109777.96,-109185.55,-2167.8062,-32126.588,-52642.133,-55271.363,-33477.867,50464.6
1227549.7266103195,-109705.77,-109114.14,-2138.2244,-32084.31,-52594.24,-55217.285,-33412.234,50551.637
1227549.7306103166,-109609.87,-109022.055,-2099.691,-32039.064,-52545.332,-55143.477,-33313.152,50661.582
1227549.7346103138,-109624.39,-109043.74,-2109.904,-32052.613,-52551.8,-55151.53,-33318.766,50650.758
1227549.738610311,-109738.28,-109157.31,-2149.821,-32106.691,-52610.637,-55228.027,-33420.777,50537.273
1227549.742610308,-109798.75,-109218.43,-2164.3066,-32128.582,-52652.387,-55272.91,-33482.707,50474.69
1227549.7466103053,-109724.77,-109146.69,-2137.329,-32088.908,-52617.758,-55222.656,-33416.953,50555.46
1227549.7506103024,-109628.5,-109049.89,-2102.4985,-32043.986,-52561.035,-55143.19,-33313.844,50671.348
1227549.7546102996,-109649.945,-109071.82,-2112.3862,-32058.758,-52565.105,-55147.95,-33316.285,50663.25
1227549.7586102968,-109763.875,-109184.05,-2155.7212,-32113.69,-52627.727,-55226.36,-33417.035,50544.395
1227549.762610294,-109812.09,-109232.47,-2174.398,-32133.953,-52660.035,-55270.227,-33473.676,50483.24
1227549.766610291,-109725.38,-109147.625,-2137.3699,-32086.508,-52613.69,-55213.22,-33404.38,50572.023
1227549.7706102883,-109621.42,-109049.65,-2102.824,-32040.324,-52554.77,-55136.883,-33300.742,50692.465
1227549.7746102854,-109646.33,-109072.23,-2109.2124,-32058.188,-52562.785,-55144.086,-33303.062,50677.734
1227549.7786102826,-109764.164,-109185.43,-2152.0996,-32113.201,-52622.56,-55224.367,-33402.06,50556.4
1227549.7826102797,-109816.125,-109239.34,-2170.3289,-32134.848,-52658.164,-55270.305,-33461.062,50499.715
1227549.786610277,-109738.0,-109158.25,-2139.5264,-32090.496,-52612.348,-55215.13,-33395.426,50583.17
1227549.790610274,-109642.91,-109065.63,-2103.068,-32044.963,-52556.074,-55139.934,-33296.754,50698.977
1227549.7946102712,-109660.32,-109086.51,-2114.624,-32058.352,-52562.867,-55150.434,-33306.355,50684.695
1227549.7986102684,-109772.875,-109197.35,-2155.5583,-32112.184,-52626.387,-55230.55,-33408.938,50567.18
1227549.8026102656,-109819.3,-109244.76,-2173.7468,-32133.139,-52657.023,-55270.59,-33462.934,50514.12
1227549.8066102627,-109738.65,-109165.33,-2140.503,-32089.52,-52616.133,-55212.2,-33391.36,50602.418
1227549.8106102599,-109642.91,-109074.305,-2102.824,-32045.207,-52560.47,-55138.31,-33289.227,50716.758
1227549.814610257,-109665.57,-109097.13,-2111.4097,-32060.02,-52570.355,-55147.87,-33297.203,50699.832
1227549.8186102542,-109783.49,-109209.6,-2159.5054,-32118.205,-52635.38,-55232.22,-33409.668,50567.18
1227549.8226102514,-109830.445,-109252.32,-2179.4434,-32137.086,-52662.152,-55272.992,-33467.043,50507.977
1227549.8266102485,-109747.195,-109171.31,-2146.0369,-32094.117,-52621.137,-55213.176,-33396.85,50603.56
1227549.8306102457,-109651.66,-109079.39,-2109.7007,-32049.928,-52559.855,-55141.195,-33304.812,50708.457
1227549.8346102429,-109680.055,-109105.47,-2120.6055,-32066.691,-52564.984,-55153.28,-33314.86,50693.074
1227549.83861024,-109794.92,-109212.734,-2162.313,-32122.152,-52637.695,-55233.523,-33419.965,50571.37
1227549.8426102372,-109844.24,-109261.72,-2181.5593,-32143.19,-52665.773,-55270.266,-33475.547,50501.426
1227549.8466102344,-109757.49,-109180.18,-2145.752,-32095.908,-52617.066,-55211.71,-33400.88,50589.316
1227549.8506102315,-109661.26,-109087.164,-2113.1592,-32054.16,-52570.883,-55138.88,-33306.152,50703.37
1227549.8546102287,-109687.75,-109115.03,-2125.0815,-32072.43,-52582.195,-55152.957,-33315.715,50687.055
1227549.8586102256,-109800.58,-109225.914,-2169.5964,-32127.768,-52642.58,-55234.01,-33419.434,50570.234
1227549.8626102228,-109845.34,-109266.52,-2183.5938,-32144.125,-52668.457,-55276.45,-33476.44,50513.754
1227549.86661022,-109759.69,-109183.39,-2146.2402,-32100.668,-52623.945,-55218.914,-33402.184,50598.797
1227549.870610217,-109666.71,-109095.7,-2106.8523,-32058.146,-52568.605,-55143.273,-33305.38,50702.273
1227549.8746102143,-109689.3,-109118.86,-2122.396,-32076.662,-52574.75,-55153.16,-33312.543,50692.344
1227549.8786102114,-109797.61,-109229.695,-2163.33,-32130.25,-52639.895,-55235.76,-33417.4,50579.062
1227549.8826102086,-109847.5,-109275.11,-2177.1648,-32149.496,-52669.883,-55275.35,-33469.77,50517.293
1227549.8866102058,-109760.91,-109185.47,-2139.2822,-32102.541,-52622.03,-55215.742,-33394.613,50599.734
1227549.890610203,-109671.31,-109095.75,-2107.0151,-32058.879,-52560.875,-55142.863,-33297.203,50707.93
1227549.8946102,-109699.875,-109127.69,-2118.8965,-32076.092,-52572.39,-55157.35,-33310.14,50692.668
1227549.8986101972,-109812.87,-109241.58,-2159.5054,-32130.494,-52641.848,-55238.65,-33414.957,50582.4
1227549.9026101944,-109873.414,-109293.13,-2178.6296,-32150.352,-52676.68,-55277.47,-33469.605,50527.508
1227549.9066101916,-109779.83,-109204.02,-2140.8691,-32101.32,-52629.477,-55220.785,-33401.082,50599.285
1227549.9106101887,-109668.336,-109097.86,-2097.7783,-32056.805,-52575.887,-55145.918,-33306.887,50699.992
1227549.914610186,-109699.79,-109124.92,-2112.3047,-32076.377,-52592.53,-55159.793,-33321.004,50676.92
1227549.918610183,-109809.734,-109235.516,-2153.1982,-32129.477,-52654.055,-55240.113,-33424.52,50551.72
1227549.9226101802,-109854.17,-109280.766,-2169.5557,-32144.41,-52680.91,-55280.926,-33474.527,50502.688
1227549.9266101774,-109764.04,-109191.29,-2137.1257,-32095.094,-52625.69,-55222.047,-33402.344,50598.27
1227549.9306101745,-109668.055,-109099.164,-2104.0447,-32053.713,-52571.168,-55153.363,-33311.402,50707.645
1227549.9346101717,-109700.85,-109132.33,-2120.402,-32076.662,-52584.8,-55169.516,-33328.33,50683.96
1227549.9386101689,-109813.6,-109241.375,-2163.33,-32129.965,-52648.4,-55251.426,-33435.14,50557.66
1227549.942610166,-109854.17,-109279.14,-2178.5483,-32146.037,-52676.23,-55288.168,-33485.758,50507.812
1227549.9466101632,-109760.016,-109188.93,-2147.3796,-32099.406,-52645.47,-55222.293,-33407.88,50604.37
1227549.9506101604,-109669.84,-109100.34,-2116.455,-32059.49,-52610.92,-55148.887,-33311.93,50707.36
1227549.9546101575,-109697.72,-109124.31,-2123.0876,-32075.236,-52623.617,-55163.414,-33323.812,50692.71
1227549.9586101547,-109810.75,-109234.945,-2168.3757,-32130.535,-52669.92,-55244.508,-33426.8,50578.29
1227549.9626101519,-109850.23,-109273.234,-2186.4014,-32146.078,-52682.293,-55280.355,-33476.24,50522.543
1227549.966610149,-109761.88,-109183.234,-2152.3438,-32098.674,-52630.78,-55219.934,-33400.84,50612.793
1227549.9706101462,-109670.17,-109091.44,-2119.4663,-32057.049,-52560.305,-55149.293,-33306.152,50721.07
1227549.9746101433,-109699.06,-109122.12,-2126.1394,-32074.26,-52579.67,-55165.57,-33319.742,50704.43
1227549.9786101405,-109809.25,-109228.56,-2173.2178,-32128.379,-52647.383,-55246.79,-33419.965,50586.1
1227549.9826101377,-109856.2,-109275.27,-2190.8774,-32147.463,-52677.168,-55284.18,-33469.08,50531.78
1227549.9866101348,-109763.836,-109186.445,-2154.2969,-32098.797,-52633.71,-55220.99,-33394.656,50620.402
1227549.990610132,-109668.016,-109093.23,-2118.978,-32053.264,-52576.742,-55147.504,-33298.79,50729.37
1227549.9946101292,-109700.08,-109122.56,-2132.1616,-32072.307,-52583.7,-55165.246,-33316.773,50702.477
1227549.9986101263,-109810.305,-109233.69,-2177.246,-32127.523,-52646.242,-55246.094,-33421.227,50580.0
1227550.0026101233,-109850.75,-109275.516,-2191.4062,-32144.816,-52675.215,-55281.617,-33469.32,50535.93
1227550.0066101204,-109759.69,-109188.195,-2151.7742,-32096.314,-52622.723,-55218.1,-33386.355,50634.81
1227550.0106101176,-109667.24,-109096.97,-2119.1406,-32056.479,-52570.8,-55146.61,-33287.723,50739.95
1227550.0146101147,-109702.84,-109133.51,-2133.0566,-32079.916,-52592.57,-55164.918,-33304.527,50713.582
1227550.018610112,-109811.57,-109239.055,-2175.9849,-32130.982,-52650.027,-55243.695,-33411.54,50586.71
1227550.022610109,-109847.86,-109271.77,-2191.6099,-32142.13,-52670.492,-55277.305,-33460.043,50535.605
1227550.0266101062,-109757.94,-109181.69,-2157.4302,-32093.508,-52625.367,-55215.414,-33384.766,50624.35
1227550.0306101034,-109670.05,-109097.945,-2119.2222,-32053.06,-52572.754,-55144.9,-33297.0,50722.168
1227550.0346101006,-109704.15,-109131.15,-2138.1023,-32075.318,-52589.684,-55166.71,-33318.484,50695.64
1227550.0386100977,-109820.44,-109245.12,-2181.7627,-32129.72,-52652.875,-55247.03,-33417.848,50581.79
1227550.0426100949,-109852.95,-109277.39,-2186.7676,-32142.58,-52670.656,-55281.047,-33468.953,50536.785
1227550.046610092,-109759.41,-109181.44,-2149.984,-32093.223,-52622.52,-55218.832,-33395.426,50628.5
1227550.0506100892,-109665.41,-109089.73,-2116.7808,-32052.37,-52574.26,-55148.6,-33301.637,50734.05
1227550.0546100864,-109702.03,-109123.17,-2132.5684,-32075.725,-52589.684,-55170.574,-33324.465,50705.61
1227550.0586100835,-109813.73,-109233.16,-2173.2178,-32127.809,-52655.52,-55250.695,-33424.848,50590.008
1227550.0626100807,-109848.88,-109264.81,-2184.7332,-32142.986,-52680.22,-55282.31,-33466.31,50546.31
1227550.0666100779,-109756.76,-109172.445,-2149.5361,-32095.582,-52628.62,-55221.76,-33395.223,50631.348
1227550.070610075,-109663.336,-109084.555,-2116.2517,-32053.102,-52574.14,-55151.53,-33307.496,50731.65
1227550.0746100722,-109698.86,-109123.21,-2127.9705,-32074.545,-52592.41,-55170.13,-33329.715,50703.168
1227550.0786100694,-109810.836,-109236.086,-2172.404,-32130.006,-52667.727,-55253.664,-33435.63,50578.41
1227550.0826100665,-109842.57,-109270.266,-2182.495,-32143.23,-52689.535,-55284.63,-33477.176,50533.49
1227550.0866100637,-109750.53,-109176.64,-2150.5535,-32096.6,-52633.75,-55223.105,-33400.96,50629.03
1227550.0906100608,-109663.86,-109092.98,-2118.6118,-32055.584,-52580.12,-55152.832,-33308.676,50721.52
1227550.094610058,-109698.37,-109129.93,-2138.2244,-32077.434,-52598.145,-55178.184,-33334.11,50685.71
1227550.0986100552,-109810.55,-109238.53,-2177.002,-32130.047,-52664.96,-55260.176,-33440.227,50574.098
1227550.1026100523,-109845.055,-109273.64,-2187.5,-32142.58,-52681.887,-55290.61,-33481.363,50538.29
1227550.1066100495,-109747.16,-109179.04,-2146.8914,-32091.879,-52629.152,-55226.402,-33403.08,50629.926
1227550.1106100467,-109664.02,-109098.68,-2111.2468,-32051.31,-52581.137,-55152.63,-33307.742,50734.824
1227550.1146100438,-109704.875,-109135.336,-2125.6104,-32073.812,-52594.28,-55173.83,-33330.242,50707.4
1227550.118610041,-109810.55,-109235.516,-2170.8984,-32130.494,-52650.105,-55261.07,-33441.203,50581.992
1227550.1226100381,-109837.2,-109261.516,-2180.7048,-32138.957,-52668.945,-55287.11,-33477.457,50543.66
1227550.1266100353,-109743.53,-109166.22,-2146.1997,-32087.81,-52617.35,-55219.973,-33392.54,50643.19
1227550.1306100325,-109657.76,-109083.21,-2115.2344,-32052.98,-52577.027,-55156.617,-33306.97,50734.54
1227550.1346100296,-109699.18,-109128.22,-2130.656,-32077.11,-52594.44,-55178.633,-33332.887,50702.477
1227550.1386100268,-109809.21,-109231.24,-2170.7764,-32128.744,-52651.004,-55260.46,-33437.258,50579.754
1227550.142610024,-109841.07,-109261.68,-2178.6704,-32139.365,-52671.51,-55289.473,-33476.727,50538.984
1227550.146610021,-109747.56,-109166.67,-2139.6892,-32088.99,-52620.605,-55220.746,-33394.86,50641.645
1227550.150610018,-109655.6,-109076.055,-2107.0964,-32047.893,-52565.758,-55150.555,-33302.207,50748.047
1227550.1546100152,-109694.625,-109116.26,-2128.296,-32072.918,-52582.848,-55175.418,-33326.215,50713.22
1227550.1586100124,-109807.58,-109228.195,-2172.404,-32128.459,-52658.043,-55254.438,-33426.676,50591.637
1227550.1626100095,-109836.96,-109255.66,-2182.9834,-32137.697,-52685.426,-55280.723,-33465.008,50551.96
1227550.1666100067,-109744.71,-109166.836,-2146.4844,-32089.193,-52628.746,-55215.21,-33385.867,50647.79
1227550.1706100039,-109656.87,-109079.555,-2109.5378,-32047.486,-52574.42,-55143.19,-33295.574,50752.973
1227550.174610001,-109698.29,-109123.414,-2127.523,-32072.43,-52593.914,-55168.094,-33321.332,50721.273
1227550.1786099982,-109811.85,-109231.81,-2173.3398,-32126.588,-52654.664,-55256.105,-33429.242,50598.43
1227550.1826099954,-109838.83,-109259.36,-2181.1523,-32136.883,-52681.316,-55286.746,-33477.254,50544.477
1227550.1866099925,-109744.71,-109163.17,-2145.2231,-32086.793,-52621.297,-55219.484,-33397.38,50648.113
1227550.1906099897,-109664.63,-109082.36,-2117.3503,-32049.643,-52555.586,-55153.28,-33307.902,50752.035
1227550.1946099869,-109706.875,-109125.82,-2133.8298,-32075.36,-52588.176,-55178.793,-33334.11,50713.258
1227550.198609984,-109820.234,-109238.24,-2172.404,-32126.71,-52655.52,-55261.273,-33439.535,50590.496
1227550.2026099812,-109849.49,-109266.85,-2182.5767,-32136.11,-52677.656,-55289.227,-33477.54,50549.44
1227550.2066099783,-109752.08,-109171.72,-2144.1245,-32085.002,-52629.152,-55222.293,-33401.207,50637.492
1227550.2106099755,-109663.78,-109087.37,-2101.1963,-32042.889,-52578.086,-55152.508,-33312.867,50731.367
1227550.2146099727,-109712.2,-109134.56,-2128.1738,-32069.947,-52601.277,-55181.97,-33344.035,50698.12
1227550.2186099698,-109826.5,-109242.44,-2174.5605,-32123.861,-52662.8,-55264.367,-33445.07,50584.35
1227550.222609967,-109852.26,-109265.22,-2180.8677,-32134.035,-52677.53,-55291.75,-33481.65,50546.1
1227550.2266099642,-109750.734,-109169.4,-2143.3105,-32080.73,-52625.043,-55224.12,-33399.78,50645.508
1227550.2306099613,-109673.71,-109094.08,-2114.2986,-32042.889,-52575.523,-55157.15,-33311.605,50740.48
1227550.2346099585,-109723.15,-109142.625,-2136.963,-32070.314,-52599.367,-55184.29,-33341.758,50684.9
1227550.2386099556,-109830.28,-109244.39,-2171.5496,-32120.77,-52660.727,-55262.94,-33446.168,50560.344
1227550.2426099528,-109861.375,-109274.21,-2181.4373,-32136.271,-52685.914,-55292.32,-33484.09,50528.523
1227550.24660995,-109758.06,-109169.766,-2147.9087,-32083.334,-52630.984,-55220.785,-33396.527,50640.83
1227550.2506099471,-109676.4,-109084.44,-2117.4724,-32045.777,-52579.67,-55155.152,-33309.57,50744.63
1227550.2546099443,-109723.516,-109131.92,-2133.6265,-32073.771,-52598.96,-55184.855,-33338.746,50709.395
1227550.2586099415,-109828.414,-109237.23,-2178.4263,-32126.588,-52658.69,-55269.004,-33444.254,50591.188
1227550.2626099386,-109851.98,-109260.54,-2186.6863,-32134.36,-52679.484,-55293.01,-33479.332,50546.43
1227550.2666099358,-109745.445,-109154.34,-2143.3105,-32077.719,-52619.71,-55217.207,-33393.27,50649.58
1227550.270609933,-109666.95,-109073.125,-2112.5083,-32041.465,-52570.355,-55151.043,-33312.215,50745.117
1227550.27460993,-109724.0,-109127.57,-2141.154,-32076.377,-52605.062,-55183.188,-33347.047,50697.227
1227550.2786099273,-109832.234,-109231.77,-2179.4434,-32127.443,-52661.297,-55266.684,-33447.105,50586.754
1227550.2826099244,-109856.33,-109257.86,-2192.0166,-32135.58,-52680.543,-55293.133,-33480.105,50559.53
1227550.2866099216,-109751.39,-109154.09,-2150.228,-32082.684,-52623.17,-55219.85,-33394.574,50658.734
1227550.2906099185,-109664.35,-109072.06,-2116.2925,-32045.736,-52571.086,-55150.11,-33305.91,50756.188
1227550.2946099157,-109705.33,-109120.04,-2129.8423,-32071.982,-52590.82,-55174.523,-33337.89,50717.207
1227550.2986099129,-109815.555,-109229.414,-2168.213,-32125.57,-52652.184,-55254.844,-33437.34,50599.12
1227550.30260991,-109848.59,-109257.94,-2178.955,-32137.29,-52673.79,-55280.6,-33474.734,50560.223
1227550.3066099072,-109755.336,-109161.016,-2144.7349,-32082.805,-52618.613,-55210.734,-33390.87,50667.645
1227550.3106099044,-109684.62,-109091.44,-2116.4146,-32046.348,-52570.883,-55146.406,-33299.4,50770.55
1227550.3146099015,-109719.0,-109129.6,-2137.085,-32076.295,-52591.066,-55179.406,-33333.66,50721.6
1227550.3186098987,-109811.12,-109221.84,-2170.858,-32127.402,-52655.926,-55261.8,-33439.656,50603.72
1227550.3226098958,-109824.95,-109237.92,-2172.6074,-32133.018,-52676.027,-55286.906,-33478.477,50570.516
1227550.326609893,-109724.66,-109142.74,-2137.899,-32081.26,-52627.24,-55218.67,-33396.04,50673.87
1227550.3306098902,-109628.586,-109053.914,-2101.237,-32038.453,-52579.43,-55153.77,-33312.34,50771.61
1227550.3346098873,-109670.17,-109102.336,-2116.0483,-32067.018,-52608.48,-55186.402,-33348.145,50726.402
1227550.3386098845,-109778.0,-109204.59,-2155.1108,-32120.607,-52664.96,-55269.98,-33454.227,50601.848
1227550.3426098817,-109793.38,-109214.73,-2155.477,-32126.426,-52678.305,-55293.336,-33487.875,50561.28
1227550.3466098788,-109689.58,-109111.66,-2122.7214,-32073.244,-52621.46,-55224.45,-33404.01,50662.883
1227550.350609876,-109596.234,-109019.45,-2089.9253,-32033.57,-52585.33,-55161.664,-33320.19,50759.848
1227550.3546098731,-109649.3,-109070.6,-2107.1777,-32062.582,-52606.12,-55190.676,-33352.62,50709.11
1227550.3586098703,-109760.91,-109178.1,-2146.8506,-32117.148,-52651.938,-55270.43,-33455.69,50594.93
1227550.3626098675,-109785.93,-109201.22,-2155.0293,-32123.414,-52668.62,-55292.645,-33489.34,50565.715
1227550.3666098646,-109684.414,-109107.836,-2118.4082,-32070.191,-52612.43,-55224.734,-33408.12,50663.21
1227550.3706098618,-109602.664,-109031.62,-2089.6404,-32035.768,-52569.54,-55162.598,-33326.09,50753.95
1227550.374609859,-109655.12,-109083.336,-2111.776,-32067.303,-52597.496,-55192.14,-33354.574,50714.234
1227550.3786098561,-109770.59,-109194.09,-2154.6226,-32120.484,-52656.7,-55274.78,-33454.227,50590.863
1227550.3826098533,-109793.13,-109216.555,-2159.953,-32126.67,-52675.945,-55297.16,-33488.242,50553.426
1227550.3866098505,-109688.73,-109113.53,-2118.6523,-32072.756,-52623.78,-55223.31,-33401.246,50660.44
1227550.3906098476,-109609.26,-109034.266,-2088.8672,-32037.273,-52580.445,-55158.773,-33311.402,50761.965
1227550.3946098448,-109667.04,-109087.28,-2114.1765,-32067.791,-52606.04,-55193.77,-33346.19,50721.152
1227550.398609842,-109778.28,-109198.57,-2155.2734,-32121.867,-52671.67,-55276.855,-33450.887,50603.438
1227550.402609839,-109793.74,-109215.664,-2156.25,-32125.285,-52676.11,-55299.93,-33485.19,50567.87
1227550.4066098363,-109692.06,-109118.29,-2119.9138,-32072.633,-52600.71,-55230.188,-33399.09,50671.67
1227550.4106098334,-109612.555,-109038.21,-2086.5073,-32037.436,-52557.008,-55163.21,-33313.68,50765.79
1227550.4146098306,-109663.984,-109087.94,-2105.062,-32067.547,-52597.13,-55193.32,-33345.62,50716.72
1227550.4186098278,-109779.75,-109201.99,-2148.397,-32124.797,-52669.883,-55277.14,-33451.703,50596.64
1227550.422609825,-109799.97,-109221.97,-2154.663,-32129.477,-52684.082,-55297.203,-33484.09,50566.285
1227550.426609822,-109692.55,-109114.75,-2115.56,-32073.08,-52627.08,-55222.453,-33387.41,50678.67
1227550.4306098192,-109614.71,-109035.81,-2089.8845,-32038.25,-52578.25,-55160.85,-33305.625,50764.73
1227550.4346098162,-109673.875,-109093.71,-2112.7524,-32071.818,-52602.785,-55195.438,-33352.5,50702.07
1227550.4386098133,-109786.22,-109205.2,-2156.4128,-32124.188,-52667.727,-55276.164,-33456.3,50587.89
1227550.4426098105,-109801.88,-109225.14,-2159.5867,-32128.42,-52678.47,-55292.848,-33482.3,50568.156
1227550.4466098077,-109694.09,-109119.836,-2117.7979,-32075.156,-52625.164,-55220.38,-33393.637,50680.707
1227550.4506098048,-109620.484,-109046.72,-2086.2632,-32041.994,-52581.91,-55155.926,-33310.996,50770.67
1227550.454609802,-109675.945,-109101.445,-2108.1543,-32073.732,-52608.81,-55193.848,-33352.254,50716.797
1227550.4586097992,-109785.08,-109205.04,-2149.943,-32126.547,-52668.54,-55280.195,-33458.66,50600.465
1227550.4626097963,-109800.74,-109217.98,-2152.588,-32127.076,-52679.61,-55300.133,-33489.664,50569.62
1227550.4666097935,-109692.38,-109111.58,-2114.624,-32072.389,-52623.617,-55228.07,-33406.94,50669.312
1227550.4706097906,-109614.625,-109037.03,-2086.2224,-32038.494,-52586.793,-55164.227,-33323.61,50765.22
1227550.4746097878,-109669.03,-109089.52,-2101.4,-32070.803,-52614.016,-55197.023,-33360.555,50717.695
1227550.478609785,-109778.734,-109199.67,-2146.1182,-32123.049,-52674.113,-55278.81,-33462.688,50594.973
1227550.4826097821,-109794.48,-109217.53,-2151.2046,-32126.914,-52686.973,-55296.957,-33490.234,50563.56
1227550.4866097793,-109689.21,-109113.2,-2112.0605,-32072.023,-52631.105,-55223.227,-33399.617,50668.215
1227550.4906097765,-109612.8,-109036.09,-2084.3914,-32037.395,-52585.37,-55161.46,-33315.31,50760.664
1227550.4946097736,-109671.836,-109096.36,-2107.4219,-32073.732,-52609.297,-55197.188,-33352.906,50709.434
1227550.4986097708,-109789.02,-109210.086,-2148.519,-32130.576,-52670.535,-55275.96,-33456.504,50589.113
1227550.502609768,-109802.33,-109226.32,-2155.477,-32131.105,-52682.457,-55291.832,-33484.254,50569.38
1227550.506609765,-109693.69,-109122.52,-2113.607,-32076.05,-52626.547,-55220.582,-33393.92,50673.34
1227550.5106097623,-109617.6,-109049.89,-2082.072,-32042.97,-52581.83,-55159.996,-33307.742,50764.812
1227550.5146097594,-109677.05,-109109.74,-2109.1716,-32076.783,-52608.4,-55196.7,-33345.746,50716.72
1227550.5186097566,-109791.1,-109219.93,-2155.6804,-32131.389,-52675.254,-55279.83,-33454.062,50595.543
1227550.5226097538,-109804.94,-109229.17,-2159.3425,-32134.482,-52688.64,-55296.918,-33481.977,50572.836
1227550.526609751,-109701.99,-109124.19,-2123.698,-32077.395,-52630.82,-55224.164,-33396.08,50682.863
1227550.530609748,-109626.51,-109055.305,-2095.2556,-32043.092,-52593.344,-55165.855,-33317.426,50764.85
1227550.5346097453,-109685.8,-109116.58,-2120.402,-32079.225,-52624.15,-55203.41,-33359.457,50707.113
1227550.5386097424,-109792.24,-109222.5,-2162.9639,-32132.406,-52681.234,-55286.62,-33465.902,50591.023
1227550.5426097396,-109805.99,-109238.98,-2168.579,-32133.75,-52694.46,-55302.207,-33493.57,50564.496
1227550.5466097367,-109703.125,-109139.04,-2132.65,-32079.713,-52638.594,-55225.547,-33398.723,50666.668
1227550.550609734,-109636.234,-109070.68,-2105.4282,-32047.201,-52593.914,-55163.25,-33314.414,50755.7
1227550.554609731,-109689.66,-109113.94,-2127.1567,-32077.883,-52621.094,-55202.8,-33362.184,50696.94
1227550.5586097282,-109793.83,-109214.56,-2168.742,-32128.176,-52680.992,-55287.844,-33472.453,50579.793
1227550.5626097254,-109813.195,-109231.164,-2170.8984,-32129.436,-52688.438,-55305.22,-33502.36,50562.01
1227550.5666097226,-109718.1,-109139.9,-2133.2195,-32077.395,-52632.734,-55230.594,-33408.246,50679.77
1227550.5706097197,-109650.44,-109074.016,-2108.9275,-32044.23,-52587.73,-55167.523,-33319.742,50775.23
1227550.574609717,-109713.914,-109139.125,-2129.2725,-32079.348,-52618.367,-55202.637,-33357.383,50732.91
1227550.5786097138,-109826.5,-109249.31,-2175.8628,-32131.797,-52682.617,-55285.28,-33459.027,50624.35
1227550.582609711,-109828.33,-109250.05,-2175.4558,-32129.07,-52685.1,-55299.48,-33472.74,50615.4
1227550.5866097081,-109720.46,-109142.54,-2132.243,-32074.424,-52624.066,-55225.18,-33383.06,50718.75
1227550.5906097053,-109647.22,-109069.7,-2114.3394,-32044.395,-52586.223,-55165.652,-33305.707,50807.254
1227550.5946097025,-109707.28,-109132.77,-2137.1665,-32080.324,-52618.29,-55200.562,-33342.33,50750.367
1227550.5986096996,-109822.47,-109241.5,-2177.002,-32134.318,-52671.55,-55279.46,-33446.207,50628.46
1227550.6026096968,-109833.336,-109252.57,-2181.071,-32133.262,-52674.805,-55291.586,-33472.25,50603.844
1227550.606609694,-109729.01,-109153.52,-2146.281,-32080.04,-52619.67,-55217.207,-33384.766,50706.91
1227550.6106096911,-109657.64,-109088.625,-2119.3442,-32049.602,-52580.527,-55159.18,-33306.4,50801.11
1227550.6146096883,-109718.47,-109150.27,-2141.0728,-32085.207,-52615.03,-55201.742,-33353.19,50751.668
1227550.6186096855,-109826.87,-109253.79,-2177.0835,-32137.086,-52679.12,-55280.805,-33454.55,50628.176
1227550.6226096826,-109834.35,-109254.6,-2177.4902,-32136.72,-52686.16,-55293.215,-33473.39,50611.695
1227550.6266096798,-109722.984,-109144.86,-2138.3872,-32079.348,-52622.152,-55216.27,-33379.152,50725.426
1227550.630609677,-109652.39,-109078.33,-2109.8633,-32048.016,-52579.793,-55161.99,-33311.605,50795.82
1227550.634609674,-109716.555,-109141.4,-2138.021,-32083.863,-52614.42,-55200.645,-33358.035,50739.992
1227550.6386096713,-109823.9,-109247.64,-2177.531,-32133.668,-52674.93,-55280.195,-33456.91,50628.99
1227550.6426096684,-109834.31,-109260.38,-2179.6062,-32134.482,-52689.656,-55296.55,-33480.797,50611.453
1227550.6466096656,-109728.766,-109158.77,-2140.9912,-32079.55,-52628.34,-55219.2,-33387.94,50725.3
1227550.6506096628,-109658.125,-109092.086,-2115.8855,-32047.975,-52586.996,-55160.688,-33309.652,50811.28
1227550.65460966,-109725.586,-109159.266,-2138.2651,-32086.752,-52622.844,-55202.76,-33356.773,50742.066
1227550.658609657,-109837.33,-109265.83,-2180.542,-32138.43,-52689.984,-55282.35,-33458.58,50625.613
1227550.6626096542,-109844.04,-109268.4,-2181.7222,-32134.562,-52686.85,-55291.87,-33479.25,50618.29
1227550.6666096514,-109733.85,-109158.164,-2140.9507,-32078.086,-52626.508,-55218.1,-33387.492,50728.68
1227550.6706096486,-109666.016,-109092.66,-2118.0015,-32049.195,-52591.31,-55161.38,-33311.77,50803.145
1227550.6746096457,-109738.61,-109161.95,-2144.6128,-32089.357,-52633.223,-55206.75,-33360.027,50733.156
1227550.678609643,-109846.16,-109265.51,-2184.6519,-32141.887,-52706.83,-55289.473,-33461.387,50609.99
1227550.68260964,-109852.18,-109272.51,-2184.2856,-32138.836,-52702.72,-55298.707,-33481.812,50589.64
1227550.6866096372,-109737.875,-109157.8,-2147.1355,-32080.363,-52628.094,-55220.297,-33386.68,50708.945
1227550.6906096344,-109669.44,-109092.25,-2119.995,-32049.602,-52595.99,-55166.26,-33313.07,50793.99
1227550.6946096316,-109739.95,-109160.36,-2142.1714,-32087.281,-52630.25,-55209.23,-33365.848,50727.297
1227550.6986096287,-109852.18,-109273.85,-2184.6924,-32140.26,-52691.203,-55291.098,-33467.977,50610.68
1227550.7026096259,-109852.87,-109277.51,-2189.6973,-32138.307,-52696.98,-55303.305,-33486.207,50600.3
1227550.706609623,-109740.03,-109167.484,-2146.3623,-32079.754,-52636.07,-55226.36,-33390.79,50711.59
1227550.7106096202,-109673.22,-109098.8,-2120.1172,-32051.352,-52592.9,-55168.906,-33313.805,50790.04
1227550.7146096174,-109740.16,-109165.0,-2146.9727,-32087.648,-52619.793,-55209.758,-33361.53,50727.867
1227550.7186096145,-109848.72,-109264.2,-2185.1401,-32139.04,-52680.867,-55288.984,-33463.582,50615.156
1227550.7226096115,-109851.04,-109262.375,-2181.2744,-32134.074,-52690.676,-55299.523,-33485.19,50600.914
1227550.7266096086,-109742.64,-109151.05,-2141.317,-32077.19,-52631.31,-55222.453,-33395.47,50717.0
1227550.7306096058,-109677.33,-109088.18,-2113.8916,-32050.01,-52592.734,-55167.48,-33322.918,50795.74
1227550.734609603,-109746.99,-109155.12,-2140.1775,-32088.584,-52630.86,-55210.734,-33371.22,50729.207
1227550.7386096,-109857.22,-109256.72,-2181.5186,-32143.434,-52694.297,-55293.664,-33477.785,50608.97
1227550.7426095973,-109858.08,-109254.44,-2176.1882,-32136.191,-52693.402,-55296.227,-33488.484,50606.12
1227550.7466095944,-109747.89,-109144.375,-2134.3994,-32075.645,-52630.574,-55214.48,-33390.34,50725.953
1227550.7506095916,-109680.38,-109080.53,-2112.5083,-32049.113,-52596.477,-55161.906,-33316.12,50806.234
1227550.7546095888,-109741.09,-109144.125,-2136.2305,-32088.055,-52635.5,-55208.375,-33368.855,50741.457
1227550.758609586,-109838.34,-109240.85,-2172.689,-32134.889,-52687.543,-55289.39,-33469.973,50626.465
1227550.762609583,-109837.41,-109241.414,-2169.1082,-32128.988,-52689.414,-55298.383,-33486.613,50617.8
1227550.7666095803,-109724.25,-109126.23,-2127.5635,-32070.477,-52628.703,-55220.176,-33388.387,50736.777
1227550.7706095774,-109659.1,-109063.805,-2105.3467,-32044.068,-52585.613,-55166.586,-33308.88,50816.12
1227550.7746095746,-109727.336,-109133.586,-2132.4058,-32083.537,-52628.133,-55207.97,-33358.24,50754.316
1227550.7786095717,-109838.51,-109242.39,-2178.6296,-32138.145,-52681.4,-55289.023,-33462.2,50635.742
1227550.782609569,-109839.766,-109246.42,-2179.525,-32134.93,-52694.215,-55299.523,-33478.477,50624.15
1227550.786609566,-109723.72,-109135.055,-2135.8643,-32074.22,-52645.71,-55217.125,-33379.68,50744.996
1227550.7906095632,-109659.51,-109073.37,-2114.0544,-32048.91,-52603.477,-55167.2,-33308.066,50815.023
1227550.7946095604,-109725.586,-109138.266,-2138.4277,-32084.84,-52633.668,-55213.79,-33364.098,50737.02
1227550.7986095576,-109832.03,-109242.07,-2176.2695,-32133.465,-52715.78,-55290.977,-33464.113,50625.734
1227550.8026095547,-109836.02,-109242.555,-2179.8096,-32132.203,-52711.875,-55298.87,-33479.207,50615.52
1227550.806609552,-109721.52,-109131.48,-2141.7644,-32073.203,-52629.03,-55220.215,-33385.457,50730.88
1227550.810609549,-109653.65,-109065.02,-2118.3677,-32043.174,-52594.28,-55169.07,-33313.76,50814.902
1227550.8146095462,-109728.4,-109136.68,-2143.9617,-32082.56,-52631.105,-55211.348,-33363.2,50749.227
1227550.8186095434,-109837.69,-109237.23,-2184.3262,-32135.256,-52690.35,-55290.734,-33461.062,50641.684
1227550.8226095405,-109839.195,-109236.21,-2187.1746,-32133.547,-52702.273,-55298.016,-33474.855,50629.844
1227550.8266095377,-109722.82,-109121.14,-2145.2231,-32074.057,-52631.062,-55217.652,-33377.77,50751.26
1227550.8306095349,-109656.25,-109056.36,-2116.4146,-32043.621,-52581.504,-55165.773,-33305.176,50839.195
1227550.834609532,-109732.586,-109130.984,-2146.566,-32083.213,-52624.15,-55214.52,-33359.66,50769.574
1227550.8386095292,-109843.19,-109237.836,-2183.2683,-32134.36,-52688.68,-55291.383,-33457.113,50658.367
1227550.8426095264,-109840.945,-109228.48,-2178.711,-32127.646,-52694.46,-55296.43,-33470.95,50641.36
1227550.8466095235,-109725.266,-109113.85,-2134.481,-32068.93,-52627.484,-55216.31,-33376.63,50754.438
1227550.8506095207,-109664.48,-109052.62,-2113.851,-32042.727,-52590.617,-55167.277,-33309.164,50828.98
1227550.8546095178,-109741.055,-109126.75,-2141.439,-32083.904,-52625.41,-55215.293,-33363.484,50754.844
1227550.858609515,-109845.22,-109225.34,-2177.0835,-32132.732,-52691.285,-55294.07,-33461.996,50639.61
1227550.8626095122,-109845.42,-109220.7,-2179.769,-32127.564,-52695.844,-55299.035,-33477.824,50633.547
1227550.866609509,-109726.766,-109106.695,-2138.2651,-32064.861,-52633.71,-55218.223,-33380.008,50750.164
1227550.8706095063,-109667.04,-109053.1,-2116.6587,-32042.074,-52595.99,-55169.598,-33312.258,50823.445
1227550.8746095034,-109742.555,-109131.76,-2144.1245,-32085.287,-52636.355,-55216.23,-33370.934,50751.59
1227550.8786095006,-109846.36,-109230.43,-2187.7441,-32135.744,-52691.082,-55298.06,-33475.953,50638.55
1227550.8826094978,-109838.34,-109220.83,-2182.9834,-32128.379,-52698.0,-55301.637,-33486.043,50640.83
1227550.886609495,-109721.12,-109104.66,-2134.2368,-32064.861,-52637.37,-55217.734,-33384.562,50758.63
1227550.890609492,-109660.04,-109046.72,-2114.5427,-32041.465,-52599.246,-55169.965,-33316.53,50823.812
1227550.8946094892,-109738.85,-109124.76,-2143.6362,-32089.438,-52634.2,-55221.844,-33373.414,50749.715
1227550.8986094864,-109848.31,-109234.58,-2185.4248,-32138.836,-52691.33,-55301.598,-33474.773,50638.67
1227550.9026094836,-109843.305,-109234.945,-2179.24,-32131.47,-52702.11,-55303.754,-33485.8,50639.73
1227550.9066094807,-109721.56,-109115.234,-2135.1726,-32073.406,-52638.594,-55223.27,-33389.363,50759.2
1227550.910609478,-109659.59,-109055.055,-2116.3738,-32048.098,-52594.85,-55172.773,-33319.664,50824.953
1227550.914609475,-109735.195,-109124.516,-2137.614,-32083.62,-52635.133,-55218.305,-33373.453,50761.434
1227550.9186094722,-109840.62,-109222.5,-2174.4385,-32128.744,-52691.406,-55299.156,-33473.023,50650.23
1227550.9226094694,-109836.305,-109219.69,-2172.2007,-32120.77,-52694.336,-55308.72,-33486.207,50645.47
1227550.9266094666,-109726.484,-109112.59,-2134.196,-32064.658,-52621.83,-55231.04,-33394.33,50755.37
1227550.9306094637,-109667.445,-109052.9,-2110.3516,-32037.232,-52583.7,-55176.35,-33320.56,50835.164
1227550.9346094609,-109728.44,-109116.055,-2134.725,-32080.16,-52624.797,-55225.668,-33378.543,50758.426
1227550.938609458,-109813.84,-109206.95,-2168.0095,-32128.785,-52687.46,-55305.42,-33480.387,50643.84
1227550.9426094552,-109800.78,-109194.7,-2158.1626,-32114.87,-52676.066,-55306.234,-33486.33,50652.547
1227550.9466094524,-109679.125,-109074.99,-2113.851,-32054.934,-52611.168,-55225.098,-33384.035,50774.293
1227550.9506094495,-109616.21,-109010.87,-2094.808,-32030.844,-52582.03,-55177.246,-33317.832,50847.414
1227550.9546094467,-109691.2,-109081.99,-2129.354,-32075.4,-52623.047,-55230.43,-33378.746,50770.508
1227550.9586094439,-109793.46,-109184.94,-2165.1611,-32124.92,-52683.555,-55311.035,-33484.05,50646.04
1227550.962609441,-109782.68,-109173.79,-2154.2156,-32115.805,-52689.25,-55310.754,-33494.793,50648.848
1227550.9666094382,-109660.98,-109057.17,-2115.031,-32055.99,-52621.297,-55227.38,-33392.008,50770.305
1227550.9706094353,-109598.31,-108994.836,-2095.2148,-32032.432,-52585.29,-55178.508,-33321.332,50844.363
1227550.9746094325,-109673.875,-109067.06,-2121.46,-32077.719,-52619.305,-55229.777,-33380.984,50767.78
1227550.9786094297,-109775.555,-109164.516,-2157.064,-32126.588,-52677.53,-55307.617,-33481.527,50643.637
1227550.9826094268,-109769.984,-109156.984,-2152.5066,-32115.154,-52682.742,-55308.23,-33492.473,50637.98
1227550.986609424,-109660.52,-109051.76,-2109.9448,-32055.95,-52626.914,-55224.652,-33391.4,50759.277
1227550.9906094212,-109602.99,-108996.664,-2093.2212,-32031.943,-52591.637,-55177.86,-33325.44,50832.03
1227550.9946094183,-109687.14,-109082.234,-2128.5808,-32081.79,-52633.953,-55233.887,-33386.598,50753.543
1227550.9986094155,-109800.46,-109194.95,-2168.8232,-32134.768,-52696.168,-55315.594,-33490.277,50635.133
1227551.0026094127,-109788.17,-109179.734,-2163.1267,-32124.676,-52695.76,-55314.78,-33493.816,50643.27
1227551.0066094098,-109672.9,-109061.0,-2117.7573,-32064.25,-52630.168,-55229.777,-33392.984,50765.42
1227551.0106094067,-109610.64,-109002.61,-2094.8486,-32037.6,-52590.457,-55177.777,-33324.344,50833.58
1227551.014609404,-109692.95,-109082.69,-2121.2158,-32082.887,-52636.516,-55232.504,-33384.727,50752.688
1227551.018609401,-109801.84,-109186.445,-2159.953,-32133.262,-52695.07,-55313.477,-33487.508,50639.363
1227551.0226093982,-109783.29,-109170.945,-2149.5361,-32116.984,-52681.562,-55307.78,-33489.87,50643.066
1227551.0266093954,-109663.17,-109055.75,-2111.2876,-32059.367,-52619.996,-55224.45,-33386.68,50770.55
1227551.0306093926,-109614.51,-109002.16,-2096.4355,-32041.18,-52590.375,-55180.95,-33319.703,50847.496
1227551.0346093897,-109696.01,-109078.21,-2121.1345,-32083.822,-52630.78,-55233.523,-33379.395,50777.426
1227551.038609387,-109801.31,-109179.37,-2159.1392,-32132.0,-52691.895,-55311.934,-33481.082,50651.004
1227551.042609384,-109787.93,-109168.79,-2159.2612,-32121.34,-52692.02,-55309.004,-33485.883,50644.29
1227551.0466093812,-109670.984,-109059.164,-2114.0137,-32063.03,-52630.293,-55227.133,-33382.285,50762.695
1227551.0506093784,-109617.96,-109005.3,-2096.7205,-32040.365,-52596.273,-55179.812,-33313.56,50830.73
1227551.0546093755,-109707.805,-109094.32,-2129.476,-32084.719,-52641.035,-55231.812,-33380.168,50750.773
1227551.0586093727,-109818.85,-109202.27,-2168.6199,-32137.168,-52702.598,-55309.53,-33481.285,50639.773
1227551.0626093699,-109805.586,-109187.664,-2161.9873,-32124.594,-52695.598,-55303.633,-33477.133,50652.06
1227551.066609367,-109687.75,-109074.95,-2118.4082,-32063.479,-52620.242,-55220.95,-33375.69,50776.9
1227551.0706093642,-109630.375,-109019.21,-2095.0115,-32039.756,-52593.547,-55175.01,-33313.355,50839.723
1227551.0746093614,-109709.72,-109099.98,-2122.9656,-32083.986,-52640.06,-55227.746,-33374.31,50764.527
1227551.0786093585,-109807.54,-109195.766,-2162.2722,-32130.494,-52701.742,-55305.543,-33472.535,50654.055
1227551.0826093557,-109790.2,-109179.24,-2151.4893,-32114.748,-52696.617,-55306.562,-33479.695,50657.023
1227551.0866093528,-109675.375,-109064.58,-2107.3406,-32055.502,-52631.105,-55225.996,-33379.883,50781.414
1227551.09060935,-109627.484,-109018.35,-2090.4136,-32036.988,-52596.805,-55181.6,-33320.64,50845.703
1227551.0946093472,-109709.96,-109098.48,-2117.6758,-32082.316,-52639.773,-55234.336,-33383.22,50768.758
1227551.0986093443,-109806.4,-109190.76,-2149.3328,-32123.984,-52695.8,-55305.42,-33476.117,50662.883
1227551.1026093415,-109789.72,-109174.28,-2146.0369,-32109.66,-52691.45,-55304.08,-33481.61,50661.418
1227551.1066093387,-109677.414,-109063.27,-2109.2124,-32054.648,-52635.664,-55227.824,-33389.04,50768.965
1227551.1106093358,-109626.51,-109011.92,-2086.6294,-32033.367,-52603.19,-55181.562,-33322.594,50836.14
1227551.114609333,-109708.74,-109098.88,-2116.6587,-32080.771,-52646.242,-55235.434,-33383.06,50763.145
1227551.1186093302,-109804.69,-109195.195,-2154.419,-32128.459,-52704.227,-55309.938,-33478.23,50655.64
1227551.1226093273,-109786.99,-109177.086,-2146.8506,-32113.527,-52687.95,-55302.9,-33476.688,50662.598
1227551.1266093245,-109668.54,-109061.2,-2106.364,-32052.572,-52614.42,-55222.414,-33375.406,50783.285
1227551.1306093216,-109612.8,-109007.9,-2083.2114,-32030.031,-52576.863,-55176.84,-33309.977,50853.926
1227551.1346093188,-109696.7,-109092.77,-2116.6587,-32075.889,-52621.094,-55232.504,-33375.0,50779.297
1227551.138609316,-109804.33,-109196.05,-2154.0122,-32125.246,-52701.297,-55311.117,-33480.184,50658.406
1227551.1426093131,-109783.37,-109177.82,-2146.6064,-32108.115,-52705.12,-55304.406,-33475.547,50670.492
1227551.1466093103,-109658.45,-109056.08,-2103.7598,-32046.55,-52645.305,-55220.703,-33374.758,50799.195
1227551.1506093072,-109608.195,-109005.375,-2087.0361,-32027.102,-52599.53,-55175.78,-33311.523,50865.805
1227551.1546093044,-109693.16,-109090.26,-2116.455,-32072.836,-52625.164,-55232.707,-33375.406,50787.312
1227551.1586093016,-109795.05,-109187.586,-2152.5474,-32121.623,-52695.76,-55312.5,-33477.133,50668.5
1227551.1626092987,-109776.37,-109158.734,-2144.5312,-32104.86,-52695.965,-55304.324,-33476.277,50675.375
1227551.1666092959,-109659.266,-109039.63,-2099.2432,-32042.889,-52630.902,-55217.816,-33372.723,50801.11
1227551.170609293,-109608.85,-108993.37,-2086.1003,-32024.375,-52600.465,-55176.35,-33312.867,50862.387
1227551.1746092902,-109695.56,-109078.33,-2119.995,-32073.203,-52643.92,-55235.19,-33379.234,50782.35
1227551.1786092874,-109791.836,-109177.9,-2156.128,-32118.572,-52695.273,-55308.88,-33471.805,50680.38
1227551.1826092845,-109767.7,-109152.59,-2141.6423,-32098.43,-52666.504,-55297.934,-33468.793,50696.25
1227551.1866092817,-109654.016,-109041.06,-2104.37,-32039.348,-52593.71,-55218.06,-33370.65,50812.34
1227551.1906092789,-109603.27,-108991.3,-2085.7341,-32020.63,-52574.098,-55175.375,-33309.285,50875.734
1227551.194609276,-109691.82,-109073.37,-2116.333,-32069.053,-52629.152,-55230.797,-33370.89,50794.355
1227551.1986092732,-109798.18,-109171.23,-2153.6052,-32120.566,-52690.633,-55306.03,-33467.33,50683.15
1227551.2026092703,-109773.85,-109150.76,-2144.0837,-32103.354,-52688.03,-55296.184,-33465.25,50695.312
1227551.2066092675,-109655.03,-109036.664,-2103.7192,-32041.871,-52617.23,-55214.805,-33371.137,50802.98
1227551.2106092647,-109607.625,-108991.91,-2086.0596,-32021.81,-52582.684,-55172.812,-33314.902,50854.777
1227551.2146092618,-109699.875,-109082.69,-2123.9014,-32072.062,-52638.227,-55235.434,-33386.883,50770.02
1227551.218609259,-109806.4,-109186.41,-2164.5508,-32119.63,-52701.215,-55315.066,-33487.184,50661.906
1227551.2226092562,-109785.36,-109163.336,-2150.4722,-32100.262,-52689.863,-55304.242,-33483.6,50678.02
1227551.2266092533,-109662.766,-109037.84,-2108.2764,-32037.6,-52618.574,-55220.38,-33381.676,50802.043
1227551.2306092505,-109611.125,-108985.07,-2088.8267,-32018.475,-52587.324,-55176.23,-33318.81,50870.81
1227551.2346092477,-109697.63,-109074.75,-2123.8608,-32069.133,-52636.92,-55233.645,-33383.547,50788.496
1227551.2386092448,-109794.516,-109173.51,-2161.621,-32118.734,-52697.55,-55309.45,-33479.617,50678.633
1227551.242609242,-109770.76,-109147.18,-2148.7224,-32099.57,-52687.625,-55299.887,-33475.098,50697.918
1227551.2466092391,-109648.44,-109027.836,-2109.66,-32038.78,-52621.34,-55216.31,-33374.066,50820.965
1227551.2506092363,-109601.2,-108982.625,-2092.3667,-32020.102,-52590.984,-55173.992,-33317.75,50876.02
1227551.2546092335,-109694.18,-109069.3,-2125.692,-32071.86,-52647.746,-55234.54,-33388.145,50789.754
1227551.2586092306,-109798.34,-109167.85,-2158.8542,-32119.508,-52708.21,-55310.832,-33486.574,50681.113
1227551.2626092278,-109771.164,-109135.625,-2147.2576,-32099.936,-52696.086,-55301.11,-33477.457,50704.59
1227551.266609225,-109648.16,-109016.484,-2113.1592,-32038.494,-52621.016,-55221.723,-33375.45,50828.086
1227551.2706092221,-109603.64,-108973.836,-2089.1113,-32019.248,-52590.457,-55179.445,-33320.477,50880.902
1227551.2746092193,-109692.38,-109059.94,-2117.5537,-32067.465,-52641.93,-55233.48,-33383.465,50794.76
1227551.2786092164,-109793.54,-109160.61,-2156.9824,-32116.904,-52712.242,-55309.53,-33484.78,50674.316
1227551.2826092136,-109771.33,-109139.41,-2150.106,-32099.447,-52698.527,-55297.406,-33478.19,50693.117
1227551.2866092108,-109652.63,-109021.65,-2106.893,-32037.844,-52629.03,-55215.54,-33376.223,50819.95
1227551.290609208,-109611.086,-108980.88,-2093.4653,-32023.154,-52593.426,-55177.734,-33318.156,50879.844
1227551.2946092049,-109705.85,-109073.94,-2127.116,-32073.854,-52638.387,-55238.324,-33386.312,50788.902
1227551.298609202,-109802.695,-109172.53,-2159.5867,-32119.508,-52697.348,-55311.566,-33482.06,50678.426
1227551.3026091992,-109772.305,-109142.336,-2148.2341,-32096.6,-52692.344,-55296.715,-33474.773,50696.94
1227551.3066091964,-109659.47,-109028.89,-2109.0903,-32038.9,-52630.25,-55213.867,-33372.477,50816.12
1227551.3106091935,-109619.8,-108988.33,-2096.1914,-32024.13,-52601.156,-55175.254,-33319.785,50869.996
1227551.3146091907,-109714.84,-109081.99,-2131.6326,-32075.156,-52652.344,-55238.73,-33389.73,50787.234
1227551.3186091878,-109813.4,-109177.125,-2166.5447,-32120.607,-52706.707,-55314.82,-33486.29,50675.703
1227551.322609185,-109781.13,-109143.44,-2149.292,-32098.309,-52692.508,-55298.586,-33479.25,50690.758
1227551.3266091822,-109655.12,-109016.65,-2105.9165,-32035.361,-52625.082,-55210.613,-33374.797,50818.117
1227551.3306091793,-109615.89,-108979.49,-2094.0757,-32022.178,-52597.94,-55175.05,-33321.902,50871.785
1227551.3346091765,-109707.65,-109071.086,-2124.8374,-32070.803,-52645.957,-55235.395,-33392.863,50784.75
1227551.3386091737,-109805.26,-109168.54,-2156.4536,-32116.781,-52703.004,-55308.8,-33488.934,50680.867
1227551.3426091708,-109775.68,-109138.836,-2144.45,-32096.03,-52692.305,-55296.062,-33476.2,50701.05
1227551.346609168,-109656.58,-109024.17,-2103.3936,-32037.436,-52630.13,-55213.79,-33375.53,50819.46
1227551.3506091652,-109614.75,-108982.18,-2086.6294,-32020.957,-52602.824,-55175.824,-33323.61,50873.008
1227551.3546091623,-109713.664,-109072.555,-2126.3022,-32074.383,-52653.445,-55238.73,-33395.145,50783.816
1227551.3586091595,-109812.26,-109166.55,-2164.795,-32120.158,-52707.44,-55314.293,-33490.113,50675.375
1227551.3626091566,-109778.2,-109135.586,-2152.6694,-32098.594,-52694.785,-55301.68,-33485.92,50688.926
1227551.3666091538,-109657.15,-109016.805,-2109.4158,-32035.158,-52625.164,-55213.83,-33384.402,50811.81
1227551.370609151,-109616.21,-108977.74,-2092.4888,-32020.021,-52599.45,-55175.66,-33330.566,50870.77
1227551.3746091481,-109708.42,-109068.32,-2123.7793,-32072.307,-52644.98,-55235.477,-33394.41,50790.977
1227551.3786091453,-109809.414,-109167.24,-2157.0232,-32119.102,-52706.625,-55308.72,-33486.98,50688.273
1227551.3826091425,-109778.24,-109128.22,-2142.2527,-32093.873,-52688.6,-55292.97,-33473.797,50709.72
1227551.3866091396,-109651.78,-109005.01,-2095.988,-32031.414,-52614.586,-55208.54,-33375.895,50826.01
1227551.3906091368,-109611.21,-108967.94,-2083.6182,-32019.736,-52605.184,-55174.316,-33321.82,50875.652
1227551.394609134,-109705.0,-109060.34,-2112.1826,-32068.645,-52658.0,-55233.523,-33386.76,50789.062
1227551.398609131,-109796.35,-109151.78,-2142.4968,-32112.307,-52703.33,-55305.625,-33481.73,50686.65
1227551.4026091283,-109756.43,-109114.38,-2133.8706,-32088.502,-52690.105,-55293.785,-33475.016,50709.72
1227551.4066091254,-109634.08,-108990.93,-2090.2915,-32027.06,-52618.29,-55209.19,-33369.02,50834.92
1227551.4106091226,-109595.22,-108954.35,-2077.7183,-32013.104,-52590.008,-55173.668,-33316.12,50890.992
1227551.4146091198,-109695.07,-109051.68,-2115.1123,-32066.203,-52641.684,-55236.086,-33389.08,50805.016
1227551.418609117,-109797.81,-109149.26,-2154.5818,-32115.52,-52699.26,-55308.88,-33482.547,50697.957
1227551.422609114,-109765.67,-109116.46,-2140.2996,-32091.96,-52681.844,-55291.383,-33469.363,50716.676
1227551.4266091113,-109645.02,-108994.836,-2098.877,-32028.484,-52615.36,-55207.684,-33370.363,50840.21
1227551.4306091084,-109617.6,-108968.67,-2090.0066,-32018.23,-52596.52,-55173.586,-33324.18,50885.703
1227551.4346091056,-109708.26,-109062.055,-2120.4834,-32067.629,-52647.543,-55235.027,-33397.83,50790.812
1227551.4386091025,-109796.516,-109146.37,-2150.9604,-32110.068,-52699.91,-55310.387,-33495.363,50674.277
1227551.4426090997,-109773.44,-109124.39,-2144.7349,-32089.846,-52689.25,-55295.37,-33487.793,50699.504
1227551.4466090968,-109653.69,-109015.22,-2104.4517,-32030.723,-52627.645,-55210.45,-33385.38,50823.73
1227551.450609094,-109623.375,-108985.68,-2090.332,-32020.793,-52606.934,-55178.02,-33339.152,50866.375
1227551.4546090912,-109716.27,-109076.3,-2124.2676,-32071.982,-52659.344,-55242.23,-33418.297,50761.883
1227551.4586090883,-109812.7,-109170.9,-2160.319,-32117.758,-52711.957,-55315.594,-33511.355,50656.74
1227551.4626090855,-109779.016,-109132.86,-2145.0603,-32092.814,-52694.05,-55295.535,-33491.09,50687.094
1227551.4666090827,-109663.21,-109018.27,-2106.486,-32033.57,-52630.656,-55214.113,-33389.324,50808.676
1227551.4706090798,-109635.586,-108990.16,-2099.7722,-32025.107,-52608.645,-55182.008,-33341.227,50860.35
1227551.474609077,-109729.17,-109081.016,-2130.4932,-32075.645,-52654.46,-55242.758,-33413.086,50771.895
1227551.4786090741,-109820.516,-109169.805,-2159.668,-32116.984,-52706.953,-55313.4,-33500.938,50670.332
1227551.4826090713,-109782.35,-109130.01,-2140.8286,-32092.652,-52695.926,-55295.535,-33484.703,50702.23
1227551.4866090685,-109656.984,-109007.125,-2095.581,-32030.64,-52619.59,-55206.992,-33382.04,50827.68
1227551.4906090656,-109626.67,-108977.74,-2083.2927,-32019.695,-52595.746,-55172.57,-33331.79,50877.08
1227551.4946090628,-109725.43,-109071.82,-2117.7979,-32071.168,-52664.797,-55236.25,-33397.867,50787.03
1227551.49860906,-109818.36,-109160.81,-2150.6755,-32114.543,-52736.33,-55306.684,-33490.6,50686.81
1227551.5026090571,-109774.13,-109113.94,-2130.2085,-32087.2,-52702.8,-55289.43,-33474.203,50723.145
1227551.5066090543,-109646.33,-108988.125,-2087.199,-32025.025,-52622.97,-55206.055,-33362.957,50858.44
1227551.5106090514,-109614.83,-108958.42,-2077.9216,-32016.643,-52609.375,-55174.4,-33314.453,50906.008
1227551.5146090486,-109712.0,-109048.016,-2111.0435,-32065.512,-52632.734,-55237.266,-33387.332,50820.273
1227551.5186090458,-109800.26,-109132.086,-2141.5203,-32108.521,-52692.14,-55308.188,-33478.23,50724.324
1227551.522609043,-109761.44,-109093.75,-2126.7498,-32084.434,-52675.008,-55291.3,-33461.266,50756.27
1227551.52660904,-109641.04,-108975.67,-2083.903,-32024.578,-52608.4,-55208.17,-33359.133,50874.27
1227551.5306090373,-109606.04,-108940.48,-2070.6787,-32012.29,-52586.266,-55174.6,-33308.84,50915.367
1227551.5346090344,-109703.695,-109035.61,-2103.353,-32063.273,-52641.684,-55244.02,-33388.797,50813.438
1227551.5386090316,-109794.27,-109127.77,-2139.323,-32106.121,-52694.99,-55316.855,-33485.598,50709.8
1227551.5426090288,-109750.164,-109090.05,-2126.6277,-32081.3,-52690.676,-55296.715,-33467.33,50739.258
1227551.546609026,-109631.19,-108974.49,-2083.8218,-32020.102,-52621.38,-55210.695,-33363.28,50864.34
1227551.550609023,-109604.78,-108950.36,-2076.4568,-32013.186,-52596.477,-55179.04,-33316.324,50910.77
1227551.5546090202,-109709.76,-109057.5,-2116.3738,-32068.889,-52651.125,-55242.883,-33391.156,50822.797
1227551.5586090174,-109801.92,-109147.18,-2143.026,-32109.254,-52704.348,-55311.85,-33480.387,50719.65
1227551.5626090146,-109756.88,-109100.1,-2118.571,-32080.04,-52688.273,-55288.25,-33456.016,50754.883
1227551.5666090117,-109643.805,-108983.85,-2085.775,-32021.975,-52628.215,-55203.9,-33350.586,50880.82
1227551.570609009,-109613.57,-108951.54,-2078.6948,-32012.453,-52612.145,-55174.6,-33306.234,50927.37
1227551.574609006,-109714.73,-109052.66,-2115.6414,-32065.594,-52654.99,-55241.05,-33382.406,50830.934
1227551.5786090032,-109809.77,-109142.336,-2150.9604,-32108.074,-52702.516,-55314.617,-33477.664,50722.293
1227551.5826090002,-109767.17,-109101.85,-2135.0913,-32080.527,-52691.203,-55291.426,-33462.89,50745.73
1227551.5866089973,-109646.98,-108989.22,-2090.5762,-32020.266,-52622.48,-55206.26,-33360.555,50865.52
1227551.5906089945,-109622.16,-108966.92,-2079.0203,-32013.795,-52603.844,-55175.01,-33316.734,50906.535
1227551.5946089916,-109724.25,-109062.5,-2118.856,-32068.727,-52656.7,-55242.395,-33395.59,50815.715
1227551.5986089888,-109816.86,-109145.875,-2149.17,-32111.125,-52718.832,-55310.793,-33483.523,50716.92
1227551.602608986,-109771.65,-109100.305,-2130.8594,-32082.357,-52694.824,-55288.86,-33464.03,50742.516
1227551.6066089831,-109648.6,-108980.47,-2091.2273,-32021.242,-52619.47,-55207.887,-33362.062,50861.453
1227551.6106089803,-109620.65,-108953.01,-2082.479,-32012.168,-52591.188,-55175.863,-33316.0,50907.758
1227551.6146089775,-109734.26,-109061.37,-2125.7324,-32072.104,-52644.125,-55244.508,-33396.2,50809.41
1227551.6186089746,-109822.23,-109145.47,-2151.5708,-32111.654,-52704.633,-55313.07,-33484.418,50703.37
1227551.6226089718,-109764.53,-109092.05,-2127.9297,-32083.213,-52693.24,-55290.812,-33467.45,50739.055
1227551.626608969,-109644.086,-108976.04,-2083.496,-32021.078,-52621.094,-55205.812,-33364.707,50866.336
1227551.630608966,-109614.51,-108945.16,-2068.278,-32007.326,-52589.277,-55176.758,-33319.38,50920.777
1227551.6346089633,-109720.95,-109046.15,-2111.0435,-32062.582,-52637.777,-55249.676,-33403.566,50821.414
1227551.6386089604,-109818.28,-109142.016,-2145.3857,-32107.463,-52699.383,-55321.414,-33494.67,50716.35
1227551.6426089576,-109771.2,-109092.82,-2129.476,-32079.916,-52680.707,-55296.47,-33471.316,50752.32
1227551.6466089548,-109646.9,-108976.08,-2085.9375,-32018.84,-52615.848,-55211.59,-33365.64,50883.953
1227551.650608952,-109618.78,-108951.664,-2073.7305,-32010.256,-52598.51,-55182.984,-33322.145,50927.734
1227551.654608949,-109720.7,-109053.39,-2108.0322,-32066.0,-52650.23,-55250.9,-33400.516,50826.582
1227551.6586089463,-109812.79,-109143.84,-2138.7126,-32112.469,-52698.324,-55320.11,-33487.957,50726.156
1227551.6626089434,-109765.14,-109095.87,-2119.0186,-32082.56,-52704.305,-55293.785,-33462.363,50762.207
1227551.6666089406,-109645.1,-108981.695,-2077.3926,-32019.736,-52639.406,-55206.465,-33356.934,50885.945
1227551.6706089377,-109624.96,-108961.71,-2069.7837,-32015.627,-52612.55,-55180.707,-33320.64,50928.71
1227551.674608935,-109726.52,-109055.46,-2107.0557,-32070.395,-52665.652,-55248.414,-33397.258,50831.465
1227551.678608932,-109815.31,-109142.22,-2136.1492,-32111.777,-52714.723,-55316.246,-33482.18,50733.766
1227551.6826089292,-109761.31,-109090.26,-2121.338,-32078.695,-52685.957,-55289.88,-33459.555,50772.176
1227551.6866089264,-109639.41,-108973.35,-2080.5664,-32018.107,-52616.457,-55206.543,-33357.75,50889.0
1227551.6906089236,-109614.51,-108951.87,-2070.272,-32012.533,-52597.94,-55183.312,-33322.023,50923.504
1227551.6946089207,-109723.15,-109057.91,-2105.9165,-32068.035,-52646.973,-55252.44,-33402.832,50826.54
1227551.6986089179,-109815.88,-109147.51,-2136.434,-32111.37,-52694.336,-55320.07,-33487.71,50730.633
1227551.702608915,-109767.945,-109102.016,-2123.169,-32081.137,-52682.13,-55294.844,-33461.754,50774.05
1227551.7066089122,-109651.25,-108988.08,-2080.119,-32021.934,-52620.688,-55210.246,-33356.16,50901.816
1227551.7106089094,-109623.62,-108964.84,-2065.4705,-32013.713,-52605.67,-55184.492,-33311.24,50948.0
1227551.7146089065,-109727.42,-109065.68,-2103.5972,-32067.629,-52658.0,-55252.16,-33390.668,50844.117
1227551.7186089037,-109817.266,-109148.234,-2135.2134,-32107.504,-52701.785,-55316.773,-33475.79,50744.754
1227551.7226089009,-109767.055,-109096.88,-2116.6587,-32076.377,-52683.473,-55293.215,-33453.207,50784.14
1227551.7266088978,-109645.96,-108978.64,-2079.7935,-32015.139,-52618.004,-55207.44,-33352.54,50906.82
1227551.730608895,-109626.06,-108960.734,-2071.6147,-32011.191,-52604.453,-55182.05,-33315.758,50930.098
1227551.7346088921,-109733.28,-109062.46,-2109.7412,-32068.076,-52655.6,-55251.71,-33398.316,50825.887
1227551.7386088893,-109817.34,-109142.99,-2146.81,-32108.562,-52707.234,-55320.477,-33486.29,50731.73
1227551.7426088864,-109763.15,-109091.92,-2126.994,-32074.139,-52686.08,-55291.71,-33459.758,50773.684
1227551.7466088836,-109644.945,-108978.31,-2091.919,-32015.219,-52624.473,-55207.562,-33358.805,50892.906
1227551.7506088808,-109621.18,-108962.85,-2079.4678,-32009.604,-52606.773,-55181.64,-33317.547,50934.816
1227551.754608878,-109731.81,-109070.11,-2121.1345,-32069.377,-52660.727,-55254.477,-33401.57,50832.113
1227551.758608875,-109822.59,-109156.7,-2149.4548,-32109.742,-52713.867,-55321.82,-33488.527,50736.816
1227551.7626088723,-109768.03,-109101.93,-2127.767,-32074.668,-52687.258,-55291.75,-33458.7,50778.32
1227551.7666088694,-109645.59,-108985.27,-2082.8452,-32011.557,-52611.33,-55202.92,-33353.72,50898.152
1227551.7706088666,-109629.88,-108967.82,-2076.945,-32013.266,-52600.996,-55183.066,-33322.266,50925.215
1227551.7746088638,-109742.39,-109075.08,-2122.2332,-32072.43,-52659.426,-55258.344,-33406.984,50817.547
1227551.778608861,-109823.49,-109155.32,-2154.1748,-32109.54,-52697.39,-55322.676,-33496.582,50724.45
1227551.782608858,-109766.32,-109099.9,-2129.9236,-32076.174,-52671.43,-55292.727,-33466.473,50770.957
1227551.7866088552,-109646.445,-108980.23,-2086.9956,-32016.684,-52613.566,-55205.85,-33359.133,50901.613
1227551.7906088524,-109627.16,-108967.164,-2078.4507,-32012.818,-52599.57,-55183.066,-33322.39,50933.555
1227551.7946088496,-109737.15,-109077.35,-2118.978,-32069.785,-52659.547,-55254.965,-33411.258,50818.44
1227551.7986088467,-109820.44,-109160.28,-2147.7866,-32109.865,-52706.992,-55322.023,-33499.88,50719.85
1227551.802608844,-109765.06,-109106.29,-2125.0,-32077.068,-52676.68,-55290.57,-33469.523,50768.27
1227551.806608841,-109637.49,-108984.336,-2082.5603,-32015.3,-52615.195,-55201.582,-33361.37,50896.324
1227551.8106088382,-109619.51,-108963.586,-2075.0327,-32013.55,-52601.605,-55180.055,-33326.254,50923.504
1227551.8146088354,-109731.29,-109074.586,-2116.211,-32073.895,-52660.2,-55255.78,-33412.56,50816.773
1227551.8186088325,-109820.44,-109165.695,-2144.043,-32115.764,-52717.246,-55325.277,-33498.414,50726.523
1227551.8226088297,-109762.13,-109107.875,-2120.6462,-32081.057,-52696.047,-55294.883,-33465.74,50774.293
1227551.8266088269,-109639.94,-108988.445,-2080.5664,-32019.613,-52636.965,-55206.87,-33357.42,50907.555
1227551.830608824,-109621.46,-108965.17,-2071.8994,-32013.918,-52639.73,-55181.926,-33322.836,50935.387
1227551.8346088212,-109729.62,-109069.586,-2110.5552,-32069.785,-52686.727,-55252.89,-33406.25,50820.883
1227551.8386088184,-109816.66,-109154.71,-2141.8457,-32106.65,-52710.734,-55316.45,-33488.61,50731.895
1227551.8426088155,-109762.336,-109102.46,-2120.8904,-32074.79,-52690.797,-55288.94,-33462.04,50771.445
1227551.8466088127,-109647.38,-108989.83,-2083.6997,-32016.36,-52623.945,-55206.83,-33363.406,50885.133
1227551.8506088099,-109634.484,-108976.93,-2077.9624,-32014.975,-52608.074,-55185.793,-33325.113,50923.75
1227551.854608807,-109738.81,-109074.55,-2111.2876,-32069.662,-52668.094,-55255.008,-33403.035,50831.87
1227551.8586088042,-109824.63,-109150.11,-2139.323,-32107.342,-52723.27,-55315.51,-33484.703,50737.996
1227551.8626088013,-109767.74,-109089.52,-2118.2861,-32072.756,-52690.594,-55284.305,-33454.266,50781.375
1227551.8666087985,-109649.21,-108974.37,-2079.5493,-32014.65,-52617.15,-55201.867,-33354.695,50895.145
1227551.8706087954,-109637.086,-108964.12,-2074.992,-32017.05,-52610.35,-55184.164,-33324.625,50925.742
1227551.8746087926,-109750.82,-109072.15,-2114.502,-32078.94,-52670.168,-55259.484,-33414.266,50811.566
1227551.8786087898,-109836.47,-109151.984,-2143.921,-32115.48,-52716.23,-55324.18,-33500.125,50722.984
1227551.882608787,-109775.234,-109096.12,-2123.0876,-32077.15,-52695.273,-55288.25,-33463.785,50780.723
1227551.886608784,-109655.64,-108976.2,-2080.363,-32017.783,-52637.207,-55202.434,-33358.523,50908.367
1227551.8906087813,-109643.07,-108963.914,-2076.2534,-32017.092,-52618.492,-55182.945,-33326.863,50932.902
1227551.8946087784,-109754.32,-109070.97,-2113.4849,-32075.074,-52680.38,-55253.215,-33412.312,50818.89
1227551.8986087756,-109834.84,-109149.87,-2140.7878,-32111.574,-52728.152,-55320.8,-33496.34,50728.68
1227551.9026087727,-109775.11,-109095.83,-2125.8953,-32077.8,-52695.965,-55287.844,-33461.1,50786.703
1227551.90660877,-109654.71,-108980.35,-2084.6355,-32020.428,-52626.953,-55204.47,-33358.44,50916.098
1227551.910608767,-109640.586,-108964.484,-2075.0327,-32019.004,-52607.75,-55184.9,-33329.55,50938.113
1227551.9146087642,-109749.84,-109072.35,-2116.1704,-32078.615,-52675.906,-55258.26,-33418.582,50816.69
1227551.9186087614,-109836.8,-109156.82,-2148.1528,-32118.125,-52729.98,-55325.97,-33504.312,50710.29
1227551.9226087586,-109774.664,-109096.16,-2123.7793,-32079.63,-52699.383,-55292.2,-33470.703,50759.24
1227551.9266087557,-109650.516,-108980.39,-2081.8687,-32019.328,-52633.63,-55207.316,-33365.926,50892.09
1227551.9306087529,-109642.22,-108973.76,-2079.2644,-32019.125,-52619.062,-55186.934,-33335.246,50925.62
1227551.93460875,-109752.12,-109084.88,-2121.5415,-32077.516,-52687.38,-55262.94,-33423.258,50823.203
1227551.9386087472,-109831.71,-109158.53,-2148.4783,-32112.875,-52729.535,-55326.582,-33502.848,50734.62
1227551.9426087444,-109767.74,-109098.59,-2122.1519,-32074.709,-52695.56,-55289.188,-33467.45,50780.6
1227551.9466087415,-109644.984,-108981.125,-2080.3223,-32014.812,-52625.49,-55203.004,-33362.47,50902.67
1227551.9506087387,-109636.27,-108967.77,-2074.0967,-32015.951,-52619.63,-55185.344,-33334.188,50922.445
1227551.9546087359,-109745.484,-109072.43,-2113.5662,-32071.738,-52674.316,-55257.652,-33425.496,50807.66
1227551.958608733,-109831.42,-109155.69,-2144.4907,-32109.621,-52721.19,-55323.04,-33509.605,50718.426
1227551.9626087302,-109776.01,-109099.61,-2124.9187,-32078.004,-52703.004,-55293.418,-33471.52,50773.03
1227551.9666087274,-109659.55,-108989.51,-2085.083,-32021.73,-52627.24,-55208.742,-33367.84,50899.984
1227551.9706087245,-109645.836,-108982.1,-2075.8464,-32020.916,-52606.203,-55185.71,-33335.652,50927.734
1227551.9746087217,-109744.76,-109079.555,-2110.067,-32073.895,-52658.773,-55257.855,-33420.777,50820.027
1227551.9786087188,-109819.99,-109153.52,-2139.1196,-32107.748,-52706.746,-55318.24,-33505.086,50726.277
1227551.982608716,-109762.58,-109096.805,-2121.704,-32074.627,-52692.668,-55286.83,-33474.57,50776.043
1227551.9866087132,-109638.23,-108975.18,-2079.3052,-32015.707,-52639.242,-55203.41,-33365.562,50905.477
1227551.9906087103,-109619.59,-108959.84,-2066.569,-32013.998,-52612.957,-55188.07,-33335.41,50933.066
1227551.9946087075,-109736.086,-109075.4,-2103.353,-32074.383,-52673.22,-55264.73,-33426.066,50814.984
1227551.9986087047,-109818.28,-109155.805,-2134.8877,-32111.736,-52723.27,-55328.332,-33511.19,50720.664
1227552.0026087018,-109757.53,-109095.14,-2114.3394,-32072.633,-52693.44,-55289.188,-33469.035,50775.066
1227552.006608699,-109631.31,-108975.02,-2073.8525,-32011.76,-52616.21,-55205.363,-33363.12,50895.633
1227552.0106086961,-109619.71,-108964.12,-2067.9119,-32015.098,-52603.273,-55192.18,-33335.855,50925.254
1227552.014608693,-109729.695,-109073.2,-2101.7253,-32074.424,-52667.727,-55267.824,-33419.273,50830.406
1227552.0186086902,-109806.36,-109145.15,-2132.5278,-32110.434,-52713.91,-55328.29,-33495.605,50746.582
1227552.0226086874,-109746.914,-109087.61,-2110.5957,-32073.283,-52688.07,-55290.49,-33461.832,50796.023
1227552.0266086846,-109625.05,-108974.77,-2071.696,-32014.934,-52615.277,-55206.18,-33360.883,50917.93
1227552.0306086817,-109608.52,-108962.61,-2070.3533,-32016.766,-52606.367,-55188.76,-33331.383,50939.21
1227552.034608679,-109722.336,-109073.57,-2107.8696,-32073.406,-52667.81,-55264.367,-33417.93,50835.734
1227552.038608676,-109805.18,-109154.26,-2138.5093,-32110.8,-52724.53,-55326.38,-33502.645,50744.996
1227552.0426086732,-109740.36,-109088.42,-2114.5427,-32070.354,-52705.406,-55285.727,-33468.344,50796.227
1227552.0466086704,-109623.21,-108971.97,-2071.8994,-32008.912,-52653.242,-55199.63,-33365.113,50914.105
1227552.0506086675,-109621.75,-108972.86,-2070.4753,-32015.871,-52634.117,-55192.305,-33347.21,50921.266
1227552.0546086647,-109734.74,-109085.53,-2115.7227,-32077.068,-52676.23,-55272.18,-33437.46,50814.656
1227552.0586086619,-109812.5,-109156.375,-2140.0962,-32110.88,-52722.37,-55330.566,-33511.027,50737.715
1227552.062608659,-109748.5,-109085.734,-2117.2283,-32072.348,-52696.004,-55293.05,-33470.055,50794.8
1227552.0666086562,-109634.445,-108972.62,-2076.701,-32014.242,-52625.33,-55206.465,-33361.86,50920.98
1227552.0706086534,-109622.36,-108963.51,-2071.289,-32017.092,-52628.99,-55192.75,-33335.043,50946.13
1227552.0746086505,-109733.24,-109073.04,-2108.0322,-32077.598,-52686.445,-55270.184,-33427.53,50830.77
1227552.0786086477,-109816.25,-109149.984,-2131.2664,-32114.504,-52725.383,-55333.133,-33509.48,50740.52
1227552.0826086449,-109747.4,-109086.8,-2112.1013,-32076.377,-52696.453,-55293.01,-33465.945,50801.27
1227552.086608642,-109628.42,-108972.7,-2074.0562,-32018.312,-52632.61,-55210.53,-33364.34,50919.312
1227552.0906086392,-109625.37,-108967.94,-2068.3594,-32020.428,-52626.875,-55195.52,-33338.95,50940.31
1227552.0946086363,-109741.09,-109078.125,-2110.8398,-32079.348,-52685.47,-55271.85,-33427.652,50831.18
1227552.0986086335,-109813.89,-109147.26,-2135.661,-32113.566,-52725.586,-55336.47,-33507.812,50741.7
1227552.1026086307,-109745.41,-109081.79,-2106.9744,-32073.447,-52689.09,-55298.18,-33474.12,50799.48
1227552.1066086278,-109631.23,-108974.57,-2066.732,-32016.195,-52628.094,-55213.91,-33372.438,50918.945
1227552.110608625,-109629.93,-108973.76,-2064.5347,-32020.06,-52613.69,-55201.66,-33346.477,50931.277
1227552.1146086222,-109743.9,-109085.375,-2107.2998,-32081.178,-52674.03,-55276.043,-33436.523,50817.06
1227552.1186086193,-109816.25,-109156.09,-2130.9001,-32114.707,-52724.49,-55332.645,-33509.89,50733.684
1227552.1226086165,-109746.18,-109083.87,-2103.353,-32074.627,-52693.156,-55293.99,-33466.434,50798.3
1227552.1266086136,-109631.11,-108973.48,-2060.5063,-32017.416,-52623.82,-55210.41,-33364.95,50918.99
1227552.1306086108,-109625.0,-108972.25,-2066.8945,-32023.113,-52611.613,-55200.89,-33346.64,50933.188
1227552.134608608,-109743.695,-109085.82,-2106.8115,-32086.346,-52683.88,-55278.04,-33439.293,50822.023
1227552.1386086051,-109823.77,-109160.85,-2130.1677,-32120.729,-52734.54,-55336.145,-33511.8,50742.11
1227552.1426086023,-109751.59,-109093.06,-2105.4282,-32080.975,-52700.24,-55294.68,-33463.91,50808.35
1227552.1466085995,-109636.4,-108976.85,-2065.3076,-32025.229,-52630.656,-55211.02,-33358.805,50926.68
1227552.1506085966,-109645.19,-108982.1,-2065.9995,-32031.902,-52623.74,-55201.785,-33338.46,50940.31
1227552.1546085938,-109759.484,-109094.85,-2110.5552,-32090.537,-52688.355,-55279.707,-33434.41,50836.02
1227552.1586085907,-109828.78,-109161.95,-2133.8706,-32122.152,-52732.3,-55342.53,-33512.492,50758.223
1227552.1626085879,-109758.67,-109091.48,-2107.2185,-32079.754,-52696.453,-55301.555,-33466.066,50811.605
1227552.166608585,-109637.49,-108974.45,-2065.267,-32021.078,-52629.477,-55215.21,-33358.93,50926.312
1227552.1706085822,-109628.79,-108966.84,-2061.8083,-32025.92,-52621.992,-55203.613,-33334.96,50940.555
1227552.1746085794,-109740.03,-109077.27,-2105.8757,-32085.94,-52683.39,-55282.96,-33429.117,50826.54
1227552.1786085765,-109810.34,-109149.46,-2130.6152,-32118.043,-52725.383,-55338.83,-33504.477,50749.31
1227552.1826085737,-109736.17,-109079.266,-2101.4404,-32075.562,-52688.887,-55295.617,-33456.055,50819.336
1227552.1866085709,-109622.766,-108970.14,-2056.5593,-32019.613,-52623.902,-55213.098,-33350.914,50943.605
1227552.190608568,-109620.81,-108969.37,-2055.7861,-32024.822,-52620.605,-55205.85,-33331.3,50950.605
1227552.1946085652,-109734.945,-109077.15,-2098.0632,-32085.41,-52680.91,-55283.41,-33427.574,50829.227
1227552.1986085624,-109807.21,-109147.14,-2123.169,-32118.49,-52734.17,-55339.562,-33501.668,50756.27
1227552.2026085595,-109730.72,-109075.32,-2093.1804,-32074.424,-52693.562,-55293.703,-33452.8,50826.336
1227552.2066085567,-109614.625,-108961.02,-2056.5593,-32016.604,-52621.504,-55208.703,-33346.68,50950.766
1227552.2106085538,-109619.23,-108965.945,-2061.32,-32026.164,-52619.832,-55203.332,-33328.125,50959.72
1227552.214608551,-109738.125,-109085.86,-2105.6724,-32089.316,-52694.664,-55285.28,-33426.35,50844.44
1227552.2186085482,-109814.21,-109160.0,-2131.3071,-32120.322,-52736.25,-55342.246,-33501.383,50756.96
1227552.2226085453,-109739.18,-109089.16,-2100.3826,-32077.963,-52693.24,-55300.293,-33454.633,50827.76
1227552.2266085425,-109625.695,-108977.22,-2069.0513,-32022.502,-52628.46,-55219.484,-33356.363,50946.902
1227552.2306085397,-109634.16,-108986.58,-2071.289,-32034.547,-52634.645,-55214.195,-33339.805,50950.195
1227552.2346085368,-109748.78,-109103.36,-2111.9385,-32093.791,-52694.867,-55294.07,-33432.047,50835.9
1227552.238608534,-109821.945,-109174.445,-2130.534,-32123.008,-52739.83,-55348.473,-33508.18,50753.5
1227552.2426085311,-109744.1,-109100.1,-2103.9634,-32079.225,-52702.15,-55299.24,-33458.945,50820.19
1227552.2466085283,-109622.195,-108982.22,-2064.6973,-32021.037,-52629.844,-55214.4,-33352.254,50950.645
1227552.2506085255,-109625.82,-108984.42,-2066.8132,-32029.299,-52605.47,-55209.92,-33332.156,50961.754
1227552.2546085226,-109750.77,-109106.695,-2115.9263,-32096.03,-52668.742,-55293.133,-33428.223,50832.97
1227552.2586085198,-109818.77,-109170.17,-2133.9111,-32123.252,-52728.23,-55348.227,-33500.203,50751.465
1227552.262608517,-109735.48,-109089.56,-2101.8882,-32077.922,-52701.5,-55300.62,-33450.97,50824.18
1227552.2666085141,-109622.16,-108977.42,-2064.7788,-32022.014,-52634.32,-55213.867,-33350.06,50948.527
1227552.2706085113,-109626.95,-108985.64,-2062.9478,-32030.275,-52629.598,-55209.598,-33338.055,50960.938
1227552.2746085085,-109739.22,-109101.56,-2107.5034,-32091.838,-52691.69,-55291.465,-33428.914,50851.074
1227552.2786085056,-109811.85,-109164.76,-2127.3193,-32121.42,-52735.555,-55341.84,-33494.914,50772.055
1227552.2826085028,-109735.97,-109086.305,-2097.6562,-32076.092,-52695.07,-55293.094,-33444.867,50841.188
1227552.2866085,-109617.07,-108971.32,-2061.849,-32019.207,-52625.9,-55212.65,-33348.43,50957.93
1227552.290608497,-109624.27,-108979.375,-2060.7097,-32029.217,-52626.18,-55210.207,-33334.473,50968.465
1227552.2946084943,-109743.33,-109098.92,-2100.1384,-32091.473,-52694.664,-55288.78,-33425.05,50851.605
1227552.2986084914,-109815.96,-109166.836,-2125.285,-32121.46,-52736.043,-55343.06,-33498.047,50771.28
1227552.3026084884,-109734.664,-109084.72,-2100.2605,-32075.645,-52693.035,-55299.6,-33449.586,50840.78
1227552.3066084855,-109621.34,-108975.75,-2059.4077,-32021.12,-52630.086,-55215.58,-33349.0,50956.34
1227552.3106084827,-109625.57,-108981.0,-2066.0808,-32031.82,-52633.14,-55209.395,-33336.266,50960.652
1227552.3146084798,-109744.59,-109098.92,-2107.5034,-32093.547,-52696.086,-55287.355,-33432.17,50839.152
1227552.318608477,-109815.43,-109167.93,-2124.5933,-32121.828,-52736.25,-55341.516,-33504.273,50760.99
1227552.3226084742,-109730.19,-109082.6,-2102.0916,-32072.795,-52687.215,-55292.523,-33451.05,50840.7
1227552.3266084713,-109614.71,-108968.875,-2062.9883,-32015.422,-52617.88,-55208.215,-33347.656,50962.242
1227552.3306084685,-109631.39,-108983.97,-2069.336,-32030.396,-52627.688,-55207.6,-33336.02,50960.41
1227552.3346084657,-109746.14,-109094.69,-2111.206,-32090.414,-52681.113,-55287.76,-33423.83,50855.145
1227552.3386084628,-109815.555,-109163.21,-2137.207,-32121.543,-52714.438,-55342.855,-33498.66,50775.15
1227552.34260846,-109734.87,-109085.984,-2108.724,-32075.277,-52693.562,-55294.68,-33447.797,50840.78
1227552.3466084572,-109617.805,-108972.82,-2072.3064,-32018.516,-52624.227,-55213.176,-33349.246,50954.957
1227552.3506084543,-109629.766,-108985.68,-2077.7183,-32029.338,-52623.863,-55211.996,-33342.0,50951.457
1227552.3546084515,-109749.23,-109102.625,-2119.2222,-32091.514,-52691.734,-55290.734,-33435.75,50842.41
1227552.3586084486,-109816.25,-109169.27,-2140.2183,-32120.037,-52739.34,-55343.06,-33505.13,50770.633
1227552.3626084458,-109741.375,-109093.875,-2114.9497,-32074.26,-52701.863,-55292.89,-33454.062,50837.484
1227552.366608443,-109621.14,-108974.29,-2069.8242,-32013.51,-52635.664,-55204.836,-33350.504,50960.53
1227552.3706084401,-109632.41,-108982.836,-2073.4458,-32028.361,-52628.543,-55206.18,-33340.17,50965.21
1227552.3746084373,-109752.16,-109104.17,-2116.862,-32089.193,-52696.086,-55286.703,-33437.38,50846.6
1227552.3786084345,-109818.28,-109175.01,-2138.6719,-32119.102,-52743.45,-55337.89,-33510.582,50768.15
1227552.3826084316,-109735.68,-109094.89,-2108.724,-32072.674,-52704.184,-55289.023,-33456.3,50830.85
1227552.3866084288,-109617.805,-108978.6,-2066.9353,-32017.701,-52634.645,-55210.207,-33354.94,50951.66
1227552.390608426,-109629.27,-108988.98,-2072.6318,-32029.99,-52630.168,-55206.87,-33341.31,50956.953
1227552.394608423,-109753.09,-109106.086,-2113.607,-32091.066,-52693.727,-55287.07,-33442.547,50841.188
1227552.3986084203,-109811.41,-109160.52,-2136.6782,-32117.637,-52722.496,-55338.707,-33508.668,50767.99
1227552.4026084174,-109723.8,-109074.55,-2102.3357,-32067.303,-52687.055,-55286.176,-33448.406,50846.234
1227552.4066084146,-109609.83,-108963.55,-2059.204,-32010.662,-52606.285,-55200.44,-33340.74,50972.86
1227552.4106084118,-109628.18,-108982.06,-2067.8306,-32025.432,-52616.742,-55199.914,-33332.723,50976.93
1227552.414608409,-109750.414,-109106.04,-2110.6365,-32086.508,-52689.656,-55279.83,-33428.63,50866.254
1227552.418608406,-109808.59,-109163.66,-2130.6968,-32114.299,-52729.74,-55333.496,-33498.25,50786.418
1227552.4226084033,-109721.56,-109076.586,-2098.226,-32067.262,-52687.746,-55281.008,-33442.71,50852.01
1227552.4266084004,-109609.016,-108961.51,-2061.8083,-32010.744,-52620.08,-55196.414,-33341.35,50969.402
1227552.4306083976,-109627.04,-108976.24,-2068.441,-32025.596,-52618.492,-55200.074,-33335.613,50963.38
1227552.4346083947,-109748.01,-109095.016,-2109.7412,-32086.264,-52702.68,-55281.535,-33433.39,50848.758
1227552.438608392,-109814.414,-109158.125,-2126.8718,-32114.016,-52753.664,-55332.805,-33504.355,50766.766
1227552.442608389,-109725.06,-109069.46,-2097.8599,-32063.438,-52711.47,-55278.08,-33444.297,50847.21
1227552.446608386,-109616.46,-108960.82,-2066.0808,-32011.516,-52653.688,-55200.24,-33347.86,50963.016
1227552.4506083832,-109633.75,-108976.61,-2075.3582,-32028.117,-52619.55,-55206.543,-33344.566,50959.395
1227552.4546083803,-109753.055,-109096.73,-2114.38,-32089.52,-52683.066,-55287.926,-33441.203,50841.105
1227552.4586083775,-109819.016,-109161.664,-2132.9753,-32116.049,-52734.254,-55336.508,-33508.3,50774.54
1227552.4626083747,-109734.46,-109079.555,-2104.8584,-32067.953,-52677.45,-55285.402,-33454.348,50854.74
1227552.4666083718,-109617.68,-108966.555,-2066.2842,-32011.598,-52618.367,-55205.363,-33353.516,50971.6
1227552.470608369,-109633.38,-108981.086,-2066.9353,-32023.195,-52624.676,-55207.97,-33345.215,50972.414
1227552.4746083661,-109753.38,-109098.27,-2107.4219,-32084.922,-52692.508,-55291.465,-33441.734,50850.26
1227552.4786083633,-109814.58,-109157.02,-2125.7732,-32110.922,-52731.895,-55343.71,-33509.684,50771.812
1227552.4826083605,-109725.18,-109067.1,-2097.819,-32065.879,-52688.355,-55290.812,-33455.363,50851.523
1227552.4866083576,-109616.375,-108958.01,-2061.198,-32013.266,-52632.49,-55207.6,-33351.24,50973.633
1227552.4906083548,-109630.945,-108974.125,-2065.918,-32028.484,-52638.875,-55211.305,-33348.88,50961.02
1227552.494608352,-109749.02,-109089.234,-2106.364,-32088.46,-52695.926,-55291.71,-33442.953,50840.21
1227552.4986083491,-109806.69,-109141.4,-2124.0642,-32111.33,-52734.05,-55340.742,-33506.105,50773.52
1227552.5026083463,-109715.414,-109050.26,-2090.739,-32059.49,-52688.07,-55289.188,-33447.715,50857.18
1227552.5066083435,-109607.836,-108943.85,-2047.5668,-32004.273,-52620.527,-55207.887,-33349.855,50975.344
1227552.5106083406,-109623.05,-108962.57,-2056.6,-32021.078,-52628.38,-55209.15,-33343.02,50972.008
1227552.5146083378,-109739.016,-109079.836,-2102.702,-32084.555,-52694.46,-55291.18,-33440.31,50858.6
1227552.518608335,-109805.26,-109144.984,-2126.0173,-32112.672,-52738.445,-55341.027,-33503.664,50793.094
1227552.522608332,-109717.94,-109061.52,-2093.9941,-32063.234,-52701.457,-55284.996,-33441.61,50879.64
1227552.5266083293,-109601.484,-108947.63,-2055.7861,-32006.756,-52622.805,-55201.906,-33339.723,51001.63
1227552.5306083264,-109621.586,-108964.93,-2062.5,-32020.63,-52634.727,-55204.715,-33338.38,50996.42
1227552.5346083236,-109748.01,-109086.96,-2105.6724,-32084.596,-52707.44,-55291.06,-33440.43,50875.773
1227552.5386083208,-109811.69,-109149.414,-2127.6855,-32109.904,-52740.03,-55341.188,-33506.105,50798.91
1227552.542608318,-109723.555,-109065.02,-2093.9128,-32060.14,-52694.746,-55286.543,-33447.88,50877.605
1227552.546608315,-109611.45,-108959.11,-2054.2808,-32005.697,-52632.855,-55204.348,-33349.652,50992.84
1227552.5506083122,-109631.39,-108982.79,-2060.9946,-32020.51,-52627.645,-55210.207,-33348.27,50978.965
1227552.5546083094,-109756.02,-109102.83,-2099.0398,-32080.607,-52681.926,-55294.434,-33445.8,50859.17
1227552.5586083066,-109808.39,-109155.44,-2121.0125,-32104.168,-52736.574,-55344.934,-33511.395,50792.48
1227552.5626083037,-109712.89,-109059.82,-2090.2507,-32050.05,-52681.97,-55288.535,-33453.25,50864.3
1227552.566608301,-109605.266,-108951.375,-2055.3386,-31995.77,-52611.207,-55208.254,-33356.69,50975.63
1227552.570608298,-109631.27,-108976.69,-2068.156,-32020.184,-52626.668,-55220.094,-33361.492,50958.984
1227552.5746082952,-109756.59,-109096.73,-2110.1482,-32083.172,-52694.824,-55299.113,-33454.348,50843.875
1227552.5786082924,-109813.56,-109152.23,-2128.8657,-32104.656,-52723.96,-55342.367,-33511.434,50786.703
1227552.5826082896,-109721.73,-109066.66,-2096.517,-32054.81,-52687.215,-55288.37,-33452.312,50864.95
1227552.5866082865,-109616.17,-108960.33,-2059.6924,-32002.443,-52627.93,-55209.35,-33356.324,50971.805
1227552.5906082836,-109635.87,-108975.79,-2068.034,-32017.863,-52633.06,-55214.234,-33352.945,50968.953
1227552.5946082808,-109755.7,-109095.3,-2107.666,-32079.143,-52697.31,-55296.47,-33449.668,50855.836
1227552.598608278,-109806.69,-109144.82,-2122.9656,-32101.97,-52723.51,-55340.945,-33503.582,50795.37
1227552.6026082751,-109713.75,-109053.23,-2091.5122,-32050.172,-52678.633,-55285.32,-33439.58,50875.33
1227552.6066082723,-109602.09,-108946.984,-2054.6062,-31995.037,-52617.066,-55206.383,-33339.195,50989.34
1227552.6106082695,-109623.17,-108966.92,-2062.4187,-32015.016,-52633.3,-55212.484,-33334.39,50986.816
1227552.6146082666,-109743.125,-109086.47,-2101.237,-32076.701,-52697.39,-55293.133,-33427.125,50873.008
1227552.6186082638,-109795.86,-109137.62,-2114.746,-32100.22,-52727.336,-55340.332,-33483.523,50814.58
1227552.622608261,-109698.695,-109036.91,-2076.6602,-32045.33,-52674.97,-55282.434,-33418.742,50902.59
1227552.626608258,-109590.5,-108927.53,-2040.0392,-31989.666,-52616.21,-55202.516,-33321.492,51014.445
1227552.6306082553,-109620.28,-108958.984,-2049.3164,-32011.027,-52630.332,-55210.734,-33325.684,50994.914
1227552.6346082524,-109741.87,-109078.82,-2088.8672,-32073.121,-52691.895,-55292.24,-33428.793,50871.625
1227552.6386082496,-109797.125,-109131.23,-2106.8115,-32095.297,-52722.25,-55340.414,-33494.184,50804.12
1227552.6426082468,-109708.42,-109043.87,-2076.4976,-32042.521,-52683.066,-55286.176,-33433.594,50892.01
1227552.646608244,-109598.39,-108937.664,-2038.0046,-31986.98,-52618.45,-55204.633,-33333.17,51007.527
1227552.650608241,-109630.45,-108968.59,-2054.0771,-32011.271,-52628.418,-55215.09,-33339.723,50985.883
1227552.6546082383,-109760.38,-109095.95,-2101.4812,-32079.348,-52699.14,-55299.074,-33442.223,50856.242
1227552.6586082354,-109811.32,-109146.69,-2119.873,-32099.367,-52725.223,-55340.742,-33501.02,50797.773
1227552.6626082326,-109716.72,-109054.24,-2086.4258,-32045.412,-52683.84,-55284.71,-33443.44,50876.305
1227552.6666082297,-109611.66,-108950.85,-2055.6235,-31994.02,-52624.105,-55208.62,-33347.008,50978.312
1227552.670608227,-109642.375,-108979.29,-2068.8071,-32013.836,-52627.24,-55219.688,-33351.766,50960.777
1227552.674608224,-109764.98,-109100.55,-2113.1187,-32076.418,-52690.227,-55301.027,-33452.11,50837.85
1227552.6786082212,-109828.695,-109163.29,-2134.1147,-32102.418,-52732.22,-55344.523,-33516.848,50768.35
1227552.6826082184,-109740.85,-109075.4,-2101.4404,-32048.016,-52683.15,-55282.35,-33450.36,50858.32
1227552.6866082156,-109631.48,-108963.71,-2067.4236,-31996.338,-52622.887,-55204.715,-33352.38,50976.89
1227552.6906082127,-109655.27,-108986.984,-2072.3064,-32017.986,-52636.8,-55216.96,-33359.863,50957.766
1227552.69460821,-109786.336,-109116.3,-2114.2578,-32081.219,-52713.055,-55302.492,-33459.11,50838.34
1227552.698608207,-109846.766,-109179.164,-2133.8706,-32105.266,-52748.414,-55350.793,-33516.36,50778.035
1227552.7026082042,-109748.945,-109089.12,-2101.4,-32053.59,-52695.8,-55293.05,-33447.594,50864.055
1227552.7066082014,-109641.93,-108984.13,-2067.1387,-32000.164,-52634.44,-55209.027,-33345.297,50980.062
1227552.7106081985,-109675.3,-109014.85,-2080.0376,-32021.73,-52641.97,-55219.117,-33347.656,50970.176
1227552.7146081957,-109799.24,-109135.87,-2119.4663,-32085.287,-52711.508,-55305.664,-33447.754,50846.438
1227552.7186081929,-109839.56,-109179.445,-2133.7485,-32103.762,-52741.824,-55345.867,-33499.84,50792.81
1227552.72260819,-109738.24,-109078.17,-2097.046,-32050.334,-52710.53,-55282.227,-33425.336,50894.29
1227552.7266081872,-109632.77,-108976.69,-2060.6284,-32000.041,-52669.56,-55204.836,-33331.137,50999.797
1227552.7306081841,-109656.17,-109008.79,-2062.4187,-32019.816,-52662.03,-55215.13,-33336.14,50981.04
1227552.7346081813,-109779.34,-109131.516,-2108.0322,-32084.637,-52714.887,-55301.19,-33439.617,50855.145
1227552.7386081784,-109831.625,-109179.0,-2123.8608,-32104.777,-52742.473,-55341.473,-33499.84,50790.938
1227552.7426081756,-109735.68,-109083.26,-2088.6638,-32048.3,-52691.816,-55279.297,-33433.105,50887.25
1227552.7466081728,-109630.25,-108979.74,-2053.7925,-31998.17,-52628.543,-55201.703,-33336.957,51005.535
1227552.75060817,-109665.49,-109012.29,-2064.6973,-32023.154,-52630.535,-55215.13,-33344.402,50984.99
1227552.754608167,-109785.0,-109129.52,-2108.9275,-32084.758,-52684.285,-55301.395,-33443.074,50858.32
1227552.7586081643,-109829.63,-109174.03,-2121.338,-32103.354,-52721.438,-55341.15,-33498.008,50803.55
1227552.7626081614,-109734.3,-109083.54,-2088.6638,-32050.863,-52673.016,-55277.59,-33429.324,50902.832
1227552.7666081586,-109630.91,-108979.86,-2053.1414,-31999.188,-52617.15,-55199.22,-33331.46,51017.01
1227552.7706081558,-109664.516,-109008.47,-2064.087,-32022.096,-52634.277,-55213.137,-33334.434,50996.258
1227552.774608153,-109783.2,-109130.375,-2103.7192,-32086.346,-52703.125,-55297.203,-33428.508,50865.645
1227552.77860815,-109833.01,-109179.89,-2118.3677,-32105.754,-52737.47,-55337.445,-33481.73,50811.035
1227552.7826081472,-109740.73,-109091.35,-2086.8735,-32053.184,-52687.42,-55274.54,-33412.516,50905.926
1227552.7866081444,-109640.586,-108996.26,-2054.24,-32001.914,-52627.117,-55200.195,-33317.426,51014.12
1227552.7906081416,-109668.74,-109018.97,-2063.7207,-32024.375,-52639.203,-55213.176,-33322.145,50995.04
1227552.7946081387,-109790.61,-109134.85,-2103.3123,-32086.02,-52708.863,-55298.06,-33421.875,50880.086
1227552.798608136,-109837.24,-109183.44,-2118.1235,-32104.371,-52744.1,-55340.902,-33478.516,50820.56
1227552.802608133,-109737.02,-109082.85,-2084.8796,-32047.69,-52683.594,-55279.055,-33415.61,50897.664
1227552.8066081302,-109631.19,-108975.914,-2050.6592,-31996.582,-52606.812,-55203.656,-33326.906,51003.83
1227552.8106081274,-109665.86,-109012.21,-2064.0464,-32023.154,-52629.152,-55218.387,-33336.305,50981.977
1227552.8146081246,-109786.055,-109128.664,-2104.9805,-32084.025,-52703.695,-55298.83,-33432.21,50864.586
1227552.8186081217,-109836.305,-109174.97,-2119.995,-32103.436,-52738.934,-55340.13,-33485.27,50813.113
1227552.8226081189,-109736.29,-109076.016,-2085.2866,-32049.725,-52686.117,-55278.605,-33418.01,50907.15
1227552.826608116,-109632.25,-108973.63,-2051.2695,-31998.496,-52623.58,-55200.44,-33321.82,51014.773
1227552.8306081132,-109666.71,-109011.07,-2061.2388,-32024.7,-52639.57,-55217.367,-33329.227,50997.03
1227552.8346081104,-109781.664,-109122.6,-2106.893,-32086.467,-52702.273,-55302.004,-33430.664,50875.203
1227552.8386081075,-109822.516,-109160.32,-2122.274,-32101.238,-52734.457,-55340.78,-33487.43,50818.688
1227552.8426081047,-109724.29,-109062.87,-2086.2632,-32045.9,-52679.688,-55278.688,-33421.387,50909.71
1227552.8466081019,-109621.18,-108964.84,-2053.9146,-31996.746,-52619.47,-55201.582,-33325.156,51023.926
1227552.850608099,-109657.64,-109001.34,-2068.563,-32021.363,-52629.355,-55217.98,-33339.4,50997.97
1227552.8546080962,-109783.29,-109123.78,-2110.6365,-32083.213,-52697.227,-55298.953,-33436.44,50872.03
1227552.8586080933,-109826.625,-109168.664,-2120.7683,-32101.523,-52738.527,-55337.89,-33487.67,50815.43
1227552.8626080905,-109726.73,-109070.6,-2085.5713,-32047.893,-52684.004,-55275.96,-33421.51,50904.95
1227552.8666080877,-109622.484,-108969.41,-2056.8848,-31999.39,-52612.59,-55200.727,-33324.79,51017.17
1227552.8706080848,-109662.84,-109007.45,-2069.58,-32026.45,-52619.71,-55218.832,-33338.297,50992.92
1227552.8746080818,-109787.88,-109126.75,-2111.6943,-32089.234,-52700.44,-55303.754,-33444.094,50866.254
1227552.878608079,-109830.61,-109169.234,-2123.2505,-32101.482,-52736.98,-55340.617,-33497.56,50814.13
1227552.882608076,-109732.42,-109074.18,-2087.5652,-32047.527,-52684.613,-55278.242,-33430.664,50906.13
1227552.8866080733,-109633.43,-108973.48,-2054.0366,-32001.588,-52627.363,-55204.875,-33335.004,51012.617
1227552.8906080704,-109673.266,-109009.89,-2066.8132,-32028.078,-52643.395,-55222.82,-33343.547,50988.77
1227552.8946080676,-109796.59,-109130.86,-2109.7412,-32091.758,-52712.242,-55304.242,-33442.3,50856.57
1227552.8986080647,-109843.8,-109178.76,-2125.9766,-32110.516,-52739.18,-55342.004,-33490.926,50804.08
1227552.902608062,-109737.02,-109077.11,-2086.6294,-32051.88,-52683.96,-55278.32,-33419.477,50903.08
1227552.906608059,-109631.72,-108973.92,-2048.706,-32000.205,-52629.76,-55203.004,-33326.863,51011.92
1227552.9106080562,-109666.67,-109009.69,-2065.8774,-32025.84,-52643.23,-55219.402,-33338.746,50987.633
1227552.9146080534,-109794.97,-109131.76,-2111.0435,-32089.805,-52702.11,-55303.957,-33442.06,50857.383
1227552.9186080506,-109837.81,-109174.28,-2120.4429,-32106.65,-52743.695,-55342.9,-33496.22,50797.363
1227552.9226080477,-109731.41,-109067.67,-2084.2693,-32047.404,-52695.64,-55278.77,-33425.336,50896.04
1227552.926608045,-109626.914,-108963.38,-2050.6592,-31996.826,-52637.41,-55204.43,-33332.766,51005.168
1227552.930608042,-109667.93,-109007.37,-2062.9883,-32025.148,-52652.547,-55226.32,-33348.918,50973.105
1227552.9346080392,-109792.195,-109132.77,-2103.6377,-32087.24,-52725.06,-55309.41,-33447.39,50854.414
1227552.9386080364,-109835.49,-109175.336,-2118.856,-32102.865,-52747.152,-55345.297,-33500.613,50803.02
1227552.9426080335,-109734.3,-109074.836,-2085.3271,-32048.057,-52691.816,-55282.227,-33439.008,50884.32
1227552.9466080307,-109633.06,-108976.04,-2054.7283,-31998.414,-52633.098,-55206.18,-33348.51,50989.098
1227552.9506080279,-109674.16,-109018.84,-2070.3125,-32023.723,-52653.484,-55223.633,-33361.207,50963.707
1227552.954608025,-109807.82,-109152.39,-2117.0654,-32088.014,-52724.773,-55314.13,-33466.797,50839.684
1227552.9586080222,-109844.65,-109187.95,-2124.4712,-32102.865,-52755.008,-55352.094,-33517.293,50787.395
1227552.9626080194,-109730.836,-109077.516,-2090.332,-32045.818,-52696.13,-55288.332,-33448.934,50881.676
1227552.9666080165,-109628.34,-108977.22,-2063.8835,-31996.746,-52636.152,-55212.16,-33355.754,50987.918
1227552.9706080137,-109666.79,-109014.85,-2078.817,-32021.852,-52650.27,-55232.016,-33371.664,50959.312
1227552.9746080108,-109795.05,-109139.81,-2125.8953,-32087.525,-52722.13,-55318.32,-33474.285,50832.195
1227552.978608008,-109831.83,-109174.03,-2135.8643,-32101.482,-52751.426,-55354.656,-33523.234,50774.54
1227552.9826080052,-109714.56,-109061.445,-2098.5515,-32041.709,-52696.21,-55289.473,-33451.906,50872.52
1227552.9866080023,-109610.766,-108956.42,-2063.436,-31990.805,-52633.75,-55211.55,-33360.35,50980.67
1227552.9906079995,-109662.36,-109006.8,-2082.9265,-32022.463,-52650.637,-55232.383,-33379.56,50948.406
1227552.9946079967,-109787.44,-109132.125,-2126.3835,-32084.637,-52721.477,-55318.973,-33480.266,50827.273
1227552.9986079938,-109831.22,-109174.445,-2135.3354,-32098.879,-52750.125,-55354.13,-33527.957,50781.58
1227553.002607991,-109730.15,-109077.97,-2100.9116,-32041.79,-52697.227,-55286.46,-33452.8,50877.85
1227553.0066079882,-109624.8,-108976.0,-2069.9463,-31994.305,-52633.953,-55213.867,-33361.98,50979.617
1227553.0106079853,-109669.07,-109015.625,-2087.606,-32023.195,-52643.598,-55237.793,-33385.05,50948.49
1227553.0146079825,-109788.25,-109128.55,-2125.407,-32083.904,-52716.555,-55322.348,-33484.78,50828.613
1227553.0186079794,-109830.695,-109163.29,-2137.0444,-32099.57,-52746.625,-55356.812,-33530.64,50776.613
1227553.0226079766,-109726.81,-109060.67,-2101.4812,-32042.766,-52695.395,-55293.54,-33460.777,50872.273
1227553.0266079737,-109624.39,-108959.03,-2067.3423,-31993.572,-52634.727,-55221.723,-33368.938,50981.57
1227553.030607971,-109665.41,-108996.83,-2086.5073,-32023.44,-52650.758,-55243.004,-33379.07,50954.387
1227553.034607968,-109792.97,-109120.53,-2125.0815,-32088.258,-52726.766,-55329.348,-33479.25,50833.09
1227553.0386079652,-109827.44,-109157.555,-2137.6548,-32101.523,-52742.35,-55361.695,-33522.79,50789.96
1227553.0426079624,-109718.67,-109052.086,-2099.2432,-32042.074,-52684.695,-55291.832,-33447.31,50879.56
1227553.0466079595,-109620.85,-108948.86,-2064.9822,-31994.71,-52625.203,-55217.855,-33357.79,50980.348
1227553.0506079567,-109668.54,-108994.836,-2076.8638,-32026.37,-52654.785,-55240.44,-33371.22,50958.418
1227553.0546079539,-109791.55,-109114.79,-2116.8213,-32088.46,-52727.094,-55325.36,-33468.793,50840.414
1227553.058607951,-109828.945,-109148.64,-2128.3367,-32102.092,-52745.65,-55356.934,-33512.25,50797.934
1227553.0626079482,-109719.484,-109041.016,-2092.5293,-32043.01,-52690.31,-55286.34,-33431.887,50898.195
1227553.0666079454,-109617.07,-108939.17,-2060.2622,-31995.566,-52633.914,-55213.586,-33339.64,51002.035
1227553.0706079425,-109670.695,-108989.625,-2082.479,-32029.826,-52658.773,-55240.52,-33366.336,50961.14
1227553.0746079397,-109797.98,-109114.625,-2126.4243,-32093.67,-52729.207,-55326.62,-33472.293,50834.92
1227553.0786079369,-109826.87,-109145.96,-2136.5154,-32101.889,-52770.266,-55354.777,-33514.85,50791.26
1227553.082607934,-109718.71,-109040.2,-2098.3481,-32040.324,-52723.473,-55284.18,-33435.793,50890.504
1227553.0866079312,-109621.34,-108945.68,-2064.2905,-31992.92,-52653.08,-55208.293,-33346.56,50999.31
1227553.0906079283,-109671.31,-108994.43,-2083.2927,-32026.734,-52664.348,-55234.742,-33367.758,50965.496
1227553.0946079255,-109796.43,-109113.61,-2125.6511,-32090.334,-52732.504,-55321.82,-33473.55,50838.746
1227553.0986079227,-109826.09,-109140.83,-2136.9224,-32100.506,-52749.227,-55351.562,-33516.805,50791.426
1227553.1026079198,-109715.414,-109036.55,-2098.7957,-32042.686,-52694.258,-55285.08,-33436.77,50887.74
1227553.106607917,-109614.42,-108945.97,-2065.023,-31995.525,-52641.766,-55210.53,-33342.33,50995.16
1227553.1106079142,-109662.36,-108994.1,-2082.6824,-32026.652,-52657.96,-55234.17,-33365.684,50957.887
1227553.1146079113,-109793.99,-109118.94,-2127.36,-32091.39,-52718.14,-55323.12,-33472.25,50835.734
1227553.1186079085,-109835.414,-109159.836,-2135.905,-32106.162,-52751.14,-55354.902,-33520.02,50792.402
1227553.1226079057,-109723.48,-109051.72,-2096.6392,-32046.389,-52700.117,-55285.28,-33439.293,50896.73
1227553.1266079028,-109624.88,-108954.1,-2063.6802,-31999.553,-52646.363,-55216.027,-33350.992,50993.816
1227553.1306079,-109680.14,-109006.27,-2081.4617,-32032.105,-52672.895,-55243.777,-33378.5,50943.484
1227553.1346078971,-109801.4,-109124.07,-2121.338,-32094.158,-52740.113,-55330.08,-33482.79,50817.383
1227553.1386078943,-109830.28,-109152.47,-2137.8174,-32104.086,-52762.656,-55358.195,-33524.78,50781.496
1227553.1426078915,-109723.19,-109050.375,-2099.0398,-32044.312,-52700.035,-55287.395,-33447.55,50884.688
1227553.1466078886,-109624.48,-108960.125,-2065.7554,-31998.943,-52654.34,-55217.734,-33359.293,50979.74
1227553.1506078858,-109673.95,-109007.04,-2080.4443,-32027.385,-52665.367,-55239.83,-33378.785,50939.984
1227553.154607883,-109801.84,-109126.39,-2118.6523,-32091.879,-52725.75,-55324.465,-33477.133,50821.902
1227553.1586078801,-109836.76,-109157.84,-2131.0222,-32106.691,-52770.67,-55359.336,-33520.633,50781.17
1227553.162607877,-109723.48,-109048.47,-2097.6562,-32044.15,-52719.77,-55287.723,-33442.914,50884.277
1227553.1666078742,-109628.5,-108957.93,-2066.976,-31999.594,-52639.203,-55219.77,-33359.133,50979.94
1227553.1706078714,-109684.94,-109012.945,-2085.3271,-32035.197,-52664.062,-55250.285,-33386.844,50938.113
1227553.1746078685,-109806.36,-109130.54,-2128.8657,-32097.047,-52738.08,-55336.387,-33485.23,50819.133
1227553.1786078657,-109825.81,-109155.93,-2131.7139,-32101.523,-52759.2,-55360.68,-33518.27,50783.69
1227553.1826078629,-109713.14,-109047.2,-2093.872,-32042.482,-52699.14,-55288.617,-33441.895,50880.168
1227553.18660786,-109616.17,-108951.83,-2058.5125,-31997.396,-52639.85,-55215.414,-33354.13,50983.6
1227553.1906078572,-109671.1,-109007.125,-2081.5837,-32032.064,-52668.133,-55243.492,-33377.523,50945.273
1227553.1946078544,-109794.48,-109130.01,-2120.5242,-32094.076,-52735.312,-55329.957,-33480.957,50820.395
1227553.1986078515,-109829.516,-109163.29,-2128.947,-32105.186,-52752.035,-55359.418,-33521.973,50777.14
1227553.2026078487,-109712.94,-109047.77,-2092.448,-32041.262,-52687.91,-55289.188,-33441.45,50889.406
1227553.2066078458,-109622.64,-108955.37,-2063.1104,-31994.264,-52641.4,-55216.84,-33354.9,50988.73
1227553.210607843,-109680.664,-109011.72,-2082.8857,-32028.688,-52667.48,-55246.664,-33381.836,50946.414
1227553.2146078402,-109804.08,-109132.86,-2126.709,-32093.385,-52739.625,-55335.938,-33482.625,50820.64
1227553.2186078373,-109837.0,-109168.664,-2136.1084,-32104.738,-52765.586,-55362.918,-33524.375,50779.34
1227553.2226078345,-109721.56,-109061.94,-2099.5688,-32045.615,-52708.457,-55289.797,-33445.883,50881.39
1227553.2266078317,-109620.53,-108959.07,-2068.8477,-31996.867,-52628.133,-55215.7,-33354.94,50986.777
1227553.2306078288,-109677.984,-109008.586,-2084.9204,-32030.479,-52666.098,-55246.707,-33381.594,50940.51
1227553.234607826,-109805.55,-109136.516,-2126.3022,-32095.256,-52738.73,-55337.08,-33484.99,50818.32
1227553.2386078232,-109836.43,-109166.99,-2128.1333,-32105.348,-52763.957,-55361.453,-33516.97,50784.668
1227553.2426078203,-109723.516,-109058.96,-2094.9302,-32043.824,-52706.668,-55285.28,-33430.83,50895.71
1227553.2466078175,-109633.67,-108968.914,-2071.7773,-31999.797,-52653.117,-55217.207,-33347.25,50989.91
1227553.2506078146,-109690.516,-109025.88,-2088.7046,-32034.994,-52682.332,-55246.137,-33377.523,50942.223
1227553.2546078118,-109811.04,-109148.234,-2132.9346,-32099.773,-52752.566,-55332.113,-33482.137,50820.027
1227553.258607809,-109840.46,-109178.555,-2140.6658,-32108.645,-52766.4,-55358.117,-33519.043,50779.5
1227553.2626078061,-109719.52,-109059.734,-2097.2087,-32039.389,-52698.855,-55283.9,-33436.08,50879.965
1227553.2666078033,-109625.53,-108966.76,-2066.6912,-31995.037,-52644.41,-55215.008,-33350.383,50979.168
1227553.2706078005,-109686.32,-109024.09,-2085.3271,-32031.576,-52671.184,-55243.043,-33373.66,50940.473
1227553.2746077976,-109811.98,-109146.61,-2124.878,-32095.582,-52741.17,-55332.6,-33477.742,50816.367
1227553.2786077948,-109831.914,-109170.375,-2130.778,-32102.744,-52760.664,-55363.203,-33512.535,50788.82
1227553.282607792,-109709.555,-109053.63,-2089.3962,-32037.395,-52700.074,-55292.848,-33432.902,50898.48
1227553.286607789,-109617.68,-108962.08,-2059.4077,-31992.596,-52635.457,-55224.33,-33353.477,50994.59
1227553.2906077863,-109681.69,-109023.12,-2081.6245,-32028.361,-52669.027,-55257.324,-33385.05,50947.715
1227553.2946077834,-109808.44,-109144.05,-2127.36,-32091.27,-52734.742,-55342.246,-33484.254,50823.242
1227553.2986077806,-109827.56,-109161.42,-2129.9644,-32095.785,-52763.31,-55365.645,-33514.85,50796.836
1227553.3026077778,-109709.72,-109045.21,-2093.2617,-32033.082,-52711.426,-55295.453,-33435.426,50903.566
1227553.3066077747,-109618.82,-108961.23,-2062.0117,-31989.666,-52647.383,-55228.76,-33353.152,51000.33
1227553.3106077719,-109681.69,-109026.82,-2080.1597,-32027.67,-52675.58,-55260.5,-33382.652,50956.87
1227553.314607769,-109806.64,-109147.38,-2120.2393,-32091.92,-52745.73,-55345.38,-33484.863,50832.48
1227553.3186077662,-109826.336,-109167.766,-2128.4587,-32098.918,-52762.94,-55368.004,-33521.61,50796.67
1227553.3226077633,-109712.2,-109056.766,-2092.0818,-32037.395,-52709.434,-55293.5,-33440.715,50893.35
1227553.3266077605,-109621.26,-108967.9,-2064.6567,-31994.06,-52652.832,-55226.2,-33351.81,50985.477
1227553.3306077577,-109680.664,-109024.01,-2080.8513,-32029.582,-52676.473,-55257.53,-33380.332,50937.094
1227553.3346077548,-109813.6,-109151.984,-2126.2615,-32095.135,-52752.363,-55340.984,-33481.203,50809.773
1227553.338607752,-109832.16,-109170.984,-2130.9814,-32102.621,-52769.86,-55367.066,-33517.375,50782.066
1227553.3426077492,-109720.586,-109057.3,-2087.728,-32041.057,-52707.074,-55294.598,-33433.31,50893.8
1227553.3466077463,-109627.32,-108966.64,-2060.913,-31997.314,-52651.207,-55225.14,-33347.21,50984.457
1227553.3506077435,-109690.8,-109027.59,-2081.3396,-32034.994,-52680.46,-55256.188,-33383.79,50931.03
1227553.3546077406,-109817.47,-109145.19,-2126.994,-32098.064,-52756.105,-55343.957,-33484.457,50809.57
1227553.3586077378,-109838.79,-109165.81,-2133.8706,-32104.33,-52776.57,-55368.734,-33520.957,50773.64
1227553.362607735,-109720.99,-109052.984,-2095.4185,-32040.53,-52712.605,-55291.223,-33435.223,50881.594
1227553.3666077321,-109635.22,-108968.75,-2064.494,-32001.14,-52659.465,-55223.023,-33350.547,50975.75
1227553.3706077293,-109694.87,-109031.25,-2086.7107,-32039.877,-52685.875,-55259.24,-33385.094,50930.867
1227553.3746077265,-109818.89,-109150.92,-2127.4414,-32102.541,-52754.805,-55343.996,-33483.887,50812.703
1227553.3786077236,-109838.71,-109170.54,-2133.8298,-32106.691,-52771.65,-55365.234,-33516.44,50786.785
1227553.3826077208,-109720.91,-109054.24,-2092.7734,-32042.645,-52708.375,-55290.895,-33432.984,50904.99
1227553.386607718,-109630.82,-108964.12,-2062.8662,-32000.123,-52647.95,-55226.156,-33353.64,51001.63
1227553.3906077151,-109696.375,-109026.94,-2085.612,-32039.023,-52683.555,-55261.965,-33389.324,50946.7
1227553.3946077123,-109821.414,-109147.14,-2130.1677,-32104.533,-52758.344,-55353.64,-33498.617,50805.746
1227553.3986077094,-109836.8,-109156.05,-2133.4636,-32106.162,-52769.613,-55375.855,-33527.875,50774.21
1227553.4026077066,-109721.93,-109041.51,-2093.872,-32041.627,-52710.86,-55299.523,-33443.81,50883.223
1227553.4066077038,-109635.625,-108959.44,-2064.5752,-32002.076,-52662.07,-55236.613,-33366.13,50977.418
1227553.410607701,-109698.734,-109013.11,-2086.2224,-32039.512,-52691.53,-55270.754,-33398.195,50927.125
1227553.414607698,-109820.93,-109126.75,-2127.0752,-32098.553,-52760.906,-55355.88,-33498.496,50807.66
1227553.4186076953,-109841.48,-109151.984,-2135.4167,-32104.412,-52771.812,-55378.055,-33530.113,50776.492
1227553.4226076924,-109719.2,-109034.06,-2093.872,-32039.43,-52710.695,-55298.75,-33446.617,50892.01
1227553.4266076896,-109631.63,-108948.2,-2069.4988,-31999.635,-52645.71,-55231.773,-33359.215,50985.637
1227553.4306076868,-109701.83,-109015.14,-2090.21,-32040.895,-52690.918,-55269.004,-33393.395,50930.504
1227553.434607684,-109818.32,-109130.13,-2127.1973,-32101.4,-52758.26,-55355.51,-33494.1,50817.383
1227553.438607681,-109831.22,-109144.49,-2125.3662,-32102.5,-52761.395,-55374.594,-33520.633,50796.957
1227553.4426076782,-109713.51,-109030.234,-2082.4382,-32039.064,-52700.035,-55297.12,-33435.63,50902.1
1227553.4466076754,-109630.05,-108948.04,-2057.3325,-32001.059,-52650.84,-55232.18,-33356.895,50987.59
1227553.4506076723,-109693.77,-109012.9,-2077.5146,-32039.104,-52685.06,-55265.016,-33386.8,50941.12
1227553.4546076695,-109814.62,-109131.63,-2118.164,-32101.93,-52756.43,-55350.508,-33486.94,50822.715
1227553.4586076667,-109831.38,-109147.625,-2120.3208,-32106.08,-52779.055,-55370.04,-33516.97,50799.113
1227553.4626076638,-109710.21,-109027.19,-2080.4038,-32042.318,-52719.484,-55294.355,-33432.09,50912.844
1227553.466607661,-109622.44,-108945.68,-2055.8677,-32000.0,-52663.25,-55226.035,-33350.344,51005.21
1227553.4706076581,-109689.13,-109015.83,-2079.061,-32039.309,-52692.02,-55263.43,-33386.883,50947.918
1227553.4746076553,-109816.0,-109138.31,-2121.8262,-32103.312,-52760.867,-55353.883,-33496.01,50815.188
1227553.4786076525,-109832.6,-109145.266,-2125.4478,-32105.959,-52771.895,-55374.676,-33525.27,50790.69
1227553.4826076496,-109708.945,-109023.56,-2079.6306,-32038.738,-52700.36,-55297.49,-33439.293,50902.547
1227553.4866076468,-109620.53,-108940.23,-2051.1475,-31997.193,-52649.78,-55232.75,-33360.598,50988.406
1227553.490607644,-109690.68,-109007.45,-2074.9512,-32041.262,-52683.434,-55269.98,-33401.773,50927.37
1227553.4946076411,-109811.85,-109126.43,-2115.2344,-32102.5,-52748.863,-55355.266,-33505.13,50804.12
1227553.4986076383,-109824.47,-109136.36,-2117.5945,-32101.523,-52757.734,-55377.727,-33533.12,50785.08
1227553.5026076355,-109705.57,-109014.734,-2073.161,-32034.182,-52715.902,-55299.97,-33441.49,50905.684
1227553.5066076326,-109616.58,-108931.4,-2042.684,-31993.043,-52653.28,-55232.3,-33360.434,51003.785
1227553.5106076298,-109682.26,-108997.484,-2069.336,-32032.512,-52678.875,-55268.395,-33397.992,50951.457
1227553.514607627,-109807.91,-109120.41,-2114.5427,-32096.965,-52754.965,-55356.324,-33500.938,50828.37
1227553.518607624,-109824.63,-109130.086,-2119.1814,-32097.332,-52761.477,-55375.613,-33529.42,50801.473
1227553.5226076213,-109699.99,-109009.12,-2075.2769,-32031.047,-52700.36,-55295.29,-33441.652,50909.06
1227553.5266076184,-109617.48,-108933.59,-2046.1427,-31992.066,-52654.91,-55235.434,-33362.71,51002.605
1227553.5306076156,-109691.2,-109004.195,-2070.2312,-32034.262,-52686.2,-55275.516,-33399.617,50944.46
1227553.5346076128,-109812.09,-109120.04,-2109.0088,-32096.193,-52749.594,-55358.44,-33496.094,50817.87
1227553.53860761,-109818.445,-109128.42,-2106.6082,-32094.768,-52758.14,-55373.047,-33521.16,50805.586
1227553.542607607,-109697.68,-109013.02,-2068.9697,-32032.229,-52694.5,-55298.3,-33439.008,50913.332
1227553.5466076043,-109618.21,-108935.59,-2053.711,-31996.217,-52650.312,-55239.016,-33370.08,50990.97
1227553.5506076014,-109693.28,-109009.89,-2076.9043,-32039.186,-52683.555,-55276.855,-33410.484,50926.68
1227553.5546075986,-109816.41,-109126.836,-2114.6648,-32100.465,-52748.66,-55359.66,-33502.973,50820.883
1227553.5586075957,-109826.3,-109137.78,-2115.6414,-32100.424,-52765.22,-55373.66,-33526.082,50805.3
1227553.562607593,-109706.79,-109023.12,-2076.823,-32037.232,-52698.73,-55295.695,-33436.65,50914.145
1227553.56660759,-109621.016,-108939.5,-2052.7751,-31998.047,-52647.383,-55229.574,-33354.82,51009.89
1227553.5706075872,-109692.586,-109009.85,-2082.8044,-32040.041,-52680.38,-55268.92,-33396.08,50947.55
1227553.5746075844,-109817.75,-109131.06,-2128.8657,-32105.266,-52751.06,-55356.69,-33494.996,50824.668
1227553.5786075816,-109825.93,-109140.47,-2131.3477,-32106.365,-52766.684,-55372.03,-33520.305,50802.41
1227553.5826075787,-109700.16,-109015.305,-2090.454,-32040.285,-52701.54,-55292.074,-33431.152,50918.336
1227553.5866075759,-109622.93,-108942.18,-2063.7615,-32004.64,-52652.06,-55228.965,-33355.227,51004.76
1227553.590607573,-109695.805,-109019.62,-2090.5356,-32046.754,-52694.62,-55271.08,-33396.566,50945.723
1227553.59460757,-109819.26,-109139.24,-2131.5918,-32108.236,-52766.074,-55357.586,-33499.758,50822.47
1227553.5986075671,-109830.695,-109143.11,-2134.8064,-32105.348,-52770.793,-55371.137,-33520.836,50805.625
1227553.6026075643,-109709.555,-109022.46,-2094.279,-32037.395,-52700.277,-55290.285,-33431.07,50923.625
1227553.6066075615,-109627.08,-108942.67,-2069.865,-31999.838,-52646.688,-55226.645,-33352.01,51015.504
1227553.6106075586,-109700.69,-109018.44,-2095.7847,-32045.248,-52691.69,-55268.312,-33394.9,50949.75
1227553.6146075558,-109823.9,-109140.95,-2133.545,-32106.568,-52753.055,-55355.51,-33496.38,50827.07
1227553.618607553,-109835.05,-109150.59,-2133.3823,-32104.656,-52749.023,-55367.516,-33515.26,50810.184
1227553.6226075501,-109711.266,-109028.69,-2093.7095,-32038.047,-52696.004,-55285.727,-33424.36,50929.2
1227553.6266075473,-109633.95,-108953.86,-2068.1968,-32001.547,-52658.406,-55226.688,-33351.117,51010.703
1227553.6306075444,-109711.19,-109027.875,-2091.5122,-32046.754,-52692.426,-55271.566,-33395.67,50947.957
1227553.6346075416,-109831.586,-109144.53,-2133.1382,-32106.08,-52749.105,-55360.19,-33497.273,50828.004
1227553.6386075388,-109837.89,-109148.6,-2133.8298,-32102.418,-52763.918,-55374.023,-33518.84,50807.66
1227553.642607536,-109717.695,-109028.24,-2093.1804,-32035.441,-52707.195,-55295.41,-33432.496,50915.652
1227553.646607533,-109642.625,-108957.4,-2070.272,-31999.879,-52658.57,-55235.273,-33357.625,51008.547
1227553.6506075303,-109719.52,-109036.13,-2100.2605,-32046.998,-52702.92,-55281.496,-33405.723,50941.816
1227553.6546075274,-109840.58,-109157.516,-2138.8755,-32109.416,-52776.57,-55366.7,-33509.727,50810.184
1227553.6586075246,-109836.59,-109158.9,-2134.5215,-32103.72,-52781.047,-55376.996,-33526.98,50793.703
1227553.6626075218,-109714.28,-109039.266,-2092.9363,-32036.174,-52712.527,-55297.242,-33440.105,50904.055
1227553.666607519,-109637.21,-108963.46,-2071.818,-32003.094,-52653.035,-55238.16,-33368.855,50981.855
1227553.670607516,-109713.664,-109037.93,-2105.4688,-32050.254,-52711.55,-55283.246,-33414.47,50915.367
1227553.6746075132,-109832.32,-109153.94,-2145.2231,-32111.086,-52778.484,-55367.72,-33513.957,50804.812
1227553.6786075104,-109838.75,-109160.445,-2141.317,-32104.941,-52783.45,-55378.34,-33529.95,50797.977
1227553.6826075076,-109717.05,-109041.79,-2099.5688,-32038.576,-52710.53,-55301.555,-33440.758,50917.36
1227553.6866075047,-109643.234,-108970.83,-2072.998,-32002.727,-52662.68,-55244.996,-33367.758,50995.08
1227553.690607502,-109722.78,-109046.96,-2102.0916,-32048.463,-52701.703,-55291.426,-33415.977,50931.64
1227553.694607499,-109842.45,-109160.2,-2141.2761,-32110.842,-52769.29,-55375.938,-33520.145,50809.57
1227553.6986074962,-109847.58,-109164.11,-2140.2588,-32107.342,-52783.082,-55384.36,-33535.2,50800.457
1227553.7026074934,-109719.32,-109036.22,-2098.9177,-32040.488,-52711.914,-55302.816,-33438.395,50922.566
1227553.7066074905,-109641.12,-108963.87,-2078.125,-32005.088,-52662.312,-55242.23,-33364.098,51004.68
1227553.7106074877,-109719.0,-109045.45,-2105.062,-32048.91,-52701.906,-55287.395,-33411.5,50935.02
1227553.7146074849,-109843.266,-109169.56,-2145.752,-32110.88,-52776.125,-55375.246,-33512.168,50811.973
1227553.718607482,-109844.89,-109173.75,-2140.503,-32108.604,-52783.125,-55384.562,-33525.637,50803.426
1227553.7226074792,-109717.98,-109049.85,-2095.3777,-32039.877,-52712.484,-55300.254,-33429.16,50927.938
1227553.7266074764,-109643.97,-108974.66,-2070.4346,-32004.152,-52663.86,-55240.44,-33355.062,51009.97
1227553.7306074735,-109725.18,-109052.25,-2099.3652,-32052.492,-52709.188,-55285.688,-33406.09,50941.734
1227553.7346074707,-109846.97,-109169.92,-2138.7126,-32111.654,-52774.742,-55370.28,-33511.027,50823.934
1227553.7386074676,-109845.79,-109169.27,-2129.354,-32104.86,-52775.758,-55378.703,-33523.4,50816.406
